SPECTRUM - MS,
1004.RAW,
FTMS + p ESI Full ms [50.00-1000.00],
Scan #: 1-40,
RT: 0.01-1.97,
AV: 40,
m/z,Intensity

50.0035,291.3
50.0202,149.6
50.0211,458
50.0456,87.7
50.0602,155.4
50.0603,159.8
50.0626,533
50.0883,107.6
50.0926,76.4
50.0941,169.2
50.1274,99.8
50.1446,446
50.1653,638.9
50.1758,20.1
50.1785,133.4
50.1814,584.4
50.189,92.3
50.1981,690.6
50.2008,310.8
50.212,198.9
50.2189,137.2
50.2256,205.1
50.2373,729.5
50.2408,549.6
50.2628,400.9
50.2632,245.9
50.2637,96.8
50.2645,133.8
50.2646,150
50.2648,117.7
50.2724,115.8
50.2779,120
50.281,280.2
50.2872,182.8
50.2918,508.6
50.32,100.2
50.3222,477.4
50.3354,134.3
50.3615,427.5
50.3657,239.7
50.3684,114.6
50.3784,152.5
50.3961,148.3
50.4017,16.6
50.4338,471.4
50.4618,491.2
50.4672,438.2
50.4741,144.8
50.4856,17.9
50.4912,135.3
50.4932,77.4
50.5029,165.4
50.5187,681.6
50.5424,258.7
50.5603,288
50.5752,88.9
50.5772,94.5
50.5946,82.8
50.5951,263.1
50.6076,672
50.6158,165
50.6233,486.6
50.6276,559.8
50.6313,174.9
50.644,18.2
50.6582,393.2
50.6659,131.2
50.6685,79.6
50.6774,191.5
50.6783,162.4
50.6821,489
50.6866,524.2
50.6955,218
50.7188,190
50.7349,16.8
50.7461,728.3
50.7507,171.5
50.7554,848.4
50.7558,464.5
50.7718,716.1
50.8315,149.3
50.8435,97.7
50.8574,164.5
50.8714,628.2
50.8732,229
50.879,65.3
50.8793,147
50.904,503.7
50.9298,128.5
50.9757,571.8
50.9793,20.2
50.9852,459.1
50.9974,86.8
51.0014,138.4
51.0036,109.8
51.0301,89.2
51.0305,517.3
51.043,70.8
51.0518,97.5
51.0567,14.9
51.066,1115.4
51.0691,131.8
51.0717,17
51.0845,210.5
51.1204,15.2
51.1263,72.3
51.1308,310.7
51.1324,534.8
51.1396,303.9
51.1957,114.2
51.197,120
51.2041,162.2
51.2162,181.1
51.2255,444
51.2411,311.9
51.2428,227.3
51.2468,122.1
51.2519,299.3
51.2619,106.8
51.2872,509.5
51.2893,179
51.2908,226.1
51.3174,118.1
51.3181,135.3
51.3587,545.9
51.3617,151.7
51.3739,110.8
51.3779,91.9
51.3849,256.9
51.4118,185.7
51.4188,160.7
51.4273,99.7
51.4365,208.3
51.4812,747.3
51.5024,16.6
51.5183,735.7
51.5226,453.8
51.5276,93.3
51.5376,203.2
51.5377,222.3
51.5441,77
51.5627,706.5
51.565,250.5
51.5826,75.3
51.5897,77.5
51.5914,147.8
51.5945,449.2
51.6034,226.7
51.6038,137
51.6194,101.7
51.6205,238.2
51.6321,16.9
51.6735,124.7
51.6795,266.2
51.6804,160.2
51.6929,271.1
51.7118,474.5
51.7122,705
51.7306,94.3
51.7548,465
51.7576,364.5
51.7606,496.8
51.7626,94
51.7647,18.6
51.7708,359.2
51.7766,202.3
51.7892,161.2
51.8072,508.5
51.8189,117.8
51.8579,214.1
51.8615,189
51.8668,246.2
51.8763,325.4
51.9533,79.6
51.979,206.7
52.0368,145.1
52.0377,190.4
52.0678,103.6
52.0723,72.9
52.0948,116.6
52.1015,187.4
52.1066,92.8
52.1121,16.6
52.1134,469.7
52.1174,78.3
52.1193,102.3
52.1412,151.5
52.1554,197.5
52.1733,174.5
52.1778,78.3
52.1833,73.5
52.1877,227.8
52.1989,129.3
52.201,140.2
52.2177,193.7
52.2295,519.9
52.2372,99
52.2439,194.3
52.246,532.4
52.2813,166.7
52.3155,622
52.3174,592.2
52.3235,371.6
52.3259,157
52.341,190.4
52.3531,120.9
52.3607,896.1
52.3711,261
52.3763,684.9
52.3806,332
52.3957,156.1
52.4013,106.5
52.4142,181.5
52.4571,498.4
52.4826,381.7
52.484,244.3
52.4874,775.5
52.5033,112.2
52.517,407.2
52.5324,647.8
52.5476,92.4
52.5716,98.5
52.572,230.5
52.6257,100.7
52.6671,334.7
52.6829,192.9
52.6974,344.5
52.7095,473.5
52.7141,170.1
52.7163,292.3
52.7273,374.1
52.7468,214
52.7661,157.1
52.7714,103.8
52.7821,177.2
52.7842,580.2
52.7847,393.7
52.7852,148.1
52.7861,610.2
52.7866,1730.2
52.787,2007.8
52.7881,1488.5
52.7884,1485.3
52.7892,531.9
52.7896,122.5
52.7902,875.2
52.7903,925.3
52.7907,1209.2
52.7951,578.4
52.7995,569
52.8037,277.7
52.8067,199.1
52.8201,534.6
52.8276,85.6
52.8312,166.2
52.8483,398.1
52.8511,321.9
52.8671,674.5
52.8684,417.6
52.8932,97.6
52.9009,580.6
52.9054,78.9
52.9097,15.6
52.9169,144.1
52.9412,785.3
52.942,451.2
52.9439,77.8
52.9542,209.8
52.9888,17
53.0245,438.9
53.0352,94.8
53.0519,115.2
53.0548,139.3
53.069,88.8
53.0799,181.7
53.0879,85.2
53.0964,76.4
53.0997,105.3
53.1166,182.6
53.1173,97.7
53.1275,402.7
53.134,152.2
53.1387,197
53.1528,163
53.1654,435.1
53.1709,287.5
53.1906,78
53.1994,283.2
53.2036,101.7
53.2123,523.4
53.2155,672.9
53.2198,103.2
53.2272,153.8
53.2343,484.2
53.2517,19.2
53.2725,336.4
53.2779,88.8
53.2827,133.7
53.296,121.9
53.3125,81.4
53.3158,138.4
53.3219,173.4
53.3413,142.6
53.3461,232.6
53.3493,144.4
53.3728,80.9
53.3805,86.2
53.3887,470.9
53.3926,16
53.4273,413
53.4344,113.8
53.4462,154
53.4624,19
53.4643,78.2
53.493,15.1
53.4991,293.7
53.5194,160.9
53.5202,415.4
53.5252,155.9
53.5263,209.6
53.5379,666.3
53.5405,484.2
53.543,15.3
53.5446,16.3
53.5708,124.5
53.5728,19.3
53.575,486.1
53.5903,93.4
53.5974,19.3
53.6024,470.9
53.6043,17.5
53.6297,271.3
53.6379,635.9
53.6414,119.6
53.6424,121.5
53.6521,106.2
53.6726,885.6
53.674,190.1
53.6901,273.7
53.6977,202.1
53.7316,153.7
53.7358,109.5
53.7515,96.9
53.7759,19.5
53.7897,89
53.8028,497.6
53.8138,224.8
53.8271,243.2
53.8498,391.5
53.8501,17.5
53.8626,277.3
53.8763,102.9
53.8829,207.4
53.9056,427.5
53.9089,193.6
53.9375,198.6
53.9772,505.3
53.9793,209.9
53.9932,89
53.9955,102
54.043,487.6
54.0448,516
54.0498,118.4
54.0558,404.7
54.0734,18.4
54.0804,437.2
54.0824,196.3
54.0909,161.8
54.093,74.1
54.0942,740.6
54.1102,74.6
54.1199,112.2
54.1221,157.3
54.1245,157
54.1257,681.5
54.1651,152.9
54.1702,108.7
54.1722,101.9
54.1763,392.5
54.1787,18
54.1868,113
54.1915,84.1
54.2494,359.5
54.256,17.6
54.2644,184.1
54.2668,70.7
54.2705,404.6
54.273,107.3
54.2834,125
54.2892,147
54.3014,682.9
54.3156,334
54.3174,305.3
54.393,292
54.4242,89.1
54.4347,190.9
54.4389,192.1
54.4455,130.6
54.4767,318.5
54.4863,130.5
54.4875,131.3
54.5011,105.1
54.5022,274.4
54.5026,143.7
54.5154,179.3
54.519,919.3
54.5235,166.2
54.5463,155.9
54.5586,108.1
54.575,101.6
54.6082,19.4
54.6107,17.3
54.6137,285
54.6454,239.7
54.6579,412.6
54.6875,137.1
54.6959,246.8
54.7006,15
54.7231,464.7
54.7279,571.4
54.7474,738.2
54.7769,136.9
54.7795,16
54.7872,102.9
54.7937,272.7
54.7951,17.5
54.8012,658.3
54.8133,431.3
54.8256,118.4
54.8273,443.5
54.8373,449.7
54.8444,304.7
54.8529,15.7
54.861,82.7
54.8863,145.9
54.8914,436.5
54.8945,547.8
54.9356,285.8
54.9435,173
54.9512,198.4
54.9547,122.2
54.9604,17
54.9723,447.8
54.9918,296.1
54.9944,71.6
55.0179,168.1
55.0233,664.9
55.0238,591
55.0433,384.7
55.0486,369.8
55.0492,406.6
55.0639,275.8
55.0972,673.2
55.0979,160.1
55.1314,198
55.2002,131.9
55.2095,140.4
55.2154,552.3
55.2187,105
55.2352,146
55.2371,16.3
55.252,126.4
55.2552,352.9
55.2664,523.4
55.2879,453.7
55.3173,107.3
55.3185,178.2
55.3237,196.2
55.3369,145.2
55.3374,506.2
55.39,248.7
55.3953,247.9
55.4211,577.6
55.4768,144.3
55.4808,123.5
55.4879,464.6
55.4945,402.7
55.4964,122
55.497,432.6
55.5145,256.1
55.5175,301
55.5471,95.9
55.5499,480.3
55.5558,87.1
55.5699,476.5
55.5826,566.8
55.606,204.6
55.6103,152.5
55.6144,240
55.6411,148.7
55.6491,320.2
55.6775,120.6
55.6979,16
55.7031,129.9
55.731,520.3
55.7366,20.6
55.7518,141.2
55.7694,344.4
55.7749,281
55.7861,149.5
55.7884,81.3
55.8279,479.7
55.8414,16.8
55.8495,724.6
55.8644,485.8
55.8693,17.8
55.8732,156.8
55.8747,185.9
55.8751,115.8
55.8776,521.6
55.882,383.8
55.898,20.6
55.9009,305.8
55.9132,19.7
55.9214,388.3
55.9301,143.9
55.9341,386.2
55.9512,170
55.9516,205.7
55.9518,179.4
55.9537,18.9
55.9629,615.3
55.9677,441.6
55.9737,622
56.0079,335.3
56.019,73.3
56.028,167.9
56.0374,16.1
56.0378,192.1
56.0431,333.6
56.0609,306
56.0804,465.7
56.083,101.8
56.0903,85.4
56.0965,393.7
56.1449,111.3
56.1515,314.9
56.1617,108.5
56.1812,184.2
56.1906,210.6
56.2338,126.1
56.2491,304.9
56.2507,71.3
56.2654,104.3
56.3366,471.7
56.3551,267.6
56.3658,503.3
56.3821,148.1
56.3861,93.4
56.396,16.9
56.4099,76.7
56.428,118.5
56.4324,17.6
56.4379,119.9
56.4554,568.9
56.4673,15.4
56.4734,774.9
56.4802,89.8
56.4819,475.7
56.513,170.8
56.5225,153
56.5275,173.3
56.5303,301.6
56.545,16.3
56.548,19.6
56.5486,478
56.5532,464.9
56.5572,88
56.5581,320.1
56.5611,402.8
56.6084,388.5
56.6099,234.4
56.6241,266.5
56.6351,148.9
56.6446,143.2
56.6474,298.5
56.6645,127.7
56.675,21.7
56.6853,185.2
56.6941,702.8
56.6952,111.3
56.7104,197.3
56.7245,145
56.7323,418.9
56.7359,17.9
56.7428,493.9
56.7468,80.6
56.7492,121.6
56.7772,83
56.7808,149
56.7812,84.4
56.7843,135.3
56.7966,482.1
56.8109,119.9
56.8227,355.9
56.8278,253.2
56.8285,295.3
56.8319,179.5
56.838,278.3
56.8396,568.6
56.8441,287.4
56.8498,142.4
56.874,103.8
56.8919,220.6
56.8954,292
56.8959,140.6
56.8966,16.6
56.9043,72.5
56.9472,84.6
56.9667,375.7
56.968,332
56.9745,273.1
56.9799,297.3
56.9874,338
57.0118,109.5
57.0181,122.2
57.023,18.3
57.0399,145.8
57.0474,142.5
57.0552,502.6
57.0567,310.7
57.0674,277.4
57.0741,159.8
57.0828,106.1
57.0935,126
57.1211,17.1
57.1257,103.1
57.1459,472.1
57.166,18.1
57.1748,484.2
57.1776,151.2
57.19,82
57.191,97.2
57.1992,399.9
57.2025,410.9
57.2114,124.6
57.223,183.8
57.2714,546.2
57.2802,255.8
57.2827,449.4
57.3033,17.9
57.3049,149.5
57.3114,266.6
57.3144,14.9
57.3191,94.3
57.3225,113
57.3356,125.3
57.3537,196.4
57.3941,236.1
57.4116,488
57.466,473.2
57.4949,268.4
57.5193,238.9
57.5379,16.3
57.557,171.5
57.5632,234
57.5814,314
57.5981,123.7
57.6014,543.8
57.6043,166.6
57.608,199.8
57.6226,91.2
57.6288,186.7
57.6297,126.1
57.6468,137.2
57.6534,105.3
57.6569,599.6
57.6605,195.9
57.6894,88
57.6899,279.1
57.6963,338.5
57.7058,498.1
57.7088,236.9
57.7156,191.2
57.7277,322.2
57.7382,103
57.7567,109.1
57.7598,440.7
57.7708,138.3
57.775,310.6
57.7805,114.5
57.7841,16.6
57.7902,88.8
57.8022,18
57.8069,148
57.8177,417.1
57.8245,268.9
57.8362,276.5
57.8545,192.6
57.8604,117.8
57.8797,113.7
57.9232,134.6
57.9271,131.2
57.9308,99.8
57.9531,108.8
57.9538,485
57.9565,260.2
57.9656,325
58.0115,124.5
58.0289,272.5
58.0306,20.1
58.0358,258
58.0517,156.2
58.0616,17
58.0651,146.6
58.0738,78
58.0817,88.7
58.0928,104.3
58.0997,372.5
58.1121,694.9
58.1216,155.5
58.1249,101.8
58.1347,235.5
58.1539,119
58.1639,18.1
58.1646,108.3
58.1685,658.8
58.1877,119.1
58.216,16
58.2307,283.2
58.2435,22.3
58.2508,422
58.2593,287.2
58.2759,280
58.2783,193.6
58.2985,385.9
58.3022,683.3
58.3155,691.8
58.3163,499.4
58.3304,92.4
58.3312,459.7
58.369,15.7
58.3697,196.5
58.3883,88.3
58.3999,509.8
58.4146,97.6
58.4237,93.6
58.432,16.2
58.4515,112.6
58.4686,197.6
58.4712,255.8
58.4807,389
58.5266,16.7
58.5332,152.3
58.5359,137.4
58.5381,147.3
58.5592,147.9
58.5683,88.4
58.5741,136
58.592,94.3
58.6086,332.8
58.612,82.5
58.633,303.7
58.6348,548.4
58.6415,537.5
58.6417,554.3
58.6419,463.1
58.6583,290.3
58.679,19.2
58.6897,392.6
58.7001,77.4
58.7076,130.9
58.7135,76.6
58.7197,20.2
58.7258,223.1
58.7461,440.8
58.7504,340.2
58.7841,462.4
58.7992,410.3
58.8287,127.7
58.8402,494.5
58.8457,101.5
58.8643,129.9
58.8674,269.7
58.8828,697.8
58.8839,99.2
58.8843,129.1
58.905,155.9
58.9057,201.2
58.9166,80.1
58.9511,404.3
58.9613,94.9
58.9703,290.2
59.0411,115.8
59.0454,433
59.0457,375.5
59.0502,288.6
59.0556,121.1
59.0637,149
59.0805,194.8
59.0821,122.1
59.084,16
59.1008,16.2
59.1049,121.8
59.1095,501
59.1193,90.3
59.1293,153.2
59.1373,76.1
59.153,353.8
59.1801,206.2
59.1933,16.1
59.208,328.4
59.2104,259.3
59.2424,428.8
59.2531,524.3
59.2779,537.3
59.2805,101.3
59.2817,106.8
59.3006,115.2
59.3163,15.7
59.3212,559.8
59.3253,21.8
59.3281,16.8
59.3286,180.7
59.3417,521.3
59.3494,181.5
59.3561,115.7
59.3721,309.7
59.3865,18.3
59.4004,73.5
59.4198,474.4
59.4221,518.4
59.4227,509.7
59.4266,119.7
59.4598,157.8
59.4614,153.2
59.4657,325.7
59.4806,201.9
59.488,624.9
59.501,151.2
59.5035,141.8
59.506,465.8
59.5148,141.3
59.5195,266.9
59.5591,369.2
59.5913,106.6
59.6153,133.6
59.6326,525.4
59.6362,373
59.6505,278.1
59.6911,284.6
59.6948,157.6
59.7001,162.5
59.7143,705.9
59.7152,488.7
59.72,424.3
59.7267,99.9
59.7377,16.9
59.7519,487.5
59.7681,124.6
59.7855,150.4
59.7942,274.4
59.8119,116.9
59.8148,152.9
59.8182,144.6
59.8399,161.1
59.8456,506
59.8599,458.6
59.8635,130.1
59.867,204.9
59.8895,180.9
59.8908,138.8
59.9051,272.8
59.9145,75.9
59.9161,106.7
59.9184,556
59.935,198.5
59.945,17.9
59.9456,19.8
59.9554,101.8
59.9581,126.4
59.9632,135
59.9722,164.6
59.976,16.4
59.9871,92.2
59.9958,165.3
60.0003,17.4
60.0213,200.5
60.0232,119.1
60.0276,104.1
60.032,161.5
60.0486,307.1
60.0501,385.7
60.0521,199.4
60.0613,391.5
60.0627,132.4
60.0938,337.3
60.1002,78.7
60.1311,125.8
60.1342,16.2
60.15,147.8
60.1569,325.2
60.1618,145
60.1665,118.8
60.1814,106.2
60.1904,100.1
60.1951,19.8
60.2025,441.8
60.2255,233.7
60.2349,15.5
60.254,19.7
60.2573,187.2
60.2656,19.2
60.2682,17.8
60.2722,194.9
60.2777,178
60.2836,17.8
60.2857,265.5
60.2897,142
60.3126,132.2
60.3164,17.9
60.3229,146.5
60.3236,149.4
60.3244,138.2
60.3311,156.7
60.3378,18.9
60.3473,185
60.3502,74.6
60.3794,110.9
60.3809,120.2
60.3911,18.8
60.3929,191.7
60.3944,113.6
60.3998,822.4
60.4022,17.7
60.4122,524.4
60.4228,724.9
60.4263,395.4
60.4376,115.7
60.4442,108.3
60.4579,193.3
60.5,118.4
60.5052,159.4
60.5158,87.9
60.5199,130.6
60.5258,152.6
60.531,337.4
60.5471,18.6
60.5507,347.5
60.5749,186.9
60.5784,105.4
60.5822,287.3
60.5832,498.7
60.5862,769.1
60.5894,549.5
60.6597,267.7
60.6633,545
60.6681,122.9
60.6713,182.2
60.6844,98.7
60.688,237.1
60.7001,18.5
60.7041,90.3
60.7171,144.9
60.7262,501.9
60.7306,301.7
60.7329,147.3
60.7407,128.2
60.7417,93.3
60.7489,152.9
60.7901,18.9
60.7925,199
60.8063,168.5
60.8187,98.5
60.8239,17
60.8497,16.2
60.8645,488.3
60.8814,18.2
60.8826,557.2
60.8864,143.6
60.9125,18.4
60.922,16.4
60.9356,156.4
60.947,428.6
60.9777,505.7
60.9976,106.8
61.005,203.7
61.0256,277.6
61.0493,149.3
61.054,18
61.0795,568.6
61.1029,163.2
61.1181,83.6
61.1293,110.7
61.1362,294.6
61.163,650.2
61.1705,151.1
61.2585,248.7
61.2956,325.4
61.332,18
61.3368,145.4
61.3375,86.7
61.3548,322.2
61.3612,92.3
61.3638,313.2
61.3735,110.4
61.3748,17.8
61.3763,195
61.3815,16.5
61.3885,617.8
61.3906,142.7
61.3939,19.1
61.4172,301.7
61.4196,161.9
61.4311,143.2
61.4348,97.8
61.4586,504.1
61.4694,346.4
61.4747,164.8
61.4979,135.8
61.5102,143.8
61.5175,17.8
61.5182,554.1
61.5211,215.3
61.5372,746.7
61.5427,205.9
61.5452,104.7
61.5593,591.1
61.5783,727.9
61.5857,547.8
61.5958,537.3
61.606,241.8
61.6097,107.6
61.6187,756.4
61.6198,192.8
61.6382,15
61.639,222.1
61.6644,143.8
61.6751,229.4
61.7099,194.1
61.7177,285
61.7243,146.8
61.7349,291.3
61.7491,304.5
61.7535,109.1
61.7831,162.7
61.788,337.3
61.7908,416.5
61.7998,117.4
61.8113,18.9
61.8634,163.7
61.8827,565.8
61.8864,484.8
61.9267,320.6
61.9308,561.2
61.9406,737.1
61.9527,602.4
61.9639,16.6
61.9752,515.2
61.9859,291.9
61.9887,135.7
62.0057,182
62.0089,96.6
62.0247,582.9
62.0553,340.9
62.0647,85.2
62.0753,93.2
62.0898,106.6
62.0919,91.7
62.1042,190.3
62.1074,212.6
62.1754,18
62.2034,491.1
62.2457,104.4
62.2604,96.6
62.2657,92.7
62.269,15.9
62.28,16.5
62.3096,194.6
62.3106,153.9
62.318,274.5
62.3341,288.3
62.3437,151.7
62.3494,793
62.3606,161.7
62.3621,156.6
62.3749,106.6
62.398,296.2
62.43,16.1
62.4344,19.8
62.4593,123.3
62.4603,145.1
62.4697,218.8
62.4722,398.4
62.4938,250.7
62.5329,258.1
62.5344,18.3
62.5386,130.6
62.5556,700.5
62.566,133.3
62.5755,595.7
62.5928,17.7
62.6145,151.8
62.6206,693.8
62.6329,145.2
62.6344,143.6
62.6358,98.4
62.6411,161.4
62.6586,98.2
62.6603,216
62.6645,17.8
62.678,185.7
62.6814,19.8
62.6923,164.7
62.7044,274.3
62.7086,885.8
62.7127,139.5
62.7171,757.2
62.7288,611.5
62.735,320.6
62.7923,165.8
62.7942,100.8
62.8171,410.5
62.8179,139.3
62.8465,718.9
62.8532,179.4
62.8557,123.2
62.8676,209.9
62.8719,91.2
62.8904,583.7
62.9106,464.3
62.9205,330.4
62.9252,128.6
62.9372,146.4
62.9437,75.6
62.9473,149.2
62.9714,289.1
62.9781,130.8
62.9808,149.3
63.0051,274.3
63.0297,112.2
63.0486,126.5
63.0849,472
63.1002,220.2
63.1017,350
63.1065,250.3
63.1131,143.4
63.1173,250.6
63.1195,370.5
63.1307,155.3
63.1479,347.2
63.1603,201.2
63.17,18.1
63.1961,337.1
63.2086,100.7
63.2197,890.9
63.2376,94.6
63.2577,550.2
63.2884,287.6
63.2994,275.7
63.301,405.6
63.3361,729.8
63.3379,73
63.3497,314.6
63.3597,137.2
63.3816,154.5
63.396,17.2
63.4291,134.5
63.441,139.7
63.4494,127.9
63.4673,248.5
63.4745,15.9
63.4752,327.6
63.4762,313.7
63.4764,329.5
63.4768,173.7
63.478,289.7
63.5104,689.8
63.5145,85.3
63.5158,19
63.5432,642.5
63.5501,372.8
63.5644,95.6
63.6287,413
63.6611,126.3
63.6835,288.6
63.6903,392.7
63.6972,332.8
63.7246,905.6
63.7334,108.5
63.7555,19.2
63.7695,19.5
63.7907,504.9
63.796,116.2
63.8294,374.4
63.8631,139.5
63.8685,279.3
63.8805,359.9
63.8939,106.1
63.8984,726
63.9136,646.2
63.9142,564.8
63.92,172.8
63.9612,374
63.989,363.5
64.0043,275.3
64.006,312.5
64.0107,402
64.0347,512.9
64.0412,778.7
64.0509,144.6
64.0578,341.4
64.0669,128.8
64.0691,169.2
64.0777,105.1
64.0852,329.8
64.0986,111.5
64.1312,150.9
64.1394,102.7
64.1525,18
64.1578,460.1
64.1593,96.8
64.1648,185.3
64.1718,589.6
64.1782,95.3
64.1825,106.8
64.1872,190.7
64.2171,302.9
64.2176,275.8
64.2189,18
64.2238,528.6
64.2297,76.4
64.2501,432.1
64.2617,18.5
64.2792,169.9
64.281,163.2
64.3087,620.3
64.3252,468
64.3411,367.1
64.3563,376.2
64.3592,16.7
64.3698,214.3
64.3771,761.7
64.3952,88.6
64.3996,99.9
64.4106,243.4
64.4125,116.3
64.4144,658.7
64.4173,494.2
64.4244,190.5
64.4433,110
64.4458,291.2
64.4957,312.4
64.5071,167.5
64.5101,315.4
64.5186,288.5
64.5241,78.3
64.5387,77.7
64.5491,350.1
64.5765,120.6
64.5786,77.7
64.5789,77.3
64.5865,141.3
64.6025,20.7
64.6089,991.6
64.6226,542
64.6357,81.9
64.6465,18.7
64.6702,137.6
64.6809,288.9
64.7612,494.5
64.768,142.9
64.7718,426.3
64.7852,18.3
64.7868,113.1
64.8067,723.3
64.8189,207.9
64.8209,17.4
64.8252,154.9
64.8302,230.9
64.8469,157.3
64.8485,159.6
64.8497,631.9
64.853,474.4
64.8555,331.3
64.8561,189.7
64.8708,94.4
64.871,184
64.8712,178.7
64.8757,111.8
64.8872,316.2
64.8927,131
64.8933,156
64.9081,244.3
64.9162,102.6
64.9186,337.4
64.9466,140.4
64.9501,467.4
64.9577,110.2
64.9696,248.8
64.9741,777.4
64.9811,375.4
64.9885,16.1
64.9906,18.4
64.997,256.2
65.0214,15.7
65.0226,496.9
65.0311,122.7
65.0352,127.8
65.0405,193.5
65.0505,20.4
65.0533,167
65.0638,383.3
65.0762,94.8
65.0776,20.2
65.0832,175
65.1181,16.6
65.1259,98.3
65.1294,703.1
65.1399,163.9
65.1406,242.8
65.1461,561.8
65.1487,19
65.1493,102
65.1522,145.1
65.1694,117.9
65.1791,267.6
65.2011,109.5
65.2057,723
65.209,166.7
65.2172,21.5
65.2252,415.6
65.2316,72.7
65.2344,19.1
65.2369,15.1
65.2373,102.3
65.2486,75.5
65.2543,79.8
65.262,106.4
65.2651,475.1
65.2726,426.3
65.2958,98.6
65.3028,14.8
65.3296,432.7
65.3439,15.9
65.3831,103.1
65.3947,146.4
65.4171,251.6
65.4178,131.5
65.4267,93.1
65.4424,120.1
65.443,86.7
65.4646,194.6
65.4696,475.1
65.4808,85.8
65.4914,174.6
65.4925,561.4
65.4938,150.9
65.519,252.7
65.5414,276.3
65.5449,17.3
65.5472,164.3
65.5643,258.8
65.5686,648.2
65.5693,328.5
65.5867,265.6
65.6314,241.4
65.6382,101.5
65.6442,24.1
65.6487,112.4
65.6517,20.8
65.6665,491.1
65.6687,629.5
65.6852,139.1
65.7056,404.1
65.7199,258.8
65.7417,71.8
65.7628,742.5
65.7754,478.1
65.8024,183.5
65.8612,731.6
65.8663,352.2
65.8886,389.5
65.8948,121.3
65.905,494.7
65.9176,17
65.9336,109.1
65.9419,343
65.9892,105.2
65.994,18.2
66.003,527.9
66.0175,188.4
66.0571,19.1
66.0588,104.3
66.0782,17.3
66.1072,464.1
66.1368,89.4
66.165,379.8
66.1665,226.1
66.1736,779.9
66.1793,96.1
66.194,732.4
66.2078,428
66.2199,569.4
66.2208,128.9
66.2293,188.8
66.2307,18
66.2318,367.9
66.2348,128.2
66.2365,351.5
66.256,428.6
66.2678,161.8
66.2706,106.7
66.2712,105
66.2868,208.4
66.2909,84.3
66.2939,120.2
66.3001,20.7
66.3208,155.3
66.3315,97.8
66.3478,78.7
66.3775,237.6
66.4037,193.9
66.409,320.4
66.4101,502.1
66.4343,16.3
66.4465,84.3
66.4545,114.2
66.4636,500.7
66.4655,399.5
66.4806,454.9
66.4848,518.1
66.5148,17.6
66.5202,89.8
66.5239,322.4
66.5241,350.7
66.5244,267.1
66.5262,165.5
66.5403,300.8
66.5471,99.5
66.5517,207.2
66.5639,101.2
66.5709,88.3
66.5861,271.9
66.6004,122.4
66.6113,346.9
66.6127,218.8
66.615,107.9
66.6193,85.6
66.6228,150.4
66.6423,100
66.6446,345.4
66.6582,115.4
66.6686,208.5
66.6714,657.4
66.6786,127.8
66.6903,16.4
66.7107,549.6
66.7158,100.6
66.7315,184.5
66.742,16
66.7742,278.5
66.7932,18.2
66.7977,16.2
66.808,17.9
66.8221,17.5
66.8316,212.2
66.8364,167.8
66.8465,352.9
66.8503,759.3
66.8585,110.4
66.8656,103.8
66.8764,94.1
66.8913,600.2
66.9094,84.8
66.9114,19.4
66.9145,111.7
66.9573,85.7
66.9864,15.8
66.99,307.2
66.9944,89.4
66.9963,339
66.9975,506
67.0114,795.6
67.0125,471.2
67.016,139.3
67.0275,109.8
67.0297,390.6
67.0374,278.2
67.0382,203.4
67.0441,226.4
67.0455,573.8
67.0514,17.1
67.0539,58.7
67.0732,299.8
67.089,140.8
67.0904,157.7
67.0946,16.8
67.1021,406.3
67.1141,19.9
67.1247,15.5
67.1682,113
67.177,17.9
67.1894,81.7
67.2008,162.7
67.2069,111.5
67.2378,682
67.2685,369.5
67.2722,16
67.2929,108.4
67.2961,260.3
67.3086,296.1
67.3257,20.9
67.329,148.8
67.3399,167.6
67.3523,420
67.3553,266
67.3555,289.3
67.3618,16.1
67.3733,92.6
67.3754,324.2
67.3871,123.5
67.3986,274.5
67.4039,485.6
67.4165,104.8
67.4537,355.8
67.4727,211.5
67.4983,107.5
67.4988,98.1
67.5071,114.8
67.5595,127.6
67.5663,16.4
67.5792,538
67.5875,212.7
67.5949,104.9
67.6098,18.4
67.6209,79.7
67.6268,140.1
67.6377,450.2
67.6401,192.3
67.6441,460.4
67.6749,475.6
67.6795,320.3
67.6878,19.4
67.6955,107.4
67.7201,199.8
67.722,184
67.7233,122.2
67.7296,16.3
67.7298,16.1
67.7305,92.3
67.7451,212.5
67.7509,143.1
67.7534,168.1
67.7552,116.2
67.7579,186.9
67.7606,331.4
67.776,103.5
67.7765,423.1
67.7767,411.4
67.7936,403.2
67.7965,421.7
67.8388,476.2
67.86,536
67.9344,18.6
67.9573,80.4
67.9631,125.4
67.9818,238.8
67.9967,691.9
68.0082,112
68.0248,735
68.0489,525
68.0553,100.9
68.0725,644.6
68.143,293.4
68.2303,648.3
68.2495,188.7
68.2734,87.1
68.3415,283.8
68.3904,586.5
68.3947,647.1
68.3984,79.4
68.3997,196.8
68.4037,16.6
68.4209,17.6
68.4246,491.1
68.4364,103
68.4521,273.2
68.489,284.1
68.4981,512.6
68.5141,126.1
68.5358,797.1
68.5388,356.1
68.5434,149.7
68.5449,587.9
68.5624,531
68.5689,132.4
68.5789,391.5
68.5966,301.5
68.5982,180.1
68.6316,19.9
68.6364,156.9
68.6437,334.7
68.6589,502.1
68.7409,545.9
68.7594,22.4
68.7944,548.8
68.796,133.9
68.8003,294.3
68.8522,326.9
68.8615,189.9
68.873,17.2
68.9232,725
68.9262,274.3
68.9296,204.1
68.94,586.9
68.9592,104.4
68.9655,100
69.0022,311.1
69.0118,142.2
69.0922,158.2
69.0939,18.6
69.1349,292.5
69.1429,466.1
69.145,16.4
69.1512,109.6
69.1621,320.2
69.1757,231.9
69.181,17
69.194,171.7
69.1961,93.8
69.2422,135.3
69.2583,19.6
69.2617,250.5
69.2648,86.7
69.2678,330
69.3091,89.9
69.3111,365.7
69.3199,864.5
69.3318,156.6
69.353,109.9
69.3639,295.3
69.3645,534.1
69.372,97
69.3867,98.9
69.4106,129.7
69.4227,227.2
69.4237,257.6
69.4421,150.5
69.4691,96.9
69.511,141.7
69.5224,510.2
69.5473,337.6
69.556,128
69.587,108.5
69.5911,127.7
69.603,114.4
69.6233,412
69.6824,131
69.6974,168.2
69.7211,17.4
69.7592,72.7
69.7914,105.6
69.8278,167
69.8319,189
69.8387,213.2
69.8516,191.2
69.874,105
69.9106,104.3
69.9482,667.5
69.9566,475.2
69.9595,249.1
69.9939,449.1
70.0041,90.7
70.0221,229.9
70.0225,247.2
70.0364,464.8
70.0483,139.9
70.0494,314.8
70.0619,443
70.0648,473.1
70.0774,150.7
70.1439,374.2
70.1644,184.4
70.1786,92.9
70.1897,103.8
70.2209,261.8
70.2241,116.1
70.2321,139.7
70.2323,211
70.2563,319.6
70.277,152
70.288,114.3
70.3158,315.2
70.3361,96.8
70.3432,116.9
70.3797,186.3
70.3815,17.1
70.3917,168.5
70.4144,456.9
70.4305,16.3
70.4386,118.3
70.4561,17.2
70.4592,578.5
70.464,598.6
70.4722,16.4
70.4785,17.7
70.4816,115
70.5558,164.6
70.5631,77.8
70.5641,74.4
70.5707,765.7
70.5737,201.3
70.6128,287.5
70.6207,113.5
70.6765,320.1
70.6878,78.6
70.721,18.1
70.7485,520.7
70.7818,104.6
70.7959,126.5
70.8042,364.7
70.8125,113.8
70.8199,86.9
70.8241,115.1
70.8367,527.7
70.8544,116
70.8621,103.5
70.8767,756.3
70.9043,17.4
70.9132,281.9
70.9176,220.2
70.9192,18.6
70.9214,119.8
70.9257,293.8
70.9287,711.8
70.9395,573.7
70.9461,131.7
70.9673,143.1
70.9848,531.8
70.9997,684.4
71.0159,329.4
71.0335,18.4
71.0445,16.5
71.0821,547.7
71.0913,99.3
71.1164,20.1
71.1173,195.4
71.1615,116.5
71.1628,98.2
71.1821,98
71.1828,199
71.1876,588.9
71.1986,710.7
71.2032,476.9
71.2254,756.8
71.2391,279.7
71.2768,213.3
71.2858,557.6
71.2981,567.4
71.3033,16.1
71.3145,653.5
71.3209,362.9
71.3392,98.4
71.3963,19.8
71.3976,18.5
71.4208,16.1
71.4223,188.7
71.4407,88
71.4487,216.8
71.452,714.3
71.4529,18.5
71.4832,375.1
71.4881,136.9
71.5081,523.2
71.5367,507.6
71.54,108.9
71.5417,133.8
71.5423,106.2
71.5448,478.7
71.5559,136.5
71.5571,15.6
71.565,90.5
71.5658,206.4
71.5738,349.4
71.578,158.1
71.671,106.7
71.6715,288.1
71.6756,141.9
71.6877,161
71.6933,97.8
71.6969,706.1
71.7127,153.4
71.7476,206.4
71.7485,115.2
71.7557,98.2
71.7635,293.7
71.7685,530.8
71.7871,151.8
71.8089,323.5
71.8215,501
71.8517,764.9
71.8523,145.9
71.868,17.2
71.8912,158
71.8924,283.8
71.8953,640.2
71.896,104.8
71.9079,283.4
71.9184,19.5
71.9346,496
71.9391,220.6
71.9517,91.3
71.9682,200.7
71.9793,524.5
71.9964,389.9
72.0018,88
72.0453,150.2
72.0523,134.4
72.06,148.7
72.0799,182.4
72.0805,771.4
72.0853,131.7
72.0943,19.5
72.1134,162.1
72.1185,19.5
72.1444,283.3
72.1551,18.1
72.1635,174.1
72.176,83.7
72.1824,146.6
72.1852,150.2
72.1941,199.3
72.2142,607.8
72.2157,788.8
72.2169,432.8
72.2175,580.2
72.2191,560.1
72.22,1267.6
72.2211,524.7
72.2222,678.2
72.2227,790.3
72.2238,177.9
72.2251,2046.1
72.2263,1972.9
72.2268,2492.5
72.2279,2115.1
72.2293,2098.1
72.2313,2310.4
72.2319,3861.2
72.2324,2487.6
72.2333,1784.6
72.2343,3530.9
72.2353,3444.9
72.2358,2909.9
72.2366,2708.1
72.2373,1692.1
72.238,2027.8
72.239,540.4
72.2402,1785.3
72.2407,2653.6
72.2413,2293.1
72.242,708.3
72.243,2773.8
72.2445,1108.6
72.2453,1224.6
72.2468,1883.8
72.2474,977.4
72.2489,2951
72.2499,873.9
72.264,20.7
72.276,248.5
72.2993,99.6
72.3128,434.7
72.3284,138.4
72.3342,16
72.3359,169.9
72.3382,123.6
72.366,284.8
72.3669,155.4
72.3952,161.4
72.4061,16.8
72.4166,16.7
72.4267,389
72.4479,318.2
72.4506,533.5
72.4594,332.8
72.5039,137.1
72.511,482.9
72.5139,704.8
72.5241,106.5
72.527,490
72.529,74.4
72.5556,461.5
72.6194,424.7
72.6242,17.1
72.6264,185.5
72.6486,152.1
72.6567,323.1
72.6621,97.1
72.6908,98.8
72.6929,480
72.7011,19.5
72.7094,135.7
72.7127,138.8
72.7423,451.2
72.756,502.6
72.7745,153.4
72.7764,289.1
72.7808,469.5
72.7884,104.1
72.8348,19.5
72.8361,20.3
72.8487,121.3
72.8689,256.2
72.9225,134
72.9279,314.2
72.9338,102.7
72.9369,403.9
72.9379,138.1
72.9525,158.7
72.9534,403.9
72.9718,16.1
72.9852,495.8
73.0171,236.1
73.0318,345.8
73.0364,127.4
73.0385,100.6
73.0497,291.1
73.0564,209.4
73.0838,95.3
73.0936,212.1
73.1232,20.1
73.1407,102.3
73.1481,189.2
73.1663,406.9
73.1886,456.5
73.1952,485.9
73.2111,112.4
73.2215,482.9
73.3025,337.2
73.308,297.2
73.348,320.5
73.3679,417.9
73.3828,378.8
73.3969,362.5
73.4192,292.6
73.4296,16.4
73.4356,138.9
73.4437,79.6
73.4444,172.3
73.4541,148.1
73.4894,149.5
73.5419,476
73.5642,480.1
73.5757,394.8
73.5799,77.9
73.5854,329
73.5964,700.7
73.606,232
73.608,254.7
73.6088,274.6
73.6183,163
73.6433,154.5
73.6441,532.3
73.6474,164.6
73.6615,463.1
73.662,161.6
73.6624,274.6
73.6766,17.6
73.6893,150.6
73.7242,755.8
73.7367,161.5
73.7408,157.7
73.7504,158.6
73.7577,86.3
73.7582,201.5
73.774,26.2
73.7784,311.2
73.7877,456.4
73.8097,148.1
73.8261,18.7
73.8268,212.5
73.8275,452.9
73.8301,156
73.8685,277.5
73.8947,732.6
73.9086,18.3
73.911,131.5
73.9426,224.3
73.949,478.8
73.9784,292.2
73.9907,290.7
74.0002,119.6
74.0076,548.5
74.018,485.7
74.0237,297.1
74.0258,468.9
74.0334,925.7
74.0575,161.9
74.0598,4866.4
74.086,18.4
74.1082,125.7
74.1453,278.6
74.1523,175.7
74.1541,202.4
74.1736,485.7
74.2047,503.1
74.2354,84.3
74.2645,203.1
74.2817,20.3
74.3147,755.4
74.3211,486.2
74.3228,230.8
74.3509,674.1
74.3573,238
74.3579,113
74.3869,367
74.4295,16.5
74.4325,286.4
74.4338,368.4
74.444,376.2
74.4502,83.7
74.4512,75.8
74.4609,16.3
74.4618,576.6
74.4677,198.3
74.4883,18.3
74.5056,547.3
74.5094,863.7
74.5165,18.3
74.5579,104.7
74.5911,423.8
74.5933,543.8
74.6685,318.1
74.6846,151.2
74.6909,190.1
74.6936,17.9
74.7035,384.9
74.7107,223
74.7116,141.9
74.7286,157.9
74.756,141.7
74.8119,133.3
74.8176,494.2
74.8373,141.5
74.845,118
74.8541,124.8
74.8689,148
74.8704,530
74.8788,163.1
74.8943,527.3
74.8967,159
74.8987,216.1
74.9138,524.2
74.9176,213.6
74.9233,493.2
74.94,95.6
74.957,607.8
75,313
75.0069,355.1
75.0138,319.5
75.0171,159.6
75.0244,117.1
75.0413,161.6
75.0493,175.6
75.0719,687.3
75.0911,317.6
75.0991,496.6
75.1008,158.1
75.105,330.5
75.1119,183.4
75.1349,478.4
75.1485,17.2
75.1521,100.3
75.1778,199.1
75.1973,106
75.2265,117
75.228,733.4
75.2533,113.8
75.2853,326.6
75.296,16.3
75.3194,109.7
75.3738,156.7
75.384,148.7
75.3895,509.9
75.3913,98.5
75.413,21.5
75.4175,21.2
75.4328,21.3
75.4355,175.6
75.5142,132.1
75.5601,25.1
75.5623,75.1
75.5692,167.9
75.586,907.3
75.5903,371.8
75.5966,168.5
75.6165,19.7
75.6204,115.1
75.6264,92.6
75.635,89.5
75.6365,16.8
75.6436,130.9
75.6549,497.7
75.6715,139.6
75.7017,192.5
75.7321,15.2
75.7494,492.5
75.7604,114.2
75.7645,480.8
75.7684,713.6
75.8362,283
75.8651,642.9
75.8711,103.9
75.8852,127.1
75.8942,16.8
75.9203,111.4
75.9338,19.2
75.9373,526.1
75.9708,692.9
75.9782,20.8
75.9792,438.1
75.997,90.3
75.9988,334.6
76.0037,107.7
76.0094,17.8
76.0223,100.2
76.0234,16.4
76.0313,421.7
76.0446,344.6
76.0744,740.1
76.0824,505.9
76.084,739.5
76.0935,540.2
76.1195,245.2
76.1561,374.5
76.1724,356.6
76.1796,261.8
76.2124,78.3
76.2215,17.9
76.3181,438.1
76.3333,632.1
76.3563,354.4
76.3574,507.6
76.3711,93.5
76.3824,176.7
76.3857,81.7
76.3931,138
76.4011,96.8
76.4268,351.4
76.4312,91.8
76.4317,97.5
76.4365,305.6
76.4543,373.1
76.461,522.8
76.4731,312.1
76.4887,621.5
76.5011,95.8
76.509,347
76.5103,697
76.5302,584.5
76.5392,406.7
76.5413,152.9
76.5501,171.9
76.5587,119.5
76.5613,18.3
76.5751,19.8
76.579,810.8
76.5923,165.4
76.597,204
76.6163,253.2
76.6218,139.8
76.6829,97.5
76.7317,479.4
76.7394,692.3
76.7489,129.9
76.789,186.8
76.7986,606.6
76.7995,439.1
76.8385,19.3
76.8393,134.6
76.8409,499.2
76.8685,138.4
76.8737,467.6
76.9188,187.6
76.9221,123.1
76.9351,290.5
76.9593,18.6
76.9653,769
76.9742,108.3
76.9841,17.8
76.9866,159.4
76.9948,20
77.0086,105.7
77.0125,19.4
77.016,16.9
77.0215,587.1
77.0315,315.3
77.0333,334
77.037,202.3
77.0384,122139.1
77.0642,17.7
77.0803,17.7
77.0971,102.9
77.1058,162.5
77.1227,96.4
77.1444,214.7
77.1573,107.4
77.1747,160.2
77.1818,668
77.2018,112.4
77.2087,18.9
77.2106,143.1
77.2271,482.5
77.2367,122
77.2444,508.3
77.254,729.6
77.2566,507.6
77.2592,281
77.3045,280.7
77.3367,208.8
77.362,228.2
77.4001,18.5
77.4008,17
77.4036,280.9
77.4143,480.1
77.441,236.7
77.4474,1058.4
77.4548,16.7
77.4611,363.4
77.4672,215.1
77.4712,433.2
77.4783,21.1
77.513,257.5
77.5143,497.7
77.5421,141
77.5544,104.8
77.5749,127.1
77.5874,120.3
77.5962,21.7
77.5994,213.6
77.611,216.1
77.6431,106.2
77.6462,89.1
77.6572,83.2
77.6603,356
77.6847,111.4
77.6965,137.2
77.7502,351.2
77.7682,18.5
77.7769,88.9
77.826,313.1
77.8267,133.3
77.8318,495.6
77.8668,114.1
77.882,171.9
77.8976,152.3
77.9013,17.3
77.9181,18.5
77.924,161.7
77.9568,160
77.9629,100.6
77.9668,241.1
77.9817,19.1
78.0033,440.3
78.0417,3876.7
78.0433,87.7
78.0459,162.1
78.0604,19.4
78.0868,104.5
78.1229,18
78.1366,480.6
78.14,96.9
78.1482,262.1
78.1553,612.2
78.1596,121.7
78.1619,120.4
78.1669,164.7
78.1713,202.7
78.1774,153.2
78.1794,774
78.182,122.6
78.2053,371.6
78.216,16.8
78.3042,321.2
78.3374,439.9
78.3386,245.2
78.343,824.9
78.3607,314.1
78.3852,473.9
78.4237,92.1
78.4303,608.6
78.4344,296.4
78.4413,119
78.445,162.8
78.4526,583.7
78.4561,781.4
78.4664,559.3
78.4927,112.7
78.5478,119.6
78.5621,159.4
78.5662,126.5
78.5862,568.9
78.5998,262.6
78.6168,254.8
78.6214,116
78.6493,210.4
78.6688,343.1
78.674,228.1
78.6805,156.3
78.6829,522.9
78.6843,164.4
78.6923,613.9
78.6938,77
78.7647,523.6
78.79,249.4
78.7992,130.9
78.8057,590.5
78.8201,207.8
78.8709,145.4
78.9151,100
78.925,110.4
78.9649,130.2
78.9796,15.8
78.9953,127
78.9968,177.2
79.031,448.1
79.0439,488.9
79.054,2249.3
79.0825,338.2
79.1002,110.6
79.1061,17.9
79.1186,467.1
79.1212,492.7
79.1755,94.4
79.2014,203.3
79.2106,229.6
79.2184,172.6
79.2632,90.1
79.2731,17.3
79.3003,232.1
79.3467,19
79.356,77.8
79.3606,17.9
79.3897,16.8
79.4004,709.5
79.4076,186.9
79.4165,149.1
79.4234,139.5
79.4392,362.8
79.4431,214.1
79.4539,24.6
79.4744,86.1
79.4869,16.7
79.4923,139.3
79.5034,16.4
79.5064,116.7
79.5467,107.7
79.5544,87.3
79.5805,148
79.663,101.5
79.6652,104
79.6789,451.6
79.712,517.9
79.718,459.7
79.7199,127.8
79.7353,563.8
79.7382,147.2
79.7712,245.4
79.777,105.6
79.7805,397.5
79.834,491.9
79.8427,513.1
79.8635,166.6
79.8999,121.1
79.9109,103.8
79.9126,145.7
79.9189,116.9
79.9447,19.1
79.9666,279.9
79.9799,405.1
79.99,114.3
79.997,389.2
79.9979,122.7
80.0259,507
80.0299,183.6
80.0493,591.9
80.0584,308.8
80.1196,271.4
80.1283,16.5
80.1442,539.7
80.1466,560.5
80.1727,402.3
80.2098,84.5
80.2171,225
80.2283,17.4
80.2327,193.2
80.2341,95.8
80.2408,116
80.244,570.7
80.2595,189.3
80.2609,563.6
80.271,134.9
80.2935,407.5
80.2956,85.5
80.3015,205.5
80.3295,17.2
80.3673,16.9
80.3692,186.1
80.3726,194.2
80.393,139.9
80.41,17.8
80.4297,182.2
80.53,242.5
80.5552,559.1
80.5753,116.9
80.6038,94.7
80.6077,155.6
80.6144,267
80.6183,21.1
80.6312,130.4
80.649,140.5
80.6523,271.3
80.6557,16.4
80.6609,708.9
80.6796,466.8
80.7006,704.1
80.7214,19.5
80.7396,364.3
80.7562,88.2
80.7755,425.7
80.7766,22.3
80.7813,779.4
80.7978,107.4
80.8142,116.7
80.8189,222.9
80.8484,460.4
80.8749,411.1
80.8794,130.7
80.9039,139.9
80.9122,138.9
80.9204,276.1
80.9476,41779.2
80.9573,16.6
80.9968,18.3
81.0104,217.8
81.0194,93
81.0344,355.4
81.0558,270.9
81.069,957.7
81.0697,1286.6
81.0749,166.9
81.0994,526.2
81.1196,152.3
81.1355,332.8
81.1374,244.8
81.1384,1056.5
81.14,576
81.1408,238.5
81.1418,210.2
81.1577,80.1
81.1781,166.8
81.1833,742.4
81.1938,92.6
81.1978,20.3
81.2161,656
81.2225,16.7
81.2265,81.4
81.2577,157
81.2813,18.2
81.3054,241.7
81.3077,519.1
81.3176,19.9
81.3289,133.8
81.3378,141.2
81.3529,108.4
81.4338,278.5
81.4482,244.1
81.4587,531.9
81.4597,167.6
81.4772,701.1
81.4936,318.1
81.4967,112.5
81.5108,120.1
81.5154,155.8
81.5166,299.8
81.5177,17.6
81.5284,17
81.5299,348.4
81.537,311.2
81.553,92.6
81.6118,86.5
81.6214,17.7
81.6501,20.8
81.6582,527.8
81.6839,217.9
81.7074,113.4
81.7639,200.9
81.8503,735.1
81.8716,114.1
81.8967,613.5
81.9158,314.8
81.9285,148.3
81.9312,107.2
81.9811,109.8
82.0112,767.1
82.0136,357.6
82.0689,137.5
82.0829,494
82.0939,98
82.0982,485.8
82.1167,170
82.1331,90.8
82.1406,265.8
82.1654,16.5
82.1661,544.7
82.1877,806.2
82.2218,660.8
82.2488,116.2
82.2525,288.6
82.2887,301.8
82.3084,335.5
82.3133,153.6
82.3182,712.2
82.3349,117.4
82.3358,163.3
82.3686,233.4
82.3774,194.6
82.411,100.8
82.4238,124.5
82.4286,108.1
82.4657,97.1
82.4712,213.6
82.4762,99.7
82.4921,304.6
82.5024,126.1
82.5415,202
82.5739,139.2
82.5765,17.9
82.594,458.6
82.6023,118.3
82.7056,118.3
82.7077,335.8
82.7179,98.5
82.7206,103.1
82.7226,163.8
82.7384,140.2
82.743,157.1
82.7492,14.9
82.7675,334.3
82.7692,188.4
82.772,656.1
82.7984,175.2
82.8179,139.1
82.8188,482.3
82.8688,16.1
82.8714,490.8
82.8843,16.6
82.8852,483.7
82.9029,561.2
82.9237,630.3
82.9299,17.5
82.9447,10162.4
82.9499,764.2
82.9687,165
82.9802,87.8
82.9949,19.8
83.0011,561.2
83.0095,147.7
83.0214,54.1
83.022,294.3
83.0242,17.1
83.039,329.6
83.0597,145.5
83.068,18.5
83.0701,478.3
83.0853,19.6
83.0946,188.5
83.1122,221.6
83.1233,20.6
83.165,597.9
83.1695,262.7
83.2205,572.8
83.2255,18.8
83.2334,579.4
83.2478,82.5
83.2492,124.5
83.2596,161
83.3099,183
83.3183,23.6
83.3259,16.5
83.3278,198
83.3285,272.8
83.3672,126.3
83.371,182.9
83.3752,16.6
83.404,18.2
83.414,267.7
83.4179,140.4
83.4299,85.3
83.4333,17.4
83.437,17.6
83.444,477.1
83.4469,163
83.466,157.7
83.4694,337.6
83.4785,535.3
83.4845,476.4
83.4848,568.3
83.4851,323.9
83.5093,16.3
83.5128,422.9
83.5146,154.5
83.5364,201.9
83.5377,16.2
83.5394,518.3
83.5422,217.1
83.5454,278.8
83.5495,535.4
83.5742,221.8
83.5987,152.5
83.6238,106.5
83.6506,143
83.7084,247.9
83.7249,760.5
83.7387,19.5
83.7524,700.6
83.778,17.7
83.808,387.7
83.8365,155.7
83.8447,349.8
83.8529,17.3
83.8753,90.6
83.8857,765.3
83.9358,142.7
83.9515,17
83.9666,216.7
83.9788,486
83.9973,951.2
84.0418,83.5
84.0445,400.3
84.049,116.3
84.0622,80.5
84.0924,473.9
84.1028,143.9
84.1467,264.7
84.181,100.8
84.1857,538.5
84.1978,18.7
84.209,226
84.2138,304.5
84.2385,283
84.2452,563.1
84.2562,134.4
84.2691,195.5
84.275,308.4
84.3207,96.4
84.3332,156.6
84.3653,177.6
84.3977,215.4
84.4088,158.3
84.421,126.1
84.422,111.2
84.4347,496.6
84.4408,729.2
84.4537,103.7
84.4612,241.4
84.4641,116.6
84.4843,326.5
84.4857,502.1
84.4883,581.7
84.5336,143.5
84.5716,500.5
84.5801,79.3
84.586,589.1
84.5896,16.5
84.5912,228.9
84.6136,527.1
84.6693,253.7
84.7168,73.8
84.7255,133.6
84.727,452.1
84.737,491.2
84.759,130.3
84.7599,130.3
84.7735,110.3
84.7804,90
84.7943,294.5
84.825,158.1
84.8377,266.3
84.8532,210.5
84.8575,268.9
84.8699,347.8
84.9035,508.7
84.9117,19
84.9128,133.8
84.9133,18.4
84.9174,180.7
84.9458,229.8
84.9491,83.2
84.9572,18.3
84.9595,20014.9
85.0098,133.9
85.0282,3242.6
85.0576,412.4
85.0594,19.1
85.0625,154.5
85.0679,433.1
85.0735,18.8
85.1121,853.1
85.1159,299
85.1212,17.8
85.1231,601
85.1391,111.5
85.2005,16.1
85.2021,90.7
85.2266,106.5
85.2398,679.5
85.2444,133.8
85.2808,270.8
85.3176,165.3
85.328,101.4
85.33,122.4
85.3738,476.6
85.4019,633.5
85.471,97.7
85.4732,103.1
85.4981,216.1
85.5261,188.2
85.5392,19.1
85.5463,572.1
85.5597,17.8
85.5749,363.8
85.5869,90.4
85.6011,436.1
85.6045,156.6
85.6239,100.5
85.6429,185.4
85.6594,278.3
85.6904,86.3
85.7028,345.2
85.7127,187.6
85.7517,484.6
85.7639,328.8
85.7696,134.7
85.8038,83.7
85.8264,111.4
85.8404,318.2
85.8655,239.8
85.9234,17
85.9386,355.6
85.9434,19.7
85.958,113.7
85.981,142.3
85.9843,341.7
85.9965,107.3
86.0015,268.4
86.0174,120.2
86.0599,44978.5
86.0934,340.4
86.0963,87092.8
86.1112,243.1
86.1201,115.4
86.1217,314.3
86.1229,19.7
86.1249,586.5
86.1284,463.6
86.1656,92.8
86.2074,98.2
86.2393,107.2
86.2432,535.5
86.257,21.7
86.2747,139
86.2765,118.3
86.3184,16.7
86.3205,148.6
86.3307,23.5
86.3358,511.6
86.3503,19.6
86.3787,118.4
86.4061,631.4
86.4567,702.2
86.4897,332.9
86.4947,162.8
86.5065,17.3
86.5311,220.7
86.5421,123.2
86.5867,95.4
86.5874,111.1
86.589,487.3
86.5981,186.7
86.6001,84.8
86.6257,578
86.6699,117.5
86.6724,476.1
86.6974,553.5
86.7421,597.5
86.7475,530.2
86.7554,20.3
86.7578,122.3
86.7719,561.3
86.7939,20.2
86.8653,19
86.8672,278.1
86.9382,316.6
86.9595,134.4
86.9679,747.2
86.9994,76.9
86.9996,76.7
87.0136,793.1
87.0734,506.5
87.1994,180
87.2007,368.8
87.2169,465
87.2461,298.4
87.2629,16.4
87.2842,198.4
87.2972,552.9
87.3296,574.2
87.3346,338.3
87.3358,203.7
87.3441,15.5
87.385,122.4
87.4215,286.6
87.4299,576.8
87.4619,107.6
87.469,318.8
87.4879,449
87.5207,653.3
87.5557,267.5
87.5862,527.9
87.6034,542.5
87.6919,86.5
87.7061,340.1
87.7196,292
87.7384,157.1
87.7432,360.1
87.7943,20.2
87.8185,209.8
87.8244,16.5
87.8873,554.1
87.9131,294.1
87.9139,555.6
87.9362,184.9
87.9824,559.8
87.9849,229.4
87.9896,444.4
88.0003,314.5
88.0392,9445
88.0637,523.6
88.078,16.9
88.0925,103.5
88.1131,161.2
88.1208,16.7
88.1282,171
88.1332,445.7
88.1412,477.8
88.1604,831.9
88.2143,592.7
88.2249,352
88.2642,114.7
88.2842,170.5
88.2933,584.4
88.3067,266
88.3235,227.8
88.3471,626.2
88.3497,99
88.3516,96.2
88.3747,400.6
88.3879,614.5
88.3927,147.8
88.3952,17.1
88.4166,19.6
88.4407,180.6
88.4609,102.2
88.462,159
88.4648,476.6
88.4762,20.3
88.494,159.7
88.5074,103.8
88.5425,255.5
88.5458,105.7
88.5865,153.4
88.5893,218.7
88.5968,576.6
88.6102,514.8
88.6229,257.4
88.6449,693.3
88.663,105.4
88.6636,88.4
88.6707,131.1
88.691,19.6
88.7016,275.3
88.7294,97.4
88.7372,285
88.7576,17.6
88.7589,572.8
88.7592,663.1
88.7682,788.8
88.7779,17.2
88.7838,166.6
88.8357,160
88.8419,622.1
88.9116,464.6
88.9186,313.4
88.9207,221.1
88.9253,95.9
88.9277,760.4
88.9506,20.4
89.0162,22.5
89.0186,520.4
89.0261,17.9
89.0282,160.4
89.0312,100.6
89.0316,187.8
89.032,384.2
89.0343,112.6
89.045,375.4
89.0562,248.3
89.0569,131.4
89.0597,31.7
89.0712,195.2
89.0937,117.7
89.0965,119.8
89.1184,146
89.1243,109.1
89.1339,109.1
89.1368,350.4
89.1599,18
89.229,259.5
89.2597,506.9
89.289,202.6
89.2966,740.7
89.301,281.9
89.3082,509.5
89.3251,316.1
89.3361,751.7
89.3516,335.8
89.3952,536.6
89.438,89.1
89.4575,560.6
89.4612,109.5
89.4954,108.2
89.533,202
89.5403,135.2
89.5508,286.9
89.5645,96.2
89.5725,77.6
89.5732,207.4
89.5799,122.6
89.5946,167.4
89.5986,89.9
89.6353,154.1
89.6535,151.2
89.6611,741.8
89.6632,505.6
89.6685,277.7
89.6776,549.4
89.6952,150.5
89.717,299.6
89.719,134.5
89.7372,686.5
89.7392,319.2
89.7776,773.5
89.7897,163
89.8667,92.6
89.9029,169.8
89.9159,88
89.9181,18.9
89.9402,583.2
89.9509,127.2
89.9635,194.1
89.984,344.7
89.9996,494.1
90.0023,856.4
90.055,922.2
90.0579,206.6
90.0679,17.9
90.0859,119.3
90.1157,214.9
90.1226,509.4
90.1244,251.5
90.1459,123.4
90.1893,130.3
90.1958,97.2
90.2417,99.4
90.2453,148.9
90.2611,20.4
90.2619,436.2
90.2996,546.3
90.3167,18.6
90.3245,80.3
90.3322,155.2
90.3618,501.8
90.3682,194.8
90.4143,89.3
90.4899,96.1
90.5151,150.6
90.5926,446.3
90.6284,331.5
90.6614,461.1
90.669,290.5
90.7046,220.4
90.7083,578.1
90.7152,269.8
90.7744,803.8
90.7786,21
90.7895,237.9
90.7963,521.9
90.8114,18.7
90.8559,560.3
90.8584,100.8
90.8603,142.6
90.8954,117.3
90.9031,37.7
90.9434,734.8
90.9476,1982.3
90.9765,8478.7
90.9832,690.8
91.0541,3797.7
91.0774,173.6
91.0934,358
91.1291,159.9
91.1395,95.4
91.1443,532.5
91.1555,205.5
91.1605,77.3
91.2017,20.2
91.2145,294.7
91.2686,154
91.2924,109.3
91.3424,144.9
91.3557,18.8
91.3825,20.5
91.4066,316.5
91.4306,674.2
91.4491,82.3
91.4609,280.9
91.4828,123.1
91.488,322.5
91.506,568.4
91.5167,93.4
91.5221,429.2
91.5338,103.7
91.5604,221.2
91.5722,584.9
91.5773,586.9
91.5808,126.9
91.62,188.7
91.6311,182.5
91.6447,15.6
91.6587,92.4
91.7162,479.8
91.7734,506.7
91.8192,196.7
91.8218,217.8
91.8295,736.7
91.8666,329.6
91.8731,327.4
91.9013,177.4
91.9227,324.8
91.944,139.1
91.9531,92.5
91.9755,610.9
91.9779,560.5
91.9804,98.9
91.9998,160.9
92.0494,132.9
92.0744,126
92.1013,564
92.1297,150.2
92.157,159.9
92.1667,201.2
92.1991,89.6
92.2286,233.5
92.257,343.7
92.3436,803.5
92.3477,129.3
92.3508,166.2
92.3908,139.3
92.3934,210.7
92.3995,293
92.4164,300.9
92.4173,19.8
92.4311,493.4
92.468,398.2
92.5204,130.9
92.5358,576.4
92.5581,117.4
92.5665,154.6
92.5725,149.4
92.5961,907.8
92.614,770.8
92.6224,87.2
92.6613,490.9
92.6738,306.1
92.6942,516.9
92.7616,103.6
92.7687,19.5
92.7741,460.4
92.7851,479.9
92.7879,820.7
92.8,85.3
92.8188,574.1
92.8418,553
92.8651,487.5
92.9243,178.8
92.9286,174.3
92.9347,17.9
92.9664,283.7
93.0126,623.1
93.0494,99.5
93.0571,37.6
93.0697,21.1
93.0834,587.2
93.1205,225.6
93.1521,121.2
93.1555,274
93.1676,111.9
93.1944,218.4
93.2048,501.9
93.2386,98.6
93.241,188
93.2499,757.3
93.303,161
93.3116,98.6
93.3247,652.5
93.3455,285
93.3517,833.2
93.3543,263
93.3628,144.2
93.4138,642.6
93.4251,131.3
93.4269,474.2
93.4291,130.9
93.4348,145.9
93.4645,133.6
93.4678,166.5
93.4725,117.4
93.496,92.2
93.5181,236.2
93.5338,77.7
93.5562,330.1
93.5691,319.6
93.5807,118.6
93.6247,250.5
93.6267,666
93.6328,110.9
93.664,86.1
93.698,195.2
93.7287,233.3
93.7397,240.6
93.7536,154.8
93.7836,209.5
93.8186,98.3
93.8422,134.1
93.8625,85.4
93.8667,620
93.8696,229.1
93.8717,154.8
93.8856,526.1
93.9262,470.1
93.95,102.6
93.9761,546.2
94.0094,17.3
94.0391,136.6
94.0412,59708.4
94.0736,116.3
94.0893,261.2
94.0906,327.7
94.0922,101.5
94.0939,530.8
94.0965,762.2
94.1193,17.5
94.1434,320.8
94.1527,173.2
94.1713,459.2
94.2077,105.1
94.213,403.5
94.2251,153.7
94.2389,110.2
94.2506,88.7
94.254,172.5
94.2657,18.7
94.2713,147.4
94.2854,576.2
94.292,578.3
94.2952,135.4
94.3045,16.7
94.3462,104.2
94.3717,161.4
94.383,491.1
94.3873,78.2
94.43,90.8
94.4384,162.5
94.4386,159.3
94.4434,184.2
94.4906,95.3
94.5087,265.6
94.5541,116.5
94.5598,586.6
94.5622,335.2
94.5895,18.2
94.6114,612.3
94.6513,508.6
94.6639,18
94.6774,218.2
94.7645,581
94.7887,533.1
94.8125,105.5
94.8193,398.6
94.8399,679.7
94.8553,18.8
94.9174,245.4
94.9376,463.5
94.9444,136.2
94.9461,145.2
94.9644,478.2
94.974,93.4
94.9766,160.6
94.9925,91.1
95.0114,731.7
95.0288,18.5
95.0354,297.6
95.0446,1359.4
95.047,82.2
95.0477,305.2
95.049,407923.5
95.0507,140.2
95.0515,70.1
95.052,46.5
95.0541,24.3
95.0686,271.9
95.0755,329.7
95.0787,43.3
95.0854,225
95.0865,159.9
95.103,113.4
95.1397,319.4
95.2158,541.5
95.2224,90.4
95.274,203
95.278,82.3
95.2951,864.3
95.3575,520.3
95.3693,276.4
95.3817,189.5
95.4037,16.7
95.4107,90.5
95.4156,75.7
95.4293,174.2
95.447,141.6
95.4531,103.3
95.4538,312.6
95.4998,148.3
95.5241,116
95.5395,499.9
95.5646,526.3
95.5777,144.4
95.6295,103.9
95.6422,261.7
95.6438,195.1
95.6471,496.2
95.6998,134.3
95.7138,196.8
95.7153,483.4
95.7455,120
95.7466,236.7
95.7583,90.9
95.7595,215
95.7607,378.6
95.7878,156
95.8253,96.6
95.8855,500.1
95.9004,303.5
95.9441,574.9
95.9589,139.6
95.9631,160.1
95.974,158.7
95.9811,336.1
96.0524,19852.2
96.0641,19.2
96.1031,86
96.1484,155
96.1549,501.5
96.1692,135.7
96.1728,233.1
96.1842,89
96.2019,522.5
96.2394,120.9
96.2482,135.3
96.2499,427.9
96.2918,334
96.3,17.9
96.3138,173.9
96.3503,368.6
96.3922,296
96.4355,183.3
96.4587,763.3
96.4623,219.1
96.5012,237.9
96.517,478.2
96.5343,168.8
96.5414,192.6
96.5628,491.7
96.5728,298.6
96.6221,19.3
96.6233,580.5
96.6542,160.9
96.665,156.5
96.6865,607.6
96.6882,17.7
96.7506,549.2
96.7664,16.3
96.7742,16.9
96.8205,558.2
96.8308,586.2
96.8406,112
96.8547,734.2
96.8566,370.3
96.8739,94
96.8745,117.9
96.9217,145700.6
96.934,117.7
96.9375,22.7
96.947,21.9
96.9547,593.3
96.9743,150.4
97.0074,194.2
97.0088,174.2
97.0104,23
97.0246,304.9
97.041,16.8
97.0427,15.7
97.0532,25.6
97.0557,39.8
97.0621,357.4
97.0782,805.9
97.1249,115.8
97.1612,637.6
97.1664,145.8
97.1746,181.1
97.2462,768.7
97.2532,177.6
97.2766,166.2
97.2818,532
97.289,543.4
97.325,704.7
97.3423,15.3
97.3551,110
97.3679,115.3
97.3696,302.1
97.3717,277.4
97.393,553.5
97.4013,259.1
97.4283,127.4
97.4749,324.7
97.4939,563
97.507,383.5
97.5509,16.7
97.556,208.6
97.5776,290.6
97.6082,278.8
97.6321,139.9
97.6362,221.6
97.642,210.4
97.665,16
97.6822,182.1
97.6988,16.4
97.7073,87.6
97.7328,123.1
97.7655,329.7
97.7681,103.7
97.866,455.8
97.9471,16.5
98.0083,79.9
98.0095,700.5
98.0187,17.4
98.0251,126.8
98.1348,124
98.1427,88.8
98.1948,144.7
98.2086,282.2
98.2154,104.6
98.2393,329
98.3266,627.6
98.3371,234.8
98.367,305.9
98.4129,164.8
98.4217,137
98.4247,407.5
98.4304,157.1
98.449,160.3
98.4532,176.1
98.5211,253.3
98.5372,203.6
98.5438,88.5
98.5596,196.6
98.5681,249.9
98.5729,548.1
98.5742,18.6
98.6357,213.6
98.6421,523
98.6742,97
98.7085,114.5
98.7105,168.2
98.711,225.8
98.7396,536.5
98.7463,610.8
98.752,138.9
98.7646,208.4
98.7791,140.4
98.8007,91.2
98.8173,18.3
98.834,127.6
98.8873,97
98.8895,746.8
98.8983,76.4
98.9143,18.2
98.9187,41894.8
98.9198,6054.5
98.934,385.1
98.9752,16986.4
98.9837,355.4
99.0005,139.9
99.0409,104.3
99.0471,163.4
99.0581,17.8
99.0699,425.9
99.0885,551.6
99.0916,125.2
99.1125,816.5
99.1205,158.6
99.1293,99.7
99.1395,136.2
99.15,268.4
99.2054,96.1
99.2658,20.8
99.2699,154.8
99.2716,94.8
99.2815,88.3
99.2875,766
99.3325,232.2
99.3356,158.2
99.3387,570.1
99.3445,19.6
99.3535,238.8
99.3601,91.6
99.3818,108.1
99.3872,303.1
99.4202,247.8
99.4379,114.9
99.4963,209.3
99.5229,198.7
99.5263,98.6
99.5437,112.3
99.5675,273.8
99.6738,101.7
99.6801,285.6
99.7152,482.5
99.733,81.3
99.74,20.9
99.7546,151.7
99.7767,203.3
99.8199,1106
99.844,100.4
99.8803,118.2
99.8882,20.3
99.8925,118
99.9061,153.3
99.9295,145.9
99.935,228.2
99.9584,181.4
99.9764,122.2
100.0395,85.8
100.0557,138.6
100.0753,456.5
100.0951,16.3
100.1204,357.8
100.1268,19.6
100.1555,105.6
100.2178,20.6
100.246,265.6
100.2486,147.2
100.269,570.6
100.2812,16.3
100.2969,811.8
100.3147,339.5
100.4457,173.8
100.467,148
100.4883,212.8
100.5154,148.5
100.5406,99.2
100.5497,198.9
100.6099,561.9
100.6657,306.8
100.6767,540.2
100.7151,321.1
100.7657,536.1
100.7845,490.8
100.8094,636
100.8112,172.1
100.8254,671.6
100.8418,298.4
100.8506,110.1
100.8592,208
100.8862,281.2
100.9168,1321.7
100.9331,329.4
100.9824,119.8
101.0081,585.9
101.0156,111.9
101.047,2273
101.0663,766.7
101.0684,105.4
101.0708,626.3
101.0799,155.8
101.0894,833.1
101.1165,22.7
101.118,231.5
101.1362,535.3
101.1651,212.7
101.1688,285.8
101.1829,101.9
101.1895,149.2
101.1934,205
101.2352,92.3
101.2683,285.3
101.2958,162.2
101.299,17.8
101.3564,105.7
101.362,17.1
101.3871,545.4
101.4044,292.7
101.418,99.5
101.4234,360.7
101.4426,17.4
101.4744,244.2
101.4765,621.6
101.5366,438.1
101.5428,310.7
101.5731,16.8
101.5831,150.2
101.6262,339.8
101.6279,415.2
101.6457,160.1
101.6517,132.8
101.6574,94.4
101.6838,206.5
101.6931,86.7
101.7104,346.1
101.7271,545.7
101.7371,538.5
101.7448,19.5
101.7536,81.9
101.8571,490.9
101.9099,19.1
101.9277,619
101.9568,449.6
101.9636,141.4
101.9904,166.3
102.027,102.6
102.0549,4263.7
102.1908,163.7
102.2591,208.3
102.2681,95.1
102.2777,455.8
102.2965,312.2
102.3008,210.2
102.3019,101.2
102.4445,17.4
102.4642,139.5
102.4905,223.3
102.5114,159.1
102.5463,147.2
102.5643,287.5
102.5848,19.1
102.6186,119.4
102.6455,350.7
102.6561,780.8
102.7176,555.8
102.7518,186.5
102.8094,715.3
102.8195,18.5
102.8419,120.8
102.9071,147
102.9143,169.6
102.9333,89
102.9673,529.9
102.9702,504.5
102.9867,93
103.0016,469.6
103.0083,138.4
103.054,667.8
103.0676,148.9
103.0826,305.3
103.0836,362.8
103.1066,626.9
103.1083,18.1
103.1368,91.2
103.1421,144.9
103.1646,199.8
103.1877,170.8
103.1912,175.2
103.2024,174.7
103.2065,20.7
103.2271,222.7
103.2712,537.7
103.2833,468.2
103.3435,251.5
103.3463,497.2
103.3494,368.3
103.3586,396.1
103.391,95.9
103.4369,153.8
103.5391,813.8
103.5395,843.6
103.5925,162.6
103.6458,15.7
103.6491,430.6
103.6603,531.6
103.6761,178.6
103.6862,157.9
103.6902,144.1
103.7061,115.2
103.7672,494.2
103.7779,543.3
103.8499,227.6
103.8526,169.3
103.8607,446.7
103.8936,17.5
103.9107,742.3
103.9324,492.1
103.9571,627.2
103.9792,167.8
103.9836,83.8
104.0629,97.2
104.065,17.8
104.1069,284632.6
104.1499,15.8
104.1665,166.1
104.1672,379.5
104.1816,16.4
104.1856,98.5
104.1938,215.5
104.2059,214.5
104.2113,531.5
104.2152,116.1
104.2171,499.4
104.2354,18.6
104.2689,16.9
104.2713,126.4
104.281,187.2
104.3437,18
104.3546,688.9
104.3611,281.4
104.3844,503.3
104.4465,510
104.4478,90.5
104.4505,222.7
104.4601,530
104.4808,94.4
104.5533,342
104.6044,82.3
104.687,162.4
104.7535,19.1
104.7663,18.5
104.7827,123.3
104.8017,17.1
104.8157,486.6
104.8403,90.5
104.8506,424.8
104.8637,85.7
104.8722,19.1
104.8902,802.5
104.908,21.3
104.948,104.7
104.9633,2282.2
104.9737,229.4
104.9922,2426.5
104.9967,535.3
105.0032,40.2
105.0174,188.6
105.0281,527.6
105.0447,40596.4
105.0608,782.2
105.097,168.9
105.1102,7860.8
105.1304,520.8
105.1379,17.1
105.2568,111.3
105.2642,156.1
105.2713,151.6
105.2882,77.9
105.2935,397.9
105.3874,21.8
105.3916,649.3
105.3947,209.4
105.4056,387.4
105.4083,493.6
105.517,20.5
105.5469,89.6
105.5479,335.6
105.5619,220.5
105.5679,132.3
105.5701,217.1
105.5937,15.5
105.6947,195.8
105.6977,167
105.703,206.2
105.7433,140.3
105.7589,470.8
105.7605,20.1
105.7764,238.7
105.7885,110.1
105.8377,18.3
105.843,18.4
105.8542,422
105.9114,20.1
105.9424,116.7
105.9552,90.1
105.9637,18.9
105.9875,307.8
106.0007,114.6
106.0217,132.8
106.0347,17.3
106.048,685.3
106.0562,103.1
106.0649,21.3
106.1152,100.9
106.1322,591.9
106.1536,18.1
106.301,191
106.3219,498.5
106.3256,84
106.3318,177.7
106.3544,131.6
106.4008,183.6
106.4163,357.5
106.4547,331.4
106.4572,105.8
106.4601,16.7
106.4835,112.7
106.5079,101.5
106.5117,20.1
106.5778,196.8
106.618,524.2
106.6282,665
106.6542,521
106.665,117.4
106.6772,753.4
106.6824,156.1
106.7013,142.7
106.7192,21.4
106.7251,212.6
106.7359,259.7
106.7625,155.9
106.7818,99.2
106.7834,490.4
106.7846,787.1
106.8143,1016.2
106.8374,583.4
106.8581,108.1
106.8947,78.6
106.8974,18.7
106.9082,471.2
106.9095,217.5
106.9505,3433.2
106.9637,19.7
106.9918,55.2
107.0164,180.4
107.0282,66.4
107.0357,197.1
107.0491,631.4
107.0704,510.4
107.0853,55.8
107.0924,163.3
107.1231,848.4
107.126,113
107.1286,502
107.159,20.6
107.1868,119.3
107.1939,239.3
107.2029,303.7
107.21,485
107.2119,278.2
107.2144,307.6
107.2284,103.7
107.2356,543.1
107.2433,147.6
107.2718,502.3
107.3351,221.7
107.3721,1038.2
107.3861,96.4
107.4146,16.7
107.42,221.6
107.4541,216.4
107.4602,438.2
107.4621,99.5
107.5009,289
107.5262,133.5
107.5486,134.1
107.5592,17.1
107.6179,322.5
107.6433,133.2
107.65,749.4
107.6514,206.7
107.7187,920.9
107.7254,80.8
107.7268,89.8
107.7389,20.5
107.7797,263.1
107.8236,263.8
107.8329,113.8
107.8477,125.8
107.8593,199.4
107.8645,79.4
107.8688,128.1
107.8802,502.4
107.9052,748.4
107.9276,163.6
107.9881,449.8
108.0277,521.4
108.0304,109.6
108.057,25.8
108.0584,506
108.1099,106.8
108.2163,18
108.23,472
108.234,519.2
108.2593,670.2
108.268,17.5
108.2739,171.6
108.2806,511.5
108.2858,202.8
108.3829,129.9
108.4385,532.2
108.4456,268.8
108.481,95.9
108.4876,544.8
108.5828,330.5
108.6266,159.2
108.6576,474
108.6626,276.9
108.776,158.2
108.8176,477.4
108.8265,770.5
108.8322,17.4
108.8684,506
108.9261,476.7
108.9583,98.5
108.9918,116.4
109.0647,64665.7
109.0666,29.7
109.0677,20.4
109.0709,83.7
109.0834,147.6
109.0998,19.9
109.1012,188.5
109.1028,144.5
109.1657,118.3
109.1828,321.4
109.1842,513.8
109.2094,534.6
109.2111,285.5
109.2732,147.3
109.3015,271
109.3108,117.1
109.3337,294.4
109.3657,447.5
109.387,136.6
109.4219,305.8
109.486,342.2
109.4987,19.6
109.5476,597
109.5714,306.6
109.5852,146.5
109.5999,115
109.6263,114.6
109.6326,75.8
109.6523,394.6
109.6913,105.6
109.7206,494.8
109.7588,759.6
109.83,229.1
109.8658,127.2
109.8879,556.8
109.8905,162.3
109.9064,125.4
109.9213,97.5
109.9259,26.9
109.9282,306.2
110.0113,18.6
110.0335,20.1
110.0465,769.1
110.0681,1928.5
110.0711,217.9
110.0746,16.7
110.0808,124.8
110.1426,507.5
110.1754,403
110.184,165.8
110.198,451.5
110.2066,138.4
110.2442,16.3
110.2579,473.9
110.2605,203.7
110.2621,156.9
110.2969,88
110.3223,98.6
110.3604,194
110.3994,1060
110.4002,658.7
110.411,93.6
110.4304,163.8
110.4324,293.1
110.4594,330
110.4727,193.5
110.4924,183.2
110.5135,192.4
110.5504,113.2
110.5631,185.1
110.6053,391.9
110.6073,104.5
110.6315,98.2
110.6521,19.6
110.6683,110.9
110.6949,791.8
110.7087,103.8
110.7106,509.3
110.7141,522.4
110.7165,18
110.7205,333.2
110.7257,89.5
110.7416,177.9
110.7549,19.1
110.7595,225.4
110.7916,305.1
110.8098,182.3
110.8233,158.5
110.8273,174.1
110.867,442.5
110.8835,175
110.9569,218.6
110.9783,628.3
110.9898,631.2
110.9943,818.7
110.9955,285
110.9977,16.2
111.0085,166.2
111.0232,310.1
111.044,261.1
111.0463,314.3
111.0638,17.1
111.0725,147.9
111.0826,387.1
111.1552,563.4
111.1595,565.1
111.174,109.9
111.2028,464.5
111.208,392.1
111.3198,679.8
111.3809,143.1
111.4078,769
111.4433,263.3
111.463,909.5
111.496,138.7
111.5698,302.1
111.609,445.9
111.6235,266.7
111.821,316.3
111.8478,500.6
111.8796,145.9
111.8862,627.3
111.911,129.8
111.921,142.5
111.9227,87.2
111.9736,296
111.989,98.3
112.0084,196.7
112.0254,599.2
112.0278,289.5
112.0743,436.5
112.0821,124.2
112.0995,24.2
112.1414,118.3
112.2072,569.1
112.2218,820.1
112.2549,109.8
112.2958,255.2
112.3148,19.5
112.3445,99.4
112.4032,436.9
112.4057,164.9
112.4074,114.3
112.4232,122
112.4326,366.7
112.4467,113.6
112.4538,457.7
112.5216,196.8
112.5494,515.1
112.5693,307.3
112.5969,15.7
112.6026,144.2
112.622,564.9
112.6815,16.1
112.7591,476.4
112.7849,75.8
112.8328,359.8
112.865,360.3
112.8681,18.4
112.882,922.8
112.8957,449371.1
112.9034,20.7
112.9334,89.2
112.9517,92.5
113.0801,467.6
113.1078,132
113.1255,488.5
113.1401,112.4
113.2276,22.3
113.2497,553.6
113.2659,21.2
113.2807,86.6
113.284,139.3
113.3096,687.6
113.3526,98.9
113.3584,218.9
113.3641,182.1
113.4219,141.5
113.4326,536.4
113.4621,253.8
113.5076,335.4
113.5179,153.5
113.5377,256.4
113.5854,428.6
113.6186,17.3
113.6254,483.6
113.6328,159.5
113.6357,274
113.6396,435.1
113.6769,89.6
113.7405,18.3
113.7699,533.6
113.879,91
113.8995,76.5
113.9231,118.7
113.9605,147.7
113.9636,22
113.975,106.2
113.9839,23.1
113.9925,370.5
114.0524,90.9
114.0549,62130.1
114.0662,541.2
114.0721,244.2
114.0914,41.7
114.093,487
114.0945,307.1
114.1201,329.8
114.1242,80.7
114.1303,157.2
114.1501,577.4
114.1602,128.6
114.2009,372.6
114.2148,397.7
114.2306,18.2
114.2427,82.3
114.2826,244.3
114.2874,201.2
114.2912,134
114.3234,271.3
114.3359,125.5
114.3593,320
114.369,747.6
114.3781,111.8
114.3909,301.4
114.3923,165.7
114.4127,153.7
114.4226,213.3
114.4247,514.5
114.442,235.4
114.4904,103
114.4971,103
114.5585,136.5
114.6109,185.8
114.6121,293.1
114.6166,269.4
114.6377,234.5
114.6415,489.9
114.6943,557.6
114.7544,91.9
114.7903,670.3
114.822,79.7
114.8296,115.2
114.8349,787.8
114.8807,141
114.8894,648.6
114.8927,146905.8
114.9207,632.6
114.9481,295.8
114.974,158.9
114.979,145.4
115.0181,519.7
115.0211,471.9
115.0583,1429.9
115.0644,806
115.07,154.6
115.0856,109.2
115.1139,217.3
115.1538,196
115.176,167.1
115.185,431.9
115.1988,223.4
115.2089,305.2
115.2482,588.7
115.2645,174.3
115.2812,153.6
115.3063,137.5
115.365,161.1
115.3915,539.2
115.3997,95.8
115.4303,122
115.435,485.3
115.4513,75.1
115.4516,75.6
115.4956,139
115.5112,87.8
115.5217,21.1
115.5341,169
115.609,91.9
115.6284,21
115.6333,361.4
115.6575,118.5
115.6651,749.8
115.7176,798.8
115.7544,105.5
115.7604,509.5
115.7786,572.1
115.7832,105.7
115.8138,543.4
115.8455,19.7
115.8501,152.8
115.865,119.1
115.9035,17.3
115.9238,19.3
115.9728,410.5
115.9793,316
116.0092,495.1
116.0507,590.8
116.0598,215.9
116.0682,276.2
116.0706,5051.7
116.0797,563.3
116.0824,80.5
116.1824,91.3
116.19,194.2
116.1998,504
116.2872,354.4
116.3009,163.5
116.3454,142.8
116.363,154.8
116.3817,145.1
116.4632,16.6
116.4778,102.2
116.5034,107.6
116.6224,109.1
116.681,193
116.7301,137.1
116.7363,240.8
116.7868,149.7
116.8121,106.6
116.827,16.7
116.8488,498.6
116.8537,91.6
116.868,18.4
116.8758,138.6
116.8909,16864.3
116.9115,601.2
116.9177,17.9
116.9449,16.4
116.9633,124.1
116.9705,149.5
116.9859,1725.1
116.9966,22.1
117.0083,738.2
117.0257,348.3
117.0697,17.2
117.0885,16.4
117.2254,137.4
117.2867,336.8
117.2898,106.7
117.2972,17.4
117.3042,103.5
117.3065,120.8
117.3756,511.6
117.382,264.6
117.4524,167.6
117.4572,134.6
117.5382,77.7
117.5669,1053.6
117.5688,237
117.5816,108.2
117.6026,169.8
117.6091,500.6
117.6143,152.7
117.6395,161.4
117.6439,108.5
117.6595,779.2
117.6742,173.7
117.6805,19.9
117.7065,195
117.7114,199.7
117.7132,19.2
117.7297,102
117.7674,757.6
117.7736,452.6
117.7987,560
117.8145,201.9
117.9166,350
117.9455,22.2
117.985,505.1
118.0297,16.9
118.0339,835.6
118.0433,248.5
118.065,147.9
118.0781,494.7
118.1396,145
118.2064,533.5
118.2226,17.8
118.2342,17
118.2699,112.7
118.3158,572.4
118.3298,172.8
118.3631,655.2
118.3761,87.4
118.3995,481.9
118.4262,140.8
118.4613,77.5
118.4826,197
118.5036,107.4
118.5641,151.7
118.5883,143
118.5919,499.6
118.6491,75
118.6623,495.5
118.6862,306.5
118.7191,173.7
118.7322,176.5
118.7505,296
118.7688,20.4
118.8085,19.4
118.8313,18.1
118.8442,148.3
118.889,489.6
118.9328,146.3
118.9426,442.3
118.9729,529.5
118.9789,515.2
118.9829,664.6
119.0193,163.1
119.0544,513.2
119.0635,461.6
119.0946,102.3
119.1591,203.7
119.1973,303.2
119.211,155
119.2188,18.1
119.2878,145.9
119.2922,110
119.3189,334.1
119.3548,108.2
119.3683,654.2
119.395,263.1
119.4234,559.4
119.4988,461.3
119.5306,780.1
119.5643,163.3
119.5708,80.5
119.6427,136.8
119.6671,440.9
119.6759,148.8
119.7173,137.5
119.7897,284
119.791,131.2
119.8132,109.2
119.818,213.5
119.839,16.4
119.8469,201.3
119.8713,268.8
119.9235,172.5
119.9547,95
120.0031,2531.4
120.02,199.5
120.0423,19.2
120.0491,173.6
120.0548,917.7
120.0808,17535.5
120.1244,96.9
120.1585,21.9
120.1646,127.7
120.1949,142.7
120.1975,16.8
120.2219,506.9
120.2606,19
120.3811,19.7
120.4135,87.3
120.4183,457.6
120.4203,338.8
120.4347,84.7
120.5228,511.9
120.5556,291.3
120.5593,16.8
120.5684,163.7
120.5696,344.6
120.607,775.1
120.6107,265.7
120.6114,274.3
120.6146,87.2
120.6576,173.8
120.6907,104.5
120.891,137.4
120.9485,113.2
120.9737,192.8
120.9808,117.3
121.0076,397.6
121.0198,518.8
121.0284,274.9
121.0396,91.1
121.0961,308.6
121.1011,107.3
121.1208,292.7
121.1468,19.2
121.1968,138.9
121.2784,205.6
121.3019,298.5
121.3242,467.3
121.3324,166.9
121.335,146.2
121.3676,498.7
121.3836,113.6
121.3989,18.2
121.4247,103.8
121.4958,188.3
121.5253,132
121.575,20.5
121.6214,534.7
121.625,159.1
121.6402,86.6
121.6811,112.7
121.6839,274.7
121.7218,482.8
121.7242,17.9
121.7407,547.5
121.8313,580.7
121.8341,609.4
121.9413,189
121.947,242.1
121.9483,372
121.9505,209.2
121.9599,91.6
122.0379,263
122.0508,329.4
122.0668,311
122.093,17.9
122.1029,133.3
122.1461,175.4
122.1495,680.4
122.1894,113.7
122.2093,156.3
122.2133,102.8
122.2692,18.5
122.3083,129.4
122.354,21.1
122.3908,582.7
122.4248,536.1
122.4637,121.9
122.4858,277.7
122.5093,82.7
122.527,171.4
122.5492,99.7
122.5806,502
122.6266,111.4
122.6379,224.2
122.6736,89.6
122.7596,112.2
122.7802,22.2
122.7818,344.9
122.8521,234.2
122.8693,210.7
122.898,138.4
122.9035,365.6
122.9245,19484.9
122.9295,18.7
122.9405,230.1
122.974,113.8
122.9832,19.5
123.0083,285.9
123.0367,165.8
123.043,16.4
123.0741,98.8
123.1008,542.5
123.1168,24.4
123.1586,341.8
123.1811,684.3
123.1945,316.9
123.2419,17.3
123.2725,79
123.2862,762.2
123.3488,114
123.3534,388.4
123.3692,710.6
123.3941,697.6
123.4101,161
123.4437,19.3
123.4504,209.4
123.5332,447.1
123.5588,370.4
123.5631,690.6
123.5806,294.7
123.5839,228.5
123.6266,88.6
123.6658,338.3
123.6995,505.6
123.741,99.2
123.9032,22.5
123.9298,322.9
123.9412,153.9
123.9563,121.8
123.9765,513.2
123.9938,113.2
124.007,297.8
124.0138,471.9
124.0463,348.8
124.0559,497.6
124.0601,823.1
124.0674,193.1
124.0723,880.8
124.0808,291
124.1293,779
124.1392,216.7
124.1416,166.9
124.2104,305.5
124.2286,113.9
124.2502,352
124.2552,186.9
124.3143,135
124.3444,215.1
124.3618,517.5
124.3833,176.1
124.5497,332.6
124.6104,182.1
124.6508,18.1
124.6871,429.9
124.6924,489.1
124.7458,135
124.775,657.4
124.8608,16.5
124.8792,104.8
124.8955,17.8
124.9227,1585.6
124.9264,18.5
124.9863,190.2
124.9903,634.1
124.9937,162.3
124.9998,5283
125.0056,834.7
125.0077,107.4
125.0389,298.4
125.0597,62.6
125.0754,152.4
125.0868,96.7
125.1236,681.3
125.1574,397.7
125.1717,17.9
125.208,102.7
125.2283,92.7
125.2345,807.1
125.2737,556.4
125.3054,767.9
125.3097,477.1
125.323,156.7
125.3501,511.3
125.3518,104.9
125.3795,19.5
125.4315,208.4
125.4649,160.4
125.4787,144.7
125.5077,18.2
125.5145,549.7
125.5316,188.9
125.5391,467.1
125.5427,480.1
125.5485,523.4
125.6131,554.9
125.6286,193.6
125.6525,110.7
125.7196,339.5
125.7414,171.7
125.7649,196.2
125.8037,353.4
125.8285,212.9
125.8462,654.2
125.9176,274.4
125.9362,18.6
125.9907,169
125.9959,20
126.0001,59.9
126.0104,303.6
126.0142,156.2
126.0697,473.2
126.0815,16.6
126.1689,127.3
126.1707,314.2
126.2269,17.5
126.3086,85.1
126.3179,233.4
126.3278,174.9
126.3947,124.2
126.4172,283.7
126.4402,474
126.4615,101.3
126.5109,116.5
126.5173,720.8
126.553,19.9
126.5995,368.2
126.6133,341
126.6529,157.2
126.6863,18.7
126.8043,83.5
126.8538,177.2
126.8794,379.8
126.9067,110.8
126.924,277.5
126.9468,188.2
126.956,688.9
126.9858,433.8
126.9952,154.6
127.0079,21.6
127.0332,523.1
127.0478,427.6
127.0728,19.1
127.0898,393.4
127.1429,752.8
127.2704,161.3
127.2728,476.6
127.2867,806.4
127.4353,159.7
127.4792,403.1
127.4891,155.1
127.5572,17.7
127.5885,584.3
127.7035,108.7
127.743,578.3
127.7532,97.2
127.9035,93.2
127.9795,24.8
127.9834,764
128.0023,706.1
128.0291,519.2
128.0495,17.8
128.0645,18.1
128.1332,156.1
128.1578,166.1
128.2105,230.3
128.2254,115.7
128.2378,158.3
128.2793,17.4
128.2995,104
128.33,257.3
128.3481,155.5
128.3774,378.3
128.402,20.2
128.4233,340.2
128.4332,215.2
128.4996,710.7
128.5454,185.1
128.5806,94.4
128.6326,408.1
128.6357,168.4
128.6542,199.5
128.6627,150
128.754,24.5
128.7953,79.1
128.8122,390.5
128.9558,136.7
128.9639,190.2
128.9856,82.3
129.0032,1953.6
129.0096,180.5
129.0349,83.5
129.1023,829
129.1646,160.4
129.181,686.8
129.1977,101.1
129.2012,106.9
129.2115,178.1
129.2343,373.7
129.2957,17.1
129.3252,780.3
129.3747,461.9
129.5863,694.9
129.5967,699.9
129.6215,153.9
129.6563,283.7
129.6744,337.2
129.7147,797.6
129.7785,23.4
129.8104,214.7
129.8215,485.8
129.8554,93.7
129.9515,813.7
129.9546,99.4
129.9586,158
129.9871,730
129.995,84.5
130.0002,152.7
130.029,18.7
130.0499,5408.1
130.0784,108.3
130.0864,123.6
130.0948,109.3
130.1141,18.4
130.1344,350.3
130.1575,839
130.1814,117.9
130.2193,582.6
130.2705,128.1
130.2714,156.4
130.2721,188.1
130.2881,191.6
130.2943,483.5
130.3069,128.4
130.4245,115.4
130.4349,20.8
130.4613,110.8
130.4739,442.9
130.5421,17.3
130.5534,20.1
130.557,113.8
130.602,723.5
130.7349,234.1
130.7928,91.4
130.8132,601.5
130.8181,627
130.8287,106.6
130.8896,849
130.9362,96.1
130.979,27.2
130.9994,198.1
131.0002,87.9
131.0387,732.7
131.108,83.4
131.1239,350.1
131.1394,346.3
131.1417,810.1
131.1443,89
131.2043,107.9
131.2401,603.5
131.2548,19
131.2985,16.4
131.3032,157.8
131.3575,18
131.3791,597
131.4056,134.5
131.5362,166.5
131.5434,198.5
131.5447,19.3
131.5721,321.3
131.5988,179.9
131.6194,782
131.6553,133.4
131.6601,673.4
131.6713,137.3
131.6917,245.6
131.7233,20.7
131.79,553.2
131.7944,139.1
131.8641,120.5
131.8781,18.5
131.8953,471.9
131.9066,698
131.9073,767.5
131.9613,25.2
131.9685,495.2
132.0032,26372.8
132.0656,106392.9
132.075,121.9
132.0769,801.5
132.0992,160.1
132.102,471.5
132.1073,16.9
132.1829,342.4
132.2019,152.6
132.238,83.5
132.2405,378.7
132.2624,648.2
132.3501,375.7
132.3809,139.9
132.3924,367
132.473,509.9
132.4934,843.4
132.5073,335.4
132.5274,81.4
132.5602,346.2
132.5653,89.2
132.6101,161.5
132.7021,337.1
132.79,355.4
132.8621,168.9
132.927,87.4
132.9582,451.9
132.9756,308.1
132.9872,1341.9
132.9963,352.2
133.0093,497.5
133.0161,163.7
133.0295,75.2
133.0388,147.1
133.0402,158.6
133.0689,3392
133.086,50.1
133.0972,25677.7
133.1055,445.5
133.1205,18.4
133.127,18.5
133.2096,18.4
133.2438,180.8
133.2825,532.6
133.3461,513.5
133.3542,82.5
133.3577,118.7
133.3615,103.2
133.3686,21.7
133.381,18.8
133.3851,192.9
133.4252,207.2
133.4666,107.3
133.4714,265.2
133.4879,573.4
133.5205,760.5
133.5574,156.9
133.6027,537.4
133.6527,23.1
133.6563,108.6
133.6969,162.2
133.7149,134.8
133.7729,369.3
133.8173,228.8
133.8245,360.6
133.8498,132.9
133.8931,154.5
133.9029,107.5
133.9335,534
133.9682,81.5
133.9745,431.3
133.9922,501.4
134.0189,10919
134.0262,148.7
134.0277,157
134.0668,148.7
134.0698,399
134.0938,471.1
134.1208,843.8
134.1482,522.2
134.1906,656.9
134.197,18.3
134.2035,76.7
134.2922,374.5
134.2977,18.6
134.3589,515.9
134.3622,18.9
134.3815,461.2
134.4127,133.3
134.4482,114.9
134.4808,151.5
134.5194,479.6
134.5433,17.8
134.5548,494
134.5916,722.4
134.632,571.7
134.6339,145.9
134.6391,160.6
134.6887,91.8
134.7358,83.9
134.7405,164.3
134.7655,18.9
134.7851,146.3
134.7956,172.5
134.814,164.7
134.8309,182.5
134.8649,105.7
134.8854,582
134.909,656.7
134.9449,308.3
134.9661,19
134.9892,92
134.9966,52.3
135.0029,83263.6
135.0534,537.8
135.0808,21.8
135.0849,257.3
135.1093,283.2
135.1168,34.5
135.1205,756.3
135.1553,318.2
135.1714,159.8
135.1804,489.3
135.183,291.5
135.1895,79.1
135.2373,158.1
135.2501,418.9
135.305,281.1
135.3065,336
135.3585,258.1
135.3666,172.9
135.3814,132.3
135.4011,342.7
135.4823,116.3
135.505,164.3
135.5253,608.3
135.5574,845.7
135.6267,21.5
135.6427,148.5
135.6776,147.5
135.6976,103
135.7462,632
135.7495,114.6
135.7516,767.4
135.8159,105
135.8169,94.3
135.8231,126.1
135.8449,111.2
135.8604,83.3
135.8899,270
135.9473,481.4
135.9772,3133.8
135.9804,96.8
136.0038,613.9
136.0063,1389.4
136.0423,254.7
136.0482,10807.8
136.0562,95
136.0619,23
136.067,211.5
136.0757,12389.5
136.1828,144.2
136.1859,155.1
136.2134,337
136.2311,484.8
136.2476,335.1
136.2663,95.1
136.2833,155.5
136.3095,392.7
136.3909,169.2
136.4756,619.6
136.6033,221.8
136.7018,128.3
136.7701,727
136.7788,862.8
136.8048,163.4
136.8407,560.3
136.9315,710.5
136.9402,89.4
136.9532,110
136.9583,20
136.9896,72.7
136.9926,86.6
137.0945,404.9
137.1492,119.9
137.1566,430.5
137.163,123.4
137.1668,435.6
137.1775,94.8
137.1887,161
137.1905,106.9
137.2263,112.5
137.3026,123.6
137.3346,185.5
137.3562,146.3
137.3946,151.8
137.4407,154.1
137.5068,20.6
137.5194,171.4
137.5697,154.7
137.614,561.7
137.6407,18.9
137.6665,181.8
137.6772,21
137.6846,816.3
137.6983,548
137.7001,208.4
137.7403,612.7
137.781,84.7
137.7872,105
137.806,18.2
137.8336,145.9
137.8512,433.5
137.8555,149.8
137.8567,155.9
137.891,101.7
137.9039,730.6
137.9399,22.3
138.0359,149.1
138.0526,6277.6
138.0664,23.3
138.1023,616.6
138.1522,107.9
138.1565,346.9
138.1685,505.2
138.1759,254.7
138.18,638.9
138.1816,556.7
138.1832,232.3
138.1859,220.3
138.2495,395.8
138.2603,87.7
138.2658,79.7
138.2691,908.9
138.3257,188
138.3663,133.6
138.373,233.9
138.3929,546.7
138.4356,163.6
138.4889,142.2
138.5592,667.7
138.5891,668.2
138.6346,415
138.6427,303.8
138.7543,183.4
138.7833,150.8
138.8075,398.4
138.8103,111.5
138.822,342.4
138.8277,137.5
138.8525,103.6
138.9064,2033.3
139.0955,21.4
139.1376,118.2
139.1923,114.9
139.3007,448.7
139.3015,511.4
139.3248,144.3
139.3335,123.8
139.3362,161.8
139.3828,154
139.4055,508.3
139.4128,123.8
139.5127,513
139.5267,90.6
139.5377,512.3
139.5615,130.4
139.5686,242.6
139.6514,19.5
139.6551,259.8
139.6572,232.3
139.6644,107.9
139.696,229
139.7012,529.5
139.7275,646.3
139.7893,442.8
139.825,107.4
139.8269,82.2
139.8291,171.5
139.8379,151.4
139.8556,78.2
139.858,569.3
139.8629,819.1
139.9251,284.1
139.927,162.4
139.9644,160.3
139.9672,131.1
139.9819,348.6
140.0007,195.6
140.0165,3148.9
140.0189,183
140.0512,338.8
140.0537,269.9
140.065,97.5
140.0682,3828.5
140.0736,133.4
140.0775,21.5
140.0911,108.7
140.1059,660.5
140.1404,142.4
140.1481,131.9
140.2225,139.1
140.2906,131.5
140.3586,273.3
140.3664,16.8
140.3682,715.7
140.3687,959.5
140.3695,551.9
140.3739,215.3
140.3843,152.4
140.4716,239.1
140.5434,813.4
140.5721,711.7
140.6134,116.3
140.6255,434.9
140.7314,17.2
140.8167,164.5
140.9035,1606.5
140.9523,20.5
140.9723,431.8
141.0005,17761.6
141.0198,129.5
141.1014,538.6
141.1316,200.1
141.1416,188.6
141.1775,326.1
141.294,87.3
141.3073,18.6
141.3538,326.7
141.3877,144
141.4056,208.9
141.4548,469.9
141.4687,231.6
141.4869,133.7
141.5568,285.8
141.6415,307.1
141.6975,315.8
141.7007,20
141.7189,111.5
141.745,188.5
141.7849,569.3
141.8104,445
141.8163,525.4
141.8407,255
141.8457,17.1
141.8774,668.3
141.9235,244.9
141.9942,621.2
142.0019,182
142.0038,760.2
142.0122,20.2
142.0175,132
142.0543,451.1
142.1287,201.1
142.1445,183.3
142.1848,167.1
142.1928,156.5
142.3638,21.9
142.3923,18.2
142.4365,900.5
142.4391,484.9
142.4685,125.9
142.4756,203.5
142.4962,503.9
142.5348,317.3
142.5795,142.1
142.5875,500.5
142.5903,260.7
142.608,479.7
142.6316,118.3
142.6662,516.1
142.7396,127.2
142.7411,88.4
142.768,22.1
142.798,113.1
142.8341,21
142.8892,235.9
142.8932,19.5
142.8976,464.9
142.9784,766.3
142.9963,290.6
143.0011,592.1
143.019,2083.1
143.0428,114.1
143.0559,25.9
143.0647,441.7
143.0662,137.7
143.0733,130
143.0816,125
143.1181,17.6
143.147,391.1
143.2566,94.5
143.3703,290.5
143.4544,16.1
143.4806,117.2
143.5082,264.1
143.5538,245
143.5668,772.3
143.5825,138.1
143.6215,464.8
143.7685,169.5
143.8055,215.9
143.8158,298.7
143.8203,126
143.8405,20.8
143.8858,148.5
143.887,203.8
143.8876,156.6
143.8933,156.7
143.9692,210.1
143.9967,264.5
144.0107,643.5
144.0364,292.3
144.0642,513.2
144.1394,550
144.1537,84.5
144.1789,109.9
144.1906,458.5
144.2068,121.3
144.2419,560
144.2883,713.3
144.3549,824.2
144.3677,466.1
144.3705,314.7
144.4371,246.3
144.4946,1049.2
144.524,99.6
144.5384,183
144.5452,179.6
144.5555,512.5
144.6101,113.9
144.6256,331.3
144.6365,264
144.6625,109.8
144.6725,117
144.6932,208.4
144.7522,687.5
144.7655,588.1
144.828,137
144.9281,127.7
144.9323,154.4
144.9399,599.4
144.9618,89.7
144.9809,6301.8
145.0157,18.7
145.1881,153.6
145.1999,188.4
145.2432,112.4
145.3374,769.1
145.3459,322.9
145.3694,18.7
145.4422,155.2
145.4719,309.6
145.6225,250.7
145.6567,18.3
145.6977,143.2
145.7473,128.5
145.7596,486.5
145.7913,21.1
145.7986,19.3
145.9317,543.6
145.9445,193.6
145.9689,175.4
145.9755,263.9
145.9883,20.9
146.0126,5088.5
146.0189,16847.2
146.0263,38.6
146.082,115.1
146.0981,125.7
146.1192,541.8
146.1434,20.2
146.145,162.5
146.1688,509.8
146.193,168.7
146.2332,129.7
146.2542,191.5
146.2847,174.6
146.3302,323.9
146.3425,474.6
146.4181,550.8
146.4229,773.4
146.4704,511.4
146.5406,311.9
146.5627,199.8
146.5756,847.3
146.6093,565
146.6487,19.2
146.689,178.2
146.7194,573.3
146.7642,83.2
146.8433,771.9
146.8776,305.7
146.8983,349.1
146.9053,20.6
146.9095,364.9
146.9417,242.1
146.9443,107.3
146.9743,21.6
146.9818,92342.5
146.9947,17.2
147.0126,88.2
147.0685,559.2
147.0765,57459.1
147.1129,23627.8
147.1168,545.6
147.1722,280.2
147.1734,280.4
147.1848,17.6
147.2511,139.7
147.2725,323.2
147.2924,500.2
147.3186,524.1
147.4501,204.6
147.4641,113.5
147.4985,220.2
147.5487,176.4
147.5735,139
147.5755,87.1
147.5815,484.6
147.5992,230.6
147.6861,527.4
147.6929,104.4
147.8414,98.9
147.8592,119.8
147.9415,221.6
147.9741,118.7
147.9771,297.4
147.9823,365.3
147.9963,242.9
148.0798,791.3
148.1092,19.1
148.1162,294.9
148.1705,329.7
148.291,19.4
148.3013,740.2
148.3137,107.1
148.3188,17
148.328,151.7
148.3348,245.9
148.3466,371.9
148.3808,511.5
148.4124,292.9
148.459,445.6
148.4721,163.2
148.4829,133.5
148.5322,1887.5
148.5652,589.6
148.614,17.8
148.6391,19.1
148.6668,348.2
148.7636,139.7
148.8029,148.4
148.8081,298.7
148.8348,168.9
148.8901,469.7
148.9613,2409.6
148.973,697.8
148.9888,73.7
149.0026,36
149.0186,4946.7
149.0234,3524.4
149.0356,20.8
149.0622,130.4
149.0683,244.4
149.1121,152.5
149.1193,182.4
149.1325,19.5
149.1439,152.7
149.429,135.3
149.6186,16.8
149.6247,869.9
149.649,146.6
149.66,19.3
149.7009,515.4
149.7205,140.4
149.7977,269.4
149.8533,128.8
149.9022,21.7
149.9103,159
149.9764,19
149.9876,18.5
149.9928,6552.2
150.0138,7219.3
150.0268,89.5
150.0722,870.3
150.0832,246.8
150.0851,285.5
150.1455,465.6
150.2016,718.6
150.3027,146.7
150.3331,136
150.4325,163.8
150.497,91.5
150.506,163.4
150.5149,177.2
150.6047,158
150.6299,151
150.6489,301.5
150.668,206.9
150.6774,235.6
150.7571,328
150.8534,226
150.8813,266.5
150.9205,159.1
150.9769,55124.9
150.9842,3383.5
151.0459,396.6
151.0479,4430.4
151.0746,125
151.1002,137.8
151.1433,535
151.186,185.8
151.2125,290.1
151.2314,132.7
151.2971,369
151.3214,303.9
151.3316,149.5
151.3398,575.6
151.3538,160.4
151.3663,712.1
151.371,121.7
151.3879,489
151.4393,114
151.4948,138.9
151.5029,133.6
151.5521,130.1
151.5901,250.6
151.6325,143.5
151.6462,117.1
151.6943,20.6
151.7055,545
151.7564,470.6
151.8147,178.9
151.8496,540.3
151.8624,99.8
151.9194,162.3
151.9426,124.5
151.9802,526.5
151.9875,119.3
151.9912,417.3
152.0221,12407.1
152.0319,2722.6
152.0821,898.1
152.1537,193.9
152.1933,191.6
152.2047,94.6
152.2377,700.7
152.2612,303.1
152.2839,557
152.3008,453.2
152.3402,743.1
152.3856,24
152.4225,522.3
152.4446,96.7
152.4875,104.8
152.5352,225.6
152.5798,147.7
152.6396,280.8
152.6442,17.1
152.6526,18.8
152.6602,92.2
152.7707,794.5
152.7949,153.4
152.8098,20.8
152.8127,147.3
152.9751,1635.4
152.9846,30.6
153.0142,77.5
153.0867,305.1
153.1032,155.5
153.1053,296.3
153.1134,154.9
153.1159,98.5
153.1433,725.9
153.1654,183.3
153.2122,141.8
153.2524,17.7
153.2585,616.5
153.2603,95.2
153.2739,132.5
153.2755,20.2
153.3384,170.9
153.3544,18.2
153.3713,19.7
153.4311,698
153.4515,336.8
153.4568,350.2
153.4643,203.2
153.5836,210
153.6395,170.8
153.6634,123.8
153.6969,104
153.7916,527.9
153.7998,142.8
153.8982,17.4
153.9056,617.1
154.0028,255.8
154.0075,211.1
154.0111,422.8
154.0266,1524.7
154.0531,174
154.0587,1159.6
154.106,340.2
154.1173,203.2
154.1282,430.9
154.1548,510
154.2648,18.9
154.2775,104.9
154.3559,300.1
154.3583,349.5
154.4061,277.1
154.4162,239.4
154.4189,433.7
154.4211,188.1
154.4299,115.6
154.4477,185.2
154.4763,214.6
154.5462,166.5
154.6076,107.7
154.6237,158.9
154.6374,16.3
154.6865,365.5
154.7019,18.5
154.7534,155.5
154.7577,745.9
154.7608,94.5
154.779,131.9
154.8031,101
154.8299,18
154.8408,352.4
154.8598,144.1
154.8667,244
154.9076,36.9
154.9403,86.2
154.9468,170.1
154.98,22.6
155.0024,349.9
155.0208,377
155.0429,1431.4
155.0496,315.3
155.054,4338
155.0797,769
155.0837,634.2
155.0903,109.1
155.0925,170
155.1134,233.8
155.1703,609.9
155.2652,96.9
155.3054,18.8
155.3804,603.4
155.3853,578.2
155.4423,511
155.5652,198.1
155.6229,130.2
155.8511,196.6
155.8896,585.7
155.948,237.3
156.0422,3510
156.0508,21.2
156.0576,67.7
156.0769,55187.8
156.1771,196.7
156.3096,215.3
156.4187,117.8
156.4286,555.9
156.4299,453.2
156.4541,555.1
156.4608,136.1
156.5314,18.9
156.5393,505.7
156.5434,467.9
156.5809,132
156.583,725.9
156.5906,339.3
156.5992,97.5
156.6069,480.9
156.6233,455.2
156.6253,157.8
156.6343,768.5
156.7851,157.5
156.8225,523.6
156.8463,177.4
156.9219,192.4
156.948,145.5
156.9748,142.5
156.9815,288.3
156.99,409.4
157.03,238.5
157.0412,527.3
157.0571,18.9
157.0802,395.3
157.0973,118
157.1475,17.8
157.1907,277.5
157.195,305.2
157.2133,205.8
157.4153,99.7
157.4272,357.9
157.45,137.4
157.4933,17
157.5074,19.6
157.5375,791.8
157.5787,184
157.6487,220.2
157.6639,21.3
157.6979,832
157.9507,161.7
157.9597,77.8
157.9743,305.4
158.0271,2913.5
158.0527,277.3
158.1079,166.1
158.1149,568.2
158.1413,275.1
158.2481,90.2
158.333,510.6
158.3552,17.8
158.4236,95.1
158.4553,116.8
158.5035,140
158.5414,205.6
158.608,18.3
158.7038,577.4
158.8029,135.2
158.8295,17.9
158.8418,603.1
158.8915,926.5
158.898,18.7
158.9282,830.4
158.9605,231
158.9642,7938.4
158.9966,10993.7
159.011,25.4
159.0281,409.9
159.0304,96.2
159.0395,548.2
159.3494,312.5
159.3965,129.4
159.3986,149.7
159.4387,337.1
159.5132,158.4
159.5443,103.3
159.6016,250.5
159.6434,82.5
159.6494,103.8
159.7834,191.8
159.8081,136.6
159.8216,19.7
159.8464,398.2
159.8981,155.4
159.9513,730.6
160.0014,164.4
160.023,70.2
160.031,23.1
160.0346,16689.1
160.0606,123538.6
160.1683,19.1
160.1776,145
160.21,181.6
160.2241,541.8
160.2615,735.9
160.2634,370.4
160.3477,204.5
160.383,118.4
160.4009,106.8
160.423,20.2
160.4348,145.7
160.4489,18.9
160.4854,163.5
160.4965,186.5
160.5013,170.9
160.6413,107.5
160.6726,113.7
160.6774,770.4
160.7705,661.4
160.8104,561.1
160.867,101.2
160.9848,236.2
160.9923,90.7
160.9996,249.6
161.0259,557.3
161.0341,251.5
161.0639,5789
161.1287,1751.9
161.1325,609.5
161.1641,264.2
161.1999,567.6
161.2189,269.8
161.2921,609.7
161.4115,151.6
161.5176,736.3
161.6231,346.1
161.6581,159.4
161.6997,19.6
161.7123,580.7
161.7317,16.7
161.7634,473.4
161.8011,172
161.8229,250.3
161.8251,323.7
161.8329,121.8
161.8507,468
161.8795,80.8
161.882,620.3
161.9289,104.1
161.9931,265.3
162.0032,107.1
162.0248,517.6
162.0421,133.2
162.0502,18471
162.1128,312.3
162.1214,85.5
162.1708,126
162.2197,108
162.2258,480.1
162.2595,329
162.2803,508.4
162.3,222.5
162.3365,103.3
162.394,115.8
162.513,34.6
162.5455,227.8
162.5479,422.5
162.6063,181
162.7102,20.3
162.785,486.8
162.7988,634.4
162.8538,19.4
162.8778,62.2
162.9201,643.3
162.9225,297
162.9559,6025
163.0157,5293.5
163.033,486
163.0343,531.3
163.0392,30.4
163.0501,233.5
163.0769,150.9
163.1413,517.9
163.1671,86.2
163.1954,478.2
163.2717,19.9
163.2981,186.3
163.3117,18.1
163.3278,180.5
163.3967,351.8
163.551,452.1
163.5563,159
163.5625,251.8
163.5827,143.2
163.6345,280.7
163.6389,175.4
163.6412,807.1
163.6464,147.9
163.6659,156
163.7068,181.6
163.8049,493
163.8837,358.6
163.8918,713.3
163.9113,208.3
163.9333,96
163.9429,151.5
163.9777,521.9
164.0232,596.6
164.0295,14500.1
164.146,124.8
164.2877,81.6
164.2948,567.9
164.3259,210.8
164.3285,833.6
164.3536,243.3
164.4338,415
164.4785,823.2
164.5522,117.2
164.5664,472
164.6325,19.7
164.6405,355.2
164.7252,153
164.7742,199
164.7867,17.7
164.7955,585.8
164.8026,304.4
164.819,162.7
164.8337,543.2
164.8793,143.5
164.8976,162.2
164.9085,97.6
164.9207,5104.3
164.9302,15119.3
164.9351,2523.5
164.9406,316.2
164.9846,24.4
164.9926,2236.6
164.9961,533.3
164.9999,516.9
165.0153,502.4
165.0466,325.5
165.0587,284.2
165.0642,605.6
165.1246,217.8
165.1544,431.3
165.2404,276.2
165.2505,168.3
165.2738,534.8
165.3261,166
165.3529,143.7
165.4645,87.8
165.5083,182.4
165.5695,312.6
165.5786,94.5
165.7155,82.9
165.7339,410.2
165.7527,98.6
165.7894,452.5
165.9559,19.1
165.9668,1813.7
165.979,2077.8
165.9878,5729.4
165.9951,1272.8
166.0027,20
166.0184,17.7
166.0222,723.3
166.0671,167.6
166.1168,403.9
166.1374,213.2
166.1766,212.9
166.2141,17.4
166.2285,541.5
166.3272,284.5
166.3393,344.9
166.3875,533.9
166.4087,364
166.4795,137.4
166.5118,712.4
166.5448,119.8
166.6095,593.7
166.6427,610.7
166.7166,19.4
166.7241,346.2
166.8069,453.3
166.8202,799.4
166.8515,163.6
166.8971,17.6
166.9185,197.1
166.9509,24537.4
166.9794,51.5
166.9935,270.2
167.0219,6077.3
167.0369,21
167.0679,352.1
167.1053,986
167.1438,18.1
167.1528,598.8
167.2114,169.9
167.2243,315.9
167.2481,439
167.255,491
167.3487,176.3
167.3832,138.7
167.4094,103.9
167.4246,237.9
167.4581,296
167.46,20.5
167.6142,118.1
167.6288,19
167.6615,563
167.7008,766.8
167.7302,100.1
167.7694,18.3
167.7848,17.2
167.9707,166.9
167.9947,3607.1
168.0432,19.1
168.0471,20.9
168.0552,480.1
168.0686,833.5
168.2028,192.3
168.2165,149.2
168.2692,144.4
168.278,178.5
168.2955,209.1
168.2988,584.7
168.3033,535.9
168.3724,163.1
168.393,18.3
168.4129,22.8
168.4375,423.7
168.5112,340.7
168.5221,619.6
168.6331,24.8
168.6622,131
168.6642,209.7
168.6701,387.1
168.7266,402.8
168.8369,257.7
168.8622,570.3
168.8794,18.8
168.9227,738.2
168.9253,31.3
168.9376,41.5
168.949,2181.5
168.9522,508.9
168.9895,744.1
169.0102,328.8
169.0156,16.9
169.0586,58706
169.0651,272.3
169.095,1637.6
169.1011,104.7
169.1144,173.5
169.1359,311.1
169.1385,17.6
169.2087,118.6
169.2249,100
169.2617,325.1
169.3246,132
169.3276,22
169.376,573.9
169.3997,17.2
169.4083,163.4
169.4487,826.7
169.4927,131.3
169.5913,180
169.6602,94.8
169.7344,505.7
169.7364,414.1
169.7613,93.7
169.7987,637.8
169.8169,516.9
169.83,707.4
169.8344,311.4
169.9862,773.4
169.9978,218.8
170.0328,4079.4
170.062,427.9
170.0715,87.5
170.0926,5555.5
170.0946,108.2
170.106,219.6
170.1191,294.4
170.1452,82.2
170.2017,155.3
170.2267,19.9
170.2865,546.6
170.3,135
170.444,154.1
170.4974,156.4
170.4998,169.4
170.5418,562.2
170.5688,180.1
170.6215,532
170.624,310.3
170.6345,180.1
170.7971,324.2
170.818,603.9
170.8545,6076.3
170.8565,280.5
170.8751,155.1
170.8974,87.5
170.9143,129.7
170.9821,147.9
171.0169,2322.5
171.028,284.2
171.0428,159
171.0532,703.2
171.081,296.9
171.1175,84.7
171.1448,86.4
171.2805,83.5
171.2941,139.5
171.3426,118
171.35,104
171.5211,899.4
171.6397,101.8
171.6478,157.2
171.6617,515.3
171.7501,182.7
171.8046,122.2
171.8828,17
171.9576,90.7
171.9799,501.4
172.0283,621.8
172.0316,277
172.0483,312
172.0687,453.5
172.0849,334.5
172.1994,20.7
172.2385,211.1
172.2987,18.1
172.3176,17.7
172.4366,20.2
172.468,291
172.5186,252.2
172.5317,167.4
172.5377,19.4
172.5832,22
172.6182,260.9
172.6487,22
172.6556,500.3
172.6795,752.2
172.7421,306.9
172.7481,537.8
172.8514,1905.6
172.86,710.9
172.8858,17.1
172.9244,96.5
172.9477,17.3
173.0269,412.5
173.03,422.6
173.0391,104.7
173.0756,168.8
173.1374,218.3
173.1464,519.4
173.1615,147
173.1681,424.4
173.1844,490.6
173.2306,269.1
173.2388,633.2
173.2432,852.4
173.3231,542.6
173.4504,89.9
173.5124,18.3
173.5626,613
173.5686,322.9
173.5717,18
173.587,370.7
173.6148,102.5
173.6588,108.1
173.6711,113.8
173.6968,127.9
173.7133,291.5
173.8011,363.8
173.8635,79.7
173.8698,27.4
173.9671,131
173.9873,500
174.0822,110.7
174.0883,130.1
174.0896,259.8
174.1122,216.6
174.1187,94.9
174.1599,137.3
174.1724,371
174.2685,104.5
174.3291,332.1
174.3451,84.4
174.361,106.5
174.3814,109.1
174.4594,481.5
174.5068,193.2
174.5463,141.8
174.6944,19.1
174.7024,106.1
174.7668,160
174.8744,254.8
174.8957,334.4
174.9003,61.4
174.9382,5419.5
174.9697,735.4
174.9732,495.4
175.0343,8613.8
175.0456,2833.7
175.0552,16.6
175.1082,264
175.1192,88093
175.1486,826.6
175.22,719
175.3346,390
175.3375,19
175.3537,166.8
175.3972,203.1
175.4136,343.3
175.4202,249.9
175.4317,22.7
175.4476,727.8
175.4529,1042.4
175.4736,17
175.5081,159.6
175.5475,121.5
175.5522,100.1
175.5569,193.8
175.5937,565.2
175.6077,207.3
175.6666,146.3
175.7211,833
175.7623,579.4
175.84,922.1
175.8431,331.6
175.9394,192.7
176.0004,65
176.0086,10031
176.0267,750.7
176.066,30114.9
176.1032,3835.9
176.1227,1031.7
176.1541,21.2
176.2092,281.9
176.2297,18.1
176.3066,88.8
176.3206,245.4
176.4901,482.2
176.5695,225.5
176.5977,115.8
176.6081,215.9
176.6527,115.4
176.7173,494.1
176.7565,327.2
176.878,36.9
176.8942,657.3
176.9335,20.8
176.9925,1498.5
177.0053,334.2
177.0107,543.8
177.0133,151.3
177.025,4868.6
177.0307,205.4
177.0612,11534.2
177.0656,172.9
177.0873,455.1
177.2063,106.9
177.2848,417.4
177.3159,18.8
177.3392,116
177.4168,468.9
177.4568,185.4
177.521,600.4
177.5513,84.7
177.6031,249.6
177.6353,714.7
177.7873,92.5
177.8894,516.3
177.9109,162.7
177.9142,496.6
177.9714,126.7
177.9948,23.5
178.0089,10541.5
178.0243,10312.2
178.0531,325.4
178.0558,337.6
178.059,6171.2
178.1683,237.7
178.1755,1412.8
178.2388,17.7
178.2582,535.7
178.2879,106.8
178.2904,24.8
178.3409,252.1
178.3545,501.4
178.4305,480.6
178.5197,16.8
178.6567,165.1
178.7041,149.1
178.7648,107.8
178.8105,732.9
178.8367,492
178.8398,105.5
178.8748,714.5
178.8758,702.9
178.9053,135.2
178.9219,23.4
178.9542,230.8
178.9762,392
179.0029,60.6
179.0329,787.2
179.0808,92.9
179.1164,129.8
179.1218,289.5
179.173,160.7
179.2955,160.5
179.4434,77.7
179.5156,94
179.5356,284.7
179.5542,358.2
179.5682,151.2
179.5934,158.5
179.5992,172.8
179.6395,17.8
179.9842,19.7
180.0035,13082
180.0108,58.3
180.0551,98.7
180.1021,491
180.1959,80.4
180.2133,284.5
180.2585,727.8
180.3679,127.2
180.4439,394.2
180.4599,19.2
180.5184,499.9
180.5338,21
180.5743,277.7
180.5847,192.5
180.6542,836.5
180.6723,562.4
180.7578,528.5
180.7794,488.5
180.8034,183.1
180.8137,487.4
180.8564,18.3
180.8884,275.1
180.8947,4037.9
180.9041,9381.7
181.0161,27.6
181.02,547.5
181.0264,817.3
181.0523,156.3
181.0652,8307.6
181.2138,899.2
181.2194,643.1
181.3797,105.9
181.4299,194.3
181.5063,207.6
181.5436,311.6
181.5619,166.1
181.6335,113.8
181.6415,298.4
181.6975,94
181.7078,617
181.7192,127.4
181.8256,20
181.8369,860.5
182.0023,498.4
182.0115,21.2
182.0184,17.5
182.0305,120.6
182.0347,161.9
182.0426,36406.9
182.1168,229.9
182.1288,354
182.1571,479.6
182.2471,631.1
182.2631,260.5
182.2842,407
182.3554,574.5
182.3642,520.4
182.4318,140.3
182.4644,549.4
182.5547,17.4
182.7241,355.3
182.7288,131.4
182.7486,410.1
182.7575,144.7
182.813,190
182.8624,480.7
182.8653,161
182.8746,299.9
182.9024,57.3
182.9265,314.7
183.0308,439.6
183.0447,1295.5
183.055,196.8
183.0619,18.5
183.0689,154.9
183.1056,462.3
183.2272,167
183.3766,94.5
183.384,89
183.4667,238.3
183.4865,98.4
183.5642,303.6
183.5776,197.6
183.6269,16.6
183.6335,121.4
183.6371,754.9
183.6489,123.8
183.6598,871.9
183.6778,19.2
183.7018,210.3
183.7425,276.7
183.9025,329.8
183.9328,274.3
183.9652,1349.1
183.9882,217.6
184.0203,20.7
184.0374,1206.4
184.0659,1532.4
184.0683,1906.8
184.0736,4520238
184.0779,4255.4
184.0807,806.5
184.0944,658.3
184.1098,1245.5
184.1272,113.1
184.1304,706.2
184.1697,44.5
184.1822,2071
184.3067,89.9
184.3707,344.8
184.4003,621.6
184.538,152.1
184.5934,291.1
184.6417,567
184.6857,681.4
184.7255,98.8
184.8578,465.4
184.8765,116.8
184.9302,21.2
184.9994,1006.9
185.0326,55425.1
185.0375,32.1
185.0705,8191.7
185.0769,211591.8
185.0796,4254.8
185.1367,599.4
185.1598,147.5
185.2447,493.3
185.2744,112.1
185.2974,148.2
185.3453,17.8
185.4067,454.3
185.477,92
185.5651,546.8
185.5734,162.3
185.6266,105.3
185.646,279.9
185.6863,116
185.7347,283
185.7481,104.2
185.7977,923.2
185.8069,161
185.8255,76.9
185.8399,230.8
185.8663,19
185.8764,175.1
185.9016,521.6
185.9284,124.2
185.96,1098.3
185.9989,1222
186.0228,295.7
186.0778,28510.1
186.1782,166.7
186.2372,108.6
186.2909,121.8
186.299,304.8
186.3571,255.7
186.3721,296.7
186.416,101.6
186.4182,85.2
186.4903,129.9
186.5104,187.1
186.5205,204.7
186.5309,129.2
186.5749,1216.4
186.7599,715.8
186.8209,87.2
186.8674,19.1
186.8785,78
186.9093,135.6
186.9122,3562.6
186.9513,200.5
186.962,20.5
187.0308,1957.9
187.058,1624.6
187.0717,2084.9
187.1079,2663.2
187.1307,310.2
187.1423,103
187.2103,17.3
187.232,131
187.2968,435.6
187.311,492.6
187.3868,431
187.4336,538.7
187.4684,476.8
187.4775,124.2
187.5736,485.8
187.6983,445.4
187.7011,99.6
187.7453,95.3
187.7902,19.1
187.9364,21.9
187.995,501.7
188.0497,20.6
188.0792,100.3
188.2212,189.5
188.2425,126.8
188.252,152
188.2913,930.7
188.295,148.4
188.3171,192.3
188.3431,518.8
188.3616,87.7
188.4742,159.5
188.5137,526.8
188.5467,405.7
188.5516,501.4
188.5866,381
188.7266,542.5
188.7746,288.1
188.8099,111.1
188.8673,427.8
188.8776,26.5
188.9394,187.3
188.9474,18.2
188.9749,582.5
189.0074,493.6
189.0151,163
189.0212,20.7
189.0613,2675.4
189.0719,584.9
189.0872,10628.1
189.1916,20.1
189.2687,750.7
189.4882,874.4
189.5001,18.7
189.5066,554.3
189.575,253.4
189.666,447.1
189.7248,722.2
189.7289,426.1
189.7467,510.6
189.7515,535.2
189.8119,112.4
189.9228,17.6
189.9469,307.5
189.9979,104.7
190.039,182.3
190.0778,88.6
190.2039,316.9
190.223,335.2
190.2558,778.8
190.2752,434.3
190.4147,116.1
190.4632,154.9
190.4787,269.9
190.5,224.2
190.5396,19.2
190.5492,300.7
190.563,185.2
190.6023,241.7
190.6598,124.5
190.6634,868.3
190.7306,461.9
190.74,98.1
190.7516,540.2
190.862,195.6
190.8727,237.3
190.9094,43.8
190.9122,925.2
190.9279,611.9
190.9365,215.1
190.9853,19.3
190.9983,18.7
191.0005,80.5
191.0083,4751.8
191.0249,21.3
191.0282,808.1
191.0405,128425.4
191.0586,89.3
191.0681,280.1
191.077,18497.6
191.132,605.2
191.157,99.4
191.1631,349.7
191.1702,20.3
191.2984,175.1
191.3323,85.7
191.3402,130.9
191.4592,475.9
191.4597,473.5
191.5764,255.2
191.7823,188.3
191.8399,627.8
191.8497,21.7
191.8644,518.1
191.9827,1935.3
191.9966,114.5
192.0111,21.3
192.0233,108.4
192.04,18864.1
192.0438,4543.6
192.0788,126.5
192.0958,148.8
192.2172,221.1
192.2339,100.9
192.2458,188.7
192.252,19.6
192.2671,515.2
192.4111,322.2
192.4767,166.4
192.513,157.3
192.5209,402.9
192.6069,19.2
192.6176,134.6
192.689,19.3
192.6979,325.7
192.7165,322.5
192.7261,106.8
192.7505,290.1
192.7804,138.6
192.8425,131
192.8588,152.8
192.8981,197
192.913,18.1
192.9619,660
192.9732,205
192.9806,167.1
192.9988,5571.6
193.0074,535.6
193.0124,163.9
193.0161,124
193.0285,305.9
193.0352,6044.6
193.0441,345.7
193.1608,391
193.1639,547.4
193.1975,312.4
193.2044,505.3
193.2078,192.2
193.2131,19.4
193.2394,17.7
193.2534,335.3
193.2824,107.6
193.3445,88.8
193.3517,186.7
193.5045,119.6
193.675,169.5
193.7188,116.2
193.7765,124.5
193.7906,730.9
193.8109,156.1
193.8756,190.4
193.9983,1193.9
194.0053,1202.1
194.0107,91.8
194.0225,477.2
194.0331,3603.6
194.0383,540.7
194.0448,628.3
194.1426,18.6
194.1542,65.6
194.1846,304.7
194.3069,739.4
194.3217,17.2
194.46,678.2
194.6671,257.7
194.689,207.5
194.7534,113.8
194.9041,92.9
194.9205,108.7
194.9459,226.2
195.0045,392.1
195.0116,19.1
195.0442,399.2
195.1306,523.5
195.1533,257.7
195.2308,221.9
195.2528,403.3
195.2887,23.9
195.3468,100.3
195.4488,348.5
195.5813,236.8
195.6262,178.5
195.6652,524.1
195.6917,106.6
195.7237,834
195.7325,309.8
195.7567,485.2
195.8398,19.5
195.8958,20.3
195.908,288.2
195.9454,210.7
195.9774,638.1
196.0053,509
196.0411,108.7
196.0767,302.9
196.0793,250.9
196.1001,787.1
196.1328,213.9
196.1698,267.7
196.1739,470.8
196.2609,722.3
196.2635,579
196.2695,308.1
196.2728,786.7
196.2754,95.1
196.3253,319.7
196.3372,16.4
196.3481,332.9
196.4065,194.9
196.4153,301.7
196.5056,505
196.5241,861
196.6858,175.5
196.6869,167.1
196.7341,303.1
196.8269,520.3
196.852,181.8
196.8654,8006.2
196.8687,755.8
196.8782,2238.5
196.9327,137.4
196.9547,772.5
196.9662,346.5
196.9693,23.9
197.013,225.5
197.0353,274.2
197.0602,88.4
197.1012,1097
197.1256,313.5
197.1869,105.7
197.2181,298.1
197.2469,124
197.2856,244.8
197.4216,357.9
197.484,250.1
197.493,144.7
197.4982,367.9
197.5172,121
197.5486,585.5
197.5884,107.7
197.6251,810.5
197.7335,484.7
197.8624,306.7
197.917,185.2
197.9286,100.6
197.9384,294.5
197.9435,224.1
198.0069,20
198.0852,13000.1
198.0895,689.8
198.1618,534.3
198.1855,5582.4
198.198,269.9
198.2835,188.4
198.3319,350.7
198.3402,499.4
198.3533,201.4
198.3924,450.4
198.5353,368.9
198.6288,490.3
198.6415,114
198.6498,300.7
198.8053,319.7
198.8368,154.3
198.8624,4974.2
198.9054,869.3
198.9736,22.7
199.0168,154.1
199.0423,310.9
199.056,132.5
199.069,473.9
199.0758,894.7
199.0802,61.4
199.0921,133.1
199.1721,161.1
199.1889,238.4
199.2856,18.7
199.3001,132.6
199.3175,337.5
199.4432,152.3
199.4453,85
199.5275,489.4
199.5915,103.8
199.5937,132.5
199.6,18.8
199.6354,19.5
199.7583,109.8
199.8249,18.7
199.923,20.3
199.9909,30186.8
200.0072,915
200.0251,85.8
200.0352,162.3
200.041,17057
200.088,8330.9
200.1037,89.1
200.1076,179.2
200.1336,83.3
200.1485,144.8
200.1824,95.8
200.2108,412.2
200.2877,163.8
200.3229,148
200.3252,78.2
200.4065,325.3
200.5401,333.1
200.5844,503.2
200.6332,116.8
200.8593,1257.5
200.8945,630.1
200.9067,226.1
200.9131,18.5
200.9894,929.4
201.0551,218.7
201.0873,205.7
201.1333,17.4
201.1527,287.5
201.2088,111.1
201.2294,324.3
201.2486,86.2
201.5151,111.6
201.5984,632.5
201.7574,118.1
201.7645,338.5
201.865,102
201.8944,95.8
201.9807,645.6
201.9919,106
201.9957,51.2
202.0165,37.8
202.0262,139.4
202.0675,325.5
202.0799,89.6
202.1119,173.1
202.1178,294.3
202.1379,403.5
202.2133,452.6
202.2413,265.2
202.2609,340.1
202.2634,100.7
202.2856,458.3
202.4087,287.1
202.4218,452.7
202.4393,149.9
202.4633,22588.3
202.5178,124.4
202.5389,777.7
202.5571,356
202.5867,767.8
202.7143,17.6
202.7294,174.5
202.7367,18.3
202.7633,338
202.768,110.9
202.8059,140.5
202.8733,52.5
202.8862,621.1
202.8961,20.3
202.9641,100.8
202.9958,18.8
203.0112,113.6
203.0269,213.5
203.0402,712.8
203.0529,1624252.6
203.077,7721.8
203.0848,92.3
203.1351,590
203.1412,110.2
203.1982,110.3
203.2201,91.1
203.2489,153.2
203.2553,683.3
203.2829,106.4
203.3732,19.9
203.5184,331.6
203.5232,17.8
203.5588,546.4
203.5785,223.8
203.6274,17.1
203.8235,489.1
203.9461,52.7
204.0157,115.1
204.0247,44711.4
204.0563,81239.8
204.0634,1172.3
204.0743,151.2
204.087,623.4
204.1308,18.9
204.1618,514.8
204.235,18
204.2907,17.4
204.2986,347.3
204.6216,217.7
204.6618,19.5
204.8143,18.1
204.831,16.7
204.8822,115.7
204.8889,949.2
204.8996,100.9
204.9199,825.8
204.9307,157.4
205.0045,521.8
205.0161,21.4
205.0277,349.3
205.0348,131.7
205.0572,15028.9
205.0686,526.8
205.0838,50.1
205.1654,20.2
205.1931,222.7
205.2187,121.4
205.2412,99.3
205.3096,294
205.3356,235
205.361,85.8
205.3646,411.6
205.368,405.3
205.4746,15.8
205.4791,92.6
205.5151,163
205.5354,178.7
205.5581,616.4
205.6482,133.7
205.6516,130.9
205.6655,137.6
205.7447,102.3
205.7875,779
205.8137,103.7
205.8223,516.3
205.8895,450.9
205.9426,23.8
206.0477,58.5
206.0733,112.2
206.1239,631.7
206.2069,19.7
206.2378,201.1
206.2442,168.6
206.2648,20.7
206.3887,115.2
206.4099,17.2
206.4127,21.1
206.5031,171.2
206.5948,17.5
206.6143,223.3
206.7026,241.1
206.7224,93.1
206.7551,972
206.7731,568
206.7941,170.6
206.8755,21.5
206.8881,31.9
206.8942,14713.8
206.917,205.1
206.9824,3104.2
206.9979,56.7
207.0145,87968.4
207.0336,88
207.0445,3510.5
207.0509,10792.3
207.0818,18.4
207.107,155.9
207.1218,136.4
207.1617,103.9
207.2419,121.1
207.2852,98.3
207.3308,164.2
207.3709,251.3
207.4549,147.6
207.4808,224.9
207.4886,211.8
207.5301,26.7
207.5344,92.1
207.8027,245.4
207.8318,326.4
207.8499,219
207.9319,223.2
207.9734,188.4
207.9912,243
208.0139,2984.6
208.0177,3620.3
208.0412,322.7
208.1325,351.5
208.1452,360.2
208.2655,171
208.2853,902.4
208.3343,156.6
208.4099,25.4
208.4232,135.9
208.4733,18.6
208.5265,450.8
208.5881,785.4
208.6123,262.9
208.6562,188.6
208.684,811.2
208.7006,307.1
208.823,113.3
208.8833,693.6
208.8913,10146.1
208.9356,457.2
208.9549,25.3
208.9729,360.2
209.0125,3935.2
209.0528,573.6
209.0858,106.9
209.195,286.2
209.2237,742.4
209.3363,93.1
209.3808,124.7
209.3841,20.8
209.3968,539.1
209.4634,187.8
209.4792,203
209.4945,17.5
209.5516,101.8
209.5993,667.7
209.6018,290.7
210.6416,152.5
210.7923,18.8
210.8881,1186.7
210.9375,109.6
210.9486,23.1
210.9606,453.5
210.9699,577.1
210.9776,196.3
211.0538,1427.2
211.0692,554.4
211.1403,7894.8
211.1494,32351.7
211.1535,36062.5
211.1602,9777.7
211.1684,170.9
211.1727,503.7
211.445,171
211.4649,21.8
211.5486,330.6
211.6887,181.1
211.8589,354.6
211.8666,22.1
211.8796,214.9
211.8907,293
211.894,153.7
211.9666,24.3
212.0745,81.8
212.1033,324.2
212.1224,113.3
212.2023,19.1
212.4053,527.9
212.6162,18.1
212.6582,164.2
212.8218,232.3
212.8354,16.7
212.8392,2004.8
212.9371,320.5
212.9898,22.4
213.0002,482
213.0197,17.6
213.055,883.6
213.0749,947.9
213.1651,103.7
213.1893,652.7
213.2304,642.2
213.2557,757
213.3416,97.5
213.4666,17.7
213.5315,319
213.5942,187.6
213.6022,78.1
213.6113,362.2
213.6663,345.3
213.6896,194.2
213.7272,587.1
213.7578,303.8
213.8353,551.2
213.9076,418.4
213.9107,316.6
213.9622,1706.9
213.9849,679.6
214.0066,2089.4
214.0104,193.2
214.0493,165.4
214.0592,15527.8
214.0791,130.4
214.0905,1322.3
214.361,123.2
214.4041,405.1
214.5313,343.3
214.5489,101.4
214.6206,20.9
214.6681,99.2
214.7625,137.3
214.8078,362.9
214.8362,2687.3
214.8739,98.2
214.9109,134
214.918,146.4
214.9657,44.5
214.9936,19.7
215.0932,73.9
215.14,127.3
215.2003,366.1
215.2086,532.6
215.2499,113.4
215.3356,385.5
215.4728,838.3
215.5107,202.4
215.524,182.1
215.5905,152.7
215.6157,19
215.7615,93
215.7789,130
215.7983,30.5
215.8814,86.3
215.9277,319.7
215.9456,107.8
215.9576,23.1
215.9741,142.5
216.0149,12477.3
216.018,1354.8
216.0323,19.6
216.0671,197.1
216.1731,587.1
216.2545,322.3
216.3052,362.7
216.3117,156.3
216.3703,98.7
216.3775,464.7
216.4787,148.6
216.508,16.1
216.526,235
216.5469,357.5
216.5637,91.3
216.6096,20.1
216.6549,566.8
216.7994,333.5
216.8086,533.2
216.8336,549.3
216.8404,19.6
216.8887,22.9
216.923,39529.8
216.957,831.6
217.011,21.1
217.0183,19.5
217.0275,240.7
217.0403,157.2
217.0549,187.5
217.0615,463.9
217.0662,167.9
217.1128,155.9
217.1354,160.4
217.1909,575.1
217.2,171.2
217.2183,127.3
217.2631,362
217.5235,683.1
217.5318,371
217.5723,155.2
217.603,586.1
217.6098,137.1
217.6837,122.7
217.6894,136.2
217.7331,697.2
217.8277,84.2
217.8976,24.7
217.9056,216.2
217.9709,558.3
217.9886,20.9
218.0156,46.2
218.0334,669.9
218.0393,16.9
218.0425,569.3
218.1177,933.7
218.1218,125.9
218.152,26.8
218.2762,77.2
218.3639,99.5
218.3657,112.1
218.3916,109.9
218.6893,280.3
218.6935,20.9
218.7404,337.9
218.7582,190.5
218.8396,248.1
218.8518,90
218.8677,145.2
218.9046,544
218.9151,561.6
218.9201,11929.1
218.9454,83.7
218.955,129
218.9755,20.6
219.0182,3295.7
219.0269,1786099
219.0329,546.4
219.0831,9253.8
219.1138,103.1
219.1172,247.9
219.2066,272.4
219.2219,567.1
219.3142,240.8
219.3379,268.8
219.3926,18.7
219.4082,946.6
219.4649,689
219.4974,18
219.5898,201.2
219.6706,257
219.6892,331
219.7268,106.2
219.81,276.2
219.841,234.6
219.9008,102.3
219.9042,20.9
219.912,17.5
219.9193,349.1
219.946,161.2
219.9987,263
220.0302,98523.8
220.0374,2195.7
220.0672,14392.3
220.1113,578.5
220.1262,131.5
220.1337,251.3
220.1675,463.8
220.1965,132.4
220.2233,82.1
220.2974,381.4
220.4269,209.1
220.4651,527.5
220.4724,585.8
220.4827,358.6
220.7928,261
220.8053,139.9
220.8233,513.7
220.8839,89.1
220.9061,22.5
220.9173,103.6
220.9962,110.3
221.0117,476
221.025,105947.3
221.0311,12579.4
221.0513,1145.1
221.0705,16.4
221.0847,144.1
221.0879,440.5
221.1008,507
221.1338,212
221.3423,92.5
221.4463,346
221.494,112.1
221.5168,277.8
221.5547,121.6
221.5854,116.9
221.6613,139.6
221.6827,306.5
221.7337,522
221.7691,150.8
221.9566,218.4
221.984,2486
221.9937,510.2
222.0284,4307.7
222.068,80.3
222.0893,441.5
222.1611,19.8
222.3678,273.5
222.3722,155.7
222.3752,190.3
222.3807,20.7
222.4173,473.4
222.478,126.2
222.4849,398.9
222.5865,17.1
222.594,19.5
222.6606,17.1
222.7391,20.7
222.7967,136.2
222.8681,16434.1
222.8797,540.5
222.8884,626.9
222.8994,272.6
222.9005,295.9
222.9369,533.2
222.9412,340.5
222.9543,264
222.9595,316.8
222.9885,8797.6
223.028,19.5
223.0381,434.1
223.0514,728
223.0644,20.9
223.1254,18.4
223.3195,18.8
223.328,213.6
223.3401,569.1
223.3685,121.7
223.3964,132.1
223.4305,461.7
223.4669,150.3
223.5364,503.4
223.5429,105.6
223.5554,17.9
223.5589,21.7
223.6102,191.6
223.6299,110.7
223.6714,311.4
223.7264,460.5
223.7757,115.7
223.915,119.7
223.9163,130.7
223.9175,128
223.9536,50.1
223.9641,802.3
223.9825,116.5
224.0298,2049.9
224.1422,849.4
224.2487,18.7
224.2746,116
224.4091,127.5
224.4387,17.9
224.4657,165.6
224.7054,17.8
224.8651,7092.9
224.9234,112.4
224.9276,139.2
224.9308,540.4
224.9563,82.5
224.9641,283.5
225.0446,650.5
225.055,29277.7
225.085,870.4
225.1702,901.5
225.2353,563.7
225.2475,300
225.3418,175.1
225.3524,189.7
225.3868,511.7
225.4712,302
225.5455,463.4
225.572,447.6
225.6342,164.2
225.6621,201.7
225.7156,19.5
225.7411,107.7
225.7571,503
225.8229,176.3
225.9516,38.3
225.9625,29.6
225.9916,842.8
226.0021,83.6
226.0067,1155.5
226.0188,515.1
226.0244,13716.9
226.0453,12366.7
226.0588,793.1
226.0922,362.4
226.2224,575.8
226.3488,474.8
226.4754,761.2
226.533,131.8
226.5381,90.8
226.6796,157.4
226.6932,175
226.7413,99.8
226.7951,17.5
226.8073,141.8
226.8623,557.2
226.8679,19.2
226.9137,20.5
226.9213,574.3
226.9518,32659.7
226.9745,403.3
227.0029,20
227.0341,957.7
227.0437,451.7
227.0592,116.3
227.0796,3451.4
227.0866,169.8
227.1015,148.7
227.2872,261.9
227.3657,352.7
227.3999,117.1
227.519,196.5
227.532,103.9
227.6166,249.9
227.6188,581.7
227.6435,101.8
227.6948,226.6
227.7804,640.3
227.806,291.3
227.8122,833.1
227.9386,125.1
227.9619,190.6
227.986,29.6
228.0005,224.5
228.0224,1482.1
228.0518,513.6
228.0563,466.9
228.0963,113.4
228.1674,152.1
228.177,116.5
228.1813,139.3
228.2329,127.6
228.2632,252.7
228.3387,667.5
228.3814,17.4
228.6335,203.3
228.6612,17.8
228.6909,315.6
228.6921,282.2
228.7442,177.4
228.7645,419.4
228.8894,44.3
228.9521,108.7
228.9604,121.2
228.9754,88
228.9932,538.9
229.0994,18.4
229.1185,750.4
229.3208,178
229.4422,534.5
229.4541,553.4
229.547,109.3
229.5792,161.9
229.599,91.8
229.782,427.3
229.7832,502.3
229.7845,428.1
229.7909,144.6
229.9185,19
229.9444,681.6
229.9572,4693.8
230.0232,332
230.0337,148.4
230.0536,142.8
230.057,487.4
230.1214,21.3
230.1755,190
230.437,136.4
230.4483,19.4
230.5456,241.3
230.6088,19.2
230.697,476
230.7628,242.8
230.7894,133
230.8302,124.7
230.8902,269.7
230.9094,162.8
230.9391,556.5
230.9575,577.9
230.9605,154.6
230.9905,52.7
231.0559,92.6
231.0842,1322.8
231.2076,619.2
231.2184,499.2
231.2544,240.9
231.328,363.2
231.3516,131.4
231.435,574.1
231.4381,21
231.5458,121.1
231.695,162.6
231.7538,587.2
231.7639,151.2
231.8043,17.5
231.8396,18.6
231.9527,56.7
231.9575,172.4
231.9617,20.4
231.973,69.7
231.986,94.2
231.9892,381.8
231.9955,219.4
232.0223,115.1
232.1815,760.6
232.2175,197.5
232.2648,498.5
232.4206,91
232.5786,101.7
232.5961,446.5
232.7596,304.4
232.8327,89.2
232.8691,385.1
232.8839,98.8
232.8884,462.4
232.897,37417.7
232.9017,21.1
232.9206,26.4
232.9856,735.4
233.0513,9032.2
233.0752,148.7
233.1612,17.5
233.273,283.2
233.3344,99.4
233.4848,18.9
233.496,554.8
233.5774,237.3
233.7022,116.4
233.7073,173.8
233.8494,538.7
233.885,24.2
233.9532,64.5
233.9693,522.8
234.1214,163.5
234.1445,300.2
234.1653,118
234.1847,208.9
234.2316,92.2
234.2594,160.4
234.3985,490.5
234.4273,153
234.7027,291.6
234.8788,299.5
234.8938,8588.7
234.8998,86.6
234.9055,579.7
234.9818,4806.6
235.0092,138.3
235.0571,5611.3
235.0665,350.3
235.0929,19165.8
235.0991,17.5
235.1782,187.2
235.2306,294.6
235.3068,305.8
235.3586,16.9
235.5919,349.6
235.7185,714.2
235.728,18.7
235.8915,125.6
236.022,293.3
236.0411,9844.8
236.0556,79.7
236.072,40123.1
236.0963,384
236.1101,145.3
236.1599,20.5
236.216,105.2
236.2682,156.2
236.3132,747.8
236.3263,619.4
236.4622,157.6
236.5359,1268.2
236.6244,326.2
236.6814,21.3
236.714,506.9
236.7243,736.1
236.7505,102.7
236.762,522.3
236.8363,426.6
236.8542,543.8
236.8783,155.1
236.8989,108.9
236.9068,71.5
236.9144,20.2
236.9892,173.3
237.0395,380.9
237.0714,88.3
237.0753,1642.8
237.1228,166.8
237.1463,123.2
237.1781,111.7
237.2969,431.6
237.3183,223.3
237.3325,81.8
237.3547,300.6
237.3689,103.7
237.3887,136.8
237.513,265.2
237.5549,671.4
237.5702,770.6
237.6415,90.9
237.6576,176.4
237.6927,310.5
237.7285,165.2
237.7593,157.8
237.868,399.2
237.8863,241.6
237.9293,16.3
237.9488,200.6
237.9571,20.1
237.9628,98.4
237.9697,17.4
238.0147,207
238.0678,592.9
238.0784,22.7
238.1632,17.8
238.2589,131.5
238.2645,166.5
238.3699,17.5
238.3738,168.4
238.4055,405.1
238.4616,584.1
238.4882,18
238.5315,109.3
238.539,313.8
238.6267,788.9
238.842,6194.7
238.8536,659.4
238.8632,427.3
238.9433,59
238.9721,317.3
238.9903,136.3
239.0092,1230.4
239.0252,144.4
239.0493,300.3
239.0532,256.6
239.0646,88.2
239.0682,861.9
239.072,186
239.113,322.4
239.1331,405.2
239.1678,519.7
239.2553,19.8
239.298,806
239.3998,146.5
239.4147,670
239.4349,315.7
239.5082,239.4
239.6563,20.2
239.6979,183.1
239.8107,121.7
239.9616,117.7
240.0037,528.7
240.0242,329
240.1,561.4
240.1133,262.4
240.2131,487.7
240.2319,121.5
240.2952,103.5
240.3277,148.5
240.4456,468.6
240.4926,345.7
240.5418,164.4
240.5594,517.8
240.6173,533.3
240.6348,112.5
240.7352,350.7
240.8391,2105.9
240.955,1685.8
240.9673,2461.6
240.9715,481.6
240.9802,334
241.0087,1081.6
241.0389,220.4
241.057,151.4
241.2132,140.9
241.2408,139.5
241.2826,110.4
241.291,346.6
241.429,195.9
241.4546,377
241.4609,539.1
241.5383,134.5
241.6068,88.1
241.6858,140.5
241.7798,348.6
241.8191,136.1
241.837,20.3
241.854,139.8
241.924,142.5
241.9797,70.3
241.9983,2454.3
242.0193,6475.6
242.087,297
242.1091,315.2
242.1157,596.4
242.1372,18.5
242.3488,483.4
242.3702,105.5
242.4553,290.4
242.5551,132
242.5721,94.8
242.6411,139.4
242.6529,336
242.813,41.8
242.8349,549
242.8891,552
242.9044,25.4
242.9257,20198
242.9488,703.7
242.9616,183.4
242.9663,1226.2
243.0062,296
243.0536,9586.3
243.0657,12032.3
243.2027,364.7
243.2107,568.6
243.5862,787.4
243.6827,89.7
243.7142,626.3
243.7259,308.1
243.796,176
243.9046,644.6
243.9292,685.3
243.9729,1891.6
243.9873,207.7
243.9901,20.6
244.0127,281.2
244.0489,42.5
244.1329,349.9
244.1389,110.8
244.2332,113
244.2542,21.1
244.3324,449
244.4332,17.4
244.6245,359.5
244.7152,193.6
244.8581,302.7
244.866,79.2
244.8709,6514.8
244.8745,139.3
244.88,500.2
244.8961,119.6
244.9201,21
244.9761,86.8
244.9926,90.9
245.0384,602.5
245.0647,75.6
245.1403,780.8
245.1448,150.4
245.2607,108.6
245.2673,121.8
245.2859,20.1
245.3425,176
245.459,725.1
245.5053,100.4
245.6574,154.5
245.7445,19.9
245.85,374.3
245.8915,18.8
245.9284,106.4
245.9352,198.7
245.9694,53.8
245.9885,31.8
246.0017,133.1
246.0098,24
246.042,162.1
246.1692,242.9
246.2786,488.1
246.2924,722.9
246.4415,325.6
246.5877,796.6
246.5975,169
246.6365,743
246.67,226.1
246.7653,271
246.8627,314.1
246.8683,978.4
246.8994,41.2
246.9516,275.5
247.0174,170.2
247.0221,184.6
247.037,877.2
247.0583,790.1
247.0673,1221.7
247.0751,502.1
247.0929,6425.3
247.2296,21
247.252,231.5
247.2655,551.4
247.2941,397.9
247.3626,123.7
247.4037,147.1
247.54,17.3
247.5665,118.2
247.6155,121
247.6283,463.4
247.6653,21
247.7438,410.4
247.755,20.8
247.9678,375
247.997,290.2
248.0142,588.7
248.1245,20927.9
248.1855,173.5
248.236,420.7
248.3068,606.7
248.3528,172.1
248.3545,162.1
248.4093,20.3
248.533,365.2
248.5975,330.6
248.6323,18.5
248.638,19.6
248.6595,797
248.7031,18.2
248.7885,82.8
248.8381,127.6
248.852,19
248.871,10709.5
248.9012,52
248.9489,22.9
248.9597,648.7
248.9677,616.9
248.9708,104.1
248.9988,641.9
249.0165,2376.5
249.0615,20118.8
249.1028,83
249.1085,460.5
249.1166,324.3
249.1278,1713.6
249.323,1095
249.4617,160.3
249.5028,85.6
249.5454,102.3
249.5919,85.7
249.6361,127
249.6596,279.9
249.6912,362.9
249.7582,331.2
249.8845,191.7
249.8916,349.6
249.8988,19.5
249.9783,26.6
250.0283,206.7
250.0516,21.1
250.0649,523.8
250.0938,221.2
250.1745,148
250.2882,125.1
250.3436,101.7
250.4169,153.6
250.8056,133
250.8684,1776.7
250.8939,44.6
250.9206,1624.1
250.9557,1996.1
250.9614,465.1
251.0008,38
251.0342,729.1
251.0788,134.9
251.0885,343.2
251.1389,98.1
251.2712,342.7
251.5043,310.3
251.5316,606.6
251.5662,309.3
251.6055,85
251.6143,201.8
251.7213,140.4
251.782,116.8
251.8019,137.1
251.8958,108.3
251.9253,100.7
252.0114,535.3
252.0366,173
252.0459,95849.9
252.0792,18.1
252.25,95.8
252.2709,581
252.555,161.3
252.5883,585.3
252.7194,263.3
252.7975,91.6
252.899,18.3
252.9104,26.2
252.9173,1740.3
252.9232,604.4
252.9515,96.8
253.0229,493.8
253.0495,4498.3
253.0566,616.3
253.0616,138.9
253.109,774.4
253.3187,248.3
253.3858,796.9
253.4192,17.9
253.4653,20.2
253.6595,160.7
253.7163,188.4
253.7731,817.4
253.8994,815.2
254.0146,170.2
254.0431,1586.8
254.1246,332.2
254.467,89.8
254.5106,140
254.8159,1382.8
254.8241,7682.2
254.8409,691.1
254.8753,358
254.9428,660.5
254.9731,228.6
254.9864,75
255.0333,21021.3
255.0383,816.7
255.0466,622.3
255.0508,115.4
255.0574,304.7
255.135,113.7
255.1927,707.9
255.3707,101
255.4925,150.5
255.5195,82.6
255.6575,18.4
255.7318,718
255.7687,300.9
255.914,18.3
256.0034,807.2
256.0141,664.8
256.0586,72.2
256.0671,195.1
256.102,84.4
256.1259,550.4
256.1499,221.5
256.237,118.4
256.3807,655.6
256.4156,84.7
256.7447,20.4
256.8212,8859.6
256.8284,156.8
256.929,956.8
256.9325,785.3
256.941,756.3
256.9818,19.6
257.0225,155.8
257.0295,681.5
257.0489,7225.4
257.0648,610.6
257.0664,521
257.0749,52362.6
257.2202,639.7
257.6699,284.7
257.7116,847.3
257.7578,211.8
257.8343,18.7
257.8691,134.4
257.8965,1012.3
257.9522,180.2
257.9833,568.6
257.9887,44.8
257.9935,371.2
258.0303,304.1
258.0732,668.1
258.0784,1387.6
258.1106,10246.3
258.1212,608.7
258.1382,539
258.1617,88.2
258.2009,162.5
258.256,369
258.3122,743.8
258.4238,234.6
258.4327,352.3
258.4868,302
258.4978,613.4
258.6421,835.4
258.7159,657.6
258.8182,5298.6
258.8998,2541
258.9449,161
258.9801,367.7
259.0156,698.8
259.0263,273.9
259.0643,567.5
259.1872,537.1
259.3537,102.6
259.3954,358.6
259.4769,158.7
259.4778,156.2
259.4838,491.5
259.5016,199.7
259.5136,125.4
259.6338,277.2
259.6681,397.1
259.8301,127.7
259.8701,18.6
259.8803,90
260.0169,21.5
260.1065,338.7
260.2228,19.1
260.2426,191.4
260.293,508.6
260.3294,533.7
260.4723,100.8
260.5491,235.4
260.5653,122.1
260.6431,549
260.6523,914.3
260.6778,83.1
260.7694,888.8
260.8448,3480.9
260.8787,776.7
260.9036,469
260.9492,6038.1
260.9574,570.6
260.9664,221
261.0464,434.4
261.2601,20.2
261.2997,83.8
261.3717,17.8
261.4486,138
261.4611,532.5
261.4769,230.3
261.4847,302.6
261.5781,324.4
261.5812,363.5
261.6141,170
261.6677,200.6
261.7038,813.7
261.7198,842.2
261.8205,486.9
261.8499,207.3
261.9836,136.8
261.9991,120.1
262.0092,438
262.0429,113.3
262.2049,614.5
262.4117,131.1
262.5412,320
262.7156,270.4
262.7497,20
262.78,118.4
262.8942,21
262.9338,754.1
262.9459,1312.8
263.0136,912.5
263.0856,1434.6
263.2068,171.8
263.2371,566.4
263.2422,331.3
263.3537,793.4
263.4584,412.9
263.6427,230.1
263.6512,583.9
263.6695,342.9
263.7276,115.9
263.8224,178
263.9057,309.9
263.9365,156.1
264.1778,91.2
264.2416,536
264.2691,22.2
264.383,649.3
264.3952,97.5
264.4304,111
264.475,396.5
264.6104,81
264.6517,657.9
264.7283,94.9
264.7553,185.3
264.8449,944.7
264.8531,4329.2
264.864,82
264.8735,97.8
264.9337,1779.2
264.9888,4430.6
265.0166,146.8
265.0235,895.8
265.0355,16112.4
265.0476,3061.3
265.0653,121.4
265.0887,310.8
265.2882,119.5
265.3221,178
265.3668,458.8
265.3967,819.5
265.474,117.6
265.5107,160.3
265.5311,679.2
265.5429,483.6
265.6788,169.6
265.8748,312.8
265.9438,174.2
265.9577,28.1
265.9787,1074
265.9927,24.1
266.0271,841.9
266.1634,212.2
266.2242,505.9
266.4415,19.1
266.4748,299.3
266.4981,375
266.5569,718.5
266.733,159.3
266.7619,376.7
266.7857,170.1
266.8041,18.9
266.8216,183.6
266.8341,29.3
266.85,5774.1
266.8946,2950.1
266.9157,101.9
266.9593,30.4
267.0076,145.1
267.0136,86.9
267.2017,444.8
267.2384,127.6
267.7929,123.8
267.8652,165.6
267.8834,441.5
267.974,78.3
267.9939,1164.4
268.0051,882.6
268.0201,155.2
268.0296,384.2
268.0873,320.8
268.1429,790.1
268.3905,26.1
268.6206,165.8
268.6428,513.7
268.6855,155.6
268.8222,19.4
268.8474,538.1
268.865,342
268.8914,1020.7
268.9182,242.8
268.9979,31.8
269.0247,589
269.028,314.9
269.0371,370.6
269.0454,19735.3
269.0489,36573.2
269.0595,19.7
269.3042,855.1
269.5417,138
269.662,385
269.8416,858.7
269.9518,49.9
269.9894,232.2
270.01,70.4
270.025,9896.4
270.0476,23520.1
270.052,534.8
270.1455,1284.5
270.1981,595.2
270.3677,167.6
270.387,302.1
270.4298,164.8
270.4671,349.7
270.5212,356.5
270.5365,79.9
270.6363,148.8
270.6549,308.6
270.798,4965
270.9435,288.9
270.9601,22.4
270.9695,219.3
270.9782,15044.3
271.0284,912.5
271.0509,291.6
271.0784,1002
271.0905,1837
271.2641,18.6
271.3564,90.4
271.6451,933.6
271.7176,183.3
271.7894,723.1
271.8336,170
271.9028,95.9
271.9651,618.7
272.0053,30.3
272.0209,1016.2
272.0303,35.8
272.0433,93.4
272.0805,898.8
272.1225,465.2
272.2619,136
272.2719,171.1
272.4197,103.9
272.6084,163.4
272.7953,5523.7
272.8244,24.2
272.8384,95
272.9021,110
272.9313,163.3
272.9445,878.3
272.9818,554.1
273.0488,2758.2
273.0934,18.4
273.1698,162
273.1771,200.4
273.3172,19.8
273.4093,685.6
273.4479,251.7
273.4935,131.2
273.5734,183.7
273.621,767.4
273.8236,183.1
273.9142,347.9
273.9462,90
273.9627,4916.4
273.9776,21
273.9888,99.4
274.0404,25.4
274.0693,147.1
274.0745,106.6
274.0927,1786.4
274.1326,269.3
274.2314,297.3
274.2505,125.2
274.4699,488
274.6573,430.6
274.7925,1356.7
274.8035,99.5
274.8206,97.3
274.903,126.9
274.9131,26.3
274.9421,19.5
275.1711,510.1
275.2064,132.3
275.2198,553.3
275.2424,416.6
275.2973,332.8
275.3169,21.7
275.3578,192.2
275.3712,485.1
275.4695,112.4
275.5429,490
275.5831,510.1
275.614,150.9
275.7078,585.4
275.7193,181.1
275.7734,128.5
275.9027,22.6
275.9388,563.3
276.0035,163.1
276.0368,23.6
276.0849,122.1
276.1563,646.8
276.2022,150.3
276.3448,781.3
276.3567,184.2
276.3956,129
276.4601,284.8
276.5457,82
276.6015,130.7
276.8195,62.3
276.8324,125.2
276.9234,8317
277.0857,100.7
277.1214,220.9
277.2233,322.2
277.267,176.3
277.4049,155.1
277.4315,412.9
277.5699,230.1
277.7098,223.2
277.9181,207.7
277.9466,189.9
278.0008,53.2
278.0086,616
278.0192,508.5
278.0736,12552.2
278.1105,556.4
278.1307,163
278.2371,332.8
278.4861,522.6
278.5321,160.1
278.6882,219.2
278.7789,264.1
278.8909,374.2
278.9104,171.3
278.9197,1261.9
278.9528,158
278.9609,826.6
278.9672,368.4
278.9878,1456.1
279.0222,32.5
279.0569,38081.6
279.1121,540.5
279.1536,97.7
279.1721,90.8
279.3065,152.7
279.4738,230.3
279.5833,84.6
279.8463,651.6
279.8549,354.6
279.8805,207.6
279.9415,406.4
279.9565,22.6
280.0125,280.3
280.0161,268.1
280.0258,823.6
280.0602,880.5
280.0712,2519.8
280.1079,536.6
280.1214,97.5
280.1471,247.8
280.188,559.4
280.2256,618.5
280.2745,129.9
280.4205,89.4
280.5312,141.1
280.7058,105.5
280.7118,83.6
280.7625,310.7
280.8042,311.3
280.8267,1382.5
280.9136,86.1
281.0096,2953.8
281.0186,540.6
281.0324,106.8
281.0517,275.5
281.2007,133.6
281.3115,366.9
281.3245,263
281.3837,510.1
281.4861,114.2
281.5034,22
281.6082,719.5
281.6124,91.7
281.6338,535.3
281.8046,461
281.9477,117
281.9764,347.1
282.0149,134.2
282.0496,20
282.0651,385.4
282.1387,25
282.16,160.6
282.3635,119.2
282.4596,592.5
282.5021,151
282.5278,478.9
282.6238,338.3
282.8241,977.8
282.8687,293
282.9572,248.8
283.0281,2524.8
283.0943,17.8
283.1313,480.7
283.2637,24.9
283.4016,167
283.4319,587.2
283.5533,310.8
283.5714,300.8
283.6995,115
283.7406,169.7
283.761,665.5
283.7745,173.2
283.7991,311.8
283.9886,21.7
284.0048,20.3
284.0246,37.7
284.0515,242.4
284.0632,131
284.1266,545.8
284.184,19.2
284.3503,309.4
284.362,369.9
284.3695,139.6
284.396,127.5
284.4541,247.4
284.517,126
284.6161,17.6
284.7276,408.7
284.7639,189.8
284.7702,693
284.7764,522.5
284.8213,399.1
284.9149,120
284.9201,413.1
284.9311,907
285.023,860.4
285.0672,797.8
285.0729,358.1
285.1237,1113.1
285.141,190.9
285.2859,154.6
285.3249,145
285.4645,621.1
285.5152,389.1
285.5446,862.8
285.647,130.7
285.715,16.5
285.7756,22.8
285.8101,751.3
285.82,17.8
285.8345,123.2
285.8756,20.4
285.9626,303.7
286.02,2513.2
286.0443,488.8
286.0831,465.5
286.0897,193.6
286.0961,57.7
286.1055,92.6
286.1172,390.7
286.1333,109.3
286.1636,573.3
286.1823,139.8
286.1893,93.4
286.2038,131.7
286.3253,88.8
286.5049,132.8
286.5616,22
286.5681,228
286.7081,92.4
286.7359,105.9
286.7721,1341.6
286.803,31.3
286.8323,297.4
286.8908,20.9
286.9521,7530.1
286.9678,141.7
287.0235,216.5
287.0479,110.6
287.0557,41252.7
287.1153,89.9
287.1359,192.9
287.1704,617.6
287.2103,218.3
287.2241,203.6
287.3521,374.9
287.3567,104
287.7287,220.6
287.8687,873.8
287.9499,31.1
287.9968,392.5
288.0355,58
288.0588,2089.7
288.0848,125
288.1559,30187.1
288.3062,221.8
288.4657,90.9
288.4967,145.7
288.5012,100.9
288.5675,612.9
288.7692,4517.1
288.8033,165.5
288.8154,228.7
288.8203,22.6
288.8487,1679.7
288.8554,1287.7
288.8605,2350.6
288.8672,3901.9
288.8749,5674.2
288.8829,5577.3
288.8867,6562.3
288.8907,7482.6
288.9012,13398.2
288.9095,12409
288.9138,12663.9
288.921,17508.3
288.93,14645.6
288.9347,12525.9
288.9398,14056.9
288.946,11979.1
288.9493,9945.5
288.9547,13706.3
288.9615,11592.2
288.9682,13426.7
288.971,12163.4
288.977,8292.8
288.9864,5832.8
288.9923,4982.7
288.9967,4048
289.0032,1675.9
289.0098,599.1
289.0684,873.4
289.1594,1491.9
289.208,101.7
289.2765,93.7
289.3399,177.6
289.4753,187.1
289.5814,107.8
289.7839,515.1
289.8263,375.9
289.8633,486.2
289.9287,749.5
289.9371,329.8
289.993,104.4
290.0359,125.5
290.0948,19.7
290.1674,182.8
290.2148,190
290.2412,294.6
290.313,145.5
290.4196,226.8
290.7663,1342.4
290.7977,41
290.8023,135.7
290.8643,18.4
290.9784,78
291.0185,189.3
291.027,2011.8
291.0388,188.6
291.056,115.9
291.3118,82.8
291.3348,343.4
291.4194,228
291.7775,358
291.9052,23.2
291.9978,103.5
292.08,142.3
292.1145,363.2
292.1274,170.5
292.1469,827.1
292.1596,327.8
292.279,789.1
292.3256,797.3
292.3646,225.9
292.4374,336.5
292.5606,104.8
292.5754,106.7
292.6405,151.9
292.6709,232.6
292.7868,21.4
292.803,496.7
292.8365,170.4
292.8974,1004.6
292.9707,700.4
292.9824,607.5
293.005,265.2
293.0163,274.1
293.023,769.3
293.0727,2550.5
293.0985,517062.3
293.1792,4132.5
293.2483,509.8
293.3158,101.4
293.3575,372.9
293.4277,491
293.5417,308.1
293.6697,91
293.6995,607.7
293.733,84
293.7412,531.2
293.9804,367.8
294.0275,533.8
294.0957,1393.8
294.1019,49427.5
294.1341,714.7
294.5578,137.8
294.5845,143.2
294.6498,295.3
294.6578,331.4
294.7621,195.7
294.8231,752.9
294.8294,25.7
294.8664,22.2
294.9118,203.7
294.9361,497.7
294.946,23.4
294.9542,91
294.9909,325.2
295.0309,1263.5
295.1026,3986.9
295.1115,649.3
295.195,25065.6
295.2371,116.7
295.3941,99.9
295.4876,277.7
295.5114,22.8
295.6055,178
295.9535,277.5
296.0101,1701
296.0265,19
296.0583,111.5
296.1044,257.3
296.1986,712.9
296.3364,382.2
296.5198,122
296.7182,18.4
296.8122,433.9
296.8219,772.5
296.8397,163
296.9092,97.9
296.9295,516.6
296.9368,536.2
296.9653,144.7
296.981,265.2
296.9877,200.2
297.0068,157.5
297.0224,324.2
297.2232,726.5
297.2273,662
297.2874,330
297.3681,20.6
297.4216,146.2
297.5227,512.3
297.7349,321.9
297.7527,630.8
297.7632,307.6
297.7795,853.3
297.8221,563.1
297.8702,111.2
297.9293,188.4
297.9907,115.9
298.0251,1518.1
298.0426,14494.7
298.0482,229.3
298.2765,237.5
298.4905,822.4
298.5284,174.5
298.5971,196.2
298.6208,271.6
298.6606,174.8
298.7336,318.1
298.9278,217.6
298.9864,29
299.0237,1454.3
299.0459,496.4
299.0606,104.1
299.0695,143
299.1396,12742.3
299.4075,314.1
299.5093,559.9
299.7228,354.8
299.7552,690.5
299.8875,625.3
300.0175,562.3
300.0356,707.5
300.0495,22.8
300.0756,405.8
300.1763,838.5
300.1963,45.9
300.5155,112.4
300.5338,100.5
300.6486,602
300.6538,478
300.8438,470.6
301.0123,63.1
301.0388,22112.1
301.0537,162.4
301.0741,145.9
301.0791,21.5
301.1007,18
301.1417,210.2
301.1975,141.2
301.2119,2654.3
301.2405,310.7
301.287,334.4
301.3785,419.9
301.6561,372.5
301.7603,292.9
301.8002,101
301.8989,213
301.9159,345.1
301.9231,541.5
301.9943,726.1
302.02,243.5
302.0288,84.4
302.0365,20.3
302.0465,517.8
302.0512,138.8
302.0643,4427.9
302.1828,215
302.465,816.4
302.5136,487.5
302.5288,590.9
302.6502,88.5
302.6602,316.7
302.6621,296.7
302.6635,295
302.6671,547.4
302.6736,335.5
302.6782,992.6
302.7089,741.6
302.7465,352.9
302.7736,186.6
302.8056,96.2
302.8295,2092.3
302.9257,595.6
302.973,552.1
302.9981,117.6
303.028,33
303.0677,387.4
303.0751,401.9
303.1409,294.7
303.2175,1040.7
303.2377,315.2
303.2696,105
303.3431,324.7
303.3882,203
303.4809,114.9
303.498,364.9
303.7623,86.5
303.7915,511.2
303.9706,601.1
303.986,107.8
304.0599,132.3
304.1403,265.2
304.2362,101.6
304.3609,360.8
304.39,587
304.3957,127.1
304.4087,117.5
304.4886,425.4
304.5609,115.9
304.6842,104.4
304.7434,460.1
304.7529,291.7
304.795,386
304.8141,85.8
304.8268,1377.3
304.8811,18.7
304.8964,936.1
304.9756,473.8
305.0206,91.1
305.0286,119.8
305.0756,190.7
305.3293,607.3
305.3684,828
305.4226,744.6
305.4457,592
305.4772,702.4
305.531,322.6
305.5778,538.9
305.6398,270.1
305.7963,127.2
305.8255,524.3
305.9112,349.8
305.9821,22.2
306.0448,491.3
306.0952,35.1
306.169,146.7
306.3128,316.6
306.3455,641.6
306.3578,161.4
306.5461,117.5
306.6523,504.8
306.6647,149.9
306.6938,159.2
306.7402,481.6
306.8113,21
306.8316,583.1
306.8524,379.5
306.9776,4258.8
307.0088,101
307.1505,102.2
307.1681,779.5
307.1753,17
307.3014,82.7
307.3257,114.2
307.34,441.8
307.3869,583.6
307.4518,116.6
307.4676,733.5
307.5496,502.8
307.7525,261.5
307.8655,130.4
307.8769,156.6
307.9247,740.8
307.9665,599
308.0329,85.3
308.1051,508.3
308.123,232.4
308.1807,162.8
308.2401,19.5
308.5202,117.6
308.6146,817.7
308.7239,119.2
308.7466,561.7
308.7689,115.1
308.7995,113.3
308.8085,48.5
308.8194,599.4
308.8793,2828.8
308.9395,180.7
308.9559,718.1
309.0066,190.8
309.0307,315
309.0381,2005.1
309.0827,370.1
309.1511,162.3
309.1692,225.3
309.275,533.4
309.4229,98.6
309.6903,17
309.7677,102.3
309.9033,164
309.9548,501.2
310.074,1084.3
310.0836,178.5
310.1225,303.7
310.1808,175.8
310.22,168.9
310.4086,107.9
310.763,362.3
310.8763,2872.2
310.9493,504
311.004,39.8
311.1673,154.1
311.306,136.1
311.4573,102.3
311.5808,20
311.793,20.4
311.8015,104.9
311.9101,187
311.9155,389.4
311.9989,21.4
312.0067,164
312.0197,146.5
312.041,2018.2
312.0738,238
312.1606,343
312.2731,156.7
312.3482,92.6
312.3957,889.8
312.5164,208.5
312.5348,496.5
312.5803,23.5
312.5927,88.5
312.7172,166.3
312.7436,21.8
312.7836,460.1
312.8035,21.5
312.8585,961.6
313.003,57.2
313.018,146.1
313.0396,358.2
313.2743,26972.1
313.3547,196.8
313.4062,292
313.4414,141.3
313.8228,81.5
313.8427,161.3
313.9994,664.3
314.0149,2981
314.0704,239.6
314.0872,624.8
314.2774,3722
314.4734,305.5
314.5663,95.8
314.7765,1259.3
314.7983,208.4
314.8373,6017.8
314.8885,1259.1
314.8974,279.4
314.9256,123.5
314.9817,240.6
314.9994,5852.3
315.0119,827.1
315.0184,256.6
315.0372,157
315.0473,1353.3
315.0492,1467.1
315.0555,9577.9
315.0591,4945.1
315.0618,6861.1
315.0637,6451.8
315.0667,19394.3
315.07,27606.8
315.0733,23096.3
315.0805,8766198
315.0869,30722.4
315.0918,13591
315.0942,9654.6
315.0965,8737.2
315.1007,4227.6
315.105,1678.8
315.107,1593.3
315.109,1208.7
315.1154,148.9
315.1411,206.7
315.1615,5823.4
315.189,553
315.2596,179.6
315.3239,8359.4
315.3917,139.2
315.4687,550.5
315.4861,473.9
315.5455,606.5
315.6117,94.4
315.6201,828.7
315.7123,504.9
316.0036,173.6
316.0097,219.7
316.0685,1089.2
316.0777,45774.6
316.0838,923524.6
316.2639,241
316.3081,303.3
316.3678,357.6
316.5984,21.6
316.8328,515.1
316.942,585.5
316.975,616.7
316.9869,1138.3
317.0562,633.7
317.0655,2313.7
317.0713,126.4
317.0843,104103.8
317.4555,397.7
317.5534,92.7
317.5827,467.3
317.7693,463.9
317.8203,372.9
317.8685,19.7
317.8779,300.1
317.9455,129.8
318.0879,10368.5
318.17,179.6
318.2692,131.1
318.3837,319.9
318.4568,154.1
318.5831,21.5
318.7927,258.9
318.8035,2302.6
318.8243,95.3
318.8381,91.5
318.8541,790.8
319.0553,107.2
319.1832,789.2
319.195,54120.8
319.4834,733.3
319.6881,153.2
319.8237,99.2
319.8938,19.7
319.9232,316.6
319.9485,165.6
320.0752,112
320.0925,98.9
320.1986,6897.9
320.259,1623.1
320.286,122.8
320.2922,520.1
320.4544,544.9
320.4784,130.1
320.7035,18.3
320.7413,955.9
320.801,1070.5
320.8079,328.3
320.8308,57.6
320.9493,442.9
321.0953,155.9
321.2107,47635.6
321.2623,124.7
321.3369,18
321.3854,178.2
321.4578,188.4
321.4675,738.4
321.6226,320.7
321.6513,397.4
321.8168,60.8
321.8453,203.3
321.961,237.1
322.0092,230.8
322.021,428.8
322.1026,172.6
322.1247,89.5
322.1696,516.3
322.2141,5318.8
322.2488,304.2
322.261,833.3
322.4226,384.1
322.4946,414.1
322.5821,165.1
322.7353,485.5
322.7948,17.9
322.8111,332.6
322.8251,24.9
322.888,582
322.9275,20.6
322.9319,1496.9
322.9581,123.1
322.9968,21.2
323.0127,20.8
323.0209,7106.3
323.1289,100.5
323.2262,4587
323.2923,390.6
323.3331,332.3
323.4569,695.4
323.6476,176.9
323.8736,1014
323.9309,330.3
324.0021,2390.8
324.172,19.1
324.252,17.8
324.2741,143.5
324.3103,146.1
324.4736,539.2
324.5355,564.4
324.5451,3642
324.5532,2091
324.5609,3456.7
324.655,173.2
324.6855,563.3
324.7688,104.2
324.8086,994.6
324.8533,2320.1
324.9204,955.6
325.0026,771.4
325.0557,389.8
325.2119,2779.9
325.2839,202.1
325.3511,337.1
325.4817,22
325.4923,464.6
325.5878,161.4
325.609,300.3
325.6843,108.8
325.6918,216.7
325.7886,130.9
325.9706,355.5
326.0049,64.2
326.1745,717.6
326.2675,22.1
326.3388,152.7
326.3476,152.2
326.6017,17.4
326.8004,133.3
326.806,574
326.8502,1818.1
326.9431,20
327.0159,3800.4
327.0516,1401.7
327.1815,292.5
327.2185,347.8
327.2276,9836.7
327.2758,125.6
327.426,167.2
327.4674,196.1
327.4745,897.3
327.683,443
327.9815,202.3
327.9938,119.1
328.0149,1456.6
328.031,20.3
328.0532,155.6
328.0937,110
328.2308,698.6
328.3863,129
328.3974,619.9
328.404,121.1
328.414,460.6
328.4302,145.5
328.5493,167.9
328.5551,405.8
328.8152,21
328.8254,277.7
328.9384,852.8
328.9729,564.6
329.0053,209.2
329.0963,2784.9
329.3283,633.2
329.3791,125
329.4986,229.3
329.7891,92.9
329.9952,560.5
330.0593,169.1
330.0835,158
330.5777,815.9
330.7924,139.9
330.8602,311.5
330.867,18.5
330.949,106.6
330.9673,164.1
331.0193,1822.1
331.0457,137078.7
331.0544,1338936
331.142,137.6
331.3392,284.6
331.4067,21.1
331.434,20.2
331.4702,261
331.4978,175.5
331.5093,908.3
331.7245,202.3
332.0484,9044.9
332.0578,120454.4
332.0702,106.3
332.1411,128.8
332.2247,22.8
332.4686,165.5
332.6087,277.6
332.7736,180.6
332.809,59.6
332.8706,19.2
332.9339,129.8
332.9609,855.1
332.9959,547.1
333.0412,140.1
333.0526,75540.4
333.0581,13480.4
333.1523,558.4
333.286,443.8
333.3193,368.5
333.3526,278.5
333.8037,159.7
333.9464,99.8
334.056,6438.7
334.0907,99.6
334.1763,523.4
334.2389,145.1
334.4392,318.9
334.6341,101.7
334.6681,724.2
334.7341,169.6
334.777,382
334.9045,353.1
335.0386,1581.1
335.0681,130.2
335.1676,2760.1
335.2062,980.1
335.5499,296.8
335.7536,19.1
335.832,29.6
335.854,18.3
335.9451,339.3
336.0092,250.8
336.0155,654.6
336.0854,741.6
336.1084,127.5
336.1711,245.3
336.6511,126.4
336.7214,364.9
336.817,18
336.9121,96.4
337.0364,8058.3
337.0501,21869.2
337.0625,655247.9
337.0934,191.5
337.111,114.9
337.1829,1285.8
337.2523,528.6
337.2599,112.7
337.2742,6288.6
337.3919,599.4
337.4011,461.7
337.4736,227.4
337.5008,177.6
337.6388,514.3
337.6494,297.6
337.6958,275.4
337.7664,84.9
337.8352,242.1
338.0658,60722.4
338.0982,20.1
338.2367,22.6
338.2748,475
338.4655,613
338.6022,161.3
338.6422,374.9
338.9212,1052.8
339.0386,1648.2
339.0477,343
339.0497,320.1
339.0532,336.4
339.0662,4564.9
339.08,141.8
339.1445,530.5
339.1515,495.5
339.1598,17.4
339.1835,597.7
339.1992,112.3
339.2512,12152.3
339.2897,2607.3
339.3034,161.9
339.4171,86.9
339.4804,141.8
339.6346,760.5
339.6959,403.3
339.8208,126.4
339.967,110.3
339.9763,289.1
340.2159,170
340.2536,1510.3
340.3683,507
340.3968,181.6
340.4949,164.9
340.7646,293.3
340.7827,739.6
340.9775,130.1
341.019,51
341.0926,130.3
341.1226,936.1
341.1808,781.2
341.3057,2154.2
341.3234,153.7
341.45,327.3
341.5212,849
341.7883,147
341.9089,141.5
341.9209,123.2
342.0156,4306.3
342.0253,159.7
342.255,331.6
342.4192,109.8
342.4286,480
342.4994,344.8
342.6984,856.1
342.7415,720
342.9669,173
342.9896,2499.7
343.094,219.7
343.1953,7940.4
343.2479,316.6
343.3104,322.5
343.3903,457.4
343.6059,205.6
343.6225,144.1
343.7004,221.2
343.7109,342.6
343.7944,18.1
343.8388,650.7
343.9768,19.9
344.0297,549.3
344.1623,145.2
344.197,501.7
344.2927,513.7
344.3846,574.7
344.4474,112.5
344.5337,488
344.564,184
344.6002,215.8
344.7085,20.2
344.7745,21.4
344.7995,383.2
345.0244,511.9
345.0884,96.4
345.1479,22.4
345.2104,2250.2
345.2821,154
345.3345,414.8
345.3807,102.7
345.4287,845.9
345.4893,154.8
345.5936,508.4
345.6065,20.1
345.6354,137.8
345.7085,379.8
345.7956,541.1
345.8199,346.5
345.8854,24
345.9842,13691.3
345.9937,22
346.01,66
346.0178,96.2
346.0252,916
346.0413,104.1
346.0717,621.7
346.2262,340.5
346.268,350
346.3241,777
346.3375,513.6
346.3437,138.4
346.5188,531.1
346.6003,18.1
346.6326,19.6
346.8247,358.8
346.8394,153.5
346.953,857.6
346.9885,108.6
347.0114,20.2
347.018,756.4
347.2954,205.4
347.9101,124.6
347.9224,660.2
347.9646,19.1
348.19,124.7
348.2353,104.8
348.2514,19
348.415,422
348.7032,543.1
348.8265,330
348.8337,21
348.8714,148.8
348.9886,21.4
349.0182,286.5
349.0477,470.8
349.0615,141
349.0955,138.2
349.1542,116.2
349.1659,543.2
349.241,419.8
349.3624,580.6
349.4548,206.9
349.5941,107.9
349.6358,211.4
349.8426,233
349.8927,625.9
349.9809,203.5
350.0191,1130.1
350.0677,94.7
350.1636,20.1
350.1882,688.1
350.2277,101
350.2497,21
350.38,161.6
350.5264,18.4
350.9257,322.3
351.0143,87.5
351.0679,391.9
351.2737,309.2
351.5555,19.8
351.7338,134.7
352.0468,19.4
352.208,158.5
352.4502,162.3
352.5299,17.8
352.6525,503.8
352.7764,489.8
352.8981,1377.1
353.0276,145440.1
353.0365,229146.2
353.166,18.9
353.1731,504
353.297,418.1
353.4534,655.7
353.5259,148.2
353.5529,755.9
353.579,430.4
353.7305,610.7
353.7947,179.8
353.8729,127
354.0307,12533.6
354.0398,19815.4
354.0675,133.6
354.1613,119.5
354.2783,128.9
354.4038,222.2
354.4541,742.9
354.5443,500.2
354.6116,19.6
354.9965,20.3
355.0121,933.5
355.0348,13045.7
355.07,624
355.1552,94.3
355.21,134
355.2166,2218.2
355.2984,19.8
355.3286,93.5
355.5215,565.5
355.6536,18.8
355.7481,20.5
355.8925,181.5
355.9124,163
355.9389,527.7
356.017,150.6
356.0662,508.3
356.3437,360.5
356.416,638.1
356.8321,115.6
356.9967,364.4
357.0087,487.7
357.0188,316.6
357.1738,146.6
357.2099,208.1
357.2692,122.9
357.3265,165.4
357.3455,568.3
357.5807,235.9
357.588,296.4
357.8094,487.4
357.913,18
357.9776,319.6
358.0351,804.4
358.1715,371.4
358.286,173.5
358.3938,151.7
358.4098,21.6
358.5725,526.4
358.6864,173.8
358.8092,18.4
359.0078,259.4
359.0321,12781.9
359.0445,375343.7
359.0808,868.9
359.1205,647.7
359.1759,622.4
359.228,648.4
359.3933,126.9
359.4634,231.3
359.4932,341.3
359.4992,220.3
359.5179,780.9
359.5275,192
359.5356,23.6
359.5598,854.4
359.5644,1172.7
359.5893,1716.9
359.6005,704.2
359.6114,1112.8
359.6244,985.8
359.639,1161.3
359.6463,836.7
359.6771,277.1
359.8733,110.4
359.9827,19.3
360.0479,32835.9
360.2328,163.4
360.2506,23.4
360.2866,247.2
360.3244,225.4
360.3367,541.8
360.3867,204.2
360.4375,92.4
360.4411,97.9
360.6052,767.6
360.6177,180.7
360.7895,605.2
360.8008,330.4
360.872,160.1
360.9548,503.3
360.9895,888.6
361.0205,3333.6
361.0479,686.5
361.1514,873.7
361.2744,2457.7
361.3509,589.4
361.3599,122.6
361.5336,289.1
361.6417,103.6
361.8329,311
361.868,184.6
361.9578,4070.2
362.1719,118.4
362.2463,299.1
362.3622,507.1
362.3869,524.4
362.9269,1491.5
362.9452,422.6
362.9607,113.1
362.986,20.8
363.0912,121.3
363.3648,240.6
363.4832,165.5
363.5307,451.9
363.7164,805.7
363.7431,147.9
363.8081,19.2
363.9612,627.4
363.9984,1604.8
364.0042,249.6
364.0498,198.9
364.2545,578
364.2648,539.1
364.5988,368.9
364.827,160.7
365.1056,539.2
365.3049,284.2
365.3578,511
365.3953,17.3
365.4732,20.4
365.7064,490.4
365.7292,340.8
365.7515,299.4
365.7849,123.9
365.8096,291.3
365.9713,548.1
365.9864,78
366.14,667.2
366.1501,138.3
366.1874,17.8
366.1979,177.9
366.2141,125.1
366.4145,221
366.4613,22.5
366.5969,499.4
366.6839,575.9
366.7493,98.9
366.7585,86.4
366.7998,665
366.8118,139.5
366.8436,180.1
367.007,89.7
367.1944,1797
367.3628,19.1
367.5174,357.8
367.5624,187.1
367.6269,780.4
367.8281,884.5
367.835,95.3
367.9195,21.6
367.9921,604.2
368.001,549.4
368.0063,807.1
368.0658,553.8
368.0812,91
368.2055,606.2
368.3133,144.7
368.3652,814.8
368.4881,110.7
368.6065,716.8
368.6436,307
368.9922,4061.6
369.0015,19363.8
369.0103,9252.4
369.034,101.2
369.08,134.4
369.3008,180.9
369.3521,48.4
369.4754,390.5
369.4991,20
369.6723,93.4
369.6831,144.9
369.7318,101.1
369.825,336.1
369.8856,128.8
369.9766,202.4
370.0053,297.8
370.0388,127.7
370.5126,279.2
370.6591,135.6
370.7658,504.3
370.8309,762.4
370.876,373.8
370.9305,579.8
370.942,569.7
370.9999,942.6
371.0421,1228.2
371.2156,17.6
371.2743,362.3
371.3355,527.4
371.5179,111.8
371.5341,84.1
371.5416,716.7
371.551,543
371.9204,231.6
371.9565,281.3
372.0982,18.8
372.1016,21.6
372.2033,825.4
372.3874,532.7
372.6384,19.2
372.7372,491.3
372.7472,234.1
372.8712,118.6
372.9475,336.5
373.0245,403.7
373.1338,19.6
373.1914,256.2
373.2669,187.4
373.608,251.2
373.6774,149.2
373.7137,24.4
373.8025,588.2
373.9505,95
374.0991,270.4
374.1813,164.7
374.2455,191.5
374.2573,237.3
374.315,91.8
374.3463,293.9
374.7869,303.5
374.9151,777.7
375.0096,132832.7
375.0184,119680.5
375.0863,506.2
375.1904,18
375.2986,121.9
375.3056,323.5
375.3983,485.6
375.4524,112.9
375.5777,17.2
375.5986,115.6
375.6805,164.8
375.9925,125.3
376.0128,6120.8
376.0217,10742.8
376.0562,882.1
376.1001,225.6
376.1555,417.6
376.1866,476.3
376.2282,152.2
376.3361,462.9
376.369,171.6
376.4674,1844.5
376.532,330
376.5928,924.5
376.6572,799.6
376.742,21.9
376.9873,321.4
376.9942,1076.6
377.0167,4652.3
377.1704,116.4
377.3571,92.4
377.4977,508.8
377.6848,87
377.6962,19.9
377.7626,173.9
377.8071,52.7
377.8238,317
378.0512,194.3
378.0653,791.7
378.3348,283.7
378.4806,110.3
378.6223,566.9
378.8101,162.9
379.0538,142.4
379.1926,612.6
379.4237,18.5
379.4605,269.3
379.4788,128.9
379.6204,683.6
379.6984,151
380.0225,934.2
380.1711,495.2
380.1978,148.6
380.2296,906.4
380.4126,391.7
380.7475,396.4
380.7695,512.2
380.9349,107.1
380.9809,187.1
380.9947,769.8
381.0139,18287.7
381.0264,210127.3
381.0797,970.8
381.185,680.3
381.3804,157.5
381.476,89.2
381.5241,666.2
381.7875,350.9
381.8156,19.2
381.8548,576
381.9014,382.7
382.0139,372
382.0299,16401.5
382.1263,334.7
382.1566,747.7
382.1874,150.7
382.3323,564
382.6688,498.2
382.6906,701.2
382.7157,337.5
382.7678,595
382.8309,109.8
382.8412,563.4
382.8765,552.4
383.0115,353
383.0297,331
383.0477,668
383.1167,267815.1
383.1504,871.8
383.3281,878.8
383.3956,256.3
383.5131,148.4
383.6722,19.2
383.7319,561.2
383.7965,383.5
383.9662,744.7
384.0722,17.2
384.12,30670.2
384.1561,220.2
384.2117,18.4
384.243,142.3
384.4305,520.3
384.7641,1104.5
384.8422,225.6
384.9739,112.8
385.0244,107.2
385.0361,775.8
385.099,158.1
385.1206,1530.3
385.2898,806.9
385.4059,115.2
385.4716,17.8
385.5014,112.4
385.5208,531.3
385.5892,615.2
385.6813,21.3
385.7465,150.7
385.8266,770.6
385.9234,19.3
385.937,840.1
385.9797,3736.2
386.0903,18.7
386.1943,477.6
386.2194,680.5
386.3724,88.4
386.401,294.6
386.4227,172
386.4669,289.8
386.7917,19.2
386.8426,548.6
386.9574,174.8
387.003,1002.7
387.2272,468.7
387.2512,215.1
387.2635,245.4
387.2862,584.3
387.5407,114.5
387.5523,140.6
387.5836,530.4
387.6434,169.8
387.991,19.7
388.0698,538.3
388.0978,18.2
388.1308,498.6
388.1464,96.1
388.164,310.7
388.1799,379.8
388.6776,575.3
388.7118,544.5
388.7451,18
388.9011,198
388.9684,344.3
389.132,555.6
389.1564,585.8
389.262,368.2
389.974,16616.9
390.0727,979.7
390.148,598.7
390.4512,158.6
390.7096,541.8
390.7448,246.2
390.7989,567.1
390.8101,90.6
390.8294,1114.4
390.8548,529.4
390.8618,837.1
390.8735,600.1
390.9259,833.6
390.929,837
390.9746,12552.3
390.9834,23857.8
390.9923,13520.6
391.0435,638.1
391.1093,23.2
391.6187,229.3
391.6851,18.4
391.8214,20.5
391.9492,347.3
391.952,349.6
392.0047,44.8
392.2118,748.1
392.2598,18.4
392.3105,18.6
392.5416,99.1
392.6076,138.8
392.6804,123.5
392.7106,916.4
392.7965,1764.5
392.8168,197.2
392.8455,175.6
392.8638,18.5
392.9593,41.6
392.9704,246.7
392.982,820.7
392.991,430.6
393.0232,211.8
393.7979,140.5
394.0316,151.2
394.1012,20.2
394.1064,170.2
394.2036,22.2
394.8974,98
395.0188,328.8
395.1089,25.7
395.1947,128.7
395.4069,164.9
395.472,508.2
395.5745,229.6
395.588,20.2
395.6974,18.7
395.7583,18.9
396.0708,22.9
396.0947,159.1
396.1239,111.2
396.1806,622.7
396.3575,317.8
396.5053,561
396.5772,310.2
396.6116,687.1
396.7451,884.5
396.8249,121.4
396.863,190.9
396.924,352.6
396.9915,165961.6
397.0004,68233.9
397.0265,107.5
397.0659,140.6
397.4994,392
397.8666,357.2
397.9159,212.8
397.9677,21.7
397.9947,13517.4
398.0037,4102.4
398.029,428.1
398.2047,485.5
398.2418,3099.7
398.2558,167.5
398.2875,475
398.3182,209.7
398.354,164.2
398.4244,170.5
398.448,538.1
398.4782,451
398.6376,643.4
398.7029,19.5
398.7193,632.8
398.7414,1784.7
398.7629,3058
398.8295,560
398.851,296.5
398.9678,274.9
398.9987,1214.7
399.0498,204
399.0951,545.1
399.1077,142.3
399.2154,20.9
399.2385,95.3
399.2649,936.9
399.4708,103.3
399.6772,204.4
399.7691,17.2
400.0679,622
400.1216,133.4
400.1451,77.8
400.1668,98.2
400.5997,192.3
400.6744,22.1
400.7391,1298.9
400.8354,130.6
400.9746,131.8
401.2681,725.1
401.3796,392.3
401.7312,17.5
401.8568,356.9
401.9282,218.8
401.9533,419.4
401.975,129.7
401.9888,19.8
402.192,115.2
402.2436,563
402.4542,17.5
402.4886,213
402.5579,174.6
402.5966,19.3
402.6919,99.7
402.9359,152.1
403.0084,253734.6
403.034,159.3
403.2393,102
403.297,179.2
403.3525,275.2
403.5056,22.7
403.7548,142.4
403.931,306.4
403.9647,131.5
404.0115,18964.7
404.444,1133.6
404.6109,100
404.6872,972.4
404.7664,88.7
404.8126,455.3
405.0135,2170.8
405.1479,227.2
405.2257,578.8
405.3334,88
405.474,19.2
405.5106,22.9
405.6077,253.8
405.7304,26.2
405.9223,117.2
405.9479,10461
406.1345,494.6
406.1875,100.5
406.3299,1068.7
406.5813,366.7
406.6318,17.5
406.7734,1757.5
406.7877,20.6
406.8406,101.4
406.9564,490
407.0143,553.4
407.0888,221.7
407.1828,155.7
407.206,610.7
407.3064,878.9
407.3328,231.6
407.5563,100.8
407.6326,488.6
407.6459,125.7
407.8406,106.3
408.0294,587.3
408.0765,21.4
408.2139,20.2
408.4323,155.7
408.4943,272.7
408.5527,368.2
408.6891,348.1
408.7058,379.8
408.7702,2508.4
408.8326,673.5
408.8809,486.3
408.967,20.2
408.9851,1231.6
409.011,812.9
409.2492,159
409.27,456.9
409.2967,157.2
409.3905,199.3
409.4284,307.8
409.4757,335.5
409.5327,1033.2
409.5637,126.4
409.7496,156
409.8445,299.9
409.973,554.9
410.2414,112
410.784,286.3
410.9266,19.4
410.9701,19.9
411.0274,145.2
411.1069,153.9
411.1823,176
411.2096,784.1
411.2993,99.5
411.608,351
411.6205,127.5
411.7342,136.4
411.9385,159.9
412.2251,572.4
412.2741,216.8
412.3217,1124.7
412.3831,110.4
412.6016,120
412.7124,105.4
412.754,301.3
412.8328,590.5
412.9653,31812
412.9743,11140.6
413.0308,119
413.1431,539.5
413.2669,2669
413.3248,170.4
413.3795,120.8
413.4339,566.9
413.4893,761.2
413.653,129.7
413.7639,19.7
413.7848,105.7
413.9403,362.3
413.9691,971.3
414.1571,510.1
414.2705,405.1
414.574,125
414.7151,411.4
414.7399,300.3
414.8355,18
414.8624,112.9
414.9647,461.1
414.9982,1718.7
415.0367,20.7
415.1513,315
415.1613,76.8
415.2827,14311.7
415.4552,167.6
415.8171,594
416.0668,115.7
416.1355,12263.2
416.2147,37535.8
416.287,888.3
416.4099,128.4
416.4535,595.4
416.4772,166.4
416.7115,540.4
416.7831,209.3
416.8445,90.1
416.8966,134.4
416.9364,724
417.2178,4151.8
417.4916,360.2
417.6705,325.4
417.759,314.3
417.8029,217
417.8655,359.5
417.8726,205.3
417.9044,138.5
417.9261,970.6
418.0513,175.6
418.0614,978
418.2258,19.7
418.4524,20.4
418.466,189.8
418.487,569.8
418.7784,117.2
418.9108,190.7
418.9454,689.4
418.9823,94217
419.1498,22.3
419.2564,1508.6
419.3163,20.1
419.7955,21.2
419.8714,21.2
419.8913,132.6
419.9856,5930.8
420.0486,131.5
420.2238,707
420.8062,336.1
420.8275,792.1
420.8846,747.6
420.9809,4102.1
421.1674,692.3
421.1763,20
421.2587,125.6
421.6266,326.6
421.7185,21.5
421.7754,98.5
421.8207,576.5
421.8336,19.5
421.9223,1081.4
422.0238,18.7
422.1677,12579.6
422.1995,131.1
422.2196,743.2
422.2831,436.5
422.3039,43.4
422.6433,293.9
422.6743,382.3
422.7474,556.7
422.8817,588.6
423.1712,1395.1
423.263,395
423.3561,87.2
423.5496,123.5
423.6157,100.4
423.6929,170.2
423.8422,21.9
423.9837,19.7
424.0684,879.8
424.1503,91.6
424.165,654.2
424.3673,141.3
424.3931,163
424.4855,326.2
424.5157,20.8
424.5298,297.6
424.6047,217.2
424.7462,507
424.7738,19.5
424.8321,354.1
425.0309,19.5
425.034,22.8
425.0382,21.4
425.074,21.3
425.5098,137.7
425.9463,24
426.1642,136.6
426.6171,531.9
426.6838,105.3
426.7396,539.5
426.7675,18.5
426.9425,32
426.957,383
427.165,147.3
427.2061,122.9
427.2997,105.7
427.3262,179.7
427.3768,146.4
427.4184,143.2
427.5034,372.4
427.7817,247.6
427.8583,144.4
427.8988,401.1
427.9215,488.2
427.9614,551.5
427.9866,202.4
428.0403,296.7
428.0954,118.4
428.1221,562.7
428.1672,526.5
428.2061,608.4
428.4528,557.4
428.506,135.4
428.6425,511.1
428.6509,162.5
428.7619,117.9
428.7914,445.6
428.9389,3025.2
428.9486,813.6
428.9697,576
429.0897,187.7
429.26,18.8
429.328,264.2
430.2255,483.3
430.4185,285.9
430.544,369.5
430.6325,561.3
430.6981,337.4
430.914,1156.3
431.0385,93.2
431.0851,23.2
431.1203,175.5
431.1441,19.7
431.2175,2362.4
431.2597,973.3
431.2776,10973.5
431.3929,132.3
431.5809,435.8
431.8748,157.1
432.129,146.2
432.2667,178.6
432.2812,894.1
432.6074,581.4
432.7096,193.7
433.006,19.1
433.1601,19
433.1708,547.4
433.2499,46
433.4813,163.3
433.5126,108.5
433.7777,481.8
433.8096,791.3
433.8969,105.1
433.9324,330.6
434.0277,330.1
434.1573,155.7
434.2544,753
434.4143,316.7
434.4316,19.3
434.6506,547.3
434.6829,132.5
434.7569,746.7
434.9561,15989.2
434.9958,228.3
435.0408,17.9
435.0631,18.4
435.1187,18.1
435.1458,111
435.2519,728
435.3634,870.1
435.4109,103.8
435.4747,161.3
435.506,289.3
435.6805,90.2
435.7309,145.6
436.0138,563.9
436.0331,447.1
436.0444,263.7
436.2873,1012.3
436.4782,18.7
436.5708,173.3
436.7096,160.6
436.8698,659.7
436.9541,1197.8
437.1542,19.2
437.1826,107.3
437.2035,715.1
437.2576,250.3
437.4258,815.6
437.4628,626.2
437.5049,575.2
437.5199,122.5
437.702,263.8
437.7549,528.2
437.7795,142.8
437.979,183.6
438.0087,544.8
438.1979,615.9
438.4584,593.3
438.4859,183.6
438.585,516.6
438.6861,18.2
438.8871,19.5
438.9727,3215
438.9851,4769.5
439.1597,169.3
439.2956,20.9
439.3815,515.3
439.3983,613.9
439.5145,330.7
439.6078,321.1
439.9355,17.7
440.0751,124.3
440.1347,108
440.1787,3283.5
440.7254,524.5
440.8113,317.2
440.8959,893.4
440.9705,408.8
440.9822,423.4
441.1615,22.5
441.298,201.8
441.48,152.8
441.5278,19.2
441.788,166.4
441.7924,153.9
442.1624,293.6
442.3156,549
442.4742,21.6
442.6659,131.1
443.113,219.7
443.5823,525.6
443.6291,629.3
443.6549,99.7
443.7219,253.5
443.8237,143.9
443.8566,124.8
443.8854,17.1
443.9729,56.5
444.0319,537.6
444.5869,180.9
444.7361,764.1
444.7791,224.5
444.8571,546.4
444.8857,387.8
444.9538,811.6
445.0055,89.7
445.1228,350.5
445.2326,1983.4
445.271,706.1
445.4329,18.6
445.4785,272.7
445.6459,232.7
445.8813,128.8
446.0137,186
446.0671,110.2
446.199,222.3
446.6453,302.8
446.7989,782
447.024,338.6
447.278,168.5
447.4424,110.8
447.8254,604.9
447.8984,100.7
447.9326,386.1
447.9982,217
448.0364,241.3
448.0455,263.7
448.1041,339.7
448.3655,150
448.6684,424.3
448.8556,520.6
448.9334,3604.4
449.0189,161.5
449.0993,178.3
449.1546,2285.7
449.2528,571.2
449.3962,86.9
449.4253,484.4
449.4431,724.6
449.8161,214.2
450.1312,132.2
450.1581,453.1
450.1842,89.5
450.3102,310.1
450.5298,564
450.7473,104.5
450.9304,522
450.9879,102.8
451.1511,123.9
451.2211,353.4
451.5016,128.9
451.5597,230
451.8081,640.6
451.8385,572.1
451.9246,186.4
451.9492,18.3
451.9824,522.3
452.0604,208.3
452.1287,267.9
452.4504,550.8
452.5811,99.3
452.7531,391
452.8455,225.1
453.047,616.3
453.2614,965.6
453.3664,468.1
453.5972,457.9
453.7694,801.9
453.8275,315.6
453.8847,165.1
454.1081,118.5
454.5184,305.7
454.7198,397.9
454.7889,18.8
454.9502,36307.7
455.009,280.9
455.216,18.6
455.2243,486
455.442,822
455.4656,188.1
455.7068,167.5
455.9537,1030.1
456.0462,352.7
456.2723,189.2
456.3348,600.4
456.6532,532.6
456.8887,139.4
456.9474,9078.3
457.2332,10001.5
457.3235,156.5
457.3621,811.4
457.4291,23.9
457.6158,430.1
457.6576,137.7
457.7099,910.3
457.8684,214.4
458.1459,490.5
458.2158,1618.1
458.3021,21.2
458.4157,110.8
458.426,572.4
458.5428,381.6
458.6962,587.3
458.9619,515.6
459.0022,548.7
459.0657,117.6
459.2489,284166.4
459.6323,233
459.884,357.4
460.1726,171.8
460.2522,63484.4
460.7165,514.4
460.8424,307.8
460.8953,563.8
460.9257,485.7
460.9459,144.6
460.967,74124.6
461.1386,515.6
461.2558,3307.5
461.2711,297
461.3695,547.7
461.8463,121.8
461.9244,176.6
461.9705,5790.2
462.0634,121.8
462.6106,746.2
462.78,159.7
462.8051,177.6
462.9639,21272.1
463.0285,176.4
463.1497,746.3
463.2016,1120.2
463.3034,102.5
463.5162,136.4
463.5442,23.4
463.7274,373.5
463.7514,151.8
463.807,413.2
463.8782,809.8
463.9673,896.7
464.2714,20.8
464.3297,147.5
464.6279,668.3
464.6601,163.6
464.6925,540
464.815,549.9
464.9792,9959.6
465.0108,749.5
465.5428,102.8
465.6638,371.9
465.7803,266.6
465.9547,515.4
465.9753,159.3
466.1143,876
466.4371,200.7
466.5287,289.2
466.6548,19.2
467.0691,97.5
467.3557,544.3
467.585,339.3
467.6331,264.3
467.7071,390
467.7387,342.9
467.7738,144.5
467.8258,222.4
467.8662,193.6
468.1432,18.6
468.3464,636.1
468.3968,18.6
468.5457,101.4
468.5566,103.4
468.6058,356.5
468.6676,188.4
468.7249,555.3
469.1141,325.7
469.129,18.5
469.1933,110
469.2187,88.4
469.6674,572.7
470.0717,316.6
470.2136,427
470.26,130.9
470.4297,544.2
470.5527,917.5
470.7046,20.2
470.7417,154.2
470.811,667.8
470.8688,214.5
470.9034,755.9
470.924,13564.1
470.9958,3548.1
471.0366,379.7
471.0578,18.9
471.3128,361
471.3451,171.7
471.3956,267.7
471.6781,353
472.3041,5036.9
472.4068,18.3
472.5976,810.9
472.6738,312.5
472.7397,19.9
472.7673,136.7
472.8756,98
472.8961,1322.4
472.9224,5090.8
472.9595,418.3
473.0676,678.3
473.1333,119.9
473.1498,264.8
473.1741,432.5
473.2313,18.2
473.3078,1141.2
473.3466,588.8
473.4043,995
473.4637,158.8
473.5075,142.3
473.7004,304
473.8949,299.8
473.9351,334.9
474.199,103.9
474.3512,144.5
474.9433,386.6
475.0973,403.3
475.2043,148.1
475.2228,14189.2
475.8718,141.5
476.0021,576.3
476.0681,192.5
476.2258,2484
476.3146,782.1
476.4565,93.4
476.6131,264.7
476.7022,304.6
476.7536,339.2
476.941,44596.3
477.2102,785.5
477.4734,933.6
477.7072,596.7
477.9443,3507
478.0623,591.9
478.2941,1081.3
478.3298,46521.4
478.3809,125.3
478.6092,590.6
478.7005,136.7
478.8002,766.8
478.938,16072.1
478.9536,368.5
479.0458,112.6
479.0883,492.2
479.0957,31.1
479.1468,687.3
479.3333,8780.8
479.4042,263.9
479.709,180.4
479.8533,722.8
479.9025,271.9
479.9499,20.2
480.2512,804.8
480.6114,119.6
480.9528,2455.7
481.032,119.7
481.092,1064.9
481.2641,1019.6
481.584,515.1
481.6275,522.1
481.7062,165.1
481.8119,566.9
481.9453,729.4
481.9736,18.9
482.0956,206.7
482.2671,319.7
482.2911,17.1
482.3019,146.3
482.3246,878.8
482.3614,1130.6
482.5235,224
482.8564,189.3
482.9209,120.4
483.0066,223.9
483.0502,539.8
483.1161,165.9
483.1461,128
483.1717,205.2
483.2489,85559.2
483.3702,129.3
483.3732,125.8
483.4112,496
483.5274,501.5
483.6321,208.7
483.7069,94.8
483.9872,181.5
484.0463,152.9
484.0857,17.6
484.2522,21258.9
484.3701,208.3
484.7669,169.9
484.8751,100.4
485.0908,21.2
485.2645,69947.2
485.2836,587.2
485.4022,168.2
485.4325,318
485.5134,169.2
486.0654,303.3
486.2679,15494
486.3318,21.4
486.347,175.1
486.4207,557.9
486.6226,161.8
486.6429,354.1
486.7426,595.5
486.898,2037.1
486.9184,184.7
486.9687,678.8
486.9947,858.5
487.0973,143.9
487.1571,985.4
487.2802,53685.1
487.501,97.1
487.7593,723.9
487.8605,169.1
488.0597,160.8
488.2838,10643.3
488.3423,561
488.5004,117.1
488.5862,141.1
488.7468,25
488.8599,110.8
488.8952,720.7
488.9431,541.8
489.0744,557.4
489.0859,59.8
489.1196,710.7
489.3548,475
489.3745,204.3
489.4052,125.1
489.4291,416.7
489.4494,160.6
489.4631,334.9
489.4947,543.1
489.5229,615.4
489.5556,167.4
489.5642,18.1
489.5806,135.9
489.6786,838.7
489.7868,171.3
490.0791,445.6
490.1292,19.8
490.1398,570.8
490.2586,301.6
490.2914,4533.2
490.4093,125.5
490.4487,110.8
490.4566,211.4
490.6472,526.5
490.7853,232.6
490.876,18.2
490.9433,273.3
491.0603,579.4
491.1522,611.1
491.1906,760.5
491.3713,4577
491.4253,103.6
491.8757,157.8
491.9925,144.7
492.0481,18.4
492.0863,765.2
492.112,119.1
492.1596,329.6
492.4481,17.3
492.5124,508.9
492.72,656.2
492.8995,318.9
492.9147,7863
493.3545,647.4
493.4042,261.2
493.8427,96.7
493.9188,335.6
494.2336,216
494.2635,662.6
494.286,2930.7
494.3097,541.5
494.3246,5312
494.3449,129.6
494.7704,316.9
494.7843,161.6
494.9122,3489.7
494.9694,118
495.0076,398.8
495.2227,518.9
495.6981,286.8
496.3405,318521.8
496.3717,650.8
496.378,463.8
496.5244,294.9
496.5611,159
496.5722,20.1
496.602,334.1
496.8791,386.8
496.9316,1222.3
497.0469,271.3
497.1078,83.4
497.1245,20.1
497.3438,77774.5
497.4237,507.6
497.6567,162.4
497.8921,555.9
498.1125,250.1
498.2794,124.3
498.3471,7349.4
498.5752,107.4
498.813,91
498.9293,380
499.1209,826.2
499.1399,740.2
499.1757,105.7
499.2217,1829.5
499.2498,192
499.3713,19.1
499.5895,117.4
499.7996,631.2
500.4323,130.7
500.7016,476.4
500.9305,191.1
501.1235,155.6
501.1758,184.5
501.2391,3656.6
501.273,516.8
501.3558,517.5
501.5479,126.3
501.5953,634.3
502.2523,23.6
502.3296,25335.4
502.3492,881
502.6705,95.8
502.9173,182.1
502.928,518.1
502.9388,110.3
503.1085,139.9
503.2539,2139.2
503.3328,4189.4
503.35,135.9
503.4994,20.6
503.5968,182.7
503.6855,188.1
503.8078,104.2
503.9461,292.7
504.0144,827.8
504.3064,355.7
504.345,8172.1
504.6297,323.4
505.0369,323.7
505.0838,121.5
505.3478,1369.8
505.3971,333.9
505.5768,253.5
505.6275,286.9
505.6746,228.7
506.104,22.5
506.1471,340.9
506.3614,5065.7
506.7161,146.9
506.892,3879.7
507.1403,1160.1
507.2489,9389.2
507.364,194.3
507.5668,374.7
507.6981,150
507.8533,128.5
507.8914,181.4
508.2514,1692.3
508.3788,979.9
508.3882,102.2
508.4704,286.7
508.5004,216.4
508.7129,433.6
508.8438,191.7
508.8892,1400.1
509.0048,3369.8
509.0763,571.4
509.1996,490.9
509.2638,3850.2
509.3791,303.9
509.5527,280
509.7522,260.4
509.8044,21.4
509.8502,132.9
510.176,736.5
510.2394,144
510.266,577.9
510.2825,615.4
510.3629,463.9
510.4415,552.8
510.4596,344.9
510.487,665.9
510.5135,231.8
510.717,358.1
510.9904,796.5
511.1253,38.9
511.1597,1000.8
511.3401,164.3
512.2996,217.1
512.3234,526.2
512.5716,610.4
512.7277,103.5
512.7553,396.9
512.7887,118.3
512.9088,16021.4
513.0473,103.5
513.1369,20
513.5545,486.2
513.6732,486.2
513.7523,119.7
513.8976,153.6
514.0547,129.3
514.184,171
514.4412,131.2
514.4829,106.3
514.8095,363.9
514.9057,9503.7
514.9242,503.8
515.0221,528.7
515.1171,182.8
515.1799,206.8
515.2245,95.2
515.2702,951
515.3718,1164
515.9866,656.3
516.0357,512.8
516.2217,634.3
516.3069,17583
516.6966,174.8
516.9027,391.5
516.9203,746.9
517.0062,20
517.1601,116.8
517.2864,572.3
517.3087,891
517.3483,877.1
517.3896,419.3
517.4306,162.9
517.7242,98.7
517.7689,304.1
517.9479,560
518.3224,557420.4
518.3684,118.5
518.4846,21.7
518.8296,171.5
518.9257,28040.7
519.1039,515.7
519.1689,119.7
519.3257,138759.2
519.5984,409.5
519.6294,321.4
519.9295,1510.1
519.9477,572.5
519.9968,403.3
520.1269,21.7
520.3405,100083.4
520.609,102
520.6266,925.9
520.7564,131.1
520.9227,17102.4
521.3437,22239
521.3892,149.1
521.4762,97.4
521.6269,100.1
521.7522,93.2
521.7624,83
521.9264,1308.7
521.9749,122.2
522.2592,855
522.3561,86039.1
522.7206,18
522.7397,447
522.8647,170.4
522.888,19.7
522.9214,1657.3
522.9377,5373.5
523.3596,18934.5
523.546,379.1
523.7602,816.6
523.9407,382.7
523.9845,271.2
524.0238,1164.1
524.1466,226.5
524.2279,126.9
524.2534,180.9
524.2754,1035
524.3127,189.6
524.3718,77359.3
524.4702,888.1
524.8129,236.9
524.934,533
524.9444,662.6
524.9795,1006.8
525.0681,221.6
525.073,232.4
525.2137,95.6
525.3143,236.1
525.3753,15573.8
525.4326,312
525.4476,814
525.6303,327
525.7029,20.1
525.7374,108.7
525.7595,698.4
525.8184,152.6
526.3041,120.2
526.3303,3109.2
526.3759,586.1
526.4953,151.8
526.5521,142.7
526.6919,440.8
526.7373,158.2
526.9456,474.6
526.9607,126.2
527.0308,279.5
527.2793,167.2
527.4279,190.5
527.5396,237.6
527.6863,102.7
527.8222,181.3
528.222,130.1
528.3405,875.4
528.7527,589.1
528.7966,148.6
528.8829,6178.7
528.9545,1658.2
529.2066,624.3
529.2183,169.4
529.3103,495.1
529.3652,19.3
529.5593,501.3
529.6859,114.6
529.7194,17.6
529.9858,614.8
529.9942,116.4
530.1718,90.4
530.2225,89.3
530.324,649.7
530.3587,906
530.3769,304.5
530.482,86.9
530.7161,149
530.8803,3739.2
530.9396,126.1
530.9976,538.5
531.1643,264.9
531.2483,1037.2
531.2894,809.4
531.4574,123.3
531.6458,23.5
531.6616,154.9
531.8472,599.3
531.9326,18.6
532.0987,593.4
532.1112,141.5
532.2602,887.7
532.2809,2680.8
532.338,3576
532.9664,944.7
533.1798,276.5
533.3818,1876.7
533.4085,241.9
533.5928,566.7
533.7865,642
533.9533,177.6
534.0732,279.3
534.1148,353.2
534.1681,112.4
534.2699,112.6
534.2964,134553.6
534.4255,92.8
534.5758,78.2
534.657,111
534.7656,19.8
534.8654,185
534.8994,19597
535.0993,749.5
535.2996,32727.8
535.4299,99.3
535.6395,323.9
535.8545,270.2
535.9036,1622.4
536.0262,154.2
536.1141,119.9
536.2948,8615.4
536.4129,120
536.5064,926.5
536.6935,379.6
536.8177,323.3
536.849,177.8
536.8968,10083.5
537.1393,147.1
537.2709,877.7
537.2988,1021.5
537.3445,421.7
537.3966,126.7
537.4315,325.7
537.8108,188.4
537.9003,359.5
538.0856,225.8
538.3309,161.7
538.4377,20
538.6132,184.5
538.6974,336.6
538.7172,103.3
538.8941,1675.9
538.9118,2530.8
539.0168,542.5
539.1726,392.7
539.7499,685.1
540.3072,1235.5
540.3214,112.9
540.4198,224.6
540.474,833.8
540.7302,167.1
540.8388,455.2
540.9458,95
541.171,114.8
541.2613,667.6
541.3881,1671.7
541.5191,202
541.5733,196.2
541.7839,145.4
541.8182,226
541.8774,313.3
541.9052,516.4
541.9697,614.8
542.0543,238.1
542.2193,233.6
542.2577,85
542.2852,19.5
542.3224,153483
542.3911,1028.5
542.4554,1023.1
542.4861,432.8
542.6093,479.3
542.6887,109.2
542.8917,291.2
543.0388,500.1
543.3258,35061.1
543.4027,4236.5
543.592,359.2
543.7338,202.7
543.7465,321.6
544.1173,102.8
544.1288,166.8
544.2738,876.8
544.3032,1094.2
544.3381,146563.2
544.7134,239.5
544.8264,227.7
544.928,706.9
544.948,1045.6
545.3414,36868.1
545.4197,865.8
545.5141,491.2
545.7061,394.9
545.7236,416.3
546.2054,344
546.3537,131135.1
546.4572,124.6
546.8549,508.3
547.0961,300.7
547.1492,510.8
547.3571,32847.6
547.466,144.6
547.6017,195.5
547.6299,614.7
547.8326,131
548.1689,210.1
548.3591,1757.7
548.3712,1149.5
548.7062,159.6
548.7499,348.9
548.8719,198.3
549.0623,121.7
549.1557,326.1
549.2448,227.4
549.4492,17.6
549.7103,112
549.8186,254.8
550.6114,181.6
550.7996,516.2
550.8734,4688.7
551.0001,293.8
551.3143,412
552.0094,195
552.1585,21.8
552.1738,91.2
552.2277,512.1
552.4508,18.3
552.853,404.9
552.8717,2575.2
552.8895,18.5
553.1957,530.1
553.3992,564.9
553.4327,214.4
553.5411,299.8
553.8137,168.3
553.9373,117.8
554.4834,18.8
554.4992,133.2
554.5746,176.4
554.8035,121.4
554.8743,304.3
554.8939,276.8
555.7891,558.5
555.9192,227.8
555.9904,373.3
556.2294,528.1
556.2735,212.8
556.4267,772.4
556.9185,169
556.9389,267.5
557.1217,864.5
557.7223,168
557.7676,208.5
557.9538,499.6
558.1539,241
558.2962,37039.3
558.4493,188
558.6729,140.3
558.8512,607.1
559.1836,113.5
559.2378,557.6
559.2998,7584.9
559.3979,3036.5
559.8472,589
560.0629,121.3
560.2354,114.8
560.2963,590.7
560.312,31775.8
560.6367,186.7
560.9208,309
560.9522,552
561.054,124.9
561.166,93.7
561.1916,346.3
561.3156,8446.6
561.3572,19
561.3683,406.1
561.4134,13902.6
561.4794,691.6
561.4978,92.2
562.0461,619
562.3114,719.7
562.3277,27432.3
562.3523,20.9
562.3667,20.2
562.417,3777.9
562.4361,359.6
562.4656,186.2
562.6258,386.2
562.6559,432.9
563.2001,443.9
563.3313,6034.8
563.4293,7136.9
563.5764,333.7
563.6344,539.9
563.6857,321.9
563.8057,18.8
563.9623,256.3
564.431,1037.2
564.5778,353.9
564.6547,22
564.8512,396.4
564.9503,19.2
565.3272,346.6
565.3384,198.1
565.5441,145.4
566.1031,118.9
566.1955,753.1
566.24,18.2
566.3224,16938.1
566.3864,89.2
566.4454,20.3
566.566,580.1
566.6915,19.6
566.8471,22.1
566.9644,1295.4
567.1266,161.8
567.3254,1657
567.4637,508.2
567.5521,604.9
567.9814,694.4
568.0332,747.5
568.1122,492
568.1691,18.2
568.2504,103.8
568.2982,602.8
568.3386,11128.6
568.4489,151
568.5322,161.8
568.7216,104.2
569.1651,117.2
569.2541,348.8
569.2802,184.2
569.2961,169.5
569.3402,670.7
569.385,108.7
569.5374,164.8
569.7416,115.2
569.8611,227.5
569.9581,114.9
570.2758,206
570.6301,529.2
570.6872,18
570.8675,4149.6
571.0612,817.4
571.18,105.7
571.3336,553.8
571.4351,1054.1
571.5358,306.7
571.5647,349.4
571.813,271.7
572.0581,599.5
572.0891,140
572.5054,287.6
572.5931,316
572.6168,397.8
572.7672,155
572.835,493.6
572.8647,3692.7
572.9169,659.6
572.9844,680.8
573.2547,614.8
573.4485,815.5
573.7431,344.7
573.7955,384.4
573.8331,19.2
574.0626,17.9
574.1983,528.7
574.2844,1090
574.6952,342.2
574.8585,480.2
575.2067,346.6
575.2223,225
575.2348,442.8
575.4005,492.4
575.4534,176.7
575.5042,11367.6
575.861,134.5
576.0082,621.8
576.0203,258.7
576.2814,4268.7
576.3752,117.7
576.5069,1951.7
576.7181,120.6
576.8845,11127.8
576.9482,127.1
577.2505,945.1
577.3358,557.4
577.3506,106.3
577.371,594.4
577.5209,1058
577.6925,129.1
577.8242,692.6
578.0194,228.1
578.2793,923.2
578.4923,414.6
578.5237,493.8
578.6261,180.3
578.7822,474.4
578.8815,9274
579.0903,818.7
579.3425,125.8
579.4887,421.5
579.5112,556.4
579.7301,106.6
579.8849,417.3
580.231,109.9
580.4601,905.9
580.8565,18.1
580.8791,3178.6
580.8967,1056.4
581.1193,143.1
581.637,499.1
581.9494,116.4
582.2433,159.2
582.2961,2869.8
582.3617,274.9
582.3717,262
582.4017,570.8
582.4302,213.5
582.4707,887.6
582.4947,295.4
582.5229,111.7
582.5426,788.6
582.5679,417.3
582.5864,798.7
582.5996,29.7
582.6348,328.3
582.7449,113.6
582.8941,443.7
582.9934,216.4
583.0839,139.1
583.1162,259.3
583.2558,3993.4
584.2436,19.1
584.3119,798.9
584.5605,178.6
584.8877,358.3
585.272,8014
585.5291,25.1
585.7315,19.6
585.8469,94.2
585.9491,550.3
586.2751,2025.9
586.3108,3378.8
586.3901,522.9
586.4435,613.5
586.4764,614.8
586.7841,724
586.8416,2289.7
586.8652,662.6
586.9125,678.7
587.0021,582.3
587.052,313.4
587.0973,95.1
587.2424,93.9
587.3118,399.3
587.6652,140.9
587.7247,610
588.0065,232.3
588.1082,449.6
588.3236,386.5
588.6405,111.2
588.8381,2242.4
589.1551,584.5
589.4431,1372.9
589.7334,135.7
589.8172,20.8
590.0989,139.2
590.1445,192.1
590.2993,131.3
590.323,2459.4
590.3664,219
590.4492,105.8
590.6706,112.8
590.6904,186.8
590.8364,758.8
590.9269,729.9
591.1175,271.7
591.2286,699.3
591.2585,481.4
591.3159,3984.7
591.4411,154.2
591.4604,5030
591.736,18
592.356,559.7
592.7837,170.1
592.8586,8406.5
592.8991,635.2
592.9116,120.2
593.0409,99.7
593.3111,202.7
593.4764,3617.1
593.6448,123.6
593.9145,128.2
594.1634,130.3
594.2613,132.9
594.3103,725.8
594.4786,1309.7
594.8555,6824.5
594.9392,1234.3
595.1659,23.1
595.8873,114.8
596.4064,162.9
596.448,123.6
596.5042,106
596.5904,20.6
596.7886,459.8
596.8524,2135.3
597.1525,93.7
597.3254,757.1
597.4496,14824.9
597.4863,15515.8
597.53,128.2
597.5691,568.4
598.0618,331.6
598.1181,19.2
598.2671,610.7
598.4545,5109.8
598.4891,885.7
598.7065,112.7
598.9883,129.9
599.0343,98.7
599.172,500.8
599.3864,342.4
599.4657,13036.5
599.4825,142.3
599.5024,4131.6
599.8814,116.1
599.9954,85
600.0396,308.7
600.281,548.2
600.3149,166.6
600.4681,794.1
600.6091,231.3
600.6857,320.2
600.7643,491.7
600.9413,115.8
601.3468,219.9
601.4812,1186.7
601.5193,563.7
601.9479,209.8
601.9758,108.3
602.3497,351.2
602.4807,855.3
602.5152,20.6
602.8148,395.8
602.9519,123.8
603.1739,195.9
603.2998,380
603.5342,1159.5
604.3133,836.6
604.4159,641.6
604.5025,195.4
604.5304,108
604.7097,22.6
604.901,657
605.1133,125
605.2358,904.5
605.4285,541.9
605.4407,218.5
605.5495,127.1
605.5702,21.1
605.8971,20.9
606.0134,339.9
606.1061,373.3
606.1103,404.3
606.1176,404.6
606.6919,479.4
606.8187,131.9
607.0103,19.3
607.0622,25.7
607.1715,7740.3
607.2812,492.6
607.2965,458.2
608.1762,544.7
608.2281,246.5
608.665,142.6
608.8327,789.6
609.015,20.5
609.3674,146.6
609.6872,615.9
609.7068,484.2
609.9069,717.2
609.9352,181.8
610.1368,113.8
610.19,444.4
610.2973,177.8
610.3103,694.2
610.4693,25.3
610.5163,143.4
610.8079,198.2
610.8298,1626.1
610.8978,177.2
610.9168,635
610.9492,142.6
611.2748,518
611.4665,975.7
611.7343,813
611.9801,597.4
612.0034,521
612.4407,932.2
612.8293,88.4
613.3211,318.1
613.4243,1547.4
613.4537,116.6
613.4735,108.3
613.6704,440
613.8165,193.6
613.8451,116.9
613.8653,305.3
613.9663,511.1
613.9716,507.3
614.4223,118.1
614.5338,155.4
614.65,366.8
614.7126,211.4
614.8296,579.2
615.0295,626
615.3195,465
615.4067,223.5
615.4607,25051.9
615.7382,26.5
616.0842,22.4
616.2556,538.1
616.4447,1226.3
616.4641,6608.3
616.7449,137.1
616.8515,102.3
617.3571,357.9
617.4762,80326.6
617.787,191.3
618.0827,382.7
618.1616,159.4
618.4797,31082.9
618.9335,94
619.365,168
619.4919,81063.3
619.7455,134.4
619.8023,652.3
619.9819,393.8
620.0711,127
620.1076,406.9
620.4733,1050.2
620.4951,32026
620.714,347.1
621.0024,133.1
621.0132,131.5
621.282,496.5
621.4518,2332.6
621.4722,464.3
621.4869,2780
621.4986,3575.8
621.5478,693.6
621.6497,748.2
621.8487,17.1
622.0415,128.6
622.4281,521.8
622.453,1094.1
622.4896,2031.1
622.6636,19.8
622.681,159.7
622.7457,152.7
622.9795,243.2
623.1366,28628.4
623.4209,194.1
623.4623,2304.3
623.4762,1013.6
623.5011,1543.7
623.5296,111.2
623.7609,547.1
624.1403,4439.9
624.3655,897.2
624.4341,1003.6
624.4789,697.1
624.6819,393.3
624.9235,372.7
624.9416,630.7
624.9956,110.5
625.1413,270.8
625.1932,808.6
625.5223,248.4
625.6439,17.6
625.8649,1106.8
626.4091,124.5
626.4502,19
626.5229,165.5
626.8521,543.4
627.076,223
627.1296,132
627.2103,807.4
627.5355,341.1
627.7087,174.8
628.3523,122.8
628.3737,144.7
628.6419,21
628.9218,135.2
629.1536,63117.1
629.2158,132.1
629.3445,580.5
629.602,171.2
629.7428,384.6
630.1571,12270.4
630.2906,764.6
630.3068,273.2
630.4526,388.1
630.6223,156.5
630.6667,226
630.7905,828.7
630.7948,1049.4
630.8018,648.8
630.94,449.4
631.1587,1186.8
631.24,199.1
631.3514,441.5
631.4478,308.4
631.712,122.8
631.7655,606.3
631.8369,156.1
631.8608,130.9
632.0561,110.3
632.3537,396.2
632.939,447.8
633.1335,277.9
633.2282,178.2
633.4503,12817.6
633.4714,2525.3
633.9569,222
634.056,127.7
634.1631,271
634.3279,123.9
634.4547,1877.7
634.8439,2218.4
634.9677,22.9
635.4656,10768.5
635.4873,1492.7
635.5544,103.5
635.9542,576.6
636.4272,117.4
636.4697,2297.1
636.5434,415.4
636.8396,4458.6
636.8937,494.5
637.0182,153.1
637.3501,25
637.5035,990.4
637.6439,436.7
638.0619,128.6
638.1008,274.9
638.2026,163.3
638.4262,316.3
638.5178,239.3
638.7751,686.7
638.8368,1889.3
638.9279,110.7
639.1458,18.5
639.3512,615.1
639.4574,1065.6
639.5001,324.8
639.5484,1119
639.7679,142.2
639.7881,148.9
640.272,20.6
640.5075,410.8
640.876,20.7
641.0286,928.9
641.0609,188.1
641.2094,146.2
641.3321,25.2
642.4716,111.5
643.1769,533.6
643.1901,619.2
643.5031,124.8
643.5285,18.7
643.8098,688.5
643.9214,389
644.4546,19.4
644.8717,444.9
644.924,121.5
644.9885,358.6
645.1189,21230
645.2205,119.6
645.3219,1147.8
645.7161,238.5
645.7316,485.3
645.8776,377.7
645.9802,226.3
646.1229,3758
646.3228,126.2
646.4517,645.8
646.9071,335.7
646.9296,999.9
646.9846,592.1
647.0979,372.7
647.1249,117
647.3197,22.8
647.3436,174.5
647.3708,540
647.6721,177.8
647.7072,128.4
647.7531,101.7
647.815,177.6
648.3022,168.2
648.4212,221.8
648.6072,19.3
648.8813,336.3
649.5002,343.9
649.9347,410.4
650.0031,166.8
650.4243,190.2
650.4394,2183.2
650.4918,941.4
650.7144,122.9
650.8025,478
650.8172,2063.4
650.9307,127.7
650.9601,232.9
650.9666,272.1
651.0107,541.7
651.1354,61894.3
651.2791,98.8
651.5052,300.2
651.928,171.4
652.1393,11862.7
652.3126,356.5
652.8142,2239.9
653.0056,113.9
653.0332,260.6
653.0491,122
653.1119,647
653.1397,278.6
653.2883,415.6
653.4024,165.1
653.4708,418.8
653.5357,562.2
653.9271,490.9
654.1628,361.4
654.3647,182.2
654.4817,233.4
654.5426,572.3
654.5562,503.4
654.5667,1059.1
654.6881,315.8
654.8121,991.9
655.3597,619.5
656.041,147.5
656.1713,19.2
656.3616,195.9
656.3999,116.8
656.5009,860.5
656.6129,488.8
656.9024,171.6
656.9234,122.7
656.9525,322.3
656.978,124.8
657.4959,156.1
658.0576,126.1
658.1687,307.5
658.513,121.3
658.5811,437.1
658.7309,333.2
659.0371,19.8
659.1299,21.2
659.4398,146.4
659.7882,348.1
660.0831,2494.3
660.1444,514.3
660.2304,137
660.8973,668.9
661.0833,9371.3
661.2597,249.6
661.4679,436.7
661.5222,413.2
661.8118,696.8
661.8678,20.3
662.6138,228.6
662.7392,117.9
662.8036,606.7
662.8459,357.6
662.897,313.2
663.0895,350
663.2645,871.2
663.3408,22.5
663.4291,446.2
663.4552,752.6
663.7292,808.3
663.9382,216.7
664.323,322.1
664.4696,2673.9
664.574,479.4
664.7056,139
664.9923,110.9
665.0847,171.2
665.443,344.4
665.463,435.4
665.4821,319.9
665.6543,171.8
666.31,86.1
666.4841,7522.5
667.1003,27828.2
667.3472,148.5
667.4035,109
667.4882,1787.8
667.7611,329.3
668.1043,3187.9
668.2954,125.9
668.7523,175.4
668.7687,88.8
668.7823,395.1
668.949,189.5
668.9846,111.6
669.1067,100.1
670.3881,566.7
670.6106,159.5
670.8284,550.4
671.3596,170.3
671.5167,96.8
672.0633,296.2
672.0898,311.9
672.1545,225.5
672.4221,2474.4
672.6556,872.4
672.7049,364
672.9972,450.2
673.0411,513.3
673.1175,60567.7
673.196,167.5
673.2816,496.2
673.5189,144
673.7202,591.5
673.7965,125.8
673.8928,702.7
674.044,115.2
674.1212,11147.4
674.2413,860.3
675.0637,184.3
675.093,95.2
675.1228,1031.4
675.545,13033.9
675.7989,477.4
675.8519,19
676.0481,2667.9
676.1132,140.5
676.5486,3340.9
677.2882,18.5
677.3141,182.6
677.3476,125.1
677.4612,205.6
677.5232,252.9
677.6353,371.2
677.951,181.4
678.0873,605.6
678.138,185.7
678.3473,19.8
678.6972,316.1
678.7478,110.3
679.3721,19.1
679.5718,101.2
679.973,347.8
680.0702,262.4
680.1252,194.9
680.2595,204.8
680.8424,157.7
680.9901,702.8
681.1681,25.5
681.3193,116.3
681.3999,23.8
682.0652,7846.3
682.292,110.7
682.4585,510.4
682.8985,627.1
683.0648,5501.5
683.0998,127.8
683.265,560.4
683.8371,660.5
683.856,856.7
683.8853,337.9
683.9371,319.1
684.223,566.8
684.2815,482.3
684.4901,233.2
684.701,116.2
684.816,21.9
684.8451,318.5
685.0415,424.4
685.3633,21.7
685.4365,5539.8
685.4541,321.7
685.6471,884.8
685.7015,602.3
685.7641,124.6
685.9142,731.9
686.0726,85.3
686.4287,859
687.0475,146.3
687.3912,594.2
688.4212,146.8
688.4852,321.5
688.8738,160.8
689.082,21627.4
689.0907,18610.9
689.1423,107.9
689.4882,168.5
689.5608,2293.6
689.7349,657.4
689.8205,20.7
690.0879,1646.8
690.0943,1895.6
690.1865,210.9
690.3866,159.7
690.5637,914.5
690.8209,698.3
691.0597,776.9
691.1425,101.5
691.1666,110.8
691.5516,231
691.5881,169
691.7501,332.7
691.792,379.8
691.9087,336.6
692.3066,152.9
692.4893,734.3
692.4999,890.7
692.5559,163.7
692.6786,120.4
692.927,99.1
693.2017,487
693.4413,351
693.7196,100.6
694.0308,567.1
694.0788,115
694.1301,91.2
694.1835,117.4
694.2562,252.7
694.782,21.8
694.799,807.8
695.0995,38837.6
695.1635,389.8
695.2413,194.9
695.286,144.7
695.4627,2382.6
695.5118,1135.9
695.6567,525.7
696.103,6287
696.2053,133.5
696.2796,175
696.3603,379
697.0756,219.3
697.1957,18.8
697.3527,160.4
697.5269,18685.6
697.9647,151.9
698.0298,2158.4
698.1176,229.5
698.5299,5397.7
698.7036,85.8
699.5591,114.9
699.6259,296
699.7584,304.9
700.4199,509.8
700.424,515
700.4932,19.9
700.9134,87.7
701.0917,325.5
701.4732,482.6
701.5606,32240.5
701.7424,228.2
702.3432,3959.8
702.5639,10389.8
702.997,153.5
703.1706,142.2
703.3459,816.4
703.5762,100426.9
704.0055,201.2
704.0475,3981.5
704.1322,20.7
704.4262,174.6
704.449,2396.4
704.5796,41103.1
704.7197,889.4
704.8315,581
704.918,1283.3
704.9899,96.2
705.0548,4167.2
705.4783,675.7
705.5817,4494.5
705.6769,191.2
706.0613,285.3
706.1982,692.9
706.2518,465.3
706.3361,886.5
706.3972,166.2
706.5391,2012.6
706.5958,173.5
706.8652,225.6
706.902,514.5
707.1233,89.6
707.2833,647.4
707.3784,340.9
707.7405,120.3
708.2302,134.8
708.5696,529.8
708.6189,141.9
708.9136,19.7
709.0984,404.2
709.2777,19.5
709.3468,673.4
709.5731,20.7
709.8565,138.7
710.0538,124.2
710.2487,119
710.5907,125.6
710.6474,173.4
710.6644,148.1
710.7733,490.4
711.0038,526.1
711.0085,557.1
711.0637,10396.8
711.0746,15024.6
711.1221,99.7
711.2061,156.4
711.3313,208.2
711.4949,108.9
711.543,3782.6
711.9027,119.1
712.0774,1326.7
712.3379,789.8
712.4531,835.6
712.5464,768
712.7003,125.9
712.8677,19.3
712.9994,203.9
713.0677,103.8
713.1048,108.5
713.183,166
713.2357,363.8
713.2602,254.4
714.1864,99.9
714.2802,1009.9
714.3456,105.4
714.4374,488.1
715.7192,172.6
716.1257,402.1
716.1472,139.5
716.4979,128
716.5602,197.4
716.6755,339.8
716.758,181.4
716.8533,18.6
717.0814,18232.7
717.2138,1350.5
717.3316,19.9
717.8473,607.5
718.0211,92.4
718.0856,1412.6
718.4109,26.1
718.5786,233.6
718.7706,175.3
718.9526,171.6
719.0253,460.4
719.1745,583.1
719.4147,565.6
719.4633,1597.4
720.0217,1090.5
720.524,19.4
720.5496,364.7
720.5939,269.7
720.918,19.6
721.4794,70094.8
721.5009,402.1
721.8397,163.3
721.8886,257.5
722.4829,26027.4
722.6595,528.5
722.823,572.5
723.4286,510.6
723.4951,11881.5
723.5424,32588.7
723.6959,86
723.8293,20.6
723.8888,121
724.1032,366.1
724.2681,834.3
724.4975,1532.5
724.5456,11517.6
724.8447,221.3
724.8776,356.9
725.2169,18.9
725.2376,181.6
725.502,104.9
725.5231,398.9
725.5581,87843.1
726.0286,2615.5
726.5089,649.6
726.5615,33856.2
726.7401,283.2
727.0315,2452.3
727.0484,2046.8
727.1562,126.8
727.5632,3561.5
727.8468,800.2
728.0212,256.6
728.4622,201.7
728.4892,520.1
728.5211,932.4
729.3635,99.7
729.5268,653.3
729.5917,5289.2
730.4641,308.3
730.5395,15015.4
730.575,196.4
730.9711,282
731.4788,769.5
731.5449,1979
731.6081,3705.8
731.8894,511.5
732.0826,188.8
732.2522,153.4
732.5552,84255.1
732.612,720.2
732.9461,547.3
733.0458,4804.8
733.0567,6330.9
733.0993,101.2
733.5587,33996.3
734.0545,731.3
734.1995,518.5
734.5709,7414
735.5749,1638.9
736.281,238.6
736.6177,121.9
736.7439,808.4
736.8471,182
737.0193,794.2
737.4534,15685.1
737.7548,153.6
738.3568,548.2
738.4554,2791.6
738.481,137.8
738.662,341.2
738.9079,561.2
738.9189,476
738.9272,482.2
738.9545,236.7
738.9752,447.1
739.0343,164.4
739.0634,8643.1
739.25,512.4
739.4673,1089.4
739.516,1445.6
739.5694,567.1
739.7873,1115.5
740.0685,352.5
740.4845,313.9
740.5196,1023.1
740.5618,110.6
740.7764,579
740.9069,525.6
741.5323,11901.4
741.6964,128.1
741.712,501.5
741.9981,203.8
742.0031,192.1
742.0334,87.6
742.0632,403.3
742.1006,1410.5
742.5361,3606.6
742.5762,19763.4
742.997,865.5
743.1483,500.7
743.2208,126
743.3631,20.6
743.4009,282.8
743.461,1258.4
743.5378,741.8
743.5799,6621.4
743.6105,354.1
744.0487,154.2
744.3227,19
744.3497,240.9
744.5564,3782.6
744.592,14278.9
744.8955,181.3
745.0018,406.5
745.0968,143.6
745.142,599.2
745.2267,355.7
745.4044,603.5
745.4527,326.4
745.479,21073.9
745.5398,21.8
745.5959,2281.9
745.64,263.8
746.1943,19
746.4819,7133.1
746.5715,3991.9
746.6068,3318.9
747.4949,8785
747.5749,570.4
747.6115,867
748.0127,644
748.4993,1561.2
748.608,368.9
748.6451,322.5
748.7623,175.5
748.788,131.4
749.0121,1384.7
749.0323,1278.6
749.2841,86.8
749.5114,3686.8
749.5805,745.6
749.8493,230.5
750.0239,90.2
750.4354,481.7
750.5177,1091.9
751.0864,783.6
751.5725,1971.5
751.671,322.1
751.757,115.1
751.9103,97.4
751.9657,215.1
752.2202,145.3
752.3244,389.6
752.5214,14264.5
752.5898,233.4
752.6824,98.7
753.4119,585.6
753.4884,84.9
753.5244,4487.2
753.59,1036.1
753.6671,227.8
754.0425,302.8
754.5373,66039
754.593,1382.6
754.9067,182
755.0387,3869.8
755.117,396
755.3045,292.9
755.5405,28569.9
756.0317,617.3
756.1904,205.5
756.3887,513.3
756.4332,114.4
756.5552,58264.9
756.8665,145.5
757.1743,910.9
757.5585,23602
757.6219,1078.7
758.1093,895.5
758.2835,167.7
758.3853,117.4
758.571,1562280
758.6222,350.4
758.9416,21.2
759.085,20.8
759.1127,235.8
759.3678,243.7
759.5743,681126.1
759.6339,751.6
759.8944,379.3
760.0026,412.7
760.2589,225.6
760.5876,479199.7
761.0056,617.3
761.0458,2759.4
761.0852,664.5
761.15,112.4
761.2218,674.9
761.4069,840
761.4522,1074.7
761.5904,234232
761.8237,96.2
762.261,123.2
762.406,140.7
762.5271,151.9
762.5934,51350.8
762.6737,510.9
762.848,324.4
763.0521,541.7
763.1172,244.4
763.3809,246.1
763.4656,759.7
763.5962,6832.8
763.7705,614.8
763.986,103
764.0931,123.7
764.5263,138.9
764.5587,10921
764.6226,353.5
764.6474,18.7
764.7828,489.5
764.8601,661.7
765.0962,157.2
765.482,190.7
765.5623,2012.6
765.6227,145.9
765.662,113
765.71,524.3
765.9578,109.6
766.0299,387.9
766.218,23.5
766.3183,97.7
766.4858,997.3
766.5366,2953
766.5756,40610.1
767.0052,95.5
767.0695,233.9
767.5247,156.7
767.5793,13255.8
768.0706,127.5
768.5175,696.8
768.5524,4362.9
768.592,44532.4
768.8894,125.3
769.0688,511.1
769.1801,28
769.4794,2683.5
769.558,720.9
769.5951,14773.7
769.6217,499.5
769.8635,18.5
770.2708,952.3
770.3794,246.5
770.5118,10325.5
770.5685,305.6
770.6081,5464.2
770.8045,516.9
770.9559,148.7
770.9921,4098.1
771.0077,671.1
771.2971,101.2
771.4949,841.9
771.5141,1738.3
771.5744,469.3
771.6111,1901.5
771.7803,94.5
772.1357,166
772.5321,147.3
772.5868,12097
772.6193,685
772.6452,847.6
773.0112,171.5
773.1262,169.7
773.2991,427.3
773.3551,977.8
773.5243,561.6
773.5906,4287.7
773.6568,20.7
774.3923,86.6
774.6018,886
775.5039,392.6
775.7385,150.8
775.9369,531.9
776.1911,842.1
776.5245,1343.6
776.7263,187.3
777.0103,4359.3
777.1019,153
777.2029,543.6
777.5438,915.1
778.1504,690.8
778.2393,664.8
778.4351,971.6
778.5083,122.6
778.5373,39049.3
778.9076,887.9
779.0205,165.5
779.0951,103
779.1511,224.7
779.2869,102.3
779.4964,96.3
779.5406,16537.2
779.96,24.3
779.9983,86
780.2529,245.5
780.5529,968093.8
780.6275,20.6
781.1867,664.4
781.5564,427937.9
781.9518,294.8
782.1671,442.1
782.4603,317.2
782.4795,19
782.5226,584.8
782.5705,660879.4
783.0277,2851
783.5737,317154.9
783.6326,934.9
783.9171,247.9
784.1366,130.7
784.1787,217.4
784.5872,372797.6
785.2903,484.7
785.5903,189160.5
785.6535,3658.5
785.7958,687.4
785.8537,565.7
786.0724,710.7
786.2759,697.7
786.4413,788.2
786.4869,21.1
786.5222,177
786.6029,328059.5
786.6563,565.8
786.9657,588.2
787.3005,630.7
787.4853,164.7
787.6058,160904.2
787.6713,1699.8
787.7876,487.6
788.3265,184.3
788.5579,14220.6
788.6056,24267.4
788.6219,16735.3
788.6754,213.7
788.7609,159
788.9252,242.9
789.1153,414.3
789.5616,4972.1
789.6228,8673.3
790.3129,730.7
790.3181,731.8
790.5489,2348.5
790.5747,15496
790.6259,473.6
791.0531,734.9
791.1346,113.6
791.4588,1321.1
791.5764,3936.3
791.8035,361
791.8536,365.7
791.9387,658.7
792.2983,815.6
792.5911,13956.6
792.8124,897.3
792.8687,169.8
792.9827,588.3
793.033,107.3
793.122,359.5
793.2072,173
793.3752,532.7
793.5942,3006.6
793.7382,415.4
794.5103,2248.9
794.5679,3552.1
794.6077,35354.5
795.0101,481.7
795.2738,719.1
795.3318,142.5
795.3709,174.6
795.4081,586.1
795.6105,15549
795.9196,479
795.9858,216.9
796.0148,133
796.0524,233.8
796.3925,533.2
796.5268,180867.3
796.587,1274.3
796.6244,4898.3
796.8973,685.5
797.3447,1039.3
797.3674,99.9
797.5302,80145.3
797.6265,1667.4
797.9226,195.3
798.2772,326.1
798.3405,816.8
798.5436,48479.5
798.5996,512.5
798.7972,18.4
799.3293,19.1
799.4559,166.1
799.546,19340.9
799.6219,861.3
800.2179,18.4
800.3498,644.3
800.4351,147
800.5165,822.3
800.5505,233.2
801.4659,211.1
801.5465,658.5
802.0029,21
802.2637,978.1
802.5371,20837.9
802.678,820.3
802.8333,325.7
803.0531,1251.4
803.0679,906.5
803.1989,952.4
803.4454,240.3
803.5414,7894.9
803.8725,710.6
803.9098,300.1
804.0556,293.8
804.1415,527.3
804.2845,193.6
804.3395,652.6
804.4021,656
804.553,283170.5
804.7715,215.6
804.8282,577.9
804.9085,108.7
804.9368,605.6
805.1638,120.2
805.2093,153.2
805.35,320.3
805.5562,133113.4
805.702,190.4
806.0749,532.6
806.0954,650.6
806.2079,150.7
806.314,275.9
806.57,337353.6
807.0966,546
807.1414,209.1
807.3952,208.6
807.5732,164302
807.6546,470
807.788,102.3
808.1376,582.3
808.2369,136.5
808.2589,268.3
808.4658,154.5
808.5859,205651
808.6906,360
809.1088,128.6
809.5129,954.2
809.5887,101642.8
810.1385,363.5
810.3633,334.5
810.3951,23.6
810.603,99891.3
810.9767,229.2
811.0209,190.7
811.0457,561
811.3395,875.5
811.5485,281.2
811.6059,51358.6
811.6706,6542.8
812.1797,687
812.4054,244.6
812.475,759
812.6196,27066.1
812.6751,1613
813.6219,12169.9
813.6865,7581.6
813.9992,485.1
814.5741,2139.1
814.6235,995.3
814.6891,2452.4
814.9382,108.5
815.5531,172.6
815.5739,571.7
815.7954,159.4
815.9081,20.4
816.5897,14963.1
816.8718,833.5
817.4036,210.7
817.4359,202.4
817.5067,218.3
817.5935,3024.6
817.8002,443.6
818.206,1222.7
818.2588,178.1
818.5096,1250.2
818.5685,819.8
818.6069,1276.5
819.2987,136.2
819.5188,687.1
819.6114,254.7
820.3672,655.4
820.5267,55983.9
820.622,523.2
821.5301,21839.6
821.6556,92.8
821.7498,228.7
821.8948,900.2
822.1715,241.2
822.5433,36578.3
822.8803,847.9
823.0133,231.3
823.3501,105.7
823.5465,16061.3
823.9372,715.5
824.2012,749.5
824.3484,91.1
824.5591,27087.7
824.6557,693.7
824.97,20.5
825.23,166.8
825.3193,219.4
825.5614,11457.3
826.4833,21.3
827.2834,95.2
827.8045,339.3
828.0754,108.7
828.3866,20.2
828.4334,150.7
828.5529,88376.2
828.8565,604.3
829.4879,106
829.5564,40704.1
829.6632,516.8
829.7139,364.3
829.8244,552.4
829.9097,446.1
829.9504,823.2
830.0688,920.2
830.5702,33400.7
831.06,945.6
831.5726,16214.9
831.7233,245.6
832.3074,154
832.5019,528
832.5853,45601
832.8474,843
833.2469,19.2
833.5883,20412.5
833.6687,460.5
834.0858,122.8
834.6023,29062.9
834.72,177.9
834.975,19.4
835.3262,171.8
835.4759,133
835.6051,14178
835.6691,1395.7
835.7591,402.7
835.8358,107.5
836.0317,444.6
836.1595,105.5
836.2788,17.9
836.4248,374.3
836.4938,585.1
836.6194,2465.1
836.749,254.8
837.1105,216.6
837.2069,460.1
837.4066,670.9
837.4823,162.1
837.711,24.7
837.7701,105.2
837.8831,597.8
838.341,154.5
838.3974,19.6
838.513,2994.5
838.6445,216.6
838.683,107
839.0771,171.3
839.1215,130.2
839.2,384.3
839.4471,184.3
839.513,763.2
839.8153,171.8
840.0891,794.1
840.1792,501.3
840.2225,374.1
840.6664,716.1
840.6985,585.4
840.7435,653.4
840.8077,174.4
841.9232,18.9
842.2474,526.9
842.5322,183.3
842.6759,347.3
843.2702,19.7
843.4455,318
843.5692,20.3
843.7161,987.8
844.1368,236.3
844.2028,348.1
844.2263,472.6
844.3163,166
844.5267,13754.3
844.6393,1039.7
844.9831,205.4
845.0514,19.3
845.5307,6093.6
845.8116,224.2
845.8776,565.1
846.3748,132.4
846.5426,2565
846.7336,21.9
846.7735,1181.9
847.0575,681.3
847.291,358.4
847.5985,575.9
847.8141,555.6
848.1814,310
848.3016,394.8
848.4066,21.4
848.5558,3255.9
848.7201,121.4
848.7624,662.2
849.3679,426.5
849.4028,609.4
849.5419,522.6
849.6527,108.8
850.568,363.1
850.9362,401.6
851.0808,177
851.155,147.5
851.2937,504.2
851.5073,115.1
851.7064,672.5
851.7473,104.7
851.8058,362.1
851.9176,271.4
851.9974,200
852.0918,800.1
852.1093,216.1
852.3714,761.4
852.4762,93.3
852.5252,1008.7
852.5519,616.8
852.7948,198.2
853.165,672.9
853.1841,914.7
853.7616,650.5
853.9153,515.6
853.9955,967.7
854.1214,187.8
854.1597,172.4
854.2283,223.5
854.4769,333.8
854.5623,705.3
854.6888,552.6
854.7342,439.2
855.2982,826.3
855.377,332.8
855.5347,107.5
855.7741,334.9
855.7833,376.3
855.7962,316.6
855.8631,337.5
856.229,111.6
856.4342,523.9
856.5839,3321.7
856.7866,585.1
857.0661,18.9
857.1289,178.5
857.2187,158.8
857.581,140.8
857.6208,819.5
857.8292,904.1
858.0612,132.8
858.1311,199.6
858.4193,186.3
858.4957,197.6
858.6411,235.2
858.6885,94.7
859.1279,350.7
859.1775,150.2
859.4213,762
859.5888,611.8
860.97,131.9
861.2751,1255
861.5537,1017.4
861.7755,276.8
862.2213,656.4
862.4303,783.7
862.454,751.7
862.8085,102.5
863.0426,220.8
863.4406,373.1
863.5369,373.2
863.5966,89.7
863.8014,628.2
863.8814,154.8
864.5245,98.6
864.9906,226.5
865.3252,1382.5
865.5297,218.6
866.0632,858.7
866.3217,108.8
866.9012,18.5
868.0342,262.2
868.2068,626.5
868.3072,19.8
869.4089,18.5
869.6148,374.6
869.7901,416.4
869.8792,706.9
869.9181,124.6
869.9579,2209.2
869.9789,1705.2
870.0131,184.6
870.0954,2317.1
870.1409,2037.8
870.2048,4457.2
870.2357,3942.5
870.2751,2170
870.3313,740.5
870.4042,1671.1
870.701,897.6
870.7466,1074.5
871.4571,1365.8
871.6905,144
871.7402,447.8
872.0872,256.5
872.5572,330.9
872.8178,1067.8
873.1051,662.7
873.3499,113.3
873.5919,21.8
873.6786,253.7
873.8665,261.1
874.5569,617.6
874.5965,437.5
874.6337,917.6
874.6788,891.8
874.7545,794.1
875.5945,1170.6
875.6656,145.3
875.8326,183.7
875.8712,243.2
876.4051,658
876.4375,595.2
876.4918,173.3
876.5361,143.3
876.6539,522.7
877.057,262
877.1656,23.1
877.6107,192.2
877.8953,815.3
878.7322,577
878.787,525
880.5383,911.8
880.5745,86
880.6499,1105.7
880.8486,1479.6
880.949,413.6
881.1079,173.5
882.2182,584.1
882.4302,672.9
883.3493,336.9
883.3849,177.2
883.5539,582.1
883.9028,612.3
884.3414,629.3
884.537,21.5
884.6203,17.2
884.7644,1238.2
885.3893,307.6
885.6818,728.1
885.7079,627.4
885.9951,303.6
886.0419,359.7
886.1804,552.4
886.8084,899.1
887.1168,606.7
887.7624,472.9
887.8077,364.7
888.036,120.5
888.6678,243
888.8032,115.4
888.9522,459.9
889.11,153.3
889.1838,364
889.3129,324.8
889.685,129.3
890.115,19.6
890.2093,509
890.5159,774.8
890.8868,18.9
891.099,775.2
891.5001,178.3
891.564,156.5
891.635,17.9
891.6672,217.5
891.7165,17.2
892.1136,21.1
892.4438,2952.5
893.0909,18.6
893.8082,314.5
893.9963,1173.4
894.0903,18.1
894.7161,573.1
894.8817,18.2
895.5047,148.1
895.6103,19.5
896.0465,115.4
896.4744,186.2
896.881,17.7
897.0232,1209.3
897.1405,790.1
897.5162,397.3
897.8823,894.2
897.9491,96.7
898.1674,165
898.5491,17.4
898.7602,658.1
899.0875,424.6
899.4607,364.5
899.7138,159.2
899.7896,565.3
899.8708,648.9
899.9135,128.2
900.2363,20.5
900.4345,198.6
900.8456,18.9
901.0295,850.3
901.6972,499.7
902.304,107
902.3805,159.3
904.0567,1858.4
904.4267,688
904.7934,442.3
904.9302,210.2
905.1226,96.2
905.3622,811.1
905.6031,378.8
905.993,180.1
906.0202,112.5
907.1035,111
907.2685,183.1
907.6983,409.6
907.9752,260.2
908.1727,344
908.59,18.3
908.7765,19
908.8316,20.1
909.6765,103
909.717,926.9
909.7699,345.4
909.8394,149.5
910.0135,1243.4
910.1852,90.1
910.2737,563.2
911.883,347.4
912.4835,324.3
912.678,424.2
912.7423,20.7
913.019,322.6
913.0858,150.4
913.127,315.9
914.1229,99
914.852,379
915.3444,637.7
915.8162,549.4
915.8582,116.8
916.0355,127.4
916.1445,162.5
916.2662,520.3
918.8446,603.8
919.3363,229.9
919.3846,869.3
919.742,538.6
920.6066,102
921.1156,156.2
921.4908,1459.6
921.5412,293.7
921.7882,629.2
922.1581,702.7
922.4201,18.9
922.9209,130.8
923.1945,124.8
923.418,548.6
923.8476,339
924.3539,473.7
924.3908,220.1
925.0187,330.9
925.1022,774
925.684,629.8
925.8829,457.4
926.0485,18.9
926.6358,128.8
926.6925,28.3
927.2851,167.1
927.5712,321.5
927.7218,142.3
927.7991,21.7
928.2273,19.1
928.8576,237.1
929.326,413.1
929.4021,22.5
929.4435,131.5
929.7848,22
930.0528,19.1
930.3919,97.2
930.417,20
930.6016,2109.2
930.656,122.7
931.2273,1131.2
931.423,583.9
932.1781,1515.3
932.2124,952.6
932.6818,447.1
932.7973,206.7
932.8325,545.6
933.5278,651.5
933.7275,89.7
934.3145,586.9
934.4199,184
934.4901,292.9
934.5153,433.1
934.8325,329.6
935.0269,604.2
935.1799,105.1
935.9309,204.3
936.0705,1225.1
936.6314,20.2
936.8636,537.9
936.8928,1162.3
936.9603,1644.8
937.7872,757.8
937.8917,1327.9
937.9419,209.4
938.0265,2332.8
938.2516,323.2
938.5014,463.7
938.5895,301.7
938.9783,570.6
939.8808,88.3
941.467,534.3
941.5412,650.3
941.6456,568.7
941.7505,127.4
941.7944,676
941.9294,263.3
942.6382,175.6
942.7338,544.7
943.2289,770.9
943.458,395.6
943.7912,924.7
943.9852,946.8
944.136,228
944.2334,207.2
944.6779,363.8
944.8209,166.4
944.8794,578
945.0179,103.3
946.4117,20.1
946.7078,107.4
946.8622,117.5
946.9191,112.2
946.9529,572.6
947.1386,123.3
947.184,344.1
947.413,448.8
947.514,233.9
947.5372,661.1
947.6499,330.4
947.7781,566.3
947.8689,109
947.9397,1531.1
948.0388,149.3
948.2278,738.5
948.2518,351.1
948.5071,855.9
948.6534,884
948.8343,95.7
949.1892,102.7
949.3058,293.2
949.9998,494.6
950.1621,539.5
950.1831,128.3
950.2436,149.7
950.3255,312.4
951.0607,765.3
951.295,171.4
951.4946,18.7
951.6857,113.4
951.7369,21.6
952.0806,814.3
952.1678,141.4
952.3871,872.9
952.6569,94.1
952.8475,1147
953.0225,456.4
953.5951,212.9
953.9508,117
954.0216,104.9
954.349,19.1
954.3836,531.2
954.8294,160.6
955.1361,176.1
955.1749,277.7
956.3553,1805.8
956.8884,19.2
956.9368,690.8
956.9927,732.9
957.2379,707.2
957.3642,17.9
957.4144,17.9
957.4427,297.4
957.5093,1321.6
957.9803,910.5
958.217,318.8
958.3249,668.3
958.3583,383.8
958.6301,1001.8
958.7593,21.4
959.4761,951.2
959.6327,108.4
959.9239,179
960.4143,342.2
960.4788,139.9
960.8648,389.6
961.6115,414
962.034,151.6
962.2146,784.6
962.3452,140.6
962.5131,189
962.8964,425.3
963.0622,616.7
963.1008,112.1
963.1556,319.8
963.1999,402
963.247,345.5
963.7914,248
964.1409,151
964.6712,506.7
964.7837,726.4
964.9822,355.5
965.1427,1838.3
965.1902,693.7
965.2702,855.5
965.4233,97.8
965.5516,840.2
965.8268,166
966.0701,305.6
966.5415,133.7
967.0878,146.2
967.2979,518
967.348,124.9
967.5134,170.2
967.5956,866.2
967.6788,182.1
967.8071,653.4
967.8414,222.1
968.447,147.7
968.6773,764.2
968.7911,132.1
968.8571,946.5
968.9521,173.1
969.0545,592.2
969.119,180
969.1617,403.4
970.129,185.4
970.1615,368.8
970.4258,417.4
970.5676,463.8
970.639,465.5
970.6907,105.8
970.7624,348.8
971.2236,437.8
971.7287,399.7
972.4393,1660.4
972.5205,205
972.5659,589.1
972.8246,173.4
972.9943,168.4
973.0943,757.8
973.93,17.8
974.8711,125.3
975.1057,314.9
975.1487,18
975.752,126.2
975.8905,215.5
976.1186,1055
976.4626,969.8
976.6387,1132.6
977.3822,211.6
977.5948,1084.1
977.7523,324.2
977.8142,189.3
977.9333,21.1
978.0886,22.5
978.9267,108.3
979.4749,238
979.9744,164.2
980.1035,657.7
980.1609,109.7
980.1945,177.2
980.3454,958.7
980.3901,513.4
980.6411,584.8
980.9885,309.3
981.1744,582.1
981.2148,359.8
981.6403,943.8
982.4929,681.5
982.6781,177.8
983.0163,18.6
983.2376,172.5
983.482,157.1
983.5092,195.9
983.5859,1017.5
983.8711,293.8
984.2411,571.4
984.9527,140.5
985.0453,469.4
985.4112,1111.2
985.5502,537.4
985.5796,486.8
985.8208,625.7
986.2604,1423.5
986.3877,111.7
986.618,1106.1
986.667,1203.3
986.686,912.2
986.8084,23.1
987.19,124.2
987.2358,138.2
987.9164,627.9
988.0006,179.1
988.0698,1249.5
989.0868,704.7
989.4825,162
989.9881,537.8
990.042,1784.5
990.1847,21.3
990.4154,1206
990.7881,173.2
991.1775,324.7
991.2742,817.5
991.4314,171.7
991.5978,19.5
991.7026,913.4
991.7632,134.3
991.8604,1247.5
992.2341,97
992.3661,307.6
992.9116,20.5
994.0489,942.5
994.2033,360.5
994.3554,21.7
994.7354,158.2
994.8182,229.1
995.1681,381.1
995.2866,17.9
995.487,21.4
995.651,319.4
995.8347,549.7
996.2154,701.8
996.6657,523.8
996.7227,530.6
997.4636,868
997.5949,430.4
997.9968,285.6
998.339,1520.6
998.501,94.8
998.629,19
998.6927,1278.9
999.3548,137.4
999.373,115.6
999.466,294.9
999.5169,864
999.5464,173.2
999.8466,297.6
999.9571,549.2
