SPECTRUM - MS,
1005.RAW,
FTMS + p ESI Full ms [50.00-1000.00],
Scan #: 1-40,
RT: 0.01-1.97,
AV: 40,
m/z,Intensity

50.0037,17.4
50.0041,194.1
50.0119,185.1
50.0166,280.5
50.0178,126.8
50.0205,312.8
50.0219,23.4
50.0239,441
50.0495,17.8
50.0915,18.2
50.1201,98.7
50.1324,201.2
50.1424,538
50.1461,126.2
50.1596,95.8
50.1732,238.9
50.1782,626.5
50.2346,122.7
50.2392,653.7
50.2634,296.4
50.303,105.5
50.3058,451.7
50.3336,110.8
50.3385,302.6
50.3404,746
50.3513,479
50.3579,502.4
50.3773,380.8
50.3939,147.7
50.4005,126.1
50.4198,358.8
50.437,23.3
50.4381,80.9
50.4442,685.4
50.4505,311.5
50.4675,467.9
50.4703,220.3
50.4711,79.8
50.4885,100.9
50.4937,85.2
50.5021,20.3
50.512,20.8
50.524,298.8
50.525,454.7
50.5344,125.7
50.5392,91.3
50.5446,95.2
50.566,307.6
50.5696,172.2
50.5791,95.9
50.5975,103.8
50.6065,123.2
50.6116,273.1
50.6139,378.2
50.6224,86.2
50.6498,349.4
50.6515,190
50.6862,521.5
50.7004,132.3
50.7557,18.5
50.7617,229.4
50.7674,116
50.7712,299
50.8093,151.5
50.8206,523.6
50.8506,137.6
50.8637,314.2
50.8731,558.7
50.8829,166.5
50.8846,694.4
50.893,275.8
50.9313,129.3
50.935,236.4
50.941,90.6
50.9786,702.1
50.9952,105.3
50.9963,18.8
51.0025,87.4
51.0214,284.3
51.0474,298.6
51.0536,83.3
51.0554,135.9
51.1009,512.2
51.1106,17
51.1112,128.6
51.1126,356.9
51.1161,343.4
51.1216,793.5
51.1473,564
51.1477,459.9
51.1757,285.5
51.1842,131.2
51.1862,346.3
51.2095,512.5
51.2214,276.3
51.2227,551.3
51.2264,245.5
51.2681,442.3
51.2943,346.9
51.3016,236.5
51.3265,314
51.3329,195.2
51.3375,303.3
51.3384,245.2
51.3463,17.2
51.3488,620
51.3612,159.6
51.3812,129.6
51.392,104.3
51.4125,165.3
51.4379,127.4
51.4546,19.8
51.4558,562.2
51.4649,512.1
51.4698,236
51.4725,197.2
51.4733,18.1
51.4761,250.6
51.4785,217.7
51.4791,702.1
51.4991,284.8
51.5186,243.8
51.5231,216.8
51.5401,249.5
51.5413,17.6
51.5452,257.6
51.5602,444.9
51.5742,16
51.614,438.4
51.6213,130.9
51.6231,509.4
51.6364,112.9
51.6567,255.9
51.6605,83.2
51.6655,746.8
51.691,16.7
51.6958,102.7
51.7045,95.8
51.7445,105.7
51.7455,190.7
51.7462,16.4
51.7584,151.9
51.7712,113.6
51.7754,395.9
51.7797,285.3
51.7866,526.1
51.787,94.7
51.7892,323.8
51.7895,17.2
51.7956,17.9
51.7985,15.7
51.808,96.8
51.809,14.8
51.8358,483.2
51.8381,359.3
51.8566,717
51.8583,103.4
51.8807,78.3
51.8892,163.7
51.8947,494.2
51.8964,288.9
51.9125,136.8
51.93,397.2
51.9465,127.3
51.9776,336.2
51.9817,206.4
51.9851,237.8
52.0153,208.4
52.0184,16.2
52.0221,16.1
52.0509,14.5
52.0656,350.2
52.0841,20.7
52.0927,82.2
52.0956,183.6
52.0976,17
52.1075,287.4
52.1143,428.2
52.1173,16.4
52.1178,126.7
52.1208,17.1
52.1473,286
52.1534,504.4
52.155,484.7
52.1636,766
52.1805,145.5
52.1831,123.2
52.188,89.4
52.224,356.7
52.2361,467.5
52.2367,315.9
52.2661,84.1
52.2821,281.1
52.2916,18.3
52.292,102
52.2932,109.5
52.3146,859.2
52.3187,325.3
52.3567,335.1
52.3586,447.2
52.3622,854.7
52.3785,15.5
52.3811,810.6
52.3903,460.5
52.3935,359.5
52.4009,613.6
52.4128,15.6
52.4324,105.2
52.4392,257
52.4441,93.8
52.4522,86.6
52.4532,280.6
52.4541,171.6
52.46,551.8
52.4632,489
52.4647,670
52.4685,115.3
52.4766,359
52.5172,408.1
52.5199,20.4
52.5295,441.5
52.5374,16.4
52.539,220.2
52.5795,127.2
52.5868,254.2
52.5968,244.1
52.5977,86.4
52.6064,481
52.6276,343.3
52.655,277.5
52.6566,170.5
52.6614,196.2
52.663,214.3
52.6652,169.7
52.6985,285
52.7011,14.3
52.7102,445.5
52.7182,81.6
52.733,468.7
52.7357,16.3
52.7378,15.7
52.7637,112.9
52.7693,294.4
52.7713,237.1
52.7807,1768.8
52.7811,1493.8
52.7812,1353.3
52.7817,1723.6
52.7822,1515.3
52.7826,893.7
52.7839,813.3
52.785,857.2
52.7852,462.6
52.7856,515.9
52.7867,266.8
52.7879,317.6
52.808,316.8
52.8287,433.9
52.8399,277.8
52.8668,210.5
52.8807,167.5
52.8918,19
52.8976,91.4
52.9483,18.7
52.9807,15.7
53.0007,16.6
53.0039,197.7
53.0111,107.1
53.0187,188.5
53.0257,91.8
53.0276,84.5
53.0307,15.9
53.0335,87.7
53.0381,158.7
53.0443,102.5
53.0512,149.8
53.0594,134.6
53.0658,175.4
53.0667,270.7
53.1175,118.7
53.1375,17.1
53.1386,117.4
53.1484,108.6
53.151,103.8
53.1533,130.8
53.1632,93
53.1751,585.1
53.1817,80.2
53.1837,84.7
53.1945,113.7
53.1987,86.5
53.1993,183.8
53.2172,420.4
53.2254,278.5
53.2372,143.3
53.2414,16.8
53.2732,254.8
53.2781,81.7
53.2965,607
53.3084,19.6
53.3132,111.9
53.3245,801.9
53.3579,708
53.3585,200.9
53.3641,415
53.3685,118.2
53.3994,98.1
53.4014,18.4
53.4028,408.8
53.4233,178.2
53.4251,306.3
53.4289,140.5
53.4337,19.7
53.4389,235.3
53.4447,198.7
53.4486,618.2
53.4573,282.8
53.4611,108.7
53.467,117
53.473,535.3
53.4909,163
53.495,361.5
53.5146,214.3
53.5242,108.3
53.5265,468.8
53.5363,149.2
53.5451,102.1
53.5648,453.1
53.5712,122.3
53.5782,227.6
53.5832,17.2
53.5893,287.1
53.6187,18.6
53.637,129.6
53.658,16.2
53.6707,270.3
53.6733,229.4
53.6942,18.4
53.7008,581.1
53.7237,89.5
53.724,157.5
53.7253,105.3
53.7316,781.9
53.7432,19.8
53.7444,112.7
53.7527,176.7
53.7545,258
53.773,311.5
53.7783,459.6
53.8157,119.2
53.8232,85.3
53.8238,305.9
53.8259,320.2
53.832,180.8
53.8393,330.6
53.861,770.9
53.8614,255.6
53.8838,237.2
53.8877,186.5
53.9019,813.6
53.9106,113.3
53.9149,84.6
53.9261,159.8
53.9418,418.1
53.9452,293.2
53.948,301.5
53.9544,434.7
53.969,96.2
53.9695,737.4
53.9807,116.3
53.9848,128.6
53.9958,458.8
54.0223,398.8
54.0344,113.5
54.0773,17.9
54.0885,307.6
54.1033,18
54.1183,119.2
54.1448,16.6
54.1498,245.5
54.1516,163.7
54.1559,126.8
54.1615,641.9
54.1664,94.5
54.1725,187.9
54.174,888.8
54.1784,428.6
54.2039,295.4
54.2054,105.3
54.2164,555.1
54.217,16
54.232,479.3
54.2489,313
54.2538,403.3
54.2826,183.8
54.3076,86
54.3099,20.6
54.3139,181
54.3145,123.4
54.3237,134.8
54.3273,311.5
54.3337,163.1
54.3426,460.7
54.3615,138.3
54.3762,438.8
54.379,221.7
54.386,166.8
54.3873,17.6
54.3915,130
54.3972,415
54.3991,311.9
54.4142,151.9
54.4264,239.7
54.4431,343.2
54.4444,17.4
54.4478,90.6
54.4569,17
54.462,283.4
54.4788,86.8
54.4847,112.8
54.4883,393.3
54.4924,15.8
54.4948,91.7
54.4965,271.6
54.4986,168.3
54.5051,738.7
54.5121,211.2
54.5158,178.9
54.5237,17.4
54.5268,110.2
54.5417,17.5
54.5426,463.3
54.5437,103.5
54.5442,673.3
54.5576,492.3
54.5745,123.1
54.6071,82.8
54.611,130.4
54.6175,17.2
54.6433,99.8
54.6504,17.4
54.6723,120.5
54.6748,291.1
54.6896,16.5
54.7018,532.1
54.7144,355.9
54.7229,213.8
54.7275,203.7
54.7336,431.3
54.7439,76.5
54.7519,16
54.7832,20.2
54.7896,119.6
54.8288,16.6
54.8357,296.6
54.8366,299.3
54.8385,114.6
54.8406,189.8
54.8564,106.1
54.8581,259.6
54.8587,310.8
54.8906,79.2
54.8927,178
54.8943,133.1
54.9259,738.2
54.9346,442.4
54.9761,77
55.0129,76.5
55.0353,17.3
55.0743,416.8
55.0989,18.1
55.1223,21.1
55.1297,212
55.1345,237
55.1617,16.2
55.18,177.4
55.1821,137.2
55.194,267.9
55.1947,162.3
55.202,571.7
55.2107,117.4
55.2179,132.3
55.2341,548.6
55.2349,482.6
55.254,299.7
55.2778,107.4
55.2794,791
55.2905,118
55.3001,633.2
55.3015,189.2
55.3143,329.2
55.3174,19.3
55.324,98.4
55.3332,98
55.3346,125.3
55.3402,266.2
55.341,90.7
55.3457,138.4
55.3475,17
55.3516,21
55.3556,670
55.3687,117.2
55.3852,21
55.3874,280.2
55.3949,242
55.3996,444.2
55.4334,141.6
55.4354,126.2
55.4368,531
55.4604,151.6
55.4674,146.2
55.4736,114.5
55.5221,497.2
55.5244,16.5
55.5466,16.2
55.5626,20.7
55.5631,265.8
55.5676,216.2
55.5729,105.3
55.5764,731.5
55.6001,274.8
55.6067,17.4
55.6088,16.8
55.6505,236.9
55.6779,118.3
55.6811,107.7
55.7109,296.5
55.7144,148
55.7388,135.4
55.7802,93.9
55.7815,122.6
55.7883,346.2
55.8002,558.4
55.8129,333.2
55.8209,79.6
55.8354,269.1
55.8428,85.3
55.8468,189.8
55.8543,123
55.858,157.2
55.8654,97.1
55.8922,18.5
55.9088,234.4
55.9095,223.8
55.9147,746.6
55.9427,16.3
55.9481,326.5
55.9681,17.9
55.9732,259.4
55.9893,133.4
55.9916,141.9
56.0275,16.5
56.0712,122
56.0919,138.9
56.0939,722.5
56.0976,144.4
56.102,335.3
56.1114,296.2
56.1245,552.8
56.1251,145.4
56.1312,109.8
56.1317,161.7
56.1561,437.8
56.1589,86.2
56.1648,233.3
56.1665,279.8
56.1742,128.2
56.1837,256.8
56.191,321.8
56.2082,113.6
56.2087,332.2
56.2119,83.6
56.2488,281.7
56.2903,98.8
56.2911,419.5
56.2968,148.6
56.3091,249.7
56.312,318.3
56.3182,507.2
56.3221,319.8
56.3423,482.5
56.3714,430.8
56.3765,320.1
56.3769,184.2
56.3883,146.1
56.4001,17.4
56.4063,263.4
56.4181,268.4
56.4212,303.7
56.4354,158.1
56.4526,461.9
56.4853,752.2
56.5151,84.3
56.5385,377.4
56.5473,524.1
56.5538,144.4
56.5604,283.9
56.5629,82.6
56.5821,251.1
56.5836,106.7
56.5912,15.9
56.5916,127
56.5957,247
56.5969,442.7
56.6053,92.5
56.6111,436.2
56.6141,15.9
56.6162,475.9
56.6319,257
56.6337,186.1
56.6394,376.5
56.6552,89.5
56.6558,17.9
56.6702,90.2
56.6861,120.8
56.6912,15.2
56.7019,540
56.7081,130.4
56.7196,105.9
56.7433,288.6
56.7549,330.2
56.7678,18.5
56.7701,311.9
56.7798,211.8
56.7864,324.6
56.792,90.5
56.8318,348.5
56.8333,17.1
56.8348,87.5
56.8583,459.4
56.8592,302.4
56.8607,288.4
56.8696,138.1
56.8831,313.2
56.8855,152.4
56.9095,283.2
56.9426,16.6
56.9502,412.2
56.9528,82.6
56.9537,236.2
56.9624,200.5
56.9772,170.1
56.9965,121.4
57.0164,208.3
57.0368,19.8
57.0414,264.7
57.0503,293
57.0553,82.9
57.056,15.9
57.0807,116.9
57.0856,553.7
57.0924,79.5
57.099,447.8
57.1047,101.7
57.1139,163
57.1161,107.6
57.1339,111.5
57.1394,162.4
57.152,19.9
57.1675,156.3
57.1682,579.7
57.1824,452.6
57.1874,75.1
57.1945,103.4
57.1958,314.4
57.2058,269
57.2224,275.7
57.2291,305.3
57.2308,98.2
57.2345,320
57.2403,116.6
57.3178,402.9
57.3458,294.9
57.3498,137.4
57.3527,341.9
57.3543,17.9
57.381,143.5
57.3853,78.5
57.4074,131.5
57.4163,338.6
57.4188,282.3
57.4303,299.8
57.4354,289.7
57.4546,17.7
57.4734,426
57.4792,15.8
57.4835,495.7
57.4922,87.9
57.4969,108.4
57.4991,90.3
57.5016,82.6
57.5023,438.9
57.5105,637.9
57.5115,19.2
57.5158,480.8
57.5223,95.6
57.524,210.9
57.5585,245.1
57.577,162.3
57.5894,76.1
57.598,134.3
57.616,408.5
57.6328,356
57.6497,126.7
57.6618,18.4
57.6786,192.1
57.681,114.3
57.6865,474.8
57.7402,117.1
57.7608,95
57.7637,217.5
57.7717,257.9
57.7753,125.8
57.7995,322.9
57.8065,91.7
57.8138,329.4
57.8387,449.5
57.8472,18.6
57.8837,199.6
57.8925,90.8
57.8949,266.2
57.8979,445.8
57.9154,326.7
57.9251,318.9
57.938,165.7
57.9425,93.4
57.9475,703.4
57.9643,125.7
57.9719,283.6
57.9801,270.4
58.0208,335.2
58.024,19.5
58.0262,127.9
58.055,129.9
58.0996,18.7
58.1036,184.2
58.1046,735.8
58.1065,513.5
58.118,354.6
58.1223,16.8
58.1227,438.1
58.1235,128
58.1303,217.3
58.1374,17.1
58.1519,211
58.1539,104.4
58.1592,151.6
58.1742,118.2
58.1838,704.4
58.2183,353.5
58.2748,298.8
58.3028,713.4
58.3047,352.4
58.3095,351.4
58.3124,804.5
58.321,220.1
58.336,123.3
58.3394,249
58.3518,286.8
58.3685,426.8
58.3781,610.9
58.3817,132.4
58.4046,286.8
58.4119,657.9
58.414,16.6
58.4155,93.3
58.4252,811.5
58.4259,100.3
58.4303,119.8
58.4321,324.7
58.4876,230.5
58.4994,391
58.5073,840
58.5184,87.6
58.5231,279.8
58.5261,277.3
58.53,424.9
58.5339,308.5
58.537,289.2
58.5508,506
58.5558,18.2
58.566,319
58.5713,525.1
58.5764,189.1
58.633,208.2
58.6433,165.2
58.6439,180.9
58.6457,15.6
58.6535,16.6
58.7075,658.7
58.7117,21.7
58.7178,192.2
58.7404,452.1
58.741,95.7
58.7446,198
58.7515,195.8
58.7527,266.2
58.7699,355.3
58.8308,127.6
58.8366,134.4
58.8377,101.7
58.8515,170.3
58.8542,418.1
58.8573,744.6
58.8659,134.4
58.8782,117.4
58.8805,181.3
58.8935,105.5
58.9003,116.1
58.9223,116.2
58.9318,438.4
58.9436,20.2
58.9442,300.8
58.9447,113.9
58.9492,272.2
58.9606,715
58.9914,85.1
58.9956,694.4
58.999,18.2
59.0407,355.5
59.0433,469.9
59.0579,689.2
59.0723,155.4
59.0865,509.1
59.094,463.2
59.0997,112.3
59.1032,121.7
59.105,89.5
59.1119,256
59.1153,408.3
59.1346,110.9
59.1433,113
59.1435,111
59.1762,172.7
59.1959,580.6
59.1964,115.7
59.1978,262.9
59.199,357.3
59.2036,560.1
59.2171,132.6
59.2188,253.4
59.2229,98.5
59.2259,688.7
59.2281,135.1
59.2284,135
59.2357,159.2
59.2406,90.5
59.2612,767.4
59.2625,285.9
59.2767,102.1
59.2847,111.6
59.2885,168.7
59.2923,196.7
59.3008,134.4
59.3168,19
59.3306,92.5
59.343,108.8
59.3506,95.8
59.3628,412.6
59.3632,83.6
59.369,139.2
59.3933,375.4
59.402,302.6
59.4067,252.9
59.4215,737.3
59.4462,16.7
59.4587,292.6
59.4602,204.7
59.4662,289.7
59.4687,525.9
59.4798,198.2
59.4839,91.9
59.516,439.7
59.5192,596.3
59.5229,491.7
59.5353,243.3
59.5503,129.8
59.561,192.5
59.5632,744.5
59.5694,446.2
59.5825,88.7
59.5884,91.7
59.5949,338.5
59.6,80.6
59.6033,160.6
59.6443,500.3
59.6605,82.8
59.6742,313.3
59.6837,339.8
59.6867,212.6
59.7014,203.9
59.7164,460.5
59.7213,120.7
59.7356,148.1
59.7451,628
59.7504,20.7
59.7675,343.6
59.7768,85.8
59.7924,305.8
59.8115,141.4
59.8285,160.7
59.8348,264.5
59.8417,17.6
59.8635,490.5
59.8666,138.3
59.869,792.6
59.871,21
59.8956,668.5
59.9093,451.3
59.9319,109.7
59.9364,97.3
59.9388,15
59.94,169.2
59.956,121.3
59.9564,78.7
59.9615,255.4
59.9838,193.9
59.9921,167.2
59.9961,452.7
59.9979,150.7
60.0041,265.6
60.0136,364.9
60.0281,19.4
60.0347,289.3
60.0408,16.9
60.0493,719.4
60.0597,105.3
60.076,751.8
60.0876,727.7
60.1089,267.5
60.1143,160.4
60.1443,185.9
60.146,185.1
60.16,578.8
60.1678,266.2
60.1768,128.3
60.1827,17
60.1861,305.1
60.1935,17
60.2003,282.2
60.2111,261.3
60.2128,183.4
60.2283,99
60.2338,19.9
60.2345,437.7
60.2351,737.1
60.2597,109.2
60.2678,731.9
60.2895,256.8
60.2979,516.8
60.3026,401.7
60.3054,83.9
60.3098,152.2
60.3147,217.9
60.3174,356.3
60.3271,274.4
60.332,114.5
60.3433,643.2
60.36,141.9
60.3694,130.6
60.372,378.1
60.3792,102.5
60.3844,308.2
60.3927,151
60.4249,128.6
60.43,121.9
60.435,363.2
60.4362,17.2
60.4717,115.7
60.4737,137.7
60.4753,268.7
60.5169,19.8
60.5185,367.5
60.534,253.5
60.5398,111.9
60.5588,102.4
60.5875,379.1
60.5921,212.1
60.599,102.6
60.6069,899
60.6136,144.4
60.6242,83
60.6421,106
60.6458,201.7
60.6473,83.5
60.6494,19
60.6716,150.1
60.6935,335.1
60.7041,306
60.7072,17.5
60.7398,175.4
60.7519,112.3
60.764,306.5
60.8057,72.1
60.8199,720.2
60.8271,1049
60.8475,600.1
60.857,234.8
60.8894,127.5
60.9012,148.5
60.9133,21.4
60.9364,16.8
60.9522,160.5
60.9575,404.8
60.9735,102.1
60.9957,199.6
61.0056,102.6
61.026,307.1
61.0266,288.6
61.049,387
61.0627,516.2
61.0696,270.5
61.0744,148.8
61.085,121.7
61.0966,133.9
61.0982,151.5
61.1058,186.1
61.1151,320.8
61.1456,203.9
61.1492,260.9
61.1578,262.2
61.2029,141.4
61.2058,83.2
61.2117,121.8
61.2154,210.6
61.2337,241.2
61.2433,780
61.2499,233.3
61.2676,108.1
61.2817,286.5
61.2829,84
61.2832,79.1
61.2906,17.9
61.2925,107.4
61.3163,160.5
61.3182,182.9
61.3361,129.8
61.3566,538.4
61.3581,124.3
61.3913,294.9
61.3937,139.8
61.404,255
61.4175,466.1
61.418,327.7
61.4211,175.2
61.4217,274.8
61.4446,229.5
61.448,16
61.4511,468.9
61.4665,239.5
61.4821,19.6
61.4855,111.7
61.4935,109.6
61.4997,292.9
61.5127,124
61.5173,176.6
61.5242,258.9
61.5304,296.1
61.5327,407.9
61.5422,188.7
61.5644,174
61.565,519.8
61.5673,81.2
61.5712,364.4
61.5861,22
61.599,98.2
61.6279,329.2
61.6713,234.9
61.6788,337.1
61.7248,113.3
61.7292,92.7
61.7521,714.8
61.7698,110.3
61.7952,99.9
61.8117,206.4
61.8227,557.9
61.8308,18.5
61.8335,315.3
61.8438,628.1
61.8513,179.5
61.8559,192.9
61.865,493
61.8668,88.9
61.8683,86.9
61.884,603.1
61.886,489.5
61.9196,376.8
61.9595,525.2
61.9885,774.4
61.9944,150.4
61.9995,19.6
62.0157,442.5
62.028,160.4
62.0577,18.3
62.061,111.3
62.0631,360.4
62.0643,673.7
62.0677,310.8
62.0784,85.6
62.0967,117.2
62.1245,173.6
62.1474,287
62.1583,97.7
62.1605,277.4
62.165,133.1
62.1741,480.1
62.1839,18.1
62.2328,754.6
62.2408,444
62.2455,128.1
62.2537,165
62.2821,149.8
62.2824,148
62.286,123
62.2871,21.7
62.3155,341.2
62.3164,302.8
62.32,472.3
62.3421,381.8
62.3491,123.7
62.359,392.1
62.3814,17.2
62.3833,317
62.4156,140.7
62.4174,120.3
62.4365,502.1
62.4418,102
62.4659,553.4
62.5127,150.6
62.5238,479.6
62.5333,19
62.5344,149.9
62.5354,495.1
62.5559,110.9
62.5656,256.8
62.5795,141
62.5862,160.4
62.5897,118.1
62.5917,158.1
62.649,16.9
62.655,263.7
62.7124,289.3
62.743,941.5
62.7469,279.6
62.7484,99
62.762,495
62.7628,17.6
62.7651,234.6
62.7871,726.7
62.8036,90.4
62.8111,730.6
62.8317,403.2
62.8481,119.5
62.8738,300.2
62.9103,404.3
62.9152,74
62.9404,21.1
62.9628,15.2
62.9892,119
63.0018,464.3
63.0652,156.9
63.0657,92.5
63.0731,335.5
63.0806,124.7
63.1015,708.1
63.1057,895.6
63.1185,150.1
63.124,17.7
63.1261,188.2
63.1465,436.8
63.1494,17.3
63.1562,22
63.168,79.8
63.1829,262.9
63.1842,110
63.1898,117.5
63.1971,248.9
63.2164,120.9
63.2396,193.2
63.2443,295
63.2452,395.4
63.2517,219.9
63.2771,134.4
63.2946,334.8
63.2979,143.2
63.3044,85.1
63.3078,525.4
63.3097,17.6
63.3133,574.8
63.3179,266.7
63.328,20.1
63.3322,132.9
63.3519,189.9
63.3865,249.2
63.3915,105.7
63.3954,137.4
63.3961,342.4
63.3968,406.5
63.4007,276.5
63.4038,204.6
63.4399,565.7
63.4489,98.5
63.4496,130.4
63.4518,319.1
63.4534,476.4
63.4844,538.4
63.4993,89.9
63.5056,18.6
63.5068,18.2
63.5212,134.4
63.5237,115.7
63.5418,161.5
63.5531,203.9
63.5649,863.9
63.5849,149.8
63.6049,436.2
63.6155,214.7
63.6237,435.2
63.6247,122.9
63.6616,326.4
63.6752,18
63.6763,297.9
63.7009,91.5
63.7068,277.7
63.7084,101.7
63.7249,83.7
63.7608,140.8
63.7821,93.4
63.7828,143.5
63.7921,115.5
63.8205,388.1
63.8437,170
63.858,520.4
63.8588,87.2
63.8721,288.2
63.8785,121.7
63.8808,169.2
63.8914,77.7
63.8997,15.9
63.9043,184.1
63.9135,18.2
63.9203,16
63.9233,182.1
63.9361,316.1
63.9404,158.2
63.9895,390.4
64.0153,793.3
64.0176,203.4
64.0432,275.1
64.0642,320
64.066,505.8
64.0802,89.2
64.096,20.1
64.0976,17.9
64.1054,158.3
64.1276,92.7
64.1282,90.9
64.1342,130.6
64.15,16.7
64.1525,680.4
64.1532,175.4
64.1544,15.6
64.1554,15.7
64.1598,465.9
64.1689,18.1
64.1714,113.6
64.1771,478.1
64.1841,93
64.1918,183.4
64.1964,274
64.2027,164.8
64.2062,17.5
64.2227,227.5
64.2253,114.9
64.2482,231.8
64.2599,119.3
64.2861,80.6
64.2952,185.5
64.316,771.3
64.317,417.3
64.3235,17
64.3586,719.6
64.368,119
64.4068,108.6
64.4086,127
64.4198,689
64.4212,334.3
64.454,531.1
64.459,211.1
64.4633,293.6
64.4645,201.9
64.4893,509.3
64.5055,102.3
64.5241,128.4
64.5352,17.3
64.6503,96.8
64.6761,604
64.7278,662
64.7291,126.3
64.7309,18.4
64.7359,113.4
64.7459,465.3
64.7477,98.5
64.7756,584.2
64.7845,18.6
64.7853,17.9
64.8043,19.7
64.8233,666.4
64.8247,481
64.8315,293.4
64.8376,117
64.838,426.1
64.8636,120.4
64.8659,282.3
64.8708,92.4
64.8789,197.2
64.8927,87.3
64.8964,19
64.8971,434.4
64.9098,88.8
64.9122,100.2
64.9219,179.4
64.9389,144.9
64.9832,278.6
64.9852,16.6
65.0059,449.2
65.0287,438.2
65.0435,324.9
65.0464,188.1
65.09,117.1
65.0915,298.4
65.1002,200.7
65.1151,146.9
65.1197,808.6
65.1533,165.4
65.1537,826.2
65.1619,273.4
65.1707,829.4
65.1712,117
65.1776,128.7
65.2114,19.1
65.2267,101.8
65.2684,127.8
65.2764,529.3
65.286,164.3
65.3013,254.7
65.3119,148.2
65.3298,659.2
65.3463,296.5
65.3538,247
65.3596,398.3
65.3637,18.1
65.3737,159.1
65.3799,108.1
65.3804,841.1
65.3908,98.2
65.4025,125.4
65.4132,354.4
65.4139,19.1
65.4225,433.2
65.4443,17.4
65.476,92
65.4949,293.5
65.5184,339.8
65.5394,772.7
65.5405,18.5
65.5443,80.5
65.5542,158.5
65.5568,212.8
65.5573,433.6
65.5595,740.2
65.5809,103.9
65.6095,172.4
65.6105,146.7
65.6201,689.8
65.6226,311.9
65.6268,194.2
65.6308,117
65.655,299.2
65.6842,117.9
65.6888,467.6
65.692,1142.3
65.7036,252.2
65.707,16.4
65.7119,480.3
65.7187,239.5
65.7217,329.3
65.7224,15.6
65.7327,110.9
65.7434,287.5
65.7443,260.6
65.7643,389.2
65.7803,322.5
65.7894,97.3
65.7955,459.2
65.8003,139.4
65.808,391.5
65.8123,101.7
65.8214,210.4
65.8375,139.5
65.8383,153.4
65.8516,16.3
65.8553,271.6
65.8658,546.9
65.8855,338.1
65.8892,715.1
65.8952,471.1
65.9119,16.5
65.9258,211.3
65.931,423.6
65.9356,227.4
65.9505,77.9
65.9678,458.6
65.9898,575.4
66.01,212.3
66.0119,179.5
66.0139,655.8
66.0163,374.3
66.0471,978.9
66.0912,368.8
66.0957,123.3
66.099,112
66.1022,120.1
66.1132,392.7
66.1157,174.7
66.1251,222.8
66.1353,158.7
66.1715,740.8
66.206,115
66.2085,375.6
66.2129,87.8
66.2239,382.7
66.2479,558.7
66.257,18.9
66.2627,206.8
66.2729,336.8
66.2982,149.7
66.337,123.2
66.3436,86.9
66.3517,132.4
66.3618,86.5
66.3819,179.7
66.3858,659
66.3948,259.5
66.3954,802.6
66.3991,745.1
66.4171,99.1
66.4178,156.6
66.4197,407.8
66.438,19.9
66.4408,400.8
66.4606,246.7
66.4858,16.5
66.5038,672.1
66.5227,315.4
66.5406,21.4
66.5765,90.4
66.5915,117.3
66.6144,137
66.6209,801.5
66.633,160.8
66.6389,493.9
66.6739,139
66.68,477.4
66.7004,116.8
66.7092,125.9
66.7189,112.2
66.7234,190.4
66.7292,776
66.7384,744.1
66.7474,148.6
66.7916,239.9
66.8009,17
66.8081,16.4
66.8421,308.3
66.8465,307.2
66.8477,19.8
66.8624,179.8
66.8677,741.2
66.8737,330.2
66.8872,123.2
66.9087,330.1
66.9146,498.2
66.9165,19.3
66.9403,122.8
66.9533,222.1
66.9729,320.9
66.9751,508.4
67.0164,299.5
67.0179,128.2
67.022,128.8
67.0243,507.5
67.0258,160.5
67.0313,15.9
67.054,512.7
67.0631,98
67.0678,189.4
67.0745,302.3
67.0945,419.3
67.1311,635.7
67.1708,291
67.2241,279.5
67.2264,167
67.2422,100.1
67.2433,101.4
67.2513,181.4
67.283,358.9
67.287,676.6
67.3084,113.3
67.3351,139.1
67.3383,116.6
67.3425,18.6
67.3932,132.1
67.4254,300.2
67.435,144.8
67.4669,19.9
67.4709,296.1
67.473,88.8
67.478,319.1
67.481,366.9
67.4856,180.2
67.4864,103.9
67.4926,545.9
67.5105,748.3
67.5223,165
67.5368,641.9
67.5855,120.2
67.6037,167.3
67.605,135.5
67.6131,179.1
67.6415,509.2
67.6435,21.5
67.6717,634.1
67.6881,126.4
67.7171,109.6
67.7365,487.8
67.7427,75.6
67.7519,307.5
67.7565,194.7
67.7752,436.9
67.778,172.4
67.7791,475
67.7936,146.2
67.8081,104.1
67.8111,322.2
67.8216,299.5
67.8541,112.5
67.8577,165.1
67.8645,511
67.8704,111.8
67.8762,100.8
67.8888,142.8
67.9107,86.5
67.9298,696.6
67.9413,171.6
67.9509,673.1
67.9697,142.1
67.9829,139.2
68.0085,87.5
68.0112,271.4
68.0417,143.9
68.0485,314.8
68.0795,383.7
68.0998,244.6
68.1095,241.4
68.1129,437.7
68.1279,107.4
68.1333,150.2
68.1488,401.6
68.1644,286.2
68.1774,135.3
68.2114,92.9
68.2227,776.7
68.2255,362.3
68.2366,132.7
68.2375,204.6
68.239,175.5
68.2497,109.8
68.2542,107.6
68.2626,267.4
68.281,18.5
68.2923,228.7
68.3086,377.2
68.3147,17.6
68.3303,136
68.3481,297
68.3649,170.3
68.3755,109
68.4165,155.9
68.4316,96.5
68.4576,23
68.4965,561.2
68.5063,107
68.5112,546.9
68.5226,122.7
68.5253,464.4
68.5281,335.5
68.5352,17
68.5411,258
68.5474,132.3
68.5499,19.2
68.5796,150.9
68.5988,100
68.6001,294
68.6073,763.6
68.6093,163.1
68.632,105.6
68.6335,187.2
68.6352,98.5
68.6391,102.6
68.6455,866.5
68.6511,86.9
68.6635,104.9
68.6656,106.4
68.6756,273.2
68.6786,401.2
68.6804,687.8
68.6939,20.7
68.7003,194.6
68.7355,385.3
68.7407,195.4
68.7515,296.8
68.7784,121.1
68.8047,490
68.8144,739
68.8195,103.4
68.846,167.7
68.8609,19.9
68.8936,118.8
68.917,129.2
68.9308,322.1
68.9337,151.3
68.9449,96.8
68.9833,307.9
69.0125,134.8
69.0193,17.7
69.0493,94
69.0571,123.1
69.0578,178.5
69.061,353.3
69.065,582.3
69.0722,460.4
69.0733,599
69.0753,687.1
69.0946,109.1
69.099,479.4
69.1048,124.9
69.1069,298.3
69.123,84
69.1247,399
69.1302,126.2
69.1618,510.7
69.1735,226.1
69.1998,165.9
69.2773,422.9
69.3037,493.7
69.3051,323.2
69.3139,106.6
69.3407,550.3
69.3479,272.8
69.3528,504.3
69.3762,825.9
69.3865,104.7
69.4053,149.2
69.4211,241.9
69.4334,167.5
69.4428,164.5
69.4559,255.5
69.4589,104.8
69.4864,331.5
69.4882,194.6
69.4953,125.1
69.5188,108.7
69.5313,295.1
69.5523,18
69.5696,448.4
69.5758,563.2
69.5768,287.9
69.5909,100
69.5938,273.5
69.5967,18.7
69.6023,693.9
69.6215,814.3
69.632,124.7
69.6437,183.8
69.6812,18.6
69.711,336.8
69.7158,287.8
69.7215,185.7
69.7717,440.5
69.7884,303.1
69.8027,244.8
69.8033,363.1
69.842,310.5
69.8576,712.6
69.8858,488.5
69.9278,420.6
69.9523,232.9
69.954,297.3
69.9604,18.5
69.9811,137.4
69.9966,16.6
70.0122,322.4
70.0274,325.3
70.0288,702.3
70.0311,327.8
70.0319,507.3
70.0459,351.5
70.0648,551.2
70.0715,404
70.0838,163.8
70.0882,185.6
70.0924,681.6
70.0933,320.6
70.1188,88.9
70.1217,126.1
70.1254,18
70.1742,212.2
70.1873,324.3
70.1951,80
70.2063,182.3
70.2243,854.8
70.2305,522.2
70.2558,190.2
70.2856,321.3
70.2954,82.1
70.3033,139.7
70.3206,273.4
70.3279,92.6
70.3627,17.9
70.3659,20
70.3707,473
70.3768,250.9
70.402,133.5
70.4235,81.4
70.4345,194.8
70.4356,118.5
70.4397,532.2
70.4457,579.3
70.4595,525
70.4605,222.9
70.4742,351.3
70.4835,16.3
70.4887,16.7
70.5641,490.3
70.5707,162.6
70.5726,573.8
70.5736,205.2
70.6079,957.4
70.6219,18
70.6297,192.8
70.6353,109.4
70.6566,182
70.6574,570.9
70.661,307.6
70.6874,297.9
70.7333,396.1
70.7624,445.8
70.7832,212.7
70.787,175.8
70.7951,748.9
70.807,344.7
70.8361,159
70.8586,175.5
70.8646,19.5
70.8699,82.7
70.8858,450
70.8903,329.9
70.8972,344
70.9032,333.6
70.9419,84.8
70.9436,366.8
70.9503,19.7
70.9562,101.7
70.9698,18.8
70.9745,125.7
71.0085,161.7
71.0256,18
71.0372,257.4
71.0643,109
71.0773,144.2
71.0868,135.2
71.1041,662
71.1078,308.4
71.1198,305.1
71.1227,279.8
71.1302,304.7
71.1353,295.7
71.1571,192
71.171,694.4
71.1758,19.3
71.1794,537.2
71.1827,99.5
71.191,88.4
71.2081,98.4
71.212,570.9
71.224,443.3
71.2535,317.2
71.2627,21.2
71.2649,220.3
71.2661,281.5
71.3027,89
71.3125,821.7
71.3137,127.3
71.3171,353.6
71.3175,348.8
71.3518,517.7
71.4011,165.1
71.4038,778.3
71.4157,124.4
71.4264,570
71.4344,467.3
71.4372,150.3
71.4493,123.7
71.4681,313.8
71.4813,119.3
71.4913,127.2
71.4929,84
71.5035,105.8
71.5183,17.9
71.5497,107.3
71.5821,340.5
71.5893,303.6
71.5943,145.9
71.6048,130
71.6391,237.9
71.6592,258
71.6598,470.4
71.6711,462
71.6982,353.9
71.7061,87.2
71.7066,145.6
71.7098,232.4
71.7177,650.5
71.7316,119.6
71.7378,523.3
71.7439,351.3
71.7704,150.5
71.7921,257.4
71.7986,103.4
71.8179,111
71.8395,169.4
71.8653,835.8
71.8724,117.4
71.8749,567.3
71.8851,16.2
71.8968,605.6
71.9048,545.7
71.9072,625.4
71.92,383.4
71.9395,123
71.9575,118.7
71.9624,356.4
71.9851,371
71.9914,232.1
71.9976,18.6
72.0048,98.1
72.0172,88.1
72.045,231.9
72.0563,341.3
72.0651,254.1
72.0797,285.9
72.0805,642
72.0884,328.9
72.0948,358
72.1046,17.6
72.1097,166.9
72.1271,499.7
72.1287,508.8
72.132,434.8
72.1678,128.6
72.1842,321.5
72.1903,180.3
72.2095,18.9
72.2124,25.6
72.2167,41.7
72.2185,26.8
72.22,212.9
72.2217,1067.7
72.2228,89.7
72.2247,617.1
72.2252,896.8
72.2262,1882.2
72.2273,539.3
72.2279,1773.5
72.2285,1671.5
72.2294,3057
72.2301,2300
72.2304,2579.3
72.2314,5962.1
72.2327,1870.6
72.2337,5166.3
72.2349,3717.6
72.2357,3487.7
72.2374,3362
72.2384,2760.7
72.2393,3403.3
72.2405,1671.6
72.2415,1343.3
72.2423,1242.7
72.2429,732.8
72.2436,1182.6
72.2444,919
72.2455,274.2
72.2463,223.2
72.247,280.3
72.2483,355.4
72.2492,172.4
72.2496,114
72.2513,138.6
72.2597,241
72.2913,237.8
72.3047,150.9
72.3444,590.5
72.3548,544.7
72.3608,93.8
72.3703,292.2
72.4118,124.7
72.4226,20.1
72.4274,17.5
72.4557,115.7
72.4611,131.4
72.5027,603.3
72.5268,874.3
72.5359,461.5
72.5765,112.8
72.5787,128.3
72.5816,297.3
72.5843,16.8
72.5884,109.1
72.5913,283.2
72.593,462.1
72.613,500.9
72.6135,104
72.6265,288.7
72.6401,502.1
72.643,147.3
72.6551,119.3
72.6574,101.8
72.6626,19.8
72.6773,18.9
72.7083,210.8
72.7126,394.9
72.7176,128
72.7267,572.8
72.7272,149.1
72.7776,17.4
72.7902,138.3
72.7938,300.5
72.8093,130.1
72.8102,111.9
72.8115,135.9
72.8193,176.6
72.82,92
72.8318,137.6
72.8383,542.5
72.8457,114
72.8462,267.2
72.8553,603.3
72.8725,329.9
72.8908,148.9
72.9017,142.8
72.9218,157.1
72.9296,574.7
72.9345,320.1
72.9358,20.3
72.9369,533.8
72.9587,88
72.9847,509.3
73.0018,92.4
73.0647,154
73.0802,414.9
73.0993,201.6
73.1265,203.2
73.1315,19
73.1322,398.4
73.1495,152.3
73.1621,90.7
73.1942,130.9
73.1986,273
73.2276,177.4
73.2866,120
73.2906,553.3
73.2972,439.4
73.3068,228.9
73.3142,116.1
73.3342,479
73.3475,108.5
73.3587,757.5
73.3822,434.7
73.4045,476
73.4127,849.2
73.4424,78
73.45,206.5
73.4516,520.4
73.5071,265.7
73.509,172.8
73.511,695.4
73.5562,283.8
73.5575,304.2
73.559,131.7
73.571,158.3
73.5969,261.6
73.6033,164.1
73.6367,16.4
73.6405,186.6
73.6591,603
73.6611,604.9
73.68,243.5
73.6918,184.1
73.7134,720.3
73.7477,489
73.7912,741.9
73.8022,17.5
73.8332,669.5
73.8373,293.8
73.8399,229.7
73.8418,344.4
73.8496,425.4
73.8664,456
73.869,108.7
73.8717,126.6
73.8992,124.4
73.9017,338.2
73.9088,24
73.9168,591.8
73.9318,518.8
73.9406,264.8
73.9435,23.3
73.9869,132.1
73.9946,385.3
73.9975,307.6
74.0111,192.9
74.0598,3816.6
74.0799,509.5
74.1135,301.1
74.1286,463.2
74.1332,123
74.1479,21
74.1838,103
74.1905,549.4
74.2207,20.2
74.2219,292.2
74.2284,587.6
74.2392,189.6
74.2408,453.1
74.2583,106.9
74.2969,178.8
74.3462,123.7
74.3494,524.8
74.3581,274.3
74.3819,129.9
74.3825,367
74.3873,602.5
74.391,78.7
74.4071,344.1
74.4132,99.7
74.4324,265.1
74.436,327.3
74.444,17.2
74.4716,428.9
74.4797,110.1
74.4894,19
74.5011,476.5
74.5463,140
74.5639,106.1
74.576,360.2
74.5804,555.9
74.6021,118.9
74.6104,133.7
74.633,135.7
74.6481,237
74.6527,18.2
74.6771,111.1
74.6845,18.4
74.6891,391.7
74.6977,117.3
74.7029,444.4
74.7079,132.1
74.7151,214.5
74.7188,125.4
74.7225,145
74.7246,202.1
74.7289,82.4
74.7463,350.9
74.7694,309.6
74.8125,149.1
74.815,756.7
74.8357,17.8
74.8783,95.1
74.8805,435.6
74.8923,525.5
74.9018,210.8
74.9217,102.2
74.9449,16.1
74.9649,108.3
74.9774,125.8
74.9809,690.8
74.9949,313.7
75.0218,528.6
75.0225,658.8
75.0313,19
75.0453,118.2
75.0549,153.1
75.071,259.5
75.0751,166.7
75.1136,116.7
75.1327,148.8
75.1481,150.7
75.1577,127.9
75.1603,16.6
75.193,432.3
75.2174,136.9
75.2344,525
75.2412,587.5
75.2511,206.9
75.2629,283.8
75.2729,828.7
75.292,706.7
75.3183,430.2
75.3374,233.6
75.3409,245.5
75.3663,371.4
75.3787,779.8
75.3974,92.1
75.4207,18.8
75.4475,82.1
75.468,106.8
75.5265,23.5
75.5398,113.2
75.5409,83.4
75.5555,265.5
75.5638,15.9
75.5655,17.2
75.5822,17.3
75.5887,445.3
75.6179,541.8
75.6258,294.5
75.6316,548.7
75.6486,182.8
75.6599,213.3
75.6771,700.6
75.6926,129.9
75.7207,208.8
75.7299,444.1
75.7307,97.1
75.7435,146.5
75.7555,263
75.761,150.4
75.7667,132
75.7697,713.4
75.7859,187.7
75.7996,629.1
75.8162,110.9
75.8244,102.4
75.8347,498.4
75.8352,18
75.8444,332.1
75.8509,151.8
75.864,234.9
75.9137,185.5
75.9272,294.7
75.938,113
75.9481,109
75.9497,19.9
75.9679,125.8
75.9998,18
76.0118,82.7
76.0205,20.1
76.0369,174.5
76.0415,681.5
76.0526,153.6
76.0898,123.3
76.0911,248.2
76.16,152
76.1833,24
76.2001,199.1
76.2121,16.8
76.2143,125.4
76.2192,477
76.2417,1095
76.2477,492.3
76.2693,208.6
76.2763,82.7
76.3107,138.2
76.3163,104.3
76.3228,102.1
76.3434,178.6
76.3459,412.6
76.374,543.7
76.3845,252.5
76.387,276.6
76.3947,330.3
76.4119,91.1
76.4127,119.2
76.4202,15.8
76.4263,289
76.4345,16.4
76.4556,212.8
76.4692,304.3
76.473,322.5
76.478,509.8
76.4823,128.9
76.4946,111.7
76.5003,247.6
76.5065,476
76.5324,109.3
76.5409,150.3
76.5445,485.3
76.5538,17
76.5557,172.2
76.5628,17
76.5694,21.9
76.5798,108
76.5903,289.8
76.6133,301
76.6164,108.6
76.6291,244.5
76.6431,189.2
76.7061,673.3
76.7517,445.1
76.7572,90.6
76.7603,321.7
76.7684,123.8
76.7857,209.5
76.7896,86.1
76.807,157.4
76.8249,364.6
76.8281,89.6
76.8315,16.3
76.8409,400.7
76.846,102.5
76.8613,153.1
76.8739,444.1
76.8921,881.5
76.9293,184.4
76.9393,160.6
76.9799,276.5
77.0005,134.9
77.0026,362.3
77.0195,90.9
77.0305,141.1
77.0348,941.8
77.0353,636.3
77.0383,117456.6
77.0512,331.4
77.086,114.8
77.0966,563.4
77.0997,111.3
77.1332,16.4
77.1343,349.7
77.1474,281.8
77.1883,544.8
77.1919,20.9
77.2203,16.8
77.2379,492.4
77.24,727.1
77.2692,542.8
77.2719,310.4
77.3185,475.6
77.3317,206.4
77.3344,126.1
77.3642,107.5
77.3749,80.1
77.3757,956.1
77.3938,128.2
77.4078,706.2
77.4321,137.7
77.4825,22.6
77.5041,248.1
77.5453,287
77.559,170.9
77.5645,285.4
77.5697,112.8
77.5806,304.3
77.5812,118.7
77.6066,21.1
77.6134,117.3
77.6295,19.2
77.6374,390.6
77.6663,596.1
77.6873,81.4
77.7229,173.7
77.7281,360.6
77.7327,91.9
77.7427,119.7
77.7461,561.9
77.7494,132.8
77.7534,166.8
77.7647,100.8
77.7683,129.7
77.7928,729.3
77.8118,266.1
77.8141,113.6
77.8149,517.1
77.8306,123.2
77.832,318
77.8428,178.6
77.8687,83.4
77.8763,19.5
77.8919,125.6
77.9127,99
77.9151,462.4
77.9348,20.3
77.9357,16.6
77.9471,613.9
77.954,103.3
77.9567,732.7
77.9639,371.3
77.9748,168.8
77.9795,211.5
78.0046,131.1
78.018,470.9
78.0417,4353.5
78.0519,134.5
78.0581,793.3
78.0656,337.4
78.0731,18.9
78.0794,18.7
78.086,379.6
78.0949,105.9
78.1109,116.9
78.1127,275.9
78.1319,19.3
78.1483,548.7
78.1717,149.1
78.182,159.8
78.1918,185.2
78.1928,114
78.2065,184.5
78.2321,155.7
78.2394,194.7
78.2613,113.2
78.3078,148.4
78.3143,108.1
78.3221,916.9
78.3351,132.2
78.3425,649.6
78.3674,189.3
78.3779,19.3
78.4182,87.7
78.4285,21.1
78.4507,470
78.4609,175.9
78.4618,274.6
78.4777,305.9
78.4966,210.6
78.514,153.9
78.5276,153.2
78.5285,144.2
78.539,17.1
78.5482,386.7
78.5547,311.1
78.5851,140
78.5931,16.6
78.6078,217
78.6353,16.5
78.6359,148.2
78.6402,104.2
78.643,418
78.6459,348.8
78.6503,21.2
78.654,19.3
78.6717,300.3
78.6757,119.9
78.6818,17.5
78.7213,18.1
78.7397,107.9
78.7497,418.7
78.7765,558.9
78.7786,261.3
78.7901,281.3
78.7932,228.8
78.8111,19.2
78.8233,393.3
78.8554,168.8
78.8955,88.9
78.9576,21.2
78.9586,460
78.9664,135.6
78.9754,123.4
78.9853,16.4
78.9927,291.7
78.9968,246.7
79.0061,308.8
79.0111,19.3
79.0159,95.7
79.054,1580.7
79.0786,18.5
79.0984,108
79.1156,422.7
79.1268,486.8
79.1316,309
79.1383,198
79.1435,259.8
79.1532,227.2
79.1651,18.2
79.1759,96.4
79.2064,522.4
79.2363,418.6
79.2448,136.9
79.3274,457.6
79.3347,181.3
79.3456,119.4
79.3671,417.4
79.3682,285.8
79.3942,311.1
79.399,161.6
79.4246,721
79.4298,321.6
79.4489,370.2
79.4574,118.5
79.4605,316
79.4681,182.8
79.4722,220.3
79.4855,310.8
79.5136,810.4
79.5256,625.2
79.5305,585.6
79.5494,16.8
79.5567,802.9
79.5657,17.6
79.5843,308.2
79.6042,470
79.6051,94.3
79.6142,144.8
79.6281,209.2
79.6643,243
79.6828,16.8
79.7166,170.2
79.7183,131.9
79.7895,132.5
79.7922,238.6
79.8154,403.5
79.8162,213.5
79.8483,17.9
79.8541,280.6
79.8921,610.2
79.8987,16.9
79.9096,190.4
79.9155,131.7
79.945,114.4
79.9788,324.4
79.9798,449.7
79.992,400.8
79.9941,410.8
80.0099,135.6
80.0133,367.5
80.0234,17.9
80.0378,318.5
80.041,147.2
80.046,19.5
80.0596,17.7
80.0617,370.6
80.065,94.9
80.0971,346
80.1045,461.3
80.1433,256.2
80.1578,153.5
80.176,170.9
80.1848,290.3
80.2336,184.5
80.2373,422.8
80.24,306.5
80.2568,15.4
80.2583,453.6
80.2786,290.9
80.2926,174.2
80.3146,172.6
80.3349,18.4
80.337,525.1
80.3687,278.9
80.3762,278.7
80.3861,162.7
80.3933,423.5
80.4113,97.9
80.429,477.3
80.438,683.3
80.4564,731.5
80.4884,84.4
80.5088,316.4
80.5289,252.3
80.5337,17.4
80.5461,176.6
80.5564,274.1
80.5729,448.8
80.5771,252.8
80.5789,294.1
80.5841,106
80.5932,20.6
80.6001,135
80.6327,107
80.6379,175.3
80.6438,220.5
80.6732,305.6
80.6795,463.4
80.693,746.2
80.7137,166.2
80.737,182.1
80.768,187.6
80.7761,18.5
80.7877,17.4
80.7922,137.6
80.7931,154.2
80.7975,84.4
80.8075,543.8
80.8097,99.4
80.8326,112.6
80.847,83.1
80.8521,16.6
80.8712,500.4
80.8832,383.3
80.9042,100.6
80.9066,803.6
80.9424,312.4
80.9438,590.1
80.9476,54354.6
81.0064,95.9
81.0206,359
81.0554,387.2
81.0697,992.4
81.0993,464.6
81.1182,167.6
81.1212,431.8
81.1412,304.1
81.1433,2569.1
81.1458,419
81.1467,611.9
81.1478,271.5
81.1508,149.2
81.1527,19.1
81.1687,302.8
81.1714,277
81.1867,541.4
81.2039,168.6
81.2163,18
81.2216,225.7
81.2266,278
81.2364,84
81.2751,16.9
81.2777,88.5
81.2859,197.4
81.3082,17.9
81.3119,165.6
81.3139,255.6
81.331,18.7
81.3403,444.6
81.3533,390.3
81.3682,650.6
81.3954,263.1
81.4046,330.4
81.4132,457.7
81.4144,217.5
81.4325,458.1
81.453,175.9
81.4638,234.9
81.4976,19.6
81.4982,413.2
81.5031,325.8
81.5307,485.5
81.5368,148.2
81.5446,374
81.5514,450.5
81.5761,16.2
81.5773,134.9
81.578,16.8
81.5857,82.3
81.5868,506.2
81.5921,412
81.6198,303.3
81.626,336.7
81.6429,284.7
81.6707,114.2
81.6815,157.7
81.7007,323.6
81.7168,583.9
81.7181,533.5
81.7635,142.2
81.766,147.2
81.8276,141.2
81.8466,16.5
81.8747,145.8
81.8791,105.8
81.9064,288.9
81.9151,18
81.9403,504.9
81.9415,137.4
81.9425,180.3
81.9507,514.4
81.9533,179.1
81.9817,293.6
82.0021,160.6
82.015,18.7
82.0543,19.4
82.065,377.5
82.0798,249.7
82.0859,697.7
82.1004,184
82.1038,497.5
82.1059,161.5
82.109,118.6
82.1114,783.3
82.1289,272
82.1297,142
82.1444,385.3
82.1573,189.5
82.173,128.3
82.1751,352.4
82.1952,152
82.2033,182.1
82.2047,243.6
82.2262,288.1
82.2484,18.1
82.2744,421.9
82.2874,779.5
82.2949,312.7
82.2984,106.9
82.3076,112
82.3224,386.2
82.362,247.8
82.3696,19
82.3706,145.4
82.3742,468.2
82.3782,296.3
82.3855,339.7
82.4345,114.5
82.4608,705.6
82.4732,162.3
82.4756,170.8
82.4819,132
82.4863,191.5
82.5019,117.5
82.541,18.3
82.5711,139.1
82.5791,484.8
82.5813,170.6
82.5879,109.3
82.6466,99.5
82.6855,194.1
82.7058,197
82.7534,442.2
82.7552,510.9
82.7714,98.9
82.8094,126.8
82.8334,128.1
82.835,297
82.8509,83
82.88,484.6
82.8814,472.5
82.8885,19.8
82.8905,211.9
82.897,283.8
82.9004,148.5
82.9147,247
82.9323,240.3
82.9447,13040.8
82.9469,247.4
82.9745,111.2
82.9857,168.8
82.9957,330.2
83.0214,107.9
83.0313,94.5
83.0423,212.3
83.0854,561.2
83.0879,420.2
83.0983,104.9
83.1057,240.2
83.1142,111.2
83.133,395.1
83.1595,323.8
83.162,503.3
83.2012,195.1
83.2044,694
83.2148,349
83.2345,121.9
83.2515,189.2
83.2685,105.1
83.2967,266.9
83.2981,478.5
83.3022,284.6
83.3128,553.3
83.3264,412.6
83.3382,466.5
83.34,208
83.3446,94.7
83.3623,140.5
83.3878,101.4
83.428,83.6
83.4383,220.8
83.4686,548.4
83.5551,117.4
83.6032,736.1
83.6214,412.2
83.6456,229.4
83.658,93.7
83.6627,121.4
83.6825,628.7
83.7096,142.7
83.7175,279.4
83.7264,474.9
83.7357,138.7
83.7861,15.5
83.801,172.7
83.818,249.7
83.8572,115.4
83.8722,18.4
83.8773,89.3
83.8793,224.1
83.8868,94.1
83.888,146.2
83.8963,717.1
83.8993,257.1
83.9302,371.4
83.9512,105.5
83.9595,121.7
83.9723,580.7
83.977,278.7
84.0096,311
84.0174,114.4
84.044,376.6
84.0571,303.4
84.0664,141.7
84.0806,557.6
84.0883,18.6
84.1015,842.1
84.1174,186.4
84.1346,404.4
84.1355,490.4
84.1546,583.6
84.1629,179.1
84.1692,578.4
84.1748,268.4
84.1762,121
84.1986,15.4
84.2056,17.4
84.2135,122.9
84.2142,98.2
84.2719,187.2
84.2906,135
84.2971,135.9
84.3068,346
84.3328,118.5
84.3337,373.4
84.3434,133.6
84.3914,562.6
84.3937,132.6
84.408,374
84.4121,389.9
84.4328,115.5
84.4347,207.9
84.4648,524.4
84.4704,17.6
84.5234,281.7
84.5274,763.1
84.5851,86.3
84.5916,326.2
84.5976,639.4
84.6007,405.4
84.6352,271.9
84.6367,303.4
84.652,99.1
84.6551,323.2
84.6787,271.7
84.6864,267.7
84.6943,302.8
84.7174,289.3
84.7578,243.5
84.7658,468.6
84.7681,155.3
84.7689,154.5
84.7696,17.6
84.8053,597.6
84.8551,16
84.8785,164.8
84.8833,115.6
84.8894,295.3
84.8967,174.7
84.8995,19.6
84.9126,199.2
84.9169,205.6
84.9376,593.5
84.9381,167.5
84.9407,478
84.946,22.8
84.9577,867.4
84.9595,21064.5
84.9945,120.1
85.0282,3716.9
85.0549,131.1
85.0755,18.1
85.0787,470.8
85.0899,163.7
85.1048,101.2
85.1587,717.5
85.1603,130.4
85.1715,335.9
85.1889,114.6
85.1892,102.5
85.1895,88.7
85.1964,450.9
85.204,377.4
85.2091,344.5
85.226,491.6
85.2275,215.8
85.2406,260.9
85.251,126.5
85.2564,16
85.2642,87.4
85.3012,178
85.308,202.4
85.3109,154.6
85.3205,95.2
85.3794,246
85.3954,471.4
85.4077,94.3
85.4352,176.9
85.443,154.2
85.451,15.9
85.4587,142.4
85.4673,134.2
85.4833,119.1
85.4952,844.1
85.5035,439.4
85.5237,112.3
85.5358,845.4
85.5467,123.9
85.5554,148
85.5693,383.8
85.615,19.1
85.6288,81.7
85.6445,120.2
85.6819,110.3
85.6963,305.9
85.7065,427.6
85.7101,138.3
85.7204,128
85.7276,99.6
85.7418,88.4
85.7845,407.6
85.8052,21.1
85.8077,222.9
85.8235,149
85.8429,17.5
85.8518,150.7
85.8684,281.2
85.8802,117
85.8952,211.5
85.8993,105
85.9048,255.4
85.9203,106.7
85.9271,90
85.9339,954.9
85.9566,110.5
85.9709,109.7
86.0074,517.4
86.0158,199.4
86.0375,385.2
86.0427,313.7
86.0581,85.8
86.0598,36334.4
86.0962,134084.2
86.1125,324.8
86.1157,140.7
86.161,127.3
86.1625,192.3
86.1676,211.1
86.172,139
86.1755,84
86.2615,263.1
86.3121,294.4
86.3307,17.9
86.3327,129.2
86.3341,156.8
86.3437,244.9
86.3446,106.9
86.3681,249.1
86.3872,126.5
86.4189,156.9
86.4692,21.6
86.4889,169.4
86.5134,101.7
86.5271,149.4
86.5419,20
86.5561,149.1
86.5679,206.7
86.5812,96.2
86.6116,16.9
86.6124,369.1
86.6134,20.4
86.6311,186.7
86.6318,114.7
86.6363,132.2
86.6398,115.4
86.6634,16.9
86.6669,178.8
86.6826,456.4
86.6953,863.5
86.7362,637.8
86.7542,431.3
86.7934,101.6
86.836,19.2
86.8436,79.9
86.9027,134.6
86.9105,329.2
86.9426,186
86.9527,108.1
86.9813,258.8
86.9817,271.3
87.046,631.4
87.0929,19.5
87.0996,3344.9
87.1028,100.9
87.1064,254.6
87.1198,721.5
87.1312,199.2
87.1961,140
87.1977,478.9
87.1979,605.4
87.1982,404.3
87.2099,102.3
87.2109,435.9
87.2366,174.6
87.2974,102.7
87.3326,90.1
87.3567,119.6
87.3685,94
87.376,99.1
87.4116,339.7
87.4191,132.9
87.4247,158.8
87.4357,780.2
87.455,309.2
87.516,178.9
87.5198,86.7
87.5508,320
87.5813,466.9
87.5842,663.8
87.6,94.5
87.6391,137.8
87.705,833.2
87.7629,88.9
87.7874,17.8
87.7933,463
87.828,715.5
87.8311,141
87.8638,756.3
87.8964,585.9
87.9056,293.1
87.9209,17.6
87.9266,572
87.9409,111.2
87.9528,233.7
87.9692,321.9
87.9735,321.5
88.0015,123.1
88.0293,728.7
88.0391,9168.8
88.0455,211.8
88.0891,147.1
88.1052,206.1
88.1349,95.6
88.1921,137.8
88.2105,604.7
88.2252,91.1
88.3073,191.6
88.3653,538.8
88.4005,110
88.4319,424.9
88.4345,448.1
88.4509,542.8
88.4612,596.3
88.482,300.2
88.5199,116.3
88.5334,115.1
88.5467,20.6
88.5638,36.4
88.5675,145.2
88.5879,21.4
88.6052,310.2
88.6362,211.8
88.6428,867.5
88.6532,128.2
88.6815,127.8
88.7011,196.2
88.7068,576.6
88.7109,278.2
88.7339,210.1
88.7651,309.1
88.784,248.6
88.8826,297.7
88.8882,390.3
88.9206,122.1
88.9348,95.2
88.9522,87.3
88.9624,158.1
88.9683,17
88.9703,141.8
88.975,102.7
88.9947,119.3
89.0022,18.4
89.0238,165.9
89.0672,142.9
89.0946,766.4
89.0972,105
89.0982,399.1
89.107,127.5
89.133,22.5
89.1338,339.5
89.1343,296.2
89.1449,201.7
89.1506,93.6
89.1813,188.9
89.1928,173
89.2097,133.5
89.2366,203.3
89.2473,165.8
89.2485,87.5
89.2501,114.4
89.2568,83.8
89.2668,197.2
89.2912,298.3
89.2936,325.4
89.4127,121.4
89.4613,197.3
89.4825,108
89.4877,226.5
89.5352,23.5
89.5566,578.8
89.6124,186.9
89.6697,22.5
89.6803,629.1
89.7065,22.3
89.708,20.1
89.7228,509.4
89.7574,290.9
89.7726,305.2
89.8134,469.7
89.8679,288.9
89.8855,17.9
89.9636,359.7
89.9776,122.5
89.9839,124.8
89.9892,338.9
90.0215,141.8
90.0378,17.9
90.0618,117.9
90.0713,90.3
90.0716,122.6
90.0719,87.1
90.0889,719.3
90.101,194.9
90.2247,166.4
90.238,98.3
90.2591,434.2
90.2597,568
90.2827,424.5
90.314,133.2
90.3159,101.8
90.3229,276.9
90.3266,122.4
90.3445,904.7
90.3547,260
90.3568,151.8
90.3583,462
90.3885,501.5
90.4135,122.5
90.4327,315.5
90.4565,346.1
90.4574,194.5
90.4632,287
90.4746,198
90.4777,245.2
90.5391,489.1
90.5445,81.1
90.5574,487.9
90.599,335
90.6334,355.5
90.6651,118.4
90.6951,381.4
90.708,176.5
90.7266,515
90.7544,520.6
90.7588,107.3
90.7785,336.8
90.7917,194.2
90.797,496.1
90.8109,338.2
90.8202,106.2
90.8364,100.1
90.8501,431.6
90.8525,19.5
90.8729,282.3
90.9254,581.7
90.9476,2240.2
90.9544,189.1
90.9765,9454.7
90.9855,138.9
90.9865,471.8
90.9896,120.7
90.9909,19.1
90.9973,149.1
91.0085,361.2
91.0088,292
91.0093,186.9
91.0401,91.8
91.054,4310.7
91.0896,343.9
91.091,186.8
91.1159,431.4
91.1457,130.7
91.1498,212
91.243,362
91.2878,122.1
91.3054,17.6
91.3137,129.4
91.3192,143.1
91.3418,239.6
91.3899,124.8
91.4489,22.1
91.4792,243.4
91.4801,105
91.5174,100.6
91.5178,197.5
91.5182,201.8
91.5263,482.3
91.5551,138.1
91.5636,348.6
91.5694,119.3
91.5879,107.9
91.6205,130.8
91.6374,777.6
91.6397,148.6
91.6679,401.1
91.69,712.5
91.7075,332.3
91.7099,166.1
91.7366,750.9
91.7479,938.4
91.7627,88.5
91.7672,452.2
91.7741,506.5
91.7995,239.7
91.8008,104.6
91.8101,18.1
91.8362,312.1
91.8681,90.9
91.8724,386.9
91.9113,181.6
91.9152,423.7
91.9228,19.2
91.9601,20
91.9882,130.9
92.0104,124.4
92.0161,265
92.0421,243.3
92.0493,93.9
92.0519,25.2
92.1206,373.8
92.1239,20.1
92.2044,120.1
92.2226,115.4
92.2455,127.9
92.2558,95
92.2786,163.7
92.2938,91.7
92.2957,218.3
92.306,772.6
92.3166,109.8
92.3221,162.5
92.3856,17
92.4132,286
92.4246,174.4
92.4249,158.4
92.4253,117.5
92.4362,551
92.442,19
92.448,568.5
92.4758,213
92.4854,483.5
92.4897,292.3
92.5055,209.1
92.537,122.7
92.5484,644
92.5544,188.2
92.5803,314.9
92.6322,329.2
92.6328,401.1
92.6643,362.2
92.7103,142.3
92.7151,186.8
92.7236,264.1
92.7358,309.4
92.7389,91.5
92.7611,646.1
92.7726,331.3
92.7818,18.9
92.8096,292.3
92.8227,644.4
92.824,521.4
92.833,261.3
92.8415,342.1
92.8769,199
92.9152,297.6
92.9183,90.3
92.9285,136.1
92.9312,344.8
92.9521,198.2
93.0126,592.1
93.027,317
93.0783,139.2
93.0845,18.6
93.1247,411.2
93.2067,184.9
93.2136,787.2
93.2524,82.3
93.2622,371.9
93.2766,19.6
93.285,20.8
93.3487,628.3
93.3651,120.8
93.4066,480.6
93.4158,176.9
93.4637,157.3
93.4691,448.9
93.524,246.7
93.5324,318.1
93.5478,19.7
93.556,281.6
93.5857,23.3
93.6133,188.2
93.6142,339.3
93.6476,261.6
93.6724,17.1
93.7019,104.4
93.7159,89.5
93.7221,163.3
93.7393,20.5
93.7488,172.7
93.7649,93.8
93.818,281.1
93.8285,825.2
93.8645,19.6
93.8651,15.9
93.8707,19.6
93.8992,185.9
93.9437,155.8
93.9638,129.4
93.9798,525.4
94.038,29.3
94.0412,58323.6
94.043,26.2
94.0929,199.3
94.1091,18.3
94.1162,124.3
94.1359,147
94.1641,18.8
94.1835,147.3
94.1842,18.6
94.1876,331.9
94.1915,419.3
94.2061,19.8
94.2078,85.6
94.2132,561.7
94.2231,918.9
94.2486,131
94.2593,337
94.2862,255.6
94.2915,553
94.3174,263.4
94.3308,128.7
94.3539,386
94.3587,296.7
94.4119,131
94.4209,148.6
94.477,118.4
94.4911,17.4
94.5077,235.6
94.512,559
94.5174,85.7
94.5275,21.5
94.5394,345.2
94.5548,541.2
94.5567,210.4
94.558,496.9
94.5613,248.2
94.566,482.9
94.5791,365.4
94.5874,359.2
94.591,106.5
94.6054,144.2
94.6104,94.2
94.6119,380.4
94.6143,96.3
94.6187,130.5
94.6336,97.3
94.6491,154.4
94.6634,156.6
94.6913,153.6
94.6941,156.5
94.8131,387.8
94.8268,295.9
94.8734,320.1
94.8808,18.5
94.8946,205.6
94.9229,133.2
94.9417,160.1
94.9748,139.6
94.9889,264.9
95.0124,120
95.0357,60.8
95.0426,16.2
95.0429,19.1
95.0446,1692.2
95.0458,25.1
95.0473,101.2
95.049,425316.7
95.0504,232.1
95.0507,165.3
95.0517,59.7
95.0531,17.4
95.0533,16.8
95.0625,87.9
95.0748,95.4
95.0771,148.5
95.0796,258.2
95.0853,880.8
95.0893,25.3
95.1601,482.7
95.1621,101.7
95.165,596.5
95.1839,162.9
95.2258,17.2
95.2266,223.4
95.2327,306.8
95.2703,226.4
95.2988,135.4
95.3068,495.3
95.3622,138.9
95.3829,16.1
95.4404,123.7
95.456,192.2
95.4878,720.1
95.5013,507.7
95.5389,304
95.5549,143.7
95.5647,212.3
95.5655,619.4
95.5963,111.8
95.6626,447.3
95.6772,372.4
95.7914,720.7
95.8047,91.4
95.842,694.2
95.8534,277
95.8702,810.5
95.8846,317.4
95.9227,124.8
95.9307,260.4
95.9941,210.7
96.0523,18927.2
96.0725,724.8
96.0756,206.5
96.0918,513.6
96.1138,137.1
96.1148,558.1
96.1197,115.1
96.1313,126.7
96.1408,19
96.1482,429.4
96.1602,205.4
96.1628,105
96.1753,232.7
96.2038,17.2
96.2068,94
96.2507,194.4
96.2957,166
96.298,1091.1
96.3078,105.4
96.3124,148.2
96.3312,425.1
96.3801,17.3
96.3851,195.7
96.3926,167.1
96.4015,85
96.4246,179.2
96.4388,337.2
96.4967,18.7
96.5477,139
96.5616,190.9
96.6037,128.7
96.6338,434.8
96.6561,534.6
96.6666,194
96.668,156.6
96.6724,559.2
96.6735,178.5
96.7154,128.1
96.719,136.7
96.7287,791.1
96.7306,17.3
96.747,419.4
96.7525,151.7
96.767,787.6
96.7736,357.1
96.7898,18.4
96.7936,17.8
96.8167,137.1
96.8451,288.9
96.8569,736
96.8633,556.3
96.8858,256.6
96.8889,273.1
96.9217,170314.4
96.9375,25.4
97.0075,142.3
97.0105,71.8
97.033,453.7
97.0381,746.8
97.0533,30.5
97.0558,129
97.0632,608.1
97.0648,19.2
97.0676,544.1
97.0876,115.3
97.101,84.9
97.1177,188.2
97.126,247.3
97.1283,115.1
97.1516,133.2
97.16,560.3
97.1694,155.3
97.2761,129.5
97.28,139.7
97.2815,681.8
97.286,94.8
97.3063,307.3
97.323,235.7
97.3636,280.4
97.387,440.9
97.4019,17.8
97.4403,181.6
97.4547,18.1
97.4714,357.3
97.4809,16.9
97.4827,136.3
97.5258,405.2
97.5385,105.9
97.5494,339.6
97.5537,90.5
97.5756,486.9
97.6006,93.8
97.6105,936.6
97.6156,357
97.6678,893.1
97.6872,484.3
97.7714,113.8
97.7951,472.9
97.8,120.9
97.811,116
97.8245,17.1
97.8343,544.3
97.839,148.5
97.8638,943.1
97.9001,19.7
97.9187,623
97.9286,160.7
97.9489,242.6
97.9677,312.5
97.975,159.7
97.9821,436.2
97.9891,320.2
97.9964,99.7
98.0015,102.7
98.0077,502.2
98.0415,114.5
98.0646,114.9
98.0922,734.4
98.1084,260.1
98.1225,102.7
98.1234,332.6
98.1338,456
98.1476,149.1
98.1494,18.6
98.2174,304.2
98.2356,307.1
98.2371,135.9
98.247,17.9
98.2718,106.1
98.309,19.6
98.3151,204.4
98.3331,189.3
98.3356,577.3
98.3446,22
98.347,546.9
98.3621,17.3
98.4299,438
98.4723,556.9
98.4959,99.5
98.5497,299.8
98.5577,457.1
98.5979,311.2
98.6145,145.6
98.6552,467.1
98.6626,17.9
98.6918,489
98.7458,296.5
98.7567,141.8
98.7576,139.4
98.7641,324.2
98.7661,483.8
98.8119,16
98.8619,497.5
98.8964,19.8
98.9187,44688.5
98.9197,8775.4
98.9316,238.5
98.9345,18.4
98.9752,16416.7
98.9841,61.8
99.014,332.3
99.0211,708.4
99.03,18.6
99.034,413.3
99.0477,199.9
99.0544,94.4
99.0721,391.7
99.0789,263.7
99.0916,116.1
99.1172,116.4
99.1306,19.3
99.1588,338.8
99.1818,371.4
99.1872,223.1
99.2123,279.3
99.2608,411.4
99.3917,18
99.3972,105.7
99.4181,212.8
99.4224,134.2
99.4485,298.3
99.4772,20.1
99.5182,341.4
99.5392,93.6
99.5795,131.9
99.5847,318.7
99.5859,498.6
99.6169,19
99.6274,150.7
99.633,454.6
99.6744,84.9
99.6929,19.8
99.7017,572.7
99.7039,17.9
99.723,407.7
99.7267,83.8
99.752,561.2
99.7579,161.6
99.823,19.2
99.8239,96.9
99.8256,181.9
99.8376,776.6
99.8586,424.8
99.8979,405.3
99.8984,403.5
99.9031,226.2
99.9092,22.9
99.96,165.1
100.0235,567
100.0505,331.8
100.0578,162.3
100.0709,21.6
100.0755,230.4
100.0884,821.9
100.1246,121.4
100.1853,299.7
100.1937,201.8
100.2153,97.7
100.2265,93.5
100.248,144.6
100.2539,707.5
100.2785,245.7
100.2855,153.6
100.2943,460.5
100.2995,546.5
100.3347,277.3
100.3446,641
100.397,94.7
100.4024,782.1
100.4063,17.1
100.4247,16.8
100.4259,206.4
100.4428,355.8
100.4502,406
100.4592,18.4
100.4753,128.6
100.476,94.2
100.5085,331.1
100.5119,693.5
100.5178,90
100.5444,461.4
100.5621,83.5
100.5863,334
100.6295,109.2
100.6547,15.9
100.7775,153.6
100.781,95.3
100.8288,18.7
100.8366,478.6
100.8451,562
100.8616,483.8
100.8815,896.6
100.8904,653.1
100.8926,345.9
100.894,17.8
100.9169,1474.2
100.918,198
100.9338,119.5
100.9816,105.4
101.0081,1321.3
101.0197,138.7
101.0307,783.2
101.047,2417.7
101.0523,296.1
101.0708,364.1
101.1059,1005.2
101.1126,237.6
101.1308,136.9
101.1594,351.1
101.1633,196
101.1707,207.8
101.2317,22.5
101.2337,129.6
101.3282,19.4
101.3306,182.1
101.3389,298.8
101.3508,141.7
101.367,124.6
101.3746,255.3
101.4063,89.8
101.4377,170.3
101.4507,700.5
101.4634,180.1
101.4776,236.8
101.5237,679.2
101.5503,302.9
101.6833,127.5
101.7332,706.5
101.74,187.4
101.7782,168.2
101.7876,832.2
101.797,167.2
101.7981,80.7
101.8408,654
101.8742,278.1
101.9031,193.6
101.9599,17.5
101.9636,235.4
101.9721,357.1
101.9956,307.7
102.0059,195.3
102.0351,239
102.0548,4922.6
102.0651,792.7
102.0715,262.8
102.0816,24.3
102.0835,17.7
102.0998,151.9
102.1041,143.9
102.1405,511.7
102.219,114.6
102.2364,17.9
102.2418,766.4
102.2451,92.6
102.2652,229.1
102.3077,417.3
102.3122,90.9
102.3246,654.4
102.3339,239.7
102.4083,373.9
102.4463,774.4
102.4638,102.6
102.5115,186.6
102.5256,132.4
102.5427,155.1
102.5915,705.8
102.5974,343.1
102.6167,114.2
102.6454,480.9
102.7069,431.5
102.711,379.7
102.7158,87.8
102.7247,122.2
102.7285,16.9
102.7341,447.9
102.7576,121.8
102.765,111.3
102.7927,313.9
102.913,369.3
102.9318,298.8
102.9477,40.6
102.9525,87.5
102.958,317.7
102.968,72.1
102.9702,606.1
102.9775,139.6
102.984,24.9
103.0205,121.4
103.0342,138.2
103.0386,374.9
103.0543,130.2
103.0628,238.7
103.0645,462.5
103.1108,104.1
103.1348,90.4
103.1657,137.5
103.171,86
103.1838,119.6
103.2361,463.8
103.3149,151.7
103.3223,464.6
103.3471,426.1
103.3658,224.4
103.3806,643.6
103.4009,16.8
103.4025,245.6
103.41,322.6
103.4256,241.1
103.4275,17.4
103.4323,144.5
103.4494,82
103.5074,150
103.5129,268
103.5138,135.7
103.6118,651.1
103.631,720.9
103.6507,183.4
103.719,110.5
103.7322,186.3
103.7544,217.7
103.7703,361.2
103.7739,490.3
103.7764,753.6
103.7839,348.9
103.7861,18.1
103.8247,107.8
103.9284,264.4
103.9437,239.6
103.9495,191
103.9792,260.4
104.0233,113.8
104.029,480.9
104.0493,98.8
104.1069,613221.9
104.1119,356.7
104.1406,509
104.159,247.4
104.1845,18.1
104.1905,204.2
104.2073,319.2
104.2125,118.8
104.2333,19.5
104.2427,18.6
104.2441,340.9
104.2583,510.4
104.2603,86.3
104.2919,205.6
104.307,232.8
104.3134,160.6
104.3332,517.3
104.344,361.7
104.348,137.7
104.3492,20.1
104.3517,97
104.3581,18.4
104.3841,421.5
104.455,16.7
104.4589,401.3
104.4774,194.8
104.4836,89.5
104.4929,476.9
104.5036,621.5
104.5056,117.8
104.5078,373.3
104.5114,325
104.5437,110
104.5521,157.4
104.5952,454.5
104.5988,144.3
104.616,211.4
104.6235,193.3
104.6242,499.7
104.6326,213.6
104.6894,342.1
104.7219,196.3
104.7766,319.5
104.802,114.8
104.816,343.3
104.8305,150.9
104.9076,29.7
104.9112,283
104.9267,360.5
104.9407,100.3
104.948,86.5
104.9633,3521.2
104.9796,190.6
104.9922,2266
104.9955,484.4
105.0072,159.3
105.0304,117.7
105.0321,102.5
105.0446,38806
105.0698,54.1
105.0859,909.4
105.0927,20.3
105.1059,160.2
105.1102,22882.1
105.135,174
105.1583,557.1
105.1596,133.1
105.1952,152.3
105.2904,138.7
105.3064,194.3
105.3229,704.5
105.3584,486.3
105.372,98.4
105.3918,113.8
105.4129,151.3
105.4185,213.9
105.4295,544.2
105.4563,235.2
105.4708,103.3
105.4815,20.3
105.4826,354.6
105.5221,107.1
105.5587,249.7
105.6482,120.6
105.6829,99.7
105.6864,226.1
105.6926,112.3
105.6976,290.6
105.7367,146.2
105.7617,286
105.7688,126.8
105.7718,145.1
105.806,300.4
105.8303,300.6
105.9196,90.9
105.9428,520
105.9569,143
105.9744,17.7
105.9803,558.4
106.048,880.5
106.0633,136.7
106.0655,401.9
106.0726,590.3
106.0809,85.3
106.091,217.6
106.1206,288.2
106.1263,643.4
106.1788,275.9
106.2262,142.1
106.2298,416
106.2484,107
106.2901,299.8
106.3645,458.5
106.3707,362.7
106.4162,205.6
106.419,91.3
106.4535,112.1
106.4578,696.8
106.4944,590.2
106.507,670.5
106.5414,284
106.5543,263.6
106.5708,172.8
106.5732,307.5
106.5744,183.7
106.6541,190.9
106.6552,424.1
106.6768,136.5
106.6864,142.2
106.6915,17.2
106.7081,135.4
106.7653,796.8
106.8129,441.8
106.8411,693.8
106.8661,347.7
106.888,18.2
106.9146,357.7
106.9435,25.9
106.9505,4395.1
106.9636,17.8
106.9662,327.3
106.9851,412.9
106.9918,57.2
107.0282,115.9
107.0436,342.6
107.0491,597.2
107.0517,186.8
107.0599,389.9
107.0854,38.9
107.0997,297.2
107.1046,272.1
107.118,532.6
107.1206,107.4
107.1634,138.6
107.2329,17.6
107.2799,118.4
107.3413,449.6
107.3681,600.6
107.3939,365.3
107.396,196.1
107.3975,743.6
107.4064,194.7
107.4259,17.1
107.4481,194.6
107.4812,188.2
107.5237,114
107.5425,18.1
107.5728,204.3
107.5755,605.5
107.5827,94
107.6117,146.1
107.6324,158.7
107.6499,477.2
107.6825,118.3
107.7022,19.2
107.7318,108.7
107.7586,171.2
107.7809,207.2
107.8062,123.4
107.8376,228
107.8635,160.5
107.891,174.8
107.8983,136.4
107.945,160.3
107.9712,23.5
107.9796,28
107.9961,153.2
107.9983,108.5
108,18.1
108.0148,572.6
108.0222,382.2
108.0339,349.9
108.0525,17.5
108.0571,21.7
108.0589,118.4
108.1056,263.6
108.1271,129.3
108.184,278.6
108.1872,90.4
108.1991,544.2
108.2109,97.4
108.2152,82.5
108.2182,662.9
108.2381,98.7
108.2395,129.4
108.2967,96.4
108.3062,223.8
108.3497,103.4
108.3796,159.7
108.4302,482.8
108.4465,128
108.4737,767.2
108.4762,548.3
108.4815,142.1
108.5127,205.3
108.5162,149.6
108.5285,735.4
108.5596,89.1
108.567,214.3
108.5699,358
108.6404,141.8
108.6479,467.3
108.6761,16.1
108.6825,142.7
108.7047,330.4
108.7146,17.7
108.7216,92.7
108.7441,306.8
108.7757,368
108.783,507.7
108.8064,82
108.8154,732.5
108.8191,165.7
108.8229,745.8
108.8302,120.5
108.8419,138.2
108.8826,118.3
108.8987,739.4
108.9382,19.4
108.9581,100.6
108.9665,431.8
108.97,501.6
108.9715,495.1
108.9854,498.6
109.0158,153.4
109.0606,30.5
109.0647,62085.9
109.067,22.4
109.1011,584.5
109.1586,559.8
109.1628,440.4
109.2622,171.5
109.267,315.4
109.2692,398.7
109.2944,493.9
109.3473,80
109.3896,163.6
109.3945,257.5
109.4113,333.3
109.4618,470.3
109.4836,438.5
109.4893,132.1
109.5199,114.4
109.5374,338
109.5689,184.9
109.5769,770.8
109.5992,180.1
109.6325,311.6
109.6532,120.4
109.6576,439.7
109.741,159.4
109.8073,120.9
109.8249,187
109.8433,142.5
109.8448,122.1
109.8513,19.7
109.8635,183.2
109.9096,374.7
110.0041,561.3
110.0115,18.4
110.0295,272.5
110.0681,1756.1
110.0712,839.9
110.1114,91.5
110.116,16.9
110.1345,389.1
110.1823,187.9
110.2102,596.1
110.237,18.7
110.2874,240.9
110.2889,161
110.3054,453
110.3091,496.7
110.3116,555.3
110.3146,327.8
110.4909,103.8
110.4922,99.9
110.5026,17.6
110.5297,783.3
110.5544,197.7
110.5684,460.1
110.588,125.7
110.6334,104.5
110.6978,409.8
110.7044,438.8
110.7073,106.7
110.7435,93.6
110.7548,129.3
110.8081,16.8
110.816,18.9
110.8263,15.7
110.8279,478.8
110.8335,319.9
110.8874,158.3
110.9377,545.3
110.9407,458.4
110.9533,321.3
110.973,83.6
110.9753,419
110.983,627.2
110.9856,395.3
110.9911,95.1
111.0232,301.5
111.044,269.6
111.0636,183.3
111.1144,291.1
111.1158,91.8
111.1255,362.5
111.1725,297.9
111.1843,121.8
111.1919,227.8
111.214,105.9
111.2523,15.9
111.2618,142.4
111.27,350.1
111.2937,180.9
111.3494,375.4
111.3789,135.9
111.3848,138.6
111.4029,170.7
111.4111,86.2
111.4385,320.5
111.4945,93.3
111.5231,480.3
111.5467,199.1
111.552,254.2
111.5752,177.5
111.6115,19.2
111.6181,146.3
111.6609,16.8
111.6648,323.9
111.6834,87.6
111.69,286.9
111.6956,488.9
111.7185,446.1
111.8398,223.5
111.8422,423.8
111.8961,125.6
111.9044,16.6
111.9245,172.4
111.9524,775.2
111.9993,124.8
112.0265,449.7
112.0341,135.5
112.0493,106.7
112.0637,262.1
112.0657,18.1
112.0791,164.2
112.0994,101.7
112.1036,266.9
112.1286,230.9
112.139,635.7
112.141,124.4
112.1519,105.3
112.1541,123.4
112.1722,111.9
112.1788,521.3
112.1818,100.8
112.236,102.7
112.24,292.8
112.2503,168.1
112.2735,17.3
112.3035,21
112.4113,94
112.4126,293.6
112.4602,271.1
112.5283,432.9
112.5324,387.2
112.5352,375.2
112.5383,784.2
112.5574,219.2
112.5656,445.8
112.5668,20.1
112.6095,443.3
112.6303,508.1
112.6557,311.8
112.6593,109.1
112.749,997.2
112.7629,87.6
112.7696,303.8
112.7702,309.3
112.8013,311.3
112.8056,286.5
112.8147,205.8
112.8434,313.7
112.8453,17.9
112.8957,482089
112.925,127.1
112.9261,16.2
113.0634,95
113.1077,700.7
113.1152,374.1
113.1238,574
113.1519,703
113.1977,207.4
113.2444,18.3
113.2556,102.7
113.2652,255.3
113.3118,351.4
113.3217,261.8
113.3367,18.1
113.364,448.9
113.3979,88.7
113.4158,21.4
113.419,17.7
113.4229,348.4
113.4363,139.1
113.4444,247.7
113.4568,16.8
113.4614,364.6
113.5036,17.6
113.5253,100.4
113.5296,202.9
113.5484,178.4
113.5686,270.9
113.6005,19.7
113.6506,391.3
113.6632,439.8
113.7101,19.9
113.7674,223.4
113.9601,323.5
113.9637,27
114.0446,430.2
114.0549,52629.4
114.0707,18.4
114.0867,160.6
114.0912,42.1
114.0942,18.1
114.1081,406.7
114.111,131.5
114.1165,402.7
114.1201,339.2
114.1429,158.3
114.1559,120.8
114.2255,747.7
114.2295,512.8
114.2454,544.5
114.252,197.1
114.2632,161.8
114.275,86.7
114.276,117.9
114.2891,685.5
114.2907,176.9
114.3019,125.1
114.3247,161.5
114.3741,271.3
114.3834,21.9
114.3861,115.2
114.4509,19
114.4881,699
114.4973,546.1
114.5051,98.6
114.5083,330.1
114.5215,158.8
114.5414,151.7
114.5922,325.2
114.6218,19.1
114.6336,126.8
114.6776,88.6
114.7064,183.2
114.7093,470.4
114.7464,527.4
114.767,191.9
114.7837,20.3
114.799,160.3
114.8473,593.5
114.8559,107
114.8854,19.7
114.8927,149991.8
114.9262,308
114.9481,476.1
114.9775,104.8
114.9927,136.3
114.9974,349.9
114.9983,165.3
115.0013,443
115.0186,21.4
115.0504,193.2
115.0582,1156.1
115.0626,17.3
115.097,757.3
115.1397,264.7
115.1478,163.9
115.18,112.2
115.1925,112.6
115.3647,20.2
115.3662,267.8
115.3726,639.8
115.4425,20.6
115.4808,500.8
115.5637,130.1
115.6286,368.9
115.6954,291
115.7489,757.3
115.7772,265.2
115.8214,128.6
115.8461,320.2
115.8799,566.5
115.9089,169.1
115.9309,329.5
115.9456,89.6
115.9531,167
115.9793,588.9
116.0257,748.1
116.0476,136.4
116.0538,271.2
116.0705,3154.5
116.0833,339.4
116.2038,349.4
116.2146,428.1
116.2525,194.1
116.2934,21.3
116.3023,97.4
116.3452,114.6
116.3909,145.1
116.3969,123.5
116.3995,416.3
116.4201,479.2
116.4649,259.7
116.5156,346.6
116.5585,141
116.6177,17.8
116.6293,17.2
116.6556,428.9
116.6678,19.7
116.6838,267.6
116.6912,167.3
116.7265,145.9
116.7371,771.4
116.7485,739.3
116.7524,270.5
116.7898,119.6
116.8463,225.7
116.8476,88.5
116.8564,269.7
116.8908,15891
116.905,270.7
116.9249,91
116.9616,127.9
116.9633,145.7
116.9739,155.2
116.9803,175.9
116.984,30.2
116.9858,2340
117.03,325.6
117.0443,123.2
117.0543,18.5
117.0699,51.1
117.1065,108.2
117.1415,555.1
117.1525,521.5
117.2477,409.3
117.2503,19.7
117.2587,498.9
117.2959,285.2
117.3177,17.9
117.355,139.4
117.377,123.6
117.4341,183.2
117.4514,93.8
117.4703,135.6
117.4731,124.6
117.5148,155.9
117.5223,318.4
117.5692,17.6
117.6304,140.7
117.6649,83.9
117.6722,190.1
117.6819,17
117.7135,259.7
117.7225,125.5
117.7396,348.8
117.7594,320.3
117.8357,496.6
117.8497,597.4
117.8871,425.1
117.9418,134.1
118.0144,419.6
118.0236,251.8
118.0548,128.9
118.065,353.4
118.1064,246.7
118.1302,17.4
118.1426,549.4
118.152,301
118.1544,19
118.1927,671.3
118.2194,170.8
118.2226,22.8
118.2482,173.9
118.3025,350.3
118.318,111.5
118.3194,298.3
118.3224,91.3
118.341,456
118.3754,506.5
118.3959,323.3
118.4189,189.6
118.4332,317.1
118.4351,574.3
118.4406,294
118.4445,159.4
118.4669,140.9
118.4717,19
118.4885,19.3
118.563,129.8
118.6032,329.4
118.6214,165.6
118.6234,97.5
118.6522,270.6
118.6601,19.5
118.6702,193
118.6775,405.1
118.694,148.8
118.708,287.1
118.7185,163
118.7645,172.5
118.7855,545.6
118.8165,18.2
118.8237,173.7
118.8381,17.1
118.8662,654.6
118.8735,810
118.8911,185.7
118.8931,386.7
118.9036,17.9
118.9082,300.9
118.9372,283.8
118.9426,595.6
118.9617,518.9
118.9678,152.4
118.9789,643.4
118.9954,252.9
119.0394,100.9
119.0652,880.7
119.0854,382.6
119.1085,113.9
119.1299,425.3
119.1379,117.6
119.1396,20.6
119.1442,155.5
119.2047,100.1
119.2185,504.6
119.225,165.1
119.2324,484.3
119.2412,168.5
119.2965,23.1
119.3205,146
119.3643,19.1
119.4117,319.6
119.4443,17.1
119.4594,340.1
119.4764,214.6
119.5281,394.1
119.5652,301.2
119.5713,122.7
119.6527,384.9
119.6913,788.6
119.7055,91.8
119.7135,16.7
119.7233,408.8
119.7385,88.3
119.7399,21.7
119.7554,719.1
119.8127,727.3
119.818,109.3
119.9015,470.7
119.9545,435.1
119.9807,19.7
120.0032,5285.5
120.0188,194.7
120.0807,10989.1
120.0903,135.6
120.1131,272.2
120.145,314.7
120.1465,235.2
120.1535,92.6
120.1574,16
120.2011,134.9
120.253,574.7
120.261,18.8
120.3118,195.2
120.3332,178.6
120.3846,226.6
120.4093,976.4
120.4363,177
120.4492,303.5
120.4557,20.9
120.519,823.7
120.537,374.9
120.5822,170.4
120.5942,180.7
120.6525,24.6
120.6706,91.9
120.7024,118.4
120.7057,330.6
120.7164,429.3
120.7195,987.7
120.7257,252.8
120.8067,430.3
120.8267,101.8
120.8566,542.5
120.8815,116.5
120.9092,867.3
120.922,101.5
120.953,106.3
120.9546,189.9
120.9607,199.3
120.9628,258.2
120.9662,524.9
120.9794,48.8
120.9808,111.5
120.9824,553.1
120.9977,16.8
120.9992,816.6
121.0076,317.8
121.0221,19.9
121.0283,375.6
121.0395,49.3
121.101,856.6
121.1892,780.7
121.2105,810.5
121.2675,111.8
121.3477,188.1
121.3564,375.7
121.3841,269.8
121.3869,204.5
121.393,91.6
121.4108,101.8
121.4255,734
121.4311,97.7
121.4453,203.2
121.4719,115.7
121.4789,85.1
121.4895,467.5
121.4921,104.3
121.5005,149.2
121.5849,17
121.6343,237.6
121.6596,148.9
121.6653,343.4
121.6776,212.3
121.6819,500.9
121.6886,214.4
121.7032,158.2
121.7642,243.6
121.802,342.4
121.8433,299.7
121.8501,110.1
121.8532,115.6
121.9551,131.9
121.9688,548.7
121.9857,300.3
122.0402,233.2
122.1002,628.4
122.1462,178.4
122.1687,322.5
122.1713,125.3
122.1768,134.9
122.1894,442.5
122.2131,101.3
122.2453,157.5
122.2475,317.2
122.2968,857.2
122.3579,341.4
122.3898,188.6
122.4016,476.3
122.4067,16.4
122.4082,120.2
122.4463,118.2
122.4768,332.5
122.4956,19.4
122.5201,476
122.5308,340.8
122.6479,233.9
122.6539,676.4
122.6697,103.4
122.6835,115
122.6977,459.1
122.7134,85
122.7763,238.7
122.804,129.1
122.822,157.6
122.829,17.4
122.9245,24256.1
122.9411,143.1
122.9447,240.6
122.9493,807.2
122.9739,140.7
123.0057,286.7
123.0413,134.2
123.0445,508.6
123.046,335.2
123.0498,88.7
123.0668,304.3
123.0798,209
123.1165,436.8
123.1817,570.4
123.282,485.4
123.2884,323.1
123.316,243.4
123.3387,155
123.3436,459.2
123.3773,84.3
123.3891,213.4
123.4892,137.5
123.4942,150.5
123.5002,122.5
123.5148,16.6
123.5251,18.3
123.5584,512.3
123.6272,141.4
123.6351,443.9
123.7092,18.6
123.7144,179.5
123.7445,320
123.7873,109.6
123.8862,141.4
123.8886,187.6
123.9241,198.4
123.9271,571.6
123.9447,149.3
123.9571,115.2
124.0064,465.1
124.0937,501.9
124.1288,345.3
124.1447,205.2
124.1784,136.5
124.2118,20
124.2176,339.5
124.2453,859.5
124.2476,225
124.2949,552.5
124.2968,299.9
124.3445,383.5
124.3813,664.2
124.4795,171.9
124.5148,442.7
124.5322,212.3
124.5941,384
124.6441,842.7
124.649,492.8
124.6854,130.5
124.7047,106.7
124.7244,289.2
124.7273,176.9
124.7416,591
124.7454,19.1
124.7713,20.5
124.8108,157
124.8556,122.3
124.8732,246.1
124.8839,109.8
124.8977,749.8
124.9013,210.6
124.9226,3351.4
124.9865,420.5
124.9998,9207
125.0056,843
125.0389,285.9
125.0597,69.1
125.0631,573
125.0812,136.5
125.1067,492.5
125.116,280.5
125.1315,208.6
125.1373,15.9
125.1672,399.4
125.2009,136.6
125.2201,103
125.2595,16.8
125.3415,17.2
125.3501,101.5
125.4143,273.6
125.4227,301.6
125.4474,17.3
125.4549,92.8
125.4599,547.3
125.4696,152.2
125.491,474.9
125.5113,158.1
125.5133,19.3
125.5714,494.7
125.6402,722
125.686,321.1
125.7071,120.1
125.7321,167
125.8033,18.5
125.8804,150.7
125.9031,215.3
125.9474,17.1
125.9818,16.5
125.9988,829.9
126.0001,116.3
126.0089,29.5
126.0168,149.9
126.0385,17.1
126.0524,85.9
126.0562,17.5
126.1125,430.4
126.1328,536.2
126.1548,425.5
126.2132,106.8
126.2429,96.3
126.2601,767.4
126.3423,168.3
126.3871,272.6
126.3905,428.1
126.41,170.4
126.4392,19.8
126.4558,307.4
126.4827,331.5
126.4877,20.3
126.5749,497
126.6117,187.1
126.6369,166.2
126.6701,501.2
126.687,506.7
126.6959,284.9
126.7196,824.1
126.7291,120
126.7466,19
126.7571,152.5
126.8023,259
126.834,113.6
126.8476,618.5
126.8763,251.6
126.8784,17.7
126.9008,146.7
126.9385,23.7
126.9442,19.4
126.9504,272.8
126.9633,130.6
126.994,192.6
127.0478,300.3
127.0991,18.1
127.1462,749
127.1747,303.8
127.1929,447
127.2583,112.1
127.2615,169.7
127.263,542.8
127.2879,403.3
127.3086,292.8
127.3465,403.8
127.3743,19.1
127.3899,140.7
127.4326,199.1
127.4628,176.8
127.5205,539.5
127.5968,195.5
127.6739,136.3
127.6767,19.6
127.6807,285.3
127.6929,764.3
127.7627,427.1
127.7985,380.2
127.8732,320.1
127.9031,205.1
127.9173,136.9
127.9292,128.4
127.9483,241.3
127.9809,95.7
128.0318,186.5
128.0558,84.2
128.0745,18.9
128.0941,617.6
128.1071,21.3
128.1678,304.7
128.1922,104.2
128.1961,478.9
128.2471,145
128.2778,483.7
128.2856,476.6
128.2897,263.5
128.3103,333.7
128.318,91.2
128.3302,282.2
128.3415,343.8
128.3442,242.1
128.3955,621.8
128.4499,240
128.4607,362.5
128.4662,237.2
128.5355,116.7
128.5436,351.4
128.577,245.2
128.5796,119.1
128.6652,130.7
128.6743,498.4
128.7037,448.1
128.724,269.8
128.7264,17
128.7429,352.2
128.7587,18
128.7641,130.4
128.7962,272.1
128.8282,132
128.8537,426.9
128.8887,122.1
128.8918,19.7
128.9639,244.7
128.9699,210.8
128.9791,481
128.9862,465.9
129.0033,773.1
129.0369,109.5
129.0658,240
129.1021,590.1
129.1236,232.1
129.127,19.3
129.2275,221.4
129.2358,370.9
129.2479,92.2
129.2784,155.1
129.3166,99.6
129.3268,108.6
129.3342,407.8
129.3994,320.8
129.4201,105.7
129.5416,448.5
129.616,100.9
129.6703,129.2
129.7524,340.2
129.8408,17.6
129.9239,662.4
129.9429,317.6
129.9586,186.2
129.995,65.8
130.0192,16.3
130.0254,282.3
130.04,549.5
130.0498,5002.8
130.0568,359.9
130.0772,291.9
130.1558,327
130.2249,19.2
130.2309,431.3
130.254,176.9
130.266,162.7
130.2724,726
130.3709,20.1
130.3786,18.8
130.3921,160.3
130.434,387.8
130.4393,107.4
130.4452,17
130.4671,91.1
130.4753,155.2
130.497,928.6
130.5424,537.2
130.5551,134.5
130.5964,127.6
130.6618,243.7
130.7352,185
130.7424,107
130.782,522.1
130.8482,18.6
130.8675,20.7
130.8875,17.9
130.8954,348.7
130.9054,135
130.9169,19.1
130.9394,565.1
130.9753,558
130.979,43.5
130.9838,232.1
131.0001,81.9
131.0016,96.4
131.0089,107.6
131.0516,470.6
131.071,646.7
131.0714,693.4
131.072,484.2
131.089,133
131.1063,197.4
131.1709,92.7
131.1936,17.5
131.2128,146.4
131.2316,130.2
131.2473,201.4
131.2612,139.8
131.2939,144
131.3498,615.1
131.3528,339.5
131.4232,235.4
131.4591,459.8
131.4878,167.3
131.5928,123
131.6097,307.8
131.6413,579.7
131.6697,19.1
131.8288,578.4
131.873,499.4
131.9216,128.3
131.9846,841.6
131.9907,450
132.0032,27342.2
132.0061,136.8
132.0255,22.8
132.0637,399.8
132.0655,88413.7
132.1072,345.2
132.1105,150.8
132.1253,19.2
132.1374,460.3
132.1474,116.1
132.2039,548
132.2226,142.6
132.2806,476.2
132.3194,218.3
132.3453,201
132.3757,171.8
132.4139,134.3
132.4355,319.3
132.4394,25.2
132.4494,141.8
132.5481,322.7
132.6508,360.3
132.6994,427.4
132.8084,568.9
132.8252,569.8
132.9361,488.7
132.9498,245.4
132.9583,639.6
132.9694,69.7
132.9735,526.6
132.9872,5068.6
132.9955,96
133.0211,286.8
133.0243,306.6
133.0366,539
133.0622,154.1
133.0689,1649.4
133.0714,101.2
133.081,242.1
133.0859,25.9
133.0927,285.7
133.0971,16834.1
133.1013,261.7
133.1185,409.8
133.161,103.5
133.1625,455.9
133.1651,19
133.1807,929.9
133.1957,227.4
133.2133,113.4
133.222,301.2
133.2754,483.7
133.2784,254.7
133.2856,475.7
133.2989,556
133.3047,238
133.3135,322.1
133.3357,297.6
133.3496,389.1
133.3539,258.7
133.441,208.9
133.4442,23.5
133.4584,19.2
133.5119,197.1
133.5443,606.1
133.5556,167.7
133.5874,181.8
133.5964,21.3
133.5983,147.4
133.6163,337.3
133.6286,95.3
133.6572,409.1
133.6688,273
133.6787,431.4
133.7494,132.9
133.7638,158.9
133.8404,362
133.9007,259.7
133.9101,22.6
133.9755,85
133.9811,18.7
134.0015,725.7
134.0189,20377.8
134.0406,99.3
134.054,316.7
134.072,676.8
134.1095,117.4
134.1212,18
134.1305,111.3
134.1483,84.3
134.1728,148.1
134.233,172.9
134.2685,205.1
134.2958,121
134.3366,758.5
134.3998,174.3
134.4429,18.5
134.4552,149.1
134.4873,729.5
134.4892,357.2
134.5213,242.8
134.5333,132.1
134.5784,90.2
134.6128,238.2
134.6248,306.7
134.6506,89.3
134.733,154.1
134.845,18.7
134.9564,411.2
134.9647,651.4
134.974,25.5
134.9892,94
134.9966,34.5
135.0029,122251.8
135.0783,136.2
135.1169,54.8
135.1456,173.6
135.1528,17.5
135.1809,17.5
135.1881,119.7
135.2233,171
135.2415,20.1
135.2673,89.1
135.2781,542.1
135.2965,991.3
135.3047,146.6
135.3262,507
135.3299,88.7
135.4102,512.9
135.4235,87.9
135.5289,323.8
135.645,453.8
135.6576,339.7
135.6618,90.5
135.6874,579.1
135.692,293.5
135.7105,207.9
135.7413,431.6
135.7529,643.8
135.7574,317.9
135.8278,134.8
135.8799,151.7
135.8921,374.5
135.9041,930.9
135.9704,88.5
135.9772,3422.3
135.9827,162.7
135.9929,663.9
136.0328,93.5
136.0481,4890.6
136.0598,427.5
136.0645,726.1
136.0757,7902
136.0804,138.9
136.1002,139.7
136.162,238.9
136.1766,313.3
136.1793,23.4
136.183,89
136.3146,443
136.3593,701.4
136.4309,182.2
136.4423,481.9
136.4603,19
136.4902,280.5
136.5162,285.7
136.5546,84.5
136.5666,203
136.5875,94
136.5898,84.2
136.5977,493.9
136.6149,135.8
136.6288,227.2
136.6513,118.6
136.6701,18.1
136.6735,491.5
136.7007,89.4
136.7113,204.3
136.7262,539.1
136.727,506.7
136.7673,20.2
136.7697,160.1
136.7981,189.8
136.7997,547
136.8169,146.5
136.8214,208.2
136.8438,17.2
136.8737,342.9
136.9242,629.5
136.95,550.4
136.9532,174.8
136.9861,294.4
136.9895,102.8
136.9974,283.3
137.0045,19.5
137.0599,21
137.0717,710.8
137.0817,212.4
137.1323,359.6
137.1525,113.6
137.2215,436.8
137.2355,116.2
137.3086,210.2
137.3888,18.1
137.3932,158.6
137.4013,95.3
137.4123,340.1
137.4503,180.9
137.4975,275.9
137.5988,131.7
137.6061,332.5
137.6123,364.8
137.6621,211.1
137.7105,231.2
137.7197,126.5
137.7249,19.1
137.7306,356.4
137.741,203.8
137.7606,162.7
137.7847,138.9
137.7897,21.6
137.8006,199.9
137.8371,88.8
137.8449,379
137.9002,148.7
137.9556,189.6
137.9589,282.7
138.0232,444.8
138.0525,6634.8
138.0662,87.8
138.1276,600.2
138.1568,711.9
138.1778,446.1
138.1812,170.8
138.1887,384.7
138.1929,451.3
138.2252,799.6
138.2444,19.3
138.3096,17.5
138.313,391.9
138.3643,326.9
138.3813,394.5
138.3986,421.5
138.4044,245.8
138.436,119.5
138.443,657.4
138.4551,145.2
138.4627,128.6
138.4748,609.1
138.5886,104.2
138.6303,143.1
138.6546,158
138.6941,540.8
138.6958,629.2
138.8187,97.2
138.8418,472.4
138.8482,775
138.8855,124.8
138.9065,2541.7
138.9198,124.5
138.9396,780.5
138.9505,95.7
138.9556,140.6
138.9662,147.5
138.9841,17.5
138.9918,379.1
139.0272,611.2
139.19,18
139.1923,282.9
139.2281,207.8
139.2342,1032.6
139.3048,294.9
139.3357,19.6
139.3415,235.3
139.3719,764
139.4005,146.7
139.4036,219.1
139.4418,595.3
139.4646,369.3
139.4861,165.7
139.5354,154.9
139.5602,19.6
139.5613,206
139.628,159.5
139.6724,107.3
139.6857,19.3
139.6931,110.8
139.7311,494.5
139.7425,378
139.7505,225.1
139.8064,21.6
139.8303,864.2
139.8698,172.9
139.9644,346.7
139.9961,382
140.0165,3716.8
140.0683,4914.4
140.1188,19
140.1364,321.4
140.152,130.9
140.2184,135.7
140.2274,298.6
140.2519,176.8
140.2889,790.3
140.3079,100.9
140.3426,282.9
140.3554,519.4
140.3624,17.4
140.4179,569.2
140.45,457.8
140.4844,519
140.5432,755.2
140.6637,97
140.7444,545
140.7601,358.7
140.7637,96.4
140.9036,1774.8
140.9438,754.9
140.9628,826.6
140.9674,200.9
140.9979,19
141.0005,16459.6
141.0199,153.6
141.0433,438.4
141.0532,170.8
141.0732,167.5
141.0929,137.9
141.202,21.5
141.2191,19
141.2397,21.9
141.2683,316.8
141.2721,427.6
141.278,386
141.3428,462.3
141.35,318.3
141.3661,336.9
141.3765,435.2
141.4472,94.9
141.4768,132.7
141.4994,19.1
141.5656,17.3
141.5813,321.2
141.7036,362.1
141.7683,109.1
141.7801,125.7
141.8093,128.8
141.8633,402.4
141.8763,721.8
141.899,305.7
141.9094,353.6
141.9121,617.5
141.9172,369.5
141.9247,140.1
141.9386,87.1
141.9488,266.3
141.995,241
142.0039,411.1
142.0124,40.1
142.0153,19.2
142.0496,156.4
142.0649,489.9
142.0942,294.2
142.1624,20.8
142.2302,22.2
142.3021,112.9
142.3217,94.7
142.3587,776.3
142.5002,95.6
142.5431,284.1
142.5494,289.1
142.5782,581.3
142.6173,835.3
142.6248,284.3
142.6335,110.2
142.6459,93.4
142.6794,226
142.6847,123.4
142.7108,206.9
142.7725,142
142.8229,834.8
142.8499,205.1
142.881,688.8
142.9386,164.2
142.9765,275.4
142.9964,293.2
142.9997,310.1
143.0047,111.2
143.007,19.2
143.0089,113.7
143.0191,2690.7
143.0289,109.9
143.036,164.1
143.0426,175.4
143.0433,241.7
143.0729,767.8
143.0814,343.1
143.089,100.2
143.2291,221.5
143.2445,19.8
143.292,97.4
143.3405,181.8
143.3968,16.5
143.4234,229.5
143.4523,359.8
143.4879,92.3
143.5071,141.8
143.5344,813.1
143.5996,504.6
143.6081,175.2
143.6449,681
143.6981,778.9
143.7328,229.3
143.7428,95.5
143.8445,792.4
143.8495,297.3
143.8914,416.4
143.9021,125
143.9155,248.9
143.995,164.3
143.9969,131.1
144.0107,849.4
144.0417,386.1
144.1048,205.6
144.1335,329.7
144.138,485.9
144.253,102.7
144.2876,18.7
144.2995,164
144.3042,383.9
144.3176,347.6
144.3877,20.9
144.3926,959.1
144.4125,18.8
144.4355,502.4
144.4375,262.9
144.4475,99.4
144.454,456.2
144.505,436.9
144.5506,810.8
144.5719,159.9
144.6042,179.8
144.6129,290.5
144.6149,101.6
144.6169,261
144.6246,19.2
144.6251,23.7
144.6258,18.1
144.6412,179.1
144.6564,95.6
144.6645,611
144.7588,19.9
144.7641,136.4
144.8558,1147.7
144.903,18.1
144.9211,688.5
144.933,347.4
144.9703,18
144.9808,2994
144.987,173.2
144.989,169.8
144.9945,27.7
145.0121,19.4
145.0173,484.8
145.084,91
145.1871,482.3
145.2393,582.8
145.2591,88.5
145.2763,100.7
145.3089,23.5
145.3117,282.6
145.3477,146.5
145.4411,339.5
145.4529,303
145.4762,776.7
145.4961,442
145.5355,133.2
145.5378,663.4
145.5635,19.2
145.6174,569.5
145.6207,332.4
145.6246,994.6
145.6406,551
145.661,22.6
145.6696,516.8
145.6994,92.8
145.7539,434.6
145.7612,347.7
145.8068,21
145.8716,129.6
145.8922,465.3
145.9068,487.2
145.9223,285.7
145.9575,221.1
145.9646,999.6
145.9934,443.6
146.0125,5543.6
146.0189,18096
146.0253,581
146.0497,119.9
146.0505,113.4
146.1768,329.6
146.1947,493.6
146.2334,526.3
146.2383,18.3
146.2431,290.1
146.3055,306.4
146.3161,121
146.3438,188.7
146.397,205.2
146.4554,365.4
146.4846,163.5
146.5167,98.1
146.5202,122.2
146.5254,484.7
146.5304,19.7
146.5399,113.3
146.5411,141.8
146.546,19.3
146.6417,142.7
146.6629,126.7
146.6652,128.5
146.6725,500.1
146.6841,548.5
146.6988,297.8
146.8629,302.6
146.8683,19.9
146.8788,364.3
146.8855,338.1
146.8939,334.9
146.9053,20.7
146.9151,479.9
146.9354,366.3
146.9483,20.8
146.9818,145293.4
147.0036,112.3
147.052,700.4
147.0539,538.5
147.0709,311.8
147.0765,44006.4
147.1004,80.4
147.1128,25107.4
147.1169,375.1
147.127,188.8
147.3296,338.1
147.391,324.5
147.4139,482.2
147.4417,86.7
147.4569,338.9
147.4634,274.5
147.4752,255.6
147.489,97.3
147.5323,267.2
147.5414,109.7
147.5685,113.8
147.5732,138.4
147.575,281.4
147.5963,403.9
147.6138,136.5
147.6207,435.4
147.6227,143.1
147.7016,18.5
147.7821,344.8
147.8234,480.5
147.8393,464.6
147.8457,312.9
147.8837,226.6
147.9005,461.8
147.9239,88.5
147.9261,399.9
147.9441,110.4
147.9854,857.3
148.0385,759.2
148.0783,411
148.1491,84.9
148.2431,397
148.2542,311
148.2846,587.2
148.3561,473.9
148.3914,119.9
148.4498,507.3
148.4873,96.3
148.5107,140
148.5322,5328.9
148.5411,165.7
148.5444,507.9
148.5668,189.5
148.668,104
148.6744,131.4
148.6974,387.3
148.7152,257.3
148.8661,161.9
148.8804,622
148.936,19.6
148.9612,4242.8
148.9712,818.1
148.9888,110
148.9992,114.9
149.0027,48.7
149.0186,4798.8
149.0234,5010.7
149.0998,334.6
149.1198,411.6
149.1252,468.4
149.1326,275.2
149.1508,361.1
149.2542,163.9
149.3287,127.1
149.5653,19.8
149.6926,18
149.7742,716.8
149.8441,387.6
149.9191,121.8
149.9716,725.2
149.9929,13375.2
150.0085,175.2
150.0138,8353.2
150.0268,129
150.0343,469.1
150.1282,23.1
150.3121,528.8
150.3378,301.2
150.3448,136.1
150.3506,363.8
150.4333,112.8
150.4701,342.2
150.4859,21.8
150.4932,474.4
150.5214,358.9
150.5688,406.6
150.6273,248.2
150.6499,293.6
150.6897,431.1
150.7299,118.7
150.7435,376.1
150.7487,171.9
150.7762,95.7
150.8277,354.5
150.8546,376.1
150.8838,163
150.9426,593.2
150.9643,18.8
150.969,31.6
150.9769,75873.8
150.9791,995.9
150.9841,3957.7
150.9956,136.8
151.043,202.9
151.0448,149.6
151.0479,1941.3
151.0542,347.6
151.0921,18.5
151.0957,19.9
151.1032,109.7
151.125,238.5
151.1985,127.2
151.2247,764.9
151.2902,126.8
151.301,417.8
151.3226,289.1
151.3689,100.6
151.3735,126.2
151.3819,121.1
151.4117,18.8
151.4444,310.6
151.4663,149.1
151.5153,134.8
151.5748,203.7
151.6776,115.1
151.6887,93
151.7138,126.9
151.7441,131.8
151.8072,104.9
151.8475,235
151.9802,375.7
151.9876,193.6
152.0221,7504.2
152.0318,3417.5
152.0791,302
152.1061,145
152.1214,16.9
152.1451,91.3
152.3021,495.2
152.3363,190.2
152.3743,484.1
152.3851,473.1
152.4002,86.5
152.419,205.9
152.4254,644.5
152.4325,21.2
152.4663,104.4
152.5275,326.1
152.642,198.6
152.6457,465.3
152.6705,161.7
152.6819,119.2
152.6952,182.2
152.7739,319.5
152.8235,93.1
152.8291,315
152.8735,19
152.8784,116.2
152.9027,17.9
152.9531,89.7
152.9648,20.7
152.975,4374.9
152.9834,17.7
152.9968,95.9
153.0094,392.9
153.0337,201.9
153.0459,323.7
153.0528,170.4
153.0795,22.7
153.0963,347.9
153.1312,23.5
153.2417,327.1
153.2749,618.4
153.3646,148.2
153.4451,207.4
153.486,135.5
153.4967,96.3
153.5725,166.8
153.5889,520.7
153.6215,216.9
153.6351,145.1
153.7258,148.6
153.8074,371.9
153.8364,85.8
153.9129,753.9
153.9147,252.9
153.9358,125.7
153.9873,406.4
154.0114,321.2
154.0172,568.9
154.0265,819.6
154.0316,102.4
154.0385,538.8
154.0779,352.7
154.1704,224.8
154.2496,298.3
154.2735,17.8
154.3512,299.4
154.4052,114.4
154.4165,203.3
154.4201,139.8
154.4242,685.5
154.4368,526.8
154.4799,909.5
154.5187,113.7
154.5378,172.4
154.6016,93
154.6652,343.7
154.7304,117.3
154.7355,134.3
154.7447,140.7
154.763,441.8
154.7956,184.6
154.7998,378.1
154.8219,361.1
154.8411,215.8
154.8645,89.6
154.8806,308.4
154.9075,72.1
154.9185,20
154.9693,340.6
154.9818,503.8
155.0282,105.3
155.0428,1797.1
155.0492,306
155.054,3976.5
155.0793,891.3
155.1035,137.4
155.1216,87
155.1619,245.9
155.1678,525.1
155.2076,95.5
155.2466,531
155.292,18.3
155.4152,124.4
155.4599,469.7
155.5293,493.4
155.5394,114.8
155.5487,135.1
155.5826,98.1
155.7111,334.8
155.7369,319.3
155.7467,131.9
155.7497,18.4
155.7686,143.7
155.7791,383.9
155.8099,117.7
155.8249,109.8
155.868,194.2
155.9177,151.7
155.9224,499.7
155.9242,317.2
155.9669,152.5
156.0422,5688
156.0574,47.4
156.0768,42173.6
156.0846,253.6
156.2274,322
156.2482,136
156.2797,157
156.3154,16.4
156.3644,251.6
156.446,18.6
156.5635,103.5
156.5999,736
156.6217,176.2
156.6434,122.4
156.7566,290.1
156.8292,144.1
156.8311,163.4
156.883,300.8
156.8846,315.9
156.8969,119.3
156.9341,239.9
156.9408,345.9
156.9941,116.2
157.0062,41.7
157.0238,344.1
157.036,267.9
157.0702,835.4
157.0832,18.9
157.0973,138.7
157.1096,132
157.1125,134.2
157.1538,17.5
157.2106,437.3
157.2352,133.6
157.2806,231.8
157.3166,22.3
157.3347,202.4
157.421,143.6
157.5159,110.7
157.5598,252.4
157.5719,320.5
157.638,376.6
157.6505,284.5
157.7147,116.5
157.7606,101
157.7755,99.3
157.8148,303.2
157.8187,170.9
157.8698,776.6
157.9559,125.3
157.9584,217.1
157.9644,549.5
158.0123,1481.9
158.0271,3237.3
158.0519,138
158.0932,385.7
158.2074,106.1
158.2098,474.7
158.2226,439.7
158.2369,341.6
158.2517,244.9
158.2958,23.9
158.3092,108
158.4289,22.9
158.4895,1075.3
158.5061,105.6
158.5154,498.8
158.5302,179
158.5822,243.8
158.6331,99.7
158.6414,22.9
158.6571,577.1
158.6622,133.2
158.6829,470.4
158.7204,143.7
158.7472,457
158.7588,700.5
158.77,150.7
158.8088,164.4
158.8615,449
158.8943,84.1
158.9278,2334.5
158.9409,525.6
158.9642,15476.9
158.991,136.5
158.9965,11257.3
159.0112,20.5
159.0305,150.6
159.0526,257.8
159.1861,95.6
159.1927,551.3
159.2339,132.8
159.303,452.9
159.4024,136.5
159.4736,363
159.5517,120.8
159.5928,126.7
159.6134,336.3
159.6247,138.2
159.6389,313.3
159.6472,424.4
159.6495,174.4
159.7108,117.8
159.7367,17.2
159.7389,875.3
159.7549,25.2
159.7972,162.9
159.8028,471.7
159.8253,409.6
159.8293,370.5
159.8505,288.9
159.8626,209.4
159.8669,231
159.8729,557.7
159.8856,109.8
159.9271,883
159.955,405.9
159.9839,385.5
160.023,71.1
160.0284,454.3
160.0346,14215.5
160.0544,16.9
160.0605,99402.3
160.0811,167
160.0908,402.1
160.1045,522.5
160.1788,167.6
160.2354,20.3
160.2405,356
160.2769,504
160.3022,104.3
160.4417,547.2
160.4706,621.3
160.4805,318.8
160.4876,120.4
160.5293,862.8
160.5549,226.6
160.6371,478.7
160.6468,88.6
160.7767,186.9
160.7853,90.4
160.8356,142
160.857,137.4
160.8865,430.8
160.9052,111.2
160.9116,785.5
160.937,480.1
160.9913,527.6
161.0044,171.3
161.0133,112.4
161.0186,850.1
161.0274,271.3
161.0639,3793
161.0847,132.2
161.0947,406.8
161.1088,150.1
161.1286,2496.3
161.1327,693.5
161.1685,19.2
161.1743,18.6
161.2475,157.9
161.2725,128
161.2804,286.2
161.301,20
161.3395,787.1
161.3527,128.1
161.3561,126.9
161.3977,141.6
161.4316,599.5
161.4906,545.6
161.4998,519.3
161.507,165.8
161.6138,357.2
161.6541,152.9
161.6625,315.2
161.702,746
161.7253,313.7
161.7296,163.5
161.7985,324.2
161.8783,102.5
161.8794,158.6
161.88,155.4
161.8846,330.3
161.8951,18.4
161.9369,302.5
161.9601,319.9
162.0262,128
162.0502,22347.6
162.0929,610.2
162.0948,121.8
162.1236,18.8
162.1929,289.4
162.2476,17.2
162.2504,477.2
162.2593,99
162.2683,176.7
162.2987,323.7
162.3065,223.1
162.3221,144.3
162.384,132.1
162.4632,117
162.572,98.9
162.5966,18.1
162.6616,317.7
162.7534,16.4
162.7821,329.3
162.846,752.2
162.8776,130.9
162.8923,91.3
162.9227,101.5
162.9484,269.9
162.9558,6691.1
162.9642,576.6
162.9681,25.4
162.9822,145.5
162.9847,18.5
163.0155,6373
163.0276,240
163.0387,23.9
163.0538,396.2
163.0811,145.9
163.2915,23.2
163.3571,198.7
163.4448,197.5
163.4784,260
163.5265,123.7
163.6292,208.7
163.6371,1010.8
163.6409,524.9
163.6448,43.6
163.6527,524.9
163.7638,801.4
163.812,153.6
163.8729,109.9
163.8919,476.8
163.9333,234.5
163.9385,140.5
163.9585,136.6
163.9817,309.4
163.9995,32.6
164.0181,169
164.0295,15466
164.0433,136.9
164.066,1361.6
164.0798,186.7
164.0951,144.8
164.1227,309.9
164.1634,274.8
164.2357,144.8
164.2707,104.7
164.2931,162.5
164.3129,20.9
164.4096,664.7
164.5092,324.4
164.5371,108.8
164.6101,458
164.6153,20.1
164.6466,230.1
164.722,85.4
164.7268,884.6
164.8909,122
164.9158,24.3
164.9206,5749.1
164.9302,12535
164.9352,2443
164.9401,106
164.9846,23.6
164.9926,1414.5
164.9999,348.2
165.0673,328.2
165.072,152.3
165.1815,670.6
165.2152,137.1
165.2894,684.7
165.331,365.5
165.3437,202
165.3568,171.8
165.3985,18.9
165.4034,20.1
165.4642,150.3
165.5179,83.9
165.5867,19
165.6319,126.2
165.675,488
165.7034,127.1
165.7291,179.3
165.7955,18.3
165.8006,18.1
165.8429,91.2
165.8934,140
165.9023,24.8
165.9145,400.1
165.9401,114.1
165.9482,908.2
165.9668,3200.7
165.9788,1241.9
165.9854,325.3
165.9879,4894.8
165.9951,1531
166.0054,110.7
166.008,166.6
166.0109,93.3
166.0147,193.4
166.04,223.2
166.0419,143.1
166.0715,138.1
166.0877,300.5
166.1017,117.9
166.1323,229.9
166.1533,126.9
166.2591,17.3
166.2983,327.8
166.3449,207.6
166.4243,419.3
166.4824,91.7
166.4969,151.3
166.5222,302.3
166.5335,104.4
166.5379,151.8
166.572,301.8
166.5831,22.9
166.6545,187.8
166.7065,248.5
166.7784,357.2
166.8095,380.5
166.8587,118.3
166.8822,187.1
166.9068,18.6
166.9325,200.6
166.9509,31390
166.9629,1221.4
166.9987,32
167,23.9
167.0045,112.2
167.0155,23.1
167.019,263.1
167.0219,4107.6
167.0291,119.9
167.0316,326.3
167.0893,17.4
167.144,146.2
167.1659,344.5
167.2189,690.9
167.2328,17.5
167.2527,18.1
167.2581,405.6
167.3255,258.8
167.3279,567.2
167.3321,358
167.3415,172.1
167.3582,294.4
167.3734,286.7
167.4495,91.9
167.4602,514.6
167.5449,154.9
167.6634,21.1
167.7083,175
167.7521,343.7
167.7773,128
167.8268,200.2
167.8574,93.2
167.8844,150.8
167.9282,17.2
167.9345,229.4
167.9629,21
167.9945,2370.8
168.0037,19.7
168.0555,243.7
168.1295,218.3
168.1316,428.4
168.1963,448.1
168.2304,174.2
168.2468,19.9
168.2589,92
168.3327,21.3
168.3368,147.4
168.4383,355.3
168.4711,308.6
168.4742,177.8
168.4841,490.9
168.49,19
168.4929,107.4
168.5321,18.4
168.5635,348.7
168.6383,462.3
168.6428,261.8
168.6878,649.1
168.6934,19.7
168.7159,16.4
168.8046,156.8
168.8465,394.8
168.8865,22.3
168.916,507.4
168.9252,53.4
168.9376,79.8
168.9489,1971
168.9528,144.9
169.0585,45427
169.0648,935.5
169.0788,131.3
169.0949,2525.9
169.0995,315.5
169.1026,145.5
169.1783,488.7
169.1905,182.8
169.2385,166
169.2682,445.8
169.2806,277
169.315,105.3
169.3198,277.5
169.3455,496.5
169.4476,671
169.5303,112
169.6312,19.9
169.7102,413.9
169.7547,274.4
169.7772,20
169.843,361.7
169.8649,20.9
169.993,247.3
170.0125,393.8
170.0195,471.2
170.0327,1019
170.0618,338.3
170.0925,13484.4
170.1234,316.4
170.1984,336.3
170.2022,384.4
170.236,134.2
170.2793,87.9
170.2849,21.2
170.3352,796
170.3371,20.3
170.4383,399.6
170.5863,20.5
170.7183,134.7
170.7204,515.3
170.7407,370.8
170.8115,197.3
170.8216,351.1
170.8485,92.9
170.8545,3949.3
170.8633,375.7
170.8659,133.8
170.8747,22.7
170.9142,148.4
170.9679,16.8
170.9851,17.8
171.0168,1860.4
171.028,240.9
171.0481,17.9
171.0769,801.4
171.117,183
171.1588,17.3
171.259,90
171.301,113.8
171.4325,446.6
171.4629,20.3
171.5218,97.9
171.5436,148.1
171.5674,199.1
171.7056,158.5
171.8139,178.8
171.8955,483.2
171.928,147.9
172.0284,769.8
172.0982,185.2
172.1499,442.7
172.2113,212.7
172.2181,247.6
172.2607,470.6
172.3094,500.7
172.3278,782.9
172.3327,259.9
172.3937,295.8
172.4228,224.2
172.5135,963.8
172.5216,17.3
172.6828,457.3
172.7019,17.9
172.7272,142.4
172.8176,104.9
172.8515,2963.5
172.8681,120
172.8997,402.6
172.9476,19
172.9622,18.9
172.9672,733.9
172.9799,480.9
173.0268,304
173.0468,382.2
173.065,307.8
173.1475,288.1
173.152,445
173.2601,177.3
173.2985,163.3
173.4214,343.6
173.6511,18.7
173.6696,133.3
173.6878,217.7
173.7087,855.6
173.7201,19.7
173.7243,511.4
173.8406,261.3
173.8699,72.7
173.927,235.2
173.9522,381
173.9648,590.9
173.9898,23.2
174.0008,28.1
174.0059,111.3
174.0375,303.7
174.065,97.6
174.0746,424.8
174.1143,224
174.1763,462.5
174.2368,211.3
174.2537,378.3
174.289,106.6
174.3866,190.9
174.3902,19.1
174.4878,300.7
174.508,238.1
174.518,146.5
174.6038,19.6
174.6953,18.2
174.7287,278.6
174.7401,527.4
174.7835,154.5
174.812,302.2
174.8499,402.7
174.9002,200.6
174.9139,147.1
174.9381,4516.6
174.9437,185
174.9688,390.9
174.9697,319.5
174.9711,288.3
175.0227,20.5
175.0344,10864.8
175.0455,1620.2
175.0838,166.8
175.1155,512.2
175.1191,64439.8
175.1336,181.7
175.2772,104.5
175.2858,168.3
175.3024,219.2
175.3627,17.3
175.4095,127
175.5289,327.3
175.5821,165
175.6357,483.2
175.666,715
175.7124,127.9
175.778,100.1
175.8205,101.1
175.8778,109.5
175.8863,192.1
175.915,239.6
175.9694,316.2
176.0006,55.3
176.0086,7436
176.0298,671.9
176.066,34015.6
176.1031,1032.5
176.1145,87.4
176.1226,819.8
176.1784,122.3
176.1993,84.1
176.2118,171
176.2867,19.8
176.3556,182.9
176.3584,185.1
176.3718,123.2
176.4437,151.7
176.6323,185
176.638,20.2
176.67,20.1
176.7232,290.7
176.86,522.9
176.8938,1557.8
176.9925,2956.8
177.0067,149.5
177.0247,5518
177.0338,143.5
177.0473,238.2
177.0612,8891
177.0873,227
177.1555,117.3
177.1783,770.6
177.2108,663.7
177.2304,121
177.2419,131.7
177.3046,89.4
177.4243,122.9
177.4295,701.6
177.5017,660.1
177.6682,95.7
177.7278,88.8
177.7375,20.3
177.7592,185
177.7717,280
177.8371,227.4
177.871,563.9
177.9468,134.1
177.9714,119.9
177.995,21.2
178.0089,10288.5
178.0165,56.2
178.0242,14657.5
178.0356,91.1
178.0589,4967.4
178.0841,23.2
178.1486,121.3
178.168,108.2
178.213,148.3
178.2695,156.2
178.2797,99.5
178.2817,186.9
178.3413,159.9
178.3701,186.7
178.4002,99.4
178.4678,472.2
178.6083,221
178.6375,18.8
178.648,84.8
178.7933,146.3
178.8524,17.2
178.8929,28.2
178.9299,22.1
178.9745,20.4
178.9944,303
179.0029,98.9
179.0085,505.3
179.0495,481.2
179.0569,114.7
179.0791,635.6
179.2201,301.3
179.2242,221.9
179.2913,407.9
179.6138,137.6
179.6155,140.9
179.6881,301.1
179.8012,19.7
179.8363,19
179.8865,162
179.9422,127.8
179.9957,18.9
179.9999,100.4
180.0036,10649.4
180.0109,44
180.2061,126.7
180.2426,312.6
180.3836,163.6
180.3935,17.8
180.443,97.3
180.4485,324
180.4942,201.7
180.5102,20.6
180.5287,548.3
180.5422,17.1
180.6625,17.1
180.7623,397.9
180.8346,299.5
180.8498,530.5
180.8883,439.8
180.8946,3492.2
180.9041,6709.2
180.9429,177
180.9573,334.6
180.9873,350.4
180.9931,160.7
180.9957,269.6
181.026,21.6
181.05,25
181.065,10419.1
181.1096,476.8
181.2,381.6
181.2177,480.1
181.2533,16.9
181.2949,243.8
181.3447,443.1
181.5196,188.5
181.5266,147.4
181.5363,87.7
181.5444,289.7
181.6217,475.9
181.6309,114.9
181.6699,105.9
181.7513,409.3
181.7637,135.2
181.7961,22.5
181.8085,333.4
181.8381,89.1
181.9223,298.3
181.9269,409.4
181.9618,378.5
181.9676,717.4
181.9715,19.1
181.9746,507.4
181.9989,21.5
182.0113,22.9
182.0153,152.7
182.0174,313.6
182.0381,208.7
182.0426,33429.3
182.0472,329.5
182.1098,264.6
182.1421,17.7
182.1464,224.4
182.1636,304.3
182.2655,809.5
182.2979,297.5
182.4634,385.1
182.5607,274.2
182.5773,583.5
182.6152,19.1
182.6185,334.9
182.6272,187.5
182.6783,18
182.7672,586.9
182.7887,150.8
182.8318,184.1
182.9025,81
182.9063,460
182.9418,18.7
182.9453,421
182.9532,21.3
182.9728,507.9
183.0022,18.3
183.0445,873.7
183.0535,98.1
183.0902,285.1
183.1172,122.4
183.142,120.6
183.1939,776.4
183.2206,145.4
183.2301,158.8
183.2488,528.2
183.3415,380.6
183.3673,101.2
183.4217,19.5
183.524,115.9
183.5322,128.9
183.5362,121.3
183.5483,274.9
183.5832,743.6
183.6308,629.8
183.7826,111.6
183.8739,912
183.9649,1173
183.9707,280.2
184.0063,24.7
184.0298,103.4
184.0375,1218.8
184.0626,235.5
184.0735,4684585
184.0811,741.1
184.0823,897.3
184.1095,1159.8
184.1697,20.2
184.1822,2750.1
184.1906,883.7
184.2091,380.9
184.299,717
184.314,384.3
184.3345,163.3
184.3567,857.1
184.3626,365.9
184.3982,359.7
184.5702,460.8
184.6881,137.6
184.8056,119.3
184.8281,144.7
184.8443,107.1
184.8655,306.9
184.8755,155.4
184.8921,201.1
184.9301,22
184.9376,557.3
184.9996,586.3
185.0324,47784.8
185.0602,293
185.0704,11682.2
185.0768,211693
185.0794,3388.2
185.1543,302.9
185.1851,325.9
185.3096,82.6
185.3172,632.8
185.4268,502.5
185.5832,872.4
185.5896,172.9
185.6327,476.7
185.6813,99.2
185.7361,222
185.8004,102.6
185.8114,132.2
185.8141,90.8
185.857,23.3
185.9601,758.5
185.9873,138.6
185.9955,778
186.036,1043.9
186.0688,144.6
186.0777,31045.2
186.085,214.4
186.0964,19.3
186.1782,136.5
186.186,85.3
186.2676,136.3
186.401,244.9
186.427,170.7
186.4669,506
186.7028,89.3
186.708,212.9
186.716,101.1
186.8785,96.5
186.9094,122.2
186.9122,2276.1
187.0305,1508.9
187.0579,5532.9
187.0714,1575.1
187.0981,202.1
187.1078,2288.9
187.1668,254.9
187.3708,365.4
187.3814,148.9
187.3897,133.8
187.4219,415.2
187.4391,372.8
187.4723,102.2
187.497,398.8
187.5964,588.2
187.6037,365
187.6241,17.8
187.8104,22.3
188.0095,394
188.0607,911.5
188.07,164.6
188.1103,94
188.1414,355
188.2306,156.2
188.2414,487.5
188.3343,181
188.3487,294.5
188.3917,380
188.4029,154.2
188.4235,415.3
188.4885,17.7
188.5232,111
188.696,18.8
188.7159,222.1
188.8228,126.1
188.8591,228.1
188.8768,21.4
188.8866,113.1
189.0074,766.8
189.0211,63.1
189.0571,155.7
189.0613,1764
189.0872,7749.7
189.2358,122.5
189.2418,129.3
189.3243,128.4
189.4911,563.6
189.5202,762.6
189.5242,201.5
189.5621,386.8
189.5875,176.3
189.7304,143.5
189.8086,471.3
189.8221,509.6
189.8648,371.6
190.0088,125.1
190.0906,242
190.1225,930.8
190.1733,238.5
190.2333,765.1
190.252,327.6
190.2539,184
190.2648,94.5
190.3061,142.2
190.3248,191.2
190.3793,86.5
190.433,219.6
190.4569,342.4
190.5225,491.5
190.5402,402.1
190.5673,716.9
190.6297,19.8
190.6629,412.5
190.6656,940.6
190.708,883.4
190.7349,17.9
190.8213,323.5
190.8649,156.2
190.8727,382.3
190.9096,69.9
190.9119,655
190.9978,644.1
191.0004,128.9
191.0084,7751.5
191.024,33
191.0359,534
191.0405,119399.4
191.0632,757.5
191.0769,27711.1
191.1143,286.2
191.1645,391.5
191.3204,89.5
191.4109,250.4
191.5116,174.5
191.5227,500.4
191.5307,910
191.5391,181.6
191.6179,511.8
191.6408,333.6
191.8475,504.9
191.8532,141.1
191.8811,30.4
191.8923,765.6
191.9034,20.9
191.9463,400.4
191.9644,21.9
191.9824,417
191.9935,592.6
191.9972,852.8
192.0114,475.9
192.04,22258
192.0439,3501
192.0619,1237.2
192.0812,129.9
192.1104,109.2
192.1619,22.3
192.1766,85
192.1982,90.7
192.2341,151.4
192.2519,570.9
192.3196,120
192.4467,181.9
192.4702,18.7
192.4825,177.4
192.5076,128
192.6045,182.9
192.6079,90.5
192.7171,338.5
192.7188,559.1
192.7242,191
192.7266,346.8
192.8174,197.7
192.8493,23.1
192.9109,51.3
192.9315,645.3
192.9616,656.4
192.9988,5617.3
193.0159,99.3
193.0351,3176.5
193.0484,534.4
193.0956,368.7
193.1051,553.6
193.1158,288.2
193.12,304
193.1882,119.6
193.1942,864.4
193.2502,158.8
193.3346,17.7
193.4062,90.4
193.512,481.8
193.5768,253
193.5995,271.5
193.6085,113.7
193.6146,326.4
193.6774,128.9
193.7056,91
193.7645,81.6
193.799,211.4
193.8025,871.7
193.8407,118.6
193.9234,308.6
193.9506,346.8
193.9817,20.7
193.9983,1930.1
194.0052,1449.7
194.0102,419
194.0327,1671.5
194.0386,337.8
194.1543,156.5
194.1759,18.6
194.1842,182.4
194.1889,142.7
194.2005,328.6
194.2104,18.7
194.2333,464.2
194.3165,1032.8
194.3869,328.1
194.4834,380.9
194.5162,151.6
194.5312,919.9
194.7676,218.8
194.77,619.2
194.7729,444.2
194.81,164.4
194.822,249.1
194.8345,377.1
194.901,168.9
194.904,126.1
194.9421,560.8
194.9621,851.7
195.0116,373.4
195.0645,119.6
195.1081,136.8
195.1571,499.2
195.2351,604
195.251,1220.6
195.2904,142.2
195.2935,407.4
195.3387,19.4
195.4719,268.2
195.5021,229.4
195.5527,124.2
195.664,21.7
195.7323,275
195.7512,155.8
195.8585,18.3
195.8821,258
195.9775,1016.8
195.9853,321.8
196.0532,572.5
196.0793,335.6
196.1698,404.3
196.1991,164.4
196.2627,213.5
196.3099,445.9
196.3628,748.7
196.4533,527.3
196.4563,188.4
196.4878,261.4
196.5036,299.6
196.5075,116.6
196.6064,585.5
196.617,227.3
196.6852,356.8
196.7135,18.1
196.814,633.3
196.8653,7348.3
196.8686,782.7
196.8779,1583.1
196.8812,91.4
196.9326,178.6
197.0597,95.7
197.0813,390.6
197.0922,295.4
197.1013,276.8
197.1412,172.6
197.3273,311.9
197.3807,365.3
197.4258,118.3
197.4908,20.1
197.5537,122.9
197.6937,156.3
197.7561,764.6
197.8703,20
197.9229,135.4
197.9354,185.6
197.9435,272.3
197.9686,134.8
197.9926,352.9
198.0058,789.7
198.0394,97.5
198.0851,5385.1
198.0892,1192.2
198.1855,4613.5
198.2608,139.9
198.2984,18.6
198.3872,272
198.4016,124.6
198.4445,19.5
198.4597,238.5
198.5086,109.2
198.5754,246.3
198.6981,89.3
198.7779,515.9
198.795,286.7
198.8624,6818.4
198.9,51.1
198.9676,138.5
199.0165,182.9
199.0323,114.6
199.0378,115.7
199.0621,694.1
199.0691,750.1
199.0756,1494.1
199.0803,96.3
199.1332,20.3
199.1371,467.1
199.1888,223.5
199.2234,377.2
199.3096,107.9
199.3427,299.5
199.3554,275.9
199.382,116.1
199.5043,200.7
199.5064,115.9
199.6196,137.8
199.6645,103.6
199.6688,259.5
199.7011,148.3
199.7197,186.1
199.7355,259.1
199.799,608.5
199.984,302.3
199.9908,28313.7
200.0225,93.7
200.0271,941.7
200.0409,18594.2
200.0752,11770.4
200.0814,19.6
200.0979,195
200.1235,228.1
200.1763,346.7
200.2866,502
200.3251,129.8
200.339,506.9
200.3482,17.5
200.3566,162.8
200.3729,722.2
200.4264,223
200.4737,153.9
200.4878,132.4
200.5088,119.5
200.5759,88.1
200.6356,227.2
200.6527,772
200.7144,19.6
200.8594,418.6
200.8945,896.2
200.9707,118.8
201.0552,625.4
201.0873,622
201.2147,531.4
201.3136,364.3
201.3397,148.8
201.4958,18.8
201.5145,111.3
201.5343,113.1
201.5548,19.7
201.6334,212
201.724,131.2
201.8649,202.3
201.8723,145.9
201.8945,89.5
201.9343,430.8
201.9953,19.5
202.0065,438.4
202.0163,47.7
202.0974,22.7
202.1063,136.6
202.2181,17.6
202.2459,323.5
202.3745,122.3
202.4202,16.7
202.4289,203.3
202.4496,103.9
202.4565,16827.2
202.4815,275.6
202.5008,18.8
202.5116,191.3
202.5404,271.6
202.5726,322.8
202.6389,146.6
202.6522,19.9
202.6884,230.7
202.7787,506.6
202.8397,489.8
202.8732,78.3
202.9253,158
202.9406,83.9
202.9903,321.9
202.9947,371.9
203.0159,144.7
203.0322,2835.1
203.0363,839.8
203.0528,1570518
203.0737,132.2
203.0769,6417.4
203.087,320.3
203.2085,20.2
203.2404,368.1
203.2661,20.1
203.3203,212.2
203.3714,752.1
203.3743,124.8
203.4323,328.6
203.5665,179.9
203.6259,224.3
203.6532,443.2
203.7763,150.7
203.8437,162.7
203.9058,126.2
203.9459,22.2
203.9698,307.2
204.0246,38160.2
204.0321,341.5
204.0562,84449.9
204.0632,1409.7
204.0918,109.5
204.2159,152.9
204.2549,18.9
204.2643,119.1
204.2951,92.6
204.3028,126
204.3386,316.8
204.4318,714.8
204.461,791.9
204.4672,91.9
204.7076,236.3
204.7175,171.6
204.7326,19
204.7829,489.7
204.7858,252.2
204.8282,86.8
204.8889,1368.2
204.9411,372.2
204.986,122
205.002,582.4
205.0162,26.5
205.0283,512.8
205.0571,14115.7
205.0686,2369.1
205.0836,40.8
205.0915,106.7
205.1026,146.6
205.2794,125.2
205.3001,122.4
205.3778,252
205.4138,326.7
205.4387,809.9
205.4515,498.4
205.4989,218
205.5064,404.2
205.5886,631.3
205.8154,821
205.8892,113.2
205.9048,229.2
205.9288,100.1
206.027,39.6
206.0479,117.3
206.0555,2020.5
206.1751,324.3
206.199,183.2
206.266,20
206.2762,386
206.373,145.7
206.4037,470.3
206.5699,111.4
206.5796,692.3
206.669,116.8
206.7162,228.3
206.888,40.1
206.8941,18079.9
206.9073,537.7
206.917,262.4
206.9385,127.7
206.953,124.9
206.9823,3802.3
206.9976,1060.5
207.0145,77686.3
207.0318,53.4
207.0444,1462.5
207.0509,11583.7
207.1622,147.4
207.193,90.2
207.2458,130.2
207.2694,468.5
207.4529,523.5
207.5594,16.9
207.5757,118.3
207.5789,524.3
207.6169,97.6
207.8047,84.7
207.8244,122.5
207.8757,219.2
207.8864,22.2
207.9409,299.1
207.9908,717.9
208.0138,4231.7
208.0175,999.3
208.0518,206.1
208.1007,542.2
208.1291,238.4
208.1333,19.5
208.2509,624.5
208.4469,123.6
208.5499,632.1
208.5561,236.8
208.6089,409.6
208.6203,450.7
208.7118,573
208.7616,524.1
208.8348,92.3
208.8834,1088.2
208.8912,11884.4
208.9354,1051.5
208.9556,19.9
208.984,179.9
209.0126,3131.2
209.0277,19.2
209.0677,680.6
209.0961,19.6
209.1613,239.3
209.2191,143.9
209.3745,230.7
209.4027,226.8
209.4855,459.8
209.5108,888.2
209.5179,18.6
209.6046,364.2
209.6105,283.4
209.8844,24.5
210.7074,531.6
210.7789,703.7
210.7872,297.7
210.8883,370.6
210.9167,99.5
210.9487,31.4
211.0414,442.3
211.0507,312.5
211.0566,296.5
211.069,649.2
211.0927,21.8
211.1181,5425.6
211.1248,21599.1
211.1288,28728.3
211.1334,32723.3
211.1412,5823.9
211.1462,1830.7
211.1492,3180.6
211.266,834.3
211.275,206.6
211.3696,342.3
211.4052,213.5
211.4748,875.7
211.4947,204.1
211.5828,174.1
211.6082,247.4
211.6352,236
211.658,21.9
211.9085,233.6
211.9325,20.4
211.9381,20
211.9629,313
211.9975,943.9
212.0247,120.8
212.0565,363.1
212.0743,152
212.0928,229.9
212.3116,191.5
212.321,159.9
212.3551,439.8
212.3839,172.8
212.4554,482
212.6311,93.9
212.6777,20.5
212.7119,104.2
212.7973,392.4
212.8393,2770.7
212.9654,25.8
212.9786,425.6
213.0322,28.8
213.0458,395.6
213.0548,1307
213.0591,535.6
213.0751,442.6
213.0935,173.4
213.1205,239
213.1343,86.6
213.4181,591.1
213.4306,306.6
213.4664,430.7
213.5855,241.9
213.6581,135.3
213.6742,953.1
213.851,510.7
213.905,576
213.9187,789.9
213.9255,95.5
213.9396,204.1
213.9538,709.1
213.9623,1796.4
213.9848,319.6
214.0137,354.6
214.0591,4991.3
214.0899,1019.7
214.1537,237.4
214.1811,128.1
214.2087,314.6
214.2928,362.9
214.342,223.4
214.357,386
214.3952,411.6
214.4056,18.3
214.4547,251.7
214.4563,248.1
214.6114,19
214.6225,591.5
214.6266,186.6
214.7092,244.3
214.7289,294.4
214.8363,1398.4
214.8644,86.8
214.8738,117.7
214.9101,190
214.9179,2117
214.9621,97.8
214.9657,95.1
215.004,202.7
215.093,188.5
215.1044,17.6
215.2175,20.3
215.2262,433.5
215.2646,16.6
215.3663,144
215.4129,609.6
215.5147,413
215.5422,362
215.6278,92.6
215.6915,20.2
215.7689,115.2
215.7875,223.4
215.9079,118.8
215.9101,35.6
215.9763,89
215.988,977.2
216.0149,12504.9
216.0856,21.6
216.1038,124.3
216.1343,298.6
216.1918,423.6
216.2117,18.5
216.2748,258.9
216.327,110.4
216.3618,230.1
216.4399,201.7
216.4945,95.7
216.5087,23.9
216.6099,664
216.7025,18.3
216.7362,444.7
216.741,285.5
216.806,544.4
216.8857,325.2
216.8895,41.5
216.923,50626.1
216.9846,18
217.0272,269.8
217.0493,125.1
217.1465,217.2
217.202,482.3
217.2905,340.2
217.3363,187.3
217.3635,335.8
217.5795,154.3
217.6088,99.1
217.6341,167
217.727,524.1
217.993,117.7
218.0067,187.2
218.013,333.9
218.1055,227
218.1522,21.6
218.2588,84.9
218.2822,266
218.3325,144.6
218.3977,99.8
218.434,20.4
218.4422,294.8
218.4582,318.1
218.495,176.1
218.5275,788.4
218.5849,275.7
218.5921,525.7
218.5947,569.3
218.6013,316.7
218.6302,627.1
218.726,210.5
218.8592,471.3
218.8649,143.6
218.8679,189
218.9046,630.6
218.9201,17469.7
218.9247,26
219.0101,18.6
219.0178,2697
219.0268,1749597.6
219.0379,739.2
219.0477,27.3
219.0831,7617.8
219.1425,331.3
219.2784,132.3
219.3901,631
219.4124,335.4
219.4414,320.8
219.5627,103.3
219.5643,109.3
219.6068,98.5
219.6113,144.2
219.6451,728.3
219.7047,294.1
219.7574,282.1
219.9044,57.5
219.9082,310.5
219.9982,114.2
220.0302,93453.2
220.0369,1608.7
220.0671,8774.3
220.0877,651.1
220.1475,290.2
220.1676,439.7
220.2073,410.3
220.2301,413.4
220.3291,399
220.3783,170.4
220.6023,396
220.6255,269.1
220.77,126.8
220.8171,119.2
220.8485,181
220.8663,22.5
220.8839,113.4
220.9039,43.5
221.0249,104013.6
221.0311,16471.7
221.0422,824.1
221.0511,1848.5
221.0848,178.9
221.0876,159.8
221.162,823.1
221.1675,17.6
221.2591,137.4
221.584,436.2
221.6658,298.5
221.6971,477.2
221.8374,173.8
221.8648,404.3
221.9184,671.8
221.9383,290.2
221.9565,167.6
221.9838,606.9
222.0285,1089.8
222.076,229.2
222.0898,421.5
222.1037,419
222.1309,118.9
222.1971,366.8
222.5282,243.2
222.5645,18.5
222.6021,745.1
222.6235,516.9
222.7058,329.5
222.7645,188.4
222.7844,324.1
222.8681,15208.6
222.8793,422.9
222.8997,1239
222.9266,21.8
222.9542,832.7
222.9885,9680.1
223.0249,812.4
223.0389,267.3
223.2746,351.2
223.2977,308
223.2988,329.9
223.3072,208.6
223.3768,605.3
223.4045,413.6
223.4998,198.4
223.5156,108.6
223.5586,380.1
223.5678,409.1
223.5989,152.5
223.6437,307.7
223.7132,144.5
223.7613,401.2
223.7795,545.5
223.7937,702.6
223.9535,91.8
223.999,331.1
224.0325,252.4
224.2493,19.9
224.2898,373.4
224.3217,159.6
224.3416,573.3
224.3433,706.6
224.3443,586.5
224.5165,285.5
224.5742,244.5
224.5991,456
224.6786,379.2
224.7655,94.6
224.8599,562.7
224.8651,8276.9
224.8762,115.2
224.9243,801.6
224.9277,169.7
224.9566,41.1
225.0071,20.1
225.0549,28199.5
225.085,523.1
225.0944,296.5
225.1096,103.2
225.1175,93.4
225.1395,22.8
225.1453,146.7
225.214,380.7
225.2393,195.7
225.2591,258.6
225.2691,100.4
225.3506,420.7
225.3893,122.9
225.4846,467.2
225.7355,109.7
225.7834,569.2
225.9029,397.8
225.9377,18.9
225.9525,53.1
226.0023,89.6
226.0067,1844.1
226.0244,12770.9
226.0453,14627.9
226.2266,301.3
226.3103,835.5
226.5051,243.7
226.5374,492.8
226.6963,1121.9
226.7665,95.5
226.7805,535.1
226.8169,444.6
226.8706,306.3
226.8938,43.2
226.9518,42306.7
227.0345,103.5
227.043,567.4
227.0795,2661.5
227.0866,193.6
227.1214,582.9
227.1901,228.4
227.2247,509.6
227.251,738.3
227.3924,296.6
227.4766,159.4
227.5468,176.8
227.6402,18.7
227.6465,19.3
227.67,323.4
227.7288,160.5
227.7474,301.5
227.8456,380.2
227.9331,368.4
227.9461,658.1
227.9618,528.8
228.0003,561.1
228.0224,757.8
228.0565,322.5
228.1183,368.1
228.2343,596.5
228.2694,316.8
228.3036,113.5
228.3683,18.6
228.3965,313.4
228.5178,171.6
228.5537,333.4
228.7754,194.9
228.7998,718.3
228.8153,334.8
228.8817,635.5
228.8894,62.4
228.9396,140.1
228.9602,141.8
229.0772,481.3
229.1183,749.3
229.1252,437.7
229.1368,584.9
229.1943,347.6
229.5045,109
229.5296,245.9
229.5468,20.2
229.6451,112.3
229.7346,19.2
229.7436,479
229.7717,182.1
229.8475,231
229.9254,154
229.9572,6555.2
229.98,131.7
229.9957,21.5
229.9997,280.3
230.0335,165
230.0364,227.7
230.0825,173.8
230.1324,927.5
230.1993,19.8
230.2179,468.3
230.394,228.1
230.4194,329.8
230.4252,312.9
230.4964,92.9
230.6505,164.6
230.7744,213.1
230.8104,916.5
230.8208,653.2
230.8679,32
230.8903,374.1
230.9279,19.6
230.9605,228.4
231.0409,303.5
231.0739,186.2
231.0765,91.1
231.0841,462.8
231.1054,125.2
231.1897,136.5
231.2765,336.7
231.3467,589.1
231.353,630.1
231.3924,21.8
231.418,184.1
231.4737,18.5
231.5993,137.7
231.6122,262.4
231.6156,22.7
231.7293,89.8
231.9485,140.7
231.9532,144.9
231.9576,211.1
231.9738,190.7
231.9888,581.4
231.9954,169.6
232.0341,161.2
232.2192,240.8
232.2272,89.4
232.248,733.7
232.2561,199.1
232.3111,605.4
232.6696,117.4
232.6972,189.4
232.7211,215.3
232.7421,574.8
232.7649,241.8
232.8141,22.3
232.8805,340.6
232.8838,155.2
232.8969,47905.9
232.9206,18.7
232.9555,193.3
232.9826,332.1
232.986,959.6
233.0063,18.8
233.0511,7061.3
233.075,367.6
233.1974,17.5
233.2141,116
233.2989,146.9
233.5323,748.1
233.6428,550.9
233.6944,695.3
233.7409,322.4
233.7694,452.4
233.8408,90.8
233.8497,823.3
233.9534,47.3
233.9664,243.3
233.9899,321.1
234.0092,133.2
234.1495,850.2
234.153,164.1
234.2011,512.9
234.2284,428.5
234.5514,223.5
234.6279,218.1
234.6465,19.2
234.6815,881
234.7876,129.8
234.8318,320.5
234.8767,113.1
234.8938,12654.8
234.8998,88
234.9692,20.2
234.9817,5335.5
235.057,3354.4
235.067,1576.7
235.0928,13344.1
235.1032,324.3
235.1208,99.7
235.1734,849.6
235.2616,159.2
235.3808,118.6
235.3826,115.4
235.3939,668.3
235.4971,225.1
235.768,183.5
235.8593,313.7
235.9726,419.9
236.0215,103.9
236.0411,5764.8
236.0508,371
236.0719,43784.9
236.096,340.9
236.1667,340.6
236.27,135.2
236.3109,131.1
236.3497,144.7
236.3544,156.5
236.3935,798.9
236.4249,105.4
236.4278,20.7
236.4664,766.6
236.4963,138.6
236.6964,335.9
236.7554,291.2
236.8699,512
236.8784,242.8
236.9071,31
236.9151,139.9
236.9295,204.9
236.9445,104.7
236.9779,323.9
237.0111,98.7
237.0516,547
237.0754,2546.8
237.1101,775.5
237.1142,794.2
237.2834,20
237.3366,505.9
237.3638,116.5
237.3879,306.8
237.4243,502.3
237.461,103.1
237.4696,223.9
237.4872,258.6
237.5874,142.9
237.6163,22.8
237.6458,123.7
237.6468,123.4
237.709,692.1
237.7699,165.6
237.9868,99.5
238.0677,624.4
238.0784,43.9
238.0915,120.6
238.1139,813.3
238.154,242.4
238.2525,119.2
238.3109,490.7
238.4528,222.5
238.6616,764.7
238.7357,18.2
238.8421,5194.2
238.8502,93.2
238.8534,763.6
238.9235,201.1
238.9431,59.9
239.0093,3165.2
239.0533,186.2
239.0639,225.4
239.0681,152.9
239.0712,45.4
239.1778,194
239.2215,163
239.2674,229
239.3992,656.4
239.4429,92.3
239.4897,1133.7
239.5076,99.7
239.5972,206.4
239.6181,164.7
239.6726,845.5
239.7603,217.8
239.7729,20.1
239.8591,21.2
239.8629,416.4
239.9384,260.9
239.9638,138.3
239.9757,305
240.1,767
240.1111,86.9
240.1332,481.4
240.3179,581.4
240.3686,171.1
240.4256,103
240.4402,517
240.6646,488.6
240.6763,371
240.8209,92.9
240.8391,2946.8
240.8548,882.1
240.8729,126.8
240.9288,220.2
240.955,1318.8
240.9675,1261
240.9877,535.2
241.0087,355.8
241.0654,671.6
241.1226,19.9
241.2389,458.8
241.2739,191.2
241.2886,187.7
241.3708,223.7
241.5438,965.1
241.5721,319.7
241.5777,179.5
241.6029,140.6
241.6645,305.2
241.6831,300.1
241.7202,749.9
241.78,192.4
241.7906,17.7
241.7949,86.6
241.8028,420.2
241.8206,19.6
241.8624,160.3
241.9072,149.8
241.9664,113.5
241.9784,83.1
241.98,89.7
241.9985,2701.3
242.0194,5123.8
242.0311,300.5
242.1843,365.9
242.2311,163.8
242.2705,16
242.2927,159.9
242.3655,190.2
242.4584,20.2
242.49,187.1
242.7551,466.3
242.7993,138.4
242.8031,506
242.8132,126.9
242.9048,18.5
242.9257,25523.5
242.9524,943.5
243.0065,374.8
243.0235,513.3
243.0328,171.5
243.0534,6995.4
243.0656,11727.1
243.1556,111.6
243.2366,186.1
243.3701,112.5
243.6024,97.2
243.6848,597.7
243.7801,182.6
243.8137,22.2
243.8357,125.6
243.8606,255.3
243.8833,92.5
243.9404,621.5
243.9559,885.6
243.9729,2614.2
244.0128,252.4
244.0216,318.2
244.075,148.4
244.1897,521.8
244.3295,777.5
244.4383,156.2
244.5362,109.3
244.5977,87.3
244.6182,276.6
244.7611,295.4
244.7813,22
244.7873,416.2
244.7925,402.7
244.8313,132.7
244.8669,20.9
244.8711,4750
244.8763,22.2
244.9216,209.2
244.9765,60.8
245.0811,22.2
245.2529,17.6
245.4333,107.4
245.4623,390.1
245.4988,511.9
245.6473,199.5
245.698,101.5
245.7241,188.6
245.7579,96.4
245.7918,260.8
245.8009,20.2
245.8891,18.7
245.9218,699.8
245.9689,76.5
245.9735,115.5
246.0017,184.3
246.0107,40.4
246.052,174.6
246.121,496
246.188,407.5
246.4655,200.5
246.489,138.2
246.6279,121.1
246.7034,383.9
246.7637,27.2
246.8072,20.3
246.8627,416.5
246.8672,513.6
246.8997,34.5
246.9035,20.4
246.9482,371.1
246.9517,322.3
246.9752,1109.5
247.0165,18.6
247.037,1156.9
247.054,18.4
247.0667,1133
247.0707,244.3
247.0929,6290.2
247.2176,159
247.2623,19
247.3283,188.2
247.3526,95.6
247.3569,288.2
247.3724,97.6
247.5455,265.6
247.5964,853
247.7369,240
247.9369,163
247.9561,381
247.9678,464
247.985,89
248.0994,766.7
248.1243,9749.8
248.2026,90.6
248.2499,247
248.586,811.1
248.6802,498.7
248.8046,299.6
248.8153,112.3
248.8566,145.6
248.871,12543.7
248.9009,128.8
248.9156,31.7
248.9483,39.2
248.9598,556.6
249.0014,21
249.0162,1656.3
249.0614,26989.6
249.094,169.4
249.1889,93.9
249.1929,231.5
249.2447,94.7
249.2543,868.9
249.533,147.8
249.6038,110.2
249.618,670.7
249.6306,140.9
249.7154,391.8
249.7429,85.6
249.8284,787.6
249.8645,20.4
249.8869,36.9
249.9095,124.2
249.9571,18.3
249.9681,21.2
250.0384,272.9
250.1387,120.1
250.1918,144.7
250.2681,239.7
250.4093,100
250.4755,519.3
250.5491,508.6
250.5588,143.4
250.5813,499.2
250.8512,523.5
250.8681,3590.7
250.8941,156.4
250.9205,3440.2
250.936,19.9
250.9558,981.3
251.0012,21.2
251.0343,240.5
251.1486,308.3
251.1749,18.7
251.3431,383.9
251.412,235.3
251.6141,580.8
251.6158,492.3
251.6172,277.2
251.6462,337.7
252.0343,632.5
252.0459,100234.7
252.0952,336.2
252.1,311.8
252.1155,323.2
252.1489,510.7
252.3833,421
252.4133,174.1
252.4617,21.8
252.4797,342.5
252.4979,535
252.5885,163.1
252.6723,130.7
252.6771,141.4
252.7307,222.2
252.7539,104.7
252.7621,18
252.8046,24.1
252.8353,345.9
252.8409,21.8
252.9093,242.9
252.9177,1125.1
252.9513,135.7
252.994,119.8
252.9974,42.3
253.0491,6646.6
253.0669,99.7
253.1871,462.9
253.3434,234.6
253.3473,465.2
253.3494,461.1
253.4529,522.2
253.536,133.7
253.5442,141
253.6811,231.4
253.8014,161.5
253.8094,221.8
253.8236,220.2
254.0438,3831.7
254.0968,237.9
254.2022,86.9
254.3759,98.8
254.3859,443.4
254.4492,19.3
254.5185,465.3
254.5626,208.1
254.5926,175.5
254.6885,853.1
254.7402,329.1
254.749,105.2
254.7919,132
254.8162,1844.3
254.8241,8637.9
254.8604,552.3
254.9164,531.8
254.9706,605.4
254.9862,102.6
254.9968,25.3
255.0332,24950.6
255.0469,173.8
255.0676,125.3
255.1046,287.3
255.1644,150.3
255.273,19.3
255.3578,18.7
255.4068,315.2
255.4476,312.6
255.5148,21.5
255.67,495.2
255.7117,20.7
255.7241,116.4
255.741,741.7
255.778,136.5
255.79,415.7
255.9782,654
256.0034,1395.9
256.0576,153.6
256.0673,189.6
256.3939,413.3
256.5369,214.6
256.8139,18.2
256.8211,12714.3
256.8669,560.6
256.9282,740
256.9319,1027.6
256.9635,604.7
256.9826,18.6
257.0223,241.8
257.0488,6888.2
257.0641,1234
257.0748,46638.5
257.1058,193.4
257.1702,331.9
257.2962,494.8
257.5124,145.6
257.5562,167.3
257.7195,19.1
257.7248,745.2
257.8099,822.7
257.8648,415.2
257.9077,448.1
257.9522,220.1
257.9886,88.5
257.9934,1088.8
257.9998,525.9
258.0219,83.4
258.0302,412.5
258.061,135.3
258.0743,152.7
258.0782,945.5
258.1104,25152.9
258.2466,25.1
258.4221,18.6
258.5345,219.7
258.6423,627.3
258.6829,750.3
258.7205,486.7
258.8182,3431.3
258.8998,6077.8
258.954,306
258.9585,424.4
258.9652,135.8
258.9671,116
259.0022,1047.3
259.0144,640.5
259.0654,593.7
259.0889,226.7
259.1083,366.1
259.1145,96.8
259.1199,25.8
259.1296,905.7
259.2447,637.3
259.2905,174.8
259.4837,726.5
259.4857,329
259.5011,626.2
259.5137,198.1
259.5887,234.5
259.7101,213.3
259.8629,166
259.9365,210.5
260.0171,31.9
260.0258,22.1
260.1206,102.5
260.2817,1046.5
260.2908,708.7
260.5532,769.2
260.5785,107.4
260.8448,2325.7
260.9492,9227.5
260.9801,357
261.0107,546
261.0463,911
261.0963,118
261.1408,901.9
261.275,322.2
261.2997,561.5
261.3434,701.8
261.4493,255.8
261.5016,819.7
261.5417,128.8
261.6035,21.3
261.6332,139.4
261.6439,417.1
261.6996,365.2
261.8159,560.1
261.8733,113.8
261.8813,420
261.9198,239.2
261.923,312.4
261.9594,236
261.9836,175.1
262.0423,19
262.0532,344
262.0817,2112.5
262.0958,18.4
262.2448,168.2
262.3692,266.8
262.4757,369.3
262.485,507.2
262.5194,117.8
262.5411,166.1
262.5937,223.6
262.6335,103.5
262.6773,163.4
262.7922,438.9
262.8018,568
262.8549,452.6
262.9152,286.7
262.9319,28.5
262.9464,2594
263.0817,156.4
263.0855,2227.1
263.1597,361
263.2365,1030.9
263.2965,90.9
263.3098,318.9
263.3786,18.3
263.5215,96.9
263.6428,279.3
263.6641,99.6
263.7972,140
263.924,131.7
263.9493,22.8
264.0677,153.4
264.0908,100.3
264.1235,20.8
264.2356,191.9
264.269,27.2
264.4962,157.3
264.5282,252.8
264.56,19.8
264.6436,173.9
264.6675,674.5
264.7982,660.5
264.8449,1171.1
264.8531,5667.2
264.873,130.7
264.8876,275.1
264.9342,1771.5
264.9605,255.6
264.9676,162.2
264.9887,6311.9
265.0167,157.4
265.0234,742.1
265.0353,15334
265.0476,2869.9
265.0643,170.1
265.0737,788
265.2602,370.6
265.3818,768.2
265.5933,973.4
265.7782,467.2
265.7971,179.5
265.8126,569.3
265.9107,157.2
265.9579,23.1
265.9785,319.5
265.9826,489.6
265.9936,26
265.9975,330.4
266.0109,480.7
266.0215,418.3
266.0524,788.2
266.059,97.8
266.1198,338.6
266.1541,544.3
266.1857,185.6
266.257,345.7
266.3346,490.1
266.3527,19.6
266.5352,487.4
266.5456,703
266.7035,172.1
266.8418,683.8
266.85,5710.7
266.8945,4216.7
266.9592,24.3
266.9769,154.8
267.0138,21.6
267.1599,355.9
267.1624,470.2
267.164,514.7
267.313,257
267.3156,347.4
267.348,186.9
267.3754,22.8
267.4206,147.6
267.442,310.2
267.4566,501.8
267.6475,2412.7
267.8457,163.8
267.8839,257.7
267.973,576.6
267.9796,21.4
267.9942,817.7
268.0091,54.9
268.0199,403.1
268.0296,475.7
268.0646,165.5
268.0835,332.2
268.1236,196.3
268.2248,247.2
268.2987,307.4
268.4642,134.5
268.4721,19.9
268.4911,137.6
268.5174,370.9
268.5389,310
268.5464,95
268.5526,280.7
268.669,196.5
268.7008,165.4
268.7342,395.8
268.8469,438.1
268.8837,147.2
268.8914,1794.6
268.9015,756.7
268.9483,802.2
268.9624,774
268.9973,23.8
269.0127,20.7
269.0278,476.5
269.0333,21.9
269.0451,15863.8
269.0488,38104.9
269.066,499.3
269.0751,1031.4
269.1521,169
269.2259,151.2
269.2522,19.1
269.7852,287
269.9524,28.7
269.9896,295.9
269.994,2886.4
270.0026,22.7
270.0096,87
270.025,12557.8
270.0475,25708.3
270.0985,690.9
270.1361,120.8
270.1452,254.3
270.2683,190.3
270.4711,504.6
270.6795,700.4
270.693,775.6
270.7023,133.5
270.7981,4858.1
270.9057,371.5
270.9595,443.3
270.9781,20214.2
271.0283,1062.7
271.0509,263.3
271.0779,128
271.0905,900.8
271.309,20.2
271.3494,765.8
271.3577,92.2
271.5539,224.7
271.9078,64
271.9824,488.6
272.0208,438.7
272.0286,21.6
272.0418,365.1
272.0806,247.6
272.1857,330.6
272.323,142.7
272.4336,19.1
272.4902,349.7
272.5015,523.9
272.5829,473.6
272.5993,176.5
272.7344,516.4
272.7952,6002.1
272.8088,214.9
272.8249,25.7
272.908,22.6
272.9717,354
273.0488,2797.9
273.0962,116.9
273.2759,148.2
273.3267,392.6
273.3443,340
273.4555,545.2
273.8937,688.6
273.9628,6117.2
274.0085,417.8
274.0689,108.2
274.0923,492.7
274.1705,437.5
274.2159,20.2
274.5058,418.1
274.5322,237.4
274.6255,652.5
274.7802,497
274.7922,2358
274.8508,340.7
274.882,373.6
274.9723,198.8
274.9734,210.4
274.9751,156
274.9979,194.7
275.0617,143.4
275.2416,420.7
275.3119,534.3
275.3175,331.3
275.3434,413.9
275.3498,132.2
275.3569,549.8
275.3957,164.1
275.412,100.6
275.4248,152.3
275.4705,18
275.4771,567.9
275.5097,21
275.6079,18.7
275.632,849
275.6847,19.6
275.8843,136
275.9396,705.3
275.9524,420.8
275.9546,821.3
275.9571,770.1
275.9824,1150.4
275.9989,31.1
276.0037,181.6
276.0848,55.2
276.0955,19.7
276.1176,119
276.2636,201.1
276.4911,459.8
276.7891,268.6
276.8171,765.4
276.8635,21.1
276.8775,376.3
276.8916,133.9
276.9109,23.5
276.9233,9014.7
276.9684,194.1
277.322,101.3
277.3769,99.4
277.5659,582.6
277.5929,18.1
277.5964,21.4
277.6548,122.3
277.6781,469.2
277.8545,345.8
277.9193,163.1
278.0009,61
278.0192,553.4
278.1208,682
278.1446,19.8
278.2232,368.2
278.3514,143.9
278.3956,249.3
278.4178,429.6
278.455,566.7
278.4632,155.4
278.4942,473.7
278.5583,152.6
278.5674,513.6
278.6802,196
278.8658,203.7
278.889,56.7
278.9203,957.6
278.9387,686.1
278.9873,858.8
279.0568,33223.9
279.1623,598
279.2101,221.3
279.4401,228.4
279.4972,24.8
279.5661,189.6
279.6227,320.2
279.7377,301
279.7942,110.7
279.8153,353.9
279.8356,425.6
279.8429,20.6
279.881,119
279.8888,449.8
279.9478,289.6
279.9532,492.3
279.978,1299
279.9994,33.6
280.0124,238.1
280.0162,200.6
280.06,1277.6
280.0925,868.1
280.1269,22.1
280.1788,361.7
280.3695,225.1
280.3754,246.4
280.4315,92.5
280.4615,19.4
280.558,453.6
280.6008,405.2
280.6574,374
280.6654,21.1
280.7143,578.8
280.7836,531.1
280.8267,3041.8
280.8326,446.9
280.8907,761.1
280.9626,346.5
281.0095,2700.6
281.0516,204.6
281.0721,383.3
281.2338,964.7
281.3096,379.1
281.3373,306.2
281.4563,167.8
281.5523,122.7
281.5949,156.1
281.7509,657.4
281.9422,521.3
282.0151,139.4
282.0469,292
282.0625,337.8
282.0651,324.2
282.0708,319.6
282.3425,285.8
282.4526,141.9
282.5639,407.7
282.7808,21.9
282.7943,302.3
282.824,1954.7
282.8682,728.2
282.9192,154
282.9756,490.3
283.0279,760.1
283.113,439.9
283.1816,522.5
283.2266,134.1
283.264,38.9
283.2787,754.3
283.3126,763.1
283.3336,287.9
283.4994,841.9
283.5972,121.2
283.6169,147.2
283.7514,189.2
283.7937,116.7
283.8149,217.9
283.8363,452.7
283.8631,341.3
283.9886,42.8
284.0041,94.2
284.0247,155.4
284.0512,25.5
284.0631,193.7
284.1342,21.8
284.1706,273.8
284.2086,97.1
284.324,97.9
284.3689,331.7
284.5622,191.9
284.6269,291.1
284.6461,486.7
284.7518,167.3
284.8646,321.8
284.8684,532.2
284.9935,863.6
285.0232,283.9
285.0407,233.4
285.0987,22
285.1391,146.5
285.2653,765.5
285.4417,290.1
285.4824,392.7
285.7098,95.3
285.8093,114.5
285.9079,385.7
285.9684,826.9
285.9886,700.8
286.0199,3329.4
286.0965,31.6
286.1877,206.9
286.2026,499.9
286.2919,218.2
286.5322,184.5
286.5567,227.5
286.7493,21.3
286.7721,1966.6
286.7792,366
286.8032,23.6
286.9521,11535.7
287.0234,279.5
287.0474,158
287.0555,36236.9
287.0972,220.7
287.1724,101
287.1826,505.9
287.2094,153.2
287.2367,175.5
287.2838,242.8
287.323,199
287.3656,18.8
287.584,816
287.8464,178.1
287.9501,249.8
287.9793,341.6
288.0158,93.2
288.0355,147.6
288.0581,1171
288.0851,152.7
288.1485,102.8
288.1558,29315.9
288.2211,217.3
288.2653,149.3
288.2747,624.2
288.4121,19.3
288.5515,119.3
288.5628,283.4
288.6684,243.2
288.6734,293.2
288.7187,311.5
288.7399,448.3
288.7691,2477.9
288.8392,22.8
288.8438,58.3
288.8556,269.6
288.8597,113.7
288.8712,569.8
288.8757,1954.1
288.8875,4332.4
288.8969,7003.7
288.908,9681.4
288.9115,11583.7
288.9208,21787.4
288.93,22624.5
288.936,26639.4
288.9435,20027.2
288.9512,20753.6
288.9653,6939.1
288.9708,8349.9
288.9756,5348.3
288.9856,3372.5
288.9994,1221.5
289.007,1240.1
289.0143,91
289.0166,111.7
289.0184,124.3
289.159,1662.1
289.1658,17.3
289.182,176.8
289.1923,19.5
289.3606,129.2
289.499,387.2
289.5263,189.6
289.7924,246
289.8106,85.2
289.8158,307.2
289.9368,216.4
289.9678,302.5
289.9781,21.8
290.0168,110.4
290.0853,334.6
290.1439,374.8
290.3826,167.4
290.6336,314.1
290.7666,1250.6
290.8332,21.5
290.9033,273.9
290.9265,64.6
290.9586,17.8
290.9712,144.7
290.9863,181.2
291.027,2265.3
291.046,268.3
291.0473,298
291.0592,337.4
291.2345,308.7
291.3056,360.9
291.3252,493.2
291.4914,210.7
291.5053,146.3
291.6783,207
291.7927,337.2
291.8002,183.6
291.9499,143.9
291.9559,164.2
292.0442,889.8
292.0797,30.9
292.1029,432.2
292.1336,148.8
292.1991,571.5
292.3358,349.5
292.3738,374.5
292.4158,187.1
292.4244,583.4
292.465,324.7
292.5198,542.3
292.795,644
292.8969,2390.8
292.9631,19.4
293.002,210.1
293.0276,201.4
293.0729,947.6
293.0984,397233.9
293.148,421.4
293.1792,8188.1
293.3241,135.5
293.4591,123.2
293.6688,352.8
293.6969,151.9
293.7394,756.5
293.8189,127.3
293.8513,570.8
293.9258,562.3
294.0134,20.8
294.0542,398.4
294.06,116.6
294.0659,172.7
294.0952,812.8
294.1017,36463.5
294.2218,282.7
294.2856,747.2
294.3304,117
294.403,18.8
294.5016,20.2
294.5152,149.1
294.607,304.7
294.6456,244.7
294.7008,147.2
294.8068,16.9
294.8297,28.5
294.9176,18.8
294.9908,277.1
294.9977,531.2
295.0311,1282
295.0398,18.2
295.1024,2592.5
295.1364,19.7
295.1416,738.5
295.1949,33542.8
295.298,377.3
295.4981,42.4
295.562,596.2
295.5739,223.7
295.5821,21.9
295.7084,300.2
295.7719,19.9
295.7775,161.4
295.8273,17.1
295.8578,130.5
295.9776,29.7
296.0096,706.4
296.1045,374.5
296.1582,102.2
296.1983,4062
296.2109,638.5
296.2167,142.9
296.3527,205.6
296.3842,122.2
296.419,212.9
296.5866,329.4
296.6819,254.9
296.7161,318.3
296.8013,391.6
296.8128,421
296.8571,26
296.9363,597
296.9831,472
296.9877,458.3
297.1066,23.4
297.3133,181.8
297.5538,111
297.601,89.9
297.6325,218.2
297.6555,352.9
297.8902,22.7
298.0253,1617.5
298.0425,15260
298.1167,546.2
298.1354,135.3
298.2313,422.5
298.2443,510
298.3254,22.7
298.416,197.6
298.5294,399.8
298.5731,304.4
298.9868,63.5
298.991,214.3
299.0232,2508.9
299.046,440.3
299.0821,652.4
299.1395,7305.2
299.1963,923.8
299.2552,746.2
299.388,232.1
299.4332,120.2
299.5887,481
299.6848,113.9
299.9458,18.5
300.0356,1002.2
300.0504,570.8
300.0563,18
300.0757,343.3
300.1006,22.1
300.1435,321.6
300.1859,423.6
300.1963,51.5
300.3745,100.1
300.4157,175.5
300.606,197.2
300.7477,217.7
300.8197,99.9
300.8581,424.3
300.9051,277.4
300.9672,17.8
301.0124,132
301.0388,20253.3
301.0518,314.2
301.0764,21.5
301.1015,357.1
301.1412,608.2
301.1637,429.6
301.2118,5846.2
301.2339,150.1
301.3627,379.9
301.6289,307.4
301.7371,211.6
301.906,520.2
301.9433,450.1
301.9822,18.9
301.9941,2024.5
302.0122,1648.5
302.02,643.5
302.0355,59.3
302.0515,232.4
302.0643,3944.6
302.2771,607.2
302.3317,22.9
302.378,200.9
302.3893,517.6
302.5917,17
302.6312,102.6
302.6335,134.9
302.6351,139.9
302.6415,140.4
302.6704,290
302.7167,875.5
302.7243,192.2
302.8296,2017.3
302.8819,18.5
302.9266,1482.9
302.943,114.6
302.9865,296.3
303.0031,781.6
303.0394,136.6
303.0676,339.8
303.2174,1998.5
303.6749,259.1
303.7039,412.8
303.7223,171.6
303.7869,254.8
303.8285,20
303.8946,161
303.9862,166
304.0176,453.9
304.06,59.6
304.0926,1307.6
304.111,122.5
304.34,185.5
304.5039,271.9
304.5082,414.4
304.6334,293
304.7021,405.7
304.7426,398.9
304.75,326.5
304.7953,133.1
304.814,127
304.8267,794.8
304.8964,711.8
304.9338,502.8
304.9518,299.3
304.9757,482.5
305.157,206.7
305.1891,657.2
305.2176,103.6
305.2329,2493.6
305.3047,509.6
305.5182,486.9
305.6984,230.6
305.7296,751.8
305.7618,472.5
306.001,114.2
306.0277,221
306.0951,53.3
306.1012,307.5
306.1379,238.8
306.2736,96
306.2763,263.3
306.278,261.4
306.3058,119.5
306.6479,411.1
306.6854,225.1
306.6937,562.4
306.7621,177.4
306.767,81.3
306.7752,350.8
306.8296,454.8
306.9292,212
306.9581,1052
306.9614,804.4
306.9713,93.6
306.9775,1923.7
307.0574,159.4
307.1246,21.5
307.1538,171.4
307.1948,678.9
307.2405,452.6
307.3106,493.9
307.4419,135
307.4497,191.6
307.881,19.4
307.8962,514.9
307.9046,611.1
307.9581,655.6
308.0154,19.3
308.1229,109.3
308.2568,252.5
308.3302,494.4
308.3905,111.8
308.4225,20.2
308.442,237.8
308.4506,240.6
308.6427,953.6
308.8085,114.8
308.8214,19.2
308.8792,2967.2
308.9338,987.9
308.9428,687.7
308.9556,463.2
309.0065,191.2
309.0374,3934.2
309.0827,554.8
309.1105,120.2
309.1239,443.3
309.1514,78.9
309.1835,17.3
309.4372,259.8
309.4783,299.7
309.5471,134.7
309.5843,154.4
309.7007,466.8
309.7047,472.9
309.8028,263.9
309.8396,198.4
309.8527,317.5
309.9248,841
309.9323,112.7
310.0116,116.6
310.0356,296.1
310.2888,138.3
310.3052,22.8
310.4482,429.9
310.4779,139
310.5908,273.3
310.7189,360.5
310.8235,203.8
310.8765,3404.9
310.9448,833.6
311.0038,338.3
311.1233,565.2
311.1503,153.2
311.1617,109.1
311.1676,688.1
311.2148,21.3
311.2582,687.2
311.5236,166.3
311.5334,197.2
311.5519,360.5
311.7834,109.5
311.9992,86.3
312.0197,203.9
312.0299,249.8
312.0411,3074.3
312.0866,158.4
312.2832,141.1
312.3925,150.6
312.6041,200.3
312.6482,18
312.6964,868.5
312.7644,100.1
312.8035,22.8
312.8556,23.3
313.0022,42.7
313.0179,144.7
313.0362,1111.2
313.2106,338.7
313.2342,327.4
313.2742,62922.9
313.3209,19.8
313.3687,311.2
313.45,22.6
313.5805,19
313.6447,299.7
313.6705,192.2
313.6997,99.2
313.8017,167.3
314.015,3621.9
314.0495,796.9
314.0914,171
314.1421,28.7
314.2558,602
314.2776,8859
314.285,288.5
314.4472,441.8
314.4491,530.4
314.6663,23.2
314.6822,191.9
314.6895,264.7
314.7795,556.8
314.7982,276.7
314.8372,4540.1
314.8885,171.5
314.9006,132
314.9351,491
314.9993,4308.7
315.0044,2116.9
315.0192,453.1
315.043,983.2
315.0493,1836
315.0525,3244.6
315.0555,7991.4
315.0595,3349.4
315.0617,3933.4
315.064,5612.9
315.0667,16628.4
315.0698,22983.1
315.0733,18841.7
315.0804,7664998
315.0868,26148.6
315.0921,11105.6
315.0941,7849.6
315.0962,4530.3
315.0984,4007.6
315.1006,3110.2
315.1027,2890.8
315.1075,1427.8
315.1091,1807
315.111,1356.8
315.1133,1373.6
315.1152,1032.8
315.1243,392.2
315.1258,431.9
315.1616,5012.4
315.2011,116.1
315.2594,157.4
315.3238,7620.5
315.3313,184.8
315.4711,269.2
315.4848,199.6
315.5847,483.6
315.5991,141
315.6117,159.8
315.6187,526.3
315.7026,136.4
315.7776,756.8
315.8057,21.9
315.8543,335.1
315.8928,333.9
315.9105,134.3
316.011,66.2
316.0533,26.4
316.0689,891.4
316.0776,41567.5
316.0837,793441.9
316.2448,123.8
316.2661,316.3
316.3232,396.8
316.3868,94.7
316.5548,197.5
316.5875,116
316.6488,216.1
316.7238,19.9
316.7934,940.4
316.9002,445.4
316.9183,23.5
316.9254,538.1
316.9863,2328
317.0202,869.2
317.0562,539.9
317.0653,1970
317.0842,94197.9
317.186,629.1
317.2055,826.1
317.3559,300.7
317.4448,792
317.6408,103
317.6694,113.8
317.7196,148.1
317.7967,279.3
317.8173,231.7
317.8225,56
317.8543,335.9
317.8851,358.8
317.9869,327.8
318.035,272.5
318.0878,8981
318.1382,328.1
318.2309,491.5
318.2712,143.7
318.2778,531.4
318.4685,560.1
318.5434,17.6
318.783,412.9
318.7929,937
318.8039,1449.8
318.8308,276.8
318.8647,40.5
318.9074,550.9
318.9571,20.1
318.9664,405.7
318.9852,222.4
319.1949,49916.5
319.2381,223
319.5213,89.8
319.5397,151.4
319.8859,20.2
319.9656,390.6
320.0359,111.7
320.075,50.7
320.1983,6953
320.259,1328.9
320.3026,165.1
320.5008,353.6
320.5378,25.8
320.6015,19.5
320.7514,226.3
320.8003,431.2
320.825,150.5
320.8303,21.5
320.9028,21.1
320.9726,295.7
321.0042,422.9
321.1118,288.5
321.2105,73109.7
321.2442,697.3
321.2625,111
321.5148,304.9
321.5556,104.6
321.6713,606
321.7719,19
321.8173,52.3
322.0091,175.4
322.0204,94
322.0406,21.1
322.0816,19.6
322.1859,322.1
322.2138,9998.7
322.2444,18.8
322.2955,107.8
322.4376,219.9
322.5595,135.4
322.611,400.4
322.6444,211.8
322.6907,103.8
322.7078,21
322.7315,21.3
322.7977,369.2
322.8114,577.3
322.8867,596.9
322.9322,763.9
322.9518,369.2
323.0207,12075.6
323.1402,287.2
323.2262,4091.1
323.4259,23.5
323.5256,197
323.6494,145.3
323.7682,298
323.82,190.8
323.8276,359.1
323.8451,481.5
323.8626,246.1
323.9115,153
324.002,4588.3
324.1918,355.6
324.2884,20.4
324.3331,295
324.3549,143.3
324.434,175.7
324.5598,933.8
324.5654,2771.7
324.5755,8817.5
324.7043,553.5
324.7185,556.6
324.8093,395.5
324.8532,2776.3
324.8888,363.3
324.9201,648.3
324.9297,385.5
325.0018,2010.1
325.0078,19.5
325.2119,6053.4
325.2643,329.4
325.3394,270.2
325.3718,844.5
325.4278,222.5
325.479,99.1
325.5074,175.8
325.6291,18.9
325.7565,333.2
325.9273,274.5
325.9406,292.7
326.006,28.1
326.2154,517.4
326.2398,773.8
326.3756,550.8
326.391,224.1
326.5034,222.8
326.5491,130.3
326.6306,155.3
326.6397,357.8
326.7634,797.6
326.8504,2071.4
326.8851,147.5
326.9496,19.3
326.9844,300.3
327.0159,4573.9
327.0277,19.5
327.052,1062.9
327.0917,118
327.1801,377.8
327.194,186.9
327.2174,596
327.2276,17635.3
327.4243,784.1
327.4383,255.7
327.5411,134.2
327.7493,231.9
327.8221,578.5
327.8457,574.2
327.9053,170.8
327.9337,668.2
327.9973,271.1
328.0151,974.5
328.0487,911.9
328.2307,2364.9
328.4017,748.6
328.4265,166.8
328.5341,102
328.5495,18.9
328.5879,354
328.7065,598.4
328.7329,181.9
328.7464,19.2
328.7639,562.7
328.8275,545.3
328.8682,479.3
328.8962,155.1
328.9662,219.9
329.01,710.7
329.0959,2066.5
329.3633,126
329.4313,389.5
329.5323,508.8
329.7949,416.7
329.8224,44.4
329.8942,169.9
329.9373,20.5
330.0592,187.4
330.0794,151.6
330.1852,157.2
330.3763,511.1
330.5773,109.5
330.6187,189.9
330.649,145.1
330.6569,508
330.7907,113.3
330.8569,110.1
331.0195,1233.8
331.0455,117852.6
331.0543,1079132.4
331.2422,285.3
331.2712,414.9
331.486,203.8
331.6424,107.4
331.9624,26.5
332.0279,375.1
332.0482,8309.6
332.0577,100000.6
332.391,129.2
332.5095,149.3
332.5947,599.2
332.7501,455.4
332.8082,35.9
332.8396,441.9
332.9296,261.6
332.9359,24.1
332.948,675.1
332.961,984.3
333.0049,396.9
333.0525,63708.7
333.0581,12370.5
333.1513,232.7
333.338,211.5
333.5024,557.2
333.723,328.8
333.8398,143.6
333.9304,429.3
333.9802,91.7
334.0231,437.1
334.0558,5058.5
334.0623,203.2
334.0901,36
334.2859,462.8
334.3619,144
334.4221,240.8
334.441,23.5
334.752,436.1
334.778,476.4
334.7952,162
334.8088,730.8
334.8257,720.8
334.8372,28.8
334.9041,397.7
334.9453,246
334.955,97.7
335.0161,510
335.0377,584.5
335.0515,614.4
335.1672,2678.1
335.4149,137.2
335.4739,545.2
335.8324,24.9
335.9137,224.3
336.0088,216.8
336.1307,270.4
336.1712,264.9
336.1934,377.4
336.2268,418.2
336.2745,381
336.3629,195.5
336.4026,377.3
336.4481,340.4
336.5776,539.2
336.6239,118.1
336.9081,509.4
336.9421,445.2
337.0364,9113.7
337.0499,20689.1
337.0624,569484.3
337.0988,549.7
337.1832,1607.5
337.2611,354.5
337.2741,11672.3
337.6233,796.6
337.6375,19.5
337.7499,624.8
337.8443,145.1
337.879,175.7
337.899,21
338.0509,415.2
338.0657,49429.5
338.0809,19.1
338.0919,548.4
338.1864,27.1
338.257,308
338.2639,116.6
338.3424,66.2
338.3487,600.4
338.3959,790.1
338.7625,225.8
338.8029,764.1
338.8672,126.6
338.9081,254.2
338.9212,887.6
339.0217,552.3
339.0384,1825.1
339.0475,961.7
339.0661,4606.4
339.1987,51
339.2231,330.7
339.2898,9062.6
339.3844,502.9
339.4138,550.2
339.6344,100.7
339.7758,142.6
339.8648,276.9
339.9641,209.9
339.9761,387.6
340.1308,24.8
340.143,258.7
340.1814,234.3
340.1906,182.6
340.3897,817.9
340.5229,157.7
340.5673,159.7
340.7692,411.8
340.7816,245.8
340.8786,104.8
341.0184,37.7
341.0604,27.2
341.1368,271.9
341.158,1076.5
341.2035,17.3
341.3055,6291.1
341.3227,150.2
341.4871,795.7
341.5343,401.8
341.5446,20.2
341.6287,89.5
341.6617,170.2
341.714,841.2
341.8638,92
341.8652,92.4
341.8763,156.3
342.0155,4723.5
342.0691,20.9
342.1667,158.4
342.309,616.1
342.6107,197.9
342.6848,666.9
342.7712,328.3
342.8692,843.2
342.919,495.7
342.9729,344.8
342.9808,651
342.9895,648
343.083,168
343.195,21203
343.2257,170.1
343.2647,222.7
343.3641,317.5
343.5519,324.8
343.5922,361.1
343.9749,936.6
344.0634,153.7
344.1121,139.7
344.1981,1517.8
344.2775,148.7
344.3482,20.7
344.5538,378.3
344.7075,769.1
344.8807,186.8
345.0826,308.3
345.1211,642.6
345.1762,95.1
345.2107,4976.9
345.3493,420.2
345.3644,974.2
345.5469,139.6
345.5952,430.8
345.637,181
345.6727,309.5
345.8447,110.7
345.9724,312.7
345.984,19927.4
346.0197,127.3
346.0258,1198.5
346.0412,105.2
346.056,23.1
346.1001,1166.5
346.3715,19.6
346.3849,353.8
346.4145,20.8
346.6291,253.2
346.7027,427.6
346.8244,27
346.8344,20.8
346.963,676.4
347.0172,363.6
347.0483,20.6
347.1555,124.1
347.2266,622.7
347.3545,303.1
347.4794,756.8
347.512,152
347.7897,262.6
348.3728,141.8
348.5504,151.4
348.8157,424.9
349.0181,667.7
349.1621,200.1
349.3955,514.8
349.6046,140.3
349.7593,770.2
349.7854,134.5
350.0968,414.1
350.1674,488.4
350.2159,231.1
350.29,132.4
350.3729,500.1
350.3817,343.7
350.8821,193.4
350.8872,369.1
350.9012,315.3
351.0215,20
351.287,163
351.3568,176.2
351.4292,169.7
351.5177,409
351.622,325
351.7501,92.4
351.8683,127.3
351.9567,283.4
352.1172,211.6
352.1399,455.1
352.1677,817.8
352.3889,156.9
352.5467,593.8
352.6644,153.8
352.8976,1245.9
353.0274,128082.5
353.0363,188235.3
353.3231,144.2
353.5408,169.2
353.6148,649.9
353.7933,738.7
353.9445,458.2
354.0172,185.5
354.0305,10381.2
354.0396,17747.5
354.1178,358.4
354.1324,522.1
354.168,159.4
354.2705,177
354.297,260.3
354.5306,558.3
354.7177,153.2
354.8518,457.7
355.0036,281.5
355.0121,840.2
355.0348,10688.8
355.0638,348.6
355.0706,532.8
355.0797,260.9
355.1065,147.5
355.1266,170.8
355.2162,542
355.5348,493.8
355.583,333.3
355.6566,147
355.7604,82.2
355.8402,92
355.8788,22.7
355.8973,860.4
355.9209,800.5
355.9468,339.9
356.015,39.2
356.0379,280.6
356.0623,501.3
356.1605,609.3
356.2957,526.6
356.3522,167.2
356.588,157.4
356.5954,135
356.8719,157.5
356.9972,23.9
357.0088,789.9
357.0434,242.6
357.0581,129.8
357.11,468.1
357.1449,176.1
357.3774,182
357.5285,315
357.5664,370.8
357.5811,632.3
357.6396,457.1
357.9423,115.2
357.968,228.7
357.9777,364.7
358.0999,1096.7
358.1283,585.3
358.2068,882.8
358.2506,347.5
358.6889,253.9
358.7196,515.8
358.8089,354.3
358.9311,128.2
358.9683,103.2
359.0079,283.1
359.0318,12724.5
359.0443,322150.7
359.0917,526.8
359.1676,1503.1
359.1827,242.9
359.2586,468.1
359.4397,1294.6
359.4878,485.8
359.5038,185.9
359.5185,104.6
359.5595,676.6
359.5744,402.5
359.5851,264.7
359.5992,524.3
359.6028,366.8
359.6213,1455.8
359.6348,967.2
359.6407,487.7
359.6524,23
359.6721,533.7
359.694,538.7
359.7173,21.5
359.7535,1297.7
359.7607,119
360.019,279.7
360.0318,271.7
360.0477,29448
360.0625,104.4
360.1569,128.3
360.1712,26.5
360.3243,178.4
360.3692,103.8
360.5456,427.1
360.6904,18.9
360.749,20.6
360.8552,18.9
360.8903,132.1
361.0203,4365.3
361.0286,550.7
361.041,296.9
361.0486,1216.8
361.1831,336.3
361.1904,267.9
361.2263,340.1
361.2745,1052.9
361.331,177.5
361.4633,366.5
361.5231,179.1
361.5552,96.2
361.883,100.4
361.958,5026.7
362.1738,139.1
362.2565,603
362.26,616.9
362.3416,473.2
362.7339,285.5
362.9186,20.6
362.9271,1167.5
362.9614,211.1
363.1733,22
363.2105,92.9
363.5252,20.2
363.5798,500.2
363.594,201.2
363.8248,268.6
363.9511,144.5
363.9974,1682.1
364.0426,208.3
364.3393,18.7
364.4369,326.6
364.4577,109.6
364.5332,24.7
364.8117,534
364.9642,197.7
365.1059,2977
365.1512,107.7
365.2314,18.5
365.5084,19.2
365.8499,243.6
365.9861,61.1
366.2044,130.1
366.3277,357.3
366.3941,271.9
366.4591,20.5
366.6643,272.6
366.7846,603.7
366.8734,623.2
366.9181,162.4
367.1061,257.7
367.1211,1046
367.133,267.2
367.1957,2235.8
367.2023,554.5
367.3708,327.7
367.8183,162.9
367.8447,89.5
367.8669,19.4
367.9921,760.4
368.0018,124
368.0271,130.1
368.0659,92.9
368.1072,582.1
368.1401,120
368.1793,211.7
368.5972,159.1
368.8711,316.4
368.9058,153.3
368.9677,25.5
368.992,1786.1
369.0015,15029.1
369.0102,6753.4
369.0251,801.9
369.3523,538.2
369.3756,736.2
369.6107,841.2
369.7358,129.2
369.8216,596
369.9742,989.6
370.0604,23
370.1761,374.6
370.2607,144
370.4526,357.1
370.6664,211
370.7107,206.5
370.8045,662.1
370.8413,102
370.8818,498.8
370.9171,481.2
371.0001,835.2
371.0422,833.1
371.1369,84.3
371.1637,193.3
371.1775,320.2
371.2327,630.3
371.265,1598.5
371.3039,18.8
371.5071,25.5
371.7772,317.3
371.8115,108.8
371.8913,18.9
371.9819,135.5
372.1382,94.7
372.2599,20.5
372.4589,146.4
372.4913,18.9
372.7389,1169.7
372.9525,168
372.9838,451.2
373.067,688.9
373.3456,137.5
373.3529,99.9
373.729,230.7
373.7524,326.3
373.923,131
373.9693,120.5
374.0416,277.1
374.2013,211.6
374.2962,635.3
374.4203,550.9
374.5994,298.8
374.6369,343
374.6853,391.9
374.8624,318
375.0094,123145.3
375.0183,98901.2
375.087,154.8
375.1778,291.4
375.1899,309.8
375.3866,749.8
375.4004,826.4
375.5073,104.2
375.6087,206.8
375.6312,18.1
375.6614,187.6
375.7127,135.2
375.7368,20.3
375.9652,26.8
375.9886,17.7
376.0126,9185.4
376.0216,9231.1
376.1145,848.4
376.4281,323.5
376.4555,547.9
376.532,194.9
376.5729,586.5
376.8984,19.5
376.9942,616.5
377.0167,5083.5
377.3336,340
377.3422,453.2
377.5269,19.9
377.6756,186
377.8071,33.7
377.8467,23
377.9509,20.9
378.0235,518.3
378.0737,221.2
378.155,125.6
378.276,316.9
378.3258,424.4
378.335,229.9
378.415,957.5
378.5305,531.1
378.5815,116.1
378.7058,187.9
378.8152,339.5
378.8339,731.3
378.9008,1038
378.936,137.3
379.0018,586.6
379.1542,21.2
379.4626,140.8
379.6273,109.5
379.6649,484.2
379.7068,149.9
379.8118,327.4
380.0323,204.4
380.1003,149.1
380.3885,332.8
380.5833,603.4
380.7707,468
380.7785,23.3
380.8267,221.7
380.9493,110.6
381.0138,21752.5
381.0263,190481.5
381.0757,19.1
381.1081,98
381.185,273.5
381.4604,167.4
381.6681,337.3
381.7646,188.1
381.8941,244.9
382.0297,18908.4
382.1977,306.3
382.5434,195.3
382.6224,143.2
382.666,674.6
382.7676,1479.6
382.8372,21.7
382.981,195.3
383.0124,670
383.0625,469.2
383.1166,233389.8
383.1397,18.8
383.156,290.9
383.3268,165.9
383.3402,261
383.3654,135.2
383.6098,206.5
383.6222,510.4
383.7568,168.6
383.7834,140.1
383.8322,254.3
383.9106,366.7
383.9661,1110.4
383.9839,227.6
384.0982,676.4
384.1198,26410.9
384.1303,192.9
384.2461,524.7
384.3048,565.1
384.3607,20.2
384.4489,97.4
384.5959,18.5
384.6511,227.8
384.7639,413.1
384.9033,239.1
384.9732,125.3
385.0452,161.8
385.1208,2110.3
385.2489,205.6
385.3012,117.7
385.399,523.6
385.5493,126.3
385.6367,152.8
385.6579,330.1
385.9794,4105.6
386.0633,90.7
386.5301,532.8
386.8905,114
386.9249,397.8
386.9609,128.2
386.9925,310.2
387.0026,1148.5
387.181,17.9
387.2606,558.9
387.2799,281.7
387.4501,99.6
387.8716,767.1
387.9777,222.5
388.1496,335
388.1652,311.9
388.1855,1407.9
388.2317,236.2
388.6498,18.4
388.6616,19.9
388.6811,112.3
388.7122,1084.7
388.7794,89
388.8821,132.5
389.0353,580.9
389.111,132.7
389.1869,545.7
389.2466,244
389.3106,106
389.5995,165.1
389.712,212.6
389.7632,117.4
389.9087,132.4
389.974,21453.8
389.9941,22.8
390.0794,119.8
390.134,285.3
390.1569,21
390.2235,154.7
390.349,197
390.438,498.2
390.4562,1076.5
390.4763,92.1
390.7104,471.3
390.7905,402.1
390.7995,1629.4
390.8291,22.7
390.8577,21.5
390.9064,563.3
390.9282,114.3
390.9396,91
390.9743,11749.1
390.9832,20156.5
390.9923,10951.6
391.1264,321
391.3645,1020.6
391.4628,351.7
391.4798,416.3
391.4932,298.3
391.5345,206.5
391.5559,334.4
391.7217,22.5
391.8883,93
391.977,1239.1
391.985,406.3
392.0051,64.9
392.1632,501.3
392.1731,169.6
392.4016,302.3
392.5796,185.8
392.6964,111.2
392.796,1062.2
392.9301,579.8
392.9819,435.9
392.9909,222
393.0059,96.3
393.0809,131.9
393.1597,279
393.251,374.2
393.4411,108.8
393.5792,241.6
393.7336,259
393.745,18.6
393.8026,29.2
393.816,130.1
393.8558,182.3
393.8725,448.3
393.938,545.8
393.9783,149.2
394.0595,185.1
394.16,418.6
394.1998,181.1
394.4905,377
394.5851,99.4
394.7418,162.3
394.8556,211.1
394.8837,240.9
394.9871,163
395.2884,103.5
395.3852,360.1
395.9442,387.6
396.0239,143.3
396.076,173.8
396.173,164.2
396.2893,21.1
396.3694,21.9
396.415,192.1
396.6688,486.2
396.7442,1065.1
396.7969,112.5
396.965,126.6
396.9913,183568.4
397.0002,58791.5
397.0262,548.8
397.1388,946
397.1465,291.1
397.4564,637
397.4866,532.1
397.7162,19.1
397.96,168.1
397.9705,730
397.9947,15791.3
398.0037,1638.5
398.0415,113.8
398.0704,436.5
398.2043,318
398.2418,4914.2
398.4062,97.7
398.4345,314.4
398.6848,524.3
398.7413,2149.5
398.7618,954
398.8393,169.3
398.9363,289.2
398.9868,404.3
398.9987,644.4
399.1044,203.1
399.1299,252.3
399.2132,551.9
399.2589,865.9
399.4755,114.9
399.4855,515.3
399.8154,169
399.8522,692.9
399.9627,110.9
399.9736,361.4
399.9908,23.6
400.0163,122.9
400.0429,195.8
400.15,738.8
400.1866,121.2
400.3147,19.7
400.6835,21.5
400.7391,765.2
400.7689,136.1
400.9305,418.6
400.9764,212.8
400.9847,888
401.0552,181.7
401.172,519.1
401.3045,368.4
401.3119,248.4
401.3707,304.9
401.5575,655.4
401.6697,496.3
401.7415,19.5
401.8349,367
401.8739,198.1
401.9451,20.2
401.9531,824
401.9804,781.6
402.0053,117.7
402.031,21.6
402.0531,135.4
402.0808,123.9
402.1404,149.9
402.238,141.6
402.3585,384.7
402.5124,223.7
402.5257,757
402.538,408.6
402.5752,104.3
402.6093,255.3
402.689,349.1
402.7532,361.3
402.825,416.9
402.9955,1151.7
403.0083,256101.7
403.1076,21.1
403.1944,487.7
403.2786,407.2
403.3352,97.4
403.355,317.4
403.3986,130.1
403.4921,472.5
403.7247,505
403.7742,744.5
403.9528,341.2
404.0116,22293.9
404.3327,101.8
404.4006,295.4
404.6881,1039.6
404.7477,123.5
404.7739,113.5
404.7935,28.3
404.8161,24.5
404.9287,135
405.0127,531.5
405.1264,112.1
405.1687,311.5
405.2862,715.3
405.2976,154.5
405.3944,297.8
405.6515,114
405.8522,141.4
405.9142,97.1
405.9478,12458.9
406.2221,328.5
406.2283,159.5
406.33,1099.6
406.3852,150.5
406.4171,207.1
406.5835,508.6
406.7153,314.3
406.7732,1728.8
406.9564,110.7
407.1131,185.5
407.3359,358.9
407.3671,408
407.6102,111.3
407.8869,351.8
407.9461,131.5
408.2855,138.9
408.3276,18.8
408.4092,641.4
408.4697,657.7
408.6566,212.2
408.6666,315.2
408.7111,136.6
408.7703,1610
408.8555,1004.1
408.9849,2437.2
409.0519,119.4
409.1138,122.2
409.4575,104.5
409.8266,529.5
409.8778,211.6
409.9558,157.6
409.9838,484.4
410.0154,760.6
410.1952,162
410.2331,284.6
410.3712,546.8
410.695,18.5
410.7617,1315
410.8642,226.4
410.8784,110.5
411.0271,939.8
411.2459,119.4
411.3413,451.4
411.414,371.3
411.4535,141.6
411.4829,340
411.616,151.5
411.7103,209.1
411.771,451
411.7862,145.2
411.7938,905.2
411.9614,169.6
411.9727,110.3
412.0297,125.8
412.048,211.3
412.1483,237.5
412.3216,2068.7
412.354,1082.8
412.3758,132.7
412.3925,191.9
412.4423,226.3
412.5664,344.7
412.6742,177.8
412.7041,123.9
412.7176,578.6
412.7269,108.6
412.9651,36348.6
412.9741,8812.4
412.9975,81.9
413.1227,90.3
413.2671,3121.4
413.3247,181.2
413.4079,113
413.4399,110.3
413.4958,368.8
413.6002,96.8
413.6715,97.2
413.7719,186.8
413.8341,113
413.8479,152.4
413.9118,299
413.9396,103.2
413.9691,318.3
413.9802,189.4
414.1872,206.7
414.2361,18.3
414.2676,306.5
414.4249,19.2
414.5064,131.4
414.7211,95.5
414.9072,140.6
414.9168,695.9
414.9794,161.6
414.9978,1248.2
415.0193,281.3
415.1792,17.9
415.1973,159.6
415.223,2721.4
415.317,122.5
415.7413,231.2
415.8534,418.6
415.9794,22.6
416.104,137.3
416.1355,10057.6
416.2146,22835.3
416.2406,193.8
416.4173,323.2
416.5541,254.6
416.6673,289.6
416.7399,19.7
416.7777,443.2
416.9017,230.7
417.063,401.2
417.218,2641.8
417.2426,404
417.3224,584.9
417.6464,24.6
417.7178,96.5
417.8654,612.7
417.9278,133.2
418.0014,306.2
418.0338,249.8
418.1694,480.1
418.258,288.5
418.5199,134.4
418.6103,247.7
418.7378,887.5
418.7977,847.6
418.9432,609.4
418.9822,86564.4
419.0511,341.5
419.0897,330.5
419.2036,126.2
419.2542,1367.3
419.3716,19.2
419.4044,180.6
419.618,178.4
419.683,323.3
419.785,750.2
419.9232,353.9
419.9855,4078.7
420.1328,312.1
420.3089,143.8
420.4174,897.3
420.468,170.3
420.5727,510.2
420.6559,368.5
420.8892,187.9
420.9406,198.4
420.9584,370.4
420.9804,3585.7
420.9908,125.8
421.0713,737.1
421.2166,97.5
421.233,183.1
421.4525,567.4
421.5837,396.6
421.747,124.2
421.8325,18.9
421.9214,1255.8
421.9331,425.2
421.9587,339.8
421.9976,104
422.0323,300.7
422.3037,21.6
422.3948,20.7
422.4404,111.5
422.4663,176.5
422.9421,96.2
422.9557,398.7
422.9752,113.6
423.0865,247.9
423.3889,1005.7
423.8904,605.4
424.0003,107.3
424.245,365.1
424.5007,149.6
424.6674,113
424.7434,626
425.0521,339.6
425.3988,673.2
425.5581,131.4
425.5724,456.8
425.6059,172
425.7299,695.6
425.9309,754.4
426.0685,137.2
426.3924,187.9
426.416,191.1
426.8936,321.3
426.942,73.7
426.9768,405.2
427.1586,1155.8
427.1917,235
427.3449,168.5
427.6924,392.3
427.854,18.2
427.9279,345.3
427.9672,24.7
428.148,190.4
428.1739,468
428.2595,114.1
428.5067,136.7
428.6067,292.1
428.8122,409.3
428.8853,159.3
428.922,468.6
428.9292,300.8
428.9385,4048.5
428.9524,727.5
428.9705,774.5
428.9915,207.8
429.0142,349
429.0903,602.5
429.487,137
429.6705,19.8
429.7365,20.4
430.0886,982.8
430.2317,100.8
430.696,501.6
430.7615,201.3
430.9141,1141.7
430.9529,130
431.2061,158
431.2175,6373.9
431.38,117.3
431.4004,163.8
431.5573,160
431.5678,506.3
431.7477,523.5
431.9985,275.7
432.6762,159.4
432.8166,18.5
432.8269,18.7
433.0925,408.3
433.1416,286.1
433.2509,20.9
433.3603,130.5
433.371,147.1
433.4886,24.2
433.5705,329.9
433.7084,144
433.9486,254.6
434.0783,19.4
434.6913,660.7
434.7001,118.9
434.7575,21.6
434.7905,318.6
434.8913,865.9
434.9563,15582.2
435.0324,200
435.0958,545.9
435.1918,346.9
435.2179,212.9
435.8493,516.9
435.9412,312.7
435.9608,434
436.0553,441
436.2312,138.1
436.8241,373.8
436.9315,148.6
436.9646,22.4
437.1871,817.2
437.2043,2915.8
437.2446,105.4
437.322,986.7
437.4033,344.2
437.4107,553.8
437.4496,100.4
437.4871,424.5
437.5252,155.2
437.5493,318.7
437.5841,476
437.8951,705.3
437.9161,418.4
438.0982,342.9
438.1294,325.9
438.5505,315.7
438.7776,714.6
438.9264,547.1
438.9721,5411.7
438.9849,3099.3
439.1274,496.3
439.2047,284.2
439.2188,120.7
439.6776,319.3
439.7105,805.6
439.7702,595.2
439.9022,455.3
439.9657,103
440.2339,165.5
440.7253,409.8
440.7588,287.2
440.97,507.1
440.9828,357.2
441.2388,692.9
441.298,245.6
441.3352,837.7
441.6714,595.7
441.7529,484
441.8555,20.2
442.3043,434.7
442.3345,273.9
442.7237,853.6
442.7509,101.4
442.7755,764.4
442.8264,478.6
443.1966,140.6
443.2549,23.2
443.4815,528.3
443.9736,28.4
443.9951,575.7
444.1711,503.3
444.2402,144.9
444.8566,547.7
444.8782,93.9
444.9311,147.1
445.1006,139.6
445.2329,3039.8
445.4258,116.5
445.6635,22.5
445.7967,21.3
445.9225,105.5
446.0394,439.6
446.3251,406.7
446.4834,19.3
446.8889,981.6
447.0526,97.2
447.1204,255.5
447.146,127.8
447.2698,176.2
447.2953,1101.4
447.3654,786.3
447.5835,18
447.6514,284.4
447.7161,512.7
447.933,555.3
447.9754,830.7
448.3446,154.8
448.6542,213.3
448.7497,18.3
448.7587,201
448.8746,245.3
448.9332,4152.8
449.0243,799.2
449.0422,125.7
449.1031,349.8
449.1547,2065.1
449.1678,93.9
449.3217,18.9
449.3735,159.4
449.6053,99.7
450.0147,185.1
450.1579,417.5
450.3498,178.6
450.412,143.4
450.5525,154.2
450.6475,368.1
450.7289,571.3
450.7938,500.5
450.9297,674.7
451.1021,150.2
451.1508,145
451.1682,824.7
451.4002,223.5
451.4938,496.6
451.6196,524.1
451.8038,135
452.1039,237
452.1421,147.7
452.7509,142
452.7666,265.1
453.0457,519.7
453.3655,109
453.3861,162.8
453.3951,110.4
453.4148,19.3
453.4247,452
453.4956,128.8
453.7771,113
453.8386,25
453.851,19.4
453.9174,503
453.9986,167.9
454.2289,280
454.3506,860.3
454.3736,20.9
454.9501,40780.7
455.2043,158.6
455.2236,333.9
455.3795,392.4
455.4773,167.8
455.5501,214.3
455.6395,116.7
455.7245,22.7
455.9244,296.2
455.9528,1703.9
456.0393,20
456.3334,485.6
456.4383,173.3
456.578,153.7
456.7016,1060.6
456.9474,8982
456.9686,116.8
457.0594,247.9
457.1048,321.5
457.1791,130.1
457.2331,23412.1
457.7298,96.4
457.8149,219.6
457.9478,18
458.2371,3118
458.3593,263.4
458.3725,201
458.5472,450
458.7009,123.4
458.7173,121.5
458.7984,708.3
458.9625,2845.6
459.0238,805.6
459.0359,20.9
459.2182,538.3
459.2488,601130.3
459.3553,310.6
459.8089,20.2
459.8649,1161.3
459.8841,834.9
460.1289,415.2
460.2521,126058
460.3021,20.6
460.3272,420.5
460.4191,452.4
460.8164,425.1
460.9669,77526.6
460.998,488.9
461.174,332.4
461.2549,10987.2
461.578,142.4
461.9702,5767.8
462.0684,845.1
462.1121,166.5
462.2184,339
462.2946,120.2
462.457,120.5
462.6366,104.5
462.7394,25.4
462.9639,19364.5
463.0176,105.5
463.1438,765.5
463.1751,160.7
463.2029,1181.7
463.8641,850.6
463.9048,126
463.9674,1301.1
464.143,422.6
464.173,330.3
464.2062,580.2
464.2754,144.4
464.5888,360.4
464.8317,21.5
464.9144,472.2
464.9789,10421.5
465.0023,133.7
465.0768,148.1
465.1542,254.2
465.1983,367
465.2435,584.6
465.3026,398.2
465.5566,591.7
465.5841,242.4
465.7063,122.9
465.7616,196.4
465.7824,135.9
465.8582,571.5
465.9579,139.8
466.3055,185.3
466.3504,349.6
466.6418,353.3
467.0302,425.6
467.505,118
467.5422,471.3
468.1677,108.5
468.3087,1656.8
468.4934,149.6
468.7184,177
468.7245,716.6
468.7273,709.7
469.0346,103.7
469.0564,118.4
469.3295,46.1
469.5858,783
469.7605,259.2
469.8497,280.2
469.9057,144.7
470.1364,92.1
470.3541,525.7
470.3674,468.2
470.4287,145.2
470.4689,147.3
470.8005,350.6
470.8307,285.4
470.8393,266.5
470.9241,17365.1
470.9401,526.7
470.9954,3140.4
471.1917,342.6
471.2385,22
471.2694,106.4
471.2997,127.5
471.567,516.1
471.6873,20.6
471.9568,182.9
472.164,650.9
472.2706,210.6
472.2838,20.7
472.3883,229.4
472.6594,502.8
472.7832,1144.6
472.8081,112.1
472.8519,144.9
472.873,378.7
472.8882,829.9
472.9047,573.3
472.9217,5533.1
472.9478,343.1
472.9564,630.4
472.9725,794.6
473.1481,126.1
473.2463,489
473.2646,5891.1
473.4629,96
473.6474,406.4
473.7411,89.3
473.8454,588.2
474.1116,217.9
474.2249,902.3
474.2492,20.1
474.4693,203.7
474.5462,452.7
475.198,368
475.2227,29179.7
475.2444,722
475.3549,186.4
475.6053,97.8
475.8233,285.9
476.0605,205.1
476.1644,125.9
476.2267,5025.5
476.2662,853.2
476.3023,264.6
476.3156,741.8
476.4196,446.9
476.4624,699.4
476.8048,84.5
476.8948,138.3
476.9409,42353.8
477.0884,138.8
477.1658,24.3
477.3181,438.8
477.4738,729.6
477.8764,310.3
477.9443,2743
477.9659,113
478.2494,533.5
478.3296,65337.7
478.4088,796
478.5052,207.9
478.5145,341.2
478.5529,334.7
478.9382,13541.2
478.9668,204.4
479.0966,23.6
479.1151,704.9
479.3326,11268.2
479.4639,20.1
479.5734,624.6
479.589,195.6
479.707,126.4
479.8689,156.9
479.9414,391.6
480.0029,334.5
480.1438,122.6
480.2077,412
480.2801,242.6
480.341,319
480.7426,234.9
480.9178,447.4
480.9524,3422.2
481.092,1576.3
481.1652,782.4
481.2332,2861.5
481.2613,136
481.3028,277.5
481.4192,678
481.4823,316.5
481.745,190.7
482.0914,430.7
482.2346,584.2
482.3258,1499.8
482.3607,2399.7
483.0883,494.6
483.1768,20.9
483.2306,340.9
483.2488,134946.9
483.3281,171.8
483.351,162.2
483.818,794.2
483.8969,281.3
484.0935,199
484.1722,150
484.2521,26118.3
484.3921,349.5
485.0003,503.4
485.2644,139221.3
485.2901,694.7
485.5438,255.5
485.6339,92.7
485.75,312.6
485.987,100.8
486.0813,18.1
486.1336,147.7
486.1459,195.4
486.2004,140.5
486.2172,24.6
486.2676,30663.6
486.4803,248
486.8106,305.8
486.8981,871.5
486.9691,640.5
487.073,22.5
487.1287,122.6
487.1509,217.5
487.2801,120179.2
487.4406,463.8
487.511,489.4
487.5311,150.6
487.826,390.4
488.0654,563.2
488.0792,220
488.1929,495.1
488.2833,24334.5
488.5367,174.3
488.5412,191.5
488.5874,20.1
488.6572,529.6
488.6902,711.2
488.8947,431.8
489.0009,116.9
489.0836,112.1
489.1254,133.8
489.2286,795.1
489.2492,96.1
489.287,680.7
489.3377,807.5
489.3802,141.1
489.3957,118.2
489.4094,239.6
489.442,95.9
489.456,360.4
489.4662,204.8
489.5175,270.3
489.544,792.7
489.5888,205.5
489.6134,153.3
489.6577,297.3
490.291,12142.9
490.341,386.9
490.3648,677.3
490.5907,529.6
490.6651,127.2
490.6865,146.6
490.7244,677.7
491.0398,138.5
491.0821,22.2
491.1393,131.8
491.2868,134.1
491.3708,1600.1
491.4859,679.6
491.5811,325.2
491.6736,106.1
491.7587,866.4
491.999,103.9
492.3751,289.9
492.4932,168.9
492.5041,19.5
492.7112,146.2
492.7547,23.1
492.8342,105.3
492.9148,8549.5
493.0657,230.6
493.3023,141.1
493.4793,520.5
493.567,687.3
493.6413,851.7
493.6932,94.9
493.6999,90.3
493.9487,205.6
494.3245,15093.9
494.3448,953.2
494.8257,193.1
494.9122,3715.2
494.939,196.5
494.968,254.7
495.1738,223.4
495.3279,2293
495.6456,760
495.8673,101.4
495.8845,20.9
495.9622,111.6
495.9987,732.4
496.0296,133.6
496.2236,18.7
496.2934,327.7
496.3403,524185.1
496.6204,102.2
496.6833,244.4
496.7509,389
496.782,917.6
496.9321,618.1
497.118,22.4
497.3436,124068.9
497.3928,95.3
497.7845,448.7
497.9947,554.3
498.0148,313.4
498.1511,107.8
498.2269,700
498.275,258.1
498.3469,10708.1
498.5052,130.5
498.8917,89.3
498.9349,374.5
498.9768,293.6
499.2227,4853.1
499.4607,365.3
499.5114,366.1
499.5494,103.9
499.7255,91.2
499.7703,112.4
500.3121,1036.5
500.4031,134
500.8826,18.8
501.148,587.4
501.2385,7694.2
501.274,600.1
501.3573,113
501.447,226.1
501.506,102.6
501.5865,184
501.7399,18.8
501.9414,616.7
502.0923,19.8
502.1646,17.7
502.265,290.1
502.3295,22443.5
502.3877,120.3
502.4947,112.8
502.6934,740.1
502.9876,1403
503.0112,294.4
503.0923,165.9
503.1074,113.5
503.2544,4892.2
503.333,2688.3
503.4741,138.7
503.5754,24.2
503.6884,198.5
503.7665,106.4
503.8848,134.5
503.9065,20.1
503.9329,121.2
503.986,132
504.0316,784.3
504.1998,237.6
504.2571,568.8
504.3067,4650
504.345,10414.2
504.5482,20.4
504.6107,282.7
505.0291,434.7
505.1879,456.1
505.2067,400.2
505.2325,1117.2
505.2565,636.8
505.3475,1638.8
505.6884,562.1
505.8424,202.1
505.8675,153.2
506.018,258
506.2333,350.3
506.2496,89.7
506.2649,1949.1
506.3178,193.8
506.3609,7937.1
506.4043,340.6
506.4635,170.4
506.4846,812.7
506.5135,21.1
506.5275,266
506.7832,181.6
506.8918,4414.7
507.1229,523.1
507.2488,40903.3
507.2667,121.6
507.3647,319.4
507.5097,308.9
507.8043,470.7
507.8715,350.1
508.0719,114.9
508.2144,139
508.2523,6993.1
508.3534,26.4
508.3767,1627.4
508.6429,311.1
508.724,138.4
508.7305,153.2
508.735,127.4
508.8541,20.8
508.8886,1346.9
508.9488,284
509.0055,4036.7
509.2643,14846.8
509.3157,582.3
509.6701,330.2
509.8764,205
510.0194,116.9
510.1022,100.6
510.121,111
510.2372,121.4
510.2677,2313.9
510.356,1864.6
510.7728,176.2
511.0939,120.7
511.1246,23.6
511.5465,672.2
511.8576,135.2
511.9681,174.8
512.0204,435.1
512.1584,23.7
512.3734,445.1
512.4618,116.1
512.5167,383.9
512.5348,567.2
512.662,338.6
512.7965,934
512.8251,174.4
512.9087,20262.1
512.9547,487.4
513.1034,216.6
513.2604,531.7
513.2759,166.3
513.3392,19.1
513.3949,140
513.8264,21.8
514.2214,95
514.886,886.6
514.9061,10799.1
515.0221,2137.7
515.9694,291
516.2285,353.6
516.3066,31000.4
516.6248,16.8
516.9207,2940
517.1785,446
517.3096,2791.9
517.4177,654
517.5558,165.1
518.0736,503.7
518.206,140.9
518.2646,177.4
518.3223,968504.8
518.7064,857.2
518.7892,322
518.8581,882.6
518.8967,318
518.9256,29223.2
519.3257,230405.7
519.4713,379
519.9289,1389.4
519.9671,415
520.1723,318.9
520.2246,578.9
520.3292,25454
520.3402,103437.4
520.4356,100.4
520.756,137.2
520.7807,312.9
520.8279,938.6
520.9225,16909
521.3436,24270.6
521.5806,404.4
521.7754,493
521.9251,345.5
521.9791,102.3
521.9963,159.5
522.3559,130763.9
522.6213,909.4
522.8647,551.5
522.9215,1098
522.937,7164.4
523.1447,21.3
523.3592,33233.5
523.9302,107.6
523.977,370.3
524.0641,451.2
524.2063,393.5
524.2501,42.2
524.2743,783.3
524.3118,21.5
524.3262,359
524.3715,128139.6
524.4738,350.7
524.4852,177
524.6016,640.5
524.6738,17.8
524.7054,512.8
524.9348,959.3
524.9788,1258.6
525.1438,171.1
525.2127,112.5
525.2383,916.3
525.3326,360.5
525.375,33148.1
525.9025,617.8
526.164,788.4
526.3026,995.7
526.3292,6835.9
526.3775,1003.4
526.519,133.6
526.9485,2389.8
527.0187,267
527.1856,128.2
527.3321,709.3
527.4378,105
527.4605,133.4
527.6916,100.3
527.7916,144
527.8358,576.9
527.9432,105.6
528.026,853.1
528.2157,23
528.3449,1613.7
528.8824,7228.6
528.9545,1945.9
528.9905,268.2
529.0073,125.1
529.0304,229.5
529.1034,533.6
529.3828,217.4
529.7517,19.1
529.8589,109.2
530.0082,317.3
530.2687,18.9
530.3588,1794.4
530.3731,103.5
530.4507,91.1
530.8797,4046.8
531.2222,139.7
531.2485,6082.1
531.3055,301.4
531.5775,560.8
531.598,137.2
531.6754,171.4
531.7598,345.9
532.1033,778.8
532.1685,228.6
532.2803,5314.2
532.3384,8186.3
532.3669,699.6
532.4466,764.2
532.5098,105.8
532.6682,132.8
532.9667,2498.5
532.981,472.2
533.0792,118.9
533.283,897.8
533.3162,159.4
533.3404,814.1
533.6993,185.6
533.7462,284.7
533.8268,21.4
533.9138,148
534.0323,392.8
534.0443,155.9
534.1481,151.7
534.2963,241829.9
534.3165,877.3
534.3598,692.1
534.3951,203.5
534.7934,183.1
534.8994,17329.9
534.9263,110.9
535.0245,87.3
535.0518,213.5
535.1195,21.6
535.2997,57069
535.5091,155.7
535.639,392.5
535.9021,1374.5
535.9214,111.3
535.9972,104.8
536.057,347.5
536.2947,14325
536.3233,18.5
536.5988,288.7
536.627,400.6
536.7618,176.7
536.7814,130.8
536.8966,9377.1
536.9283,396.7
536.9956,298
537.0148,808.1
537.0365,284
537.297,1521.6
537.3427,1394.3
537.5173,201.5
537.7813,411.3
537.9477,242.5
538.2051,163
538.2549,364.8
538.3011,140.3
538.3473,439.5
538.7494,219.8
538.836,545.8
538.8942,1076.1
538.9114,1410.1
538.9328,814.5
539.3928,93
539.4798,135.4
539.5047,137.6
539.5985,96
540.0937,226.5
540.2056,153.4
540.2433,461.2
540.2597,22.7
540.3063,2990
540.3429,125.6
540.5864,768.7
540.7676,479.9
540.7907,141.4
540.8847,656.6
540.9063,414.5
541.2289,251.6
541.257,266.8
541.2685,20.1
541.6191,429.3
542.0335,273.7
542.049,106.7
542.1214,306.5
542.1946,270
542.2537,116.1
542.3224,178869.6
542.3926,371.8
542.4914,627
542.7412,184.3
542.9139,657.8
543.1506,604.3
543.1794,227.4
543.2314,142.5
543.3257,47171.2
543.3583,102.8
543.4247,820.2
543.4932,714.3
543.7042,363.8
543.8445,18.5
544.0311,117.9
544.1284,804
544.3381,230533.2
544.6758,230.7
544.6979,610.4
544.7474,644.2
544.8205,1044.3
544.8562,1319.2
544.9281,1046.5
544.953,143.9
545.0558,793.2
545.3413,62125.4
545.4029,171.4
545.4443,295.1
545.5804,426.7
545.6411,18.7
545.7701,20.9
546.0636,22
546.1979,525.4
546.3347,1030.9
546.3537,216971.7
546.8771,135.5
546.924,541
547.2649,166.2
547.3571,50268.9
547.5264,176.7
547.8654,181.5
548.0733,100.2
548.115,808.6
548.2069,19.8
548.2291,215.7
548.2789,495.1
548.3121,1321.4
548.3603,4690.4
548.9048,102.7
548.9389,419.2
549.1862,138.1
549.3524,123.4
549.4904,26.6
550.0677,445.9
550.2512,98.8
550.2732,481.3
550.3284,23.2
550.341,343.3
550.3527,251.4
550.8732,4367.6
550.8891,18.6
551.1974,148.4
551.4356,571.3
551.4693,19.5
551.7333,20.2
551.8149,720
552.5261,320.7
552.5755,338.1
552.6074,157.5
552.7038,110
552.8701,2550.4
553.1662,161.2
553.2117,19
553.2924,560.1
553.4919,17.8
553.831,166.6
554.0087,216
554.3037,177.3
554.3484,150.9
554.6197,406.8
554.6687,21.4
554.7371,20.9
554.8696,359.6
554.9331,113.7
555.1582,526.4
555.3257,254.5
555.5536,171.9
555.6024,115.6
555.6867,423.1
555.7392,127.3
555.7577,18.9
555.8384,150.4
556.0663,586.8
556.0733,939.7
556.0776,685.7
556.1938,609.7
556.2794,761.2
556.7273,832.3
556.7669,429.5
557.0736,332.1
557.0932,22.7
557.3945,862.3
557.4657,189.1
557.6675,19.2
557.7496,148.1
558.1063,710.4
558.2963,46842.1
558.6779,634.2
558.6942,139.3
559.1463,183.2
559.2288,193.2
559.2644,140.5
559.2754,18.1
559.2992,9752.9
559.3531,24.7
559.5565,129.2
560.0754,96.6
560.1708,179.3
560.229,119
560.3119,54816.6
560.4761,221
560.7849,127.9
560.9186,567.5
560.9705,112.9
561.0208,265.3
561.3156,13783
561.4124,1628.1
561.4954,162
561.6361,445.3
561.8151,265
561.8487,299.3
562.0457,598.2
562.1081,107.9
562.1618,190.5
562.3097,2156.1
562.3276,49378.3
562.443,20.8
562.4563,530.4
562.4929,19.5
563.0194,811.2
563.202,516.7
563.3314,9799.9
563.6086,535.2
563.6309,492.9
564.0215,556.1
564.0357,131.6
564.2779,261.4
564.331,1265.6
564.5992,591.8
564.6701,20.3
564.7902,333.3
564.8506,590.3
565.1579,340.6
565.2146,471
565.2801,468.7
565.4496,488.7
565.8472,363.1
565.9214,315.6
565.9953,110.2
566.126,127.2
566.2714,352.2
566.3223,54909.7
566.4467,20.4
566.683,486.4
566.841,479.5
566.9472,305.5
566.9632,590.3
567.0074,904.9
567.3256,14804.4
567.376,18.7
568.3381,27531.7
568.8238,141.5
569.2957,523.6
569.3412,5043.1
569.3825,199.9
569.5014,156.7
569.8231,200
569.9963,17.7
570.2568,720.6
570.2838,147
570.3529,1780.5
570.5717,427.2
570.6036,542.4
570.6906,524.9
570.7088,426.7
570.8675,4407.2
570.953,115.9
571.0501,529
571.0608,990
571.2684,876.8
571.301,115.1
571.3195,137
571.3459,864.8
571.6224,347.2
571.8228,212.5
572.0418,143.8
572.1199,20.7
572.3731,341.6
572.7015,24
572.8647,4222
572.9808,1382.6
573.0766,498.9
573.1145,100.3
573.4635,306
573.6649,221.1
573.7123,376.4
573.9537,96.8
574.0819,113.1
574.2308,430.4
574.2838,1440.9
574.314,125.2
574.4668,303.2
574.4844,471.4
574.5286,184.6
574.7573,255.3
574.8391,169.8
574.8625,988.5
574.921,20.3
574.9806,220.2
575.1938,90.4
575.5038,11052.8
575.8982,544.8
575.9022,549.7
575.9201,267.3
575.9473,20.9
576.0311,244.9
576.1196,148.6
576.1696,203.3
576.2813,10443.2
576.3945,128.4
576.4648,349.2
576.508,1154.3
576.8305,184.3
576.8844,9036.2
577.2845,683.2
577.3666,19.9
577.4768,871.9
577.5192,602.5
577.8856,648.7
577.9634,156.1
578.1224,800.8
578.2521,630.6
578.2793,839.8
578.4008,189
578.5292,115.7
578.635,98.5
578.7457,92.4
578.8815,7737.7
578.9754,400.1
579.1216,135.1
579.3502,600.9
579.3643,220.2
580.0548,185.9
580.2175,197.1
580.3771,473.4
580.5499,421.4
580.6415,137.5
580.8781,1866.8
580.8967,3234.9
581.4073,428.9
581.8876,116.4
582.1181,274.9
582.2397,701.4
582.2728,150.8
582.2966,12582.3
582.4227,249.3
582.4697,457.3
582.5057,315.5
582.5391,534.9
582.5497,382.4
582.5634,803.4
582.5891,275.4
582.6097,101.4
582.677,100.6
582.7755,337
582.8938,999.3
582.9381,384.2
583.2554,2281.5
583.2863,104.2
583.3001,1360.6
583.5809,94.6
583.6023,657.8
583.758,152.2
583.8144,719.1
583.8283,188.9
583.8418,570.8
584.2922,20.2
584.3115,6271.7
584.789,95.3
584.8633,708.8
585.2717,1997.9
585.7573,238
585.9048,116.7
585.9458,185.4
586.2749,1088.1
586.2953,681.3
586.3106,7872.5
586.3833,141.8
586.5745,938.3
586.8415,3556
586.8662,123.7
586.9129,2382.1
586.9306,222.9
587.3696,119.8
587.4817,18.8
587.527,127.7
587.5652,387.9
587.989,596
588.0706,181.3
588.1398,226.3
588.2244,324.3
588.5566,898.8
588.8381,1650.3
588.9651,1206.6
588.9883,343.9
589.0378,288.2
589.096,249.2
589.2673,32.6
589.4219,849.8
589.5975,568.3
589.6677,290
589.7505,562.4
589.9784,432.9
590.0101,1025.6
590.245,191.3
590.3224,6771.2
590.4188,218.7
590.4796,572.1
590.5884,358.8
590.7185,287.9
590.9253,1174.2
591.3261,710.5
591.4982,345.2
591.7147,19
591.7674,125.5
591.8101,19.6
592.2543,1001.2
592.2691,201.5
592.2957,230.9
592.3388,2316.1
592.8583,7017
593.1307,290.2
593.2314,151.9
593.3201,726
593.9006,119.5
594.041,163.7
594.089,368.6
594.6827,402.2
594.7049,159.7
594.7814,139.3
594.8555,8890.5
595.4151,21.7
595.4481,740.8
595.8378,143.1
596.1454,374.1
596.1605,179.2
596.2549,135.8
596.3047,336.9
596.5221,516.3
596.6214,188.2
596.8533,1060.8
596.8701,454.7
596.9981,152.7
597.0368,234.2
597.3911,232.9
597.4511,3383.2
597.4603,2140.5
597.4862,10302.2
597.7196,26.6
597.8587,348.3
598.061,581.4
598.0815,233.1
598.1474,118.1
598.4268,188.5
598.4531,994.3
598.4599,1035.1
598.4891,2798.7
598.533,107.8
598.7839,959.8
598.8193,19.6
599.0721,466.9
599.1111,105.3
599.2133,151.1
599.461,1033.5
599.4715,1148.6
599.4756,982
599.5036,3963.4
599.7623,143
600.2814,1219.4
600.5086,567.2
600.5727,18.3
601.0773,179.6
601.2006,24.6
601.3458,213.1
601.5186,1123.5
602.0629,194.3
602.0687,289.3
602.074,296.6
602.281,925
602.4551,101.1
602.5144,531.5
602.7188,377.6
602.8172,518.1
603.0115,161.5
603.0536,361.1
603.3223,205.2
603.5354,314.7
604.0065,131
604.3115,1133
604.3951,158.2
604.6986,552.5
604.7907,161.2
604.8552,95.3
604.9428,114.2
605.2746,334.1
605.5588,333.6
605.7076,1060.2
605.9759,301.2
606.1918,691
606.2937,117.8
606.912,202
606.9657,158.6
607.0982,183.3
607.1712,6561.5
607.2447,364.2
607.293,18.8
607.3493,20.7
607.4821,938.7
607.5079,166.4
607.7622,119.4
607.8038,131.8
607.9717,323.6
608.1747,624.9
608.2248,219.5
608.2953,339.2
608.8321,941.8
608.9004,485.1
608.9193,316.5
609.0092,173.7
609.1702,564.3
609.8081,206.8
610.1795,142.6
610.2422,761.8
610.2989,111.5
610.3097,661.1
610.8293,1585.4
611.0302,141
611.4944,92.3
611.6146,89
611.7407,138.5
611.81,848.9
612.0514,325.8
612.1188,172.3
612.1512,210.7
612.1828,137.8
612.3121,20.4
612.3258,98.1
613.3903,476.3
613.7148,23.6
614.0304,498.9
614.1288,213.4
614.5881,225.1
614.8408,381.8
614.9501,217.1
614.9666,454.4
615.2144,19.6
615.4597,1760.5
615.8335,437.2
616.1056,123.3
616.7565,23.7
616.8374,248.3
617.0719,330.3
617.3092,555.5
617.4762,10293.5
617.5708,161.3
617.6176,21.6
617.7619,106.3
618.1777,334.9
618.4798,2677.7
618.5081,20.2
618.5731,772.5
618.7586,275.2
619.4914,7098.7
619.5068,521.9
620.1483,298.7
620.1942,24.4
620.2492,181
620.4916,420.6
620.5138,156.1
620.9737,524.5
621.2107,440
621.2629,98.5
621.4449,2027.9
621.4603,2647.7
621.4861,12115.1
621.6016,95.3
621.7039,19.4
621.7981,341.4
622.3986,883.1
622.4402,454.4
622.4641,1481.2
622.4891,2396.3
623.0035,313.2
623.046,860.1
623.1363,22642.4
623.4634,874.2
623.479,194.9
623.5039,1440.6
623.8591,104.1
623.9028,576.4
624.0998,1019.5
624.14,2875.4
624.2451,162.8
624.3904,584.6
624.5927,116.1
624.724,156.2
624.7485,489.4
624.7917,549.9
624.8789,397.8
625.143,125.2
625.4829,319.5
625.5158,274
625.5725,238.1
625.6145,543.9
626.0364,93.6
626.0655,582.8
626.0793,135.8
626.1348,20.5
626.2699,94.6
626.4184,88.7
627.3299,514
627.3808,391.8
627.4747,425.4
627.534,241.6
627.6008,162.5
627.6844,138.4
627.9984,21
628.2001,331
628.3273,232.3
628.5397,37.4
628.6058,106.3
629.1264,89.7
629.1533,45092.8
629.2925,21
629.3441,1386.9
629.3764,278
629.8507,131.9
629.9579,19.2
630.1568,8580.8
630.3449,562.7
630.4071,379.8
631.1149,264.8
631.1578,1386.1
631.2506,209.8
631.4407,493.2
632.0485,20.1
632.0596,115.8
632.1455,20.9
632.3027,208.3
633.0272,599.9
633.0835,566.1
633.1659,295.7
633.4262,104.2
633.6563,94.4
633.7673,363.4
633.8996,262.9
633.9788,136.2
634.3732,20.4
634.7641,561.9
634.8433,2435.4
634.9658,19.2
635.4926,131.1
635.5691,210.1
635.7748,229.1
635.9145,288.6
635.9949,256.2
636.0941,326.6
636.5324,802.8
636.5636,829.3
636.8406,3609.6
637.4233,419.6
637.5498,17.9
638.1002,289.9
638.405,277.1
638.4537,2150.3
638.8379,1074.2
639.3198,188.9
639.5164,369.5
639.5678,285.4
639.9901,153.1
640.4819,22.5
640.6924,344.4
640.7347,95.8
640.9172,143.3
641.4402,272.1
641.4875,220.8
642.3884,530.9
642.5292,799.6
642.6137,476.4
642.8043,744.5
643.1425,679.9
643.4179,990.8
643.666,158.9
643.7596,578.8
643.7817,101
643.7929,479.7
643.9374,346.5
644.2006,97.9
644.2314,18.6
644.3896,899.5
644.8735,710.3
644.9609,196.8
645.1183,17472.8
645.321,594.8
645.4515,474
645.481,558.3
646.121,2080.5
646.4285,1113.4
646.4793,187.1
646.8704,622.3
646.9113,577.3
646.9429,121.1
647.0971,664.2
647.1256,128.1
647.4738,117.2
647.4915,163
647.5114,22.2
647.564,165.2
647.6158,166.8
647.6516,243.2
647.6809,850.3
647.8872,812.1
647.9176,419.1
648.3855,2567.7
648.5085,475.6
648.6694,184
649.2619,20.1
649.5243,23.8
650.261,20.3
650.4387,1992.1
650.8182,2163.1
651.1352,47225.4
651.2161,22.6
651.6957,299
651.8764,142.4
652.139,7711.8
652.8139,1888
652.9079,377.3
653.0126,179.7
653.1119,450.9
653.1384,173.7
653.5763,144.5
653.7004,22.2
654.0877,334
654.1543,283.7
654.2117,412.7
654.3775,155.9
654.441,293.3
654.4461,293.7
654.5335,344.3
654.572,340.5
654.6238,218.7
654.8103,1086
654.8366,109.2
655.2297,421.3
655.9086,20
655.9333,334.6
656.09,110.1
656.2679,1054.3
657.2603,549.7
657.9823,412.4
658.1193,416.5
658.2586,473
658.5194,152.6
659.0204,145.5
659.3153,249.4
659.3656,20.9
659.4358,197.1
659.4905,528.7
660.0826,2597.1
660.3116,357.6
660.4261,199
660.7685,512.4
660.9575,368.5
661.083,7629.1
661.1373,118.7
661.3109,798.2
661.4685,1554.7
661.5401,621.4
661.7372,137.2
662.2417,128.9
662.4396,19.4
662.5541,128.1
662.6028,355.2
663.0873,813.4
663.207,21.3
663.4554,1119.1
663.8211,19.2
663.91,139.6
664.075,124.1
664.276,1372.1
664.3586,709
664.3894,561.5
664.4692,4434.4
664.8987,111.1
665.084,103.4
665.1203,140.4
665.8747,19.6
665.9849,176.5
666.3541,19.2
666.4198,686.1
666.4374,629.2
666.4838,6262.2
666.794,362.4
666.9538,20.9
667.0998,22382.9
667.2165,138.5
667.4879,948.8
668.0844,102.6
668.1039,2736
668.2401,271
668.787,404.3
668.9822,198.5
669.0887,335.1
669.1059,789.8
669.1793,21.4
669.3402,289.5
669.4464,913.6
669.4819,97.3
669.8157,151.4
670.4277,1529.5
670.5816,684.3
670.8038,141
670.9298,968
671.0662,215.5
671.3256,357.1
671.382,189.2
672.052,85.7
672.2218,103.9
672.4216,5095.3
672.4433,1825.1
672.6778,168.1
672.8032,188.8
673.1171,48399.3
673.5455,17.1
673.5754,717.2
673.7349,101.1
673.9322,124.7
674.1206,8763.2
674.4137,105.7
675.0185,192.1
675.0933,316.5
675.1225,458.7
675.5441,13213.1
675.7547,755.1
675.9713,21.4
675.9981,156
676.0478,4522.6
676.2985,117.4
676.4163,564.5
676.456,185.4
676.4822,765.1
676.547,4799.1
676.5862,182.2
677.0523,229.1
677.4734,20.6
677.6115,18.7
677.947,312.6
678.0714,284.6
678.1263,828.8
678.2185,106.6
678.2884,727.7
678.4181,692.9
678.4668,307.1
678.5809,819.5
678.6045,295.4
679.0512,138.1
679.2288,125.3
680.0047,173.1
680.4435,99.3
680.9831,298.9
681.3788,202.3
681.8993,227.8
682.0649,9451.5
682.2162,213.9
682.5678,976.2
682.985,895.2
683.0644,5285.4
683.2615,21.1
683.3377,288.6
683.4219,284.2
683.4511,790.4
683.6965,361.5
684.0683,435.7
684.1848,129.8
684.6254,275.3
685.0617,135.2
685.2024,22.6
685.4368,5654.2
685.988,174.7
686.1456,23.2
686.4403,229.1
686.9788,297.6
687.9656,174.1
688.065,19.6
688.2499,149
688.323,229.1
688.4549,112.5
688.7105,585.5
689.0816,17969.4
689.2311,140.8
689.2549,230.6
689.3884,195.9
689.4219,193.5
689.4829,244.2
689.5012,182.1
689.56,2239.3
689.6222,22.4
689.6758,200.2
689.962,561.8
690.086,1148.6
690.5629,796.9
691.4348,21
692.2198,128.2
692.3814,120.4
692.4542,1014.3
692.5927,122.6
692.6631,238.5
692.7088,483.9
692.802,365.4
692.9332,321.4
692.994,864.4
693.1445,163.6
693.1897,118.8
693.6015,330.6
694.0331,148.1
694.1493,180.7
694.1785,295.4
694.338,330.4
694.4963,653.1
694.5598,777
694.6436,515
694.6619,219.2
694.7981,733.1
694.8536,298.9
694.9645,211.2
695.0991,33765.2
695.4638,3653.6
695.5114,3224.8
695.5593,142.9
695.6764,280.4
696.1025,5645.2
696.2075,120.9
696.2647,159.8
696.4703,794.7
696.5772,157.6
696.7539,557
696.8206,136.7
696.8777,19.6
697.0748,124.7
697.1058,385.5
697.3863,336.3
697.527,20956.7
698.0288,1485
698.0402,1150.3
698.1176,151.6
698.1533,454.2
698.3287,109.4
698.454,92.4
698.5294,5452.7
698.9235,121.9
698.9845,453.7
699.0304,255.7
699.189,133.7
699.8115,416
700.0492,255.9
700.0739,178.7
700.1905,194.1
700.3321,353
700.643,225.6
700.7522,402.1
701.0355,315.5
701.1414,530.4
701.1623,105.7
701.2215,139.4
701.4068,802.4
701.5602,27066.4
701.8731,704.4
702.3435,1939
702.5637,11625.3
703.1336,88.7
703.1808,242.6
703.2588,145.8
703.325,453
703.4603,19.7
703.511,106.7
703.576,82831.4
704.0468,5241
704.4479,3941
704.5223,206.2
704.5792,35831.6
704.63,26.5
704.7687,119.8
705.0576,3386.5
705.3029,195.8
705.3944,770.9
705.453,643.6
705.47,20.3
705.5816,2663.7
705.6786,157.7
705.6954,286.1
705.7774,632.4
706.0832,619.9
706.3961,119
706.4356,207.3
706.5388,5050.4
706.604,329.5
706.9763,181.5
707.0796,180.1
707.5407,499.3
707.9535,247.7
708.28,315.2
708.4554,22.4
708.6588,166
709.1486,993.5
709.827,291.4
710.2576,147.2
710.4131,255.3
710.5238,17.3
710.7599,132.2
710.774,734
710.7926,21.4
711.0639,9323.6
711.074,11730
711.5422,5849.1
711.8188,354.1
711.8631,195.9
712.076,1020.6
712.265,336.2
712.98,246.2
713.2493,20.6
713.4992,1414.4
713.6646,100.2
713.8258,21.4
714.1472,22.4
714.4208,127.3
714.4478,655.9
714.4864,338.3
715.0686,348.9
715.087,171.5
715.1885,208.1
715.29,773.9
715.4942,881.9
715.5282,419.5
715.8474,19
715.9292,350.1
715.9585,226.5
716.0278,21.4
716.2377,124.3
716.292,659.6
717.0812,15455
717.4229,207.9
717.722,133.3
718.0844,1749.3
718.1992,26.9
718.5045,203.2
718.5751,674.8
718.9625,145.5
719.1897,177.2
719.4606,628.8
719.5377,174.2
719.608,534.1
720.0223,2167.7
720.3957,285.4
720.5923,385.2
720.7136,331.6
720.8143,16.3
721.0213,153.1
721.287,542.5
721.4081,152.4
721.4789,56077.1
721.6176,306.6
721.6836,113.6
722.0232,109.2
722.169,437.4
722.189,568.2
722.4823,18932.3
722.6335,21.5
722.686,167
723.2012,21.4
723.4953,15058.9
723.5422,35545.8
723.6593,107.4
723.9628,332.4
724.0316,144.6
724.4983,4923.9
724.5459,13770.4
724.6118,214.1
725.5035,264
725.558,91326.6
725.7669,18.6
725.8621,806.8
726.0079,217.6
726.0282,1975.8
726.0638,21.7
726.3795,280.7
726.4719,141.8
726.5049,2462.2
726.5614,35310.9
726.8052,23.5
726.9016,155
726.9949,99.6
727.0279,2363.8
727.5251,388.4
727.564,3016.1
727.6419,186.3
727.9319,133
728.4464,19.4
728.5214,6930.9
728.5794,897.7
729.5246,1179.2
729.5915,7066.7
729.6254,463.9
729.7488,196.7
730.1505,931.8
730.1867,237.7
730.2952,477.8
730.5392,15904.9
730.5954,1354.3
730.6429,19.8
730.7324,146.7
730.87,782.8
730.9256,135.2
731.17,325.6
731.322,204.7
731.5003,966
731.5427,3361.9
731.608,4400.4
732.1885,109.9
732.2875,801.8
732.4812,996.7
732.5295,190.5
732.5549,103372.2
732.6099,1306.7
733.0468,4135
733.0565,6092.7
733.281,657.6
733.3711,902.1
733.5583,44082.1
733.9836,312.9
734.0253,598.8
734.0456,469.9
734.4413,471.8
734.5721,8725.1
734.6245,148.2
735.0252,238.2
735.0659,19.8
735.2703,178.4
735.4177,147.7
735.5138,105.7
735.5744,3291
735.7977,528.2
735.8987,254.9
736.0907,582.1
736.4883,1117.9
736.8078,24.8
736.9144,155.9
737.1769,98.1
737.4524,11977.7
737.5596,702.4
737.7085,17.5
738.1156,107.5
738.4551,834.2
738.5796,20.2
738.8124,166.8
738.8604,156.7
738.9086,653.8
738.943,450.6
738.9694,517.1
739.0634,8130.2
739.0864,675.5
739.3173,257.9
739.4252,19.3
739.4686,1523.8
739.5159,3493.2
739.6355,1052.2
739.8533,102.4
740.1517,185.7
741.1696,120.7
741.5321,10592
741.5587,139.4
741.7531,514.7
741.895,199.5
742.0023,675.8
742.2208,478.1
742.4793,1279.2
742.5351,3243.3
742.5758,4893.1
743.4622,637.6
743.578,1017.6
743.6227,711.1
744.5551,3074.3
744.5911,9817.3
744.8448,164.6
744.896,23.2
744.939,636.9
744.9798,138
745.1932,373.1
745.2529,159.4
745.3416,304.5
745.479,35035
745.543,478.7
745.5563,485.8
745.5923,1920.4
746.1025,378.2
746.4824,16637.3
746.5072,434.4
746.5707,6291.8
746.6078,2148.9
746.7104,430.6
747.1855,307.6
747.2046,423.5
747.4952,10911.9
747.5745,1213.4
747.6568,102.9
748.4958,1851.4
748.5669,170.6
748.6495,134.3
749.0129,703
749.3991,18.9
749.511,1951.9
749.7253,557.9
750.0809,635.6
750.1774,19.1
750.536,572.4
750.8427,205.2
751.046,934.8
751.3131,327.8
751.5285,254.4
751.5738,4452.9
751.6052,188.2
752.0919,176.7
752.2029,146.4
752.5213,15125.1
752.5773,2122.5
753.207,106.4
753.5247,3862.1
753.5896,1819
754.1874,201.2
754.3967,163.9
754.5371,90051.6
755.0266,3807.2
755.0383,2740.4
755.0994,20.6
755.5053,229.1
755.5405,35866.2
756.0335,1666.9
756.5071,468.5
756.5547,62454
756.9668,123.4
757.0556,932
757.558,23548.8
757.6227,516.5
757.8378,364.6
757.9959,20.1
758.1172,26.1
758.3408,715
758.3811,363.1
758.4398,217.7
758.5706,987824.3
758.6197,283.9
758.7875,642.4
759.1201,19.3
759.3283,333.3
759.574,430297.6
759.6388,325.8
760.2185,96.9
760.3344,18
760.4753,21
760.5057,105
760.587,444391.7
760.6707,459.4
761.0451,4134.9
761.4244,143.5
761.4533,5819.9
761.5378,350.7
761.5899,215398.2
761.6375,432.7
761.8416,635.9
761.9096,382.2
761.9984,303.1
762.1871,645.5
762.4079,210.5
762.5428,511.9
762.593,46998.4
763.01,894
763.1116,19.8
763.3667,206.9
763.4184,343.9
763.5947,2934.2
763.9021,743.6
763.9776,127.3
764.0478,20.4
764.133,129.4
764.2169,102.1
764.4632,601.9
764.5588,2311.5
764.7838,155
764.793,164
764.9179,22
764.9772,861.8
765.1541,310.9
765.3698,198
765.4525,114
765.4588,114.9
766.2015,843.8
766.4945,515.4
766.5378,4066.8
766.5754,28991.4
766.8595,21.7
767.0925,21.2
767.3339,418.5
767.4664,19.2
767.5789,10719
767.7636,816.3
768.4997,940.1
768.5537,10213.1
768.5915,42543.4
768.7352,549
768.9164,242.5
769.3181,21.1
769.4782,6096.9
769.5572,1791.3
769.5952,15673.7
770.0619,107.8
770.433,120.4
770.4821,812.4
770.5103,13251.8
770.5689,820.4
770.6091,4414.3
770.8375,762.4
770.992,4716.6
771.1446,355.9
771.2045,20
771.465,679.5
771.4946,1847.3
771.514,3055
771.5341,144.6
771.6114,433.2
771.6553,607.4
771.8478,398.7
771.8799,188.4
771.9469,20.1
772.0218,120.4
772.0833,470.3
772.1106,344.4
772.262,237.4
772.5866,10085.6
772.9974,886
773.0406,435.2
773.2749,368.2
773.3632,459
773.5074,394.4
773.5894,4234.3
774.0013,165.8
774.4601,456.2
774.6047,1279.4
774.6667,554.4
774.6994,18
774.7427,21.2
775.0629,315.1
775.1639,17.5
775.3055,766.6
775.48,224.1
775.6312,112.7
775.9702,487.4
776.0246,21.8
776.0845,136.8
776.2396,102.5
776.5216,3072.6
776.5913,18.5
777.0098,1857.5
777.1898,461.3
777.5073,118.6
778.0167,374
778.0437,672.1
778.1259,16.8
778.184,789.8
778.367,126.3
778.4522,151.9
778.5065,95.8
778.5371,43380.4
778.7204,117.4
778.9288,121
779.0527,673.4
779.1252,430
779.5403,19812.8
779.5696,420.3
779.8087,120.2
779.838,430.8
780.5163,95.4
780.5527,692759.5
780.6147,754.6
781.1691,366.1
781.2377,96.9
781.3216,640.5
781.346,127.3
781.5562,310901.6
781.8877,338.5
782.1875,979.4
782.248,317.8
782.4544,199.4
782.5702,853352.8
783.0274,3585.1
783.2869,117.9
783.4866,266
783.5736,398249.3
783.6381,316.5
783.7584,98.9
784.065,519.9
784.1567,593.8
784.2644,99.2
784.5872,327595.3
784.6421,190.9
785.1662,679.1
785.3559,147.4
785.4946,822.3
785.5901,162129.6
785.6304,110.9
785.6554,3740.6
785.7427,18.4
785.7773,417.7
786.2432,123.3
786.2713,102.3
786.6028,195469.8
786.6581,799.1
787.3041,638.3
787.6058,95767.7
787.6695,598.5
787.6932,153.1
788.1342,328.9
788.5147,413.4
788.5572,11228.9
788.6047,11376.1
788.6208,14900.1
788.675,135.4
788.7156,308.1
789.3352,21.7
789.3597,282.6
789.5609,3605.3
789.6227,5281
789.7132,268.7
790.0456,1029.1
790.1389,252.5
790.5513,423
790.5737,18967
790.6254,734.5
790.9166,90.6
791.3071,804.1
791.5363,578.3
791.5756,5661.1
791.6189,443
791.8197,19.3
791.8669,527.7
791.8876,152.3
792.4646,369.9
792.5563,21
792.5912,10385
792.7424,116.9
792.9845,873.9
793.1124,108.9
793.5943,2017.2
794.2496,183.1
794.4593,832.6
794.5111,6384.5
794.5701,3087.1
794.6071,35461.1
795.2817,260
795.5064,512.6
795.5707,341.6
795.6104,15832.6
795.9615,480.3
796.5266,125757.2
796.5862,4436.6
796.6258,3234.8
796.7636,141.1
796.8034,324.4
797.3819,434.1
797.4342,207
797.53,51533.6
797.5896,1457.7
797.6256,1265.6
797.8975,116.4
798.1787,575.9
798.4495,216
798.5432,41787.6
798.6117,142.2
799.1395,101.6
799.546,20688.4
799.6705,324
799.7217,104.2
800.1198,159.8
800.2166,235.7
800.2843,122.5
800.4527,18.8
800.5512,122.5
800.6708,373.7
801.5439,1673.5
801.5991,105.4
801.8267,471.6
801.8683,347.2
801.9543,162.4
802.3152,19.4
802.5367,40079.5
803.0153,157.6
803.0527,1073.2
803.1754,132.2
803.4387,20.6
803.5406,16197.1
803.6683,140.5
804.2073,535.5
804.2694,1194.8
804.3052,20.9
804.372,20.6
804.448,718.3
804.5527,401887.7
804.9786,204.4
805.0083,98.5
805.0895,214.3
805.3277,486.1
805.5018,399.6
805.556,191575
805.647,889.2
805.8809,153.4
806.3784,338.8
806.5699,324310.3
806.6154,374.6
806.6364,331.8
806.6581,201.5
806.7408,149.5
806.8686,19.2
806.9913,311.2
807.09,537.7
807.1089,755.8
807.5731,162167.1
807.6313,117.7
807.8561,260.8
807.8684,175.6
807.8988,610.2
808.4342,136
808.5464,98
808.5862,188785.6
808.6328,610.4
808.926,129.1
809.304,427.9
809.5891,97633
809.7267,110.3
809.8348,125.6
810.1136,20.2
810.6027,134448.3
811.5511,939.8
811.6056,69783.8
811.6693,6778.3
811.8759,309.2
812.5642,411.3
812.6197,32227.8
812.6723,1372.2
812.887,146.7
813.5423,174.1
813.6219,16721.1
813.6859,5046.6
813.7791,90.9
814.0331,500.8
814.1061,275.1
814.5736,1884.6
814.6223,823.4
814.6458,104.8
814.6897,1688.7
814.8186,509.7
815.0586,690.5
815.1617,160.7
815.569,426.1
815.8345,671.5
815.9779,161.3
816.0958,728.8
816.1201,293.6
816.5471,659.4
816.589,15292.3
817.1378,113.3
817.3383,1042.2
817.5928,5181.4
818.0833,20
818.1841,823.4
818.2815,316.4
818.511,5557.5
818.6058,1220.3
818.7235,204.7
819.0104,138.9
819.3608,18.7
819.5129,975
819.6652,513.9
820.5266,76500
820.6244,204.8
820.9106,185.8
821.5299,33163.1
821.6385,123.6
821.9915,118.2
822.0325,20.1
822.5431,33965.2
822.8433,475.5
823.1761,469
823.3935,522.3
823.4156,111.3
823.5458,19049.4
823.875,231.3
824.2806,187.8
824.5239,111
824.5588,12868.5
824.6034,134.5
824.8232,18.2
825.3784,22.6
825.5603,2200.1
825.8866,186.2
826.1933,110.7
826.538,804.2
826.8246,116.5
827.4132,579.4
827.49,19.7
827.6963,19.9
827.8909,483.8
828.3753,339.1
828.5528,92602.9
829.2788,112.8
829.5071,539.2
829.5562,46210.4
829.9585,518.6
830.0774,529.4
830.3841,524.3
830.5692,65414.4
831.0571,240.3
831.1429,20.9
831.5412,267.9
831.572,28383.8
832.5849,67276.3
832.6539,185.6
833.4596,128.8
833.5183,605.7
833.5878,30590.1
833.6519,427.8
833.6785,22.2
833.9185,775
834.5359,116
834.6023,33956.8
834.7689,305.2
834.9676,335.9
835.1887,974.3
835.605,17078
835.6675,394.3
835.6982,223.7
835.7284,154.1
835.7651,518.5
835.9822,150.1
836.6202,3620.7
836.9522,359.3
837.2431,94.2
837.6223,1488.9
838.1667,1358.4
838.1979,562.6
838.279,418.4
838.5073,824.4
838.6347,406.1
838.767,813.6
838.8,109.1
839.0906,122.7
839.1982,730.9
839.6321,110.3
839.7373,156.7
839.9492,493
839.9844,398
840.1409,555.7
840.6494,168.5
840.6844,95.4
840.6941,90.4
840.7183,247.7
840.7936,610.2
841.1174,22
841.7679,356.9
841.9842,119.9
842.0879,107
842.2263,461.8
842.2801,313.6
842.6481,168.3
843.5336,153.7
844.3463,195.9
844.5268,14181.3
845.0619,712.8
845.1334,541.5
845.4644,373.4
845.53,2469.2
845.667,973.3
845.7066,466.3
846.2543,19.3
846.4613,453
846.5434,5221
846.9816,24.4
847.0095,599.2
847.5456,1422.6
847.6703,357.4
847.8085,473.7
848.3044,386.6
848.5575,8244.8
848.8877,156
848.959,22.6
848.9924,349.9
849.5626,2036.6
850.0038,162.7
850.1944,106.2
850.575,288.6
850.9304,304.8
851.5895,762.4
851.6284,271
851.7507,616.4
851.8821,899.7
852.0751,18.9
852.1155,946.6
852.1417,295.1
852.3679,131.3
852.3991,112.6
852.7877,180.6
853.6336,235.3
854.4898,187.9
854.5687,223.7
855.1498,696.6
855.1867,106.8
855.3211,110.4
855.3469,631.2
855.5715,918.1
856.1475,757.4
856.2293,513.7
856.3516,216.2
856.4657,95.6
856.5843,3127.2
856.6614,174.8
857.0932,374.4
857.5898,1026.6
858.0432,333.9
858.3816,852.1
858.5671,303.6
858.5997,1744.4
859.589,864
859.7735,343.4
859.9767,145.9
860.203,603.7
860.4283,1351.8
860.4954,361.1
861.2085,93.8
861.2456,192.4
862.0936,174.4
862.2034,413.2
862.4503,90.8
863.0541,162
863.8422,485
864.1973,137.6
864.5192,767.3
864.548,97.6
865.0251,280.7
865.7076,131.7
866.0959,327.8
866.4295,351.5
866.5443,829.5
866.96,594.4
867.3986,701.6
868.2458,99.7
868.2635,261.1
868.5669,415.3
868.805,569.9
868.9183,198.7
869.0447,513.6
869.2322,110.5
869.387,169.1
869.5691,202.2
869.6945,573.3
869.7622,761.2
869.8169,776.9
869.8706,1010.4
869.9134,360.6
869.9511,1028.5
869.9661,983.4
870.0003,935.3
870.0188,1252
870.0617,905.7
870.1412,2710.4
870.1724,3973.2
870.2083,4482.4
870.2599,2759.3
870.285,1284.9
870.3538,1411.6
870.4003,205.3
870.4358,183.2
870.4683,819.3
870.6898,419.7
870.7638,139.4
870.7938,413.3
871.1005,185.9
871.5094,21.1
871.6095,128.2
872.3244,135.3
872.3648,289.7
872.5391,792
872.6533,142.8
872.8932,779
873.1181,107.9
873.3684,151.5
873.6468,132.1
874.1189,515
874.3814,384.4
874.6781,203.6
874.7357,553
874.8796,537.5
874.9669,20.7
875.0097,115.7
875.1116,342.2
875.2995,535.9
875.4605,20.6
875.5452,268.5
876.3752,793.8
876.4473,21.5
876.5932,980.1
876.7741,927.7
877.5218,288.4
877.6233,390.9
879.091,99.6
879.6086,345.2
880.0766,117
880.2641,171.6
880.5159,223.9
880.6198,183
882.0594,122.9
882.1242,385.7
882.3114,225.7
882.4461,143.3
882.6892,775
883.0242,23
883.1255,560.9
883.1598,210.9
883.9248,347
884.2481,384.3
884.357,113.7
884.5745,433.8
885.1032,416.7
885.3096,407
885.5402,248.1
885.6078,110.3
886.0552,571.6
886.4072,155
886.4393,22.7
886.9457,139.3
887.4517,607.6
887.8738,21.6
888.0811,980
888.668,21.8
889.033,20.1
889.3272,321.6
890.0932,645.9
890.4067,533.3
890.6409,22.5
890.721,202.7
891.5115,278
891.7728,143.9
891.935,995.7
892.7981,342.7
892.9749,17.5
893.0756,161.7
893.1747,123.2
893.4163,216.6
894.2304,827.9
894.3726,96.8
894.5057,394.4
894.6706,594.5
895.0386,19.1
895.0921,270.9
895.6902,20.4
896.0364,490.6
896.1759,136
896.8359,178.2
897.4712,126.8
897.9838,554.3
898.0766,194.2
898.1673,321.9
898.4111,156.5
898.8398,131.5
898.976,500.9
899.3174,165.6
899.6096,863.6
899.8332,632.7
900.1927,18.6
900.9145,623
901.9244,368.4
902.6413,468.6
904.4264,22
904.8886,113.2
905.0669,121.4
905.0827,516.2
905.0886,488.3
905.1472,252.4
905.4692,143.9
906.3128,112.7
906.4839,187.5
906.6488,218.7
906.9516,143.7
907.1768,501.3
907.323,110.1
908.6429,322.7
910.6371,161.4
911.301,483
912.4288,360.1
912.6423,401.6
913.0157,376.1
913.4399,2261.4
913.877,192.4
914.1656,143.2
914.4418,19
914.5654,767.6
914.6159,898.1
915.0199,429.4
915.1417,18.6
917.3774,467.7
918.1067,175.2
918.4405,203.6
918.7099,19.3
920.7984,294.8
921.1664,352
921.2933,132.5
921.5316,770.7
921.581,195.5
921.837,768.2
923.0005,339.6
923.4317,437.4
923.6362,389.6
924.5805,348.6
926.2145,22.3
926.567,138.9
926.6917,480.3
926.7041,415.6
926.7298,590.1
927.0219,257
927.086,420.6
927.7772,24
928.4222,885.4
929.0751,19.1
929.6941,175.7
929.8274,149.7
930.0653,310.3
930.1438,205.1
930.3947,112.9
931.0916,461.8
931.5075,283.5
931.6842,172.3
931.8717,511.4
932.3292,204.2
932.587,140.4
932.7342,518.5
933.4879,548.7
933.6505,92.9
933.9248,21.7
935.5592,974
936.3229,172.3
936.8058,176.4
937.0949,845.7
937.4244,164.1
937.6506,135.5
937.7627,293.3
937.9378,293.7
938.2804,293.3
938.4568,136.8
939.2675,319
939.4896,513.1
939.6105,114.1
940.4259,375.5
940.5242,957.5
940.5822,323.3
941.269,127.6
941.8544,160.9
941.9619,209.3
942.1441,110.8
942.2875,815.9
942.3956,530.8
942.9304,17.8
942.9707,1704.8
943.2305,526.8
943.3196,161.1
943.3521,177.4
944.2848,1152
944.6748,213.3
945.0541,543.3
945.3465,269.1
945.4254,138.6
945.6885,115.9
945.8399,669.9
945.9357,692.5
947.1215,332
947.5691,800
947.6544,600.6
947.9046,586.1
947.9402,434.4
948.0851,387.1
948.226,564.3
948.3949,372.7
948.4356,302.5
948.6562,311.6
948.9735,417.7
949.559,108.5
949.6915,353.9
949.7476,91.9
950.1246,378.1
950.1785,1115.9
950.2249,1033.2
950.5106,155.9
950.5803,309.2
951.1882,116.3
951.217,122.3
951.3452,132.3
951.4192,694.4
952.0591,122.4
952.2589,1243.8
952.9266,181.2
953.3391,387.9
953.8661,207.4
953.9957,460.5
954.3523,241.5
954.4678,579
954.5519,635.6
954.9224,178.1
955.0417,326.8
955.2075,810.9
955.4292,123
955.5615,894.5
956.7279,155.7
957.026,581.5
957.2249,367.8
957.3965,24
957.6654,131.4
958.1674,151.6
958.4835,20.1
959.5311,21.5
959.6595,189.7
960.3481,184.9
960.4057,614.6
960.7347,20.3
960.7659,493.5
960.8305,318.3
962.2503,556.7
962.5256,208.2
962.6111,624.9
962.8155,413.8
963.2245,845.8
963.9031,21.5
964.4396,319.7
964.5508,420.1
964.7618,127.1
965.1558,805.6
965.2099,144.7
965.2315,24.1
965.4364,111.9
965.5994,479
966.0928,702.4
966.6229,128.4
967.0116,112.7
967.9196,868.9
968.0636,604.7
968.3926,484
969.698,544
969.7402,151
969.8462,260.2
970.0624,390.1
970.1577,850.4
970.2394,292.3
970.7039,547.2
971.2144,21.4
971.5809,563.3
972.3551,448.7
972.3997,121.3
972.7313,114.4
972.9653,19.5
973.0892,243.6
973.3448,112.7
973.4854,669.6
973.6401,774.7
973.9441,429.5
974.1554,290.7
974.3714,1007.2
974.7789,100.6
974.8097,19.9
974.9679,427.6
975.3445,94.1
975.4523,618.7
975.8141,1646.3
976.006,128.8
976.0861,211.4
976.4341,153.6
976.5855,325.5
976.9164,101
976.9678,838.4
977.4131,559.2
978.2034,311.5
978.349,189
978.7401,174
978.8039,835
978.8293,740.1
979.1797,361.8
979.725,480.9
979.8282,584.9
979.9874,22.4
980.019,194.7
980.618,201.8
982.6021,596.7
983.3133,899.4
983.7474,125.4
983.9769,470.8
984.5138,123.3
984.9221,21.9
985.5908,725.8
985.653,218.8
985.6812,200.6
985.8623,515.4
985.9227,834.6
986.0199,321.5
986.3982,307.1
986.606,903.9
987.7565,587.1
988.1177,161.4
988.1332,169.3
988.2579,294.8
988.3807,525.6
988.5348,396.5
990.0974,148.1
990.5293,777.3
991.0864,732.1
991.2027,110.1
991.2438,505.9
991.4845,643.7
991.6403,314.7
991.7145,157.4
991.8222,684.5
992.5215,395
992.8307,488.5
992.88,481.3
993.6771,597.3
994.012,576.4
994.0676,351.2
994.08,350.1
994.3032,343.2
994.5713,203.7
994.7235,368.1
994.8469,96.2
994.9681,21
995.0693,409.6
995.2607,364.4
995.3154,345.1
995.6068,265.4
996.7103,1393.2
997.6025,138.1
997.8804,232.5
997.9479,142.8
998.9368,172.2
999.0492,602.4
999.6437,313.9
999.7452,135.6
