SPECTRUM - MS,
1009.RAW,
FTMS + p ESI Full ms [50.00-1000.00],
Scan #: 1-40,
RT: 0.01-1.97,
AV: 40,
m/z,Intensity

50.0169,309.3
50.0219,249.2
50.0413,110.6
50.0685,214
50.1051,19.6
50.1255,258.9
50.1372,186
50.1387,15
50.1566,246
50.1791,162
50.1925,20
50.1943,237
50.1993,71.9
50.2081,92.6
50.2111,448.1
50.2438,360.2
50.2479,134.6
50.2516,268.5
50.2531,191.8
50.2665,531
50.3018,420.8
50.3178,106.1
50.3294,109.2
50.3314,470.1
50.3508,81.5
50.367,155.6
50.3852,83.1
50.3977,17.7
50.4111,162.9
50.4153,211.9
50.4457,412.3
50.4824,111.2
50.4887,115.3
50.5008,152.5
50.5079,260.5
50.5102,18.5
50.5502,15.3
50.5518,153.6
50.5538,202.6
50.5632,18.3
50.5785,143.1
50.5873,18
50.6178,122.1
50.6255,155
50.6599,609.3
50.6636,15.6
50.6721,106.1
50.6968,14.8
50.6986,521.1
50.7003,189.8
50.7039,555.8
50.7191,300.6
50.7309,118.8
50.7321,17.1
50.735,20.5
50.7373,564.6
50.7466,98.4
50.7479,116.3
50.7555,286.3
50.7692,277.7
50.7787,229.9
50.7802,301.6
50.7852,169.8
50.795,159.4
50.7997,341.8
50.8157,244.2
50.8218,126.3
50.8486,187.9
50.8868,16.7
50.9188,113.5
50.9212,486.6
50.9351,14.9
50.9388,16.6
50.9444,17
51.0016,602.7
51.0065,473.4
51.0337,134.5
51.0521,318.7
51.1014,411.6
51.1252,439.7
51.1314,292
51.1368,300.5
51.1408,78.2
51.144,161
51.1535,111.5
51.1594,263.2
51.1611,148.6
51.1678,357.5
51.1685,285.4
51.1777,17.4
51.1794,305
51.1827,83.6
51.1845,253.4
51.1855,16.6
51.1983,431.8
51.2003,139.4
51.2107,249.3
51.2116,17.6
51.2375,412.7
51.2379,138.9
51.2462,263.2
51.2465,245.4
51.268,343.8
51.2707,94.2
51.2761,303.7
51.2779,154.5
51.2814,91.6
51.2829,501.1
51.2892,282.7
51.2899,255.4
51.3169,19.4
51.3381,109
51.3681,164.6
51.3685,484.9
51.37,619
51.38,292.1
51.387,668.1
51.4104,18.3
51.425,65.4
51.4351,16.4
51.4496,77.9
51.4786,15.6
51.5149,109.9
51.5176,159.8
51.535,280.6
51.583,452.4
51.5833,133
51.6019,270
51.6139,117.5
51.6498,489.2
51.6542,133.4
51.6633,77.8
51.6643,105.5
51.6845,78.7
51.7311,110.1
51.7367,159.4
51.7463,226.9
51.7492,352.6
51.7717,15.7
51.7869,249.4
51.7958,342.8
51.8016,217.5
51.8043,99.9
51.8137,707.9
51.8375,524
51.8644,16.3
51.8677,97.6
51.8718,194.7
51.9083,453.7
51.9162,90.6
51.9525,17.8
51.9781,215.3
51.9817,162.8
51.9843,18
51.9941,189.6
52.0076,150.6
52.0139,88.7
52.0182,259
52.0377,438.7
52.0784,369.3
52.1051,80.3
52.1157,444
52.1285,18.3
52.1536,188.9
52.1576,17.7
52.1706,147.5
52.1858,90.2
52.1985,90
52.2252,119.7
52.2263,120.6
52.23,134.2
52.2322,16.4
52.2442,169.7
52.245,109.6
52.2943,432.3
52.3036,145.8
52.3117,15.4
52.312,137.7
52.3265,106.2
52.3424,116
52.3788,109.8
52.3809,280.5
52.3903,19.5
52.3924,289.5
52.4155,18.6
52.4267,212
52.4448,16
52.4682,129.8
52.4814,14.9
52.4842,114.6
52.5038,21
52.5099,192.2
52.5219,366.9
52.5357,94.6
52.5383,400.5
52.5417,353.6
52.5432,449.4
52.5483,123.3
52.578,259.3
52.5815,17.6
52.5902,17.3
52.5911,318.9
52.6105,20.2
52.6128,148.1
52.6148,267.6
52.631,145.6
52.6351,109.2
52.6544,331.6
52.6676,90.1
52.6728,117.2
52.6828,354.9
52.6878,490.9
52.693,73.1
52.7263,137.5
52.727,478
52.7279,128
52.7361,98.9
52.7615,210.7
52.7755,87.3
52.7797,401.3
52.7803,1925.7
52.7811,683.6
52.7821,124.6
52.7828,292.3
52.7832,510.6
52.7843,1283.2
52.7851,1964.7
52.7865,1519
52.7876,194.8
52.7879,902.2
52.8253,161.6
52.83,258.5
52.8342,308.4
52.8611,203.9
52.8622,16
52.8655,118.7
52.8864,600.8
52.9103,368.7
52.9447,576.1
52.9656,511.9
52.9765,96.6
53.0106,163.6
53.0162,77.4
53.02,18.2
53.0403,97
53.0844,21.4
53.1162,161.7
53.1191,140.9
53.1336,357.3
53.1373,631.5
53.1393,182.5
53.156,212.3
53.1717,86
53.1861,261.9
53.2342,200.1
53.2676,502.2
53.2881,145.4
53.2928,20
53.2935,16.2
53.302,100.3
53.3026,127.3
53.3058,136.2
53.3169,291.8
53.3195,275.8
53.3221,201.9
53.3227,279.1
53.3246,258.6
53.3696,460.3
53.3802,144.6
53.3952,19.1
53.3963,477
53.4149,599.5
53.4194,781.3
53.4341,107.1
53.4457,17.9
53.4474,14.5
53.4525,184.8
53.4677,82.7
53.475,675.6
53.479,126.2
53.4829,75.7
53.502,250.3
53.5033,150.8
53.5413,18.3
53.5425,154
53.5604,236.6
53.5634,212.8
53.57,130.6
53.5876,377
53.5968,601.7
53.6441,81.2
53.653,273.1
53.6535,111.8
53.6791,363.9
53.6955,102.9
53.7095,252.7
53.7153,155.8
53.7449,244.9
53.7482,17.9
53.7566,247.1
53.8008,154
53.8229,239.2
53.8274,496.1
53.8388,302.6
53.8424,101.2
53.8565,562.3
53.8728,287.2
53.8749,476.7
53.883,261.3
53.8879,77.7
53.894,445.7
53.8962,86.6
53.9018,588.3
53.9037,136
53.915,287.9
53.9223,102.6
53.9264,125
53.9339,253.2
53.9352,626.2
53.9486,692
53.9532,190.6
53.9597,107.6
53.9602,18.7
54.0137,272.2
54.0176,360.4
54.031,161.4
54.0365,339.5
54.0508,106.3
54.0569,263.4
54.0642,452.4
54.0929,113.3
54.0968,144.1
54.1001,91.1
54.1225,302.7
54.1275,346.5
54.1396,261.9
54.1476,17.4
54.1562,84.7
54.1965,82.2
54.1992,112.9
54.2031,229.6
54.2147,107.7
54.2152,108.5
54.2304,16.9
54.232,171.1
54.2487,100.2
54.2567,131.1
54.2649,16.7
54.2859,408.8
54.3141,220.2
54.319,16.5
54.3421,101
54.3499,150.5
54.3689,69.7
54.3768,356.3
54.3789,148.1
54.4139,165
54.4263,231.3
54.4312,370.5
54.4386,16.2
54.4391,145.4
54.4419,188
54.4513,118.3
54.5166,17
54.5405,61.6
54.5471,110.9
54.5481,100.2
54.5574,121.9
54.56,229.7
54.5697,390.3
54.5868,677.3
54.608,86.2
54.627,241.8
54.6408,16.5
54.6411,149.8
54.6528,216.8
54.6633,246.4
54.6873,89.7
54.7093,82.9
54.7245,459.9
54.727,194.4
54.7373,391.3
54.7431,416.2
54.7552,115.5
54.7955,87.4
54.8059,423.8
54.8097,442.7
54.8166,255.4
54.8289,268.5
54.8307,209.3
54.8405,85.6
54.8525,81.7
54.8529,214.5
54.8682,236.4
54.8914,589.5
54.8927,242.6
54.8978,60.7
54.9268,371.8
54.9307,248
54.9505,89.5
54.952,501.4
54.9669,127.3
54.97,130.8
54.9744,89.9
54.9992,68.4
55.0052,262.1
55.0239,459.2
55.0448,432.5
55.049,18.3
55.0641,15.8
55.069,571.5
55.0697,247.3
55.1091,131.1
55.1413,422.3
55.1425,422.6
55.1477,19.3
55.1543,566.9
55.1677,342.1
55.1682,201.2
55.179,169.3
55.2005,89.4
55.2073,579.6
55.2201,474.2
55.2502,84.4
55.2517,121.6
55.2709,21.5
55.2809,108.7
55.2942,153.5
55.3108,358.5
55.3175,145.3
55.3244,347.8
55.3333,265.6
55.3405,618.1
55.3811,94.9
55.4216,297.7
55.4458,524.8
55.4702,101.9
55.5019,249.1
55.5029,556.1
55.512,96.7
55.5236,590.5
55.5433,143.4
55.5483,136.7
55.554,419.7
55.5591,390
55.57,90.2
55.5718,105.5
55.5839,317.8
55.5857,116.6
55.6219,128.9
55.6231,677.2
55.6242,206.3
55.6353,300.7
55.6511,731.5
55.6607,111.2
55.6651,16.4
55.6739,324.3
55.7209,663
55.7393,137.9
55.764,162
55.7708,295.6
55.7731,16.3
55.7889,104.8
55.7924,439.4
55.8158,94.2
55.8185,95.5
55.8231,107.7
55.8252,264.9
55.8756,393.2
55.8801,17
55.8804,178.4
55.8852,102.3
55.8881,15.9
55.9021,611.9
55.9079,265
55.9278,278.9
55.9291,97.9
55.9305,104.8
55.9485,112.3
55.9697,459.4
55.9778,567.7
55.9783,84.1
55.9966,82.1
56.002,538.5
56.0035,627
56.0448,99.9
56.0593,280.2
56.0599,357.5
56.0627,80.4
56.0957,336.1
56.1153,224
56.1185,77.5
56.1227,150
56.1375,248.6
56.1597,230.5
56.1608,317.6
56.1832,189.2
56.1845,18.4
56.2187,409.3
56.2209,19.2
56.232,104.1
56.2353,503.3
56.2529,379.5
56.2557,15.8
56.2798,474.1
56.2843,145.4
56.2934,108.6
56.3022,98.6
56.3121,146.8
56.3214,106.8
56.3298,92.1
56.3661,664.8
56.3818,100.8
56.3943,298.3
56.3989,117
56.4036,282.2
56.4063,93.7
56.4083,131.9
56.4254,150.9
56.4436,20.3
56.4464,163.9
56.4618,17.1
56.5104,501.8
56.5184,16.3
56.5222,286
56.5364,365.7
56.554,146.8
56.5657,105.3
56.5723,70.7
56.6044,470.7
56.6118,30.3
56.6356,356
56.6542,106.7
56.6579,106.6
56.6738,161.2
56.6859,281.2
56.6987,87.6
56.7065,397.1
56.7142,201.9
56.7157,16.9
56.7764,304.9
56.786,359.8
56.8143,121.9
56.8396,100.8
56.8636,372.8
56.8845,113.4
56.9082,15.8
56.9141,256.7
56.9214,83.5
56.9225,281
56.9251,117.6
56.9255,259.3
56.9262,104.2
56.9751,149
56.9816,82.6
56.9824,120.7
56.983,523.4
56.9877,338.6
56.9997,112.1
57.002,89.5
57.0093,16.9
57.013,171.3
57.0287,551.7
57.0321,256.8
57.0331,170
57.0469,71.8
57.0492,68.2
57.0507,131.5
57.055,391
57.0612,114.6
57.0655,118.8
57.0724,137.6
57.0743,135.5
57.0749,97.6
57.0997,241.3
57.1013,158.5
57.1066,84.7
57.1246,359.1
57.1278,423.6
57.1437,80
57.159,162.5
57.1694,140.6
57.176,616.8
57.1845,18.1
57.1853,108.4
57.1976,345.8
57.2243,219.9
57.2279,431.5
57.2448,188.8
57.2716,78.9
57.2899,158.3
57.2916,91.4
57.297,73.9
57.3069,372.9
57.318,126
57.3295,120.9
57.3312,79.5
57.3718,204.7
57.3776,295.7
57.3871,299.2
57.3894,445.7
57.4112,307.5
57.4203,456.3
57.4425,217
57.4579,385.8
57.4608,254.7
57.4614,348.5
57.4644,195.8
57.4898,251.6
57.4991,92.1
57.5067,436.1
57.5162,325.7
57.5189,103.9
57.5384,152.6
57.5392,308.2
57.5839,288.6
57.6079,118.8
57.6193,344
57.6232,276.3
57.6303,251
57.6388,112.3
57.6441,117.4
57.6486,275
57.6688,16.6
57.6876,445.2
57.7039,82.4
57.7073,253.3
57.7298,526.2
57.7452,452.3
57.7619,405.2
57.7658,127.1
57.7874,89.7
57.7896,18.4
57.8101,97.3
57.8818,73.5
57.8998,17
57.9165,448.5
57.9199,88.2
57.9427,152.2
57.9446,416.1
57.9503,269.4
57.953,97.6
57.9551,212.4
57.9666,282.1
57.9669,478.4
57.967,442.9
57.9861,617.6
57.9889,347.4
57.9897,186.5
58.0051,77.2
58.0057,475.4
58.0264,359.9
58.0344,121.6
58.0369,146.2
58.0495,100.1
58.0597,356.1
58.068,159.7
58.0918,492.2
58.107,114.1
58.1087,76.6
58.1096,241.5
58.119,242
58.1203,278.1
58.1211,361.4
58.1306,18.6
58.1512,223
58.1554,405.5
58.1596,297.3
58.1835,490.4
58.1851,17.9
58.2018,82.7
58.2048,92.4
58.2155,22.9
58.2235,106.4
58.2242,86.8
58.2479,286.5
58.2582,90.4
58.2767,243.5
58.2816,213.5
58.2844,422.9
58.2979,278.8
58.3241,83
58.3279,15.8
58.3298,518.2
58.341,239.5
58.3441,121.3
58.3472,406
58.3803,363.8
58.3843,417.4
58.3988,103
58.3999,104.4
58.4341,105.5
58.4404,259.7
58.4567,333.1
58.4638,341.3
58.474,17.4
58.4808,250
58.5035,290.4
58.5068,69.6
58.5312,572.6
58.5442,83
58.5567,212.5
58.5762,97.6
58.5895,16.2
58.5964,281.5
58.6066,457.7
58.6113,264.9
58.6329,160.5
58.6331,161.8
58.6332,125.2
58.6408,111.8
58.645,83.4
58.6745,72.4
58.6753,147.1
58.6855,66.3
58.6902,154.3
58.7064,128.4
58.7111,188.5
58.724,372.2
58.7408,258.8
58.7462,499.8
58.7758,247.1
58.7788,109
58.8154,363
58.8266,90.9
58.8534,85.1
58.8539,102.3
58.906,228.6
58.9136,109
58.9295,16.7
58.9428,393.8
58.944,16
58.9457,262.2
58.9494,318
58.9561,72.8
58.9684,473.2
58.9746,108.7
58.9913,142.1
58.9972,296.7
59.0231,229.1
59.0274,281.2
59.0278,217.9
59.0285,97.2
59.037,77.4
59.0815,98.2
59.0838,261.8
59.0887,68.2
59.09,384.3
59.0932,175
59.1099,199.6
59.1298,245.4
59.1497,310
59.167,88.2
59.1684,15.2
59.1776,108
59.19,16.8
59.1933,307
59.2007,16.2
59.2032,226.3
59.2176,127.3
59.229,469.7
59.2325,425.9
59.2346,136.2
59.2558,117.7
59.2716,14.5
59.2803,139.4
59.2829,70.2
59.292,84.4
59.3145,157
59.3239,72.7
59.3426,483.2
59.3591,280.6
59.3672,86.4
59.3688,18.2
59.3822,271.5
59.3894,385
59.3971,18.1
59.3991,363.9
59.4038,247.4
59.4058,96.3
59.4073,104
59.4108,22.3
59.4334,128.1
59.4723,200.4
59.4843,107.9
59.494,116.8
59.5093,74.6
59.5178,144.4
59.5247,79.5
59.5294,17.9
59.585,157.7
59.595,17
59.6028,469.5
59.6055,104.5
59.6094,158.5
59.6126,116
59.6386,18.1
59.6391,146.8
59.6413,360.2
59.6618,260.6
59.6999,18
59.7113,115.8
59.712,429.8
59.718,113.1
59.7317,315.3
59.7336,18
59.7376,109.5
59.7413,527.9
59.763,250.9
59.7862,402
59.7912,387.6
59.7981,370.5
59.8044,16.8
59.8119,108.9
59.8308,106.1
59.8402,74
59.8415,335.3
59.8508,610
59.8616,107
59.8666,147.1
59.8668,142.5
59.8907,276.5
59.9118,84.7
59.9182,102
59.9286,413.8
59.932,154.4
59.9399,19.1
59.951,121
60.0055,19.2
60.0114,419.4
60.0152,19.3
60.0732,73.8
60.1003,473
60.1121,97.9
60.1148,260.7
60.1389,102.2
60.14,167.9
60.159,577.1
60.1628,16.4
60.1759,329.3
60.1764,498.1
60.1994,23.1
60.2251,154.9
60.236,212.2
60.2444,449.2
60.2499,81.4
60.2734,372
60.2838,108
60.316,16.7
60.3199,536.5
60.3218,129.6
60.3353,252.4
60.3384,223.7
60.3639,481.2
60.3799,15.9
60.3838,362.5
60.3984,20.6
60.4004,136
60.4035,236.1
60.4124,86
60.4157,501.4
60.4255,488
60.4628,561.1
60.478,171
60.5159,100.9
60.5212,267.8
60.535,301.6
60.5535,86.4
60.5587,425.2
60.5626,370.6
60.5825,307.5
60.5842,91.9
60.5912,453.4
60.6099,480.5
60.6116,71.6
60.6219,190.2
60.6228,18.9
60.6302,408.5
60.6316,127.3
60.6618,174.1
60.6721,410.9
60.6827,87.1
60.6836,96.6
60.6911,16.9
60.6992,639.5
60.7172,89.4
60.7367,517.4
60.7564,278.3
60.7952,92.1
60.812,80.5
60.8208,279.3
60.8501,90.2
60.8563,343.9
60.8646,107.3
60.876,17.6
60.8956,16.9
60.9051,246.3
60.9075,219
60.9156,87.4
60.9168,103.2
60.9344,398.7
60.9494,240.9
60.955,103.6
60.9572,311
60.9702,137.8
60.9726,17.1
60.9809,142.4
60.9851,492.8
60.9872,192.8
61.0126,21.2
61.0378,241.6
61.0454,101.4
61.0621,114.6
61.0674,299.8
61.0743,438.1
61.0843,134.2
61.0879,497.2
61.0923,599.5
61.0945,113
61.1052,72.5
61.1245,205.7
61.1347,21.6
61.1535,73.7
61.1597,168.1
61.1616,88.6
61.1742,98
61.1864,116.5
61.19,133.9
61.1918,355
61.2039,15
61.2236,156.5
61.2341,152.1
61.241,460.1
61.2439,468.1
61.2654,244.2
61.2696,442.4
61.271,499.9
61.2948,149.1
61.2995,139.6
61.3231,19
61.3274,166.9
61.3323,362.2
61.3489,301.9
61.359,354.9
61.363,202.7
61.382,196.1
61.3862,18.5
61.3965,16.3
61.4224,164.4
61.4377,162.6
61.439,253.2
61.4626,285.1
61.4746,337.8
61.4792,174.3
61.4802,280.6
61.5316,374.9
61.5432,196.1
61.5582,517.1
61.5684,20.1
61.5794,162.6
61.5868,188.2
61.5944,295.6
61.6056,72
61.6221,103.6
61.6624,404
61.6738,208.9
61.676,197.5
61.6846,171
61.6886,249.3
61.7007,223.6
61.7249,131.4
61.7504,124
61.7612,375.7
61.7867,102
61.7957,130.1
61.8006,21.4
61.8655,238.6
61.8818,480.9
61.8834,507.3
61.8884,153.4
61.9073,700.1
61.918,17.6
61.9193,412.4
61.9207,203.7
61.9405,16.9
61.9438,342.7
61.9577,91.8
61.9585,84.9
62.0095,107.9
62.0103,152.4
62.0129,16.9
62.0229,148.7
62.0275,474.6
62.0625,297.3
62.1039,76.5
62.1199,241
62.1236,577.9
62.1478,148.9
62.1498,390.1
62.1751,610.9
62.1801,140
62.182,101.7
62.1863,18.3
62.1931,389.1
62.198,379.1
62.2236,120.8
62.2253,403.2
62.2359,169.9
62.309,18.3
62.3346,104.2
62.3453,219.1
62.3461,344.3
62.3618,16.3
62.3872,135.8
62.3953,670.4
62.3958,615.6
62.4042,321.5
62.4461,357.8
62.4614,188.3
62.496,206
62.5017,82.5
62.5094,91.3
62.5239,99.9
62.5256,252.5
62.5457,121.7
62.5783,19.7
62.5908,92.3
62.5978,264.2
62.602,16.9
62.6405,109.1
62.6616,94.7
62.6631,121.6
62.6743,21.2
62.6759,160.9
62.684,151.9
62.6927,78.3
62.7057,406.5
62.7148,149.1
62.7422,128.1
62.7627,360.5
62.7655,737.8
62.7738,149.5
62.7793,18
62.795,326.8
62.8132,163.8
62.839,113.8
62.8424,436.8
62.8564,201
62.8585,289.7
62.8671,251.7
62.8979,107.6
62.9092,283
62.9277,190.4
62.9341,93.7
62.9772,115.1
63.0062,96.8
63.0075,108.3
63.0209,306.6
63.034,95.3
63.0403,151.2
63.0605,77.1
63.0827,82.1
63.0863,448.7
63.1031,122.1
63.1069,141.1
63.1212,144.9
63.1296,73.5
63.1319,180.5
63.1343,279.1
63.1462,115.9
63.1693,261.9
63.1718,177.1
63.1763,361.9
63.2019,430.1
63.208,132.3
63.2158,416
63.2173,105.1
63.2243,90.9
63.2366,500.8
63.2374,309.1
63.2379,509.9
63.2415,121.2
63.2424,243.4
63.2556,347.7
63.2697,181
63.2914,154.6
63.3043,178.9
63.317,226
63.3248,542.3
63.334,446.4
63.3514,17.2
63.3696,18
63.3785,483.8
63.3796,197.6
63.3883,94.1
63.3953,18.6
63.4122,293.1
63.423,114.5
63.4423,259.1
63.4718,88.6
63.4739,111.6
63.4773,19.4
63.4906,74.8
63.4915,125.9
63.5013,139.2
63.514,15.8
63.5231,642.7
63.5278,18
63.5319,288.4
63.5366,342.1
63.5529,578.2
63.642,308
63.6479,214.9
63.6725,106.3
63.7125,412.9
63.7283,160.2
63.7524,113.1
63.7683,126.4
63.7696,261.8
63.8086,246.9
63.8105,164.5
63.833,710.1
63.8486,19.3
63.8539,612.4
63.8673,104.7
63.8686,423.4
63.8893,153.6
63.9048,282.6
63.9058,22.2
63.9166,17.9
63.9218,73.2
63.9241,93.7
63.9355,447.5
63.9371,273
63.9378,366.7
63.9446,117.2
63.9471,100.4
63.9518,231.6
63.955,310.9
63.9582,320.7
63.959,402.5
63.9739,117.4
63.9828,17.6
63.9871,17.2
64.0042,23.8
64.0106,431.6
64.0211,250.9
64.0285,255.2
64.0326,87.4
64.0347,326.7
64.0457,159.4
64.0503,418.5
64.0624,137.8
64.0729,174.6
64.0804,602.8
64.0871,69.7
64.1033,122.7
64.1124,363.1
64.1169,472.5
64.1445,275.3
64.1562,308.1
64.1725,164.1
64.1732,18.1
64.1814,371.7
64.1881,628.8
64.1921,244.9
64.2013,115.9
64.2201,267.3
64.222,70.7
64.2225,17
64.2369,128.9
64.2494,90.2
64.305,194.8
64.3214,96.2
64.3305,18.2
64.332,98
64.3394,275.4
64.3494,266
64.3784,178.9
64.381,295.6
64.4019,103.5
64.4435,109.2
64.4551,276
64.4679,296.9
64.4822,422.4
64.4881,105.3
64.4896,106.6
64.5039,159.3
64.5528,616
64.5772,90.2
64.5785,191
64.5886,17.5
64.5893,177.9
64.6404,318.4
64.6412,243.2
64.667,392.1
64.6869,108.9
64.7112,99.2
64.7252,69.7
64.755,227.5
64.7557,203.8
64.7642,454
64.7716,158.7
64.7849,203.5
64.806,145.1
64.8154,289.8
64.8162,89.8
64.8345,136.9
64.8527,329.3
64.868,103.8
64.8872,201.6
64.9091,150.6
64.9144,169.9
64.9238,124.4
64.924,192.1
64.9242,147.1
64.9391,270
64.9556,309.9
65.0087,582.3
65.014,19.6
65.0233,199.4
65.0261,70.4
65.0305,389.9
65.0327,18.4
65.0601,111.8
65.0624,684.5
65.0717,382.8
65.0813,441.3
65.0896,131.5
65.0978,553.8
65.1053,88.8
65.1117,115.4
65.1607,651.8
65.1784,149.3
65.1796,86.9
65.1861,17
65.2076,309
65.2191,259.9
65.2395,163.4
65.2521,369.2
65.2565,353.2
65.2567,351.4
65.2672,150.2
65.2713,140.2
65.2739,138.7
65.2801,19.2
65.2887,326.3
65.3026,421
65.3066,118.4
65.3102,450.8
65.3105,470.2
65.3106,525.6
65.3283,127.7
65.3365,127.4
65.3488,17
65.35,388.9
65.3635,412
65.3849,80
65.3962,88.1
65.4061,290.4
65.4161,107.6
65.4355,191.2
65.4803,98.7
65.5021,142.4
65.5126,93
65.5393,496.4
65.5472,516.9
65.5731,313.2
65.5765,82.8
65.5919,508.2
65.5937,192.5
65.595,279.2
65.5966,17.3
65.6052,119.1
65.6105,404.2
65.6239,84.9
65.6328,380.7
65.6486,248.3
65.6554,147
65.664,265.6
65.6645,108.6
65.6673,579.7
65.6685,92.4
65.6817,154.2
65.6858,210.8
65.7009,130.4
65.7036,150
65.7058,573.6
65.7183,271.9
65.72,577.8
65.7261,190.7
65.7327,301.4
65.7663,140.5
65.7674,328.6
65.7915,106.6
65.8054,447.9
65.8081,368.3
65.8141,314
65.8226,277.9
65.8467,624.3
65.8482,120.8
65.8544,68.4
65.8626,275.3
65.8649,112.9
65.9119,80.7
65.9302,576.6
65.9349,720.9
65.9414,75.3
65.9434,65.1
65.9623,282.4
65.9627,487.5
65.9647,121.1
65.9737,119.8
65.9855,21.9
65.9859,625.5
66.01,76.1
66.0277,628.7
66.0509,466.9
66.0564,240.9
66.06,77.3
66.0685,107.5
66.0748,431.7
66.0764,117.1
66.086,70.6
66.1003,148
66.1128,382.7
66.1212,246.6
66.1242,109.8
66.128,17.2
66.1305,350.3
66.1375,216
66.1433,240.1
66.1439,399.3
66.1486,77.9
66.1893,234.9
66.1976,615.6
66.2047,159.3
66.2056,107.3
66.2063,148.9
66.2391,111
66.2569,92.9
66.2604,16.3
66.2611,175.7
66.2646,20.3
66.2735,18.8
66.2934,129.3
66.3034,129.9
66.3151,500.3
66.3275,108
66.3391,95.9
66.391,269.1
66.4006,148.1
66.4068,18.9
66.4112,260.9
66.4312,468.3
66.4415,74.8
66.4461,299.5
66.4525,160.3
66.4544,85.3
66.4556,300.3
66.4633,425.7
66.4688,106.2
66.4904,201.5
66.4942,112
66.5245,669.6
66.5401,480.9
66.5405,343
66.552,19
66.555,208.9
66.5577,159.4
66.576,238.3
66.5855,310
66.5937,17.9
66.6034,149.6
66.6061,269.7
66.6065,245.9
66.6102,164.8
66.6659,290
66.669,228.3
66.702,130.5
66.7027,199.5
66.7048,259.5
66.7217,558.3
66.7483,255.1
66.7493,79
66.7632,198.3
66.7922,166.7
66.8438,111.9
66.8531,99.3
66.8559,350.2
66.8568,121.8
66.8644,19.5
66.8662,17.2
66.8782,504.5
66.8807,155.3
66.8819,116.2
66.8863,148.9
66.8994,384.4
66.9005,282.8
66.9088,158.1
66.9268,113.6
66.9546,16.1
66.9634,16.3
66.9645,146.1
66.968,218.4
67.0157,157.8
67.025,121.7
67.0305,19
67.0383,403
67.0539,19.8
67.0664,502.4
67.0769,226.4
67.0842,388.6
67.085,169.8
67.0932,77.1
67.0957,145.8
67.0973,90
67.1166,301.8
67.1529,76.6
67.1612,128
67.1775,313.7
67.1783,572.6
67.1852,386.2
67.206,537.7
67.207,354.8
67.2132,660.1
67.2187,105.8
67.2249,121.9
67.2311,475.6
67.2538,389.1
67.2602,391.8
67.2877,298.2
67.3222,531.2
67.3294,146.2
67.332,100.8
67.3417,294.8
67.3575,212.9
67.3727,286.9
67.3732,258.6
67.3773,101.2
67.3795,246.1
67.3878,249.9
67.444,323.1
67.4456,338.8
67.4493,186.9
67.4566,402.9
67.4661,19.5
67.4823,17.1
67.4883,17.9
67.4917,96.5
67.4964,247.6
67.5177,17.3
67.5257,17.3
67.5309,101.4
67.542,264.8
67.5433,128.1
67.5628,171.8
67.5861,96.3
67.5869,16.1
67.6269,675.7
67.6376,305
67.6402,21.1
67.641,127.2
67.6698,124.5
67.6727,293.4
67.6748,135.3
67.6896,148.8
67.722,248
67.7704,136.5
67.799,213.2
67.811,389
67.8196,124.6
67.8226,138.4
67.8419,344
67.8573,69.5
67.8642,340
67.8941,281
67.9072,18.6
67.9144,299.5
67.9226,119
67.9304,300
67.9315,275.1
67.9422,73
67.9663,270
67.9778,201.2
67.9789,620.6
67.9893,339.5
67.9935,462.1
67.9978,566.7
68.018,375.4
68.0342,229.6
68.0465,68.1
68.0774,17.6
68.0793,491.6
68.0873,172
68.0904,304.3
68.0934,243.8
68.096,103.7
68.0986,17
68.107,226
68.1103,17.6
68.1171,17.5
68.1407,216.4
68.1476,129.7
68.1567,17.4
68.1703,262.7
68.1708,315.2
68.1718,312.6
68.1792,246.9
68.1797,272.9
68.1802,102
68.1843,82.2
68.1989,73.9
68.2686,153.7
68.2769,72.8
68.2802,431.5
68.3395,259.7
68.3611,123.5
68.3723,72
68.3753,112.9
68.382,242.5
68.42,17.1
68.4214,107.9
68.4224,254.3
68.4247,93.2
68.4308,531
68.4463,17.6
68.4509,106.9
68.4559,291
68.4667,147
68.4734,150.8
68.4741,274.3
68.5019,138.5
68.5072,229.8
68.5164,21.7
68.5206,234
68.5357,240.5
68.541,454.6
68.5423,278.7
68.5743,165.2
68.5801,119
68.5909,537.7
68.6121,305.3
68.6136,108.8
68.6634,187
68.692,120.3
68.6929,695.5
68.694,99.3
68.6973,158.8
68.6981,328.9
68.7259,455.6
68.7462,238.2
68.7527,105.8
68.7788,219.5
68.8129,109.6
68.8384,175
68.8945,605.3
68.8977,122.5
68.901,113.2
68.9352,146.2
68.9489,104.1
68.9817,109
68.9868,195.9
69.0056,134.3
69.0089,109.3
69.0228,16.9
69.0352,108.6
69.0391,17.3
69.0444,74.2
69.0756,20.3
69.0762,330.7
69.0935,385.9
69.1207,191.6
69.1656,279.2
69.1793,186.9
69.1798,19
69.1854,94.9
69.2082,119
69.2143,217.6
69.2234,696
69.2615,211.2
69.3043,246.2
69.3193,165.9
69.3306,16.3
69.3311,394.7
69.3524,16.9
69.3644,305.1
69.3651,192.6
69.4353,451.4
69.4596,22.8
69.4684,17.1
69.4761,138.3
69.4855,404.8
69.4952,334.1
69.4987,96.9
69.5031,143.8
69.5124,167.2
69.5299,105.9
69.5306,475.4
69.5348,85.7
69.5412,19.9
69.5568,288.6
69.5576,20.7
69.5597,99.9
69.5705,82.7
69.5708,101.9
69.5793,196
69.5881,445.6
69.6745,642
69.679,105.3
69.6828,123.5
69.6948,152.7
69.7032,18.8
69.7102,470.7
69.7876,170.8
69.7978,447.2
69.8135,84.2
69.8154,158.6
69.8288,281
69.8329,600.3
69.8364,382.4
69.8461,18.4
69.8924,285.5
69.907,16.8
69.9134,739.6
69.9167,158.8
69.9197,468.8
69.9252,197.6
69.9289,320.4
69.9394,270.9
69.9555,486
69.9601,134.4
69.9606,110.5
69.9628,389
70.0107,106.2
70.0121,648.4
70.0277,133.1
70.043,18.4
70.063,241.2
70.0649,830.1
70.0711,116.6
70.1118,17.3
70.1153,365.8
70.1191,17.8
70.1224,349.6
70.1342,136.2
70.1368,714.6
70.145,536.1
70.182,81.9
70.1853,278.6
70.1986,297.2
70.2062,241.7
70.2198,94.9
70.2398,571.5
70.2438,268.3
70.2524,304.6
70.26,74.1
70.2631,344.7
70.2662,90.1
70.2817,167.2
70.2928,168
70.2996,238.3
70.318,77.2
70.3187,296.9
70.3336,102
70.3876,155
70.3946,384.6
70.4308,19.1
70.437,17.6
70.4604,86.5
70.4639,101.7
70.4652,272.9
70.4777,104.9
70.4792,109.8
70.4872,253.1
70.4957,17.8
70.5093,469
70.5268,19.3
70.5367,446.5
70.5493,448.1
70.5735,90.2
70.5845,455
70.5895,17.5
70.6013,526.1
70.6365,664.2
70.6594,147.7
70.6723,260.2
70.688,305.8
70.6974,95.1
70.706,614.6
70.7118,436.4
70.7882,166.4
70.8001,291.6
70.8063,80.5
70.8376,158.1
70.8578,15.8
70.8831,283.7
70.8882,88.2
70.8992,20.4
70.9117,135.6
70.9505,143.4
71.0168,79.9
71.0405,354.2
71.0425,110.8
71.0495,380
71.0694,17.8
71.0735,126.1
71.1042,524
71.1137,192.2
71.1226,139.4
71.1262,107.3
71.1362,526.3
71.1429,358
71.1623,279.2
71.1673,343.7
71.1739,284.7
71.18,102.3
71.1939,462.2
71.2145,140.7
71.2257,354.2
71.2426,15.9
71.2446,323.8
71.263,16.7
71.2882,18.1
71.3014,112.1
71.3079,245.9
71.3124,233.9
71.3424,116.3
71.352,615.2
71.3534,426.2
71.3554,86.7
71.3736,86.1
71.3783,112.5
71.3808,223.9
71.3833,122.3
71.3854,86.7
71.4001,219
71.4008,16.6
71.4204,479
71.4381,18.3
71.4413,592.7
71.5035,129.1
71.5214,262.7
71.5691,78.2
71.597,228.5
71.6066,486.9
71.6095,239.6
71.6493,115.1
71.6696,499.8
71.6943,200
71.7066,274.6
71.7147,283.8
71.7212,430
71.7348,330.7
71.7533,218
71.7632,245.9
71.7704,512.4
71.7719,99.9
71.7804,314.3
71.7867,82.9
71.8046,272.3
71.8115,287.3
71.8129,290.5
71.8251,352.9
71.8358,154.9
71.8455,19
71.8523,170.7
71.8609,146
71.8668,519.9
71.8823,116.6
71.8901,18.2
71.901,119.2
71.9153,526.8
71.922,462.6
71.9302,331.9
71.9488,85.6
71.97,164.9
71.972,250.3
71.9975,196.2
72.011,529.7
72.029,151.7
72.042,160.5
72.0528,605.5
72.0712,110.8
72.0734,115.8
72.0805,2333.7
72.1011,317.1
72.1219,462.5
72.1318,119.9
72.1493,544.5
72.1517,297.1
72.173,121.2
72.1794,543.4
72.196,526.2
72.209,156.3
72.2104,213.2
72.2109,777.7
72.2117,902.3
72.2124,806.7
72.2137,689
72.2142,923.3
72.2151,2735.5
72.2163,1653.4
72.2171,1784.6
72.2177,1980.8
72.2182,1934.1
72.2194,2821.4
72.2201,2915.4
72.2206,3718.4
72.2218,3769.8
72.2227,2747.3
72.224,3182
72.2245,1742.1
72.2253,2039.8
72.2262,3003.9
72.2276,1889.5
72.2282,1710.2
72.2285,1770.2
72.2296,832.5
72.23,1013.7
72.2307,1431.6
72.2317,376.7
72.2319,363.1
72.2329,884.1
72.2349,241.1
72.2358,140.8
72.2374,33.1
72.2379,21.1
72.2394,112.7
72.2459,87.5
72.2848,544.7
72.2917,457.3
72.3018,168
72.3116,294.4
72.3241,69.7
72.3294,107.9
72.3346,215.8
72.3458,224.3
72.3522,102
72.3586,615.5
72.3826,23.4
72.4014,393.3
72.4077,361.2
72.4146,228.8
72.4203,156.9
72.4269,275.4
72.4402,271.4
72.4419,135.6
72.445,274.5
72.4636,315.6
72.4826,305.4
72.5224,22.4
72.5558,23.1
72.5674,84.1
72.571,431.6
72.5779,409.3
72.586,304.7
72.6005,158.6
72.6036,82.3
72.619,18.9
72.6875,92.8
72.6898,16.7
72.6906,279.6
72.699,147.3
72.7,307.9
72.7183,124.7
72.7255,402.5
72.7577,464.5
72.7597,373.1
72.763,216.7
72.7721,134.4
72.7752,113.5
72.7968,16.2
72.7991,16.3
72.8063,118.1
72.8077,504
72.8189,100.5
72.8366,114
72.8405,74.5
72.8462,130.9
72.8625,113.1
72.8632,278.8
72.8781,253.6
72.884,106.8
72.9313,106
72.9319,471
72.9369,1065.3
72.9446,461
72.9588,87.8
72.9704,588.2
72.9813,74
73.0109,302
73.0255,505.8
73.0263,340.7
73.0355,334.1
73.0379,574.4
73.0453,18.3
73.0494,621.4
73.0547,19.4
73.0793,77.2
73.0879,85.9
73.0904,134.6
73.1148,104.3
73.1346,203.9
73.1673,611.9
73.1838,19.8
73.1962,294.1
73.2371,263.1
73.2397,100.6
73.2498,74.7
73.3189,332.8
73.349,120.3
73.3498,350.3
73.3749,160.5
73.3758,207.5
73.3764,440.9
73.3804,109.2
73.3864,100.1
73.4136,166.4
73.4321,117.8
73.4362,252
73.4422,82.3
73.4509,144.6
73.4596,106.1
73.4903,161.5
73.4915,17
73.5027,98.3
73.533,264.2
73.5455,332.5
73.5567,272.4
73.5871,282.3
73.5878,364.9
73.6031,307
73.606,96
73.6295,99.6
73.6429,191
73.6527,426.2
73.668,448.5
73.6704,467.4
73.6797,270.3
73.7031,98.4
73.7148,389.4
73.7206,112.8
73.7234,17.5
73.7976,182
73.8046,123
73.8138,352.3
73.8216,175.4
73.827,357
73.8458,328
73.8517,16.9
73.8606,490.9
73.8798,73.5
73.883,95.9
73.8992,20.6
73.9076,122.2
73.9311,624.2
73.9464,80.4
73.9623,315.3
73.974,92
73.9843,94.3
74.0531,569.6
74.0598,3534.2
74.0649,439.1
74.0743,140.4
74.1014,131.3
74.1019,134.2
74.1061,512.1
74.127,89.6
74.1367,101.1
74.1424,17
74.1814,128.5
74.182,135.2
74.1826,166
74.1985,231.3
74.2,16
74.2161,19.7
74.2386,515.1
74.241,524
74.2448,572.1
74.2496,413.8
74.2553,18.3
74.2776,289.7
74.2786,231.8
74.3572,16
74.3821,179.1
74.4227,235.6
74.4237,455.1
74.4547,119.2
74.4571,152.7
74.4616,17.3
74.5206,21.7
74.5315,88
74.5745,402.2
74.5823,444.4
74.6097,415.1
74.6113,628.9
74.6261,159.2
74.6503,240
74.6542,446.7
74.666,539.9
74.6777,107.7
74.7034,603.7
74.7224,214.1
74.7401,295.7
74.7472,318.9
74.7616,248.5
74.7669,126.1
74.7713,130
74.7718,16.2
74.773,84.9
74.7762,643.9
74.8164,17.7
74.8514,110.5
74.9236,144.6
74.9264,200.4
74.9302,17.2
74.9377,450.2
74.9607,319.9
74.9665,203.3
74.9714,575.2
74.9752,19.3
74.9782,90.6
74.9868,333.2
75.0054,81.8
75.0113,133.9
75.015,346.2
75.0257,19.6
75.0393,72
75.0511,122
75.0694,18.3
75.0743,16.9
75.0855,422.5
75.0869,165.1
75.0905,627.2
75.092,663.7
75.1038,375
75.1273,102.5
75.1403,344.7
75.1527,156.1
75.1716,69.6
75.1897,79.8
75.2001,610.9
75.2193,442.4
75.2248,93.1
75.2497,422.7
75.2512,18.8
75.2746,86.3
75.2839,229.6
75.2883,21.1
75.2954,155.7
75.2984,274.3
75.3283,447.4
75.361,214.5
75.3659,97.3
75.3772,573.2
75.3795,117.1
75.3855,81.8
75.3895,316.4
75.3908,18.3
75.4111,106.8
75.4121,254.5
75.4264,332
75.4306,201.1
75.4354,439.6
75.4549,127.4
75.4636,18.4
75.4725,206.3
75.4792,137.7
75.5179,265.4
75.519,177.2
75.5228,15.6
75.5329,247.9
75.5514,91.9
75.5621,633
75.5632,502.6
75.584,493.4
75.6014,127.2
75.6041,219.7
75.6091,114.2
75.6147,594.9
75.6165,430.4
75.6389,116.2
75.6654,267.8
75.678,373.1
75.7184,377.2
75.7437,334
75.7636,85.5
75.8353,302.2
75.8529,87.6
75.8932,216.5
75.9103,411.2
75.9214,19.3
75.945,23.5
75.9477,19.2
75.9568,323.4
75.9611,293.5
75.9905,411.5
75.9938,190.5
76.0085,577.7
76.0367,93.5
76.0436,122.7
76.0643,18.6
76.0938,480.5
76.107,275.9
76.1149,508.9
76.129,16.4
76.1722,17.3
76.1728,17.1
76.1818,72.2
76.1935,301.7
76.2005,298.3
76.2015,16.2
76.2067,149.6
76.214,594.4
76.2382,69.9
76.256,110
76.263,143.1
76.271,456.9
76.273,15.8
76.2824,17.8
76.2882,103.4
76.2968,16.8
76.3137,637.9
76.3214,487.9
76.332,196.8
76.3355,396.6
76.3588,388.7
76.3724,129.2
76.3862,104.5
76.4032,101.4
76.406,122.9
76.4076,497.1
76.4402,211.9
76.4751,113.3
76.4809,17.3
76.4823,328.9
76.4838,449.3
76.4856,156.1
76.504,141.6
76.5076,253
76.5115,19.8
76.5128,168.4
76.5323,700.1
76.538,142.1
76.5613,107
76.5804,90.9
76.663,19.6
76.6865,102.9
76.7057,120.3
76.7172,93.6
76.7233,416.9
76.7472,377.6
76.7563,148.1
76.7625,241.2
76.7769,285.9
76.8252,286.6
76.8338,270.2
76.8455,228.8
76.8789,253.9
76.888,308.3
76.924,282.6
76.9356,490.7
76.9644,460.9
76.9693,141.8
76.97,225.6
76.9776,18.9
76.9829,103.2
77.0027,104
77.0265,82.3
77.0282,557.6
77.0318,129.5
77.0347,161.7
77.0351,165.9
77.0364,82.5
77.0383,117737
77.0671,18.2
77.0817,414.3
77.1367,102.1
77.1633,392.2
77.1994,159.6
77.2187,634.8
77.3025,83.5
77.306,453.3
77.3709,517.3
77.3869,194.9
77.3882,141.5
77.414,89.9
77.4239,286.4
77.4251,311.1
77.4393,19.1
77.4842,215.5
77.5226,124.1
77.5239,449.4
77.5571,161.1
77.563,246.8
77.5699,154.9
77.6193,19.9
77.6293,169.3
77.6447,16.2
77.6508,19.7
77.6936,111.7
77.7027,227.3
77.7082,69.9
77.7091,296.6
77.7098,258.8
77.7122,160.2
77.7364,115.1
77.7457,17.7
77.7818,152.4
77.8096,378.4
77.8297,127.9
77.8403,260.3
77.8514,18.5
77.8648,120.8
77.8759,89.8
77.891,258.7
77.9065,243.5
77.9125,114.1
77.934,151.4
77.9571,556
77.9682,436.1
77.9691,20.2
77.9807,510.6
77.9884,192.9
77.9909,404.6
77.9952,253.9
78.0059,539.6
78.0068,150.6
78.01,143.6
78.0236,118.2
78.0353,525.1
78.0417,5267
78.0439,167.1
78.0559,207.7
78.0636,295.7
78.087,98.8
78.1034,282.7
78.1574,149.8
78.1624,104.2
78.1712,21.5
78.1777,16.3
78.207,419.5
78.2159,114.8
78.2577,107.8
78.2966,323.3
78.3259,411.8
78.3288,163.4
78.3595,17.7
78.3717,109.5
78.3732,97.2
78.3887,122.9
78.3946,160.7
78.3971,153.8
78.4076,124.3
78.4315,328.4
78.444,149.9
78.4701,317.8
78.4902,1111.8
78.5229,79.5
78.5392,20.4
78.5416,92.5
78.5775,19.3
78.5783,446.4
78.6104,16.3
78.6213,70.2
78.6319,83.5
78.6372,117.8
78.6451,388.1
78.6467,20.2
78.6795,16.5
78.6879,210.2
78.7054,16.9
78.7184,20.8
78.724,147.8
78.7286,79.5
78.7362,19.4
78.7797,113.9
78.7904,359.1
78.7959,111.5
78.8024,428.8
78.8153,16.7
78.8392,347.2
78.8557,74.3
78.8644,19.2
78.8787,376.3
78.91,244.1
78.9258,392.8
78.939,303.2
78.9543,304.9
78.9776,116.5
78.9835,101.7
78.9968,185.2
79.0019,494.4
79.0401,115.8
79.054,2245.1
79.0707,287.7
79.0783,21.4
79.0834,172.8
79.1057,19.2
79.1301,478.2
79.1338,126
79.1345,383.3
79.1389,19.8
79.1415,37.2
79.1593,21.4
79.1749,120.3
79.2453,292.7
79.2534,377
79.2604,275.6
79.2684,538.7
79.2824,19.1
79.3028,149.3
79.3156,18.9
79.3368,144
79.3391,718.6
79.3636,464.3
79.3715,224.5
79.3721,149.9
79.3947,185.6
79.432,641.5
79.4333,80.6
79.4479,294.2
79.4682,405.6
79.4687,73.2
79.4758,106.9
79.4847,339
79.487,19
79.4885,133.4
79.5182,282
79.5263,249.7
79.5291,331.3
79.5411,500.1
79.5506,190.3
79.5613,82.5
79.5803,414
79.5852,260.4
79.6057,343
79.6358,336.4
79.6379,114.6
79.7005,438.6
79.741,154.8
79.7553,88
79.764,118.4
79.82,16.6
79.8298,130.8
79.8607,125.9
79.8879,93.9
79.8915,25.8
79.8942,170.7
79.8965,94.6
79.8994,105
79.9073,146.4
79.9291,92
79.9473,498.4
79.9798,179.9
79.9902,306.2
80.0033,259
80.0236,490.5
80.0285,395.3
80.0345,116.1
80.0602,106.8
80.0771,128.2
80.0935,441.2
80.1043,436.9
80.1694,98.9
80.1759,122.4
80.1902,163.7
80.1997,656.5
80.2012,17.8
80.2053,124.4
80.2317,529.4
80.2599,127.7
80.279,471.8
80.2833,188.9
80.3169,470.4
80.3287,85.5
80.3407,84.9
80.3456,310.5
80.3544,323.1
80.3548,244
80.3829,332
80.3845,487.9
80.4026,18.2
80.4144,284
80.4368,183.6
80.4469,327.9
80.4482,199.2
80.4529,116.8
80.4633,177.6
80.475,322
80.4765,399.8
80.5042,408.6
80.5286,19.6
80.5427,140.9
80.5483,531.6
80.5609,93.3
80.5648,628.4
80.6051,251.8
80.6241,75.8
80.6338,231.7
80.6375,123.3
80.6537,23.3
80.6695,151
80.6901,329.8
80.7003,326.1
80.701,310.1
80.7073,311
80.7219,568.2
80.7236,297.5
80.7548,324.7
80.7779,309
80.7923,91.5
80.8012,106
80.8046,303.2
80.8127,355
80.8205,71.2
80.826,122.3
80.8419,89.5
80.851,282.1
80.8523,124.4
80.8587,206.3
80.8643,126.1
80.8713,317
80.8883,153.5
80.917,90.8
80.9238,154.8
80.9292,82.5
80.9476,52705.6
80.9576,99.4
80.974,390.2
80.9771,468.7
81.0062,145.6
81.0105,594.3
81.0191,152.4
81.0238,115.5
81.0606,18.2
81.0647,520.8
81.0697,1106.4
81.0722,262.5
81.0744,17.5
81.0894,19.8
81.0944,491.1
81.1096,254.7
81.1259,362.2
81.1272,249.8
81.1379,307.1
81.1394,1041.8
81.1399,1179.9
81.1409,27.6
81.1421,175.1
81.1427,180.7
81.1437,553.4
81.1446,136.7
81.1541,310.9
81.1736,91
81.2063,114.6
81.258,495.2
81.2668,118.4
81.2676,344.8
81.279,18.6
81.3006,506.4
81.322,145.7
81.3299,94
81.3499,85.5
81.3744,18
81.3774,340
81.4008,141.5
81.4157,117.2
81.4207,110.9
81.4675,553.6
81.4801,120.9
81.4865,104.2
81.4875,20.7
81.5,91.6
81.5415,19.2
81.5459,117.8
81.5663,108.2
81.5686,100.5
81.5891,103.1
81.5988,133.6
81.6595,499.9
81.6831,81.7
81.7161,127.6
81.7195,224.3
81.7234,103.4
81.7331,24.2
81.7615,18.6
81.7713,341.5
81.8023,145.7
81.8156,260.6
81.8166,620.2
81.8337,433.7
81.8356,83.5
81.8466,126.1
81.858,89.8
81.8914,129.9
81.9321,174.3
81.9409,108.4
81.9736,278
82.0025,272.8
82.0199,92
82.0368,120.5
82.0472,83.3
82.113,132
82.1416,209
82.1423,341
82.1503,17.9
82.1684,193.4
82.2064,481
82.239,16.8
82.2422,80.8
82.2459,271.4
82.2529,168.1
82.2766,267.9
82.2803,598.4
82.2856,475.1
82.3088,167.1
82.3463,534.9
82.3709,18.4
82.3778,99.8
82.3992,295.1
82.4037,154.4
82.4835,389.5
82.5035,279
82.5092,124.3
82.5148,326.9
82.5179,18
82.519,457.6
82.5271,16.4
82.535,99.9
82.5442,160.4
82.5504,195.9
82.5799,18.4
82.5895,287.1
82.6337,160.6
82.6398,150.4
82.6621,105.7
82.704,170.2
82.7071,385.7
82.7442,78.8
82.776,124.5
82.7898,452.3
82.8033,167.1
82.8644,276.3
82.8731,83.8
82.8799,372.5
82.9208,116.6
82.9293,176.6
82.9447,14541
82.9687,308.7
82.9772,485.2
82.991,92.7
83.009,412.7
83.0213,1128.4
83.0505,784.6
83.0549,20.2
83.0602,485.9
83.0907,114.9
83.0989,137.6
83.1002,248.3
83.1161,281.5
83.1243,71.7
83.1622,679.1
83.1702,18.5
83.1742,91.6
83.2003,427.1
83.2073,409.7
83.2393,199.8
83.2403,20.3
83.2526,189.6
83.2686,590
83.3025,149.9
83.3052,16.7
83.3084,254.9
83.3137,106.5
83.3311,81.2
83.3643,82.8
83.3651,16.6
83.3811,142.9
83.3982,75.2
83.4001,177.3
83.4094,166
83.428,280.7
83.4293,718.4
83.4435,361.6
83.465,172
83.4768,274.3
83.5022,111
83.5149,19.4
83.5166,20.4
83.5386,18.7
83.5397,422
83.5429,118
83.5535,281.4
83.5601,75.6
83.5703,19.9
83.5728,72.5
83.5808,557.5
83.5854,106
83.5857,96.3
83.5931,483.9
83.6083,266.6
83.6724,150.9
83.682,77
83.684,17.5
83.6848,263.3
83.7093,139.7
83.7161,395.2
83.7192,82.6
83.737,612.3
83.74,157.2
83.7496,287.1
83.7747,355.3
83.782,19
83.7967,406.6
83.8069,195.6
83.823,340.5
83.8298,73.4
83.8316,551.1
83.8446,83
83.9023,17.1
83.9364,115.4
83.9548,445.1
83.9852,389.5
84.001,203.6
84.0339,85.6
84.036,136.6
84.0442,531.9
84.054,481.9
84.0695,220.9
84.0741,348.8
84.0832,113
84.0874,307.4
84.0971,432.7
84.0989,691
84.1048,289.9
84.1063,338.5
84.1104,150.2
84.1132,96.8
84.1223,288.7
84.127,316.8
84.128,234
84.1419,91.6
84.1527,19.9
84.1548,18.4
84.1639,426.9
84.1725,157.5
84.1898,18.5
84.1917,711.8
84.1977,70.8
84.198,71.6
84.2221,95.3
84.2277,140.3
84.2309,103.4
84.2773,102
84.2782,82.2
84.3012,178.7
84.3434,231.5
84.349,418.3
84.3556,602
84.3607,136
84.3767,121.3
84.3846,212.9
84.3861,290.1
84.3895,257.9
84.4476,237.3
84.4672,162.6
84.48,83.9
84.5231,202.1
84.5334,119
84.5705,200.3
84.5766,94.7
84.587,131.9
84.6072,125.1
84.6142,17.7
84.6786,85.6
84.6817,136.3
84.7628,388.8
84.773,142.2
84.7739,170.2
84.8033,130.4
84.8216,196.2
84.8267,442.5
84.8395,17.7
84.8812,17.5
84.9238,112.7
84.9296,100.3
84.9319,410.8
84.9506,324.8
84.9595,19598.7
84.9617,18.5
85.0033,106.4
85.0077,17.6
85.011,411.2
85.0171,294.8
85.0297,161.3
85.0439,19.8
85.0494,260.7
85.0624,89.3
85.0783,374.2
85.1072,186.1
85.1177,77.9
85.1471,633.6
85.153,221.4
85.1844,83.1
85.1903,309
85.1946,72.9
85.2512,194.8
85.2537,90.4
85.2822,98.9
85.29,108.1
85.3092,577.4
85.3484,115.9
85.3582,88.4
85.3697,86.1
85.3809,114.8
85.4368,197.5
85.4389,84.6
85.4528,19
85.4747,203.9
85.4944,114.3
85.5671,356.9
85.5784,18.6
85.5875,123.4
85.5969,19.5
85.6074,452.3
85.6092,181.1
85.6178,319
85.631,115.1
85.6664,19.2
85.6812,95.6
85.6851,306.8
85.6932,105.9
85.7206,278.7
85.7359,115.8
85.7377,181.5
85.7955,106.8
85.8134,162.2
85.8736,450.1
85.9025,17.7
85.9342,479.4
85.9372,250.6
85.9402,228.3
85.9656,750.1
85.9891,21.9
86.0434,213
86.0599,38503
86.0838,119.8
86.0875,263.5
86.0907,148.9
86.0929,453.8
86.0962,93030.2
86.1015,614
86.147,293.4
86.1526,112.4
86.1612,430.3
86.1681,87.4
86.1822,97.1
86.1963,370
86.2057,392.9
86.2207,89.6
86.2234,75.2
86.2488,170
86.2524,116.1
86.2646,215.5
86.2692,19.1
86.2752,318.3
86.3219,694.5
86.3658,16.7
86.3756,18.2
86.3925,553
86.4365,258.3
86.4486,173.2
86.4547,418.3
86.5235,703.2
86.5331,258.7
86.5801,117.4
86.6291,257.3
86.6355,429.7
86.6382,124
86.6573,207.1
86.6899,523.6
86.691,181.2
86.7621,128.8
86.7653,104.6
86.7808,587.2
86.8013,97.3
86.8537,134.8
86.8822,106.1
86.8945,101.9
86.9428,145.2
86.9438,221.8
86.9526,237.2
86.9665,18
86.9761,556.6
86.9925,614
87.015,96.1
87.0203,89.2
87.0229,316.9
87.0694,121
87.0715,172.5
87.0773,504.3
87.0842,138.2
87.0995,658.9
87.1051,503.7
87.1229,222.2
87.128,102.9
87.1358,502.8
87.178,288.2
87.1961,16.6
87.233,73.4
87.2362,677.5
87.2674,125.2
87.3147,512.1
87.3275,117.8
87.3682,19.3
87.3723,473.4
87.4048,17.5
87.4244,420.5
87.4869,1017.3
87.5425,95.2
87.5474,192.1
87.5673,315.6
87.5777,575
87.582,508.9
87.5909,184.6
87.6158,121.9
87.622,260.3
87.6858,296
87.6919,101.5
87.7116,537.5
87.7241,302.5
87.7347,625.4
87.7551,197.4
87.7618,99.5
87.806,303.5
87.8209,130.9
87.8405,149.8
87.8618,512.4
87.8638,258.9
87.8974,18.2
87.9093,108.6
87.9168,239.7
87.9579,316.5
87.9682,74.5
87.9841,258
88.0281,616.6
88.0391,9115
88.0655,97.9
88.0973,88
88.0981,90
88.1117,109.2
88.1143,658
88.1771,81.8
88.189,18.4
88.2072,138.9
88.2583,831.7
88.3049,18.9
88.3084,306.5
88.3211,18
88.3924,19.4
88.4077,97.6
88.4171,550.5
88.4623,461
88.4665,16.3
88.5082,364.6
88.5127,18.3
88.5205,631.2
88.539,17.3
88.5448,97.4
88.5574,412.5
88.5777,393.1
88.5786,112.5
88.5804,90.3
88.6288,714.2
88.6361,86.6
88.6526,696.9
88.6915,123
88.701,354.5
88.7059,498.6
88.7437,503.2
88.7691,310.1
88.7882,18.8
88.8067,574.6
88.8147,140.4
88.8259,240.3
88.9188,478.1
88.9391,20.3
88.9522,102.1
88.9609,143.5
88.9683,17.3
88.9703,103.8
88.9754,121.2
89.0174,101.3
89.0356,199.5
89.0671,102.1
89.0866,17.7
89.1101,315.2
89.1176,142.2
89.1473,194.3
89.1808,315.3
89.1942,166.3
89.2079,102.8
89.2219,204.2
89.2373,115.2
89.2532,69.1
89.2566,129.5
89.2765,284.1
89.2924,20.6
89.3023,196.6
89.3074,281
89.3406,262.6
89.4055,120.3
89.4119,126.4
89.4766,594.6
89.4864,126.9
89.5372,19.5
89.5796,288.1
89.6244,665.4
89.6423,150.1
89.6692,117.4
89.6841,146
89.7275,18.4
89.7294,17.1
89.7429,291
89.7669,184.1
89.7763,74
89.7845,188.1
89.8023,137
89.8033,300.2
89.8122,18.2
89.8558,463.5
89.8604,182.7
89.8703,345.4
89.878,289.3
89.8868,91.8
89.9204,22.3
89.9436,252.7
89.9487,178.2
89.9608,50.9
89.9635,555.2
89.9709,286.8
90.034,70.8
90.0388,143.7
90.0451,464.6
90.0742,152.9
90.1001,102
90.1158,411.3
90.1438,99.7
90.173,93.7
90.1776,284.5
90.2314,417.2
90.2777,202.5
90.336,173.4
90.393,115.8
90.4085,84
90.4122,105.8
90.4287,20.7
90.4455,144.4
90.4479,111.9
90.456,258.1
90.4674,286.6
90.4966,70.5
90.5063,82.4
90.5142,288.6
90.535,85.4
90.5598,145.6
90.5774,18.5
90.5912,19.9
90.6037,450.9
90.6293,311.5
90.6335,200.3
90.6471,507
90.6573,125.2
90.6958,139.5
90.7142,283.2
90.7242,224
90.8194,19.5
90.8444,299.9
90.9031,75.8
90.9113,439.4
90.9336,118.9
90.9475,4592.7
90.9525,258.9
90.9598,155.5
90.9765,11051
90.9994,19.7
91.0089,237.2
91.0229,103.9
91.0269,125.1
91.0427,279.5
91.0466,125.8
91.0541,1583.4
91.0698,279.9
91.0974,19.4
91.1012,19.3
91.1084,92
91.116,19.9
91.1243,18.7
91.1434,85.3
91.1724,73.5
91.1821,591.1
91.1849,479.1
91.1953,534.7
91.2214,180.1
91.2466,655
91.2498,16.4
91.2675,472.6
91.2814,318.4
91.318,373.4
91.3629,81.8
91.3831,342
91.4203,18.8
91.4557,318.4
91.4606,318
91.4822,259.1
91.5796,195.1
91.5859,112
91.6102,192.3
91.6817,77.4
91.7372,121.7
91.7397,17.4
91.7567,554.7
91.8043,23.7
91.8125,711.4
91.8176,85.6
91.8673,151.4
91.8699,424.2
91.8819,271.5
91.8844,165.4
91.8968,260.4
91.9005,218.6
91.9527,467.5
91.974,255.2
91.9749,88
92.0286,291.2
92.0379,74.4
92.0459,351.7
92.0481,271.7
92.0486,247.4
92.0494,174.8
92.0549,323.5
92.0796,435.7
92.1102,20.6
92.1146,146.5
92.1469,110
92.1548,18.1
92.1681,18.4
92.186,170.7
92.1871,120.6
92.208,90
92.3136,120
92.3569,111.2
92.3595,114.2
92.3624,440.2
92.4151,325.6
92.4217,91.5
92.4239,312
92.4254,176.4
92.441,246.7
92.4511,18.4
92.474,176.7
92.4831,479.4
92.5144,441.8
92.5213,200.8
92.5231,432.2
92.5336,194.1
92.5538,75.5
92.5644,426.9
92.5708,205.3
92.579,17.4
92.6573,223.7
92.6592,211.4
92.6705,80.7
92.7359,455.7
92.7503,607
92.7645,110.5
92.7805,274.5
92.7877,102.4
92.7926,500.8
92.7957,307.8
92.8109,157.6
92.8141,278.1
92.8622,459.5
92.8678,506
92.8775,129.5
92.892,602.7
92.9011,157.7
92.9117,298
92.9129,405.7
92.9437,221.2
92.9463,373.3
92.9523,330.2
92.9561,524.4
92.96,425.2
92.9788,629.7
92.9992,71.2
93.0067,16.7
93.0126,515.4
93.0316,162.2
93.0665,116.8
93.0698,393.4
93.1486,211.8
93.1588,17.3
93.1764,255.1
93.1895,151.1
93.1931,378.3
93.2272,479.3
93.2296,556.4
93.2363,646.4
93.244,386.4
93.2778,20.7
93.2893,18.6
93.3462,70.3
93.3594,249.1
93.3616,409.3
93.367,93.2
93.394,146
93.4082,16.8
93.4181,310.1
93.4399,147.8
93.4457,336.1
93.4621,114.4
93.4996,741
93.5635,172.4
93.5691,18.5
93.632,408.6
93.6354,644.5
93.6375,77.9
93.6383,226.4
93.6592,150.7
93.6751,164.2
93.6798,400.6
93.7242,114.6
93.7262,198.6
93.7524,17.6
93.7871,305.2
93.7984,279
93.8205,436.2
93.836,163.9
93.8409,121.9
93.8553,105
93.8658,16.5
93.8856,347.6
93.9439,108.3
93.9455,245.7
93.951,289.4
93.9766,18
93.9946,423.3
94.039,21.8
94.0412,56101.7
94.056,289.3
94.0671,434.9
94.0825,421.4
94.1043,174.4
94.1943,74.9
94.2069,143.8
94.2087,18.9
94.2147,146
94.2335,82.3
94.2445,116.5
94.2644,16.9
94.2951,97
94.3051,406.7
94.3158,400.3
94.3206,474.3
94.3307,189.7
94.3325,18
94.3473,101.9
94.3947,257.6
94.4066,264.7
94.4077,170.6
94.4474,72.8
94.454,102.8
94.478,87.6
94.4801,74.8
94.4868,18.6
94.4902,294.8
94.4975,157
94.5414,18.2
94.5729,376.1
94.5852,465.6
94.6138,116.4
94.6594,362.4
94.6641,339.7
94.666,259.5
94.6672,313.9
94.6695,410.7
94.6766,602.8
94.6929,130.3
94.6967,221.2
94.7062,733.6
94.7081,232.4
94.7211,140.6
94.7455,359.8
94.7505,111.9
94.7565,110.6
94.7954,124.5
94.8367,549.6
94.847,626.8
94.8696,332.5
94.9029,178.2
94.9234,155.4
94.9305,369.2
94.9317,18.1
94.9482,121.7
94.9527,148.9
94.9669,109.2
94.9784,404.1
95.0112,394.3
95.033,21.6
95.0357,185.6
95.0433,76.3
95.0446,903.7
95.0457,21.6
95.0462,32.3
95.049,415296.9
95.0516,372.7
95.0538,34.6
95.0625,32.5
95.0741,95.8
95.0774,74.8
95.0854,315.2
95.0894,213.4
95.1045,179.8
95.1157,137.6
95.1541,19.6
95.1632,457.9
95.1699,338.6
95.1726,375.5
95.1734,175.9
95.1945,838.3
95.212,96.7
95.2413,119.1
95.2876,16.6
95.3128,109.2
95.3289,428.5
95.3321,18.6
95.3555,512.4
95.3691,203.1
95.4059,274.6
95.4526,309.2
95.4792,104.9
95.5192,124.4
95.5223,98.9
95.5242,157.2
95.5439,90.2
95.5578,17.6
95.5592,456.7
95.5608,19
95.5746,109.4
95.5779,17.6
95.593,134.8
95.6122,157.2
95.6242,299.5
95.63,18.1
95.6547,80.6
95.6679,89.8
95.7148,123.3
95.7701,20.7
95.7734,342.8
95.8121,94.5
95.8499,202.7
95.852,109
95.8539,241.9
95.8662,447.7
95.8915,497.5
95.9141,184.1
95.9233,338.9
95.9845,610.6
95.9918,176
96.0041,416.2
96.0346,466.9
96.0429,132.6
96.0523,20087.9
96.0751,76.5
96.0984,455.9
96.1118,113.4
96.1654,107.7
96.2121,167.8
96.2291,115.8
96.2582,423.3
96.2837,534.7
96.3447,336.1
96.3611,193.7
96.375,160.7
96.3923,23.1
96.4382,356.1
96.4684,18.5
96.4716,22.9
96.4892,452.3
96.4911,414.1
96.522,107.6
96.5303,229.2
96.5501,385.1
96.5679,113.3
96.65,419.8
96.6603,79.8
96.6732,586.3
96.675,343.9
96.6986,381.4
96.7562,463.9
96.8261,142.5
96.834,319.5
96.8365,132.9
96.8562,115.4
96.8882,74.5
96.9124,125.2
96.9216,163969.6
96.9266,130
96.9374,42.7
96.9445,424.8
96.9493,547.5
96.9741,316.4
96.9848,257.2
97.0074,145.8
97.0105,92.9
97.0532,31.8
97.0566,518.9
97.0665,241
97.0734,426.8
97.099,115.6
97.1011,36.9
97.1219,120.9
97.1517,104.9
97.1598,407.7
97.1918,278.2
97.2061,18.4
97.2128,367.4
97.2139,124.2
97.2187,89.9
97.2439,481
97.2464,248.7
97.2638,173.8
97.2749,200.2
97.3306,432
97.3347,269.2
97.3512,134
97.3534,214.8
97.3647,613.4
97.3939,110.2
97.3991,99.4
97.4071,398.3
97.4094,470.4
97.4696,92.9
97.4917,20.4
97.521,421.1
97.5221,114.6
97.5609,189.1
97.5957,184.2
97.5982,586.7
97.5985,562.9
97.6047,222.6
97.6185,514.9
97.6315,18.3
97.7108,17
97.7368,308.1
97.7391,89.5
97.7783,18.2
97.787,17.2
97.7914,21.5
97.8149,585.5
97.8187,109.7
97.9089,84.6
97.9241,109.5
97.9331,208.4
97.945,81.3
97.9654,665.3
97.9843,243.7
98.0096,609.6
98.0297,404.7
98.0348,102.5
98.0419,376
98.0438,82.4
98.0678,97.3
98.1041,72.8
98.1082,308.5
98.1246,257.7
98.1361,72.3
98.1486,505.9
98.1643,157.9
98.2261,105.4
98.2715,376.5
98.2813,160.2
98.2858,626.8
98.3174,225.9
98.3657,574.1
98.3755,77.1
98.3884,487
98.3909,278.8
98.3963,70.5
98.3981,109.4
98.4075,21.6
98.4116,138.3
98.4258,17.2
98.4397,267.2
98.4441,311.6
98.45,444.8
98.4643,106.5
98.4846,565.5
98.5061,538.6
98.5381,20.5
98.5661,88.7
98.5761,134.9
98.6023,189.6
98.6167,155
98.6206,72.4
98.621,92
98.6298,131.7
98.6345,94
98.6562,539.2
98.6589,148.5
98.6822,180.8
98.6859,79
98.7015,235.5
98.7084,437
98.7141,495.5
98.723,461
98.8407,104.8
98.8877,424.5
98.9187,50740.8
98.9197,8841.1
98.9703,119.5
98.9752,12889.3
98.9822,148.7
98.9841,47
98.9956,312.7
99.0292,503
99.0412,288.1
99.0491,261.4
99.0548,84.3
99.0609,384.1
99.0693,72.8
99.0798,69.1
99.0917,89.2
99.1121,368.8
99.1234,157.2
99.1624,20.4
99.1641,321.4
99.2581,198.1
99.2608,485.6
99.295,106
99.3215,723.1
99.3639,394.3
99.3954,296.6
99.4376,164.1
99.4419,415.3
99.4701,303.5
99.5038,346.6
99.5405,18.5
99.5584,587.7
99.5748,81.7
99.5846,420.7
99.5994,132.1
99.6119,641.1
99.6573,224.5
99.6695,391.1
99.6951,104
99.6983,226.9
99.7011,161.3
99.73,357.8
99.7462,124.1
99.7592,106.7
99.8319,262
99.8522,113.2
99.8773,156.4
99.8861,307.3
99.8887,129
99.9046,153.3
99.9145,235.1
99.9427,411
99.9504,286.6
99.9666,113.5
99.9785,378.6
99.9832,92
100.0264,478.6
100.0756,18.6
100.0779,239.6
100.0848,656
100.1085,91.2
100.1237,378.6
100.1365,587.2
100.1386,155.3
100.1841,84.3
100.191,287.5
100.2454,154.8
100.2612,17
100.378,315.3
100.3805,194.8
100.3929,664.8
100.4193,452.3
100.4294,547.2
100.4343,20.5
100.4692,399.1
100.5282,168.1
100.5544,114.8
100.575,18.2
100.5779,462.9
100.645,152.9
100.6793,224.6
100.7075,382
100.7457,593.4
100.7579,18.4
100.7646,392.9
100.7865,107.9
100.797,713.6
100.8147,116.8
100.8166,119.9
100.822,156.9
100.8786,87.8
100.9168,1119.8
100.9292,106.1
100.9556,20.8
100.9654,18.7
100.971,124.5
101.0083,21.8
101.0103,90.8
101.0357,90.5
101.047,2993.4
101.0708,977
101.1279,407
101.1625,430.3
101.1638,20.2
101.204,106.4
101.2134,102.4
101.2169,253.2
101.2565,17.3
101.2705,129.6
101.3324,499.2
101.347,315.3
101.3635,657.9
101.3784,90.2
101.4008,154.7
101.4249,17.8
101.4379,17.6
101.4502,312.9
101.4644,19.9
101.4722,495.9
101.5471,84.6
101.5627,306.4
101.5832,178.3
101.6058,331.3
101.6177,20.3
101.6341,427.2
101.6398,459.2
101.6559,22
101.6661,205.5
101.7014,209
101.7292,429
101.7421,117.2
101.7632,591
101.7818,90.9
101.8019,91.3
101.8146,108.9
101.8266,175.9
101.8308,496.2
101.8433,94.5
101.8474,16.3
101.9407,82.9
101.9603,566.2
101.9636,332.3
101.9645,612.2
101.9825,656.1
102.0311,77.9
102.0548,4678.1
102.0587,181.8
102.1184,88.2
102.1233,16.5
102.1274,18.2
102.1489,187.1
102.1791,319.5
102.1968,131
102.2433,88.3
102.2509,220
102.3812,462.1
102.3934,165.2
102.4091,110.5
102.4215,181.4
102.4242,17.7
102.4517,412.6
102.5017,208.8
102.5654,110.5
102.5739,109.1
102.612,424.3
102.6698,306.7
102.6728,169.8
102.6808,123.8
102.7143,134.9
102.7381,311.6
102.7747,258.3
102.7777,480.1
102.7807,335.6
102.804,18.2
102.8372,108.3
102.8759,419.1
102.8919,411.4
102.9185,162.3
102.9608,263.1
102.9679,244.9
102.969,90.7
102.9702,524.7
103.004,17.2
103.0502,413.8
103.0851,17.7
103.1024,143.6
103.1046,212.6
103.1059,401
103.1136,556.5
103.1174,183.7
103.1198,109.3
103.1797,399.2
103.2037,348.1
103.2085,721.1
103.2264,400.7
103.2502,152.2
103.2546,518.3
103.2967,83.6
103.3146,114.6
103.3338,317.3
103.3345,489.3
103.3506,130.2
103.3573,87.2
103.365,108.3
103.3668,164.1
103.3692,116.4
103.3729,415.4
103.4016,19.6
103.4147,153.9
103.4225,407.8
103.4269,16.3
103.4342,259.9
103.4793,196.9
103.5033,571.4
103.5199,145.5
103.544,98.3
103.546,340.4
103.5654,17.3
103.575,16.4
103.5955,108.7
103.6267,344.3
103.6674,191.2
103.6768,301.4
103.7344,112
103.746,346.3
103.7687,173.6
103.8092,117.9
103.8419,75.6
103.9252,307.6
103.9458,16.4
103.9703,289
103.9792,363.4
104.0055,284.3
104.0091,157.4
104.0432,181.6
104.1069,415897.3
104.193,156.4
104.2124,176.3
104.2409,391.7
104.2603,18.4
104.3069,361.6
104.3243,110
104.4036,321.4
104.5328,17.5
104.5492,446
104.5555,279.6
104.5689,102.4
104.6405,122.5
104.6429,107.4
104.6475,186.3
104.6568,105.7
104.7016,347.4
104.7024,251.5
104.7053,99
104.7276,100.1
104.7394,74.7
104.7482,474.2
104.7591,121.1
104.7809,122.6
104.8498,99.7
104.8683,445.3
104.9077,20.6
104.9369,301.1
104.9432,261.6
104.948,238.9
104.9561,339.8
104.9632,5754.2
104.9658,134
104.9846,480.8
104.9922,1577
104.9969,18.8
105.0002,430.5
105.0033,22.6
105.0446,40275.9
105.0684,18.9
105.0698,28.7
105.1102,19311.6
105.1512,104.6
105.2075,417.3
105.2362,243
105.2436,20.9
105.2711,18.8
105.3184,69.7
105.3914,90.4
105.3989,69.4
105.4356,591.1
105.4401,123.7
105.4594,265.3
105.4701,22.3
105.525,85.6
105.5581,479.7
105.5853,438
105.5935,316.4
105.5945,173
105.6007,272
105.6241,105.9
105.6488,130.7
105.65,654.2
105.6766,401.6
105.6908,159.3
105.7566,18.9
105.774,575.5
105.7965,110.7
105.7979,146.9
105.8016,18.7
105.865,304.6
105.9083,502.3
105.9119,22.7
105.9637,27.4
105.9665,25
105.9922,557.3
106.0329,19.8
106.0461,150.6
106.0479,835.6
106.065,74.3
106.0753,131.5
106.1112,281.9
106.148,233.3
106.1512,130.3
106.1821,124
106.2037,159.8
106.3186,165.1
106.3263,516
106.3346,110.5
106.3429,174.5
106.3455,217.2
106.3495,199.7
106.3625,18.7
106.3834,303.5
106.4327,21.2
106.4373,113
106.4681,118.5
106.5132,333
106.5196,19.1
106.5819,145.4
106.5964,171.6
106.6501,92
106.6555,152.9
106.7061,185.9
106.7137,465.7
106.7163,117.7
106.76,131.7
106.7704,422.2
106.7842,200.6
106.7908,670.5
106.7934,100.3
106.8288,511.2
106.83,93.6
106.845,17.3
106.8568,193.4
106.9195,657.2
106.9267,274.3
106.9435,49.9
106.9468,228.2
106.9505,5937.4
106.9637,127.7
106.9722,92.4
106.9826,109.4
106.992,178.1
107.0238,100.1
107.0282,90.8
107.0314,117.2
107.0473,267.2
107.0491,375.9
107.0528,92.8
107.0782,133.3
107.0854,64.9
107.0891,101
107.1216,444.7
107.1329,92
107.1707,112.5
107.1989,18
107.2415,81.1
107.2621,17.3
107.2651,314.9
107.2867,102.8
107.3244,86.7
107.3277,110.1
107.3645,257.1
107.3681,17.1
107.4337,445.7
107.4921,93.6
107.5125,76.9
107.5203,99.2
107.5701,102.8
107.62,533.1
107.6576,372.3
107.7125,341.1
107.7272,17
107.7284,114.1
107.7349,115.2
107.7859,711.2
107.7891,128.1
107.8134,185.8
107.9013,114.8
107.9094,218.5
107.9251,264.2
107.9338,17
107.9511,493.9
107.9776,242
107.9826,273.2
108.0499,775.4
108.1127,316.5
108.1234,324.3
108.1738,94.7
108.2528,19.9
108.2814,203.9
108.3826,124.6
108.4215,18.8
108.4511,109.2
108.4551,196.3
108.4854,319.9
108.522,409.8
108.5278,158.5
108.5366,479.1
108.5546,110.4
108.5634,167.6
108.6612,682.7
108.7061,626.9
108.722,498.2
108.7398,20
108.77,70
108.8125,478.4
108.8565,188.6
108.8787,101.7
108.8853,115.3
108.8888,25.7
108.9376,126.7
108.9536,388.3
108.9582,116.2
108.9597,36.3
108.9626,76.7
108.9661,16.5
108.9701,300.3
108.9844,142.7
109.0238,126.1
109.0402,269.8
109.0647,61516.3
109.0729,310.2
109.0902,103.4
109.0906,107.9
109.1015,20.8
109.1594,137.7
109.1726,17.3
109.1896,121.3
109.1947,472.1
109.2962,314.5
109.3042,653.6
109.3153,20
109.3184,20.4
109.3254,158.9
109.3287,377.9
109.3326,222.5
109.3392,449.5
109.3635,133.1
109.3715,156.6
109.38,336.4
109.3993,16.5
109.421,116.8
109.4357,364.5
109.4573,153
109.4716,19.1
109.4805,104
109.5026,19.8
109.5046,279.3
109.5667,19.7
109.6141,19.1
109.6162,151.8
109.656,597
109.6775,341.7
109.6856,530.2
109.7208,272
109.796,86.2
109.8473,237.9
109.855,86
109.8652,357.7
109.8924,108.3
109.9082,464.2
109.9191,156.8
109.9282,99.3
109.9708,17
110.0321,189.2
110.0566,82.1
110.0592,17.5
110.0681,2439.6
110.0712,410.4
110.0763,106.9
110.0855,363.9
110.1568,110.4
110.1624,18.6
110.2064,106.8
110.2657,170.2
110.2693,388
110.2839,442.4
110.2867,119.1
110.2991,468.1
110.3229,108.7
110.3886,285
110.4443,17.7
110.4467,294.5
110.5147,121.4
110.5716,111
110.5746,92
110.5906,22.7
110.6125,84.7
110.647,155.9
110.6892,109.6
110.6926,597.4
110.7414,308.2
110.758,423.6
110.7659,171.9
110.797,491.3
110.8402,70.8
110.8697,92.3
110.8727,392.6
110.924,660.5
110.9536,404.3
110.9559,556.1
111.0057,474.3
111.0232,331.1
111.0293,116
111.044,346.5
111.0689,20
111.0901,247.1
111.1546,77.8
111.1659,107.8
111.2105,207.5
111.2248,89
111.2329,249.9
111.2424,98.6
111.2876,491.6
111.3194,112.6
111.3309,227.8
111.3781,517.8
111.3992,634
111.4218,100
111.4473,136.6
111.4489,109.9
111.4555,407.8
111.4876,175.4
111.5705,472.4
111.5743,116.6
111.6224,468.6
111.6553,104.6
111.6817,164
111.7032,305
111.7255,92.8
111.7332,322.4
111.7452,107.7
111.8125,286.2
111.9496,141.6
111.9851,137.3
112.0032,510.8
112.0516,96.1
112.0767,108.3
112.0995,396.5
112.1083,174
112.1556,512.4
112.1856,290.1
112.2226,497.6
112.2618,431.4
112.2842,20.3
112.3049,77
112.3314,119.1
112.3613,129.2
112.3645,18.6
112.367,471.3
112.385,282.3
112.4053,197.7
112.4169,116.9
112.4207,154.8
112.4681,128.2
112.47,457
112.5293,152
112.5691,146
112.586,138
112.6133,131.7
112.8014,448
112.8724,105.7
112.8756,19.1
112.8956,512910.1
112.9314,228.1
112.948,338.5
113.0029,581.3
113.0095,197.1
113.0193,331.3
113.0447,166.5
113.1073,142.3
113.1226,116.6
113.1333,614.2
113.1471,417
113.1649,17.2
113.2372,330.6
113.256,20.3
113.2902,16.8
113.3176,442.8
113.3451,1037
113.4161,375.2
113.4192,17.1
113.4224,143.8
113.4307,109.4
113.4324,600.3
113.5121,150.3
113.547,102.7
113.5616,277.2
113.5627,18.9
113.5913,412.8
113.5998,172.5
113.6607,381.4
113.6993,116.6
113.7007,181.6
113.7589,383.2
113.7689,211.8
113.8228,103.2
113.8345,135.8
113.8558,521.2
113.9024,94.8
113.9452,427
113.9636,20.9
113.9837,397
113.9899,332
113.9918,104.3
114.0549,55143.6
114.061,17.7
114.0661,180.8
114.0912,22.2
114.1517,249.9
114.1628,106.8
114.1827,374.9
114.1979,19.1
114.2028,80.4
114.2081,106.7
114.2242,20.3
114.271,230.1
114.2757,440.3
114.2942,295.3
114.3059,131.8
114.3213,17.5
114.3366,120.6
114.3901,111.1
114.4328,252.2
114.4454,179.7
114.4624,22.3
114.5022,92
114.5077,508.4
114.5204,106.5
114.5247,18
114.5395,320.6
114.5419,257.4
114.6486,70.4
114.659,293
114.6618,18.9
114.6646,126
114.6911,200.8
114.698,319.6
114.7013,186.4
114.7748,195.9
114.8362,78.9
114.8393,101.1
114.8633,18
114.8908,17.5
114.8927,166841.2
114.931,437
114.9481,641.1
114.9662,78.5
114.9676,125.6
114.9854,621.8
115.0002,19.5
115.0314,348.6
115.0388,101.9
115.057,240
115.0583,890
115.0866,360.7
115.1444,160.5
115.1528,471.3
115.1614,200.8
115.188,581.3
115.2166,97.1
115.2184,292.2
115.2229,80.7
115.2307,96.4
115.2795,175.2
115.2944,89.3
115.2965,129.2
115.3196,112.6
115.339,105.6
115.3504,510.8
115.4739,260.9
115.5747,286.5
115.5845,202.5
115.5876,17.7
115.6237,159.2
115.6267,409.8
115.6489,416.3
115.7125,466.5
115.7264,493.5
115.7621,20
115.7882,124
115.828,237.5
115.8545,323.9
115.8594,131.2
115.8685,104.8
115.8786,312.1
115.9239,154.3
115.9605,480.7
115.9793,711
116.0022,20.6
116.0163,86.9
116.0557,17.5
116.0675,80.1
116.0705,3403.3
116.0929,126.8
116.1044,111
116.1062,89.4
116.1264,121
116.1407,181.7
116.1697,266.4
116.1712,454
116.1889,448.9
116.2354,534.1
116.2726,124.1
116.3246,167
116.3321,202.5
116.3456,245.3
116.3743,319.3
116.4638,177.8
116.5077,178.7
116.5917,432.5
116.6098,365.2
116.6311,79.2
116.6533,132.6
116.7478,188.2
116.7493,94.4
116.7823,68.7
116.8041,283.1
116.8399,521.8
116.8908,16353
116.9039,143
116.9278,146.4
116.9633,205.3
116.9765,433.7
116.9825,90.1
116.9842,60.3
116.9859,1806.1
117.0353,268.6
117.0698,43.7
117.1026,90.9
117.1559,117.1
117.1732,20.5
117.183,329.4
117.233,121.5
117.4099,256.9
117.4338,570.7
117.4796,409.4
117.5434,168.2
117.5717,315.9
117.5906,276.2
117.5946,638.5
117.6031,738.3
117.6571,125.6
117.7058,755.1
117.7625,564.8
117.7634,279.3
117.7652,16.8
117.7658,16.9
117.7846,165.3
117.7959,606
117.8038,113
117.8149,578.2
117.8291,115.8
117.8326,205.3
117.8395,489.2
117.8439,115.4
117.8984,100.4
117.913,389.5
117.9404,312
117.9456,37.3
117.9886,431.3
118.007,131.7
118.0335,173.5
118.0402,20.2
118.0986,142.4
118.1371,82.5
118.1426,21.3
118.1531,440.6
118.157,20.2
118.1894,18.7
118.2334,19.3
118.2361,326.9
118.2367,404.4
118.2371,338.7
118.2617,137.3
118.2743,537.6
118.2876,150.1
118.2891,154.3
118.2923,76.8
118.3587,123.8
118.3691,545.6
118.4326,20.4
118.4395,168.2
118.4442,81.9
118.4668,386.8
118.4901,138
118.509,154.8
118.5424,161.6
118.5836,16.9
118.5901,179.8
118.6378,114.2
118.6391,18.4
118.6651,403
118.6839,324.2
118.6859,122.9
118.7418,473.5
118.7449,276.2
118.755,88.5
118.8339,144.5
118.855,509.8
118.8647,93.6
118.8913,20.1
118.8997,359.5
118.9142,179.5
118.9426,940
118.9639,17.4
118.9789,1039
118.9896,18.3
119.0021,114.1
119.0189,29.4
119.0467,151
119.0892,729.9
119.1106,125.6
119.1364,451.2
119.1783,755.4
119.2772,20.1
119.4485,609.1
119.5074,266.2
119.5132,80.4
119.6206,23.7
119.6504,233.6
119.6707,105.1
119.8489,154.4
119.8583,500.5
119.8836,89.6
119.8872,310.6
119.8921,199.5
119.9138,271.1
119.9383,76.4
119.9643,126.9
120.0032,9405.8
120.0367,107.9
120.0388,428.6
120.0654,401.9
120.0807,14993
120.1309,103.2
120.1346,479.5
120.1625,100.2
120.1672,419.6
120.2651,609.6
120.2823,23.2
120.5013,473.8
120.5496,108.5
120.5611,117.1
120.5647,100.3
120.5766,112.5
120.5926,605.4
120.5962,18.9
120.6088,492.6
120.6412,130.9
120.6848,108.8
120.6865,660.9
120.8188,22.3
120.8739,681.4
120.879,328.9
120.8817,140.3
120.9794,114.3
120.9808,151.2
121.0076,267.4
121.0283,511.6
121.0396,27.2
121.0621,178.5
121.0841,548.9
121.1011,170.1
121.1369,109.4
121.1558,102.6
121.1872,264.7
121.207,73.4
121.3055,303.7
121.326,391.6
121.3548,481.4
121.4303,151.2
121.4442,18
121.4644,404.4
121.4985,86
121.4998,216.8
121.5012,376.2
121.5056,485.4
121.5441,18.1
121.5672,92.1
121.5869,18.4
121.6094,154.7
121.6191,278.5
121.6607,116.9
121.7088,479.7
121.7457,408
121.7488,134.6
121.7837,122
121.8347,371.3
121.9142,110.6
121.9154,475.4
121.9311,112.3
121.9509,543.6
121.961,444.2
122.0635,579.1
122.0731,167.4
122.1013,510.5
122.1121,17.6
122.12,16.4
122.129,593.2
122.1633,297
122.1809,85.8
122.2051,94.2
122.2392,117.9
122.2553,261.1
122.2578,155.9
122.28,21.5
122.285,803.4
122.3463,102.8
122.3678,17.1
122.3897,124.1
122.3972,18.6
122.406,26.2
122.4903,119.2
122.516,639.5
122.555,440.9
122.5848,151.4
122.6303,18.6
122.6499,596.5
122.7131,122.8
122.7475,202.7
122.7665,205.7
122.8026,152.3
122.8155,252.4
122.8174,79.7
122.8528,300.1
122.8564,356.2
122.9245,29177.7
122.9295,43.6
122.9308,178.2
122.9739,306.6
122.9752,296.5
122.985,207.5
122.9868,144.2
123.0575,207.2
123.0804,43.9
123.0987,131.6
123.1207,85.9
123.1222,219.8
123.141,293.5
123.1914,126.7
123.2152,171.2
123.2389,287.4
123.3004,202.6
123.3251,633.4
123.3511,428.1
123.3537,16.6
123.4484,271.8
123.4523,641.3
123.464,303.1
123.4785,158.7
123.4884,111
123.498,573.4
123.5047,164.3
123.5741,524
123.5751,16.3
123.5984,19.3
123.7414,152.7
123.8256,201.1
123.8546,176.9
123.8577,473
123.8691,414.8
123.8706,282.3
123.8811,670.5
123.8873,168.6
123.8929,120.7
123.9006,232.6
123.9144,18.6
123.9419,450.2
123.9693,22.1
123.9837,77.4
123.9946,18
124.0349,177.7
124.0354,178.6
124.1149,141.5
124.2239,128.6
124.2458,449
124.2576,475.3
124.3764,145.8
124.5365,184.3
124.5423,154.7
124.5536,104
124.5641,90
124.5718,461
124.5847,78.3
124.6084,165.4
124.6096,172
124.6431,91.2
124.6488,156.3
124.6858,302.4
124.7326,454.5
124.7615,17.1
124.7995,331.5
124.86,90.7
124.8766,201.2
124.9225,1611.5
124.9755,372.9
124.9863,293.2
124.9998,5848.7
125.0055,1084.9
125.0247,173.5
125.0389,168.3
125.0597,34.3
125.0627,465.3
125.0855,18.9
125.105,81.8
125.1118,123.7
125.152,300.6
125.1749,586.2
125.1935,109.1
125.2269,190.7
125.2651,301.3
125.2779,112.1
125.3391,424.9
125.3451,90.2
125.356,114.4
125.3612,84.8
125.3697,474.3
125.453,223.7
125.4616,18
125.4671,193.4
125.5211,258.5
125.5385,329
125.5518,165.6
125.6379,445.2
125.6548,17.7
125.7047,465.9
125.7248,705.5
125.7355,581.8
125.7539,21.3
125.7555,395.3
125.7774,532
125.7841,311.6
125.7906,309.9
125.8053,441.8
125.826,146.2
125.8363,179.6
125.8641,146.8
125.8791,213.1
125.9746,17.7
125.9808,778.5
125.9845,19.3
126,208.9
126.0034,592.7
126.0089,30.7
126.0346,380.6
126.0735,69.6
126.0912,429.5
126.1418,132.3
126.1783,113.9
126.2394,461.9
126.2777,104.1
126.2841,264.5
126.4405,19
126.4801,159.8
126.5331,118.8
126.5867,646.6
126.624,237.6
126.637,100.5
126.6428,358.8
126.6588,111.3
126.6774,262.6
126.686,389.2
126.7149,321.7
126.7474,169.4
126.7849,283
126.8118,288.4
126.854,334.9
126.8552,88.9
126.8706,23.6
126.924,577.3
126.9907,449.2
127.0078,17.5
127.0115,399.7
127.0359,97.4
127.0478,357.4
127.057,784.9
127.0603,163.9
127.0626,183.7
127.0927,97.3
127.1028,636.6
127.17,243.9
127.3037,94.6
127.3164,940.1
127.3184,71.9
127.3844,315.3
127.453,274.9
127.4693,336.6
127.5266,524.6
127.5394,82.8
127.6052,541.5
127.6135,664.2
127.6313,20.6
127.7001,271.1
127.7524,99
127.8286,451.1
127.8878,23.9
127.9248,231.9
127.9591,560.6
127.9741,71.8
127.9792,21.6
128.0157,59.2
128.0396,185.4
128.0451,80.4
128.1072,23.4
128.121,76
128.2193,138.3
128.2679,533.2
128.275,81.8
128.3191,531.9
128.3257,365.3
128.4629,100.2
128.494,89.2
128.528,89.1
128.5377,155.3
128.5499,133.8
128.6164,138.4
128.6476,186.1
128.6627,182.8
128.6808,249.5
128.6939,279.2
128.7509,218.5
128.7654,403.8
128.8528,150.8
128.8541,175.4
128.9384,690.4
128.9407,193.4
128.9453,93
128.9638,342.2
128.9874,153.7
129.0033,722.2
129.0139,175.9
129.0246,79.7
129.0414,27.6
129.0501,139.3
129.0659,540
129.0712,472.5
129.0831,75.4
129.1021,1433.2
129.157,332.2
129.2156,173.6
129.2171,466.1
129.2245,104
129.2767,515.3
129.3352,198
129.3444,269.4
129.3558,425.3
129.3618,547.6
129.3635,19.5
129.3652,538.1
129.3972,150.8
129.4058,288.5
129.4787,18.5
129.537,329.3
129.57,169.2
129.5888,143.6
129.6367,153.1
129.6621,18.7
129.6854,131.3
129.7027,149.2
129.7152,302.2
129.7406,497.1
129.7784,533.8
129.7799,18.5
129.782,695
129.7953,518.9
129.8165,203.2
129.8475,301.5
129.932,84
129.9586,253.7
129.9756,100
129.98,24.4
129.995,153.1
130.013,298.6
130.0252,453.3
130.0498,7611.4
130.067,117.9
130.0991,110.1
130.1546,582.6
130.163,116.9
130.1694,172.6
130.1742,674.8
130.1946,21.4
130.2117,601.7
130.2472,203.2
130.3448,321.2
130.4135,277.1
130.4276,176.7
130.4897,479.3
130.4959,438.6
130.5592,473
130.5667,279.7
130.5796,560.6
130.581,611.4
130.6353,596.7
130.6524,16.8
130.6878,325.3
130.7785,127
130.8236,78.4
130.8465,445.7
130.8561,320.2
130.917,170.4
130.93,355
130.979,68.3
131.0002,158.8
131.008,21
131.0175,622.8
131.0393,85.9
131.055,397.8
131.0646,353.8
131.0866,18.1
131.0915,122.1
131.1409,18.2
131.1787,114
131.186,816.1
131.2012,17.6
131.3043,115.2
131.3081,163.8
131.3157,267.9
131.3214,146.1
131.3275,21.1
131.3289,293
131.3472,106.4
131.3557,606.7
131.417,622.1
131.4203,87.8
131.4702,93.2
131.5688,145.1
131.6369,325.8
131.663,17.7
131.6933,19.8
131.7194,19
131.789,332.1
131.8241,425.5
131.8313,124.3
131.8453,19.7
131.8604,21.2
131.9524,352
131.9613,20.2
131.9636,527.6
131.9679,339.7
131.9969,231.2
132.0032,31577
132.0152,93.2
132.0594,102.6
132.0655,90003.5
132.0765,478
132.0898,204.1
132.1414,85.3
132.1445,279.9
132.1493,130.3
132.2164,503.1
132.2395,417.4
132.2549,250.9
132.2895,84.6
132.2963,90
132.3456,224.4
132.4071,174.1
132.4093,20.6
132.43,306.9
132.4353,122.3
132.4919,17.5
132.5233,458.7
132.5357,111.2
132.5555,488.3
132.5634,430.5
132.5792,108.2
132.5816,18.7
132.5867,118.4
132.6352,102.5
132.7112,80.5
132.7646,125.3
132.7752,137.7
132.8745,19.6
132.9275,219
132.9433,377
132.9582,1155.8
132.9695,58.8
132.9872,4811.7
132.9956,41.5
133.0527,454.8
133.0621,163.9
133.0689,2192.3
133.0719,588.4
133.0971,21038.1
133.1011,285.3
133.1127,24.2
133.1353,197.8
133.1677,202.2
133.2154,114.1
133.2998,18.7
133.3025,458.1
133.3255,108.8
133.3398,403
133.3594,287.5
133.403,82.5
133.4095,421.7
133.5038,297.5
133.5346,428.1
133.545,534.6
133.5492,176.7
133.582,116.5
133.6175,98.8
133.6316,123.5
133.6356,119.7
133.646,179.7
133.6558,76.3
133.7054,285.8
133.7139,90.9
133.7407,478.7
133.7707,313.6
133.776,179.6
133.8377,392.5
133.8554,19.8
133.8592,363.9
133.8635,306.2
133.8658,359.8
133.8868,20
133.9073,352.5
133.9287,262.8
133.965,85.2
133.9812,31.3
133.9884,155.2
134.0022,18.2
134.0188,16367.9
134.0265,111.6
134.0768,249.5
134.1544,337.9
134.1955,84
134.211,667.6
134.2821,300.7
134.3047,99.7
134.3179,128.8
134.3192,87
134.4311,228.3
134.4458,374.8
134.4618,206.4
134.4632,94.4
134.4696,99.1
134.4902,17.1
134.5002,124.1
134.5094,75.1
134.5736,94.7
134.676,118
134.7646,314.7
134.7892,340.1
134.7929,555.9
134.8178,29.3
134.8213,160.7
134.8635,235.7
134.8757,168.4
134.934,107.1
134.9458,154.8
134.9739,120.5
134.9815,91.2
134.9892,211.9
134.9965,30.9
135.0028,110626.1
135.1172,223.2
135.1226,181
135.134,315.9
135.1802,232.4
135.201,398.3
135.2476,20.2
135.3105,70.1
135.3114,64.9
135.3571,454.9
135.4273,139.9
135.4389,131.4
135.4473,135.9
135.4683,128.3
135.4979,164.2
135.5392,551.1
135.5712,118.3
135.6346,658.3
135.6406,17.7
135.6446,105.4
135.764,213.1
135.7868,78.7
135.7961,113.4
135.8155,328.2
135.8264,231.5
135.8454,207.7
135.8766,19.5
135.8835,143.5
135.8962,548.1
135.9023,239.7
135.9126,110.6
135.9771,7106.2
135.9909,17.2
136.0063,1330.1
136.0482,7975.8
136.0757,10406.1
136.1024,223.1
136.1279,106.3
136.1722,126.1
136.2244,15.4
136.2481,415.1
136.2738,82.4
136.4043,782.9
136.4122,156.9
136.4193,389.5
136.4345,237.2
136.4814,172.7
136.5087,331
136.5446,154.9
136.5821,126.1
136.6201,123.7
136.6591,438.7
136.6884,20
136.7079,538.9
136.7317,106.2
136.7531,179.2
136.8119,455.3
136.8599,526.6
136.8673,160.3
136.8845,98.3
136.8947,468.4
136.9129,109.2
136.9532,244
136.9698,309.4
136.9895,133.3
136.9932,120.1
137.0458,114.5
137.0792,322.1
137.143,494.7
137.1496,113.6
137.1802,156.3
137.1923,219.8
137.2287,93.8
137.2298,106.1
137.2346,99.4
137.2387,112.5
137.2919,265.9
137.2971,533.2
137.3325,125.8
137.3551,20.4
137.4848,184
137.4862,401.9
137.5039,278.4
137.6285,271.1
137.6376,489
137.6541,128.9
137.6608,310.4
137.7246,17.4
137.7758,89.5
137.8061,479
137.8495,179.8
137.8526,91.1
137.8626,138.2
137.9772,23
138.0526,4846.7
138.0661,51.7
138.1033,114.6
138.1526,65.1
138.1543,129.5
138.1645,145
138.1684,164.4
138.1774,183.1
138.1779,211.8
138.1786,203.2
138.1816,424.9
138.187,123.7
138.2238,372.3
138.2502,22.2
138.2513,192
138.2559,173.2
138.2693,321.1
138.3214,119.5
138.3551,97.3
138.4184,272
138.4335,186.8
138.4862,421.4
138.5255,116.9
138.5732,296.2
138.6087,185.5
138.6497,103.4
138.7335,22.4
138.763,259
138.8077,440.5
138.8688,477.3
138.8801,84.5
138.8891,230.5
138.9065,2589.2
138.9304,140.4
138.9755,371.8
139.0086,22.1
139.1155,90.5
139.1296,462.7
139.1859,97.9
139.1885,113.2
139.192,266
139.2131,21.3
139.2182,16.9
139.2974,167.3
139.3664,245.7
139.426,219.9
139.4444,82.3
139.4549,92.3
139.4854,160.3
139.6066,112.5
139.6951,340.5
139.6955,340.4
139.7025,112
139.7163,19.8
139.7761,292.4
139.7931,182.5
139.7954,161
139.8017,346.8
139.8591,88.6
139.8646,110.3
139.8903,21
139.9017,230.8
140.0019,185.8
140.0165,5433.6
140.0185,79
140.0339,151.3
140.0682,2106.1
140.1867,265.4
140.1911,170.3
140.2323,130.2
140.2549,175.4
140.2561,155.7
140.2723,494.5
140.3552,231
140.4202,19.9
140.4758,176.6
140.5341,103.2
140.5434,438.2
140.566,134
140.6459,309.6
140.6848,249.8
140.6961,300.6
140.7644,182.6
140.7808,128.4
140.7913,468.8
140.8516,123.4
140.8724,136.9
140.8974,18.2
140.9035,2298.5
140.9054,422.1
140.9153,176.3
140.9621,358.6
140.9842,18.4
141.0005,17031.5
141.02,374.6
141.0355,177.2
141.0482,305.9
141.0771,320.9
141.0811,159.8
141.0915,177.9
141.108,81.7
141.1911,194.9
141.21,334.2
141.2494,467
141.2546,448.8
141.2625,18.8
141.2775,19.1
141.2865,1187.8
141.4036,110.6
141.4164,565.9
141.4248,307.4
141.4888,154.5
141.5245,95.9
141.5652,325.2
141.6492,108.8
141.6787,161.1
141.6864,89.8
141.7211,521.2
141.7452,151.8
141.7482,213.2
141.794,149.8
141.8492,170.1
141.8972,446.7
141.915,160.5
141.9253,282.2
141.9506,207.5
141.995,319.3
142.0038,393.5
142.0132,128.7
142.0438,198.7
142.0446,201.5
142.0473,476.2
142.0739,25.8
142.0999,119.9
142.1126,19.9
142.1445,309.6
142.1631,152.4
142.1665,525.1
142.1728,128.3
142.2111,182.3
142.2574,414.9
142.318,80
142.3246,320.8
142.3685,239.4
142.3809,171.7
142.4425,101.3
142.4662,603.2
142.5206,180.5
142.528,247.5
142.5443,84.6
142.5466,131.4
142.61,108.5
142.6417,20.4
142.8094,292.5
142.816,74
142.8507,147.1
142.8541,190.8
142.8983,412.1
142.9175,17.6
142.9276,317.6
142.9485,502.8
142.9963,307.1
143.014,140.8
143.0188,543.6
143.0493,170.2
143.0726,218.7
143.0784,284.9
143.0816,193.1
143.1433,273
143.2127,430.4
143.2149,339
143.3159,621.7
143.3875,97.1
143.4008,323.4
143.4439,222.9
143.5053,189.7
143.5114,18.8
143.5276,135.7
143.5524,275.2
143.5832,131.2
143.626,89.3
143.6768,306.8
143.682,99
143.7756,175.7
143.8716,469.1
143.9174,410.6
143.9345,171.8
143.9825,255.8
143.9923,18.7
144.0107,1065
144.0199,427.3
144.0639,550.3
144.1181,317.6
144.2246,114.3
144.2502,351.4
144.2555,18.2
144.2787,328.9
144.2856,79.3
144.3353,416.7
144.3505,271.4
144.3708,124.7
144.3842,359.6
144.444,80.4
144.467,434.2
144.4705,18.1
144.4756,276.4
144.5237,259.6
144.548,286.8
144.568,427.6
144.6087,16.8
144.6145,132.7
144.6199,206.7
144.6393,16.8
144.643,681.9
144.66,342.2
144.6605,385.4
144.6611,299.1
144.711,136
144.7232,167.1
144.7696,92.4
144.8437,94.4
144.8737,410.6
144.8772,463.2
144.907,111.4
144.9463,149.9
144.9567,152
144.9808,2102.5
144.9947,52
145.0162,555
145.0191,293
145.0224,88.5
145.0256,145.3
145.0659,424.6
145.0952,459.5
145.1029,480.3
145.1115,235.3
145.1425,247.3
145.1576,116.5
145.2351,373.3
145.25,139.2
145.2861,497
145.3157,271.3
145.3268,417.8
145.3341,525.5
145.3357,22
145.3431,459.7
145.3507,267.9
145.3829,327.5
145.4091,265.9
145.4245,93.7
145.4842,188.8
145.4993,156.5
145.5088,480.6
145.6027,194.5
145.6124,168.3
145.6322,84.5
145.6905,126.8
145.8214,276.8
145.84,101.3
145.9497,164.8
145.9604,69.5
145.9631,509.5
145.9684,19.1
146.0005,647.8
146.0125,4514.9
146.0189,21720.6
146.0264,136.4
146.0554,122.1
146.1591,77.3
146.1774,437.5
146.1798,18.8
146.2045,132.1
146.2586,266.3
146.2647,682.5
146.2926,87.9
146.3529,101.5
146.486,15.7
146.4878,162.9
146.5305,151.6
146.6398,197.4
146.7142,685.6
146.8068,208.1
146.8371,240.6
146.8476,630.3
146.9053,26.4
146.9743,59.4
146.9818,92889.3
146.9963,498
147.0072,111.9
147.0339,133.4
147.0541,575.6
147.0764,49820.9
147.0949,146.3
147.1053,211.3
147.1128,27059
147.1167,151.6
147.1602,428.5
147.1683,245.2
147.2084,168.8
147.2198,92.3
147.2219,482.5
147.2633,362.5
147.2943,326.7
147.3022,386.9
147.3156,108
147.3985,402.7
147.4163,447.4
147.4839,389.7
147.4871,123.2
147.5136,163.9
147.6322,160.5
147.7227,481.4
147.7258,115.4
147.7529,82.9
147.7691,115.5
147.806,123
147.8291,607.9
147.8329,81.5
147.8423,147.2
147.8699,333.1
148.0538,103.8
148.0677,1022.7
148.0797,863.5
148.082,472.5
148.1121,82.6
148.196,452.1
148.2734,98.1
148.291,133.1
148.3178,175.6
148.4172,98.7
148.4816,103.4
148.5166,342
148.5321,2202.8
148.644,750.5
148.6684,103.3
148.7101,463.3
148.7141,484.8
148.7912,17.6
148.8197,82.4
148.8569,189
148.8877,152.4
148.899,674.5
148.9494,252.5
148.9528,163.7
148.9612,3266.8
148.9645,78.1
148.9872,110
148.9887,141.7
149.0143,206.6
149.0185,2279.3
149.0234,4941.2
149.0387,106.5
149.0448,21.9
149.12,150.8
149.1459,615.5
149.2689,81.1
149.2749,18
149.2795,19.5
149.3315,238.3
149.4217,162.8
149.5132,72.9
149.5215,278.2
149.5974,281.8
149.6114,214.5
149.678,109.8
149.7604,550.1
149.7669,300.5
149.8037,115.2
149.819,163.7
149.8422,291.1
149.8479,445.9
149.8645,137.9
149.9516,438.1
149.9872,86.8
149.9928,8950
150.0001,16.3
150.0036,150.3
150.0137,5164.4
150.0225,217.7
150.0268,77.7
150.0945,260.7
150.1754,414.3
150.2325,80.8
150.2759,279.1
150.3131,108.5
150.5471,418.2
150.5738,414.3
150.5962,17.6
150.719,17.8
150.7647,168.3
150.8122,111.6
150.8176,165.7
150.8485,26.4
150.8818,19.8
150.8962,75.3
150.9689,129.9
150.9768,71788.2
150.9841,6718.3
151.017,19.8
151.0215,100.9
151.0251,134.9
151.0478,2444.8
151.0508,17.4
151.0764,102.8
151.107,174.4
151.306,241.4
151.3224,19.4
151.3257,170.7
151.3491,101
151.3741,434.8
151.4192,128.2
151.4845,423.4
151.5061,70
151.5452,445.7
151.5829,213.9
151.6481,116
151.7342,416
151.8792,670.3
151.8814,458.6
151.9456,169.7
151.9512,2290.1
151.9847,81.4
151.9875,244
152.015,388.4
152.0221,10307
152.0318,2932.3
152.0491,80.4
152.0606,79.8
152.1179,123.8
152.1221,119.5
152.1663,109.2
152.2177,287.6
152.233,160.9
152.2754,234
152.4322,377.8
152.4912,338.5
152.536,120.8
152.6086,198.1
152.7384,23.8
152.771,265
152.7748,180.6
152.8835,647.8
152.975,4113
153.0162,272.7
153.0345,85.6
153.044,20.4
153.1142,375.6
153.1189,18.6
153.1318,97.3
153.1866,118.5
153.2825,131.6
153.2883,73.4
153.292,272.7
153.331,19.9
153.3773,135.1
153.4468,469
153.509,150.3
153.5123,322.5
153.5862,217.9
153.6124,75
153.6181,397.6
153.6634,159.2
153.6793,614.2
153.7688,84.4
153.8063,103.5
153.8257,162
153.8945,286.7
153.9011,16.3
153.9503,560.8
153.9521,91.8
153.9769,347.5
154.005,126.4
154.0113,522.8
154.0266,796.8
154.0587,1611.5
154.0746,242.1
154.1516,117.2
154.1694,19.6
154.2118,108.2
154.2137,263.6
154.2838,175.9
154.3055,353.2
154.3115,126
154.3453,261.9
154.3614,19.7
154.4173,629
154.4204,407.8
154.4251,486
154.4535,631.7
154.4668,358.6
154.4731,410.6
154.4893,174.5
154.5582,167.2
154.596,495.5
154.5985,437.9
154.6588,126.6
154.6818,687.7
154.7106,117.1
154.7341,641.6
154.7498,465.8
154.7678,307.4
154.8056,89.8
154.827,231.4
154.8493,18
154.8805,639.4
154.9075,109
154.9417,1595.2
154.9665,165.6
154.9693,1419
155.0098,560.9
155.0428,1540.5
155.0462,408.5
155.0493,226.1
155.054,3789
155.1068,484.1
155.2128,286.3
155.3274,20.1
155.3437,18
155.4086,708.4
155.4179,599
155.4822,550.1
155.5004,150
155.5044,147.5
155.5197,127.6
155.5334,420.4
155.5946,19
155.6049,271.5
155.6628,75.7
155.6911,279.1
155.7704,118.6
155.9158,73
155.9183,278
155.9717,541.6
155.9816,659.8
155.9834,163.7
156.027,219
156.0336,250.7
156.0422,3147.9
156.0571,19.1
156.0768,40001.8
156.0936,428.2
156.1372,851
156.1627,23
156.2774,27.4
156.4312,86
156.6174,332.3
156.6418,121.5
156.7009,158.5
156.7298,217.5
156.7799,284.2
156.8812,231.6
156.9338,115.4
156.9591,18.2
156.9746,18.4
156.9821,86.9
156.997,119.2
156.9984,371.4
157.0253,133.4
157.0657,336.3
157.0799,184
157.0973,90.7
157.1642,19.8
157.1664,193.5
157.4106,184.4
157.54,306.7
157.6356,114.1
157.7363,199.8
157.7525,118.3
157.7597,253.7
157.8135,288.9
157.9033,439.9
157.9125,302.5
157.9152,232.2
157.9409,266.2
157.9787,164.1
157.9868,205.4
158.013,903.2
158.0271,3734.2
158.089,109.2
158.0994,345.5
158.1207,173.4
158.1513,21.2
158.1528,17.5
158.2006,18
158.2052,478.8
158.2333,316.5
158.2371,222.3
158.2608,231.1
158.2874,125.8
158.3179,309
158.363,711
158.5032,659.6
158.5258,468.9
158.5447,22.3
158.5566,446
158.5615,219.5
158.5707,325.2
158.612,108.4
158.6577,125.6
158.6633,93.4
158.7185,127.4
158.7691,108.7
158.8159,19.5
158.8361,586.8
158.8606,21.2
158.9183,20.9
158.9278,2266
158.9642,11322.7
158.9869,435.4
158.9965,5264.6
159.0021,113.4
159.007,351.9
159.0101,54.5
159.0274,377.2
159.0306,116.7
159.0774,353.1
159.0857,514.4
159.0948,316.7
159.1468,458.7
159.1691,104.1
159.3038,430.8
159.3797,100.9
159.422,283.2
159.4356,104.8
159.4883,121.9
159.6507,17.4
159.6776,119.2
159.6945,19.8
159.7497,120.4
159.7902,29.5
159.9084,148
159.923,510.3
159.9455,476
159.9574,84.6
160.023,92.7
160.0346,16639.3
160.0567,101.1
160.0605,99029.6
160.2133,125.8
160.244,17.7
160.2757,95.5
160.3493,122.2
160.4068,557
160.4154,235.6
160.419,286.8
160.4808,18.3
160.5427,122.1
160.5838,245.9
160.5984,111.7
160.642,241.7
160.7444,18.3
160.9112,509.4
160.9447,268.8
160.9923,196.8
161.0095,296
161.0187,369
161.0319,101.4
161.0382,330.8
161.0533,149.1
161.0639,3675.9
161.0971,169
161.1285,5890.8
161.1328,96.2
161.2413,436.1
161.3448,157.1
161.4666,344.9
161.4813,19.2
161.4987,97.6
161.5231,19.1
161.6143,104.4
161.6433,436.4
161.7089,18.3
161.721,268.6
161.767,225
161.7906,141.6
161.8094,277.2
161.8223,411
161.836,87.2
161.9142,66.1
161.9306,107.5
161.9437,98.8
161.9568,176.1
161.9717,169.7
161.9928,480.2
162.0035,102.3
162.0502,16341.9
162.113,87.4
162.1785,233.7
162.2446,94.7
162.2504,314.9
162.253,791.3
162.3519,447.2
162.4993,255.2
162.5121,17.5
162.5244,119.5
162.5486,17.8
162.5552,416.7
162.5706,247.6
162.5975,250.7
162.7095,21
162.7936,135.3
162.8306,96
162.8706,428
162.8777,305.2
162.9311,167.4
162.9557,3276.2
162.9645,289.1
162.9686,127.6
162.9858,144.2
162.9882,176
163.01,321.4
163.0133,148.3
163.0156,2980.9
163.0342,295.4
163.0606,22
163.1317,85
163.1638,148.5
163.196,90.9
163.2461,318.1
163.2859,476.1
163.3249,165.7
163.3579,19.1
163.4007,517.8
163.506,99.4
163.6253,79.7
163.6365,117.3
163.6441,343.6
163.6478,19.3
163.6577,120.6
163.7285,97.4
163.7618,157.5
163.7699,255.1
163.775,469.1
163.9186,290.5
163.9248,99.1
163.9282,97.6
163.9997,35.1
164.0102,616.9
164.0233,322.7
164.0295,15766.6
164.0424,169.6
164.0676,290.8
164.0715,89.3
164.1243,303.7
164.1417,317.9
164.1562,295.3
164.1914,85.1
164.2149,152
164.2214,19.7
164.3033,258.3
164.3384,342.1
164.3692,509.2
164.4513,168.4
164.5648,112.4
164.6326,104.9
164.6446,121.4
164.679,362.3
164.7114,179.9
164.7454,766.6
164.9162,20.7
164.9206,5183.6
164.9301,16685.9
164.9352,3130.8
164.9804,330.4
164.9848,83.6
164.9926,1335.6
164.9957,27.6
164.9998,630.2
165.0731,318.8
165.0876,709.2
165.0912,109.1
165.117,552.3
165.1227,102.8
165.2389,156.7
165.4338,165.3
165.44,393.9
165.5414,202
165.5968,24.9
165.6704,77.6
165.8023,251.9
165.8798,196.4
165.8922,20.2
165.943,145.2
165.9447,521
165.9583,543.9
165.9641,123.9
165.9669,2863.4
165.9788,1377.4
165.9878,4879
165.9951,2361.9
166.0176,22.3
166.0264,18.8
166.094,263.5
166.1619,283
166.2506,87.9
166.272,92.2
166.3139,525.5
166.3241,261.6
166.3398,118.1
166.3515,218.5
166.3538,129.6
166.3641,259.3
166.3778,122.3
166.3876,111.5
166.4313,681.9
166.4349,187.7
166.4547,19
166.5891,120.3
166.687,99.4
166.7409,547.3
166.7497,199.6
166.8225,183.9
166.9509,29141.1
166.9628,595
166.9792,77.4
166.9987,50.8
167.0001,70.2
167.0219,5697.6
167.1205,97.3
167.1418,128
167.2815,187.4
167.3108,417.1
167.3935,128.5
167.4197,100.9
167.4662,122.9
167.6433,178.1
167.7371,350.9
167.7621,345.1
167.8881,137.5
167.913,332.5
167.9542,340.6
167.987,22.2
167.9945,3240.1
168.0058,774.6
168.0379,18.6
168.1612,143.3
168.2078,88.2
168.2111,492
168.2702,163.4
168.358,380.3
168.4127,555.5
168.4153,89.2
168.4235,268.9
168.4539,194.2
168.462,214.1
168.7724,587.2
168.8932,99.7
168.9046,303.1
168.9251,101.7
168.9373,342.5
168.9489,1293.9
168.9584,250.3
168.9617,18
168.9652,129.8
168.9924,252.4
169.0491,73.7
169.0585,50713.2
169.0652,539.2
169.0888,21.3
169.0948,1910.6
169.0973,446
169.104,486.5
169.1587,24.6
169.1787,315.4
169.2062,130.4
169.2436,88.9
169.2574,119.1
169.2769,103.1
169.3534,421.3
169.4059,160
169.4208,219.6
169.431,276.4
169.4479,267
169.5207,19
169.5587,139.4
169.5804,260.9
169.7377,237
169.7472,646.6
169.8372,534.7
169.8651,232.6
169.8694,183.1
169.9315,353
169.9756,300.9
169.9859,3255
169.9935,268
170.025,288.9
170.0295,19.2
170.0327,3088.3
170.0424,94.8
170.0727,250.7
170.0836,18.8
170.0925,2236.3
170.2606,19.6
170.2815,632.1
170.2865,286.4
170.3776,84.6
170.383,490.1
170.3903,302.6
170.4083,318.5
170.5026,184
170.6702,17.2
170.6745,21.2
170.6803,418.9
170.7678,22
170.798,210.2
170.8545,4760.7
170.8573,118
170.9141,497.4
170.9206,213.9
170.9391,317.7
171.0168,1748
171.0217,114.5
171.0244,151.7
171.0281,119.2
171.0532,518.7
171.0943,360.1
171.1232,290.5
171.1496,114.5
171.3229,109
171.3331,431.1
171.3948,447.6
171.4335,107.5
171.4454,118.5
171.4986,653.2
171.5711,370.8
171.5794,111.5
171.7305,19.1
171.7333,109.6
171.7358,275.1
171.783,331.6
171.8449,104
171.8472,807.8
171.9757,172.3
171.9961,255.1
172.0056,26.3
172.0282,2112.8
172.0401,297.7
172.0612,655.3
172.1415,19.7
172.1953,584.1
172.2719,455
172.2967,345.9
172.305,290.9
172.3695,19.2
172.3953,104.7
172.4338,19.8
172.4869,272.3
172.5208,136.6
172.5236,130.3
172.5288,285.1
172.5373,408.8
172.6941,194.8
172.706,248.8
172.7259,156.2
172.734,92.6
172.7399,229.2
172.7596,113.9
172.7704,451.1
172.7999,558.6
172.8514,2419
172.8932,113.1
172.8994,61.5
172.9674,532.5
172.987,183.5
173.0047,117.2
173.0067,138.4
173.0268,307.3
173.0301,399.2
173.0963,184.1
173.1617,18.3
173.1686,157
173.2233,113.5
173.3028,160.1
173.3344,141.6
173.3762,109.6
173.4651,300.4
173.5004,132.2
173.5139,413.4
173.5607,350
173.6259,276.2
173.636,203.2
173.6405,122
173.6551,116.3
173.6959,162.1
173.7135,114.7
173.7419,70
173.7782,123.5
173.8318,17.9
173.8488,114.9
173.8699,82.8
173.8812,542.9
173.8872,394.5
173.9317,104.5
173.9377,212.1
173.9405,109.9
173.9777,88.5
174.0001,21.6
174.1068,178.9
174.1692,103.1
174.2793,81.1
174.3637,117.6
174.3706,259
174.4345,319.3
174.4828,79.7
174.6942,268.6
174.7576,179.2
174.7652,257.9
174.8472,256.7
174.86,71
174.9002,233.3
174.9243,153.7
174.9275,18
174.9327,19.7
174.9381,6000.6
174.9471,76.8
174.9589,106.1
174.9689,875.5
175.001,519
175.0089,25.2
175.0219,154
175.0342,3722.7
175.0412,97.9
175.0456,4607.5
175.0575,491.7
175.094,114.4
175.112,18.7
175.1191,65581.8
175.1637,612.1
175.1892,405.9
175.1922,265.2
175.2111,547.3
175.2157,174.3
175.2269,510.4
175.2408,178.6
175.2482,245.2
175.2662,65.3
175.2753,19.5
175.3579,91.2
175.3709,137
175.4141,130.6
175.437,187.4
175.4847,112.2
175.4964,18.7
175.6986,116.8
175.7263,140.6
175.7623,160.5
175.838,126.1
175.9046,133.4
175.9204,17.1
175.9724,309.8
175.991,165.7
176.0008,87.1
176.0086,7226.9
176.0163,30.5
176.066,23505
176.0762,109.8
176.1031,1295.5
176.1117,291.5
176.1226,685.3
176.1508,109.5
176.1599,111.2
176.1757,23.5
176.1864,112
176.2028,296.3
176.2195,197
176.3039,104.5
176.3267,337.6
176.4852,18
176.4884,100.1
176.5388,90.6
176.5455,119.7
176.5565,108.4
176.5617,323.4
176.5801,225.8
176.5858,19.2
176.6429,325.2
176.6544,124.5
176.6876,475
176.6986,104.3
176.7473,155.2
176.7959,536.8
176.8502,99
176.8939,316
176.9216,304.4
176.9285,128.1
176.969,127.6
176.9925,1070.9
176.9952,21
177.0083,21.2
177.0249,7216.5
177.0612,10749.7
177.0873,417
177.1066,297.1
177.1716,18.2
177.284,116.5
177.2914,19.4
177.3039,108.1
177.4053,142.3
177.4455,552.3
177.5607,117.8
177.5688,20.8
177.5746,100.9
177.6393,329.2
177.7154,243.4
177.718,538
177.735,621.1
177.7476,469.9
177.7549,487.9
177.8809,207.4
177.9713,179.9
177.9909,24.8
177.9951,40.7
178.0089,10409.1
178.0161,27.6
178.0242,8714.1
178.0588,3304.8
178.124,116.1
178.1571,858.2
178.1991,485.3
178.2299,418.2
178.2403,293.4
178.2807,114.8
178.364,274.1
178.3706,125.6
178.4223,299.6
178.429,20.2
178.4352,99.8
178.5634,114.1
178.686,451.9
178.7459,244.3
178.813,171.3
178.8463,19.1
178.8931,56.1
178.922,86.3
178.9519,333.2
178.957,339.3
178.9641,252.4
179.0002,19.4
179.0029,173.3
179.006,176.3
179.0153,20.4
179.1148,174.9
179.1179,376.1
179.1877,587.3
179.2143,289.7
179.2184,298
179.3951,21.5
179.4498,82.3
179.4752,92.3
179.5323,123.8
179.5356,314.8
179.5659,347.3
179.5724,415.2
179.5923,87.5
179.5973,116.9
179.743,299.5
179.8109,201.5
179.8199,475.2
179.8805,31.1
179.8911,22.6
179.904,273.9
180.0035,12535.8
180.006,23.3
180.0108,147.9
180.0645,17.2
180.0965,81.9
180.155,191.8
180.1888,141.9
180.2134,301.7
180.2935,621.5
180.3519,127.1
180.3566,132.7
180.3821,86.8
180.4603,151.6
180.4812,19.6
180.4988,276.2
180.5542,123.1
180.6278,78.4
180.6321,623.8
180.6967,278.8
180.7564,18.4
180.8188,79.7
180.8883,1140.1
180.8948,3373.6
180.9041,10251.1
180.9533,290.2
180.9574,2720.8
180.9769,173.3
180.9797,182.3
181.0165,626.3
181.0266,1010.4
181.0309,358
181.0492,21.6
181.0583,274.3
181.0649,9466.7
181.1045,22.8
181.1286,261.8
181.1902,276.7
181.196,127.7
181.2384,213.8
181.3553,125.3
181.4636,17.8
181.4806,112.9
181.4906,152.5
181.4949,20.1
181.5648,17
181.6085,338.5
181.7439,122.1
181.7762,75.7
181.8461,396.3
181.8887,30.1
181.9067,788.4
181.9512,129.3
181.9622,558
182.0112,27.5
182.0426,32887.4
182.2203,567.5
182.2536,86.2
182.3731,109.4
182.4642,457.4
182.5012,22.8
182.5121,244.5
182.5947,174.3
182.7155,119
182.7338,104.5
182.7416,508.8
182.8662,277.3
182.8836,40.8
182.8863,113.5
182.9026,23.8
182.9069,382.5
182.9153,500.3
182.9195,393.4
182.9414,23.5
182.9531,48.3
182.9663,106.4
182.9831,570.6
183.009,162.4
183.0141,407.9
183.0444,1984.7
183.0856,408.9
183.0931,262.5
183.1332,118.2
183.1796,441.9
183.2886,19.8
183.3388,114.3
183.473,305
183.4933,348.6
183.6353,18.3
183.6997,414.4
183.7968,168.8
183.8141,335.8
183.9057,17.8
183.9188,96.1
183.9223,307
183.9412,290.8
183.9558,591.6
183.9649,178.4
183.9959,20.1
184.0126,92.6
184.0132,93.5
184.0245,84.9
184.0302,92.2
184.0374,226.2
184.0552,103.7
184.0661,706.4
184.0735,3674905.8
184.0773,6253.1
184.0826,355.3
184.1072,161.3
184.1097,1283
184.1496,195.8
184.1699,44.7
184.1822,1221.4
184.1995,456.5
184.2115,286.8
184.2233,288.7
184.2754,271.9
184.2793,290.3
184.3145,221.5
184.4406,279.1
184.5602,206.1
184.5678,316.3
184.7047,83
184.7207,434
184.7559,382.1
184.8115,90.3
184.858,22.5
184.8672,371.4
184.9074,193
184.93,30.6
185.0228,137.2
185.0324,63352.9
185.0526,17.1
185.0704,7448.1
185.0768,168283.3
185.0796,2136.2
185.0874,74.1
185.1389,427.5
185.1653,111.2
185.171,168.3
185.246,482.5
185.3353,122.6
185.3637,129.6
185.3839,100.8
185.4635,86.2
185.4692,17.8
185.4951,115.7
185.5076,958.7
185.6968,273.9
185.8195,228.4
185.8213,78.3
185.8376,512
185.8705,324.3
185.9599,1526.2
186.0319,458.5
186.0357,935.4
186.0384,287
186.0619,222.1
186.0777,20314.5
186.156,288.8
186.2253,179
186.2904,450.7
186.2977,211.2
186.3921,102
186.3993,17.1
186.4863,87.3
186.6194,152.5
186.65,155.3
186.7006,104.9
186.7113,512.2
186.7203,467.1
186.8288,321.4
186.8551,20.3
186.8783,86.2
186.9122,4566.9
186.9389,349.2
186.9569,426
186.9672,23.5
186.9749,19.6
187.0306,1385.5
187.0579,3544.3
187.0715,1584.2
187.0892,107.8
187.1021,305.2
187.108,5508.3
187.1179,83.4
187.205,114.5
187.2137,590
187.251,21.2
187.2632,369.8
187.2783,552.3
187.3663,159.9
187.4128,105.7
187.4396,458.1
187.4492,104.8
187.5324,300
187.5586,437.2
187.5916,106.6
187.6009,194.3
187.6338,157.6
187.6687,358.9
187.7642,162.7
187.7669,637.8
187.8862,26.7
187.8886,18.8
187.9195,132.8
187.9303,655
188.0113,91.2
188.0279,22.7
188.0324,19.2
188.1415,530.9
188.1707,740.6
188.201,169.3
188.2341,185.8
188.261,132.2
188.2638,294.9
188.296,95.1
188.411,331.1
188.4492,135.6
188.4623,83.5
188.5274,460.8
188.5814,498
188.6032,597.7
188.6231,89.2
188.7131,21.1
188.7717,510.8
188.8361,92
188.8434,18.5
188.8775,46.4
188.9059,85
188.9083,109.7
188.9246,21.6
188.9482,18.8
189.0005,467.1
189.0206,257.3
189.0339,221.3
189.0612,3419.5
189.0872,8803.2
189.1193,131
189.153,500.4
189.1689,155.8
189.1778,553.3
189.1877,20.4
189.1991,161.2
189.221,441.5
189.315,174.8
189.3396,423.6
189.4221,17.7
189.6627,407.6
189.6848,418.9
189.6951,99
189.72,193
189.7309,191.3
189.8762,21.5
189.9154,196.3
189.9276,154.9
189.9654,110.1
189.9704,200.5
190.0147,18.3
190.0642,117.7
190.1221,362.8
190.1739,333
190.1777,106.7
190.2533,96.4
190.2663,20
190.3168,17.8
190.3476,485.5
190.43,83.5
190.4367,173.9
190.4626,17.1
190.469,587.6
190.4761,96.1
190.5621,129.5
190.6031,18.4
190.622,231.8
190.7117,141.5
190.7645,440.3
190.7833,301.7
190.8727,921.6
190.9122,1918.1
190.9287,301.4
190.9965,721.9
191.0004,123
191.0083,3875.5
191.0241,25.3
191.0349,19.1
191.0405,145245.8
191.0769,24773
191.1704,20
191.1802,462.7
191.2155,207.2
191.2794,125.7
191.2901,851.3
191.4379,387.3
191.4436,21.3
191.668,147
191.6965,146.1
191.7373,207.2
191.8806,26.2
191.8888,183
191.9826,1105.7
191.9964,248.4
192.0111,20.3
192.04,14565.2
192.0438,3537.2
192.1878,18.9
192.2031,93.9
192.2242,95.6
192.261,73.3
192.3068,176.3
192.3617,120.4
192.4076,119.3
192.4806,425.9
192.572,18
192.5966,18.9
192.613,585.6
192.7058,291.6
192.7584,103.7
192.7988,210.7
192.8316,436.3
192.8452,127.9
192.911,67.4
192.9617,588
192.9689,251
192.98,474.1
192.9988,6576.8
193.016,227.2
193.0228,24.9
193.0352,5797.8
193.1081,184.7
193.1447,105
193.1887,552.2
193.2114,221.3
193.2595,125.8
193.3022,334.6
193.3291,158.4
193.4003,496.2
193.4099,88.8
193.4384,682.2
193.4453,534.1
193.6824,299.9
193.7848,99.7
193.8106,126.7
193.8312,544.9
193.8964,21.5
193.9564,365.8
193.9983,1581.2
194.0018,18.8
194.0053,420.5
194.0103,1748.6
194.033,339.9
194.154,49.7
194.1741,490
194.3403,19.6
194.3428,260.2
194.4276,273.8
194.4635,668.9
194.5347,265.1
194.5644,254.6
194.6889,94.2
194.7106,166.3
194.904,323.9
195.0029,308.1
195.0443,212.3
195.116,19.2
195.169,302.9
195.1774,95.9
195.1952,465.2
195.2488,163.6
195.2731,132.2
195.2749,18.4
195.2869,174.1
195.325,411
195.3487,700.1
195.4411,326.6
195.4531,652.5
195.625,296.2
195.662,465.1
195.7517,266.8
195.7758,750.6
195.795,18.9
195.8494,116.3
195.8545,21.5
195.8608,338
195.8717,167.4
195.9329,346.9
195.9777,1057.2
195.9818,49.1
196.0192,462.7
196.0793,480.5
196.0931,316.1
196.1099,584.8
196.1659,187.7
196.1697,230.2
196.1915,347.1
196.3067,403.1
196.3273,118.5
196.4563,581.3
196.5635,103.5
196.7615,20.4
196.788,17.4
196.8135,167.4
196.8653,7641.9
196.8686,909.8
196.8782,1218.6
196.9326,316.2
196.953,16.1
197.0288,18.8
197.0959,83.8
197.1012,391.7
197.1474,20.9
197.2311,287
197.2721,16
197.2815,356.4
197.2861,231.3
197.294,341.8
197.3007,486.7
197.3222,173.7
197.4374,97.6
197.4893,19.5
197.5171,161.2
197.524,237.7
197.5548,361.7
197.6722,179.2
197.6803,77.1
197.7078,121.7
197.7829,750.2
197.8812,99.6
197.8867,123
197.8913,68.8
197.9435,362.1
197.9743,18.7
198.0074,33.1
198.0537,618.2
198.059,262.2
198.0852,7016.2
198.0896,571.6
198.1446,135.7
198.1855,4994.4
198.3386,139.4
198.3636,138
198.3857,125.6
198.4185,140.4
198.5453,204
198.5855,177.6
198.6916,473.3
198.696,159.5
198.7011,82.8
198.7351,487.3
198.8214,106.3
198.826,179.8
198.8624,6716.4
198.8819,411.3
198.9001,25.5
198.9049,524
198.9386,490.2
198.9508,21.6
198.9735,19.8
199.0167,150.4
199.0293,86.2
199.0389,179.4
199.0756,2859.9
199.0806,34.2
199.0887,983.1
199.1021,661.4
199.1889,231.4
199.195,368.9
199.4463,101.7
199.4699,145.1
199.5021,412.7
199.5091,160.6
199.6054,20.6
199.6549,456.2
199.7635,164.8
199.8025,221.5
199.8153,279.6
199.8928,138.1
199.9717,416.4
199.9783,107.6
199.9909,31557.6
200.0409,16290.4
200.0484,157.1
200.054,151.9
200.0654,3525.2
200.0683,7498.6
200.0853,115.9
200.1271,18.8
200.1311,211.1
200.148,186.8
200.2079,91.3
200.2772,112
200.2942,330.1
200.3331,552.6
200.3447,353.2
200.3454,355.1
200.3467,319.6
200.4005,18.5
200.4167,114.2
200.426,21
200.4905,75.5
200.5231,318.5
200.541,90.3
200.5453,423.5
200.6997,19.4
200.7687,158.6
200.7722,386.7
200.7944,350.2
200.8594,1503.7
200.8945,2298.8
200.9467,500
200.9652,495.6
200.9713,400.3
201.0162,117.9
201.0874,97.2
201.2355,457.4
201.2443,112.5
201.2809,92.1
201.3166,94.3
201.3623,258.4
201.4263,301.4
201.4343,157.3
201.5417,22
201.5511,328.5
201.6592,126.5
201.6606,132.1
201.6616,85.5
201.733,18
201.7574,144
201.8649,288.5
201.8946,138.1
201.903,97.8
201.9235,146.6
201.9343,526.8
201.9475,124
201.9811,291.3
201.9957,61.8
202.0092,592.1
202.0163,136.8
202.07,109.1
202.0815,126.8
202.1004,283.4
202.109,264.2
202.1185,95.2
202.3108,145.6
202.3165,579.8
202.3489,99.6
202.3563,605.9
202.409,75.5
202.4219,105.9
202.4348,17.8
202.4534,11702.2
202.4825,107.8
202.5295,22.4
202.5368,570.9
202.5869,112.3
202.6636,269.1
202.6885,87.9
202.6999,18
202.7954,217.9
202.8173,138.8
202.8733,57.6
202.8861,1265.1
202.8954,32.5
202.9089,17
202.9798,107.4
202.9877,275.2
202.9908,520.4
203.0318,1243.4
203.0528,1023589.6
203.0645,102.9
203.0769,8480.9
203.1799,167.9
203.1879,244.2
203.2703,116
203.319,240.5
203.3425,100.2
203.4186,417.6
203.481,108.4
203.5715,121
203.6608,301.2
203.7886,157.8
203.8103,262.6
203.8495,17.5
203.9458,29.9
203.9676,296
204.0056,117.2
204.0134,143.2
204.0246,39766.4
204.032,84.7
204.0351,122.2
204.0562,54186.1
204.087,301.3
204.1755,98
204.1792,111.2
204.1859,240.7
204.2098,161.6
204.2179,277
204.3075,147.6
204.3393,272.3
204.3896,570.6
204.4197,83.1
204.4281,404.6
204.6004,387.8
204.6473,515.2
204.6571,592.5
204.8028,172
204.8272,191
204.8372,108.9
204.873,34.3
204.8888,1688.5
204.9324,19.1
204.9408,92.8
204.9777,563.4
205.0089,290.7
205.0164,31.5
205.0277,455.9
205.057,7244.4
205.0685,1248
205.0774,106.1
205.0826,80.2
205.0925,465
205.1293,121.6
205.2202,302.9
205.2648,282.1
205.3057,196.9
205.312,649.8
205.4832,89
205.5381,110.7
205.576,109.5
205.7203,302.2
205.7386,179.9
205.8891,100.7
205.9695,145.3
205.9757,86.7
206.0275,20.2
206.0476,158.2
206.0555,1321
206.0933,152.6
206.3615,161.7
206.4536,18.4
206.5191,141.3
206.5461,130.8
206.5533,109.2
206.7092,438.4
206.7879,431.4
206.7961,159.3
206.8802,137.1
206.8879,252.5
206.8942,17569.9
206.917,340.5
206.9823,2307.4
206.9979,223.2
207.0051,644.7
207.0145,102783.8
207.0446,1975.5
207.0508,12229.5
207.0889,396.3
207.1236,303.5
207.1265,193.9
207.4024,104.7
207.4605,595.4
207.4685,181.5
207.5159,119.9
207.532,110
207.5581,226.7
207.5723,82.9
207.6264,211.5
207.7895,125.8
207.7921,107.1
207.8437,151.4
207.8863,88.6
207.9362,91.9
207.9767,106.6
207.9907,1348
208.0139,2109.2
208.0178,3430.8
208.043,24.4
208.0542,304.6
208.1033,293.2
208.1376,288.3
208.1779,430.5
208.2369,19.4
208.2582,111.7
208.3883,92.9
208.43,160.2
208.4399,174.5
208.598,545.7
208.7029,93.8
208.8668,351.3
208.8716,83.2
208.8833,2683
208.8912,12517
208.9004,334.1
208.9357,440.4
208.9621,89.8
209.0126,5019.5
209.0346,404.1
209.0505,214.5
209.1398,118.9
209.1665,87.9
209.2239,19.1
209.2653,591
209.3951,242.8
209.4951,131
209.6624,20
210.6832,613.9
210.7785,112.7
210.826,166.2
210.8836,34
210.8883,1531.9
210.9482,144.2
210.9801,459.1
211.0288,422.2
211.0566,839.7
211.0691,906.9
211.1191,6111.5
211.1271,18457.5
211.1301,17154.5
211.1351,16183.3
211.1368,18604.5
211.1404,16268.9
211.1454,12561.9
211.1489,5218.3
211.1498,5280.8
211.2031,568.6
211.2323,477.4
211.3782,413.9
211.3976,18.4
211.426,18.6
211.4577,90.2
211.5982,406.1
211.7178,502.8
211.7806,101.5
211.8473,17.7
211.8598,200.9
211.8895,70.3
211.9465,39.6
211.9591,94
211.967,99.2
212.0385,187.5
212.0743,130.4
212.2626,101.8
212.3099,305.1
212.3356,162.8
212.3519,275.5
212.3591,184.5
212.3615,204.8
212.3625,214.7
212.3693,315.1
212.3959,23.8
212.4206,20.4
212.5049,440.7
212.5105,476.5
212.7589,551.7
212.8021,22
212.8272,556.6
212.8393,3477.7
212.8671,146.4
212.9165,20.5
212.9479,23.4
212.9651,35.7
212.9786,640.7
213.0132,96.6
213.0224,449.2
213.0326,21.4
213.055,520.8
213.1814,207.9
213.2371,18.8
213.2642,136.6
213.3513,143.4
213.3732,93.2
213.3912,17.6
213.4164,25.6
213.7507,324.2
213.8403,18.5
213.8927,466.7
213.9573,120.9
213.9622,3540.1
213.9846,688
214.0591,12941.4
214.0898,1266.3
214.1449,573.6
214.1541,20.6
214.2814,300.3
214.288,116.5
214.3236,86.5
214.3763,154.9
214.4089,472.5
214.597,417.3
214.7352,502.5
214.7676,165.3
214.8252,424.5
214.8262,474.8
214.8363,3766.2
214.8596,256.2
214.8738,205.3
214.9101,310.5
214.9178,1017.1
214.956,18
214.9663,366
215.0199,124.2
215.0933,63.3
215.1033,464
215.155,154.2
215.202,344.8
215.2301,298.7
215.2441,177.8
215.2742,99.5
215.5959,19.3
215.6154,114.1
215.6426,506.4
215.6635,117.3
215.7174,107.5
215.7319,439.6
215.7659,283.6
215.7808,280.9
215.8182,156.4
215.874,24.7
215.8805,24.7
215.9102,19.9
215.9497,122.8
215.958,62
215.9625,355.4
215.965,621.8
215.9917,178.1
215.9995,251.4
216.0148,11361.5
216.0178,987.8
216.0551,20.9
216.0856,22.5
216.1118,96.4
216.148,18.5
216.1684,277.3
216.2477,271
216.3553,19.3
216.3841,205.2
216.3962,462.4
216.3992,209.9
216.4346,104.5
216.4627,113.4
216.4735,159.1
216.5281,168
216.5725,20.3
216.6578,556.5
216.6908,104
216.7603,20.2
216.7861,219.4
216.8061,120.1
216.8339,422.5
216.8422,99.6
216.864,215.8
216.8894,58.9
216.9229,55513.1
216.9909,162.6
216.9981,100
217.018,22.6
217.0269,292.1
217.0788,623.8
217.1361,19.6
217.1802,142.4
217.1962,22.4
217.292,118.4
217.4363,308.1
217.4539,100.5
217.4761,116
217.6268,575.6
217.8078,571.9
217.8442,289
217.8677,623
217.9585,82.3
217.9783,497.4
217.9925,435
218.0567,339.1
218.1209,105.6
218.1382,132.1
218.2526,157
218.2879,257.1
218.3056,158.3
218.3308,18.7
218.4713,110.1
218.7739,343.2
218.8677,356.6
218.9001,390.9
218.9044,849.4
218.92,15122.6
218.9515,109.9
219.0181,1079
219.0268,1306591.9
219.0536,21.1
219.0832,8888.3
219.1399,635.7
219.1678,785.8
219.1732,482.8
219.1773,91.6
219.3105,147
219.3206,159.8
219.3657,344
219.6066,133
219.6895,19.8
219.7001,80
219.7078,414.9
219.7581,463.2
219.8,238.7
219.8685,22.1
219.8757,22.4
219.9048,59.5
219.929,283.5
219.9434,18
219.9769,104.3
219.9979,184.6
220.018,18.7
220.0301,67593.7
220.0613,355.4
220.0672,10841.8
220.1228,457.7
220.1674,461.5
220.245,266.2
220.2762,116.1
220.2857,353.2
220.3523,430.4
220.3682,201.1
220.4351,19.7
220.4419,77.2
220.4642,357.2
220.6731,121.3
220.6857,160.8
220.7493,183.2
220.8064,166.4
220.8329,18.6
220.8695,424.1
220.8839,149.8
220.9041,77.9
220.9326,45.6
220.9986,118.8
221.0154,154.7
221.0249,78329.5
221.031,11950.7
221.042,693.3
221.0509,1619.8
221.0663,321
221.0706,485.2
221.0847,296.8
221.1648,159.3
221.3556,20.4
221.6239,136.8
221.6332,284.6
221.8873,404.9
221.8938,102.2
221.9376,258.1
221.9566,178
221.9839,3004.3
222.0283,1118.6
222.0612,75
222.0747,683.1
222.2796,116.5
222.2926,19.5
222.3161,90.5
222.608,77.9
222.6661,80.6
222.8582,133.3
222.8681,15941.5
222.8794,868.1
222.889,539.2
222.899,856.6
222.9457,130.9
222.9541,1836.1
222.9846,399.6
222.9884,12440.5
223.0369,1287
223.0563,275.1
223.1683,711.9
223.2815,560.7
223.3892,151
223.397,22.2
223.4368,283.8
223.5281,518
223.6371,272.4
223.6645,88
223.735,208.8
223.7771,86.1
223.879,81.5
223.8871,122.5
223.8968,20.5
223.9337,460
223.9532,69
224.013,118.2
224.0202,24
224.1645,483.8
224.2946,179.8
224.3185,589.7
224.4136,18
224.5172,126.2
224.581,424.6
224.5856,130.2
224.6264,436.1
224.7344,555.4
224.751,20.1
224.7618,116.8
224.7872,146
224.8266,556.6
224.865,10006.9
224.9279,272.4
224.9864,690.6
225.0181,346.9
225.0203,138
225.0409,469.2
225.0549,26158.9
225.0846,531.1
225.166,115.2
225.265,193.9
225.2715,705.7
225.2991,269.8
225.3318,488
225.3599,78
225.3737,358
225.4729,236.2
225.4865,158.4
225.5581,20.4
225.5796,88.9
225.5857,183.5
225.6484,123.8
225.7519,774
225.7593,136.1
225.7923,103.9
225.9622,48.4
225.9777,435.3
225.9956,335.4
226.0023,33.9
226.0064,1834.3
226.0244,7138.3
226.0454,5784
226.1604,419.2
226.4505,629.7
226.5161,594.7
226.7019,121.6
226.8621,558.2
226.8934,67.8
226.8971,142.8
226.9518,50583.4
226.9699,125.4
226.9824,793.9
226.9888,20.1
227.0342,478.2
227.043,321.9
227.0466,122.1
227.0865,129.4
227.1235,513.1
227.15,126.5
227.2571,420.5
227.587,22.5
227.75,91.8
227.8025,18.6
227.817,305.7
227.8231,278.5
227.8495,489.6
227.8963,366.2
227.9,532.4
227.9552,653
227.9618,398.3
227.9969,261.6
228.0005,146.9
228.0222,916.5
228.0564,582.2
228.1028,522.5
228.1617,466.3
228.2702,281.6
228.3789,163.1
228.6022,122
228.6271,223.4
228.8134,312.8
228.8189,112.6
228.8895,31.1
228.9049,306.4
228.9603,186.3
228.9666,133.7
228.9917,739.6
229.1111,20.1
229.2234,806
229.2326,115.9
229.3267,454.8
229.4395,96
229.4481,70.7
229.4566,289.6
229.5391,217.8
229.5576,353.9
229.5701,117.8
229.7056,182.9
229.7073,182.5
229.7544,187.7
229.765,497.8
229.9106,416.3
229.9572,9995
229.9729,150.9
230.0337,371.5
230.1063,19.3
230.1239,332.8
230.136,97.2
230.1535,208.8
230.4365,93.5
230.5058,101.8
230.5171,142.1
230.5384,517.3
230.637,299.1
230.8103,502.1
230.8237,472.2
230.8681,21.1
230.8903,540.4
230.9044,26.9
230.9254,286.3
230.9605,393.1
231.0563,157.1
231.2429,108.5
231.2735,19.2
231.2945,22.4
231.328,405.2
231.4542,21.5
231.5125,19.4
231.6885,177.9
231.8012,343
231.9128,22
231.9238,130.9
231.953,461.5
231.9576,330.1
231.973,199.1
231.9946,572.6
232.0944,118.7
232.1403,137
232.1693,522.4
232.1809,440.7
232.3031,352.7
232.3794,231.7
232.385,360.1
232.3935,498.3
232.4727,388.7
232.4991,143.6
232.5087,433
232.5767,467.5
232.6737,332
232.6881,181.6
232.7911,99.1
232.7971,164.6
232.8674,103.7
232.8836,244.8
232.8969,49201.5
232.9045,300.5
232.9205,99.7
232.9489,188.1
232.9744,779
232.9857,3554.9
233.0108,22.4
233.0448,475.9
233.0512,9050.8
233.0744,673.5
233.1196,22.6
233.1629,607.6
233.1712,117.7
233.3038,175.7
233.3502,452.8
233.3599,252.2
233.4152,141.8
233.534,543.7
233.654,113.6
233.6796,475.7
233.7122,21
233.7983,191.4
233.828,152.3
233.9204,23.5
233.9362,18.3
233.9447,136.4
233.9525,517.5
233.9692,330.5
233.9793,146.3
234.0747,157.5
234.1002,184
234.1106,346.2
234.1181,122.5
234.3133,307
234.3776,97.4
234.4159,232.9
234.4572,529.3
234.5005,183.8
234.5597,349
234.5777,18.6
234.627,472.6
234.6463,103.8
234.7823,19.5
234.8492,125.6
234.8938,11656.1
234.9,160.4
234.9635,427.4
234.9817,5904.8
235.0367,124.5
235.0501,265.3
235.057,5407.8
235.0669,1251.4
235.0928,12155.2
235.2612,181.4
235.474,147.7
235.6049,155.6
235.7133,93.9
235.8114,121.3
235.9464,85.1
235.9617,362.1
236.0072,355.7
236.0227,273.1
236.0411,6959.5
236.0718,47434.7
236.0919,24.6
236.0955,81
236.1233,98.2
236.4366,92.7
236.4735,382.2
236.6474,589.6
236.7302,101.9
236.7694,377.5
236.8782,498.8
236.9071,145.7
236.9152,20.3
236.999,24.8
237.0527,818.9
237.0712,59.8
237.0752,1808.8
237.1237,122.5
237.2549,21.1
237.5886,144.5
237.7085,119.9
237.8263,169.6
237.8461,287.2
237.9128,174.4
238.0677,659.6
238.0787,24
238.0867,241.6
238.1234,109.9
238.2248,20.6
238.2446,195.1
238.2832,432.2
238.326,134.8
238.4367,310.4
238.4569,483.2
238.68,19.7
238.7068,103.7
238.8421,5308.4
238.8535,1135.3
238.8891,236.2
238.9436,134.6
239.0093,6220.4
239.0525,421
239.06,173.8
239.0638,1011.1
239.0683,469.1
239.1496,231.2
239.162,306.3
239.1669,354
239.1749,498.9
239.1911,416.4
239.2509,17.9
239.323,269.8
239.3884,19
239.5314,82.9
239.5796,629.5
239.6779,191.6
239.7184,599.1
239.7433,140.1
239.8674,133.8
239.8719,17.5
240.0129,129.7
240.0206,18.8
240.0221,20.2
240.0234,20.1
240.0308,514.2
240.0396,488
240.1002,527.2
240.121,104.8
240.2498,177.3
240.4103,317.4
240.4216,86.3
240.4865,20.5
240.6448,102.8
240.6543,98.8
240.6658,18.3
240.7368,310
240.7563,21.2
240.8028,119.7
240.839,3524.6
240.8505,127.3
240.859,328.9
240.955,1157.6
240.9617,20.5
240.9675,818.1
240.9947,17.6
241.0083,266.8
241.0532,106.4
241.0569,18.2
241.1507,119
241.1595,336.9
241.2178,178.9
241.2264,119
241.2777,359
241.3083,19.6
241.3115,128.8
241.419,89
241.4266,137.4
241.463,586.8
241.8079,297
241.8207,186.8
241.9013,238.3
241.9407,688.1
241.9541,19.5
241.9771,357.1
241.9868,329.8
241.9983,1538
242.0192,1990.7
242.0422,250.8
242.0549,100.7
242.0742,341.3
242.0789,409.1
242.1418,473.8
242.2829,131.6
242.3228,180.4
242.3318,141.7
242.482,21
242.6856,20.9
242.8031,109.4
242.8133,123.4
242.8716,466.7
242.9258,24176.8
242.9649,27.7
242.9713,174
242.9759,46
243.0066,591.2
243.0492,285.3
243.0533,3252.8
243.0656,7652.4
243.1066,142.9
243.307,120.6
243.3221,102.8
243.4227,214.4
243.4239,315.9
243.5414,312.9
243.5619,282.7
243.6973,142.7
243.7269,514.5
243.757,151.8
243.7879,419.6
243.7894,585.9
243.8157,425.2
243.8444,105.5
243.8849,18.3
243.9312,168.4
243.9605,97.7
243.9728,4323.1
244.0128,263.1
244.034,19.4
244.036,19.9
244.1145,113.6
244.1738,581.7
244.1913,321.6
244.2015,154.4
244.3302,187.5
244.5326,141.6
244.6887,295.5
244.7162,18.1
244.7524,125.2
244.8281,19.9
244.8708,9146.6
244.9241,1852.6
244.9354,184.5
244.976,208.1
245.0065,20.7
245.0253,21.5
245.0454,526.6
245.0704,653.2
245.0855,536.1
245.1018,346.5
245.1108,183.6
245.1455,300.3
245.2236,171.4
245.321,22.3
245.4503,553.3
245.5721,442.2
245.5816,111.7
245.6586,403.5
245.668,121.1
245.7123,108.4
245.8063,18.5
245.8928,24.8
245.9694,22.5
245.9733,126.8
245.9846,129.2
245.9884,84.9
246.0016,96.7
246.0999,160.8
246.196,84.1
246.3611,18.8
246.3748,91.6
246.3806,180.4
246.4488,201.8
246.5835,110.5
246.8078,102.7
246.8133,298
246.8626,699.6
246.8681,1026.4
246.8996,33.6
246.9518,2200.9
246.9646,123.4
246.9707,26.1
246.9837,156.6
247.0166,288.4
247.036,149.5
247.0468,251.2
247.0672,1122.5
247.0928,6211.7
247.1144,283.3
247.131,277.9
247.2733,595.2
247.2857,101.1
247.3593,300.3
247.3875,199.6
247.4377,127.5
247.5782,128.3
247.6771,137.8
247.7012,342
247.7199,20.4
247.7266,89
247.9678,997.5
247.9836,271.7
248.0049,159.4
248.0268,17.2
248.0486,123
248.1244,11715.9
248.2836,529.4
248.3178,526.7
248.3376,378.2
248.4035,184.1
248.5576,110.8
248.5711,596.7
248.61,256.4
248.6146,133.5
248.6875,97.7
248.8709,11619.5
248.8908,114.8
248.9009,252.9
248.9152,23.9
248.9483,136.8
248.9598,3432.9
248.9993,961.7
249.0161,980.2
249.0195,199.1
249.0613,10138.7
249.1815,22.5
249.3072,295.6
249.3694,339.5
249.3881,17.9
249.4447,130.7
249.5043,338.6
249.5312,148.2
249.6927,127.2
249.7187,20.4
249.7423,454.2
249.7828,98.7
249.8721,141.2
249.8863,19.6
249.8898,251.9
249.9681,24.6
249.9822,494.1
250.0383,263.7
250.0644,1190.9
250.0692,137.4
250.1117,343.6
250.395,23.9
250.5072,201.6
250.5086,221.5
250.5261,142
250.6002,21.8
250.6068,298.8
250.6443,152.3
250.7438,323.4
250.804,259.8
250.8351,104.8
250.8677,1575.1
250.884,505.7
250.8939,245.4
250.9205,2654.8
250.9515,22.1
250.9557,1811
250.9862,116.2
250.9972,286.2
251.0142,163.6
251.0345,1051.8
251.1058,299.3
251.1326,306
251.4237,19.4
251.4433,132.2
251.4613,125.2
251.4863,102.4
251.5323,716.2
251.5402,124.8
251.8383,434.7
251.9336,390
251.9809,180.2
252.004,470.6
252.012,232.3
252.0369,109.5
252.0458,93245
252.114,21.8
252.1351,340.1
252.143,95.6
252.2566,20.9
252.4101,18
252.4433,139.9
252.4485,153
252.4638,123.3
252.5368,164
252.5788,114.7
252.6009,106
252.6479,245
252.7436,86.1
252.9103,49.6
252.9175,1484.8
252.9518,65.1
252.9851,755.6
253.0111,115.6
253.0381,115.3
253.0491,5772.4
253.0785,443.5
253.179,340.8
253.2525,89.5
253.3229,387.7
253.3359,93.4
253.368,704.2
253.3736,102.8
253.3934,16.7
253.4151,133.8
253.4637,389.9
253.5038,100.9
253.6328,535.9
253.6479,86.3
253.6891,133.6
253.8029,219.6
253.9098,187.5
253.9578,129.5
254.0198,96.9
254.0308,453.5
254.0358,309.6
254.0439,2557.7
254.1118,202.4
254.1146,183.1
254.1204,39.7
254.129,191.5
254.15,20.1
254.2141,116.6
254.2336,23.9
254.2768,455.2
254.5288,117.1
254.5405,585.4
254.5905,21
254.6042,128.4
254.8162,2345.9
254.8241,7937.6
254.8568,21.4
254.8995,1173.9
254.9424,110.3
254.9862,221.5
255.0127,19.5
255.0332,23576.3
255.0471,675.2
255.0603,182.3
255.1293,486.8
255.1375,555.3
255.2314,17.8
255.4993,20.5
255.531,125.9
255.778,232.5
255.8577,173
255.9786,1957.7
256.0036,1687.4
256.0283,512.5
256.0598,139.1
256.0903,291.2
256.177,665.3
256.1976,500.2
256.2523,342.2
256.325,206.5
256.415,117.9
256.4409,165.6
256.4558,22.8
256.4872,112.5
256.5222,213.4
256.5767,151.6
256.8212,11147
256.9409,542.6
257.0221,317.7
257.0488,6801.8
257.0648,444.1
257.07,114.9
257.0748,43819.7
257.2066,270.2
257.4296,22.4
257.654,19.7
257.7373,108.4
257.7565,17.1
257.8985,147.5
257.9101,123.9
257.9295,709.6
257.9347,324.3
257.9522,275.2
257.9742,705.8
257.9887,145.3
258.0303,562.6
258.0547,532.7
258.0742,126.5
258.0783,1937.9
258.0892,455.4
258.1105,18077.1
258.1807,115.6
258.2997,790
258.4318,424.4
258.485,118.8
258.5242,214.3
258.5297,240.7
258.5391,584.6
258.6278,21
258.7419,302.5
258.8082,22.8
258.8182,4621.5
258.8996,4787.7
258.9808,91.6
259.0278,934.3
259.0498,187.7
259.0706,118.3
259.1539,167.4
259.1839,194.3
259.2332,457.7
259.3772,107.4
259.465,107.5
259.4669,105.7
259.4708,304.9
259.5057,334
259.5171,25.3
259.5746,258.2
259.5826,83.8
259.683,115.2
259.722,344.4
259.7806,108.8
259.7868,469.4
259.8068,163.8
259.8551,638.3
259.9477,129
259.9649,813.3
259.9823,18.2
260.0112,364.8
260.0217,369.9
260.1178,343.2
260.1511,89.2
260.4517,20.6
260.6129,281.3
260.6851,347.8
260.7158,495.4
260.7884,21.8
260.8154,365.1
260.8449,3924.5
260.9493,10325
261.0464,347.1
261.0987,102
261.1605,534.8
261.3382,23.9
261.6062,265.7
261.6463,19.4
261.7221,165.5
261.8263,102.3
261.9486,234.8
261.9774,151.2
261.9835,297.3
262.0821,2049.8
262.148,19.7
262.3702,534.9
262.4367,149.6
262.5093,379.8
262.5766,577.9
262.5892,554.3
262.6833,315.8
262.7885,161.8
262.8417,361
262.8934,21.9
262.9311,23.9
262.9463,2233.8
263.0092,231.9
263.0135,504.1
263.0324,103.4
263.0378,507.2
263.0854,3074.5
263.1423,189.2
263.3038,20.2
263.3278,117
263.3381,425.8
263.5076,119.4
263.5967,302
263.6627,110.3
263.6717,321.1
263.6942,134.9
263.8198,288.9
263.8552,313.6
263.9023,41.2
263.9769,91.2
264.0861,183.7
264.4321,766.8
264.4903,256.8
264.5457,94.7
264.7014,184.3
264.8306,21.4
264.8448,2145.4
264.8531,3717.6
264.8732,305.7
264.9338,4923.8
264.973,673.2
264.9886,12990.1
265.0165,83.1
265.0237,631.3
265.0353,8244.6
265.0476,3224.1
265.1109,501.3
265.2692,646.8
265.2959,85.9
265.319,190.1
265.4283,98.8
265.5326,133.7
265.7931,187.7
265.8159,124.4
265.9582,272.7
265.9785,422.1
265.9883,23.7
265.9937,83.3
266.0713,113.9
266.115,485.8
266.1534,487.3
266.2616,208.7
266.3082,98.1
266.3371,117.9
266.355,336.4
266.4481,177.7
266.5951,176.1
266.7894,199.3
266.8499,5364.2
266.8944,3725.9
266.9017,197.9
266.9594,83.6
267.0728,25
267.1234,509
267.1249,642.2
267.1263,510.8
267.1585,18.5
267.413,236.1
267.517,265.2
267.5591,238.3
267.6089,299.6
267.8147,467.6
267.9739,155.4
267.9942,1150.1
268.0093,135.9
268.0296,735
268.074,113.9
268.1874,528.3
268.3915,608
268.7339,123.1
268.7409,121.1
268.8468,1475.7
268.8643,859.6
268.8913,1138.3
269.0125,27.4
269.0282,620.9
269.0371,124.2
269.0452,16516.8
269.0488,37943.6
269.3606,96.5
269.5378,990.7
269.5495,320.4
269.6853,147.2
269.7058,121
269.7388,636.9
269.9434,17.8
269.9524,58.3
269.9896,557.5
269.9941,2677.2
270.0098,151
270.025,20429.5
270.0305,437.2
270.0475,26013.7
270.0521,863.2
270.0647,29.8
270.1455,1281
270.2034,192.6
270.4034,156
270.4175,125.1
270.5107,114.8
270.613,210.7
270.6541,514.9
270.798,5018.9
270.8394,31
270.8422,31.3
270.8559,17.8
270.8696,123.1
270.978,20064
271.0168,18
271.0279,1574.6
271.0508,220
271.0637,516.2
271.0716,330.7
271.0782,408
271.0906,1648.6
271.2175,18.1
271.307,90.6
271.4317,17.3
271.4487,178.8
271.4538,145.4
271.6877,19.3
271.7676,171.5
271.7961,631.9
271.9078,73.2
271.9248,200.9
271.9523,740.8
271.9654,517.4
272.0208,598.7
272.029,24.5
272.0379,335.3
272.0433,169.4
272.0806,250.3
272.1329,181.5
272.1553,218.8
272.5083,309.6
272.527,313.3
272.7134,91.6
272.7734,331.2
272.7952,5917.3
272.8227,295.3
272.8668,120.1
272.8757,342.3
272.8971,414.8
272.9285,76.6
272.945,1279.7
273.0487,1826.4
273.1729,312.9
273.2598,251.4
273.3187,196.6
273.3266,695.2
273.3515,378.7
273.3716,368.8
273.6801,460.6
273.7757,84.5
273.8397,290.8
273.8781,121.7
273.8877,305.3
273.9627,12558.6
274.006,343.1
274.042,128.6
274.0466,91.6
274.0693,147
274.0801,551.9
274.0926,1129.5
274.2594,199.5
274.3687,293.3
274.3803,391.1
274.4151,18.7
274.5613,350
274.6375,23.8
274.6605,616.7
274.7182,390.4
274.776,270.6
274.7921,3652.4
274.8026,71.3
274.8622,19.3
274.8738,737.6
274.8823,886.2
274.9058,82.2
274.983,33.3
275.0365,458.8
275.0945,334.9
275.1068,275.3
275.2262,93.9
275.2334,79.2
275.266,191.9
275.2761,161.2
275.3374,138.1
275.3428,336.2
275.4408,390.7
275.6039,385.4
275.7476,103
275.8117,320.9
275.8329,118.2
275.9395,786
275.9631,23.7
275.988,496.9
276.0035,182.9
276.0635,415.3
276.085,30.8
276.0965,309.7
276.1521,582.2
276.3235,188.5
276.4304,319.5
276.4609,794.5
276.4666,526
276.5118,17.6
276.5275,358.5
276.6893,194.3
276.7968,162.9
276.819,136.4
276.8838,167.7
276.9233,9368.8
277.0279,113.4
277.0989,108.4
277.2907,82.9
277.3055,19.4
277.3401,440.9
277.3857,119.1
277.3927,86.2
277.5523,18.5
277.6915,116.3
277.7146,141.1
277.7202,118.8
277.888,137.6
277.8966,153.4
277.9675,298.9
277.9992,326.9
278.0193,436.1
278.1088,245.9
278.3638,92.5
278.3791,119.2
278.4542,110.5
278.7201,18.6
278.8471,66.9
278.8935,3087.4
278.9201,1659.4
278.9872,698.2
279.0045,958.9
279.0568,30874.6
279.1158,121.2
279.2625,382.2
279.2891,161.2
279.3563,619.8
279.3723,159.3
279.4063,121.5
279.6201,340.2
279.8245,276.3
279.8399,119
279.8469,321.4
279.8611,76.4
279.8791,156.7
279.999,41.5
280.0122,738
280.0231,18.9
280.0602,298.2
280.0927,1461.7
280.1414,124.4
280.5253,346.2
280.6162,98
280.6266,180.5
280.6396,91.6
280.6516,98.8
280.6647,153.1
280.6926,187.4
280.8132,31.3
280.827,2583.9
281.0051,88.8
281.0095,2323.7
281.0405,314.3
281.0516,433.1
281.1705,298.2
281.288,310.1
281.3148,206.3
281.327,204.2
281.3378,122.5
281.4786,75.8
281.5409,113.1
281.6103,177.7
281.6312,173.1
281.7983,770.2
281.9803,132
282.0059,300.3
282.0151,69.4
282.0392,533.1
282.0649,344.4
282.0953,108.7
282.1381,22
282.5346,20.8
282.6687,300.3
282.7136,404.4
282.7852,352.1
282.8241,3404.1
282.8572,116.6
282.8687,929
282.893,620.2
283.0177,134.9
283.0276,1864.6
283.09,305.5
283.1355,81.8
283.2668,444.9
283.3552,577.9
283.3891,122.8
283.4724,146.7
283.6419,497.8
283.7213,571.6
283.8107,165.6
283.816,25.4
283.8983,341.8
283.989,173.8
284.0006,520.8
284.0246,215.9
284.0542,50.2
284.0629,85.4
284.1362,283.8
284.3043,266.1
284.3849,198.9
284.4805,21.1
284.4979,188.8
284.5506,132.7
284.6538,151.1
284.7041,218
284.7279,111.7
284.7462,113.9
284.8653,319.7
284.8973,23.5
284.9755,20.7
285.023,335.6
285.0496,276.2
285.0923,270
285.1896,145.3
285.2183,223.8
285.2408,83.6
285.36,197.8
285.4811,264
285.5972,690.8
285.6193,448.8
285.7448,306
285.7559,22
285.7703,106.6
285.8493,160.1
285.928,230.3
285.9683,1668.9
285.9748,20.3
285.989,773.7
286.0199,5016.5
286.0783,193.3
286.0958,20.5
286.1082,22.9
286.1637,77.7
286.2808,131.3
286.3628,82.4
286.3677,572.5
286.4993,20.5
286.7722,2193.5
286.8035,70.4
286.9521,8820.4
286.999,102.4
287.0233,446.6
287.0555,29771.4
287.0902,429.5
287.2054,104.8
287.2469,19.7
287.3624,271.4
287.4062,470.1
287.5243,91.7
287.5999,22.1
287.7206,203.4
287.7331,251.6
287.8377,23
287.9416,115.1
287.9495,39.5
287.9968,368.4
288.0157,151.8
288.0355,233.3
288.0523,85.4
288.059,1438.6
288.0846,34.6
288.0969,113.4
288.1558,31075
288.2371,324.7
288.249,119.9
288.2739,104.3
288.4366,432.7
288.5714,116.3
288.6128,354.3
288.7381,565.3
288.769,4407.6
288.7781,106.8
288.8147,765.9
288.8213,449.7
288.83,1050.6
288.8382,3865.5
288.8454,6449.5
288.8487,6309.2
288.8606,13618.4
288.8664,12706.6
288.8718,14453.2
288.8838,20190.4
288.8925,20620.2
288.8988,17788.8
288.9086,14109.4
288.9133,9828.1
288.9213,10099.5
288.932,4316.3
288.9416,1778.6
288.9533,257.2
288.9581,349.1
288.9658,177.9
289.0075,90.8
289.1427,103
289.1593,2626.7
289.2777,293.1
289.4077,113.6
289.5364,142
289.6251,267.1
289.9147,126.9
289.9368,861.3
290.0424,278.8
290.302,238.4
290.4282,139.3
290.4367,115.4
290.4655,20.8
290.5783,298.4
290.5937,19.2
290.6136,138.5
290.7663,693.4
290.7976,85
290.8349,45.2
290.8548,303.2
290.8897,60.5
290.9263,50.7
291.0147,169.5
291.0267,4081.1
291.0493,228.3
291.2105,281.2
291.2477,189
291.6029,341.6
291.6573,651.8
291.7336,224.5
291.9264,81.2
291.9727,439.2
292.0397,663.7
292.0801,83.8
292.1032,230.1
292.3799,137.1
292.4205,443.9
292.5155,18.3
292.5793,468.8
292.7106,447.1
292.8361,23.6
292.8527,574.1
292.8621,445.9
292.8783,105.6
292.8973,2339.3
292.9804,19.4
293.0638,253.4
293.0721,2197.9
293.0984,397010.3
293.1788,2291.3
293.2218,92.4
293.3065,72.1
293.3181,84.2
293.3424,114.4
293.3761,612.5
293.4961,19
293.5118,132.8
293.5578,354.7
293.6869,380.5
293.7004,660.9
293.7195,308.3
293.7858,314.6
293.8397,93.9
293.9508,498.5
293.9701,22.5
294.0379,17.6
294.0641,101.2
294.0956,686.4
294.1018,34099.9
294.1434,101.4
294.1483,125.9
294.1668,447
294.2142,137.8
294.2614,191.1
294.2869,119.9
294.5263,199.8
294.544,777
294.6205,102.2
294.6372,438.4
294.6692,276.1
294.6747,115.8
294.6911,287.7
294.7324,262
294.8029,86.3
294.8292,92.1
294.8405,156.4
294.8882,148.9
294.9809,260.7
294.9909,195.8
295.0306,1140.4
295.048,447.4
295.073,391.4
295.1024,2705.8
295.1759,490.4
295.1949,16399.6
295.2873,111.9
295.3061,170.1
295.3677,275.9
295.3903,203.4
295.5026,484.4
295.5571,123.2
295.5626,21.1
295.6852,152.7
295.7333,558.4
295.741,504.8
295.7797,428.3
295.7938,637.5
295.9408,128.8
295.9789,123.3
296.0097,1238.8
296.0252,20.9
296.0666,577.8
296.0716,90.4
296.1045,626.3
296.1772,240.7
296.3277,348.2
296.3327,347.2
296.661,112
296.8003,423.9
296.8077,166.7
296.8126,479.4
296.8577,49.5
296.9344,706.8
296.9712,259.7
297.1078,30.9
297.1521,23
297.1653,389.7
297.2485,321.5
297.3038,328.7
297.4211,451.2
297.4497,470.7
297.4736,20.5
297.6154,536.6
297.7847,19.8
297.8686,24.2
297.9025,20.3
297.9546,327.8
298.0253,1203.9
298.0425,14400.4
298.1088,106.4
298.1526,92
298.247,416.4
298.3917,207.8
298.4761,105.6
298.5193,488.4
298.5321,292.6
298.5475,19.4
298.6082,18.2
298.6525,142.9
298.824,22.8
298.9473,18.3
298.9868,54.6
299.0231,2376
299.0375,212.4
299.0459,439.6
299.0615,23.5
299.1395,7335.9
299.2607,126.8
299.4289,97.2
299.465,127.3
299.5478,544.5
299.8246,156
300.005,1052
300.0356,1356.2
300.0755,307.7
300.1427,96.7
300.149,197.6
300.196,24.8
300.2692,18.4
300.3113,100.1
300.3226,362.2
300.3794,103.6
300.4866,558.4
300.5268,162.9
300.5694,160.1
300.6677,117.9
300.7111,91
300.7581,129.3
300.8195,72.3
300.8414,104.1
300.864,249.4
300.9316,373.2
301.0123,59.4
301.0201,229.4
301.0388,19950.1
301.1008,794.1
301.1414,183.4
301.1588,296
301.2118,595.5
301.338,18.4
301.3923,132.9
301.4352,177.6
301.6328,87.3
301.6487,98.5
301.7069,239.1
301.827,23.8
301.917,209.7
301.9284,288.1
301.9869,314.3
301.9941,6107.9
302.0125,974.1
302.0203,801.2
302.0351,54.1
302.0514,320.1
302.0642,3331.9
302.1465,23.5
302.1627,640.6
302.2016,643.2
302.3999,568.9
302.4651,467.3
302.6661,129.4
302.6732,371.7
302.6836,813.4
302.7143,388.7
302.7461,393.8
302.7776,83.2
302.8296,5150.2
302.8628,20
302.9263,937.3
302.9974,94.7
303.028,157.5
303.0529,163.9
303.0676,356.9
303.0742,432.1
303.1171,395.8
303.1882,185.6
303.2405,569.1
303.2627,20.5
303.3072,465.3
303.4128,488
303.6127,374.1
303.6805,212.1
303.7256,635.2
303.7527,122.1
303.8075,21.2
303.9561,23.4
303.9868,262.8
304.0239,101.5
304.0601,100.7
304.0692,467.3
304.0848,621.1
304.1839,641.4
304.2237,24.5
304.27,302.8
304.3894,188.5
304.4518,145.2
304.5802,21.5
304.7421,340
304.7566,336.4
304.784,120.6
304.7999,19.8
304.8138,216.5
304.8268,3012.8
304.8542,112.2
304.8695,321.3
304.8961,742.1
304.9053,30.8
304.9756,2053.7
305.0268,140.6
305.3686,17.8
305.3817,481.9
305.4292,695.5
305.6773,160.7
305.6822,462.7
305.8846,123.9
305.9822,20.1
306.0357,163.4
306.0728,134.9
306.0959,41.4
306.1285,471.8
306.141,298.6
306.1622,307.7
306.2943,675
306.341,232.1
306.3616,82.3
306.3823,22.7
306.5144,159
306.5851,19
306.7335,477.4
306.8433,350
306.895,125.6
306.9579,1721.1
306.9775,5460.2
307.008,230.3
307.0134,98.2
307.4217,381.6
307.4556,153
307.6136,106.2
307.7033,416.4
307.7953,18.9
307.8006,20.1
307.9267,433.6
308.1712,129.8
308.2635,731.6
308.6113,733.1
308.6362,261.8
308.6514,121.1
308.8084,284.5
308.8295,160.3
308.8791,4687.8
308.9561,310.6
308.9667,132.7
308.9909,173.6
309.0064,126
309.0375,3836.3
309.0702,99.8
309.0828,2358.6
309.1519,42.6
309.1893,434.8
309.348,96.2
309.4165,24.3
309.4721,107.3
309.5859,591.1
309.6298,284.4
309.75,143.5
309.946,114.6
310.0206,21.6
310.0303,310.2
310.0421,484.7
310.086,330.7
310.1731,580.6
310.4216,103.1
310.4894,572.8
310.5583,187
310.7897,475.4
310.7975,19.3
310.8763,3146.3
310.9287,374
311.0039,20.4
311.0099,586.5
311.1318,159.6
311.1394,540.3
311.1674,601.1
311.2752,254.9
311.3485,328.8
311.4173,28.5
311.5048,558.4
311.5398,147.2
311.7384,188.4
311.8786,19.7
311.9991,36.7
312.0196,308
312.0411,2145.1
312.1521,122.1
312.2457,162.1
312.3776,134.3
312.4214,19.1
312.4294,297.5
312.562,19.1
312.6849,438.3
312.7709,124.5
312.7759,141.1
312.7839,131.2
312.8025,22.6
312.8588,868.6
312.8735,303.9
312.908,660.3
313.0016,23.8
313.0181,274.5
313.1058,366.6
313.2742,37463.8
313.391,351.3
313.5036,649.4
313.5436,134.4
313.7584,159
313.8276,29.9
313.9311,82.2
314.0149,6107.4
314.0913,70.3
314.1424,526
314.2209,336.1
314.2777,4916.2
314.3305,159
314.3801,94.2
314.4632,124.3
314.6755,98.1
314.7801,839.3
314.7982,382.9
314.8373,4190.9
314.9014,187.7
314.9667,593.1
314.9993,5126
315.0042,2362.8
315.0183,548.1
315.0351,744.8
315.0435,599.2
315.0554,7611.3
315.059,3709.9
315.0618,4203.8
315.0635,4675.2
315.0667,14591.9
315.0699,22091.9
315.0734,20953.5
315.0804,8127984.5
315.096,5688.4
315.098,4586.2
315.1027,3082.5
315.1044,2707.5
315.1135,827.8
315.1152,977.5
315.1258,270.4
315.1321,501.3
315.1614,5563.6
315.3238,6508.7
315.4413,95
315.4864,486.6
315.4916,318.1
315.6106,115.9
315.619,620
315.6722,132.7
315.6977,19.4
315.7992,18.8
315.8058,20.2
315.8222,946.7
315.9455,442.6
315.9649,328.6
316.0105,135.2
316.0221,153.5
316.0537,20.6
316.0691,621.9
316.0776,46173.3
316.0837,864448.8
316.1421,89.5
316.1499,144.3
316.2204,163.7
316.2755,416.8
316.403,298.6
316.4243,92.6
316.5414,202.4
316.6945,266.1
316.7508,140.9
316.7975,176.2
316.8658,104
316.987,2079.4
317.0046,660.8
317.0147,22.4
317.0352,143.3
317.0565,274.2
317.0653,1849.2
317.0842,98155.2
317.149,307.4
317.2013,88.6
317.3529,119.7
317.3971,82.5
317.4072,367.8
317.6276,150.5
317.7127,95.7
317.7189,115.6
317.7302,119.3
317.822,89.2
318.0468,35.6
318.0878,9158.5
318.1049,290.3
318.1153,483.1
318.1315,161.6
318.158,97.9
318.3199,131.1
318.3859,294
318.4208,352.1
318.4702,230.7
318.5482,174.6
318.6417,321.3
318.718,74.8
318.7927,890.8
318.8038,2816.6
318.8568,90.7
318.9023,96.1
318.908,1733.9
319.1157,22.1
319.1949,25251
319.2012,250.3
319.2524,152.8
319.2815,447.9
319.2953,1019.2
319.3142,508.9
319.5969,126.2
319.6233,135.6
319.6391,520.1
319.6639,112.5
319.71,295.8
319.7929,31.4
319.8789,145.6
319.9293,205.1
319.9391,335.1
319.9653,308.7
319.9666,336.2
319.9697,123.5
319.9868,705.9
319.9979,344.6
320.0742,57.8
320.184,624.4
320.1984,4252.8
320.2589,2047.2
320.5288,198.9
320.5614,269.9
320.583,472
320.7936,28.1
320.8008,1571.3
320.8282,111.8
321.0089,107.9
321.2106,26271.9
321.2624,127.8
321.2863,20.8
321.4075,125.3
321.4534,490.9
321.7389,306.2
321.8167,49.7
321.9336,267.1
322.0084,224.4
322.1947,87.3
322.2138,4712
322.4208,665.8
322.4331,482.4
322.594,344.6
322.8028,379.2
322.8117,438.7
322.9322,544.9
323.0139,81.7
323.0207,9180.9
323.0369,19.4
323.121,140.5
323.226,2436.2
323.2365,104.4
323.3317,19.8
323.6957,494
323.8071,154.5
323.8966,511.5
324.0021,8049.4
324.0172,353
324.0345,591.2
324.3465,285
324.492,178.8
324.519,104
324.5427,185.4
324.5545,4687.3
324.5601,3193.9
324.5758,401.5
324.5826,154.8
324.5893,143.6
324.6377,106.5
324.7955,613.4
324.8084,633.5
324.8533,2272.8
324.91,416.6
325.0028,535.6
325.0162,329.1
325.0279,180.1
325.0309,176
325.057,786.6
325.2124,796.4
325.2693,144
325.4387,321.3
325.4625,21.4
325.5431,699.6
325.8315,336.8
325.8964,72.5
325.9026,736.9
325.924,499.6
325.9826,519.8
326.0043,128.9
326.1277,184.7
326.215,529.8
326.3166,295.6
326.356,189.6
326.384,510.2
326.4736,165.6
326.7423,86.9
326.8505,2822.1
326.9495,325.3
326.9831,211.3
327.0156,5852.6
327.0445,136.3
327.0522,2044.5
327.1175,154.5
327.2274,5531.2
327.2592,137.7
327.4316,179.8
327.6745,200.8
327.8229,350.4
327.8876,107.9
328.015,953.1
328.0303,36.7
328.0942,323.4
328.1812,132.6
328.1966,507.1
328.2686,410.5
328.3666,137.4
328.4098,928.6
328.4205,340.4
328.4325,95.9
328.5859,160.3
328.6398,185.2
328.766,19
328.8143,45.8
328.8366,532.8
328.8712,283.9
329.0055,404.8
329.0958,1241.6
329.102,494.2
329.238,72.6
329.2866,525.9
329.2937,131.4
329.4698,22.1
329.5446,182.7
329.5658,138.7
329.579,239.3
330.0157,333.3
330.0593,125
330.069,24.5
330.075,442.3
330.0912,22.1
330.1398,202.2
330.1728,108.7
330.1786,254
330.3037,24.2
330.5469,159.8
330.5681,313.6
330.869,462.3
330.9568,646
330.9925,594.9
331.019,1073.8
331.0456,96205.5
331.0543,1103504
331.0606,3335.8
331.1001,305.3
331.1396,313.6
331.3176,98.4
331.5146,372.9
331.55,74.8
331.6623,124.8
331.7793,322.9
331.8201,319.3
331.8284,270.8
331.9814,460.2
331.9965,100
332.0258,215.3
332.0482,5629.2
332.0577,102177.6
332.0997,75
332.1256,283.7
332.1458,71.7
332.1514,384.5
332.1883,183.9
332.2335,269.6
332.3688,277.6
332.3893,129.9
332.4304,121
332.8087,188.8
332.8517,20.4
332.9488,819.8
332.961,941.1
333.0525,66943.4
333.0581,11247.3
333.1516,189.9
333.3242,106.6
333.3764,121.5
333.4136,444.2
333.5218,472.9
333.5634,107.8
333.64,153.4
333.6577,18.1
333.7518,433
333.7632,274.5
333.8166,21.4
333.8911,20
333.9973,170.8
334.0558,5053.8
334.0906,30.8
334.2313,181.9
334.4135,117.3
334.5634,705.9
334.7662,679.5
334.7805,141
334.8376,537.5
334.8806,329.5
335.038,275.3
335.0428,636.7
335.0801,478.5
335.1673,2165
335.3258,163.6
335.3757,23.6
335.4563,153.4
335.6281,96.2
335.672,497.2
335.7235,294.8
335.8324,92.7
335.8628,310.3
336.0157,761.6
336.0307,240.4
336.1706,215.7
336.1785,304.7
336.1953,82.3
336.2597,100
336.2856,19.7
336.4578,667.7
336.5739,98
336.7103,19.6
336.8025,20.4
337.0365,11504.3
337.0499,18950.1
337.0624,544642
337.1401,131.8
337.1831,1334.4
337.2172,131.5
337.2292,587.9
337.2741,3375.4
337.5458,148
337.5792,124.6
337.5942,179.4
337.925,318.8
337.9385,308.2
337.9512,275.3
337.9681,114.1
338.0502,216.3
338.0657,48897.3
338.0981,546.2
338.119,725
338.1864,29.4
338.248,563.3
338.3426,26
338.4581,736.3
338.7861,547.7
338.921,502.5
339.0385,1467.6
339.0462,130
339.0661,4285.6
339.0992,170.9
339.1991,84
339.29,7738.5
339.4149,471.5
339.454,397
339.546,114.4
339.6553,170.5
339.7655,306.6
339.9029,99.9
339.9671,555.2
339.976,1981.7
340.0364,589.7
340.0694,139.3
340.3552,400.7
340.3886,433.7
340.5345,485
340.5853,212.2
340.6979,181.9
340.729,274.1
340.7391,365.2
340.783,809.6
340.8259,333.5
340.9872,332.1
341.0183,21.9
341.1189,202
341.1721,130.5
341.3056,2364.1
341.3753,617.4
341.506,19.6
341.56,19.1
341.6669,95.9
341.8104,96.4
341.9767,284.1
342.0001,166.5
342.0156,6225.4
342.0521,580.9
342.2081,148.3
342.2496,295.7
342.3608,291.8
342.4491,146.7
342.5427,409.4
342.7677,18.2
342.8247,433.3
342.8864,325.6
342.9896,2085.9
343.0134,550.9
343.0255,704.6
343.0352,18.3
343.0868,96.7
343.1951,13830.8
343.2863,111.3
343.4314,582.2
343.5811,298.1
343.6082,523.6
343.7368,421.7
343.7552,536
343.8866,616
343.9131,704.3
343.9202,367
343.989,560.4
344.1981,813.5
344.367,333.8
344.5701,19.6
344.8657,489.7
344.9228,218.6
344.9559,123.2
345.1276,133
345.2107,553
345.2569,19.9
345.4367,634.8
345.5693,19.3
345.6023,233.9
345.7151,469.3
345.7403,392.2
345.9841,37634.2
346.0099,109.6
346.0206,767.5
346.0413,192.8
346.0777,430.9
346.3121,96.7
346.3333,307.7
346.3455,555.8
346.3726,19.4
346.4679,294.5
346.504,326.2
346.5589,482
346.6164,141
346.7262,417.6
346.8242,50.7
346.988,858.7
347.0178,2020.1
347.0451,24.2
347.1998,167.4
347.2277,19.9
347.2977,107.6
347.5153,187.8
347.5599,192.8
347.6731,120.3
347.7123,500.6
347.7637,412.1
347.913,340.7
347.9868,211
348.1294,246.2
348.3462,480.9
348.4812,206.9
348.5522,141.5
348.814,289.6
348.8273,286.8
348.9344,537.9
349.0101,192.5
349.0185,1582.9
349.0884,101.6
349.1303,18.3
349.16,110.1
349.1853,269.1
349.3234,94.4
349.3398,278.4
349.3523,76.7
349.356,75
349.5786,166.1
349.5953,144.9
349.8042,20.9
349.885,678.6
349.9422,347.7
350.1773,79.2
350.2607,347
350.4982,18.4
350.6627,441.7
350.8122,453.1
350.8996,1139.8
351.0137,289.4
351.0489,674.5
351.3969,350.2
351.5086,408.9
351.5393,152.3
351.5708,374.9
351.5946,161.5
351.6104,265.3
351.6841,337.9
351.732,191.8
351.9775,149.3
352.143,157.8
352.4264,21
352.4969,384.3
352.6042,216.4
352.6113,154.4
352.7714,257.1
352.8988,894.1
352.9278,19.8
353.0274,115628.5
353.0363,191902
353.1674,687.2
353.1997,211.1
353.5006,264.3
353.5583,25.9
353.6038,136.3
353.9128,104.8
353.9295,425.3
353.996,21.5
354.0307,7892.7
354.0396,17210.2
354.1846,18.5
354.1937,269.7
354.3461,334.1
354.3824,341.4
354.5054,153.1
354.5221,136
354.8995,117.1
354.9792,604.5
355.012,1157.7
355.0346,11759.6
355.0704,440
355.0884,508.4
355.1312,514.2
355.1593,323.8
355.1831,330.5
355.2831,129.5
355.3645,20.4
355.3824,356.9
355.3936,197.9
355.5465,386.2
355.6967,507.3
355.705,316.1
355.94,29.1
356.0048,467.1
356.0158,64.9
356.0418,1074.1
356.0618,32.1
356.1768,374.3
356.3819,19.3
356.4877,218
356.6256,115
356.777,378
356.8181,170
356.9264,18.1
356.9719,135.5
357.0091,280.2
357.02,327.3
357.0675,22.4
357.3828,412.6
357.4396,308
357.5845,83.5
357.5919,1209.3
357.6072,348.7
357.6164,377.7
357.6404,19.7
357.8498,398.5
357.9776,682
358.2861,115
358.6053,118.3
358.825,20.6
358.8911,20.7
359.0018,331.7
359.0076,161.7
359.0241,196.8
359.0318,12885.4
359.0444,320829.6
359.0925,609.9
359.1139,548.6
359.1673,943
359.4825,198.8
359.4882,332.9
359.5484,150
359.5666,462.1
359.58,101.4
359.5902,262
359.6025,828.5
359.6248,134.5
359.6323,23.1
359.6543,216
359.6622,470.5
359.6845,391.7
359.6983,482.3
359.7064,838.2
359.7176,448.7
359.7457,162.8
359.7531,121
359.8547,19.5
359.9401,69.7
360.0477,29212.9
360.0686,19.7
360.144,18.4
360.2667,341.2
360.2964,17.2
360.3245,87.6
360.8843,97.7
361.0132,371.8
361.0206,4825.2
361.0294,413.5
361.0484,746
361.1248,300.9
361.2296,102.8
361.2743,147.8
361.3762,489.3
361.3889,249.8
361.5972,18
361.6158,119.4
361.6689,204.3
361.7116,283.6
361.7259,20.6
361.7842,268.5
361.8238,161.3
361.9198,19.9
361.9579,10370.1
362.2085,352.5
362.2309,231
362.2532,217.9
362.2883,239.6
362.4075,20.4
362.4912,608.3
362.499,107
362.5186,21.8
362.6032,458.4
362.8199,72.8
362.9271,1640.7
362.9336,615.2
362.9728,97.5
363.0098,480.3
363.1188,189.8
363.2318,21.1
363.3008,86.5
363.4394,699.9
363.626,148.4
363.6395,591.4
363.6834,702.7
363.7481,106.1
363.7908,31.8
363.9986,1100.6
364.1394,571.4
364.1758,120.7
364.2175,214.5
364.24,143
364.2663,102.8
364.2808,92.6
364.4721,130.9
364.7023,285.4
364.9169,318.5
364.9245,462.5
364.9369,312.2
365.0994,113
365.182,279.4
365.2608,91
365.32,24.8
365.3756,76.3
365.7845,21.7
365.8479,202.2
365.9864,99.4
366.0784,96.3
366.2035,230.4
366.3653,539.1
366.4114,152.7
366.5441,855.3
366.7464,373.8
366.8147,119.1
366.8647,79
366.8732,582.8
366.9859,275.9
367.1226,333
367.214,19.3
367.2537,74.2
367.2604,182.4
367.4325,243.3
367.7237,393.5
367.9918,1036.6
368.0026,501.4
368.0671,86.6
368.0768,142.2
368.346,494.7
368.3942,104.4
368.4528,296.2
368.6307,139.3
368.6668,136.6
368.7927,935.7
368.9528,112.5
368.9924,2811.8
369.0013,12580.8
369.0102,6908.2
369.0987,97.4
369.181,22.3
369.192,204.3
369.2045,157
369.2754,323.8
369.3477,193.1
369.5084,132.4
369.5403,83.1
369.5621,533.7
369.5678,109
369.7207,20.3
369.7329,185.2
370.0605,104.1
370.1183,20.5
370.1815,427.2
370.246,306.2
370.4414,416.7
370.5424,87.3
370.6588,173.7
370.7097,118.3
370.8165,427.2
370.8675,708.6
370.9613,111.2
371,1652.1
371.0103,108.1
371.0237,349.3
371.0422,746.5
371.0783,863.6
371.2259,17.8
371.2475,94.1
371.5451,21.7
371.5689,184
371.8459,18.1
371.8714,110.1
372.166,191.9
372.2549,109.1
372.3485,515.8
372.3995,441.6
372.4852,534.2
372.5982,108.7
372.6061,98.2
373.1566,216.7
373.3167,21.4
373.5257,422.3
373.6866,229.7
373.715,355.8
373.8114,61.8
373.9498,71.1
373.9941,18.7
374.0677,264.7
374.5174,290.3
374.7354,935.2
374.8828,21.7
374.9075,100.3
374.9969,286.8
375.0094,119347.4
375.0183,95061.4
375.1108,180.8
375.1832,18.6
375.2798,258.7
375.393,196.4
375.4027,392.2
375.4422,22
375.6248,321.2
375.7701,116.6
375.783,156.9
375.9653,68.1
375.974,19.2
376.0127,8828.5
376.0217,8389.3
376.0464,129
376.1404,92.4
376.3703,290.2
376.4546,1110.9
376.517,115.6
376.6649,240.5
376.7033,416.1
376.7622,412.7
376.7996,116.6
376.9239,532.7
376.9744,570.8
376.9848,19.8
376.9943,745.7
377.0042,95.4
377.0168,4029.3
377.1109,116.3
377.3598,114.7
377.5148,179.4
377.5795,153.5
377.6156,17.2
377.6556,106.3
377.8055,28.7
377.9318,245.4
378.0195,193.2
378.2436,294.3
378.3349,111.8
378.5319,93.4
378.6007,21.8
378.6303,138.5
378.7147,362.5
378.8125,20.7
378.9013,994.6
378.9881,193.9
379.0509,139.8
379.101,21.8
379.235,141.2
379.3549,18.4
379.3922,490.8
379.4612,293.3
379.6027,18.5
379.9725,100.2
380.1711,383.8
380.1781,398.6
380.3824,532.1
380.5004,354.9
380.5413,19.9
380.7706,455.9
380.7794,421.8
380.8172,396.7
380.8297,20
380.8914,455.9
380.9397,19
381.0138,22928.1
381.0263,193297.3
381.0793,407.8
381.1285,96.7
381.1899,324.2
381.2625,19
381.2876,83.7
381.2952,532.7
381.3559,119.7
381.3987,266.2
381.4836,657.7
381.6142,166
381.827,81.1
381.9479,163.1
382.0122,19
382.0297,16690.6
382.0901,672.3
382.2045,170.4
382.5063,328.1
382.553,110.2
382.6085,16.5
382.7672,1374.1
382.8379,25.6
383.0108,512
383.0313,412.2
383.1166,138855.5
383.1845,457.4
383.3421,125.2
383.3442,115.6
383.4737,436.3
383.7428,153.2
383.8833,156.8
383.9117,71
383.9447,383.2
383.9658,2398.1
384.12,13333.1
384.1716,87.8
384.6802,96.4
384.7335,116.1
384.7645,615.2
384.8321,396.5
384.897,519.8
385.0376,1287.7
385.0967,612.2
385.1198,810.4
385.2973,109
385.3016,461.2
385.3581,186
385.6023,17.4
385.609,238.4
385.7581,126.5
385.9224,20.3
385.9449,22.1
385.9798,7431.6
386.1296,96.6
386.5057,284
386.6978,437.3
386.8959,413.5
386.9745,282.4
387.0031,1433.5
387.0154,701.7
387.1077,196.2
387.4525,426.7
387.4543,428
387.8204,426.9
387.8659,18.8
387.9516,18.1
387.9679,96.4
387.9786,1002.7
388.0039,140.1
388.1161,409.6
388.187,613
388.4154,154.2
388.4354,157.4
388.5242,653.1
388.6826,308.1
388.7124,704.5
388.7219,92
388.8102,17.8
388.8419,107.1
388.9721,368.9
389.0138,100.1
389.1843,436.9
389.3346,347.9
389.5073,581.4
389.61,115.2
389.7027,502.6
389.7204,530.8
389.8286,500.2
389.9302,262.6
389.974,35750.1
389.9837,121.8
389.9941,47.3
390.0873,470.4
390.0979,190.9
390.1326,21.9
390.335,318.8
390.4402,406.8
390.4456,256.6
390.6245,406.9
390.7102,607.6
390.7399,126.6
390.799,1260.4
390.8195,541.9
390.8439,873.9
390.8506,120.8
390.8608,776
390.8726,358.3
390.9121,20.1
390.9744,13679.5
390.9831,22115.9
390.9923,10505.8
391.0573,163.2
391.0838,278.2
391.5714,519.3
391.6209,278
391.6843,22.3
391.7003,93.3
391.9213,434
391.9862,766.8
392.0046,25.5
392.1182,517.9
392.1416,287.5
392.2627,23.6
392.288,110.4
392.3597,92.8
392.5036,491.3
392.6091,403.9
392.6897,316.2
392.7966,2731.4
392.966,308.2
392.9821,1785.2
392.9942,87.8
393.0842,117.6
393.2608,754.6
393.6725,19.2
393.8321,464.3
393.8722,165.6
394.1258,352
394.2173,214.5
394.2651,467.8
394.4814,17.2
394.5805,1042.7
394.7027,171.7
394.7433,633.9
394.7754,117.7
394.7939,551.4
394.8864,90
394.8961,382
394.9463,108.6
394.9669,124.8
395.5026,124.9
395.7578,154.8
395.8634,468
395.8723,20.9
396.0448,105.4
396.1536,200.8
396.2032,178.9
396.221,121
396.3566,116
396.3767,321.7
396.6272,381.3
396.6747,318.6
396.7441,949.9
396.8553,400.5
396.9913,173948.2
397.0002,61541.7
397.2578,347.4
397.2906,92.7
397.3077,694.6
397.3249,17.9
397.3794,156.4
397.4399,253.5
397.7115,138.2
397.7681,20.6
397.8633,264.4
397.9673,59.7
397.9946,13057.4
398.0035,2919.4
398.0881,417
398.2037,430.1
398.2295,169.1
398.2421,15098.8
398.2734,18.8
398.4373,22.9
398.5775,720.6
398.7119,147.6
398.7412,1966.4
398.7995,355.2
398.9029,85.5
398.9681,559.8
398.998,506.7
399.0308,204.9
399.2038,106.9
399.2382,21.8
399.2459,362.6
399.2628,91.7
399.4693,685.8
399.5441,471.8
399.7025,139.3
399.8295,177.3
399.8399,142
399.9413,109.8
400.092,686.1
400.2207,564.8
400.3454,181
400.5329,78.4
400.7385,2624.4
400.828,749.6
400.899,20.5
400.9381,21.4
400.9779,295.1
400.9844,354.7
400.9947,183.9
401.1183,432.1
401.1543,232.5
401.192,94.4
401.2069,315.8
401.2384,303.9
401.404,129.4
401.5111,570.2
401.5877,609.7
401.6716,317.6
401.8283,428.7
401.8754,114.3
401.937,403.4
401.9532,832.9
402.1189,20.7
402.1271,359.7
402.1364,677.7
402.3653,93
402.4707,138.1
402.6389,87.2
402.663,716.3
402.7355,429.3
402.8246,1743.7
403.0083,257011.5
403.0369,114.4
403.1688,163.3
403.3319,20.4
403.3666,108.1
403.476,291.4
403.6799,131.9
403.8206,320.1
403.8448,180.8
403.9426,123.4
403.9521,112.6
404.0115,23019
404.2828,23.9
404.5968,458.9
405.0128,1811.1
405.1858,79.6
405.6359,218.9
405.7938,475.4
405.8587,114.1
405.8926,320
405.9206,814.5
405.9368,170.4
405.9478,21129.2
406.0454,17.4
406.2636,112.2
406.313,285.4
406.3298,736.5
406.4563,349.8
406.4699,463.7
406.472,451.4
406.628,471
406.7733,1930.4
406.9072,133.1
406.9532,1371.7
407.0206,305.7
407.2235,317.6
407.3382,163
407.3625,725.4
407.6029,17.7
407.6462,81.5
407.8041,115.7
407.8126,215.5
407.9243,16.8
407.9463,154.8
408.1656,519.4
408.2092,262.3
408.3507,21.2
408.415,440.1
408.7702,2547.4
408.9572,121.2
408.9847,3269.6
409.0361,533.6
409.0656,287.4
409.3033,505.6
409.4624,256.1
409.5543,747.6
409.5718,120.1
409.7114,164.2
409.8364,18.4
410.2334,453.9
410.25,194.6
410.3242,90.1
410.37,599.8
410.4921,21.2
410.5787,104.6
410.717,499.5
410.8561,690.7
410.9586,22.2
410.9907,329.5
411.3184,19.5
411.3691,163.2
411.416,221.1
411.4508,514.6
411.4616,19.9
411.513,17.3
411.5291,19.8
411.6821,221
411.9284,24.4
411.9958,132.4
412.0986,657.7
412.3215,1672.9
412.3444,24.8
412.4194,131.8
412.5195,505.1
412.6109,107.7
412.7188,287.6
412.8549,489.5
412.8757,115.6
412.947,144.2
412.9648,39117.7
412.9741,8890.2
413.0112,355.6
413.0763,402.2
413.1385,116.2
413.2669,2840.6
413.3148,109
413.3258,357
413.4055,143.5
413.6951,216.1
413.7582,410.4
413.8436,243.1
413.9397,304.8
413.969,876.2
414.0375,147.4
414.0826,689
414.2704,273.2
414.6385,125.4
414.7158,578.5
414.7776,230.8
414.9519,118.5
414.9645,541.9
414.9982,1064.6
415.1614,343.9
415.2056,678.1
415.3119,231.8
415.977,29.8
416.1354,6579.7
416.2146,25406.3
416.2536,92.3
416.2996,108.5
416.3497,791.9
416.404,502.6
416.5537,129.2
416.5625,80.5
416.7124,381.6
416.7365,23.4
416.802,840.6
416.9459,264.4
416.9588,117.3
417.1365,360.2
417.2178,2785.1
417.2727,333.7
417.3256,18.8
417.5662,502.6
417.8079,400.2
418.4198,117.7
418.7806,519.2
418.7983,355.8
418.9821,88634.2
419.0694,114.6
419.1051,258.3
419.1787,423.7
419.2558,840.9
419.3586,19.6
419.5793,356.2
419.6073,165
419.6263,300.7
419.8164,525
419.8992,389.5
419.9853,3852.5
420.0007,41.4
420.1675,254.7
420.2939,114.7
420.6388,99.3
420.8488,366.7
420.8857,837.1
420.8939,96.6
420.9577,398
420.9804,2313.3
421.1181,20.9
421.2177,244.8
421.2466,216.2
421.3151,304.3
421.3242,370
421.3679,142
421.4813,703.3
421.5191,147.7
421.6089,291.2
421.9218,4326.3
422.0712,19.9
422.1258,110.6
422.1345,184.8
422.3945,184.5
422.455,438.9
422.4746,18
422.6834,350.1
422.9901,91.7
423.5271,101
423.8488,239.1
423.915,85.7
424.0213,336.2
424.1144,619.6
424.5265,349.3
424.6919,206.5
424.7456,781.4
424.8872,22.8
424.9413,432.8
424.9545,572.8
425.0286,32.4
425.4501,197.5
425.5772,124.7
425.7532,307
425.825,354.3
425.8363,225.8
426.5922,125.3
426.6041,317.3
426.6572,549.3
426.8157,194.1
426.9171,366.6
426.9322,110.1
426.9424,99.9
426.9685,177.4
427.0878,125
427.2297,467.6
427.2446,93.3
427.2498,179.3
427.472,332.7
427.5755,146.3
427.7109,121.3
427.7708,203.1
427.7996,23.2
427.9852,358.6
427.9974,21.7
428.0413,202.3
428.1548,299.6
428.3942,227.9
428.5639,297.2
428.5837,89.4
428.7152,22.7
428.7435,186.5
428.9378,6351.3
428.9583,532.1
428.9655,902.5
428.9889,429.9
429.0895,165
429.255,108.5
429.2972,214.3
429.3302,335.7
429.4372,79
429.4511,363
429.6117,531.7
429.826,76.2
429.9695,89.3
429.9846,135.3
430.1125,20.7
430.2493,422.1
430.8022,287.8
430.8211,256.2
430.8374,18.2
430.8511,126.9
430.8905,17.2
430.9144,1374.8
430.9493,170.1
430.9854,185.6
431.0878,20
431.2174,2183.5
431.2722,20.3
431.57,305.4
431.7357,191.8
431.7474,99.3
431.8086,109.9
431.8385,147.4
431.9494,234.9
432.1372,277.8
432.529,248.9
432.6958,451.6
432.9324,434
432.96,115.4
432.9836,19.1
433.2504,68.2
433.2616,374.1
433.349,245.9
433.4808,221.7
433.8213,21.3
434.2862,331.3
434.406,17
434.5577,99.1
434.6265,128.8
434.7238,314.9
434.9562,14535.7
435.3906,392.7
435.425,148.7
435.6478,175.7
435.768,575.8
435.7871,218.7
435.849,22.1
435.9599,348
436.0392,95.2
436.3049,100.4
436.369,260
436.5777,135.6
436.6002,121.2
436.8872,17.8
436.954,1213.1
437.0124,140.4
437.1658,503.6
437.2053,902.7
437.3889,112.2
437.6708,598.1
437.6835,102.4
437.9633,131.2
438.0852,100.8
438.2961,20.3
438.3615,305.4
438.9723,3517.4
438.9851,1996.1
439.0128,333.6
439.0791,18.3
439.2427,17.5
439.3471,452.3
439.4282,386.5
439.5199,376
439.6111,23.7
439.9374,390.3
439.954,113
440.2141,438.5
440.3399,243.5
440.4446,80
440.473,132.2
440.7275,401.8
440.836,144.4
440.9695,708.6
440.9825,204.3
441.1862,119.3
441.2986,337.8
441.7124,519.2
441.7465,16.8
442.0742,23.8
442.1427,521.9
442.3015,46.3
442.4664,478.1
442.7219,322.7
442.7443,121.2
442.8616,115.2
443.1492,293.7
443.1808,124.1
443.2406,164.6
443.4997,116.4
443.5367,130.2
443.9342,358.5
443.9727,83.7
444.2137,654.7
444.3866,162.9
444.5323,203.6
444.5941,166.9
444.8541,490.3
445.0333,126.6
445.2133,19.8
445.2326,2135.3
445.2571,409.8
445.4058,477.2
445.6146,397.3
445.9988,136.1
446.0409,377.4
446.2295,160.8
446.264,314.7
446.3061,147.2
446.4774,169.8
446.527,623.6
446.6583,27.3
446.6716,817
446.755,106.6
446.8059,198
446.8883,580.9
446.9356,228.7
447.3044,174.2
447.3262,106.1
447.6496,196.2
447.6664,18.9
447.7086,18.1
447.9327,1287.5
448.0558,22
448.3211,19.8
448.4951,20.6
448.5277,159.8
448.6329,144.5
448.6696,517.3
448.7499,21.8
448.8032,347.4
448.9329,6350.5
448.9433,387.7
448.9685,409.8
449.005,203.9
449.0156,86.7
449.0517,480.9
449.1546,2484
449.2353,138.5
449.6767,468.1
449.8949,20.6
450.1037,91.7
450.1582,479.5
450.3958,22.6
450.6116,121
450.7544,375
450.7787,151.6
450.9294,1368.3
451.0041,334.8
451.0109,102.6
451.1504,178.6
451.3618,182
451.4694,235
451.495,479.7
451.5057,198
451.6707,20
451.6918,24
451.7845,88.4
451.8369,486.3
451.933,394.9
452.2556,156.7
452.3108,295.3
452.3868,451.2
452.4779,20.1
452.5393,129.9
453.1694,307.6
453.3276,523.9
453.5135,93.6
453.53,211.8
453.6922,17.9
453.8129,119.4
453.9722,131.9
454.0142,335.6
454.0231,514.3
454.1503,95
454.3975,300.8
454.4833,136.6
454.6129,85.4
454.7031,326.3
454.9501,37394.2
455.227,401
455.4096,371.2
455.452,753.6
455.895,220.1
455.9533,2277.5
456.295,624.4
456.6216,452.4
456.6632,83.7
456.784,179.3
456.9108,316.8
456.9472,8318.5
457.2329,11075
457.3361,136.2
457.436,285.1
457.5223,215
457.6687,113.7
457.8812,230.4
457.9,20
457.9605,499.9
458.2363,2564
458.3823,261.8
458.4018,290.5
458.4296,122.8
458.5474,174.2
458.7811,108.6
458.9616,3702.1
458.9787,421.6
459.0042,383.7
459.0606,174.7
459.2487,355623.6
459.3018,89.4
459.7906,22
459.8563,89.1
459.9454,49
460.252,71132.7
460.2703,285.8
460.4132,236.8
460.6199,91.4
460.7346,125.4
460.9669,79713.3
461.2559,5187.2
461.6041,167.1
461.6214,408.7
461.6848,115.2
461.7099,201.1
461.8161,247.7
461.9702,5430.1
462.0428,120.5
462.2527,134.4
462.4554,209.2
462.6295,129.9
462.9639,21199.4
463.0872,163.1
463.2033,586
463.9669,751.2
464.3118,584.1
464.5276,18.5
464.6282,639.2
464.8061,600.7
464.8227,321.6
464.8359,129.9
464.9787,10000.5
464.9927,148.7
465.0565,397.2
465.0665,415.4
465.6014,144.6
465.7249,134.7
465.9817,341.1
466.0382,19.3
466.0608,533.5
466.2653,561
466.2861,152.7
466.3445,398.3
466.3697,178.7
466.4634,128
466.6029,169.4
466.6392,414.4
466.7301,501.7
466.7415,152.1
466.7438,158.1
466.7477,124.6
466.8638,221.5
466.9073,251.3
466.9934,410.6
467.0027,606.2
467.1136,373.2
467.3424,275.5
467.3789,267.6
467.615,20.8
468.0032,112.8
468.1046,132
468.2433,84.1
468.3094,1598.3
468.3777,423.9
468.7661,23.7
469.2276,113.4
469.3008,206.8
469.389,188.9
469.6009,304.4
469.6062,321.8
469.6652,198.3
469.7838,447.8
470.0912,79
470.1512,686.3
470.255,159.5
470.2846,145.8
470.6178,441.5
470.7407,359.1
470.746,437.3
470.7488,407.1
470.8532,25.2
470.9237,16864.4
470.9956,3889
471.0798,126.1
471.1137,87.1
471.2859,1090
471.5192,445.3
471.5594,237.6
471.7266,19.7
471.9254,355.9
472.0629,102.5
472.3047,1944.2
472.4935,136.9
472.719,204.6
472.8944,115.7
472.9085,151.4
472.921,4936.6
472.9354,809.8
472.9836,22.9
472.9978,140.7
473.0649,267.5
473.1498,192.3
473.1741,322.5
473.2644,5140.3
473.992,275.2
474.0099,425.3
474.0993,19.7
474.1105,613.8
474.1832,406.5
474.2668,210.4
474.3791,175.3
474.5766,295.5
474.59,168.5
474.8113,19.1
474.897,311.2
474.9722,278.4
475.0506,94.6
475.2226,18292.2
475.2445,556.6
475.2804,126.3
476.2259,1902.7
476.4078,143.9
476.7214,184.8
476.7396,73.1
476.7992,472.4
476.9408,42728.8
476.9573,175.3
477.214,131.1
477.4639,110.4
477.6943,169
477.7735,92.6
477.8685,204.6
477.9442,4657.6
478.0139,261.1
478.1398,20.6
478.3296,42431.4
478.5608,203.5
478.6957,274.2
478.7721,19.7
478.8366,295.6
478.938,13955.1
479.0755,23.3
479.0961,28
479.2799,510.9
479.3085,379.6
479.3108,351.7
479.3329,5372
479.6162,142.6
479.6441,171.2
479.7094,150.1
479.9031,111.5
479.9326,334.5
480.0628,195.4
480.3442,1038.1
480.6094,89.1
480.6565,143.4
480.7681,27.4
480.8328,305.7
480.8991,188.3
480.9347,692
480.9526,4230
481.0153,359.3
481.0387,415.4
481.0919,1927.3
481.1525,375.9
481.2332,1919.6
481.3164,428.6
481.808,610.9
481.8408,341.8
482.0955,349.1
482.1097,153.2
482.1259,108.6
482.1776,320.9
482.3255,184.2
482.4309,80.1
482.4953,397
482.5841,467.5
482.6335,82
482.8237,103.1
482.9817,600.1
483.0863,23.1
483.1288,539.7
483.2487,59895
483.8028,303.8
483.9176,18.3
483.9417,163.9
484.0304,422.7
484.0876,545.5
484.2519,10833.5
484.6611,81
484.6999,691.9
484.8431,114.3
484.8548,80.4
484.8718,207.6
484.9628,460.6
484.9941,154.2
485.0626,515.5
485.0872,27.2
485.1948,110
485.2644,106404.8
485.3031,182.6
485.563,377.9
486.1517,212.2
486.1946,93
486.2675,22779.8
486.3492,141.3
486.4037,603.2
486.4656,127.1
486.8985,1228.7
486.9691,822.9
487.0254,122.2
487.0962,94
487.28,75405.9
487.5241,159.2
487.682,123.7
487.6864,124.5
487.6908,134.7
487.7426,470.1
488.0057,106.6
488.0374,185.6
488.1291,721.8
488.2515,18.4
488.2834,16167.4
488.3805,135.1
488.4514,157.2
488.5959,293.7
488.6166,120.7
488.6553,284.9
488.6688,136.1
488.7434,401.8
488.8746,405.1
488.943,325.4
489.0965,106.4
489.2147,18
489.2375,208.5
489.2743,607.1
489.2858,580.7
489.309,123
489.3218,167.5
489.3267,150.1
489.3555,715.7
489.3885,459.9
489.3993,138.5
489.4326,593.8
489.478,197.2
489.5165,179.6
489.5325,238.7
489.5503,138.8
489.6058,443.7
489.8193,118.1
490.1101,126.9
490.2913,4323.6
490.6192,235.3
490.7728,493.6
491.1154,124.9
491.1288,19.1
491.2091,108.6
491.3442,235.8
491.3816,93.8
491.3919,102.2
491.4492,198.4
491.4792,120.5
491.7274,298.7
491.7752,22.5
491.9015,601.3
492.0471,23.1
492.2896,134.1
492.7085,455.5
492.9148,7544.7
492.973,276.2
493.0262,344.5
493.0747,291.9
493.0909,567.8
493.1096,400.3
493.174,474.9
493.1781,397
493.2488,743.2
493.2648,607.1
493.3715,97.2
493.3895,183.8
493.9195,976.2
493.9589,259.9
493.9996,239.8
494.233,975.2
494.3249,11234.2
494.3855,159.6
494.4082,160.9
494.6073,344.6
494.6268,173.3
494.7633,218.6
494.8363,204.4
494.8777,252.4
494.9121,2327.8
494.9457,161.2
494.9862,316.4
495.2734,395.5
495.329,603.4
495.4359,190.4
495.4803,565.1
495.6752,297.9
495.7594,566.3
495.7722,209.7
495.874,114.9
496.0528,136.6
496.0685,105.4
496.3403,403113
496.5914,19.5
496.6104,683.6
496.6416,272.7
496.6933,121.4
496.9309,1892.4
497.3436,101280.3
497.4006,107.7
497.4144,346.5
497.5635,176
497.6143,185.1
497.6249,484.6
497.6721,140.3
497.6991,248.8
497.774,498
497.8536,330
497.8656,160
497.9975,118.4
498.0088,245.7
498.09,18.3
498.1295,606.3
498.3469,7613.4
498.6853,271.4
498.9279,796
499.119,222.7
499.2231,3374.4
499.2745,626.2
499.2957,127.3
499.3466,564.8
499.4065,113.5
499.4686,294.7
499.7511,138.5
499.9208,463.5
500.0575,171
500.2538,142.8
500.3195,123
500.3781,132.2
500.681,506
500.8039,412.6
500.9853,570.2
501.0536,459.4
501.1193,143.2
501.1634,152.7
501.2104,186
501.2382,6659.1
501.2519,757.4
501.258,659.2
501.3767,25.4
501.5025,19
501.5913,120.9
501.6013,574.4
501.6965,528
502.0857,455.1
502.2137,155.9
502.2412,1919.1
502.3296,14590.8
502.6038,21.4
502.7938,472.2
502.8619,312.2
502.9312,194.3
502.9755,144
503.1065,27.4
503.2024,644.6
503.2164,24.4
503.254,2950.8
503.3202,167.8
503.333,2420.8
503.521,758.8
503.7998,316.6
504.0755,93.1
504.1078,23.1
504.1889,500.5
504.1993,265.4
504.2362,202.1
504.3071,3553.5
504.345,12240.1
504.392,130.6
504.465,100
504.7899,81.6
504.8478,18.1
504.8745,520.5
504.9167,673.1
505.0562,168.5
505.0953,135
505.3087,104.5
505.3492,946
505.3906,388.3
505.5391,618.2
505.5909,147.9
505.6937,351.6
505.8014,22.6
505.8911,184.3
506.136,224.4
506.2501,178.1
506.2639,1275.4
506.3238,306.4
506.3347,98.6
506.3608,4921.9
506.7769,129.4
506.8914,3768.5
506.9836,469.3
506.9921,105.9
507.2487,23574.3
507.3637,687.6
507.4752,155.6
507.8346,139.5
508.2021,270.6
508.2523,4707.2
508.3773,1408.7
508.4308,19.3
508.8891,1543.1
508.935,206.8
509.0051,5440.3
509.2645,8808.1
509.8783,302.4
509.965,194.8
510.0399,465.2
510.0727,22
510.1375,434.5
510.201,86.9
510.2663,1863.8
510.3557,6518.5
510.5204,132.6
510.5446,531.5
510.9384,85.2
511.0478,137.4
511.1247,35.3
511.1755,175.2
511.2557,121.7
511.3815,463.7
511.4845,762.5
511.5223,184.6
512.1843,441.2
512.4028,182.7
512.5294,149.3
512.6001,645.3
512.9086,17936.7
513.2085,111.7
513.2905,294.8
513.3227,85.2
513.3733,211.5
513.4004,414.9
513.49,216.7
513.6166,18.9
513.6276,18.8
513.7579,149.5
513.9214,359.8
514.5365,126.2
514.6491,486.8
514.6595,439.8
514.8677,333.4
514.906,10282.7
514.9576,19.4
515.0238,543.8
515.87,716.6
515.8945,187.4
515.9056,379.2
516.1911,171.6
516.3065,16478.9
516.3472,21.3
516.6559,529
516.7912,390.5
516.9044,366
516.9206,3934.4
517.3103,2139
517.3866,458
517.4672,122.9
517.6309,19.5
518.0539,134.8
518.1579,137.4
518.2506,21
518.3222,613688
518.3958,166.1
518.5006,22.6
518.7039,337.9
518.7885,534.3
518.9256,31811.8
518.9909,615.9
519.0988,673.3
519.1617,153
519.3255,148367.5
519.3899,505.9
519.4323,275.6
519.5413,564.7
519.7227,366.5
519.8114,137.6
519.9291,2568.8
520.0047,251.9
520.1733,111.9
520.3295,14064
520.3402,66932.3
520.8191,457
520.8344,162.2
520.9226,19966.5
520.9911,224
521.3023,90.3
521.3435,15206
521.6751,530.8
521.7702,124.8
521.7845,365.3
521.9246,286.3
521.9776,579.5
522.1417,385.1
522.2263,164
522.2711,216.1
522.3559,126986.5
522.6392,475.1
522.6771,128.2
522.7302,107.6
522.9187,1266.9
522.9373,6765.2
522.9703,376.4
523.0548,98.7
523.109,97.2
523.2591,465.6
523.3593,33420
523.8685,101.1
523.9934,95.4
524.0288,475.5
524.2057,347.9
524.2402,309.6
524.2501,149.4
524.2758,874.6
524.3069,371.4
524.3716,110178.6
524.3922,311.6
524.407,430.4
524.6872,968.6
524.9207,113.7
524.9341,530.7
524.9785,1382
525.0517,143.4
525.3028,121.3
525.3748,26445.9
525.509,109.2
525.956,182.2
525.9968,126.1
526.0722,199.2
526.2337,168.5
526.3297,4430.2
526.3793,1055.7
526.4581,117.9
526.5989,158.7
526.8498,464.7
526.9545,463.5
526.9769,207.9
527.0026,21
527.6131,265.7
527.6934,181.2
527.8513,431.2
527.9837,177.9
528.1692,321.4
528.2728,110.2
528.3452,1289.1
528.4214,143.7
528.593,129.6
528.6079,337.3
528.8823,7472.2
528.9547,1712.1
529.0229,165.7
529.2033,313.9
529.2618,939.2
529.2993,124.7
529.3566,333.7
529.4799,173.9
529.5453,348.7
529.8414,592.3
530.358,2801.6
530.7669,74.5
530.8525,188.4
530.8797,5683.8
530.9362,115.5
530.9529,343.5
531.1876,108.1
531.2948,123.4
531.3004,115.2
531.4236,206.3
531.5713,280.8
531.6247,80.6
532.094,311.8
532.1356,535.8
532.2802,2573.9
532.3378,12958.9
532.3754,739.5
532.4637,151.9
532.8774,367.1
532.9184,664.9
532.9664,2015.6
533.1275,274.4
533.2654,677.5
533.3413,686.7
533.4704,245.6
533.5102,126.8
533.5285,293.8
534.1233,255.8
534.2962,172637.5
534.317,1685.9
534.429,340.7
534.727,125.2
534.8994,17505.8
535.0547,410.6
535.2359,93.8
535.2996,39189.9
535.3179,736.4
535.3934,328.4
535.4463,92.4
535.5506,109.5
535.9025,1221.8
535.9149,326.6
535.9881,758.1
536.2135,333.6
536.2948,9185.2
536.4615,93.8
536.5588,97.9
536.738,493.5
536.8965,10893.5
537.0419,262.2
537.1793,270.6
537.2588,125.7
537.2973,821.2
537.4209,415.9
537.8439,154.1
537.8967,418.5
537.9501,200
538.017,297.5
538.0667,23.5
538.4455,134.7
538.7879,298
538.7926,355.3
538.8001,348.8
538.8934,635.8
538.9116,1800
538.9316,622.7
538.9437,334.3
538.9825,620.7
539.0218,556.3
539.152,125.3
539.201,113.4
539.2389,370.6
539.5427,19.3
539.8781,450.1
540.0278,94.6
540.0418,259.4
540.3062,640.4
540.5512,311.8
540.8512,21.7
540.9085,917.6
541.162,642.7
541.3968,107.8
541.4303,538.8
541.4428,20.2
542.2242,603.5
542.3222,101039.6
542.4552,890.9
542.4902,670.1
542.639,463
542.7963,242.4
543.3061,18.5
543.3256,23861.8
543.472,163.7
543.7804,318.2
543.8341,105
543.8908,337.9
544.0786,193.4
544.1516,378.9
544.2735,303.4
544.338,200210.4
544.7498,19.9
544.8569,379.1
544.9278,984.2
544.9496,1543.8
545.2028,183.7
545.226,120.9
545.2601,857.5
545.2917,156.7
545.3413,50582.8
545.4744,327.5
545.5072,218.7
545.5218,160.6
545.5444,166.6
546.1234,18.2
546.3535,151122.7
546.4538,369
546.7812,84.3
546.808,163.5
546.8278,439
546.8546,993.5
547.0064,413.2
547.2583,398.8
547.3569,36278.7
547.4757,508.6
547.5431,305.8
547.7826,441.6
548.1607,18
548.3109,1329.9
548.3606,1191
548.8275,552.7
548.9402,490.4
549.6058,315.8
549.7608,125.3
550.192,135.8
550.2915,780.1
550.3482,187.8
550.3824,538.4
550.4168,104
550.5572,679.4
550.6443,341.5
550.8729,3595.8
552.1079,377.8
552.1961,429.1
552.2371,123.7
552.7694,100.3
552.8704,3259.6
553.2633,432.4
553.4134,397.8
553.4544,608.3
553.4772,137
553.6757,539.8
553.7134,369.6
554.0555,97.5
554.1344,21.7
554.5175,376.3
554.6661,418.5
554.9235,155.4
554.932,163.2
554.9627,211.8
555.0978,402.8
555.1221,278.7
555.1407,237.8
555.1629,344.6
555.2434,175.2
555.3216,799.5
555.5357,135.6
555.5804,109.1
555.9787,409
556.124,219.4
556.1442,248.9
556.3006,507.2
556.3698,141.4
556.8342,547.3
556.888,343
556.9424,413.9
557.0441,157.5
557.1283,352.8
557.3103,243.4
557.339,19.4
557.519,311.8
557.6763,21.1
557.7348,23.2
557.8131,22.6
557.8445,109.9
557.8661,298.3
557.9089,773.8
558.0452,695.8
558.2962,27356
558.4525,293.1
558.5844,203.7
558.8836,302.5
559.0255,239.1
559.1345,121.6
559.2999,3293.4
560.0302,333.1
560.296,699
560.3119,51683.5
560.6991,165.1
560.8946,305.4
560.922,1365.9
561.2075,332.1
561.3155,11491.4
561.6732,302.6
561.859,84.6
561.8744,130.9
561.9439,26
562.0107,314.1
562.0857,439.4
562.2305,404
562.3104,644.4
562.3275,40269.2
562.3851,20.2
562.7033,290.7
562.7676,317.7
562.8114,158.1
563.2979,180.4
563.3308,8003.7
563.8683,366.7
563.9575,20.1
564.2786,154.5
564.3266,559.3
564.4737,18.1
564.5978,17.9
564.7701,82.7
564.8146,21
564.8508,1071.6
565.3765,673.8
565.8819,272.2
566.1566,341.8
566.3222,34206.8
566.5261,620.4
566.6002,233.5
566.7209,87.3
566.7985,24.4
566.8454,655.8
566.933,417.6
566.9635,1529.5
567.0867,123.3
567.3257,8855.7
567.4329,132.2
567.8354,604.8
567.8459,165
568.0461,123.7
568.3379,16160.6
568.6809,94.4
568.7079,124.4
568.7914,283
568.9147,195.5
568.9316,283.3
569.1039,462.3
569.3412,3102
569.4203,156.9
569.6286,105.7
569.6603,275.6
569.7938,102.6
569.9101,20
570.0865,222.7
570.3903,87.8
570.4378,377.6
570.5755,175.4
570.7348,204.9
570.8673,7379.9
570.9918,609.1
571.2011,434.9
571.2594,350.4
571.5034,307.2
571.7689,277.1
571.8036,377.7
571.8713,313.6
571.9621,527
572.6763,571.3
572.6891,165.3
572.7889,91.2
572.8646,6101.8
572.9808,372.7
573.0848,538.2
573.1357,306.2
573.1831,249.3
573.3823,20.2
573.442,89.8
573.4702,163.8
573.5377,128.6
573.5643,603.9
573.6805,99.7
574.1951,75.3
574.2841,2295.5
574.3053,141.6
574.4885,20.6
574.8612,486.7
575.5045,8934.2
575.6056,18.7
575.63,20
575.7871,309.6
576.2808,8397.9
576.5072,1811.3
576.5918,149.5
576.658,294.5
576.7986,142.4
576.8844,10545.3
577.0746,183.6
577.2068,480.8
577.2471,486.6
577.284,682.6
577.5205,1496.5
577.7401,581.8
577.888,511.6
578.2776,561.1
578.4342,150.3
578.8814,10386.9
579.0164,455.3
579.045,163.9
579.8438,355.1
580.0282,19.7
580.2073,248.3
580.2937,575.3
580.6445,165.9
580.7635,96.6
580.8016,89.9
580.8276,19.5
580.878,1809.2
580.8963,1375.6
581.0497,21
581.3329,318.6
581.8561,137.8
582.06,490.6
582.2122,500.1
582.2251,186
582.2724,161.2
582.2964,7937.6
582.3335,513.6
582.4543,19
582.5015,620.9
582.5526,506.9
582.5635,729.8
582.6048,404.4
582.6437,975.9
582.6527,410.9
582.6777,94.9
582.6969,652.3
582.7153,292.4
582.7622,78.5
582.8939,712.1
582.9348,156.7
582.9507,115.2
583.2556,1607.4
583.3006,1903
583.3911,21.1
583.4398,93.6
583.4816,417.4
583.7946,301.7
583.8315,78.2
583.8687,23
583.9482,171.1
583.9783,180.3
584.3104,2530.2
584.5079,427.5
584.9058,757.9
585.0036,106
585.1071,172.8
585.2712,4596.1
585.3166,172
585.6765,255.9
585.6952,524.9
585.8648,533.1
585.9521,219.7
586.011,133.2
586.2734,427.5
586.31,6418.4
586.373,482.4
586.7367,198.4
586.841,3149.8
586.9127,1811.2
586.9317,104.4
587.0625,150
587.1481,495
587.3125,681.5
587.9159,355.1
588.2056,630.3
588.386,101.9
588.422,312.2
588.5391,106.1
588.8384,2227.2
588.9098,717
589.2456,381.7
589.5444,229.6
589.5758,23.8
590.3218,2192
590.3801,297.9
590.6991,183.6
590.8336,316.8
590.8813,186.9
590.9254,1175.4
591.0177,246.8
591.03,346.7
591.1094,20.1
591.1326,20.3
591.8013,631.1
591.9001,326.3
592.0544,23.4
592.1548,331.2
592.2314,164.3
592.2541,342.5
592.3375,1128.9
592.3755,241.8
592.4145,341
592.8583,7048.5
592.9322,19.1
593.2702,134.3
593.5327,468.1
593.8648,347.8
594.4639,84.3
594.8554,7251.1
594.9684,501.6
595.2448,147.1
595.5011,584.8
595.7194,111.7
595.8542,274.7
596.0561,126.5
596.1553,130.5
596.2058,317.8
596.3715,353.2
596.4038,309.6
596.5013,264
596.6846,21.9
596.8521,2350.4
596.8692,871.5
597.417,22.9
597.4566,1458.6
597.4854,5582.6
597.8568,410.4
598.1923,459
598.4526,1134.7
598.4887,967.8
598.5297,464
598.6769,107.4
598.8655,375.2
599.0007,142.7
599.0445,492.8
599.1849,301.1
599.3239,584.2
599.3381,19.4
599.3518,200.5
599.4644,634.4
599.5029,3759.3
599.5654,403.1
599.5888,180.7
599.9398,177.2
600.0731,115.8
600.1505,365.3
600.2917,562.8
600.4653,266.6
600.489,218.4
600.6612,359.9
600.6874,572.3
600.7909,135.6
600.809,404.6
600.8669,21.1
600.94,262.2
601.4745,213.1
601.5193,705.1
601.673,313.8
601.7555,762
602.0009,314.7
602.3218,85.2
602.4028,122.2
602.5619,170.8
602.6178,93.6
602.8168,890
602.8848,345.5
603.0899,343.1
603.2304,155.5
603.4733,425.6
603.5327,700.9
603.7802,206.4
603.8247,150.5
603.9551,106.8
604.0485,481.5
604.2192,317.2
604.6145,21.2
604.8053,333.9
605.092,446.4
605.5745,168.5
605.8159,348.6
605.8431,383.7
605.8791,104.8
606.0574,87.8
606.0903,320.1
606.1524,326.2
606.404,157.5
606.8981,340.5
607.0819,520.8
607.1714,4789.7
607.2853,433.2
607.494,255.6
607.7837,349.8
607.957,214.2
608.176,362.9
608.8328,1200.8
608.8664,18
608.9402,87.8
609.7259,124.2
609.7949,21
610.0523,121.3
610.8297,2343.8
611.2036,470.9
611.24,835.8
611.2629,169.8
611.4568,176.3
611.6649,21
612.0683,158.3
612.3263,1296
612.8866,118.3
612.9715,473.8
613.019,86.4
613.066,142.6
613.3468,854.9
613.4365,618.7
613.6111,166.5
613.7,290.5
614.0272,305.5
614.2005,273.8
614.3095,577.2
614.8553,107.8
615.9624,210.1
616.0797,127.2
616.2605,325.4
616.2758,118.1
616.9726,82.4
616.9862,113.1
617.4748,1659.3
617.6291,149.5
617.7283,281.2
618.0166,109.6
618.2636,185.9
618.4777,403.4
618.642,105.7
618.8751,921.8
618.9779,132.3
619.3966,106.1
619.4305,115.6
619.4908,488.5
619.6018,295.6
619.677,23.5
619.7536,100.5
619.938,125.4
620.0407,296.9
620.0799,316.3
620.3629,139.5
620.5679,122.2
620.6928,385.7
620.7552,842.3
620.8985,184.1
620.97,91.7
621.0438,435.2
621.1754,464.7
621.2753,133.9
621.4386,234.2
621.4501,841.7
621.4631,637.5
621.486,4987.5
621.9773,683.2
621.991,544.6
622.3431,397.9
622.3941,270
622.4907,921.9
622.5897,113.6
622.9972,511.7
623.1365,18532.4
623.2927,311.3
623.4302,310.6
623.4671,1133.8
623.4866,422.8
623.5017,563.1
623.5508,20.4
623.8152,126.2
623.9691,336.1
624.1402,2167.9
624.4026,410.1
624.5032,348
624.855,561.1
624.8935,208.6
624.9244,360.5
625.0774,20.6
625.3419,103.2
625.4414,386
625.48,458.4
625.4842,473.1
625.5538,87.3
626.2378,183.7
626.3341,19.2
626.7081,19.4
627.0751,275.3
627.1322,652.2
627.1584,578.5
627.3593,356.3
627.3982,19.6
627.5026,76.6
627.5357,1197.5
627.823,327.9
628.1883,125.8
628.2864,129.2
628.3685,165.5
628.4027,181.6
628.5386,38.3
629.1533,39639.6
629.1772,258.7
629.3531,498.6
630.157,6771.5
630.2901,197.5
630.3631,21.7
630.5288,117.4
630.8222,335.7
630.939,530.6
631.0398,343.5
631.122,98.2
631.1587,522.2
631.5237,324
631.6469,89.8
631.6634,331.3
632.0587,128.7
632.8632,302.3
632.9066,489
632.9637,115.3
633.1732,121.9
633.2671,123.4
633.3323,104.3
633.4483,369.6
633.6292,171
634.4463,388.4
634.6819,148.5
634.8433,2574.4
634.9197,140.4
634.9584,712.7
635.3204,663.8
635.7266,19.3
635.7822,20.2
636.1689,117.6
636.6638,22.2
636.6902,747.4
636.8399,2948.8
637.1146,21
637.2341,87.1
637.2492,515.9
637.3719,128.6
637.5647,187.8
637.6778,334.3
637.7838,106.1
637.8075,570.5
637.8425,187.2
637.8535,514.6
637.9429,148.5
637.9757,198.4
638.0603,141
638.1016,827.9
638.4264,231.2
638.4519,618
638.835,378.7
638.8531,439.2
638.9986,483.5
639.2037,114.2
639.4867,130.7
639.8245,84
639.9146,347.4
639.9736,92.1
639.9927,140.5
640.2455,294
640.4444,462.1
640.6309,370.4
640.8128,126.8
641.0581,89.8
641.2012,589.5
641.2857,732
641.3816,333.6
641.4243,129.5
641.4733,87.8
642.1463,18.8
642.2107,473.1
642.3874,99.3
642.4591,19.4
642.7148,244.7
643.004,20.7
643.2852,20
643.4728,529
643.5459,97.6
643.654,307.1
643.7685,94
643.8121,207.4
643.9412,120.4
644.5061,479.8
644.564,115.5
644.6956,208
644.8709,465
644.9167,575.4
644.9424,155.4
644.9898,99.1
645.0287,277.7
645.1182,14444.1
645.2242,82.4
645.321,973.8
645.462,209.2
645.4841,520.9
645.5548,407
645.9606,310.8
645.9786,692.4
646.0939,112.7
646.1216,1657.8
646.1562,112.9
646.1873,171.6
646.3279,140.6
646.3774,121.3
646.7914,328
646.868,757.8
647.0933,250.5
647.7159,88.7
647.782,280.8
648.0277,84.8
648.3361,7248.3
648.3849,1717.3
648.4109,177.1
648.6436,111.6
648.8474,123.4
648.9084,346.9
648.9879,184.3
649.2016,172.4
649.3376,255.9
649.4791,538.1
649.4957,227.6
650.2701,202.4
650.2947,382.7
650.4399,2706.9
650.4702,683.8
650.4995,568.8
650.8166,2222.5
651.1353,40656.2
651.3339,91.4
651.4436,215.7
651.5587,81.4
651.6061,324.3
651.8185,420.8
651.9293,307.1
652.1389,7528.9
652.5455,19.4
652.7638,133.3
652.8138,4026.1
653.1116,253
653.1419,544.1
653.6782,172.5
654.1066,452.3
654.2644,128.4
654.5425,90.3
654.5686,351.7
654.5837,440.5
654.6083,387.3
654.8134,871.3
655.0377,389.9
655.2754,188.7
655.3931,338.1
655.7205,73.1
655.7762,178.3
656.0862,327.9
656.1869,561.5
656.2997,365.3
656.802,85.4
656.8256,144.8
656.8452,324.5
656.9649,97.3
657.2291,548.1
657.3257,1516.8
657.9358,18
657.9957,103.4
658.363,18.4
658.4286,780.4
658.4985,150.4
658.7853,19
658.9885,174.9
659.27,20.9
659.3282,154.6
660.0196,120.9
660.0827,4198.2
660.1829,702.2
660.4414,149.2
660.5149,461.2
660.6497,429.7
660.7712,448
660.7967,113.3
660.8199,120.9
660.8484,313.4
660.9262,493.6
661.0828,6858.7
661.4688,570.1
662.2332,294.7
662.5097,81.5
662.5323,177.6
662.7238,149
662.7621,90.7
662.8105,135.8
662.958,490.7
663.0913,104.4
663.1685,20.7
663.2039,19
663.3026,218.1
663.4555,972.3
663.8626,21.4
663.9299,456.9
664.059,127.3
664.1907,91.6
664.4675,2658.2
664.5668,148.8
664.5916,145.9
664.7031,357
664.7701,299.1
664.9224,574.3
665.1619,555
665.6545,19.4
665.7678,650.8
665.7755,658
665.8318,688.6
665.8862,114.2
665.9455,24.5
666.3871,132.7
666.4839,6222.7
666.5633,262.3
666.609,324.2
666.7928,471.8
666.9364,165.9
667.0999,19833.4
667.252,88.9
667.444,214.7
667.4866,929.9
667.6234,280.7
667.9766,304.4
668.1042,2111.5
668.1976,100
668.5455,637.4
668.7889,582
668.8365,341.3
669.1054,141.2
669.2946,19.7
669.5268,126.2
669.8733,24.5
670.3202,584.3
670.5949,587.4
670.785,476.7
670.8984,438.3
671.1761,539
672.1127,129.2
672.3915,121.1
672.4214,1605.7
672.5035,490.3
672.657,434.1
673.0635,183.2
673.0687,176.6
673.1173,46908
673.3274,216.5
673.5289,664.9
673.6367,558.1
673.9127,396.7
674.1208,7781.4
674.2364,20.6
674.4212,340
674.7592,133.1
675.1241,540.9
675.1653,319.6
675.5444,10382.2
675.693,819
675.9621,232.4
675.9923,243.2
676.0092,178.7
676.048,5098.6
676.5473,2500.7
677.0529,521.7
677.1505,20.6
678.0489,396.1
678.0688,120
678.4732,810
678.5402,112.9
678.7709,98.6
678.847,160.4
678.8615,297.2
679.0574,95.9
679.1204,466.9
679.2788,467.8
679.402,474.8
679.4349,923.5
679.5141,128.4
679.5976,530.2
679.715,737.7
680.0688,386.4
680.2123,507
680.9735,833.9
680.9813,854.1
681.1045,81.9
681.6393,97.7
681.7323,127
682.0094,94.5
682.065,15069.5
682.8398,504.1
683.0655,5743
683.0967,21.2
683.2924,351
683.323,242.7
683.4828,173
684.3823,185.5
685.0758,429.1
685.1534,220.1
685.3503,708.2
685.4361,6064.2
685.6722,186.1
685.7634,23.9
685.8062,498.2
686.1366,20.9
686.382,407.8
686.4177,104.9
686.4392,875.7
686.4854,324.1
686.9769,391.9
687.0364,112
687.0441,113
687.0513,131.5
687.1442,26.3
687.3665,426.3
687.6121,426
687.7441,21.1
688.412,707.2
688.4636,166.7
688.7962,116.7
688.9526,104.5
689.0818,15330.4
689.1652,21.6
689.5608,3661.2
689.6131,436.2
689.6429,22.7
689.7838,394.7
690.0951,1264.6
690.4215,798.1
690.7245,18.9
690.7418,688.1
691.0875,147.7
691.448,82.3
691.9593,23.1
692.1461,449
692.665,293.5
692.8026,293.1
692.8262,22.3
693.1253,442.6
693.2331,108.1
693.5256,151.3
693.5853,104.8
693.618,421.7
693.865,19.2
693.9739,134.6
694.0378,216.1
694.0709,134.6
694.3135,207.1
694.4929,157.5
694.6519,222.9
694.7384,190.1
694.798,407.1
695.0993,31264.7
695.1885,160.6
695.2842,722.3
695.4683,285
695.5102,1162.6
695.5554,531.6
695.8634,195.8
696.1028,5274
696.9003,134
697.0995,138.7
697.1819,567.1
697.5265,14702.2
697.5979,84.2
698.0292,3219
698.5306,2861.7
698.6915,21.7
699.182,347.6
699.2758,142.5
699.3699,333.9
699.4936,99.3
699.5625,647.7
699.7553,97.7
700.4963,166.7
700.8782,312.3
700.997,19
701.0348,135.7
701.0643,265.9
701.1872,125.7
701.2055,158.3
701.3518,467.7
701.4088,353.6
701.5602,26949.3
701.6353,347.6
701.7413,180.4
702.0561,100.4
702.2676,454.1
702.3429,2850.3
702.413,374.4
702.4327,480.6
702.5638,9936.8
702.6616,95.8
702.7029,203.3
702.994,728.3
703.2435,223.6
703.4352,107.7
703.5133,318.6
703.5758,89727.7
703.8837,380.5
704.0468,8317.1
704.4476,968.6
704.5793,35208.3
704.7018,350
704.7363,470.5
705.0574,3255.1
705.0971,303.6
705.258,19.2
705.282,95
705.3985,86
705.473,91.5
705.5822,5086.9
705.6677,484.8
705.8332,223.5
705.972,92
706.0249,491.3
706.0502,82.3
706.5379,2213.4
706.7538,749.3
707.0572,152.2
707.1493,611.8
707.6188,95.8
707.7283,347.5
707.7879,166.7
708.0183,301.6
708.074,327.4
708.1871,422.4
708.6397,130
708.6619,92
708.7471,163
709.0017,131.3
709.1714,185.7
709.2062,254.5
709.2394,506.3
709.4385,119.7
709.4899,349.4
709.5886,20.2
709.668,140.4
710.5212,24
710.5392,144.8
710.7725,884.9
711.0634,9320.5
711.0741,11776.7
711.3461,349.2
711.4339,539.2
711.5424,2694.2
711.7348,116.7
711.8378,485.3
712.0783,610.5
712.3908,459.1
712.7699,453.9
712.7849,214.4
713.0415,143.3
713.0927,586
713.3069,161.6
713.4329,340.5
713.5017,760.3
713.5231,22.7
713.7594,21.6
713.8532,456.4
713.9568,424.6
714.3551,134.4
714.3995,413.3
714.7178,105.2
715.0005,140.9
715.0488,193
715.2008,493.2
715.4922,386.3
716.1002,450.4
716.2052,107.5
716.2617,93.7
716.7768,17
717.0485,233.1
717.081,15284.9
717.2407,180.3
717.2592,462.5
717.331,685.3
717.5921,516.8
718.0398,110.3
718.0805,1324.3
718.389,312.6
718.5761,599.9
718.6437,113.3
719.0612,149.6
719.1569,106.3
719.327,226.6
719.4599,866.1
720.0221,3193.3
720.1508,409.3
720.2818,416.7
720.5775,145.4
720.5949,100.9
720.652,168.1
720.892,346.2
721.0209,113.8
721.1237,19
721.3391,401.6
721.4788,35485.3
721.5183,80.5
721.6188,99
721.8706,520.6
722.0601,387.4
722.1968,127.9
722.4812,13063.2
722.5285,333.5
722.6046,758
722.765,320.9
722.8187,115.1
723.4955,14088.4
723.5421,25184.2
724.3251,852.1
724.3915,117.4
724.4995,1746.8
724.5455,10905.8
724.6011,341.8
724.7225,421.4
725.1056,346.9
725.5579,81008.9
725.6011,98.7
725.8373,444.1
726.0294,4218.4
726.5052,1479.5
726.5613,32954.4
726.8531,464.9
727.0269,2019.3
727.4021,20.8
727.5633,2741.3
727.7285,506.3
727.9077,19.8
728.3949,20.4
728.5215,2049.9
728.7182,132
728.9691,134.1
729.0758,95.1
729.4772,124.7
729.5921,7137.5
729.7705,315.7
729.915,147.6
730.1977,105.7
730.256,958.4
730.4007,537.2
730.4475,661.3
730.5391,7939.5
730.5937,1382
730.7129,19.3
730.9258,490.9
731.4699,272.8
731.5432,856.3
731.6074,3856.8
732.1056,139.2
732.3653,171.1
732.4704,435.8
732.5548,55312.9
732.6107,2397.3
732.982,308.5
733.0451,4316.8
733.0568,5440.1
733.1631,428
733.1966,137.6
733.4702,733.6
733.5582,21367.7
734.0482,341.9
734.1094,127.7
734.2051,19.3
734.5715,8296.6
734.7352,94.8
734.9066,107.7
734.9772,98.7
735.0509,372.6
735.0933,164
735.575,1195.1
735.6157,179.5
735.8448,22.2
735.9249,473.1
735.9849,97.6
736.0046,19.2
736.242,161.7
736.314,184.6
737.1905,382.9
737.263,656.5
737.4529,6272.3
737.478,232.2
737.6748,309.6
738.2188,240.5
738.4534,316.2
738.8841,255.6
738.909,165.5
738.9389,1159.1
738.9509,1289.4
739.063,9175.1
739.259,127
739.4688,247.7
739.5159,2325.1
739.6286,147.9
739.7538,341.1
739.8702,100.9
740.0679,571.6
740.2687,126.3
740.4658,419.9
740.5198,1944.1
740.9308,1261.1
741.2292,466.6
741.4717,491.4
741.5315,8534.1
741.6064,186.4
741.6935,329
742.0048,790.3
742.2075,165.8
742.3273,386.7
742.4229,472.8
742.5359,4400.8
742.5757,4019.4
743.0144,72.8
743.2564,187
743.4637,700.4
743.5121,207
743.5797,565.3
743.8334,294.8
743.8856,307.7
744.2923,536
744.4443,203
744.5547,4334.5
744.5915,4975.6
745.104,112.4
745.123,456.1
745.3017,292.9
745.4786,26524.4
745.5949,695.3
745.6239,418.8
745.987,98.6
746.1055,117.6
746.1334,133.7
746.161,216.1
746.4471,385.1
746.4833,9558.3
746.5712,7365
746.6078,3300.2
746.8284,90.4
747.0854,560
747.181,219.9
747.4949,7930.7
747.5374,543.3
747.5747,2217.6
747.6114,866.9
747.8918,104.3
747.9893,89.1
748.0113,1362.4
748.4976,1704.9
748.7487,149
748.9274,362.3
748.951,413
749.0108,1456.7
749.3215,129.5
749.5097,1488.1
750.0881,570.2
750.1775,424
750.3097,124.3
750.5121,571.6
750.5621,453.9
750.6722,314
750.8294,140.1
750.85,330.8
751.5741,5598.8
751.7513,212.1
752.1244,310.3
752.3686,114.4
752.4843,343.1
752.521,6933.5
752.5709,696.6
752.7817,590.8
752.8139,110.1
753.0235,85.3
753.1207,78.8
753.5228,870.1
753.5706,83.1
753.5904,1258.7
753.7878,250.4
754.2744,201
754.3028,435.4
754.4582,276
754.5373,44075
754.6556,631.6
755.0259,2356.8
755.039,3059.8
755.2289,581.4
755.2889,613.2
755.5404,18486.2
756.0309,571
756.3146,159.9
756.3746,149
756.5548,50717.9
756.7555,324.2
757.2583,424.4
757.4645,474.7
757.5581,21891.1
757.6234,1937.7
757.7299,475
757.9603,113.4
758.0073,255.4
758.4021,331
758.4894,156.4
758.5707,762771.7
758.78,84.6
758.8096,351.8
759.4938,91.2
759.5741,338813.2
759.6383,393.9
759.8023,116.1
759.9905,279.8
760.0484,107.5
760.389,114
760.4997,21.6
760.587,416432.6
760.6401,476.1
760.9995,409
761.0457,3586
761.1295,135.9
761.4523,3471.5
761.486,133.3
761.59,193511
761.6456,702.2
761.7002,114.9
761.7564,87.1
761.9008,247.4
762.177,20.4
762.4086,443.8
762.4536,1022.5
762.5471,469.2
762.5929,43376.6
763.0199,568.1
763.1917,344.3
763.2078,20.4
763.5371,315.5
763.5948,3481
763.6142,110.6
763.7166,19.1
763.8039,244.3
763.8624,112.2
763.9734,153.7
764.3156,226.2
764.4492,602
764.557,1334.4
764.699,332.1
764.778,165.5
764.9786,555
765.4936,22.6
765.8393,302.6
765.9653,830
766.1585,19.6
766.3636,286.3
766.5374,1851.5
766.5753,23848.9
766.7244,101.8
766.8998,122
767.3317,190.3
767.4047,630.4
767.5793,7614
768.0452,974.8
768.1448,83.1
768.2046,517
768.4234,462.7
768.5533,7226
768.5916,30401.5
768.6308,101.2
768.7307,291.9
768.9371,442
769.0259,755.2
769.4791,2586.8
769.5552,595.9
769.5951,13797.4
769.8107,608.8
770.1984,311.1
770.4765,19.7
770.5106,5582.1
770.5698,1590.4
770.5866,113.8
770.6089,2485.9
770.7389,481.3
770.8902,175.6
770.9929,6093.3
771.1887,125.7
771.4461,143.7
771.4948,1809.7
771.9974,520.4
772.0212,507
772.1163,154.1
772.4998,90.1
772.5218,218.5
772.5867,18626.7
772.6225,511.2
772.8729,357.8
772.94,189.8
773.1596,567.2
773.3805,122.4
773.5108,2836.4
773.5639,451
773.5894,4355.9
773.6245,128.3
773.8167,168.8
773.9424,559.3
774.2472,322.6
774.3489,295.5
774.4387,168
774.5501,146.1
774.6027,3446.7
774.6863,91.4
774.8272,133
775.3338,18.9
775.5644,112.5
775.6039,1017.5
776.2502,168.9
776.4168,773.4
776.5206,3623
776.8267,287.7
777.01,5139.3
777.2485,100.7
777.3246,628.1
777.5222,800
777.5448,625.3
777.5711,494.2
777.974,79.4
778.3178,383.7
778.34,125.5
778.5371,29227.2
778.8116,180
779.0951,2157.7
779.1974,157.8
779.5406,14106.9
779.9406,1068.8
780.0228,132.5
780.1666,844.7
780.5528,476231.9
781.0256,194.2
781.5562,226192.9
781.6747,175.6
782.0493,170.6
782.2639,173.5
782.4667,115.9
782.5702,647987.3
782.6046,383.6
782.6485,358.5
782.7249,100.5
782.8893,362.8
783.0275,4563.5
783.0951,149.1
783.5735,302805.9
783.6398,420.7
783.6628,20.3
783.924,24.9
784.4646,93.5
784.5871,291757
784.717,462.8
785.1683,114.9
785.2975,253.8
785.3402,74.2
785.5901,148260.8
785.6546,3416.4
785.9798,18.9
786.5099,442.1
786.6028,194023.6
786.6578,1337.2
787.1341,21.3
787.4678,390.8
787.5159,114.6
787.6057,96609.1
787.6617,520.3
788.0627,777
788.5577,6422.6
788.6052,12965.7
788.6211,17488.5
788.6732,175.7
788.7025,83.2
788.8217,323.5
789.1611,137.1
789.544,1269.9
789.6223,8885.9
789.8218,320.2
790.0235,566.5
790.1421,170.1
790.5737,13306.7
790.6252,508.1
791.0552,845.7
791.5766,1795.9
792.0631,1030.8
792.2468,106.8
792.5466,511
792.5661,350.4
792.5916,8851.1
792.9539,604.8
792.9831,457.2
793.5952,2502.7
793.9804,249.9
794.51,2117.9
794.5686,5596
794.6072,34399.3
795.5841,269.9
795.6104,17233.4
796.0628,140.8
796.5265,87949.3
796.5862,9041.1
796.6245,4939.1
796.9825,20.3
797.1896,264.5
797.5299,37956.9
797.5886,1645.8
797.6252,1029
798.5429,38174.1
798.6041,610.7
799.0036,816.9
799.1496,948.3
799.4388,387.5
799.5456,12274.2
799.5717,21.9
800.1307,124.4
800.2676,912.9
800.4729,20.1
800.5521,634.3
800.6297,336.7
800.6486,603.5
800.6886,19.6
801.153,113.3
801.2285,128.2
801.2872,76.5
801.8786,343.8
802.5369,32756.9
802.6515,327.1
803.5407,12050.6
803.6534,460.9
804.5527,274132.4
805.201,1112.1
805.418,19.8
805.556,128192
806.1838,126.3
806.2813,779.4
806.5698,238230.1
806.7506,21.3
807.1489,355.3
807.3612,139.7
807.5728,119636.1
807.6385,157.3
808.3542,170.5
808.5861,191963
808.6273,497.6
809.0127,544.4
809.2206,728.6
809.5333,180.2
809.5891,94899
809.6573,449.3
809.7901,106.9
809.834,17.8
809.957,94.4
810.007,413.8
810.0931,21.6
810.116,542
810.2509,191.4
810.6027,125305.9
810.8312,121.6
810.8562,164.1
811.0551,104.2
811.2545,736
811.6057,69067.5
811.6702,8363.1
811.9282,355.5
812.3416,249.9
812.6201,25281.5
812.6732,2050.5
813.0691,331.6
813.3403,165.5
813.4194,239.2
813.6222,12763.3
813.6865,7570.6
814.0504,319.7
814.2829,262.8
814.3804,307.9
814.5728,1002.8
814.622,763.1
814.6568,432
814.6899,3306.1
814.9248,163
815.6059,156.2
815.6966,176.5
815.752,522.8
815.8256,189.7
815.926,442.1
816.2532,149.5
816.2906,175.9
816.3168,299.2
816.39,20.1
816.5892,13194.9
816.9782,661.8
817.1672,20.4
817.279,352.2
817.5916,1255.2
817.6388,320.8
817.7339,126.8
817.7778,110.5
817.993,514.8
818.0548,117.2
818.1183,686.2
818.2711,149.6
818.4117,709.7
818.4461,694.4
818.5108,4181.9
818.5695,293.1
818.6067,2118.5
818.8126,671
818.946,205.9
819.0585,212.7
819.3728,156.6
819.3949,424.4
819.6094,179.2
819.8648,123.6
820.1046,82.6
820.1349,193.4
820.2396,88.9
820.5266,50241.9
820.6238,248.9
821.2759,597.3
821.49,180.7
821.5296,24838.4
821.7294,549.2
821.9541,231.6
822.1256,19.7
822.5432,26770.3
822.5994,436.7
822.6453,226.8
822.7837,575.3
822.9072,130.6
823.5059,487
823.5457,12892.9
824.0124,129.8
824.1387,22.1
824.3318,166.5
824.3621,561.6
824.3944,830
824.5584,13366.4
825.4775,283.3
825.5616,3395.4
826.1108,105.6
826.3391,170.3
826.5366,667.3
827.5833,452.1
827.704,90.2
828.3646,148.8
828.5527,56254.5
828.6686,152.5
828.7227,170.7
828.9238,83.9
829.2222,510
829.5558,27663.7
829.6992,1211.4
829.8234,1723.1
829.9521,324.1
830.0804,102.9
830.2605,23.2
830.4297,383.6
830.5691,59357.3
831.1547,404.4
831.4334,695.9
831.5718,26207
831.6962,419.4
831.8003,526.3
832.007,566.7
832.5051,90
832.5849,60966.6
832.9474,167.8
833.1051,476.1
833.5883,30513.1
833.6535,812.9
833.7466,398.7
834.0772,119.8
834.6024,23618.2
834.6612,100.7
834.9988,265.2
835.6054,11599.1
835.6697,1472.3
835.7363,551.8
836.1421,442.9
836.1891,363.4
836.2693,109.6
836.5728,208
836.6195,3699
837.6204,1043
838.3275,553
838.5111,537.8
838.5304,75.3
838.8702,141.8
839.1344,125.1
839.2508,105.3
840.0434,359.6
840.1748,347.1
840.5624,360.7
840.7387,1490.5
840.7634,211.1
840.7954,805.6
840.8967,19.7
840.9886,279.2
841.5887,20.4
841.9453,434.9
842.0518,706.8
842.5126,416.8
842.603,691.1
842.639,95.5
842.6995,765.6
844.3779,104.3
844.4256,312.4
844.526,9258.7
845.172,540.7
845.5283,916
846.0931,137.3
846.3503,122.8
846.5427,9609.8
846.8941,315
846.9701,115.3
847.1749,166.8
847.5443,2369.1
847.692,326.1
847.8042,18.5
848.559,7106
849.0481,187.7
849.0686,643.9
849.5627,1385
849.6597,92.5
849.8723,100.9
850.0921,664.5
850.2736,152.1
850.5567,560.4
850.7154,247.7
850.7695,117.3
850.8459,92.2
850.9491,287.4
851.0722,1326.9
851.4565,148.7
851.5399,294.7
851.5835,536.9
851.8318,73.6
851.9954,147.7
852.0813,145.8
852.0909,137.5
852.2173,554
852.2758,277.6
852.4623,92.9
852.9783,174.2
853.0141,97.3
853.1304,358.4
853.3142,125.3
853.3542,155.4
853.4447,172.5
853.9645,137.7
854.5666,742
855.1354,114
855.1588,164.7
855.1943,367.5
856.1203,2357.7
856.5013,101.3
856.5844,3211.7
857.142,174.2
857.2035,139.3
857.3028,107.9
857.5891,234.3
858.1418,186.3
858.281,147.3
858.8602,266.9
858.8966,147.1
859.4495,162.5
860.5386,132.4
860.5883,92.9
861.4584,316.8
861.6107,689.7
862.0398,162.2
862.1388,602.5
862.4643,423.1
862.541,732.1
862.8122,246
863.2771,101.3
863.4125,142.1
863.8977,384
863.9737,608.2
864.7514,785.5
864.7992,372.3
864.9847,123
865.4702,184.1
865.5526,408.9
865.9668,21.7
866.0376,225.2
866.1766,364.3
866.3023,345.9
866.4529,1147.6
866.6419,21.3
867.17,166.1
867.4453,306.7
867.6051,141.6
867.7058,90.4
867.8832,224.5
868.2209,389.5
868.3251,211.2
868.5205,1175
868.7852,1035
869.3908,463.8
869.54,23.9
869.6985,100.1
869.7674,544.7
869.8079,367.8
869.8644,490
869.9294,671.2
869.9678,1145
870.0143,1025.3
870.0496,1142.5
870.0849,939.6
870.1426,2015.1
870.1829,1515.4
870.2126,638.2
870.2235,622.5
870.2503,2550.2
870.276,2725.5
870.2958,3748.4
870.3335,1666.4
870.388,1220.6
870.457,869.2
870.483,306.5
870.5548,961.8
870.5968,224.7
870.6994,143.7
870.7521,327.1
870.8514,331.8
871.1618,312
871.3222,18.9
871.4065,480.3
871.4686,336
872.032,831.3
872.0641,412.7
872.1299,791.1
872.2368,118.9
872.3777,478.6
872.5488,140.2
872.6998,374.2
872.8943,298.6
873.0358,530.7
873.561,302.6
873.7578,83.7
873.7692,111.8
873.7759,119
873.805,281
874.277,329.6
874.507,630.8
874.6341,418.1
874.8581,115.6
875.1936,156.3
875.3424,343.1
875.3678,85
875.8237,1069.1
876.18,327.5
876.5132,89.3
877.2234,328.3
877.4525,349.6
877.9843,771.8
878.5255,1855.4
879.4796,20.9
879.571,127.6
879.7689,172.5
879.8238,195.2
879.8669,436.1
879.8933,20
880.073,166.5
880.3968,213.8
880.445,445.5
880.4616,489.6
881.3209,98.8
881.4596,277.2
881.6231,166
881.7118,457.5
881.7856,328.4
882.0321,412.4
882.1991,23.1
883.3171,179.1
883.5633,19.6
883.7319,21.8
883.9101,209.8
884.6747,237.1
885.0604,111.3
885.1815,295
885.3801,18.5
885.4469,474.6
885.5199,637.4
885.883,476.1
886.8251,91
887.0815,620.3
888.1293,122.7
888.46,268.5
888.5478,20.7
888.6205,280.5
889.0477,510.1
889.2818,20.6
889.3088,529
890.2433,351.7
890.3869,121.5
890.9785,301.3
891.0974,18.8
891.6702,99.3
891.989,558.4
892.4743,654.6
892.6167,100
892.7622,235.3
892.7951,509.7
892.8676,91.9
893.3723,98
893.4133,101.7
893.643,172.3
893.904,335.4
894.0008,363.7
894.293,348
894.6666,308.3
894.9031,188.2
895.1112,668.9
895.2453,144.3
895.256,154.5
895.2777,413.7
895.3217,231.3
895.3639,93.1
895.5264,141.6
896.6192,98.2
896.9592,164.8
897.0583,250.3
897.2027,305.3
897.284,449.3
897.4401,115.8
897.5214,179.8
897.5745,515.8
897.9339,756.9
898.1682,328.9
898.2596,124.3
898.6818,170.3
898.7575,279.1
899.0262,260.7
899.7802,20.1
900.4532,207
900.5005,39.7
900.7759,283
901.3107,120.6
901.3782,142.4
901.9921,1313.9
902.252,471.9
902.4596,96.6
902.5678,326.1
903.5583,80.8
903.7129,228.7
903.9904,123.1
904.5838,373.1
904.8576,123
904.9797,20.6
905.1965,81.6
905.2676,183.2
905.4743,19.6
905.6288,24.7
906.5993,582.4
906.7889,710.4
907.0449,141.2
907.4022,175
907.578,232.5
907.8948,2461
907.992,86.2
908.2225,146.8
908.3584,83.9
908.465,20.4
908.979,643.6
909.1282,545.4
909.4742,437.8
909.7258,111.2
909.8922,110.5
910.1443,245.3
910.2758,443.3
910.6171,442.6
910.6979,185.4
911.3512,494.5
911.9348,95.3
912.0105,22.1
912.8909,510.2
912.95,209.6
913.6206,86.9
914.3477,152
914.6016,1109.9
914.7506,323.9
915.513,568.8
915.9841,257.2
916.032,173.2
916.2259,809.4
916.3095,1049.6
916.3668,199
916.6524,461.7
917.5034,791.3
917.5942,218.3
918.5127,605.8
918.5795,118.8
918.9771,1185.3
919.0798,267.8
919.301,563.4
919.9283,378.5
920.0585,146.9
920.3014,104.3
920.4952,19.1
920.7611,614.1
920.8469,126.6
921.1662,984.5
921.4786,318.7
921.5733,347.5
921.6026,113.9
922.0081,1068.4
922.0968,530.8
923.7066,99.8
923.8469,1375.9
924.0348,1109.4
924.3245,219.2
924.7099,125.4
926.2709,505
926.3032,336.9
926.8526,672
926.975,176.4
927.327,592
928.4892,382.5
928.5434,165.8
928.5869,1053.3
928.6248,181.9
928.7997,515.6
929.2469,108
929.5387,26.8
929.7842,248.4
929.9961,255.2
930.0223,20.2
930.2087,21.4
930.503,131.8
930.7592,492.1
931.4938,150.6
931.5241,509.4
931.5573,384.5
931.764,104
932.1393,94.5
933.1666,127.9
933.4617,142.5
933.9861,140.7
934.0217,20.5
934.2658,150.1
934.7244,22.1
934.7778,473
934.8362,864.3
935.0313,498
935.1349,160.7
935.2158,20.6
935.306,263.4
935.337,326.9
935.6763,100.7
935.7619,19.5
936.0701,187.7
936.3266,252.3
936.5393,284
936.5924,214.4
936.8571,182.1
936.9464,301.2
937.022,457.4
937.1652,480.4
937.2637,325.5
937.4759,462.1
937.8786,689.5
937.9707,544.4
938.0107,22.5
938.0895,98.8
938.274,813.7
938.6013,1121.6
938.8051,295.9
938.9568,21.9
939.1654,464.3
939.4857,598.9
939.7435,119.3
939.7717,22
939.8589,212
940.0176,208.7
940.4916,242
940.6824,466.2
940.7146,466.7
940.7869,22.1
940.883,606
941.2545,589.5
941.9852,439.9
942.1593,232.8
942.297,95
942.3775,192.1
943.0196,264.1
943.2305,202.7
944.1655,326.7
944.981,473.8
945.1996,771.9
945.5369,198.6
945.8737,135.2
946.2085,1045.3
946.6798,686.2
946.8261,467.2
946.9526,347.1
947.1113,911.8
947.27,21.1
947.4028,232.8
947.7627,707.2
948.1473,395.5
948.325,118
948.4058,108.6
948.7379,122.3
948.9193,293
949.6812,24.5
949.7991,528
950.0794,355.7
950.1135,1121.6
950.1522,743.4
950.1888,532.6
950.2039,454.6
950.3741,25
950.4326,18.9
950.6399,464.6
950.9597,415.7
950.996,136.4
951.1134,289.7
951.3743,81.6
951.7527,559.2
951.8389,412.8
952.3727,374.9
952.9037,347.3
953.4044,19.6
953.9629,846.2
954.0991,128.7
954.1811,22.8
954.3963,186.6
954.9567,2236.2
955.4167,291.7
956.2726,400.8
956.3075,230.4
956.7294,224.6
956.7895,89.9
956.8995,955.3
957.0723,562.7
957.2611,332.9
957.5204,20.7
958.1694,564.7
958.345,673.5
958.4949,435.2
958.6123,308.5
959.189,586.1
959.3651,712.2
959.469,448.9
959.5893,501.5
960.1108,296.1
960.1555,126
960.3514,250.5
960.3791,19.5
960.7926,419.7
960.9174,786.6
960.9266,832.7
960.9987,344.4
961.385,945.2
961.5894,312.2
961.8498,855.6
962.1086,164.5
962.237,92.4
962.3775,108.2
962.5749,99.7
963.6511,717
964.228,19.4
964.6813,20.2
965.0714,128.2
965.1143,124.1
965.1526,698.9
965.1872,698.7
965.2164,236.6
965.4287,269.4
965.712,139.3
966.5024,88.1
966.5837,100.9
966.8256,201.7
966.9161,249
967.0645,119
967.7556,181.3
969.2816,132.9
969.6132,447.9
969.6761,197.7
969.7572,250.9
969.847,174.7
970.0864,143.7
970.4828,890.5
970.6053,842.4
970.8788,459.6
971.353,655.8
971.4961,744.7
971.5227,332.2
971.6584,342.2
971.6816,163.5
971.7825,96.5
972.075,113.7
972.2504,100
972.6204,415.2
972.6356,449.7
972.9626,164.7
973.4259,682.6
973.4978,203.9
973.7931,753.1
974.1596,127.2
974.2174,827.4
974.5119,121.2
975.1385,853.6
975.3506,787.8
977.4526,20.3
978.9269,298.6
979.2567,1080.5
979.5323,323.4
979.6471,925.3
979.9569,328.6
980.0312,21.3
980.1607,1043.8
980.2159,350
980.5193,91.9
980.706,591.9
981.515,251.5
981.8728,692.9
981.9967,380.2
982.5614,96.3
982.9607,160.8
983.1672,489.9
983.2325,144.5
983.4869,104.9
984.3884,586.6
984.5306,734
985.048,118.2
985.1576,515.8
985.7795,613.1
986.0884,500.8
986.6923,302.9
986.7696,266.5
987.6442,139.6
987.7058,107
987.7686,472.5
987.7949,333.8
988.372,1006.8
988.4973,127.3
988.6199,374.1
988.7681,243.1
989.3668,295.5
989.5739,423.7
990.2476,347.2
990.8199,191.5
990.8335,263.3
990.8442,285.1
990.9013,617.7
991.4964,250.1
991.6754,781.5
991.9924,113.4
992.0329,662.9
992.4459,23
992.6061,522.2
993.0291,820.3
993.7715,350.3
994.0976,1106.9
994.2261,571.6
994.5799,100.1
995.189,1134
995.3818,130.9
995.4147,171.7
995.7011,279.1
996.0457,114.9
996.1391,147
996.8295,1642.3
996.9237,729.9
997.4325,160.8
997.6025,155
998.1578,296.8
998.2617,465.8
998.6845,569.1
999.6682,207.2
999.7154,722.3
