SPECTRUM - MS,
1017.RAW,
FTMS + p ESI Full ms [50.00-1000.00],
Scan #: 1-40,
RT: 0.01-1.97,
AV: 40,
m/z,Intensity

50.0084,19.9
50.025,139.6
50.0313,369.4
50.035,277.7
50.0372,168.5
50.0391,165.7
50.0443,174.6
50.0462,393.2
50.0541,85.8
50.0545,94.7
50.0558,131
50.065,164.5
50.0677,117.3
50.0682,282.1
50.078,202.2
50.0816,16.9
50.0937,19.9
50.1142,319.1
50.1238,539.6
50.1396,157.8
50.1543,170.6
50.1547,330.1
50.1757,189.7
50.1827,116.6
50.1894,550.2
50.1986,16.4
50.1992,159.3
50.2022,476
50.2076,310
50.2373,156.5
50.2385,655.2
50.2518,188.7
50.2612,217.2
50.2652,303.8
50.2672,167.8
50.2727,23.1
50.277,19.7
50.2968,262.6
50.3062,97.4
50.3115,823.8
50.3424,618.2
50.3567,118.5
50.3634,147.8
50.3641,360.4
50.3796,203.6
50.3996,232.7
50.4291,442.7
50.4472,20
50.4497,780
50.4542,259.8
50.4595,16.3
50.4651,460.7
50.478,197.6
50.4787,292.4
50.4852,277.4
50.4916,90.7
50.5003,14.7
50.5296,147.7
50.5311,359.6
50.5316,208.6
50.5342,150
50.5475,283.9
50.573,353.4
50.5738,258.3
50.5792,165.5
50.5823,352.8
50.5894,246.1
50.5921,439.3
50.5946,238.9
50.596,151.4
50.6082,206.7
50.6193,15.7
50.631,173.7
50.6388,17.9
50.6613,470.3
50.6988,667.4
50.7262,163.8
50.7291,87
50.7462,345.2
50.7539,84.5
50.7646,271.2
50.768,496.2
50.7884,16.1
50.7912,289.5
50.7966,72.6
50.8056,342.1
50.8115,84.7
50.8378,174.7
50.8539,159.9
50.8554,79.1
50.8574,166.4
50.8665,16.4
50.8725,252.2
50.8861,300.5
50.8878,234.9
50.8911,281.7
50.8977,286
50.9035,139.8
50.9164,312.1
50.9284,150.9
50.9448,118.6
50.9452,537.3
50.9756,127
50.9888,153.2
50.9899,86.2
50.9977,196.1
51.0032,170.4
51.024,475.4
51.0414,19.4
51.0482,146.4
51.0766,177.1
51.0778,189.5
51.1044,397.1
51.125,16.8
51.1256,920.3
51.1325,193.4
51.1352,221.4
51.1358,580.8
51.1415,142.7
51.1792,147.8
51.2095,338.5
51.2139,292.6
51.2169,14.9
51.2169,14.9
51.2183,91.2
51.2227,812.2
51.2274,16
51.26,181.7
51.2683,137
51.2736,22.4
51.2891,114.9
51.3075,210.6
51.316,134.3
51.3289,87.4
51.3315,110.9
51.336,121.8
51.3492,21.2
51.3561,489.8
51.3767,141.4
51.3814,224.1
51.4069,416.3
51.4343,16.3
51.4358,180.8
51.4396,19.3
51.461,146.8
51.4627,307.5
51.4671,225.5
51.4714,16.1
51.4862,466.7
51.4903,783
51.4911,128
51.4993,157.2
51.5088,88.9
51.5091,169.4
51.5225,321.1
51.5267,24
51.5281,384.9
51.529,368.6
51.537,107.4
51.5434,644.2
51.5491,206
51.5547,350.4
51.5578,72.4
51.567,257.6
51.5814,75
51.5868,520.5
51.5946,218.5
51.6023,103.9
51.6041,104.2
51.6385,389.6
51.6478,162.8
51.6495,18.5
51.6669,849
51.6676,138.6
51.6994,264.2
51.717,142
51.7319,142.4
51.7368,155.9
51.7388,105.9
51.7474,299
51.7668,142.5
51.7745,90.8
51.7927,107
51.8095,144.3
51.8155,86.5
51.8188,16.4
51.8266,168.2
51.8333,172.1
51.8337,521.4
51.84,770.2
51.8643,91
51.886,250.5
51.9108,82.1
51.9292,597.9
51.941,16.6
51.9446,17.3
51.9484,152.7
51.9498,780.8
51.9511,144.5
51.9562,215.6
51.9663,271.3
51.9676,129.3
51.9685,472
51.9717,238.6
51.9792,688.7
51.9981,130.8
52.0051,69.7
52.0063,197.7
52.0218,21.9
52.034,20.1
52.042,93.2
52.0476,15.2
52.0655,520.1
52.0916,683.4
52.1074,326.3
52.1127,79.8
52.1143,368.4
52.1146,573.7
52.1298,89.2
52.1409,918.5
52.1438,74.1
52.1565,487.7
52.2182,159.4
52.2192,165.1
52.2278,136.6
52.2632,95.3
52.2671,20.8
52.2753,254
52.2836,202.5
52.2848,439.8
52.2896,270.6
52.296,474.4
52.2966,311.2
52.3372,16.6
52.3797,18.2
52.3813,159.6
52.3928,192.1
52.3966,162.5
52.3973,352.4
52.4046,543
52.4307,456.6
52.4316,164.5
52.4389,130.5
52.4409,516.1
52.4425,300.8
52.4444,427.9
52.4549,270
52.4598,120
52.4867,197
52.4943,90.5
52.495,102.5
52.5045,133
52.5082,86
52.5094,16.4
52.5443,18.9
52.5609,214.7
52.5788,419.2
52.6246,20.3
52.6252,172.7
52.6428,463.1
52.6433,87.3
52.6482,526.7
52.6538,402.7
52.6704,16.4
52.6758,157.8
52.6897,85.6
52.6951,371.2
52.7081,87.7
52.715,102.7
52.7202,202.9
52.7233,738.5
52.7319,290.9
52.7446,72
52.7761,955.3
52.7811,583
52.7833,1213.7
52.784,1929.7
52.785,1150.2
52.7856,174.4
52.7864,3114
52.7872,663.7
52.788,420.8
52.7885,876.2
52.7889,256.6
52.7995,272.1
52.8177,77
52.82,191.7
52.8428,149.7
52.8613,113.2
52.8777,112.1
52.909,102.6
52.9144,268.7
52.9178,96.3
52.9185,87
52.9236,258.3
52.9319,452.4
52.9335,97
52.9421,523.4
52.9738,77.9
52.9829,128.3
53.0047,130.6
53.0081,296.1
53.0123,166.9
53.0164,167.7
53.0331,372.7
53.0391,75.6
53.0497,213.5
53.0536,115.1
53.0583,407.8
53.0905,80.8
53.0983,151.3
53.1017,489.8
53.1065,185.6
53.1088,132.8
53.1154,121.8
53.1251,114.8
53.1292,598.7
53.1429,284.3
53.1557,21.9
53.1608,310.3
53.1683,306.2
53.1711,106.7
53.1758,17.6
53.1917,182.1
53.197,106.4
53.202,170.1
53.2039,206.2
53.2309,695.2
53.2379,123.7
53.2393,146.8
53.2523,162.6
53.2534,248.9
53.2585,497.1
53.2682,110.4
53.2718,234.1
53.285,122.9
53.3111,119.5
53.3239,156.5
53.3621,264.7
53.4274,144
53.4301,16.2
53.4304,15.6
53.4402,296.2
53.447,237.1
53.4501,15.1
53.4554,207.5
53.4571,19.9
53.4759,229.7
53.509,74.8
53.5126,245.9
53.5417,272.3
53.5655,146.9
53.5736,107.3
53.5741,302.3
53.578,104.8
53.5869,375.6
53.6027,456.9
53.6111,88.5
53.6287,466
53.6318,226.3
53.6363,87.6
53.6391,646.7
53.6415,94.4
53.642,319.1
53.656,487.7
53.6578,500.7
53.6828,87.7
53.6845,236
53.69,132.1
53.7064,17.5
53.71,465.6
53.7231,183
53.7316,13.9
53.7406,180.4
53.7456,132.7
53.7502,267.5
53.765,20
53.7997,109.4
53.8138,17.3
53.8274,175.4
53.8286,390.2
53.8317,79.5
53.8357,322.2
53.8475,727
53.854,155.9
53.8772,396.9
53.8886,206.8
53.9108,242.6
53.9117,428
53.914,500.6
53.9211,68.3
53.9316,489.1
53.9423,120.4
53.9431,553
53.946,15.2
53.9537,24.9
53.9759,18.2
53.9895,73.4
53.9955,96.3
53.9995,205.8
53.9999,18.2
54.0034,164.2
54.0158,118.4
54.0524,382
54.075,17
54.0826,87.8
54.123,202.4
54.1593,140
54.1983,644.8
54.1991,409.5
54.2051,21
54.2098,760.5
54.2147,76.8
54.2224,822.2
54.2352,105.6
54.241,246.9
54.2528,17.8
54.2532,19
54.2539,166.4
54.2787,80.4
54.2879,19.6
54.289,76.4
54.2957,220.3
54.3122,103.3
54.3437,279.7
54.3452,15.4
54.3515,193.5
54.356,512.2
54.3601,457.8
54.3717,18.6
54.3755,15.3
54.3766,155.2
54.3785,559.5
54.3836,436.3
54.3892,115.2
54.4173,96.2
54.4213,475.4
54.4337,19.2
54.4349,203.8
54.4523,343.2
54.4668,18
54.4675,476
54.4892,292.4
54.5061,94
54.5314,135.6
54.5394,110.8
54.5413,251.6
54.547,15.1
54.5564,134.6
54.564,187.4
54.6044,692.1
54.6119,108.2
54.6137,111.7
54.6412,182.7
54.6453,23.2
54.6514,248.6
54.6623,183.2
54.667,698.6
54.6758,281.8
54.6786,174.4
54.6917,170.3
54.7009,102.2
54.7054,409.4
54.7129,286.3
54.7276,290.3
54.7285,80.6
54.7378,188.2
54.7656,336.2
54.7763,314
54.7812,131.8
54.7884,16.5
54.801,462.2
54.8031,481.7
54.8143,14.8
54.8254,167.9
54.8271,536.4
54.8334,461.5
54.8385,21.4
54.8616,127.5
54.8792,168.9
54.9118,194
54.918,267.5
54.9274,724.8
54.9424,750.6
54.9554,19.7
54.9578,184.5
55.0066,19.4
55.0099,531.2
55.0196,20.3
55.038,211.6
55.0606,510.7
55.0802,275
55.0833,110.8
55.0869,344.3
55.1165,93.8
55.1205,91.4
55.1307,300.5
55.1321,277.5
55.1421,136.3
55.1512,185.8
55.1537,83.7
55.158,475.4
55.1615,97.5
55.1717,207.1
55.1829,88.9
55.2093,98.6
55.2163,115.2
55.2293,98
55.2303,82.2
55.2401,93.4
55.2518,286.7
55.2561,24.2
55.2658,169.4
55.2805,261.6
55.2847,285.9
55.2958,518.9
55.3031,288.7
55.305,282.4
55.3389,17.8
55.3455,427.2
55.3568,141.1
55.3752,162.9
55.3811,464.4
55.3836,421.1
55.3867,935.7
55.394,112
55.3998,539.9
55.427,15.7
55.4434,347.5
55.4637,163.7
55.4749,170.6
55.4757,157.5
55.4845,91.1
55.4874,109.4
55.4921,75.7
55.4972,82.5
55.5033,487.2
55.5157,20.9
55.5194,189.1
55.5226,210.8
55.5593,770.9
55.5618,74.1
55.5757,414.1
55.6006,520.9
55.6015,585.3
55.6038,167.3
55.6096,95.6
55.6293,432.8
55.63,27.2
55.6376,164.8
55.6405,70.5
55.6472,208
55.6544,91.5
55.6562,306
55.6756,111.3
55.6787,19
55.6856,131
55.6919,137.6
55.7054,205.8
55.7126,177.1
55.7505,309.6
55.7516,243.9
55.7676,94.8
55.7798,274.8
55.78,279.4
55.7802,271.4
55.8044,87.3
55.807,94.9
55.8712,499.8
55.8841,306.5
55.8978,579.5
55.9079,563.5
55.9456,376.1
55.9468,113.1
55.9568,245.6
55.9754,16.4
55.9938,115.9
56.0017,210.9
56.0086,16.3
56.0278,442.3
56.0356,444.4
56.0653,118.3
56.0881,190.5
56.0894,477.1
56.0911,307.5
56.0915,16.5
56.1052,1004.9
56.1076,92.3
56.1194,73
56.1229,17.8
56.1315,97.5
56.1367,268.6
56.1395,236.7
56.1516,88.7
56.1585,487.2
56.1809,113.8
56.1834,145.5
56.2185,562.5
56.2226,15.9
56.2344,73
56.238,394.5
56.2402,394.5
56.2509,367.3
56.2776,121.3
56.2925,353.8
56.3254,99.5
56.3609,450.9
56.3862,168.1
56.4033,81.4
56.4075,420.7
56.4125,149.9
56.4275,170.5
56.4389,549.6
56.4798,22.4
56.4817,82.5
56.4839,91.5
56.4916,159.6
56.5152,14.7
56.5207,16.9
56.5301,425.1
56.5422,95
56.5521,331.6
56.5553,78.3
56.5585,16.6
56.572,16.2
56.5828,83.3
56.5839,812.3
56.6048,608.3
56.6153,431.3
56.6233,17
56.6407,329.6
56.6491,213.8
56.6526,21.3
56.6572,234.7
56.6592,102.6
56.6651,16.5
56.6668,15.2
56.6676,249
56.6805,90.3
56.7061,155
56.7188,70.1
56.7396,273.3
56.7559,596.8
56.7631,102.3
56.7633,266.9
56.7634,256.9
56.7939,582.4
56.799,553.2
56.8072,222.1
56.8146,132.4
56.8218,122.8
56.8326,846.4
56.8374,330.7
56.8424,266.7
56.8438,175.6
56.8472,69.4
56.8524,113
56.8624,195.2
56.8656,91.5
56.8807,75.1
56.8923,107.6
56.8951,195.5
56.9043,17
56.9104,65.6
56.9218,133.1
56.9511,287.2
56.9755,144.8
56.9878,461
56.9907,102.1
57.0004,16.6
57.0218,203
57.0237,496.2
57.0287,121.9
57.0332,816.5
57.0361,294.4
57.0403,85.4
57.0889,22
57.1503,207.8
57.1535,79.4
57.1625,132
57.1652,15.4
57.1681,769.2
57.1737,97.9
57.1993,91.2
57.2223,99.1
57.2242,105.7
57.2346,24.2
57.2656,20.2
57.2741,426.5
57.2756,89.1
57.29,111.6
57.2948,126.8
57.3285,184.2
57.3344,113.5
57.3384,385
57.3743,388.6
57.3826,617.4
57.3958,108.8
57.3979,16.2
57.4095,198.5
57.4101,142.3
57.4415,81.3
57.4455,120.3
57.4896,279
57.4905,266.3
57.5006,376.2
57.513,15.3
57.5359,17.5
57.5383,1298.9
57.5411,79.5
57.5508,108.6
57.5557,113.1
57.5712,292.9
57.5957,79.6
57.6022,72
57.6066,180
57.608,79
57.6104,745.9
57.6125,825.4
57.6192,233.4
57.6257,231.9
57.6667,268.3
57.6763,464.8
57.6888,20.2
57.7058,341.6
57.7182,256.6
57.7197,89
57.7321,224.9
57.7415,17.7
57.7553,170.8
57.7662,306.2
57.7687,397.6
57.7721,89.6
57.7826,83
57.8007,889.6
57.8017,123.9
57.8126,155.8
57.8251,178.7
57.8385,20.7
57.888,85
57.892,149.2
57.8931,412.7
57.8936,439
57.9232,16.1
57.9424,16.3
57.9486,97.4
57.9932,84.9
58.0081,111.9
58.0089,21.9
58.0187,22.9
58.0358,86.1
58.0395,97.5
58.0436,186.4
58.0473,111.7
58.0533,159.3
58.0625,299.3
58.0634,21.8
58.0656,16.1
58.0718,455.9
58.0723,113.4
58.0755,15.6
58.0827,92.3
58.086,302.8
58.1055,599
58.1163,188.9
58.1223,20.6
58.1551,136.4
58.1761,188.3
58.1767,21.9
58.2007,269.1
58.2172,463.8
58.2303,271.6
58.2359,140.7
58.2376,79.7
58.2477,591.8
58.2607,97.5
58.2995,102.1
58.321,297.1
58.3309,434.7
58.3339,81.7
58.3351,619.2
58.3381,177.1
58.3424,263.3
58.3481,199.6
58.3622,111.3
58.3694,134.9
58.3931,413
58.4085,157.7
58.4205,140.6
58.4239,467.8
58.4252,155
58.4342,307.5
58.4622,77.5
58.4645,144.6
58.4798,262.4
58.4919,101.3
58.4982,158.2
58.5938,93.7
58.5989,149.4
58.5998,262.5
58.6035,129.2
58.6047,177.5
58.6125,97.1
58.6337,20.4
58.6357,156.8
58.6568,289.5
58.6578,102.1
58.6858,176.1
58.688,160.3
58.7071,348.8
58.7207,491.9
58.7288,335.9
58.7457,134.3
58.7777,300.2
58.8038,146.3
58.8237,127.2
58.8258,16.9
58.8281,84.2
58.8407,151
58.8501,141.7
58.8581,117.9
58.8838,82
58.8845,97.6
58.8879,303.6
58.8902,876.4
58.8948,278.7
58.9214,130.6
58.9359,112.4
58.9415,145.3
58.991,322
58.9985,312.9
59.0073,121.6
59.0245,95.8
59.0311,308.7
59.0365,155.7
59.0403,121.2
59.0462,463.8
59.0487,77.7
59.0524,16.4
59.0686,280.7
59.0747,114.2
59.0838,84.9
59.094,289
59.1057,139.2
59.1107,177.9
59.1146,95.5
59.1177,303.8
59.1191,209.3
59.1232,97.4
59.1292,117.1
59.1464,441.4
59.1596,159.1
59.1725,648.7
59.1762,135.8
59.1821,1037.7
59.2037,18.3
59.2137,277.5
59.2167,235.7
59.2349,253.6
59.2619,196.2
59.2711,436.6
59.281,142.4
59.2813,164.4
59.2855,136.3
59.314,156.8
59.3237,274.5
59.3252,15
59.3262,194.9
59.3468,520
59.3522,241.9
59.3667,140.6
59.3756,421.1
59.4483,930.7
59.451,163.7
59.4534,302.4
59.4911,152.2
59.4956,227.6
59.5135,272.5
59.5269,156.9
59.5298,500.3
59.5493,650.4
59.5524,904.3
59.5556,500.3
59.5642,98.3
59.5686,501.7
59.5724,144.4
59.5799,169.6
59.5842,24.5
59.5848,185.2
59.5979,401
59.5992,549.9
59.6008,75.1
59.6091,798.8
59.6284,169.9
59.6375,201.9
59.6463,248.6
59.6532,312.3
59.682,801.7
59.6871,144.5
59.6934,18
59.695,134.4
59.7128,17.7
59.72,511
59.739,130.7
59.7417,855.9
59.7511,417.6
59.764,272.3
59.7696,132.1
59.8073,80.6
59.8312,225.6
59.8334,359.3
59.8345,409.3
59.8402,78.6
59.8422,69.6
59.8457,79.9
59.8644,17.5
59.8684,79.3
59.8951,196.7
59.8963,170.5
59.8997,470.1
59.9053,482.3
59.9117,573.5
59.9165,390.5
59.9205,198.5
59.9337,248.4
59.9366,151.9
59.9531,105
59.9728,466.9
59.9788,285
59.983,143.1
59.9992,23.6
60.0174,123.4
60.0201,319.7
60.0283,103.5
60.0356,186.7
60.043,19
60.0486,173.6
60.0787,171.5
60.0855,365.4
60.0986,92
60.1363,791.4
60.1418,432.3
60.1581,108.4
60.1733,20.8
60.1913,100.5
60.2018,74.8
60.2486,260.5
60.2655,135.4
60.2686,711.2
60.2848,106.3
60.2974,491.5
60.3143,220.7
60.3252,16.3
60.3544,176
60.3611,138
60.3656,80.7
60.3789,286.5
60.3852,403
60.3917,216.8
60.4012,428.6
60.4073,117.8
60.4086,406.8
60.4155,161.3
60.4188,415.6
60.4246,451.3
60.4265,296.9
60.4368,184.2
60.4579,357
60.4868,19.1
60.4891,84.5
60.5176,16.5
60.5188,15.8
60.5214,441.9
60.5371,546.5
60.5455,805.1
60.5493,108.2
60.5692,338.5
60.5726,77.6
60.5792,110.6
60.5926,96.4
60.593,569.9
60.5967,207.4
60.6109,93.4
60.62,106
60.6252,16.5
60.6302,283.3
60.6315,74.4
60.6367,189.4
60.6472,114.2
60.6512,80.8
60.6604,452
60.6649,817.4
60.6773,124.5
60.6958,785.1
60.6996,245.2
60.7022,414.1
60.7077,22.3
60.7126,274.5
60.7278,108.8
60.7303,19.3
60.7432,122.4
60.7473,97.5
60.8188,191.7
60.8204,287.1
60.8262,188
60.8366,227.5
60.8432,165.8
60.8849,80.7
60.8946,287.3
60.9131,87.6
60.9176,80.6
60.931,265.5
60.935,115.2
60.9463,190.9
60.9733,295.9
60.9892,97.7
60.9939,511.5
61.0048,104.5
61.0104,302
61.0285,426.7
61.0443,630
61.0876,68.6
61.0907,403.2
61.1074,99.8
61.1186,128.7
61.1286,148.2
61.1414,687.5
61.1432,17.6
61.1451,274.7
61.163,147.2
61.1691,244.6
61.1695,392.1
61.1775,482.1
61.1792,313.4
61.1807,18.7
61.1819,537.8
61.1821,266.7
61.1978,262.8
61.2007,111.7
61.201,104.9
61.2129,326.9
61.2198,136.1
61.2505,291.9
61.2625,15.9
61.2633,325.8
61.2821,161.3
61.2866,550.7
61.3013,112.5
61.3202,373
61.321,95.1
61.325,499.2
61.3558,293.2
61.3622,511.4
61.366,106.6
61.3849,159.2
61.3909,437.6
61.3912,446.7
61.3952,110.1
61.3994,488
61.401,64.2
61.4186,183
61.4354,491.8
61.4459,222
61.4591,384.5
61.468,195.5
61.5076,558.6
61.5358,179.9
61.5407,83.7
61.5514,130.6
61.5825,171.2
61.6047,116.2
61.6076,637.8
61.6179,353.8
61.6292,612.3
61.6374,18.3
61.6846,267.2
61.6871,504.2
61.6945,416.3
61.7122,23.7
61.7173,200.5
61.7174,191.9
61.7177,99.6
61.7238,164.3
61.7404,94.5
61.7726,229.3
61.7826,24.6
61.7978,133.5
61.8034,601.8
61.8144,17.4
61.8169,76.8
61.8204,156.6
61.8303,192.6
61.8527,493.9
61.8609,18.2
61.8687,548.2
61.8749,99.3
61.8843,418.1
61.887,188.1
61.8876,89
61.8895,357.9
61.8963,25.2
61.8971,149.9
61.9255,248.9
61.9286,161.7
61.9515,158.8
61.9541,156.8
61.9696,231.4
61.9862,462.3
62.0105,263.9
62.0195,164.5
62.0365,17.2
62.0466,158.8
62.0783,82.5
62.0896,273.3
62.1173,135.1
62.1249,161.1
62.1254,462.1
62.1328,98
62.1354,175
62.1449,151.9
62.1562,222.5
62.1704,423
62.1873,233.3
62.1877,17.7
62.2069,16.5
62.2381,146.5
62.2468,106.2
62.2538,20.4
62.2682,17.3
62.2696,267.6
62.2969,285
62.3071,97.2
62.3351,65.7
62.3354,71.4
62.3394,158.2
62.3467,482.3
62.3615,96
62.3728,148.2
62.3916,15.3
62.399,227.8
62.4021,93.6
62.4141,472.3
62.4171,24.6
62.4358,304.8
62.4439,98.4
62.4538,139
62.4561,103.5
62.4826,151.1
62.4861,167.2
62.5424,515
62.5483,197.8
62.5715,157.2
62.5755,164.7
62.5788,530.9
62.597,169.8
62.6078,545.4
62.613,19.1
62.6138,579.1
62.6312,346.7
62.6538,294
62.6693,25.8
62.679,151.9
62.7178,130.6
62.7193,155.7
62.7241,129.7
62.7426,175.7
62.748,192.4
62.7692,319
62.7716,329.6
62.7914,92.5
62.7984,235.2
62.8137,161.3
62.8261,141.8
62.8356,164.6
62.8463,16.5
62.8565,18.2
62.8589,85.1
62.8598,92.9
62.8731,293.5
62.8752,153
62.9011,109.1
62.9197,156
62.925,162.8
62.937,105.1
62.9673,100
62.982,433.1
62.9973,18.9
63.0034,200.3
63.0084,74.9
63.0174,494.7
63.0263,327.6
63.0357,139.1
63.0478,193.9
63.0593,109
63.0812,305.2
63.0829,170
63.0879,18.3
63.0975,19.6
63.1014,312.6
63.1373,271.8
63.1585,17.9
63.1663,714.1
63.1754,207.8
63.1934,286.8
63.1953,109.6
63.1985,139.9
63.2003,17.4
63.2252,144.1
63.2493,117.7
63.2635,99.3
63.2701,20.4
63.2796,95.7
63.2819,285.7
63.2935,879.2
63.2946,115
63.306,89.7
63.3379,667.9
63.3753,351.7
63.3775,482.8
63.3928,186.4
63.4083,170.7
63.4155,116.7
63.4265,239.7
63.4344,16.1
63.439,100.3
63.5184,169.3
63.5273,142.7
63.5405,410.3
63.5481,229.8
63.5585,157
63.5595,118.2
63.5799,154.3
63.5871,250.9
63.6024,17.1
63.6076,140.7
63.6149,178.2
63.6539,348.4
63.6543,322.7
63.6777,21.2
63.6832,761.6
63.7034,325
63.7044,610.1
63.7216,406
63.7364,191.9
63.7408,142.3
63.7627,169.1
63.778,442.5
63.7808,19.1
63.787,16.9
63.7961,195.8
63.8006,508.1
63.8019,115.8
63.8092,163.9
63.8218,638.2
63.8261,430.1
63.8316,167.5
63.8683,184.6
63.8693,181.5
63.8717,98.1
63.8739,385.2
63.9011,308.3
63.9063,21.6
63.9116,1226.5
63.9187,19.1
63.9245,198.8
63.9283,454.9
63.9372,541.8
63.9488,157.6
63.9701,141.5
63.9722,79.1
63.974,105.3
63.9894,92.6
63.9962,159.4
64.004,15.3
64.0142,72.7
64.0418,15.2
64.059,177.8
64.0626,127.1
64.073,694.9
64.074,536.8
64.0793,73.6
64.0825,187.1
64.0866,72.3
64.0952,358.8
64.1015,20.7
64.1463,104.9
64.1529,127.8
64.1632,241
64.174,241.3
64.1767,17.8
64.1778,220.8
64.1875,18.3
64.1948,424.6
64.2049,961.3
64.2096,90.7
64.2294,166.2
64.2327,19.6
64.2468,142.2
64.2619,469
64.2743,179
64.277,19
64.2778,439.7
64.2871,350.2
64.3137,121
64.3241,170.4
64.3349,398.5
64.3557,293.6
64.3818,259.4
64.3891,332.6
64.4092,243.9
64.4098,739.3
64.4117,114.7
64.4137,161.9
64.4184,316.4
64.4217,279
64.4276,174.5
64.4285,309.7
64.4462,528.8
64.4467,211.4
64.4492,16.9
64.4562,240.4
64.4575,1005.1
64.4595,87.7
64.464,84.5
64.4702,163.3
64.4774,214.3
64.503,20.5
64.5096,17.9
64.5255,215
64.5441,20.4
64.5476,474.5
64.5533,95.6
64.5717,167.8
64.5795,542.9
64.584,153.3
64.5933,106.4
64.6076,15.5
64.6364,199.8
64.6503,171.2
64.6535,825.4
64.6582,17.5
64.6631,244.7
64.6891,141.3
64.7202,16.6
64.7241,178.7
64.7329,121.3
64.7544,17.3
64.7571,177.3
64.7637,147.6
64.7725,409.1
64.7764,76.9
64.7852,21.8
64.8707,284.5
64.8837,95
64.953,494.9
64.9544,469.1
64.9564,237.3
64.9631,406.7
64.9725,224
64.9782,235.8
64.9865,512.1
64.9935,291.2
65.0095,701
65.0324,419.7
65.051,167.8
65.0928,990.7
65.1045,156
65.1115,396.5
65.1149,242.9
65.1185,84.6
65.1234,254.4
65.1246,104.1
65.1379,82.3
65.1413,135
65.1421,219.4
65.1462,158.4
65.1581,374
65.1852,299
65.1886,17.4
65.1985,145.2
65.2588,147.4
65.2609,123.9
65.266,534.3
65.2679,201.8
65.2785,321.8
65.3096,207.7
65.3142,127.1
65.3447,784.9
65.3754,553.1
65.3883,147.3
65.3889,501
65.3955,156.9
65.4043,18.8
65.4261,478.8
65.4314,87.7
65.447,261.6
65.4477,101.9
65.4518,144.5
65.4851,186.1
65.5007,419.2
65.5038,321.5
65.5113,170.3
65.5304,24.4
65.5338,128.8
65.5464,381.7
65.5633,165.8
65.5851,19.7
65.5997,330.2
65.6099,20.3
65.619,239.3
65.6224,313.2
65.6357,143.5
65.6419,95.4
65.695,474.5
65.7006,176.2
65.7124,106.9
65.754,139.8
65.7561,255.2
65.801,102.6
65.8022,21
65.8142,19.4
65.8242,136.4
65.8438,364.2
65.8525,374.5
65.8599,18.2
65.8673,183.3
65.8686,20.1
65.8847,107.7
65.9115,711.8
65.915,514.4
65.9168,118
65.9252,98.2
65.9273,192.6
65.9359,17
65.9807,91.5
65.9846,131.1
65.9962,235.7
66.0131,821.2
66.0157,119.2
66.0612,877
66.1009,95.4
66.104,16.3
66.1163,91.8
66.1267,263.3
66.129,535
66.1602,200.3
66.1733,88.2
66.2031,147.1
66.2041,131
66.2369,156.2
66.2514,282.5
66.3087,293.3
66.3121,88.7
66.3232,243.1
66.3302,330.6
66.3359,579.3
66.3379,473.7
66.3456,101.1
66.3626,88.1
66.3825,237.2
66.4045,99.2
66.4146,179.5
66.4328,114.8
66.4389,257.8
66.4436,289.6
66.4516,223.3
66.4651,279.7
66.4698,18.5
66.4759,101.8
66.5067,287.6
66.5111,200
66.5159,26.6
66.5182,362.2
66.5329,398.8
66.5377,94.2
66.5554,313.2
66.5664,217.3
66.6008,124.5
66.6119,340.6
66.6239,18.1
66.6522,176
66.6866,520.7
66.7104,518.9
66.7116,217.4
66.7211,891.5
66.7288,317.6
66.7531,148.9
66.7569,255.3
66.7771,19.6
66.7826,107.3
66.7835,128.7
66.8117,310.8
66.8269,283.5
66.8408,599.5
66.8475,370.8
66.851,66.8
66.8556,83
66.8615,79.9
66.8646,19
66.8707,526.1
66.8743,372.9
66.8766,147.2
66.8792,169.6
66.8946,205.3
66.9081,92.6
66.9118,580.6
66.9141,261.4
66.9187,19.5
66.9236,140.8
66.9304,273.8
66.9397,16.9
66.9528,761
66.9548,474.3
66.9699,175.8
66.9803,183.7
66.9862,170
66.9945,755.9
67.0243,356.8
67.0326,92.5
67.0332,250.5
67.054,36
67.0689,510.3
67.073,126
67.0771,86.5
67.0796,97.6
67.0965,227.5
67.0988,275.6
67.1123,18.8
67.1212,391.4
67.122,196.6
67.127,16.4
67.1306,267.1
67.1375,17.9
67.142,83
67.1664,21.8
67.1796,97.8
67.1993,16.8
67.2132,15.3
67.2269,17
67.2411,91.9
67.2507,475.7
67.2559,489.2
67.2632,159.8
67.2776,500.8
67.2976,94.6
67.3181,316.9
67.3273,101.6
67.3425,175.8
67.344,140.8
67.3468,454.8
67.3521,315.5
67.3536,148.7
67.3651,607.4
67.3734,16.1
67.3736,18.4
67.3738,15.7
67.398,656.2
67.4104,147.1
67.414,351.4
67.428,156.6
67.4436,365.4
67.4531,182.8
67.4583,112.2
67.4742,95.7
67.4841,245.7
67.4966,266.4
67.5028,719.2
67.5066,249.7
67.5194,113.2
67.5321,135.9
67.552,206.2
67.5623,686.5
67.5676,23.7
67.5691,88.9
67.5737,101.1
67.5757,396.7
67.5833,153.7
67.5943,101.3
67.602,292.6
67.6518,434.8
67.6595,106.1
67.6657,16.4
67.6682,21
67.6802,23.1
67.6935,286.8
67.7128,552.5
67.7315,261.8
67.7321,262.8
67.7337,79.1
67.7476,135.8
67.7687,300.5
67.7835,472.3
67.7846,275
67.791,20.8
67.792,77.1
67.8257,150
67.8304,798.6
67.8589,75.2
67.8957,243
67.8984,306.2
67.9159,87.9
67.9237,17
67.9526,232.1
67.9604,267.6
67.9644,371.3
67.9699,100.3
67.973,267.1
67.9876,148.7
68.0059,116.5
68.0308,309.3
68.0396,943.9
68.0713,195.6
68.0817,177.5
68.0852,318.2
68.0977,606.5
68.0995,614
68.1085,95.1
68.1094,164.2
68.1346,107.8
68.1366,136.3
68.1489,21.2
68.1791,139.8
68.1931,15.8
68.2247,96
68.2553,431
68.2763,494.3
68.281,193.2
68.3052,98.8
68.317,204.6
68.3178,71.1
68.3198,227.3
68.3291,125.9
68.3344,110.8
68.3352,142.1
68.3408,91.1
68.342,609.4
68.3582,239.2
68.3824,556.7
68.4027,293.9
68.4081,112.2
68.4219,103.6
68.4277,133.7
68.4393,154.5
68.4518,173.6
68.4634,240.4
68.4721,212.3
68.4783,368.4
68.5295,235.3
68.538,396.5
68.5675,322
68.5704,136
68.5928,281.9
68.5982,285.1
68.6138,400.8
68.6503,87.6
68.6563,173.5
68.682,141.4
68.6904,122.9
68.7011,182.3
68.7039,418.5
68.7259,98.5
68.7294,203.6
68.7581,100.7
68.7726,152.5
68.7854,330.6
68.7892,408.5
68.8355,390.8
68.8633,105.6
68.9011,137.4
68.9133,14.9
68.9172,156.1
68.935,89.2
68.9377,112.1
68.9604,503
68.963,108.8
68.9749,16.8
68.98,674.9
68.9973,113.6
69.015,16.6
69.0209,19.6
69.0279,465.3
69.0471,226.2
69.0543,153.1
69.0651,138.2
69.0777,227.2
69.0785,83.8
69.082,172.6
69.0942,279.1
69.1004,479.3
69.1109,116.6
69.112,67.6
69.1295,295
69.1306,86.9
69.1346,111.6
69.1604,118.7
69.1778,127.6
69.1833,175.5
69.1854,142.6
69.1934,17.1
69.1945,85.8
69.2161,80.1
69.2201,331.4
69.2239,280.3
69.2253,148.7
69.2431,137.6
69.2683,266.8
69.2749,326.9
69.282,112
69.2927,18.6
69.316,133.8
69.3283,123.3
69.3346,178
69.3454,127.2
69.3772,131.8
69.3836,800.9
69.4056,158.4
69.4188,94.6
69.4383,129.3
69.4483,114.5
69.4582,316.3
69.4965,156.6
69.5168,394.4
69.5189,24.3
69.5228,663.4
69.5304,17.8
69.5531,23.4
69.57,182.2
69.5863,569.4
69.6137,16
69.6158,144.6
69.6179,779.5
69.6391,73.3
69.6548,18.7
69.6626,15.9
69.6907,500.6
69.7125,96
69.7182,84.2
69.7355,132.3
69.7536,183.1
69.7594,111.2
69.7619,120
69.7829,340.5
69.8084,77.7
69.8113,149.7
69.815,222
69.8296,142.3
69.8442,155.3
69.8551,216.2
69.8561,137
69.8621,170.7
69.8923,135.2
69.9089,625.2
69.9165,97.8
69.9291,213.2
69.9562,570.4
69.976,486.3
69.9768,17
70.0186,282.5
70.0209,216.9
70.0273,182
70.0316,172.5
70.065,155.9
70.0886,19.7
70.0946,103.1
70.1155,75.5
70.1402,95.7
70.1563,837.6
70.1798,185.9
70.1904,116.7
70.2013,289.3
70.2075,530.2
70.2195,471.4
70.2209,445.9
70.2407,283.9
70.2499,345.3
70.2548,235
70.2611,20.2
70.2749,86.4
70.2926,515.3
70.3015,88.1
70.305,116.7
70.3129,101.3
70.3179,142.4
70.3737,117.2
70.3793,221.1
70.4009,733.8
70.4075,102
70.4119,273.7
70.4136,15.3
70.4144,94.5
70.4477,20.4
70.4567,86.8
70.4671,169.9
70.4831,516.7
70.4898,156.4
70.5074,461.3
70.5282,135.1
70.5379,134.7
70.5433,191.8
70.5617,216
70.5704,168.3
70.6016,363.2
70.6033,156
70.6409,124.9
70.6563,76.4
70.6638,17.5
70.6891,113.7
70.7228,294.4
70.7239,381.9
70.7254,158.9
70.751,106.5
70.7524,125.8
70.765,183.6
70.7675,496.5
70.7691,156.9
70.7957,313
70.802,198.1
70.8775,178.3
70.8902,560.8
70.9021,146.8
70.9202,228.5
70.9676,131.1
71.0214,453.8
71.0337,17.4
71.0364,122.8
71.0678,161.5
71.0707,483.3
71.0929,117.1
71.1175,540.4
71.1271,102.9
71.1315,20.8
71.1418,541
71.1468,87.3
71.1894,108.9
71.2372,19.3
71.2453,17
71.2968,677.6
71.3053,285.9
71.3385,288.4
71.3546,16.9
71.3557,743.9
71.3581,17
71.3613,113.8
71.3731,746.4
71.3857,202
71.3864,103.9
71.3877,327
71.4168,196.4
71.4208,237.7
71.4276,157.6
71.4419,383.9
71.4576,478
71.4581,21.6
71.4671,219.4
71.4844,25.4
71.4856,329.8
71.5066,283.8
71.5168,442.1
71.5292,810.4
71.5358,150.3
71.5854,144.9
71.6038,81.5
71.6143,501.4
71.6306,404.3
71.6312,417.4
71.6351,411.8
71.669,359.8
71.7284,144.2
71.7437,352.5
71.7698,752.8
71.7778,17.4
71.7902,390.3
71.8086,76.7
71.8265,130.3
71.8505,570.9
71.8513,92.4
71.8581,21.6
71.8607,264
71.8746,94.1
71.903,147.7
71.912,729.1
71.9153,163.7
71.918,18
71.9202,157.3
71.9321,387.3
71.9358,16.5
71.9387,539.3
71.9618,26
71.9733,793.2
72.0075,297.7
72.0198,298
72.0222,233.3
72.0369,197.6
72.052,267.3
72.0627,189.4
72.0665,120.3
72.0716,431
72.0735,129.9
72.0805,894.1
72.0894,245
72.1305,798.4
72.1485,75.6
72.158,120.9
72.1756,283.2
72.1914,19.2
72.1956,134.9
72.2013,19.1
72.203,120.6
72.2037,225.3
72.2117,116.6
72.2122,89.7
72.2142,532.6
72.2146,526.6
72.2152,1374.8
72.2159,559.8
72.2175,1600.9
72.218,1099.9
72.219,358
72.2202,2521
72.2217,2199.1
72.2227,1712.7
72.2237,1611.8
72.2241,1451.8
72.2246,3444.9
72.2254,3691.8
72.2259,3011.3
72.2277,2619.5
72.2286,3933.9
72.2302,2386.9
72.2309,2438.9
72.2317,4173
72.2332,743.9
72.2335,777
72.234,1192.7
72.2346,1773.1
72.2351,1353.5
72.2359,537
72.2371,21.3
72.2378,976.7
72.239,1343
72.2403,16.7
72.241,26.3
72.2418,450.8
72.2437,18.4
72.2445,15.5
72.2461,395.4
72.2477,443.6
72.2676,654.9
72.297,106.3
72.3139,17.6
72.3175,342.5
72.3213,90.8
72.3262,256.7
72.3276,16.3
72.3614,165.8
72.4355,188
72.4633,121.4
72.4718,359.2
72.4831,109.9
72.485,513.9
72.4983,16.8
72.5432,839.2
72.5677,134
72.5723,466.5
72.581,498.6
72.5925,291
72.6049,218
72.612,22.9
72.6185,261.6
72.6239,110.9
72.6296,203.1
72.6313,942.2
72.6367,305.2
72.7207,250.9
72.7497,17.4
72.7508,841.7
72.7757,525.3
72.8145,810.4
72.8209,636.8
72.8227,525.7
72.8256,286.4
72.8355,154
72.8389,93.7
72.8511,118.4
72.884,499.3
72.8941,546.5
72.8993,256.8
72.903,198.8
72.9035,291.6
72.935,274.5
72.9369,922.1
72.9401,175.4
72.9419,113.1
72.963,175.9
72.968,111
72.98,17.2
72.9899,317.4
72.9944,958.7
73.0109,303.3
73.0136,479.9
73.0222,318.9
73.0252,140.6
73.0414,110.4
73.0476,110.2
73.0837,134.9
73.1129,138.9
73.1248,91.4
73.1335,16.5
73.1342,669.9
73.2051,277.9
73.2092,264.8
73.2257,447.1
73.2262,276.4
73.2345,140.9
73.2424,16.3
73.2571,126.1
73.3113,220.2
73.3162,135.4
73.3488,101
73.3586,129.9
73.3799,280.5
73.3937,453.7
73.4048,188.4
73.4392,446.6
73.483,170.1
73.4838,502
73.4874,16.7
73.4916,539.2
73.4922,296.3
73.4951,213.1
73.5164,184.7
73.5405,128.2
73.5411,423.4
73.5591,18.9
73.5646,90.7
73.5863,101.6
73.6018,21.6
73.6308,19.5
73.6528,169.2
73.6977,105.1
73.7052,228
73.7382,15.5
73.769,142.4
73.7804,483.3
73.7861,514.2
73.8044,137.6
73.8069,713.7
73.8258,161
73.858,155.4
73.8883,98.9
73.9027,139.9
73.9269,121.3
73.9291,418.2
73.9336,107.2
73.9365,502.3
73.9399,488.8
73.957,21.2
73.962,423.7
73.969,535
73.9713,18
74.0177,584.9
74.0342,16.7
74.0381,639.4
74.0598,3678.2
74.0645,503.2
74.0784,139.4
74.0806,18.5
74.0824,108.4
74.0912,357.4
74.1011,510.5
74.1055,97.9
74.1227,17.3
74.149,95.7
74.1855,160.6
74.2155,149.1
74.2261,505.6
74.2341,205.2
74.2713,445.7
74.2728,326.1
74.2892,169.3
74.2961,326
74.318,308.3
74.3189,130.8
74.3415,268.3
74.3447,391.9
74.3493,149.4
74.355,236.4
74.3691,265.9
74.3729,116.3
74.3989,15.6
74.3999,807.6
74.4089,251
74.4105,213.4
74.4147,103
74.4234,110.7
74.4419,381
74.4638,104.8
74.4659,94.7
74.47,156.6
74.4917,88.3
74.4998,564.6
74.5063,16.4
74.508,76.8
74.5207,104.1
74.5509,75.8
74.5713,340.7
74.6066,162.5
74.661,227.2
74.6746,616.5
74.68,185.7
74.6837,175.7
74.7044,17.5
74.7062,17.4
74.7329,192.4
74.7457,574.3
74.7467,140.9
74.7478,19.6
74.7754,388.5
74.7767,512.6
74.8118,96.9
74.8308,310.8
74.8486,106.2
74.8574,124.9
74.8593,132.3
74.8704,276.4
74.8785,650.7
74.9012,180.1
74.91,95.8
74.9159,67.4
74.9204,185.8
74.9221,172.8
74.9365,17.8
74.9403,88.9
74.9461,20.1
74.9643,568.2
74.973,83.6
74.9887,226.4
75.0089,104.1
75.0311,100.5
75.0362,294.5
75.0394,358.7
75.0433,93.9
75.061,151.6
75.0671,68.5
75.0717,223.4
75.0828,494.8
75.0853,109
75.088,206.3
75.0924,562.9
75.1143,18.9
75.1364,98.5
75.1366,103.1
75.1478,98.8
75.1505,18
75.1621,163.9
75.1706,302.5
75.1738,89.9
75.1982,320.5
75.2709,108.4
75.2926,160.1
75.2952,181.4
75.3305,137.5
75.3622,19.2
75.3726,24.7
75.3749,87.6
75.3994,84.2
75.4019,192.4
75.4249,136.1
75.437,103.6
75.4713,298
75.4822,756.5
75.5048,23.8
75.5515,83.9
75.5552,139.8
75.561,331
75.5863,307.9
75.6108,310.2
75.6138,81.3
75.6749,154.2
75.6987,326.6
75.7044,218.4
75.7069,248.3
75.7092,499.3
75.7146,257.9
75.7167,110.3
75.7427,178.7
75.7543,147.1
75.7694,88.4
75.7844,392.6
75.8301,882.9
75.8325,108.4
75.8479,119.5
75.8676,699.5
75.8811,391.6
75.8865,412.5
75.9003,140.3
75.9036,420.3
75.9052,215.8
75.9105,522.6
75.9345,702
75.9412,256.4
75.9511,886.7
75.9667,336.7
76.0186,382.3
76.0329,17.5
76.0496,78.8
76.0847,514.7
76.1227,296.5
76.127,197.7
76.129,73.6
76.1398,157.9
76.1675,86.2
76.1876,497.4
76.2115,282.7
76.2145,103.5
76.2223,125.4
76.2325,470.3
76.2344,538.4
76.2369,206.2
76.3001,79.5
76.3597,19.9
76.4006,464.2
76.4379,201.5
76.45,209
76.4639,461.7
76.4787,197.4
76.4926,112.5
76.4981,158
76.5169,381.6
76.5191,136.8
76.5322,372.6
76.5417,77.7
76.5436,337
76.555,481.7
76.5663,299.1
76.5785,170.1
76.5938,120.1
76.6094,225.7
76.6145,144.7
76.6284,91.8
76.6341,70.3
76.6572,769.1
76.6588,264.8
76.6778,482.4
76.6811,243.8
76.695,407
76.7034,793.5
76.7105,493.8
76.7251,83.3
76.7377,307.7
76.7477,17.3
76.7731,124.8
76.7745,536.2
76.778,121.8
76.7843,78.1
76.801,305.7
76.8412,82.4
76.862,20.2
76.8883,97
76.8917,558.3
76.8926,22.6
76.9022,256.2
76.9245,98.8
76.9516,198.5
76.953,28.5
76.9596,180.8
76.9636,15.1
76.98,127.5
76.9805,100.1
76.9887,255.9
77.0286,88
77.035,19.4
77.0361,251.9
77.0384,122209.7
77.0486,218.6
77.0516,157.9
77.0973,71.3
77.1031,591.4
77.1215,167.5
77.128,483.9
77.1298,121.2
77.1495,869.3
77.1682,291.6
77.1902,210.3
77.2161,385.3
77.2405,116.6
77.2429,106.9
77.2466,543.9
77.2511,120.9
77.2697,170.9
77.2705,532.8
77.3808,16.4
77.3971,440.6
77.4064,303.2
77.5115,150.4
77.5699,470.3
77.5823,81.6
77.5877,159.3
77.623,508.4
77.6314,302
77.6435,71.2
77.6454,92.9
77.6506,84.8
77.6588,23.4
77.6616,620.4
77.6807,185.6
77.6837,125
77.6884,130.1
77.77,24.5
77.7879,628.6
77.813,340.2
77.8252,147.5
77.8353,93.7
77.8536,83.4
77.8787,91.2
77.8796,223.1
77.9049,85.3
77.9081,211.9
77.9841,538
77.9963,176.8
78.0272,96.2
78.0417,3588.4
78.0433,94.9
78.0778,144.6
78.1618,78.6
78.1915,122.5
78.2281,267.6
78.2381,503.7
78.2513,153.9
78.2596,134.3
78.2727,193.2
78.2842,287.2
78.2945,127.6
78.3014,430.3
78.3165,101.9
78.318,184.3
78.3202,116.7
78.347,169.3
78.3769,164.8
78.3787,656
78.3897,373.1
78.3922,86.9
78.4021,385.6
78.4403,373.8
78.4432,94.4
78.4535,87.3
78.458,173.6
78.5151,199.8
78.5567,19.8
78.5788,20.4
78.6146,434.7
78.6196,20.3
78.624,86
78.6341,305.2
78.6401,541.6
78.7153,273.7
78.7231,246.3
78.7538,140.5
78.7589,18.5
78.7683,16.2
78.7816,497.9
78.7821,272.1
78.835,289.1
78.8408,103.7
78.8739,101.8
78.8765,415
78.8859,265.4
78.9281,814.4
78.9468,496.1
78.9487,488.2
78.9577,666.7
78.9588,462.2
78.968,492
78.987,316.1
78.9919,286.2
78.9968,69.5
78.9993,118.9
79.0318,85.7
79.046,100.5
79.054,2696.6
79.0596,18
79.0669,18.9
79.09,249
79.0922,97.7
79.1094,790.2
79.127,174.2
79.1364,307.4
79.144,464.4
79.176,149
79.1999,143.3
79.2376,120.5
79.2519,69.8
79.2753,200.6
79.2972,550.9
79.3113,293.6
79.3243,19.4
79.329,266.9
79.3368,250
79.3566,190.6
79.3647,649.6
79.4007,464.4
79.4101,100.9
79.4172,113.2
79.4243,835.7
79.451,93.1
79.4615,283.2
79.504,146.6
79.521,500.4
79.5247,370.1
79.53,325.4
79.5412,750.5
79.5435,281.5
79.5552,803.3
79.5626,18.1
79.5744,135.2
79.5897,283.2
79.6035,143.1
79.6099,171.6
79.6168,271.5
79.6294,325.5
79.6305,19.4
79.6661,421.1
79.6968,368
79.6998,248
79.7033,103.3
79.7173,764.4
79.7378,203.5
79.7578,88.3
79.7664,367.6
79.767,549.4
79.7777,576.9
79.7857,70.1
79.8181,314.1
79.8358,235.9
79.8548,146.5
79.8607,437.8
79.8771,91.5
79.8781,68
79.8787,354.5
79.8796,107.6
79.8967,280.4
79.911,393.8
79.9468,138.5
79.9528,162.5
79.9742,490.4
79.9799,124.1
79.9869,694.8
79.9898,113.8
80.0212,152.5
80.0574,20.2
80.0888,90.2
80.099,22.3
80.1155,98.5
80.1304,153.2
80.1315,17.4
80.1395,457.9
80.1447,230.6
80.169,203.4
80.2232,91.4
80.2314,301.8
80.2752,390.5
80.2861,349
80.3171,347.2
80.3338,18.2
80.3541,134.3
80.3591,327.9
80.3681,140.5
80.3907,287.9
80.4083,419.5
80.414,133.5
80.4248,114.9
80.4254,68.6
80.4506,169.3
80.4589,319.6
80.4608,397.3
80.4648,119.3
80.4656,166.7
80.4861,508.4
80.49,315.2
80.5175,433
80.5312,183.1
80.5424,373.4
80.5432,298
80.5573,86.1
80.5584,101.8
80.5768,18.5
80.6172,162.4
80.6213,597.9
80.6255,112.2
80.6389,234.5
80.645,295.5
80.6491,120.7
80.6588,95.3
80.6742,87.2
80.7325,140.7
80.7392,242.9
80.7443,558.4
80.746,118.3
80.7497,135.5
80.7565,194
80.7715,186.3
80.8041,321.2
80.8078,664.6
80.8242,470.2
80.831,16.3
80.8381,285.3
80.8661,86.1
80.8704,83.4
80.8889,17.2
80.8923,482.1
80.9181,19.1
80.9477,57770.2
80.9656,181.6
81.0119,113.5
81.0169,358.3
81.0312,492.5
81.0325,451.8
81.035,232.8
81.0646,609.3
81.0697,1313.2
81.072,75
81.136,284.7
81.1368,1437
81.1386,279.3
81.1403,1266
81.1427,334.1
81.1453,137.6
81.1465,79
81.1851,479.2
81.2428,270.7
81.2497,127.5
81.2614,108.1
81.2666,471.1
81.2681,103.2
81.3165,351
81.3361,356.1
81.3375,66.4
81.3648,19.6
81.3712,18.4
81.3767,296.6
81.3799,20.8
81.3842,244.6
81.4082,154.4
81.4112,267.6
81.4451,340
81.4573,142.8
81.4795,268.9
81.5162,78.6
81.5187,97.8
81.5301,78.2
81.5446,16.7
81.5671,510.2
81.5897,295.4
81.6034,332
81.6139,347.4
81.6375,421.5
81.655,253
81.6786,312.8
81.6956,449.8
81.6972,124.6
81.7226,22.1
81.7464,238.6
81.7736,83.7
81.8016,324.5
81.8044,140.1
81.8103,115.6
81.8426,150.6
81.8433,17.6
81.8531,106.1
81.8705,121.9
81.8753,89.3
81.8786,225.2
81.8919,536.7
81.9016,17.9
81.9076,135.8
82.0054,106.8
82.0609,477.2
82.1478,132.2
82.1485,71.7
82.1599,102.5
82.1621,176.4
82.176,700.6
82.1846,16.6
82.1863,177.7
82.2177,99
82.2213,885.8
82.2311,214.8
82.2455,492
82.2581,154.1
82.3285,109.5
82.3333,291.1
82.3359,245.1
82.339,210.9
82.3583,599.2
82.364,218.1
82.3675,174
82.3719,140.1
82.4081,142
82.4183,74.6
82.4674,334.3
82.481,276.6
82.482,334.8
82.4838,169.6
82.5009,20.2
82.5448,132.5
82.5555,251.8
82.575,131.8
82.6014,218.3
82.6082,218
82.6255,197.4
82.6315,832.2
82.664,199.3
82.6695,331.6
82.6884,114.3
82.6943,209.3
82.7112,184.8
82.7306,92.1
82.7426,109
82.7712,316.1
82.7832,193.6
82.7916,397.4
82.8001,83.6
82.8161,427.9
82.8568,99.9
82.867,16.3
82.8949,197.7
82.8973,151.6
82.9024,454.3
82.9059,16.3
82.9082,288.7
82.9128,17.2
82.9253,93.3
82.927,358.8
82.9406,143.9
82.9447,17107.1
82.95,127.3
82.9785,299.8
82.9813,76.1
82.9963,80.8
83.0214,162.6
83.0373,235.5
83.0466,222
83.0854,29.6
83.1099,128.8
83.1277,165.2
83.1529,17.6
83.1678,19.8
83.191,482.9
83.2011,122.4
83.2391,380.7
83.2399,746.9
83.2431,112.5
83.2559,312.7
83.26,630.7
83.3012,851.1
83.3146,526.7
83.3184,110.2
83.3537,131
83.3583,262.3
83.3733,21.5
83.3744,152.8
83.3939,166.6
83.4139,275.5
83.418,621.9
83.429,109.1
83.4799,445.3
83.4828,175.4
83.5021,481.1
83.5098,234
83.5163,92.9
83.5421,242.4
83.5517,320.6
83.5549,161.8
83.5809,266.6
83.5832,173.6
83.5965,386.9
83.5997,121.2
83.6214,17.9
83.6484,96.5
83.6532,522.1
83.6539,446.4
83.6664,243.7
83.6887,842.4
83.7233,155
83.7304,93.6
83.7683,118.3
83.7744,544.1
83.7799,613.7
83.8005,202.1
83.817,228.3
83.8318,93.6
83.8525,137.3
83.877,238.4
83.8848,106
83.8947,389.4
83.8976,85.4
83.9229,139
83.9481,149.5
83.9558,303.9
83.9871,242.6
83.988,24.2
84.0024,17.8
84.016,389.7
84.0273,668.5
84.0432,575.1
84.0787,716.1
84.1015,111.4
84.1056,381.7
84.122,874.4
84.1634,436.1
84.1766,422.8
84.2058,133.7
84.2351,17.7
84.2424,652.4
84.2514,213.7
84.2699,20.9
84.3463,142.5
84.3487,108.6
84.3861,24
84.3872,319.6
84.4636,21.9
84.4881,153.9
84.5286,144.5
84.5294,195.3
84.5441,295.7
84.559,312.4
84.5629,313.8
84.5815,120
84.5911,295.9
84.6023,734.2
84.6062,260.1
84.636,367.6
84.6723,335.8
84.7369,514.9
84.7679,999.4
84.8139,286.6
84.8369,366.1
84.853,440.1
84.8929,295.4
84.9493,621.2
84.9595,21521.3
84.986,295.1
84.9998,301
85.0189,213.3
85.0282,5096.5
85.0367,143.3
85.0397,73.2
85.0502,259.3
85.0722,482.9
85.1024,793
85.1033,27
85.1152,231.5
85.1539,189.4
85.1897,215.2
85.2256,728.7
85.2467,685.3
85.2543,328.4
85.2775,107.3
85.2795,27.8
85.2858,19.4
85.2979,148.8
85.3304,17.3
85.3908,290.2
85.398,458.7
85.4444,185.8
85.4447,209.5
85.445,91.7
85.466,82.5
85.4866,93.9
85.4941,554.3
85.5052,768.3
85.555,133.2
85.6117,20.4
85.6127,20.6
85.6137,121.9
85.6234,188.9
85.6323,100.9
85.6422,188.7
85.6512,810.2
85.6564,197
85.6657,119.1
85.7052,252.2
85.7174,207.4
85.722,250.8
85.7391,102.2
85.7403,106.1
85.7445,188.7
85.7973,17.5
85.8015,674.2
85.8029,94.9
85.8119,167.7
85.8345,787
85.8413,174.7
85.8601,78.4
85.8609,144.9
85.9176,135
85.9649,17
86.0147,146.9
86.029,442.5
86.0424,320
86.0478,144.8
86.058,93.9
86.0599,39775.3
86.082,330.9
86.0946,504.4
86.0963,112289.6
86.1205,539.1
86.128,558.6
86.1485,411.8
86.1492,276.5
86.1786,174.5
86.1968,217.6
86.2043,208.8
86.2352,158.6
86.2463,398.3
86.2538,508.5
86.3288,17.7
86.3564,269.5
86.3638,106.4
86.3907,279.9
86.4166,133.5
86.426,284.6
86.4573,17.2
86.4596,172.2
86.4726,354.7
86.4747,77.5
86.5052,558.2
86.5205,27
86.5225,457.5
86.5543,376.3
86.5576,169.1
86.5892,700.4
86.5989,106.5
86.6094,192.5
86.6385,240.4
86.6801,177.4
86.6964,194.4
86.7051,357.5
86.7129,545.7
86.7192,147.7
86.7484,312.4
86.786,560.7
86.7919,308.1
86.8242,204.4
86.8324,184.7
86.8402,663.9
86.8532,494.1
86.8831,465.8
86.9047,146.1
86.9127,335.7
86.9189,104.1
86.9352,574.3
86.9527,152.3
86.953,313.5
86.9574,486.9
86.9932,438.7
87.0174,265.4
87.0203,405.6
87.0261,293.3
87.0739,216
87.0783,128.6
87.0814,504.2
87.0947,515.6
87.0981,85.5
87.0997,696.1
87.1343,18.5
87.1433,314.3
87.2553,288.1
87.2802,19.7
87.2821,99.5
87.2842,292.7
87.2927,470.1
87.32,298.1
87.3251,218.5
87.3274,494.8
87.3344,158.7
87.3355,112
87.3557,304.4
87.3623,331.6
87.3676,278.7
87.4688,717.6
87.486,164.7
87.4903,18.2
87.5001,130.1
87.5256,223.7
87.5376,104.8
87.5411,673.2
87.5619,229.2
87.5663,375.8
87.5746,201.7
87.5856,150.8
87.5897,961.9
87.6225,538.1
87.7041,18.6
87.7274,223.1
87.738,173.7
87.7401,510.2
87.7452,95.8
87.7608,498.2
87.8128,338.1
87.8283,100.1
87.831,274.2
87.8534,117
87.8791,110.6
87.8822,242.4
87.8993,120.2
87.9357,356.8
87.9804,123
87.9908,88
88.014,97.2
88.0203,523.9
88.0392,9342.5
88.0512,124.8
88.078,359.1
88.1324,178.7
88.1471,575.3
88.1725,258.5
88.1979,407.1
88.1988,122.2
88.2182,327.2
88.2247,95.5
88.232,18.2
88.2481,94.7
88.2568,303.2
88.3555,259.4
88.3755,86.7
88.397,120.8
88.4116,209.5
88.4187,114
88.4216,833.5
88.4227,22.3
88.4415,296
88.4582,297.5
88.4704,530.1
88.4937,17.3
88.4994,518.4
88.5101,696.4
88.5295,93
88.5461,105
88.5825,787
88.6018,414.7
88.61,227.6
88.621,879.7
88.6443,122.6
88.6557,110.6
88.7166,202.5
88.7421,695.6
88.743,110.7
88.7639,828.4
88.7984,535.7
88.8186,156.1
88.8334,152.6
88.8587,426.1
88.8627,340.9
88.9158,175.7
88.9345,21.8
88.947,269.8
88.9523,64
88.9526,88.3
88.9531,71.5
88.9687,21.4
88.9976,500.3
88.9995,369
89.0587,146.6
89.0631,309.1
89.0745,22.1
89.0855,93.8
89.1439,169.9
89.1543,275.7
89.2092,145.8
89.2284,169.8
89.3168,290.4
89.3183,125.7
89.3482,306.1
89.3726,496.7
89.386,21.1
89.4008,16.4
89.4187,222.5
89.4927,461.5
89.4966,708.6
89.5286,139.7
89.5476,136.8
89.55,664.3
89.5517,25.4
89.5628,108.3
89.5874,197.4
89.6021,152.7
89.6321,72.9
89.659,115
89.6625,199.5
89.6889,112.8
89.7022,263.3
89.7106,79.4
89.7116,178.1
89.7486,327.8
89.779,184.4
89.7911,316
89.8233,24.8
89.849,868.6
89.85,104.9
89.861,187.5
89.8795,173.8
89.9133,95.1
89.92,85.2
89.9298,387.7
89.9358,275.5
89.9371,16.2
89.9613,113.7
89.9636,599.4
89.9927,17.7
90.0178,181.4
90.0225,451.4
90.0363,367.3
90.0674,290.8
90.1054,112.8
90.1228,112.5
90.1296,474.9
90.132,540.7
90.1354,513.1
90.1414,653.7
90.1626,638.2
90.163,551.4
90.1634,542
90.1676,99.1
90.1721,190.7
90.213,190.4
90.2238,149.3
90.2636,388.8
90.2663,242.2
90.2996,260.4
90.3415,158.4
90.3468,545.3
90.36,16.8
90.3671,19.1
90.3762,341.1
90.3783,531.2
90.3943,154.2
90.4025,111
90.4104,481
90.4463,127.6
90.4799,751.9
90.4838,510.2
90.507,16.8
90.5271,335.5
90.5451,722.3
90.5559,124.5
90.5666,858.3
90.5817,296.8
90.6012,349.1
90.6652,205.7
90.7123,96
90.7433,21.8
90.7446,119.8
90.7637,498.6
90.7869,182.2
90.7946,590.2
90.8072,681.7
90.8107,97
90.9031,34.1
90.9097,168.4
90.9127,179.4
90.9186,161.8
90.9415,816.1
90.9476,4744.6
90.9765,10217
90.9809,103.3
91.0189,201.1
91.0303,463.8
91.0541,1610.4
91.1126,121.7
91.1137,238.4
91.1384,581.1
91.1512,99.5
91.1546,17.3
91.1764,156.7
91.2078,433.4
91.2246,124.3
91.2494,208.4
91.2554,123.4
91.2589,17.5
91.2616,309.5
91.2841,20
91.2864,90
91.3125,17.6
91.3333,118.9
91.3761,132.1
91.401,216
91.4494,120
91.4596,215.7
91.4748,827.5
91.5037,79.6
91.5138,180
91.5347,16.6
91.5593,108.8
91.5681,427.6
91.5914,110.1
91.6258,587.1
91.6344,571
91.6444,131.7
91.7135,147.4
91.7278,526.1
91.7681,550.6
91.7712,233
91.8221,303.7
91.8553,779.3
91.8572,73.8
91.9125,383.6
91.9316,123.9
91.9481,31.9
91.998,132.4
92.0231,79.9
92.0322,716.2
92.045,403.2
92.0467,174.5
92.0494,204
92.0627,469.6
92.066,555.7
92.0696,17.4
92.0736,98.6
92.09,73.7
92.1227,107.4
92.1373,529.1
92.1472,170.7
92.1599,162.1
92.193,93.4
92.1965,113.5
92.1978,314.8
92.2057,749.1
92.2278,99
92.2676,497.7
92.3419,288.3
92.3556,167.5
92.3572,480.1
92.3594,278.7
92.3765,522.2
92.3862,97.9
92.4036,123.6
92.4053,202.2
92.4442,114.1
92.4502,499.2
92.461,465.2
92.5297,397.5
92.5582,188.6
92.5898,112.1
92.6088,194.9
92.6338,207.5
92.6647,190.1
92.6682,17.3
92.6904,18.7
92.6955,84.5
92.7106,107.6
92.7277,149.3
92.7292,115.1
92.7401,198.8
92.7523,299
92.7797,311.7
92.7923,142.2
92.799,350
92.8013,378.3
92.8029,416.1
92.8281,179
92.8365,17.7
92.8638,291.5
92.8872,130.8
92.9001,17.6
92.9079,180.3
92.9443,494.7
92.9562,370
92.9678,181.4
92.9858,95.5
92.9872,110.3
93.0126,655
93.0209,496.3
93.0423,107.9
93.0454,163.3
93.0504,392.6
93.0698,123.6
93.0951,17.7
93.0963,177.7
93.1165,91.7
93.1261,277.7
93.1343,670.8
93.1589,314.2
93.1707,221.5
93.1758,86.3
93.1773,934.8
93.2196,71
93.2297,101.5
93.2595,242.2
93.2619,73.4
93.2808,279.2
93.3222,186.1
93.3542,120.5
93.3765,500.5
93.403,593.4
93.417,20.3
93.4192,115.8
93.4561,281.5
93.4953,455.2
93.5069,133
93.508,287.7
93.5185,315.4
93.5379,186.5
93.5778,745.8
93.5862,26.8
93.5932,370.9
93.598,250.2
93.6045,487.6
93.6066,97.1
93.6105,252.5
93.6692,138.4
93.6944,203.6
93.7172,467.8
93.7287,279.6
93.7314,95.9
93.7367,18.9
93.7878,172.8
93.8272,549.2
93.8305,766.5
93.8649,131.2
93.8719,541.7
93.9423,99.1
93.9577,504.6
93.9631,105.4
93.9894,117.4
93.9928,538.2
93.9952,447
94.0109,1207.1
94.0274,133.4
94.0385,316.6
94.0412,57423.4
94.0651,23.6
94.0876,23.1
94.105,454.2
94.1313,268.8
94.1338,117.3
94.1434,22.2
94.1494,17.9
94.1675,102.6
94.1856,19.9
94.2009,521.9
94.2311,520.3
94.2523,19.4
94.2542,21.1
94.2973,454.1
94.3589,628.8
94.3875,230.3
94.409,174.8
94.4131,111
94.4684,163.9
94.4864,132.7
94.5001,421.6
94.5083,168.1
94.5466,18
94.5723,480.6
94.594,819.3
94.6165,111.4
94.6264,181.5
94.646,322.1
94.6879,179.6
94.7665,20.2
94.7784,386
94.7989,149.9
94.8129,269.8
94.8174,194.4
94.8219,160.6
94.8345,382.5
94.8427,97.2
94.8471,812.7
94.8578,212.6
94.8959,487.2
94.9474,211.5
94.9543,25.2
94.9964,145.5
95.0096,137.1
95.0356,25.9
95.0366,641
95.0446,1033.8
95.0457,34.3
95.0466,25.9
95.049,416087.1
95.051,84.3
95.0521,19.3
95.0624,22.6
95.0675,18
95.0771,759
95.079,16.8
95.0823,352.5
95.084,408.4
95.0855,682.5
95.1181,562.3
95.2221,247.9
95.2378,151.9
95.2446,319.8
95.2515,210.3
95.26,680.9
95.2738,103
95.2754,438.4
95.3206,167.6
95.3352,96.1
95.4049,505.4
95.406,80.2
95.4197,780.7
95.4449,107.8
95.4705,737.2
95.4809,157
95.537,150.7
95.539,650.8
95.5769,99.5
95.5816,315.7
95.6316,195
95.6407,249.3
95.6424,549.9
95.6473,175.2
95.7085,460.1
95.7314,282.3
95.7521,118
95.7636,19.1
95.7662,419
95.7934,103.5
95.8,394.3
95.8136,20.3
95.8157,852.5
95.8386,325.3
95.8436,393.5
95.8967,238.4
95.9297,166.3
95.9489,517.9
95.9522,394.2
95.9988,517.1
96.0034,302.8
96.0211,242
96.0407,19.3
96.0524,20341.6
96.0603,135.4
96.0986,593.2
96.1393,94.2
96.1672,205.2
96.1817,18.9
96.212,19.2
96.216,261
96.2188,152.6
96.2273,261.8
96.2672,94.1
96.2941,487.6
96.3462,356.5
96.4046,327.4
96.4233,527.2
96.4767,101.1
96.5182,521.3
96.5192,151.1
96.6138,215.3
96.6221,314
96.6262,381.2
96.6298,784.6
96.6374,200
96.6503,86.7
96.6552,282.4
96.67,162.9
96.7392,568.7
96.7427,100
96.7563,586.8
96.7593,143.8
96.7683,93.2
96.7734,17.7
96.7909,21.4
96.8493,19.1
96.8836,26
96.9079,22.4
96.9217,154068.4
96.9375,76.8
96.9431,304.8
96.9806,110
96.9876,176.3
96.9882,159.4
97.0075,225.8
97.0382,70.6
97.0533,91.1
97.0558,53.1
97.061,101.1
97.0646,21.4
97.0859,16.5
97.087,132.7
97.1012,54.9
97.1068,278.1
97.1439,22.8
97.1741,182
97.1821,94.9
97.2447,126.4
97.3135,427.9
97.3199,951.5
97.3248,106.7
97.3448,347.1
97.3696,624.7
97.3715,17.1
97.4084,92.1
97.4175,598.8
97.4297,302.2
97.4798,283.7
97.5035,347.3
97.508,268.6
97.5094,848.4
97.5162,19.1
97.5176,17.1
97.5226,486.7
97.5259,101.8
97.5649,753
97.5716,110.5
97.5938,539.2
97.6041,156.6
97.6111,210.2
97.6442,160.8
97.6488,197.3
97.7196,772.7
97.7204,20.2
97.7431,22.3
97.7548,17.8
97.7622,242.5
97.7658,159
97.7712,126.3
97.8299,106.4
97.8432,16.7
97.8444,379.5
97.9231,147.3
97.9496,70.5
97.9625,355.1
97.9853,108.1
97.9869,70.8
98.0154,331.6
98.0274,224.2
98.0386,359.1
98.0683,583.1
98.0827,193.2
98.0887,16.8
98.0962,281
98.1394,165.6
98.1441,16.9
98.1483,90.3
98.1807,18
98.2076,132.5
98.2198,951.7
98.2622,248.7
98.272,21.7
98.3077,493.4
98.32,314.7
98.3387,19.7
98.3462,23.1
98.4329,226.9
98.4527,786.9
98.4678,124.6
98.477,474.1
98.5314,18.3
98.562,606
98.5716,370.1
98.5889,589.9
98.5892,586.4
98.5952,221.2
98.6018,288.8
98.6116,16.9
98.613,96.7
98.6182,469.1
98.6223,204.7
98.6401,289.6
98.6652,23.5
98.6821,340.5
98.6853,89.7
98.6918,248.8
98.7365,216.8
98.7569,246.4
98.7876,149.4
98.8075,85.5
98.8284,134.9
98.8353,79.4
98.8927,305.1
98.894,201.7
98.8999,134.4
98.9084,317.6
98.9154,90.2
98.9187,45152.1
98.9198,5204.8
98.9213,108.9
98.929,515.7
98.943,866.8
98.9489,544.1
98.9753,21273.4
98.981,183.3
98.9841,43
98.9907,801.2
98.9992,280.3
99.0685,131.5
99.0717,473.9
99.0853,300.7
99.0977,178
99.103,153.1
99.1188,139.6
99.1606,16.7
99.1702,399.3
99.1989,116
99.2203,336.9
99.2287,75.7
99.2398,492.1
99.2563,306.2
99.2741,90.4
99.3032,18.7
99.3043,249.8
99.3094,85.1
99.3464,159.8
99.3516,526.7
99.3886,177.6
99.4145,18.8
99.4381,99.9
99.4828,16.9
99.5021,836.3
99.5081,87.3
99.5207,99.6
99.5259,104.7
99.5818,24.4
99.6211,495
99.6838,146.7
99.6928,144.9
99.6974,281.6
99.7188,573.6
99.8149,474.5
99.8277,132
99.871,95.4
99.8861,229.5
99.904,302.3
99.9067,27.2
99.9368,363.4
99.9429,21.2
99.9434,23.8
99.9492,329.4
100.004,151
100.0335,145.4
100.0459,301.1
100.0604,278
100.0756,33.9
100.1367,201.4
100.1416,24.2
100.161,27.2
100.1625,542.8
100.2194,16.1
100.2602,124
100.27,126
100.2767,69.2
100.2875,21
100.2947,101.1
100.318,608.6
100.3248,17
100.3347,457.6
100.3547,569.3
100.3738,190.3
100.3812,198.5
100.3911,314.3
100.4473,116.2
100.4506,135.6
100.4669,130.8
100.473,460.2
100.4838,221.6
100.4978,153.4
100.5428,17.5
100.5462,120.9
100.5568,579.2
100.6077,569.2
100.6167,16.5
100.6281,103.9
100.6364,693.4
100.6404,335.1
100.6829,595.8
100.6992,277.6
100.7003,106.8
100.705,300.6
100.711,530.4
100.7249,88.3
100.7551,175.3
100.7696,18.4
100.8388,16.4
100.8415,147.7
100.8558,169.8
100.8668,324.6
100.8781,103.6
100.9169,827
100.9214,457.8
100.9248,588.2
100.9289,17.9
100.9511,189.8
100.9687,18.4
100.9805,242.9
100.9848,184.1
101.0064,711.5
101.0164,17.8
101.0471,1984
101.0687,21.2
101.1015,717
101.1053,551.6
101.1089,115.1
101.1378,163.5
101.2585,119.8
101.2628,172.7
101.2738,134.5
101.3029,281
101.3176,103.7
101.3586,259.8
101.3673,304.9
101.3715,73.9
101.3755,393.9
101.378,157.8
101.3896,659.5
101.3943,122.7
101.4256,167.1
101.4849,511.9
101.5096,143.3
101.5174,17.3
101.5327,124.1
101.5573,283.6
101.5783,429.3
101.5829,88.7
101.5921,103.1
101.5964,18.3
101.6045,286.1
101.6051,287.9
101.6296,537.3
101.6324,156
101.6368,546.1
101.6841,522
101.6852,302.6
101.7442,109.3
101.7702,433.3
101.7717,258
101.7781,454.5
101.8099,17.7
101.8269,510.7
101.8491,209.5
101.8788,271.7
101.9,96.2
101.9085,139.5
101.9267,494.2
101.9355,514.9
101.9378,17.5
101.9396,491.9
101.9636,277.7
101.9832,237.7
102.0177,85.7
102.031,336.9
102.0549,4924.7
102.0823,427.7
102.0982,15.8
102.1384,97.7
102.1395,96.4
102.1509,136.9
102.1939,211.3
102.2352,559.4
102.2442,211.3
102.3012,169.4
102.312,317.4
102.341,550.9
102.3568,17.4
102.372,121
102.391,583.3
102.4009,142.2
102.4071,17.9
102.421,166.5
102.4225,153.5
102.5413,85.9
102.5644,238.3
102.5658,835.5
102.5732,141.9
102.5962,16.9
102.6126,322.8
102.6457,69.5
102.6497,250.5
102.6619,564.4
102.6662,209.5
102.6744,151
102.6902,569.3
102.7225,176.8
102.7636,314.1
102.7785,169.8
102.8115,259.4
102.8191,262
102.8377,178.9
102.8479,353.6
102.8808,335.6
102.8832,225.1
102.9476,32.6
102.9582,242.1
102.9643,106.1
102.968,181.3
102.9702,503.8
102.9776,92.9
102.9927,93.8
102.9951,21.9
102.9993,18.1
103.0039,239.7
103.0243,98.6
103.0724,409.4
103.0823,188.4
103.0879,112.1
103.109,17.8
103.1101,295.7
103.1458,515.5
103.2013,201
103.2203,19.4
103.2215,168.4
103.2553,135.9
103.2752,109.9
103.2767,800.7
103.2789,168.3
103.2962,114
103.2977,17.8
103.2995,16.6
103.3305,125.8
103.3528,183.8
103.4797,532.5
103.4961,831.2
103.5032,85.5
103.5249,231.6
103.5907,633.5
103.6239,21.4
103.7067,170.4
103.712,89.2
103.733,197.1
103.7373,641.8
103.7702,18.5
103.7762,103.5
103.7833,110.8
103.8157,95.2
103.8734,18.7
103.9292,208.6
103.942,280
103.9496,515.6
103.9663,35.9
103.9687,344.8
103.9793,361.3
104.0723,330.8
104.0846,551.7
104.1069,407477.9
104.1414,73.1
104.1573,17.1
104.2035,186.1
104.2296,168.4
104.239,102.4
104.2474,300.7
104.2814,98.3
104.2974,203.1
104.305,17.1
104.3491,152.9
104.3519,93.8
104.3651,266.4
104.3725,225.4
104.3798,97.6
104.4032,18.1
104.4258,168.7
104.4295,275.1
104.4545,24.9
104.5078,178.2
104.5269,215.1
104.5287,747.1
104.5369,159.2
104.5451,131.8
104.629,132.2
104.673,520.5
104.7233,17.7
104.7266,800.8
104.7672,130
104.8063,165.8
104.876,243.8
104.9064,223.9
104.9076,48.1
104.9481,187.7
104.9633,6552.4
104.974,493.6
104.9896,322.5
104.9923,4709.1
104.9994,565.6
105.0185,444.3
105.0418,23.4
105.0433,109.3
105.0447,39106.5
105.0699,213.3
105.0963,103.9
105.1103,13971.9
105.1372,103.7
105.1427,314.3
105.1716,439.4
105.1855,193.1
105.207,17
105.2161,307.1
105.2499,117.3
105.2891,147.7
105.3203,85.2
105.3207,86.8
105.3719,17.1
105.3975,307.4
105.4022,256.6
105.4032,21
105.4206,131.5
105.4296,122.7
105.4372,156.3
105.4525,323
105.4791,520.6
105.509,537.3
105.5101,168
105.525,181
105.5458,562.7
105.5715,277.5
105.5996,101.5
105.7179,210.1
105.7282,179.4
105.8437,341.9
105.8519,288
105.8768,153.3
105.9574,120
105.9637,54.9
105.9667,23.1
105.9729,609.2
105.9852,111.5
105.9922,178.2
106.0065,127.6
106.0221,651.7
106.0481,1058.2
106.0651,50.2
106.0715,594
106.1087,597.9
106.1306,335.7
106.1448,349.1
106.1662,110.1
106.26,192.9
106.2914,258.7
106.2937,90.5
106.3074,173.9
106.3299,281
106.347,33.3
106.3643,23.6
106.3792,16.5
106.4034,196.8
106.4162,278.9
106.4374,17.7
106.4439,17.3
106.4645,448.4
106.4675,345.4
106.469,106.5
106.5336,115.8
106.5354,91.8
106.5696,369.1
106.6713,187.8
106.706,91.5
106.7094,83.6
106.7258,174.8
106.7347,94.6
106.7367,231.7
106.7417,282.5
106.7481,85.6
106.7646,98.3
106.7688,276
106.7889,172.7
106.864,112.9
106.8883,282.8
106.8985,18.2
106.9435,21.6
106.9505,5796.1
106.9569,85.9
106.9637,190.5
106.992,28
106.9974,95.4
107.0282,103.6
107.0491,424.4
107.0635,16.2
107.0855,19.7
107.106,99
107.1652,351.3
107.2464,285.8
107.2735,373.6
107.3228,296.6
107.3351,16.7
107.3742,174.3
107.3824,82.6
107.4096,123.4
107.4797,91.5
107.5311,24.9
107.5354,22.2
107.5894,86.6
107.5934,81.4
107.616,810.4
107.6821,523.9
107.7525,23.7
107.7757,117.4
107.7829,17
107.8173,184.5
107.8517,170.3
107.8608,446.1
107.8721,449.5
107.8834,391.3
107.9045,117.5
107.9214,116.2
107.9396,191.1
107.9709,91.3
107.9746,332.4
107.988,22.1
107.9986,100.1
108.0204,17.3
108.0263,174.7
108.0571,19.7
108.0605,450.1
108.0626,94.2
108.0781,491.3
108.0978,259.7
108.1132,108.6
108.1229,99.4
108.1338,336.7
108.1802,112.1
108.1819,145.2
108.2006,272.2
108.2386,17.4
108.3128,201.4
108.3876,183.9
108.3883,552.9
108.4175,697.5
108.4232,111
108.5045,96.6
108.5107,95.5
108.5806,148.2
108.6111,173
108.6267,79.3
108.6341,140.4
108.6688,371.8
108.6795,198.8
108.7515,20.3
108.7555,130.6
108.7572,292.9
108.7686,148.7
108.7829,288.9
108.8141,475
108.8416,193.5
108.8529,153.5
108.8564,89.8
108.882,71
108.8955,86.9
108.9137,18.4
108.9444,285.5
108.9529,308.2
108.9582,153.2
108.9828,74.2
108.988,18.4
109.0648,61193.1
109.0919,156.2
109.1012,1029.1
109.1268,498.1
109.1437,516
109.16,573.9
109.188,472.8
109.1893,176.7
109.1941,303
109.2085,159.6
109.2225,446.5
109.2482,205.4
109.2608,18.7
109.2721,16.6
109.2931,166.4
109.2968,348.9
109.3203,299.2
109.3222,410.9
109.3279,636.9
109.4084,156.3
109.4873,500.8
109.5628,157.3
109.5779,429.7
109.5843,162.6
109.7119,202.7
109.7986,452.1
109.8066,502.1
109.8296,106.9
109.834,20.2
109.8946,277.7
109.9016,18.1
109.9045,299.6
109.9129,19.9
109.9364,467.3
109.9674,247.3
109.9711,75.6
109.9778,97.1
109.9791,19.4
110.0259,913.8
110.0681,2357.2
110.0842,85.6
110.1028,316.4
110.1064,227.7
110.1094,173.6
110.1739,476.9
110.1899,912.9
110.2106,18
110.2924,442.5
110.3027,381.7
110.3258,288.6
110.3336,137.8
110.336,138
110.3391,87.7
110.3415,292
110.4141,93.7
110.4343,601.5
110.4526,119.2
110.4721,189
110.4764,111.1
110.4848,319.7
110.5578,665.9
110.5815,214
110.6249,303
110.6501,248
110.6723,452.2
110.6877,18.4
110.7257,123.2
110.7475,558.2
110.8065,140.1
110.8414,693.5
110.8647,614.7
110.8799,101.3
111.0025,323.1
111.0232,321
111.044,244.3
111.0803,17.2
111.0865,95.6
111.1098,197.8
111.1411,114.3
111.158,23
111.1885,184.8
111.2009,94.3
111.2247,81
111.2324,559.3
111.2825,111.7
111.3415,321.4
111.3802,263.5
111.4015,146.4
111.4233,94.4
111.445,90.6
111.4588,137.1
111.4658,476.7
111.4773,111.5
111.4868,181.5
111.4958,830.4
111.5045,410.2
111.5339,165.1
111.5505,579
111.6071,140.6
111.6317,19.2
111.6904,146.4
111.7534,243.6
111.7588,20.4
111.7601,115.3
111.7676,75.6
111.8624,128.3
111.8766,98
111.9771,525.9
112.0732,131.6
112.0995,606.7
112.1279,925.5
112.1304,106.1
112.1479,291
112.2132,102.5
112.236,81.7
112.2472,548.3
112.2579,73.7
112.2741,237.3
112.3132,251.3
112.3889,108
112.4115,669.9
112.4589,150.5
112.465,19.2
112.4722,150.9
112.5036,105
112.5274,1171.5
112.5462,680.8
112.5684,202.8
112.5836,493.6
112.5938,231.5
112.6209,480.2
112.6419,325
112.675,182.9
112.6887,21
112.7085,145.8
112.724,20.2
112.7468,294.6
112.7955,309.3
112.8201,218.2
112.8249,474.6
112.8339,268
112.8469,218.6
112.8494,17.1
112.8957,413516
112.916,124.5
112.9459,158.7
112.9866,18.7
112.9892,1178.9
112.9918,16.8
113.0057,142.2
113.0506,572.6
113.0908,150.7
113.1073,229
113.1235,99.3
113.1359,292.6
113.1545,341.7
113.2044,540.3
113.2142,18
113.2323,169.1
113.2379,17.4
113.2629,210.7
113.3137,183.8
113.3935,284.2
113.3975,177.6
113.4231,111
113.4623,17.4
113.4719,103.9
113.4751,478.1
113.4838,246
113.4939,82.4
113.5966,18.1
113.6538,112
113.682,232.6
113.7861,107.1
113.7879,172.5
113.8,174.6
113.8219,1403.1
113.902,116.4
113.9049,19.2
113.9448,190
114.0549,53887.7
114.073,134.5
114.1138,432.1
114.1228,99
114.1298,695.5
114.1416,211.4
114.1941,520.7
114.1995,141.2
114.2662,560.1
114.268,234.7
114.2691,23.4
114.2831,234.6
114.2941,26.2
114.3226,95.7
114.3706,168
114.3929,155.1
114.414,72.2
114.4373,137.6
114.4385,213.5
114.4457,21.1
114.459,20.9
114.5416,198.1
114.5435,213.1
114.5612,397.5
114.6091,112.1
114.6123,93.4
114.6177,256.4
114.6239,136.4
114.638,501.9
114.6675,121.1
114.6871,185.6
114.701,112.2
114.712,17.5
114.7703,201.8
114.7764,107.8
114.8286,309
114.8478,138.4
114.8731,314.5
114.8928,127763.4
114.9066,106.7
114.921,99
114.9283,281.6
114.9414,88.4
114.9482,516.5
115.0571,78.5
115.0583,1229.5
115.1228,101.5
115.1329,238
115.2214,80
115.2945,543.5
115.3517,115.6
115.3945,110.6
115.4161,27
115.4251,419
115.4654,26.8
115.4842,478
115.5011,17
115.5045,262.2
115.5226,144.5
115.5612,108
115.5679,99.3
115.59,18.8
115.5917,161.9
115.6139,97.2
115.6719,89.4
115.6789,137.3
115.6872,235.6
115.7238,133.8
115.7485,246.6
115.7613,168.2
115.7816,85.9
115.7898,168.9
115.8265,232
115.8666,161.1
115.8808,287.1
115.9404,19.4
115.9416,155.6
115.9484,53.6
115.9793,723.5
116.0345,99.6
116.0425,319.4
116.0633,164.1
116.0706,2344.4
116.1221,500.6
116.133,306.2
116.1495,254.9
116.1722,294.3
116.2013,497.6
116.229,109.2
116.2458,545.6
116.2607,168.7
116.2637,18.3
116.2678,261.1
116.2798,228.4
116.2998,296.5
116.3404,113.3
116.3683,193.4
116.3695,303.3
116.3802,592.8
116.381,101.4
116.4131,19.6
116.4824,205.9
116.5327,100.5
116.5633,776.8
116.5711,306.1
116.5726,713.4
116.5902,633.3
116.6608,101.1
116.7227,120.8
116.7302,519.3
116.7435,19
116.7483,437.2
116.752,301.9
116.7654,422.2
116.8523,212.2
116.8909,15814
116.8972,470.9
116.9482,43.9
116.9595,477.3
116.9633,171.9
116.9842,72.3
116.9859,2182.7
117.0462,365.7
117.0698,67.2
117.0729,522.6
117.0825,187.8
117.1232,125.3
117.1585,540.4
117.1974,17.7
117.2022,157
117.2169,514.9
117.2346,422.6
117.2848,648.5
117.3059,335
117.3174,82.4
117.3438,93.7
117.3842,605.6
117.5264,504.7
117.5279,162.9
117.5857,99.4
117.5927,320.6
117.6061,189.8
117.6212,209.5
117.6296,153
117.6513,187.4
117.6814,160.6
117.7282,436.9
117.7409,163.5
117.7575,168.4
117.7626,442.3
117.7838,145.9
117.871,93.7
117.8938,153.3
117.9183,111.5
117.9671,24
117.9875,128.5
118.028,181.7
118.0673,255.9
118.0788,275.7
118.0862,504
118.0953,196.7
118.104,715.6
118.1195,369.8
118.1354,101.3
118.182,296.4
118.1976,98.4
118.2249,109.5
118.2757,415
118.2892,856.8
118.3172,199.8
118.3455,145.8
118.3609,18.3
118.4384,522.9
118.4669,264.5
118.4788,118.8
118.5015,466.7
118.5107,312.2
118.5539,164.4
118.5863,552.4
118.6082,517.2
118.7067,131
118.7384,113.9
118.7581,128.5
118.7779,280.3
118.7833,381.7
118.8024,484.6
118.8273,587.2
118.898,81.5
118.9426,1089.9
118.9645,161.8
118.979,1164.6
119.0164,321.6
119.019,21.6
119.0206,214.3
119.0291,24.2
119.0831,219.3
119.0993,141.1
119.1555,133.7
119.1803,22.3
119.198,183
119.2228,247.3
119.2514,87.4
119.2741,384.2
119.2855,173
119.3064,133.5
119.3998,193.8
119.4105,24.5
119.4126,22.3
119.4168,293.7
119.4633,17.7
119.5233,115.1
119.5724,131.2
119.5786,546.9
119.582,87
119.6254,255.5
119.7006,349.7
119.7333,97.2
119.7514,169
119.7787,395.2
119.7868,343.8
119.8358,132.8
119.8718,18
119.8728,710.8
119.889,673.2
119.9079,136.7
119.9214,154.5
119.9433,329.9
119.9684,155.8
119.9816,256.2
120.0032,3747.2
120.0097,160.7
120.0311,362.6
120.0756,328.8
120.0808,10085.9
120.0919,343.2
120.0953,19.1
120.1094,293.1
120.1468,928.2
120.1808,230.3
120.2104,18.3
120.2532,17
120.2653,168.5
120.2908,116.7
120.3112,565.9
120.3263,392.2
120.3506,547.5
120.3612,237.9
120.3694,93.5
120.3969,134
120.4279,177.2
120.4384,97.5
120.4876,110.7
120.4914,278.5
120.5191,594.7
120.5713,207.1
120.5766,235.7
120.5824,91.5
120.5886,352.2
120.6535,608.3
120.6921,466.5
120.7668,689.7
120.8122,115.6
120.8221,159.7
120.8265,398.3
120.8598,332.5
120.9179,281.7
120.9321,343.8
120.9382,19.6
120.9576,20.1
120.964,342.2
120.9662,831.2
120.9793,519.7
120.9808,97.1
121.0076,247.8
121.0253,88.3
121.0284,472.5
121.0398,27.3
121.0717,332.2
121.1013,490.2
121.1068,90.8
121.125,295.5
121.1316,95.3
121.1857,135.8
121.2012,288.2
121.2134,129.4
121.2367,98.9
121.2653,197.7
121.3123,617.7
121.3469,535.3
121.4385,293.7
121.5031,343.6
121.5148,107.7
121.5218,630.9
121.5282,134
121.5816,297.9
121.5991,130.2
121.6119,159.7
121.6268,252.2
121.6333,97.6
121.6576,219.1
121.661,18.8
121.6644,17.6
121.6754,22
121.6892,101.6
121.6924,83.6
121.7562,342.3
121.7666,126.4
121.7898,19.2
121.8054,307.1
121.8379,104.4
121.919,282.1
121.9472,93.9
121.9516,93.7
121.9833,211.3
121.989,122.8
122.025,96.3
122.0368,118.9
122.0458,286.4
122.1024,100.2
122.105,247.7
122.1435,243.5
122.144,240
122.1642,294.6
122.1663,25.2
122.2211,345.3
122.2447,147.2
122.2853,513.8
122.2939,87
122.3233,105.3
122.3903,17.3
122.4172,102.2
122.4325,19
122.4565,275.7
122.4956,923.6
122.506,109.6
122.5287,194.5
122.5493,109.9
122.5587,152.3
122.6695,146.8
122.7067,468.4
122.709,214
122.7205,91.4
122.7262,288.8
122.7283,289.9
122.7741,149.1
122.8931,76.8
122.8938,125.1
122.8942,106.9
122.8991,247.7
122.9245,20288.4
122.9295,20.6
122.9338,118.4
122.9671,286.3
122.9739,304.2
122.9981,193.4
123.0233,126
123.0805,52.2
123.1589,144.7
123.2162,1252
123.3005,94.6
123.3085,393.2
123.3279,218
123.3444,16.5
123.3672,287.5
123.3976,315.8
123.4194,161.4
123.4407,93.8
123.465,147.4
123.4922,155.7
123.5197,19.3
123.5835,673.2
123.5962,91.8
123.6683,187.8
123.691,121.1
123.6995,371.1
123.7166,68.7
123.7419,19
123.7544,480
123.7746,21.6
123.8106,149.8
123.8518,78.4
123.9251,163.9
123.9529,143.1
123.9922,16.9
124.0277,230.4
124.0368,510.8
124.05,481.3
124.0732,273.7
124.101,264.4
124.1092,224.1
124.125,140.8
124.1295,200.2
124.2057,96
124.2628,231
124.266,236
124.2678,914.5
124.2915,217.5
124.2978,178.7
124.3596,188.5
124.371,228.5
124.3759,204.4
124.3944,78.3
124.4753,306.3
124.5508,559.9
124.6224,703.7
124.659,198.8
124.6763,23.3
124.8391,76.9
124.8484,443.6
124.8511,20.9
124.8589,17.3
124.8659,822.5
124.8941,212.1
124.9142,155.5
124.9227,2668.5
124.9417,611.1
124.9515,179.5
124.9711,264.2
124.9852,733.7
124.9998,4347.2
125.0056,1441.1
125.0272,88.3
125.0389,250.8
125.0407,102.5
125.0429,626
125.0601,345.6
125.0891,753.5
125.0985,88
125.1064,127
125.2498,144.4
125.2924,265.9
125.3447,170.7
125.3586,514.2
125.3626,322.6
125.3855,30
125.467,125.6
125.5056,269.4
125.5074,356.8
125.5414,478.9
125.5649,78
125.5778,733.7
125.5876,624.3
125.622,166.5
125.6808,551
125.6942,213.8
125.6977,339
125.7435,226.5
125.8026,518.3
125.8634,19.7
125.8687,16.1
125.8976,123.5
125.925,128.1
125.9428,467.6
125.9434,460.9
125.9503,238.8
125.9615,103.8
125.9769,105.9
125.9849,22.5
126.0001,246.6
126.009,51.8
126.0771,163.8
126.0962,651.2
126.2234,809.9
126.2249,339.1
126.2734,182.5
126.3109,516.8
126.3994,336.8
126.4763,218.8
126.4925,20
126.5069,169.9
126.5517,96.6
126.5781,179.3
126.6117,123.1
126.6313,125.6
126.6698,318
126.788,17.1
126.7901,83.5
126.7975,126.2
126.8377,191.9
126.915,95.8
126.9192,184.2
126.9234,184.9
126.9615,524.1
126.963,122.7
126.9775,479.7
127.0048,328.7
127.0253,832.8
127.0413,268.3
127.0479,331
127.0716,84.3
127.1865,138.6
127.2112,352.5
127.2136,302.8
127.2586,17.7
127.2679,526.9
127.2765,306.1
127.2794,481.7
127.3561,96
127.3713,147.2
127.3824,194.7
127.4859,99.3
127.5101,17.8
127.5463,166.2
127.6222,24
127.6282,124.6
127.6547,344.9
127.7265,563.9
127.7736,256.8
127.7808,495.8
127.8088,227.7
127.8573,196.1
127.9119,165.9
127.9949,211.3
128.0158,57.3
128.0285,574.5
128.0484,425.2
128.0498,151.8
128.064,236.1
128.1213,146.3
128.1649,88.1
128.1807,188.7
128.241,22.1
128.2938,114.3
128.3182,329.9
128.405,18.5
128.4991,419.8
128.5494,19.6
128.663,24.5
128.68,332.2
128.7137,156.5
128.8637,154.1
128.867,99.7
128.9257,278.7
128.9606,17.4
128.9639,427.2
129.0031,1214.2
129.0523,107.1
129.1022,448.1
129.1097,97.9
129.1306,182.6
129.1344,299.1
129.141,330.4
129.1871,178.4
129.2178,124.7
129.2648,237.9
129.3194,241.6
129.3672,92.5
129.3872,812.2
129.4339,150.5
129.4408,133.8
129.4661,23
129.4911,360
129.4952,26.3
129.5508,20.8
129.8096,122.5
129.8595,495.9
129.8944,231.9
129.9586,264.5
129.964,24.9
129.995,141
130.0251,17.7
130.0499,4542.6
130.0864,758.5
130.0909,110
130.1882,153.5
130.1915,189.9
130.1959,89.2
130.2124,83.5
130.2262,563.7
130.2307,20.3
130.2571,135.1
130.2897,111.4
130.2955,20.6
130.3134,232.4
130.3336,184.1
130.3791,331.3
130.3911,362.6
130.3994,351.7
130.4696,1050.8
130.486,77.8
130.4874,613.3
130.5235,141.5
130.5268,691.2
130.5291,392.5
130.5618,593.4
130.5776,309.8
130.5941,228.8
130.6141,1013.6
130.7271,119.6
130.7853,74.1
130.8751,861.7
130.8962,302.2
130.9019,299.7
130.9069,508.3
130.9239,161.7
130.9331,619.4
130.9472,97.2
130.979,117.8
131.0002,528.3
131.0284,414.9
131.0329,525.3
131.0536,92.3
131.1066,96.1
131.1225,27.5
131.2172,279.8
131.2213,22.2
131.2496,17.1
131.2578,102.5
131.3112,221.9
131.326,109.6
131.3376,125.6
131.345,93.8
131.3618,93.4
131.3862,20.4
131.3934,168.3
131.4127,136.4
131.465,232.6
131.4915,107.8
131.531,372.2
131.5448,18.6
131.5602,210.8
131.595,489.2
131.6337,16.2
131.6722,310.2
131.6756,238.3
131.6844,22.5
131.7307,281.9
131.7417,687.3
131.7733,18.5
131.8274,24.9
131.8476,18.7
131.9113,330.8
131.9156,146.1
131.9406,118.7
131.9615,19.9
132.0032,28897.9
132.0384,129.8
132.0473,118.3
132.0656,91845.4
132.0691,451.7
132.0768,2997.1
132.0811,95.4
132.0989,83.3
132.1102,337.7
132.2075,348.5
132.2819,141
132.326,155.6
132.3346,91
132.3395,20.3
132.3857,20.6
132.3998,164.7
132.4548,170
132.5368,17.6
132.5919,232.7
132.5955,90.1
132.671,106.2
132.7152,179.3
132.7189,348.8
132.7488,96.1
132.8091,535.3
132.8159,261.2
132.8218,125.3
132.8242,102
132.8294,98.6
132.8621,109.5
132.8686,189.8
132.8815,299.9
132.9189,774.7
132.9414,823.5
132.9583,1027.3
132.9639,273.2
132.9695,93.2
132.9872,2036.7
132.9901,116.8
132.9959,24.8
133.0016,199
133.0105,704.7
133.0422,329.7
133.0629,16.6
133.069,3247.8
133.0926,87.2
133.0949,276
133.0972,10241.6
133.1011,26.4
133.1075,108.6
133.208,96.3
133.2212,92.3
133.2379,219.3
133.2628,22
133.2855,266.3
133.3118,208.8
133.3137,286
133.3281,146.8
133.3329,307.6
133.3679,452.3
133.4337,23.9
133.4423,111.9
133.4876,159.5
133.5987,320.9
133.6012,303
133.6085,151.3
133.6131,944.6
133.6796,19
133.6962,216
133.7228,192.7
133.7475,570.7
133.7675,281.5
133.8725,20.9
133.8785,195.9
133.9422,72.5
133.9775,603.8
133.987,368.5
134.0189,13554.8
134.0301,566.6
134.1121,86.2
134.1214,904.4
134.1336,17.4
134.1869,167.1
134.1915,172.6
134.209,142.1
134.2376,393.4
134.3029,97.5
134.3688,393
134.4134,274
134.4197,325
134.4222,122.5
134.424,23
134.4532,155.8
134.4831,334.3
134.5082,202.1
134.5657,24.3
134.578,113.6
134.5894,308.4
134.5969,315.3
134.6439,23.7
134.6856,233
134.7061,299.5
134.7067,351.1
134.7072,311.1
134.7196,137.1
134.73,314.3
134.8334,142.1
134.8675,101.2
134.8831,324.7
134.9615,354.2
134.974,29.7
134.9846,17.6
134.9892,224.8
134.9966,64.3
135.0029,107270
135.0255,81.4
135.053,120.5
135.0643,376.8
135.1072,360.8
135.1168,56.8
135.1849,120.9
135.2,293
135.2658,23.1
135.3091,19.9
135.4514,600
135.4728,470.4
135.5387,124.5
135.6156,201.6
135.6279,84.9
135.6596,475
135.714,134.3
135.7721,90.7
135.7991,145.3
135.8039,239.5
135.8132,335.2
135.8174,104.2
135.8704,569.6
135.9007,869
135.9029,112.6
135.9436,105.9
135.9771,2327
135.9869,546.2
135.9918,676.5
136.0062,513.8
136.0249,224.5
136.0481,3464.5
136.0757,5370.2
136.1077,848.1
136.13,97.2
136.1316,558.3
136.1363,195.9
136.1542,282.2
136.2686,274.6
136.3298,281.2
136.3392,194.7
136.3785,327.4
136.3903,144.8
136.4459,80.1
136.5128,518.5
136.5773,137.6
136.6095,140.6
136.6171,17.4
136.6184,863.4
136.6344,446.2
136.6656,150.6
136.7363,94.2
136.7886,265
136.8244,17.7
136.9023,158.6
136.9312,420.3
136.9532,259.4
136.9897,121.2
136.995,129.4
136.9975,868.8
137.0441,177.8
137.0656,142.8
137.1308,369.5
137.2583,18.4
137.2701,336.3
137.2742,188.8
137.2873,101.8
137.2916,128.5
137.3178,76.5
137.3224,103.5
137.33,93.7
137.344,471.7
137.3881,148.5
137.4232,422.2
137.5251,167.8
137.5353,93.2
137.5977,493.3
137.6109,97.7
137.6507,424.3
137.663,780.1
137.6793,176.7
137.684,212.5
137.7032,188.3
137.7826,113.2
137.827,346.4
137.9233,283.2
138.0189,186.4
138.0342,144
138.0526,4600.4
138.0662,24.9
138.0898,98.2
138.1162,324.9
138.1544,19.4
138.1824,826
138.189,739.8
138.1954,20.7
138.2217,139.8
138.3333,109.2
138.3772,363
138.4193,190.1
138.4295,107.8
138.4427,371.6
138.5105,636.1
138.6555,518.3
138.6642,174.8
138.674,591.3
138.6972,630.4
138.7224,370.1
138.7243,457.9
138.7628,228.8
138.8026,105.2
138.8519,479.3
138.9065,1841.6
138.9627,143.6
138.982,85.3
138.9866,194.6
139.0273,395.8
139.044,690.8
139.1212,694
139.1262,249.9
139.1814,178.3
139.2826,160.9
139.3348,222.2
139.368,877.7
139.3987,114.1
139.4126,179.5
139.4416,23
139.5077,154.1
139.5517,295.3
139.6446,290.4
139.6838,108.8
139.7225,187.2
139.7319,133.3
139.7378,244.1
139.7685,83.2
139.7864,324
139.8295,284.1
139.9142,17.2
139.9441,129.9
139.9631,22.9
139.9985,105.9
140.0098,95.9
140.0165,4360.7
140.0475,142.5
140.0627,345.4
140.0681,1230.8
140.0822,103.2
140.1005,22.2
140.1445,171.2
140.1498,120.2
140.1584,376.7
140.2862,887.8
140.3614,21.5
140.3663,258.4
140.4224,351.8
140.4465,111.3
140.5381,301
140.6109,683.2
140.6129,945.8
140.6831,107.6
140.7185,244.1
140.7402,214.9
140.7713,100.1
140.8286,208.3
140.848,631.5
140.9035,1553.4
140.9085,474.5
140.9242,111.1
140.9413,555.9
140.9526,745.8
140.9597,282.5
140.9678,112.8
141.0006,15488.5
141.0062,446.5
141.0199,178.6
141.0233,17.9
141.0399,18.2
141.045,889.2
141.2108,311.4
141.2414,90.8
141.2437,17.4
141.26,106.7
141.2626,151.3
141.3002,358.8
141.3245,96.9
141.3517,142.5
141.3666,17.3
141.3847,136.7
141.4083,317.8
141.4165,103.1
141.4347,107
141.4506,255.8
141.5001,243.9
141.5086,153.5
141.5188,399
141.5661,441.8
141.6126,549.6
141.6464,189.1
141.6832,18.4
141.7383,524.7
141.7535,172.3
141.7927,297.4
141.8547,19.4
141.8646,203
141.87,98.3
141.8939,117.2
141.8972,769
141.9052,342.8
141.9305,312.8
141.9345,887.2
141.9418,583.4
141.9695,526.9
141.9869,504.9
141.9951,292.7
142.0039,354.4
142.0124,82.1
142.0154,38.5
142.0181,122.9
142.0266,242.6
142.0652,159.1
142.2053,179.7
142.3055,18.3
142.3778,738.4
142.3783,737.7
142.3871,677.8
142.3957,116
142.4409,877.4
142.5233,313
142.5728,124
142.6075,129.5
142.6279,1033.4
142.6437,118.2
142.6752,81.5
142.6853,434.3
142.6904,159
142.7342,166.9
142.8144,112.7
142.8205,101.7
142.8405,100.5
142.8681,311.8
142.9114,259.6
142.9482,319
142.9964,259.5
143.0189,1363.9
143.0315,478.1
143.0543,21
143.0732,166
143.0817,279.1
143.117,502
143.2439,919.4
143.277,162.4
143.2952,420.4
143.2962,257
143.3618,300.7
143.3971,120.2
143.403,120.5
143.474,188.8
143.5004,20.9
143.5687,106.7
143.5773,156.1
143.5873,522.9
143.601,22.3
143.6055,236.6
143.615,239.3
143.6588,18.2
143.7214,215.4
143.7302,108.8
143.761,378.1
143.886,107.5
143.9033,134.4
143.9744,17.6
143.98,22.7
144.0107,1311.2
144.1233,570.5
144.1408,305.3
144.245,112.2
144.3999,96.6
144.4187,334.5
144.4507,544.2
144.5069,549.5
144.5819,111
144.5893,185
144.6113,131.5
144.6136,19.6
144.6153,390.6
144.7961,105.3
144.8513,151.4
144.9166,243.6
144.9809,6022.4
144.9903,387.9
144.9938,92.1
144.9948,68.2
145.0159,51.6
145.0472,305.7
145.0608,309.3
145.0646,154.7
145.0663,308.5
145.1322,317.8
145.2037,101
145.2408,568.2
145.2567,18.3
145.2647,175
145.2943,129.4
145.3494,147.1
145.3787,967
145.4267,601.9
145.4696,172.6
145.4807,195.1
145.5503,20.4
145.7227,151.7
145.7326,147.3
145.7491,161.4
145.7612,205.4
145.77,233.6
145.8157,363.9
145.8786,21.3
145.9195,434.2
145.9408,141.4
145.9422,441
145.9577,424.4
145.9648,803.7
145.9669,280.5
146.0091,125.6
146.0125,3103.2
146.0189,18178.2
146.0244,233.9
146.0263,115.9
146.0601,287.6
146.1333,129.8
146.2004,675.2
146.2068,308.2
146.2278,17.2
146.2573,106
146.2796,89.7
146.2934,237.8
146.3223,117.4
146.3695,118.5
146.3875,203.7
146.4674,19.5
146.4987,275.2
146.5107,208.6
146.5125,495.9
146.5145,108.1
146.5245,486.7
146.5408,241.8
146.5897,270.3
146.783,182.4
146.7872,275
146.8397,346.9
146.8616,116
146.9052,50.2
146.9739,596.7
146.9819,122226.8
147.0032,321.5
147.0104,176.1
147.0251,18.7
147.0765,33854.5
147.1035,18.7
147.1129,18833.9
147.1167,191.8
147.1465,18.4
147.3232,253.9
147.3375,606.7
147.3556,335.7
147.357,117.3
147.364,111.4
147.4258,138.4
147.496,17.4
147.5903,206.4
147.5988,523.4
147.6039,300.1
147.6057,19.7
147.6434,205
147.6535,155.8
147.701,359.7
147.7237,98.9
147.7312,124.2
147.8315,551.1
147.8892,142.8
147.9772,110.8
147.9915,139.4
148.0346,652.8
148.049,137.1
148.0537,116.4
148.1213,303.5
148.1606,79.8
148.2603,223.6
148.2716,270.3
148.3272,217.4
148.4586,381.2
148.5323,5874.8
148.629,273.4
148.6933,210.3
148.7909,240.8
148.8724,508.9
148.9353,1112.7
148.9516,386.4
148.9538,192.3
148.9613,2619.3
148.9745,359.8
148.9772,629.7
148.9888,216.1
149.0029,459.8
149.0048,348.4
149.0186,7301.7
149.0234,4118
149.0445,694.9
149.0887,119.2
149.092,248.9
149.1049,393.3
149.1408,152.1
149.1768,97.5
149.198,481.1
149.3088,112.6
149.3104,18.4
149.3476,20.1
149.4025,209.7
149.4714,166.8
149.4753,810.6
149.6071,23.2
149.6217,268.4
149.6489,521.2
149.7008,16.7
149.7987,547.7
149.8399,109.6
149.892,312.6
149.9766,25.2
149.9818,539.9
149.9835,86.3
149.9873,55
149.9929,7126.4
149.9968,173.8
150.014,1818.9
150.1036,94
150.1102,171.5
150.1823,103.9
150.1842,20.7
150.1956,114.7
150.2321,334.9
150.2724,321.4
150.2901,195.3
150.2948,24.4
150.3388,74.1
150.4064,152.2
150.4866,18.9
150.5079,143.5
150.5119,369.5
150.5212,257.5
150.5982,124.1
150.6647,141.6
150.6688,117.1
150.6886,528.9
150.6945,18.7
150.7194,446.2
150.7931,462.3
150.8047,247.8
150.8178,274.5
150.8232,20
150.8289,544.9
150.8643,395.9
150.969,158.2
150.9769,56737.1
150.9842,6773.9
151.0242,558.7
151.044,112.8
151.0478,1387.3
151.0991,115
151.1145,585.7
151.1584,526.6
151.2265,158.5
151.2545,231.1
151.2851,119
151.2918,194.2
151.2953,193.1
151.3096,23.5
151.3573,560.4
151.3763,153.6
151.4135,473.8
151.4268,17.6
151.4961,172.4
151.5061,18.9
151.6375,530.4
151.6897,246.4
151.7624,88.4
151.8682,586.4
151.8772,298.4
151.9269,181.3
151.9514,488.9
151.9629,22.4
151.9649,215.6
151.9801,365.3
151.9844,44.4
151.9875,255.8
152.015,191.6
152.0222,4837.6
152.032,1362.1
152.0417,359.7
152.063,303.1
152.1352,172.4
152.2433,83.7
152.2548,20.7
152.261,341.7
152.328,629.9
152.3478,116
152.4798,25.6
152.5053,151.4
152.5551,148.5
152.5702,209.5
152.6495,759.3
152.6532,138
152.7107,91.4
152.7429,90.9
152.7573,411.1
152.761,531.9
152.7833,287.4
152.8168,163.2
152.894,153.5
152.9688,828.8
152.975,2154.6
152.9842,121.5
153.0071,391
153.029,464.5
153.0404,18.9
153.1222,178.5
153.1651,321.5
153.2524,326.2
153.2772,19.1
153.4048,103.3
153.5131,72.9
153.6285,18.8
153.6835,98.8
153.6885,89.7
153.8844,97.2
154.0113,358.8
154.0588,2572.9
154.0667,227.5
154.0684,758.2
154.099,276
154.2105,326.3
154.2441,85.3
154.2666,133.8
154.3379,233
154.3705,508.4
154.4235,1080.6
154.4263,24.3
154.4281,766.4
154.4313,570.3
154.5212,117
154.543,840.2
154.5686,129.8
154.5708,515.7
154.6059,411.6
154.6127,434.4
154.6229,347.8
154.63,190.5
154.6435,89.1
154.6549,112.9
154.7148,142.5
154.737,85.9
154.7549,20.3
154.7573,19.1
154.8062,342.3
154.8484,93.4
154.8692,229.9
154.9075,23
154.9604,152.5
154.9796,162.7
155.0013,20.8
155.004,93.3
155.0154,751.3
155.0183,522.1
155.043,976.6
155.0493,481.8
155.0541,3235.9
155.0599,545.7
155.1168,729.7
155.1382,221.5
155.1421,500.1
155.1629,151.8
155.2247,168.9
155.2545,130.6
155.3033,25.2
155.3595,181.2
155.3759,295.6
155.3837,144.9
155.4179,160.1
155.4863,86.2
155.522,108.5
155.5362,18.2
155.5525,139.2
155.57,25.6
155.5729,21.2
155.7131,265
155.7688,121
155.8077,506.7
155.8765,886.8
155.9044,206.7
155.918,303.8
155.9933,107.6
156.011,52.7
156.0268,390
156.0368,491.8
156.0424,2482.8
156.0512,21.9
156.0674,148.6
156.0769,34357.3
156.0871,375.8
156.1003,114.1
156.1146,349.3
156.1742,97.4
156.1763,252.8
156.1873,23.3
156.2354,177.9
156.4054,139.7
156.4867,521.6
156.5219,24.7
156.5515,199.7
156.5696,152.3
156.5918,443.8
156.6047,174.6
156.6176,23.1
156.6923,447.1
156.7868,143.1
156.8408,193.3
156.8778,353.4
156.8805,23.8
156.8956,321.6
156.899,197.7
156.9044,339.9
156.9341,1448.2
157.0025,331.5
157.0759,290.9
157.0974,173.1
157.1013,235.9
157.1262,467.9
157.1735,90.1
157.2378,102.3
157.3311,133.2
157.3484,268.6
157.3716,278.2
157.3855,97.4
157.3904,312.2
157.4021,574.8
157.4674,128.6
157.4848,783.6
157.5599,584.8
157.5842,507
157.594,733.2
157.6026,303.7
157.6096,536.1
157.6135,685.7
157.6188,153.8
157.6704,18
157.6729,180
157.7169,966.6
157.7822,94.2
157.8454,92.5
157.8717,150.4
157.9222,326.1
158.0022,165.6
158.0126,813.7
158.0242,110.1
158.0272,3130.6
158.0417,346.7
158.0473,19.6
158.1309,18.4
158.1465,593.1
158.1912,237.4
158.2581,19.2
158.3308,333.5
158.4276,344.3
158.4722,184.3
158.479,118.2
158.4988,133.3
158.5503,412.1
158.5875,342
158.6079,242.4
158.6101,179.7
158.7642,22.1
158.7878,178
158.8312,197
158.8738,138.7
158.9226,18.1
158.9279,2916.7
158.9642,14048.8
158.9787,284.6
158.9878,97.3
158.9966,16633.3
159.0103,22.7
159.0305,103.2
159.076,118
159.1848,143.6
159.2811,205.4
159.2929,311.9
159.2967,21.1
159.324,180.5
159.3365,691.5
159.3964,524.9
159.5022,492.5
159.6181,26.8
159.7348,127.1
159.7506,17
159.7928,643.1
159.7983,588
159.8503,603.8
159.9067,330.8
159.91,114.7
159.9696,25
160.0231,69.5
160.0347,11671.6
160.0551,181
160.0606,98240.5
160.1808,220.8
160.2653,280.2
160.2748,87.4
160.2994,192.4
160.3059,299.7
160.3209,20.6
160.4401,111.2
160.4974,169.3
160.6975,153.5
160.7183,264.9
160.7385,94.2
160.7842,366.9
160.8355,276.1
160.9074,136.2
160.9251,18.1
160.9441,172.7
160.9563,214.8
160.9607,20
160.963,18.2
160.9648,19.2
160.9924,174.6
161.0155,445
161.0249,294.7
161.064,4008.3
161.0959,20.8
161.133,286.1
161.2501,327.3
161.2567,24.6
161.2683,206.7
161.3024,177.9
161.3414,784
161.359,572.2
161.3952,149.9
161.4567,183.6
161.5517,17.8
161.6311,145.9
161.6402,306.7
161.6832,38.1
161.6845,24.6
161.7055,105.8
161.8041,518.9
161.8084,764.3
161.8156,18.8
161.8472,18.4
161.8942,590.4
161.9063,501.4
161.9168,90.9
162.004,306
162.0503,16010
162.1473,108.5
162.1653,289.7
162.1723,572.9
162.2447,238.7
162.2461,101.5
162.2885,229.4
162.345,224.2
162.3675,911.9
162.4446,179.7
162.4504,23.4
162.594,211.1
162.8462,220.6
162.8711,700.3
162.8778,339.7
162.8842,361.6
162.9559,5302.4
162.9704,534.6
162.977,234.1
162.9927,32.4
163.0096,20.5
163.0157,4583
163.0341,302.9
163.073,113
163.0758,279.8
163.0875,107.6
163.1384,265
163.1481,21.3
163.197,307.9
163.2,80.9
163.2351,18.6
163.3184,119.6
163.3793,284.3
163.3849,124
163.4063,184
163.4665,24.3
163.5205,215.5
163.5682,308.6
163.5999,231.4
163.6376,331.1
163.6405,983.7
163.6734,537.8
163.6855,209.1
163.7165,543.9
163.7534,380
163.757,664
163.7784,155.3
163.8794,630.3
163.8978,535.8
163.9325,177.9
163.9337,147.2
163.9621,403.9
163.9997,26.5
164.0191,142.5
164.0224,113
164.0296,6964.5
164.0329,139.3
164.1212,294.1
164.1846,143.8
164.3156,178.5
164.4036,70
164.4177,192.8
164.515,966.5
164.5345,233.6
164.5863,211.1
164.5891,181
164.6688,804.7
164.6855,24.7
164.7199,87.5
164.7403,83.8
164.7515,90.5
164.848,407.2
164.916,22.7
164.9207,4488.6
164.9302,18676.1
164.9353,1432.1
164.969,726.5
164.9737,196.7
164.9773,149.6
164.9848,51.8
164.9926,3608.2
164.996,33.3
164.9999,592
165.0363,24.9
165.0753,120.7
165.0852,447.5
165.0912,214.8
165.101,114.9
165.1055,101.5
165.1802,319
165.2341,115.1
165.2633,19.8
165.2822,314.5
165.2847,298
165.289,174.7
165.3216,18
165.365,368.6
165.5642,221.3
165.6264,485.9
165.6326,248.8
165.6527,113.6
165.6778,87.5
165.6935,260.8
165.7165,157.3
165.7299,627.3
165.7338,529.9
165.8182,548.9
165.8394,482.9
165.8543,163.6
165.8906,572
165.8949,450.7
165.9455,311.2
165.9567,98.3
165.9791,2002.8
165.9878,1349
165.9952,2345.5
166.0087,20
166.029,158.1
166.0355,314.5
166.0556,224.3
166.2486,116.2
166.2992,324.4
166.3054,100
166.3534,123.9
166.3626,939.1
166.3956,218.8
166.4019,146.9
166.4098,71.8
166.5103,18.5
166.5228,135.2
166.5348,190.1
166.544,19.7
166.553,149.7
166.5716,129.8
166.5843,105.4
166.6228,446.2
166.6537,178
166.6812,19.2
166.7179,16.7
166.8497,145.1
166.9054,144.6
166.9459,39.3
166.9509,19026.7
166.9629,920.5
166.9792,227
166.991,19.4
166.9985,107.9
167.0003,61.6
167.0156,30.4
167.0219,1807.8
167.0251,137
167.0291,126.2
167.0318,17.5
167.2001,557.2
167.2995,137.5
167.3142,93.7
167.3561,25.4
167.4719,103.2
167.6255,251.6
167.6416,234.5
167.7153,92.7
167.7822,302
167.7914,19.3
167.8302,635.5
167.8853,459.7
167.8955,336.5
167.9406,843.4
167.9654,530.7
167.9847,104
167.9947,2462.3
168.0003,350.5
168.054,121.6
168.0634,195.7
168.0717,158.5
168.0913,87.4
168.1346,132.3
168.1398,322.3
168.151,16.2
168.1929,220.9
168.2015,208.5
168.2119,174.9
168.2312,136.1
168.3237,251.5
168.3435,408.9
168.3507,108.5
168.4994,23.1
168.5181,330.5
168.5203,185.8
168.6049,719.6
168.69,406.4
168.7372,107.9
168.7511,78.8
168.7846,231.9
168.7951,108.4
168.8047,300
168.8081,268.7
168.9253,96.3
168.9377,245.4
168.949,2501
168.9554,105.1
168.9854,345.4
169.0262,506.9
169.0453,151.5
169.0586,39470.3
169.0653,267.1
169.0951,679.4
169.1419,134.2
169.1474,99.8
169.1574,467.7
169.184,253
169.2962,162.3
169.3385,136.9
169.3521,395.8
169.3579,126.6
169.4344,312.2
169.5142,504.3
169.5286,163.3
169.6481,440.8
169.6517,159.1
169.6682,746.2
169.6726,390.1
169.6773,110.2
169.6818,206.1
169.7426,113.1
169.7461,254.7
169.7572,510.1
169.7782,321.1
169.8755,19.8
169.9074,235.2
169.986,3086.2
170.0328,4970.3
170.0621,393.9
170.0928,264.7
170.132,514.8
170.2325,488.9
170.2837,189.6
170.3687,100.6
170.4004,237
170.4073,141.5
170.4674,24.8
170.4818,474.5
170.5317,526.4
170.5937,124.4
170.6152,355.5
170.6665,127.9
170.6884,101.5
170.7636,184.5
170.8545,3052.6
170.8608,214.4
170.9143,209.2
171.0169,1078.8
171.028,93
171.0396,159.7
171.0501,18.2
171.0535,364.4
171.1005,95.3
171.1032,340
171.2901,344.7
171.4065,881.2
171.4458,531.8
171.4534,133
171.4808,87.7
171.5133,137.3
171.7015,368.1
171.7245,131.5
171.7503,110.2
171.7863,552
171.8074,194.7
171.8146,365.4
171.837,315.8
171.8566,822.1
171.8642,19
171.8794,503.4
171.9531,22.5
171.9653,347.5
171.9736,101.3
171.989,753.3
172.0158,155.4
172.0177,139.4
172.0285,683.9
172.0399,270.5
172.0452,735.8
172.0624,133.6
172.1082,74.7
172.1358,130.7
172.1757,429.5
172.1857,337.5
172.2114,110.6
172.2466,21.2
172.2895,110.1
172.295,540
172.2971,97.9
172.3967,475.7
172.401,680.3
172.4579,136
172.4657,116.9
172.5985,97
172.6175,329.7
172.7673,174
172.8126,473.2
172.8355,573.6
172.8515,1827.2
172.8857,538.7
172.9318,99.2
172.9485,17.9
172.9526,549.9
172.9676,610.3
173.0056,288.1
173.0164,140.7
173.027,331.2
173.0728,182.4
173.0814,98.3
173.0866,333
173.102,19.2
173.1401,310.4
173.1772,153.3
173.196,207.3
173.2147,20.9
173.2168,136
173.3022,85.3
173.3709,121.3
173.3999,254.7
173.5379,94.9
173.5546,137.2
173.561,418.7
173.5799,126
173.6841,167.5
173.7016,281.4
173.7409,128.6
173.7889,476
173.8103,22.6
173.8462,552.4
173.87,93
173.9062,204.3
173.9393,316.7
173.9468,721.9
173.9813,233.6
173.9956,17.9
174.0008,61.6
174.0073,136.9
174.0246,596.1
174.0922,226.4
174.1752,141.8
174.2129,164.1
174.2221,123.2
174.3088,169.7
174.3871,17.4
174.4689,182.8
174.5099,18
174.5132,104.9
174.5298,117
174.5421,491.3
174.6713,755.7
174.6837,533.7
174.7383,144
174.7616,533.7
174.8039,207.1
174.8674,74
174.9003,139.6
174.9382,5140.8
174.969,1602.2
174.9761,20.2
174.9814,19.8
175.0032,482.3
175.0207,25.5
175.0225,20
175.0269,326.2
175.0344,7259.9
175.0456,2163.5
175.0611,591.8
175.1192,47324.2
175.1565,126.6
175.2075,659.8
175.2329,153.7
175.2342,129.4
175.2627,298.3
175.3368,552
175.3652,582.8
175.4725,331.9
175.5061,369.5
175.51,225.7
175.563,190
175.5982,565.6
175.7021,124.7
175.7116,371.2
175.7306,709.5
175.7518,236.5
175.8486,399.9
175.9874,305
176.0006,136.8
176.0034,344.8
176.0086,4520.3
176.0342,350.6
176.0481,23.2
176.066,27523.6
176.0753,124.4
176.1421,310.9
176.313,665.9
176.3481,236.5
176.5039,106.3
176.6197,226.2
176.7129,515
176.778,127.7
176.8529,158
176.8785,982.9
176.8939,403.9
176.9333,109.6
176.9838,104.4
176.9925,1230.4
177.0155,18.9
177.0248,3251.9
177.0611,4209.7
177.0697,489.1
177.1142,229.5
177.141,143.8
177.177,599.1
177.1931,108
177.1997,104.4
177.2118,95.2
177.2196,210.6
177.3134,496.2
177.3222,237.4
177.3526,99.7
177.3776,278.4
177.3914,21.8
177.4052,89.4
177.4568,104.3
177.4845,314.1
177.4897,241.1
177.4919,144.2
177.5467,216.7
177.5666,475.6
177.5758,91.1
177.6203,111.2
177.714,875.9
177.7923,854
177.837,145.9
177.8669,530
177.8935,25.7
177.9714,229.6
177.9912,426.9
177.9948,31.7
178.009,8764.7
178.0163,80.8
178.0243,7010
178.059,4754.9
178.0985,151.1
178.2259,280.5
178.2848,188.7
178.4012,147
178.4747,183.1
178.4851,551.6
178.5452,237.2
178.5493,270.6
178.6228,173.6
178.6376,314.1
178.7401,727.9
178.7516,184.4
178.7558,254.4
178.7645,528.5
178.814,167.1
178.8646,164.5
178.8931,96.6
178.9221,35.1
178.9369,591.6
178.9646,90.9
179.0007,24.7
179.003,163.6
179.0483,734.6
179.1309,160.8
179.256,174.2
179.2838,181.8
179.3582,535.7
179.4584,115.8
179.4734,70.9
179.5071,102.5
179.6247,104
179.6281,465
179.6756,537.3
179.7621,594.6
179.8307,209.5
179.8524,129.4
179.8875,602.8
179.8915,44.1
179.9306,88.6
179.944,21.6
179.9778,396
179.9955,22
180.0036,3938.7
180.0109,215.2
180.0403,142.5
180.0501,151.8
180.1472,27.3
180.1566,156.7
180.1673,17.5
180.1781,847.6
180.2556,146.9
180.2911,122.8
180.3199,205.9
180.4135,85.1
180.4196,179.7
180.5161,194.5
180.6087,547.2
180.6135,23.3
180.6169,150.5
180.6294,167.6
180.6565,134.3
180.7737,871.2
180.8518,344
180.8739,85.6
180.8884,1201.3
180.8946,3185.7
180.9042,8384.4
180.9534,81.8
180.9576,1432.3
180.9847,318.3
181.0162,82.5
181.0264,978.8
181.0652,8899.3
181.1519,75.3
181.2975,590.4
181.3084,158.8
181.418,563.9
181.4203,23.6
181.5034,224.6
181.5354,88
181.5471,252.9
181.5662,211.4
181.5839,250.4
181.5862,321
181.6075,374.5
181.658,327
181.6605,464.9
181.7142,150
181.7266,88.8
181.7322,655.2
181.7422,542.6
181.7526,183.2
181.7583,18.9
181.7677,303.3
181.8241,249.2
181.8654,109
181.892,18.9
181.915,160.2
181.9514,345.8
181.9623,520
181.971,148.5
181.9876,318.7
182.012,354.6
182.0157,169.2
182.0427,33724.2
182.0569,99.5
182.0596,168.2
182.0629,621.9
182.1211,390.3
182.1667,129.4
182.1743,411.2
182.1925,152.3
182.1972,288.1
182.2974,163.1
182.3236,507
182.3657,383.5
182.5506,110.3
182.5821,456.2
182.6219,114.9
182.6914,99.4
182.7929,142.9
182.8441,72.6
182.8638,179.1
182.9028,75.1
182.9536,29
182.9919,18.2
183.0335,84.3
183.0446,1468
183.2975,175.7
183.3063,300.3
183.3237,89.5
183.3309,20.3
183.3772,216.7
183.4088,90.7
183.4109,535
183.4678,376.6
183.506,99.4
183.5625,97.2
183.5677,86.3
183.5819,94.5
183.596,132.1
183.6043,107
183.8085,25.5
183.888,288.1
183.904,126.3
183.9651,703.1
183.9858,92.1
184.0077,181.2
184.0212,99.4
184.0353,435.5
184.0374,943.3
184.0556,742.1
184.0657,1191
184.0674,1704.4
184.0736,4465810
184.0812,1128.9
184.1098,1793.7
184.1539,482.7
184.1821,1550.9
184.2411,321.5
184.2551,304.4
184.3062,350.5
184.3789,23.4
184.4073,121.9
184.5206,365.2
184.5664,261.8
184.6397,96.1
184.6416,626.4
184.7193,291.4
184.7512,195.3
184.8125,136.8
184.8759,21.8
184.8967,927.5
184.9299,114.6
185.0325,37492.5
185.0373,19.3
185.0705,9596.3
185.0769,211590.5
185.0796,3537.8
185.0941,370
185.1144,331.9
185.1234,95.2
185.1626,153.4
185.2466,557.1
185.2971,200.7
185.3568,863.1
185.6827,76
185.732,196.1
185.7477,496.2
185.807,311
185.8504,213.3
185.9069,18.6
185.9141,220.9
185.9601,2654.9
185.9989,322
186.036,433.4
186.0453,228.6
186.0778,27795.7
186.1556,23.1
186.1949,541.3
186.3029,182.1
186.3273,317.7
186.365,82.9
186.3821,141.4
186.3895,197.8
186.4158,388.9
186.437,19.1
186.4452,275.7
186.4712,281.6
186.5577,1010.5
186.6638,460.2
186.7217,265.7
186.7265,181.3
186.7532,152.2
186.783,161
186.7929,118.8
186.8577,24.2
186.8681,119.5
186.8781,87.5
186.9123,3375.5
186.9421,565.1
186.9483,21.1
186.9583,21.5
186.9687,430.3
186.9738,292.4
187.0005,185.5
187.0532,112.3
187.058,14075.1
187.0686,21.2
187.0717,767.7
187.1077,1718.4
187.1228,268.8
187.1452,335.7
187.1944,583.5
187.2113,121.4
187.2458,167.2
187.2832,132.2
187.3309,17.3
187.4275,121.9
187.4289,144.3
187.4298,129.1
187.5117,278.7
187.5174,95.8
187.6746,302.2
187.7822,513.3
187.8407,258.3
187.8858,49.9
187.912,26.4
187.9345,89.9
187.9517,216.1
187.9651,235
187.9866,19.8
188.0383,116.2
188.0798,91.2
188.2612,155.4
188.299,23.2
188.3077,842.9
188.3276,805.4
188.394,92.7
188.4141,125
188.5155,175.2
188.5177,215.7
188.5289,505.6
188.5632,294.9
188.608,282.9
188.6792,540.9
188.739,134.9
188.7427,196.6
188.8772,65.1
188.901,117.5
188.9161,19.1
188.945,773.1
188.9588,137.3
188.9803,100.5
189.0072,697.1
189.0213,56.1
189.0614,3425.1
189.0872,7192.3
189.1042,138.9
189.1297,251.9
189.2177,203.1
189.2751,330.1
189.2841,595.4
189.2872,264.2
189.2892,289.9
189.3635,193.8
189.3839,145.1
189.4563,177.8
189.466,231.9
189.4725,252.6
189.5386,419.5
189.5542,278.8
189.5588,595.1
189.578,356.3
189.6724,285.4
189.7082,225.3
189.7167,587.2
189.757,97.8
189.8897,19.4
190.0269,341.7
190.1325,533.3
190.1586,19.3
190.1815,75.7
190.294,189.7
190.3273,17.9
190.4928,515.7
190.5018,101.5
190.5218,97.9
190.535,198.4
190.5412,134.1
190.5664,356.3
190.61,31.6
190.6578,307.2
190.7638,513.9
190.7763,243.7
190.8214,371.3
190.8326,130.6
190.8728,1033.5
190.89,168.6
190.8996,149.5
190.9121,1789.5
190.9446,48.7
191.0005,139.7
191.0084,4330.7
191.0406,91139.5
191.0478,197.8
191.077,13266.6
191.2579,493.2
191.2914,300.8
191.3083,155.2
191.3469,86.2
191.4061,18.5
191.6455,78.6
191.7084,17.5
191.7417,198.8
191.8276,565.1
191.8317,444.5
191.8804,31.1
191.8891,125
191.8967,112.6
191.9343,220.2
192.0035,683.3
192.0113,48.6
192.0149,392.1
192.0245,1016.1
192.04,12799.8
192.0438,1789.8
192.0861,632.9
192.0986,146.5
192.1783,401.6
192.1971,189.5
192.2437,373.6
192.2676,124.2
192.414,335.1
192.44,715.8
192.4795,339.8
192.488,338.6
192.5004,297.4
192.5756,814.5
192.673,245.5
192.721,462.2
192.8065,95.4
192.8512,150.2
192.911,129.2
192.9487,544.2
192.9621,403.4
192.9799,649.9
192.9958,42.7
192.999,2307.3
193.0162,257.2
193.0354,1258.9
193.0454,615.7
193.0543,440
193.0958,804.2
193.1071,170.2
193.2618,21.7
193.3419,212.3
193.3465,450.9
193.3763,18.7
193.4063,112.5
193.4552,386
193.4899,173.2
193.5169,330.9
193.5832,163.3
193.5997,502.8
193.6149,439.6
193.7908,24.1
193.8376,209.4
193.9483,17.9
193.9982,1043.7
194.0052,1365.9
194.0102,1223.7
194.1542,24.1
194.1761,309.8
194.2863,140.6
194.3162,195.8
194.3402,622
194.3524,405.2
194.5601,334.8
194.5878,304
194.6608,312.1
194.8373,822.8
194.9041,469.2
194.9377,440.9
194.9864,126.1
195.0115,61.5
195.0428,232.3
195.1261,555.1
195.179,347.3
195.2668,92.2
195.3674,146.6
195.4147,531.4
195.4683,22.7
195.6074,795
195.6273,75.8
195.675,346.4
195.7024,122.2
195.7071,352
195.8409,617.3
195.8639,291.3
195.8762,124.3
195.885,112.2
195.9131,308.3
195.9332,190.1
195.9653,20.2
195.9778,800.9
195.9825,20
196.0017,165.2
196.0091,314.1
196.0275,210.2
196.0668,119.3
196.0793,456.8
196.0969,866.2
196.1701,327.8
196.213,179.4
196.2422,229.2
196.3169,345.2
196.4177,17.8
196.4553,22.4
196.4763,347.8
196.5729,375.7
196.592,204.7
196.6239,224.1
196.7404,134.3
196.8654,6963.3
196.8688,457.6
196.8782,1237
196.9327,346.2
196.9692,27.2
196.9751,303.7
196.9988,559.8
197.0164,81.7
197.1171,232.9
197.1731,24.5
197.1888,505.5
197.2674,167.5
197.3406,157
197.3968,207.9
197.5309,190.8
197.7205,323.9
197.8707,40.7
197.8912,88.6
197.907,90.7
197.9436,378
197.9658,533.8
198.029,86.6
198.0369,318
198.057,357.8
198.0852,3514.6
198.1628,163.1
198.1855,5443.4
198.2007,744.9
198.2541,593.3
198.2725,553.4
198.2808,134.1
198.2991,202.8
198.3077,405.1
198.3152,441.4
198.373,23.3
198.4009,303.1
198.4363,501.3
198.4977,235.9
198.615,507.1
198.6386,166.3
198.655,17
198.6727,206.6
198.7487,100.1
198.7731,181.5
198.7859,21.1
198.8169,18.4
198.8457,22.2
198.8547,32.6
198.8625,6753.9
198.9002,40
198.9692,171.2
198.9733,19.4
199.0054,25.8
199.0168,638.7
199.0393,195.9
199.0757,2192.9
199.0803,58.4
199.1535,222.2
199.1584,350
199.1889,212
199.3098,194.5
199.4126,113.1
199.6574,381.6
199.6703,106.1
199.7258,179.4
199.7867,100.7
199.8127,146
199.8469,178.2
199.8612,545
199.8643,784.8
199.8707,19.8
199.9134,24.2
199.9635,226.3
199.9839,283.1
199.991,24598.6
199.9957,21.8
200.041,16798.9
200.0435,6020.2
200.0499,181.3
200.0785,690.3
200.1244,293.8
200.1502,155.8
200.1661,218.9
200.1898,238.2
200.2931,590.3
200.3252,168
200.3449,91.7
200.4108,214
200.4205,528.7
200.4431,99.1
200.4862,90.2
200.5296,219.8
200.5361,119.2
200.6557,710.2
200.7939,161.9
200.8513,148.2
200.8595,1105.6
200.8717,115.8
200.8945,2409.6
200.9224,105.6
200.995,354.2
201.0535,353.9
201.0677,116.5
201.0874,208.7
201.1111,22.7
201.1242,309.5
201.2117,20.6
201.2211,681.1
201.2494,205.7
201.4137,186.2
201.4257,97.3
201.4326,102.1
201.4413,516.3
201.5744,323.6
201.6115,21.2
201.6141,88.2
201.7091,17.7
201.7308,139.9
201.8026,103.7
201.865,321.1
201.8946,213.7
201.971,523.4
201.9804,518
201.9828,578
201.9957,96.2
202.0033,195.6
202.0164,134.2
202.1107,170
202.1844,23.5
202.2769,157.1
202.3492,472.4
202.4088,227.3
202.4326,14312.6
202.438,111
202.4561,510.1
202.612,793.9
202.6154,475.5
202.6864,303.4
202.7126,126.4
202.7428,299.5
202.7468,110.3
202.802,107.5
202.8733,147.6
202.8953,85.7
202.9103,539.7
202.9526,856.9
202.9552,116.9
202.9956,21.6
203.0322,5421
203.0529,1905121.4
203.0771,7521.5
203.1026,262.9
203.1159,549.3
203.143,248.1
203.1655,722.4
203.2255,23
203.2303,19.5
203.2365,93.4
203.3725,18
203.4782,328.3
203.59,300.2
203.7593,549.6
203.8854,217.7
203.9118,341.7
203.946,21.2
204.0118,56.1
204.0247,39256.7
204.0322,181.6
204.0563,101787.4
204.0866,458
204.1685,216.1
204.1938,106.3
204.3028,84.8
204.3849,322.3
204.5209,169.8
204.5751,356.7
204.5815,123.8
204.6326,434.2
204.8528,134.6
204.8572,19.1
204.8729,26.6
204.889,2127.4
204.8925,164.4
204.9415,369.5
205.0161,30.1
205.0282,223.3
205.0572,15873.8
205.0686,57444.1
205.1647,549.6
205.3011,162.6
205.3447,969.6
205.378,100.2
205.3813,321.5
205.4314,344.1
205.5778,205.7
205.7277,113.8
205.7609,525.6
205.8675,260.9
205.8892,154.8
205.8976,29.2
205.9041,116.7
205.9114,111.7
205.9616,99.8
206.0009,90.7
206.0278,18.7
206.0408,79.5
206.0478,203.6
206.0554,2421
206.0716,352.1
206.1398,19.2
206.1553,105.9
206.1855,162.6
206.3703,106.9
206.5055,905
206.5733,224.4
206.7989,368.2
206.86,24.3
206.8682,343.7
206.8881,215.9
206.8942,18791
206.9171,408.3
206.9475,90
206.9824,3621.3
206.9982,177.9
207.0017,349.9
207.0146,57262.1
207.0285,19.4
207.0318,97.1
207.0443,1473.8
207.051,6645.3
207.0987,549.5
207.1656,228.1
207.17,20.2
207.1922,117.8
207.228,140
207.2597,100.3
207.3437,241.7
207.3653,228.4
207.3678,393.8
207.433,19.6
207.4402,19.7
207.4895,135.8
207.5671,194.3
207.5889,335.5
207.6385,20.1
207.6689,291.5
207.6728,341.3
207.789,395.2
207.8865,141.4
207.924,156.2
207.9335,169.8
207.9909,1988.9
208.014,1415.2
208.0177,586
208.0418,146.9
208.0728,260.1
208.1097,311.2
208.17,20.5
208.1983,321.4
208.2174,469.3
208.2692,697.6
208.4486,357.2
208.4703,119.7
208.5093,84.6
208.5358,111.7
208.6232,85.2
208.6715,481.1
208.708,174.9
208.8258,279.3
208.8422,571.8
208.8834,3201.9
208.8913,14099.8
208.9357,716.8
208.9555,916.3
208.9828,148.5
208.9858,269.2
208.9913,178.5
209.0127,1464
209.0732,214.4
209.0779,729.9
209.0854,197.9
209.2307,919.9
209.2332,304.1
209.319,25.1
209.3398,884.5
209.3537,111.9
209.3902,22.2
209.5158,93.2
209.5182,22.3
209.8837,26.5
210.6524,518.5
210.7115,438.4
210.7155,549
210.7876,690.6
210.8059,184.1
210.8732,504.5
210.8883,721.8
210.9483,102.8
210.9903,910.3
211.0059,308.4
211.0471,238.5
211.054,1205.9
211.0692,157.1
211.0949,93.6
211.102,486
211.1246,573.3
211.1279,4356.3
211.1356,23433.3
211.138,18266.5
211.1453,16692.8
211.1471,16695.1
211.1532,26400.6
211.183,540.5
211.1887,18
211.243,23.7
211.3523,172.9
211.4542,187.7
211.464,111.2
211.4787,531.9
211.5627,696.6
211.6063,418.1
211.6115,166.8
211.6188,100.4
211.8154,16.5
211.8304,379.8
211.8686,99.9
211.8818,153.9
211.941,24.2
211.946,76.6
211.9552,81.8
211.9591,79.7
211.9681,189.8
212.0248,351.7
212.0742,44.6
212.1974,629.5
212.2511,102
212.3526,145.7
212.3945,465.7
212.6341,849.8
212.6439,346.8
212.822,586.8
212.8395,2511.9
212.8793,25.1
212.9657,36.3
212.9901,581.9
213.0551,524.9
213.183,106.2
213.2306,260.9
213.2849,286.1
213.4118,20
213.4885,21.3
213.645,176.7
213.6869,246.2
213.6911,76.9
213.7028,801.5
213.7377,329.4
213.8409,413.9
213.9623,3548.7
213.9848,219.6
214.0067,721.1
214.0592,2835.6
214.0752,180.8
214.0899,1012.7
214.1087,94.6
214.2021,127.5
214.3889,526.7
214.5043,167
214.5642,891.3
214.6795,94.5
214.6843,19
214.7377,264.1
214.8364,1262.6
214.8738,266.7
214.893,659
214.9101,482.7
214.9179,71.5
214.921,538.4
214.9657,107
214.9906,513.9
215.0477,100
215.0505,222.7
215.0935,48.8
215.1054,165
215.2056,435.1
215.3782,540.3
215.4291,18.1
215.5602,179.9
215.6072,614.2
215.7699,92.1
215.7981,167
215.8713,129
215.8808,22.6
215.9106,29
215.9584,41.8
216.015,5638.9
216.0179,843.1
216.135,116.4
216.1554,483.6
216.1601,117.1
216.2304,177.6
216.3124,347.4
216.3782,900.5
216.4035,28.5
216.4308,18.9
216.4549,333.6
216.4705,329
216.4935,326.5
216.5588,631.4
216.7576,350
216.8335,562.3
216.854,94.3
216.8573,244.2
216.9063,136
216.923,56782.3
217.0072,437.7
217.0274,638.6
217.0553,230.8
217.0799,106.3
217.1151,447.3
217.1598,151.5
217.1851,484
217.1977,660.3
217.2221,20.4
217.325,160.5
217.4027,18
217.6384,654.8
217.6395,625.3
217.6408,280.1
217.7472,287.9
217.7673,134.3
217.8584,300.5
217.896,155.3
217.9971,89.8
218.0103,18.8
218.047,102.1
218.1514,20.8
218.1754,581.4
218.2061,18.5
218.2358,511.1
218.2644,148.8
218.3215,293.3
218.336,320.5
218.3776,399.3
218.4508,162.7
218.6126,109.4
218.809,103.8
218.8531,25.9
218.8678,356
218.8862,925.6
218.8919,421.3
218.9046,964.5
218.9201,15436.6
218.9551,17.4
219.0179,1735
219.0269,1882816.8
219.073,428.8
219.0831,3395.5
219.1247,226.3
219.2739,193
219.4342,1114.8
219.5299,109.7
219.6206,533.7
219.7077,210.2
219.7547,152.8
219.7581,112.1
219.7956,159
219.8252,301.6
219.8423,595.1
219.8504,856.3
219.8637,184.8
219.9051,65.8
220.0066,25
220.0302,101405.4
220.0376,371.6
220.067,5057.9
220.0764,282.2
220.0845,153.6
220.104,20.4
220.122,93
220.1676,414
220.1758,359.6
220.2351,88.4
220.3191,469.1
220.3779,119.1
220.4502,243.5
220.5335,306.4
220.598,255.7
220.7155,171.3
220.7328,125.9
220.7575,83.8
220.7748,23.1
220.778,184.8
220.7838,453.1
220.884,192
220.9045,41.4
220.9327,90.5
220.9354,793.6
220.9633,454.7
221.025,108100.4
221.0311,17575.7
221.0425,28824.3
221.0513,1152.2
221.0835,529.1
221.0883,358
221.0902,226.5
221.1209,233.2
221.1441,111.3
221.173,685.1
221.4333,75.4
221.4386,107.3
221.5223,87.9
221.5301,346.3
221.5663,188.5
221.6419,20.6
221.7262,128.9
221.7417,115.8
221.7992,22.9
221.8115,290.6
221.8178,118.1
221.8404,121
221.9565,117.2
221.9621,365
221.9839,1414
222.0283,2335
222.0457,386.7
222.0505,284.3
222.0517,141
222.1246,830.2
222.173,242.6
222.1769,100.6
222.1826,101
222.335,20.1
222.3765,291.9
222.4355,288.8
222.4867,143.3
222.567,672
222.6619,96.1
222.6676,422
222.6998,327.7
222.8274,172.9
222.8682,15576.6
222.8793,1327.6
222.8891,788.2
222.8908,722.7
222.8991,883.6
222.9204,97.3
222.9305,958
222.9543,1757
222.975,296
222.9885,5073.9
223.0373,1098.4
223.0423,29.6
223.0494,270.8
223.0627,19.3
223.1457,17.2
223.3688,214
223.4575,922.3
223.4721,70.3
223.5114,369
223.5364,500.7
223.5807,29.6
223.8985,29.9
223.9535,26.8
224.026,236.4
224.1578,342
224.1609,379.6
224.1991,309.4
224.2603,339.6
224.2747,113.6
224.3303,523.9
224.3722,120.1
224.4177,347.6
224.477,328.1
224.5842,19.4
224.6874,84.6
224.8651,10914.5
224.8777,165.6
224.9177,189.6
224.9276,186.7
224.9298,204.6
224.9356,175
224.9455,18.6
224.9566,19.4
225.0068,266.7
225.0237,49.4
225.0349,775.4
225.055,25436.2
225.0658,132.8
225.0851,589.6
225.104,148.8
225.1326,24.3
225.2136,181.4
225.2558,329.9
225.2852,21.2
225.3157,297
225.391,156.3
225.5305,24.8
225.5595,771.3
225.5639,135.6
225.5751,18
225.6239,390.3
225.6836,152.3
225.7057,918.1
225.7306,865.9
225.8539,295.2
225.8667,831.2
225.8895,25.9
225.9064,544
225.9129,101
225.9385,20.7
225.9515,26.3
225.9625,58.2
225.9917,389.9
226.002,38.6
226.0065,1920.9
226.0244,7904.7
226.0454,8113.9
226.1046,21.3
226.2571,199.2
226.3596,340.3
226.3893,514.8
226.526,23.7
226.6645,284.4
226.801,264.5
226.8045,172.2
226.8279,18.2
226.8708,380.8
226.8939,71
226.9195,292.2
226.9384,99.6
226.9519,47764.3
226.9959,247
227.0069,591.2
227.0344,643.6
227.0371,93.7
227.0411,220
227.0795,2177.9
227.0868,31.2
227.1297,645.8
227.1669,386.5
227.1927,144.2
227.3023,618
227.3088,115.7
227.3979,110.6
227.5306,475.9
227.7612,996.7
227.7707,75
227.7767,103.2
227.8905,91.4
227.9619,333.3
228.0006,159.9
228.0217,637.1
228.0259,476.9
228.0564,599.7
228.0907,318.1
228.1854,330.4
228.2847,304.1
228.3013,338.3
228.3151,444.5
228.3285,585.2
228.4429,600.5
228.4437,606.8
228.4455,387.8
228.5146,22.5
228.5673,132.8
228.6162,917.7
228.7593,20.4
228.8889,308
228.9233,79.7
228.9599,749.8
229.0565,191.2
229.1023,194.4
229.1256,319.8
229.1962,24.4
229.2617,112.2
229.2711,19.7
229.3219,92
229.3765,560.1
229.5296,157.1
229.6777,249.9
229.7124,17.6
229.7161,605.8
229.8599,319.7
229.8805,202
229.9507,397.2
229.9573,10492.2
229.9793,525
230.0334,114
230.2032,596
230.2417,184
230.2805,277.8
230.3499,518.7
230.3514,929.6
230.3522,883.8
230.374,280.4
230.4031,651.9
230.5551,112.9
230.6771,109.3
230.8104,1084
230.8682,40.6
230.8904,620.7
230.9008,113.2
230.9222,526.8
230.9395,391.1
230.9606,434.1
230.9636,588.5
230.9875,230.3
230.9991,138.9
231.0556,96.3
231.1075,916.9
231.117,22.2
231.1884,18.8
231.1936,123.2
231.2615,19.4
231.2692,645.1
231.3957,686.1
231.5653,223.8
231.6811,428.8
231.7418,357.9
231.7661,208.8
231.8318,21.2
231.8504,18
231.8959,26.4
231.9129,42.3
231.9531,277.7
231.9574,401
231.9729,198.9
231.9955,102.3
232.0789,236.4
232.0937,392.8
232.1122,786.1
232.138,368
232.2087,291.2
232.2359,302.1
232.2742,164.1
232.3575,19.7
232.4155,114.3
232.4239,574.3
232.4843,302.8
232.5036,568.2
232.6409,22.9
232.6551,86.9
232.6684,477.1
232.8683,211.2
232.8836,241.2
232.897,41341.9
232.9205,68.2
232.955,217.8
232.9858,6348.9
232.9984,21.7
233.0513,8620.4
233.0669,393.8
233.0743,561.5
233.1161,518
233.1334,186.2
233.14,529.2
233.1811,86
233.2719,843.1
233.2829,18.6
233.3612,206.1
233.4582,129.1
233.4694,252.5
233.4776,891.4
233.6035,168.6
233.6316,861.9
233.6559,291.7
233.6788,20.7
233.7066,335.4
233.7117,95.7
233.7713,103.9
233.7815,1011
233.8713,26.5
233.8931,16.4
233.9381,116.1
233.9532,135.4
233.957,371.7
233.9806,168.8
233.9847,487.2
234.0971,837.6
234.1347,218.9
234.1837,100.3
234.2324,864.9
234.3414,19.5
234.5308,385.4
234.6213,418
234.6251,644.7
234.6614,350.9
234.6708,92.4
234.7623,142.1
234.8175,852.7
234.8326,307.8
234.8875,520.4
234.894,12551.9
234.8998,112.7
234.9502,590.4
234.9818,5064.2
235.0363,500.3
235.0571,1162.5
235.0671,1197.3
235.089,277.6
235.0929,10879.1
235.1071,274.5
235.1087,260.5
235.2209,524.7
235.3242,174.8
235.3614,475.8
235.4395,216.5
235.4556,278.9
235.5205,226.9
235.5448,127
235.7269,268.9
235.8524,171.4
235.8828,247.1
235.8932,23.7
235.9354,241.9
236.0037,73.9
236.0222,440.9
236.072,51661.5
236.1281,442.2
236.1956,758.8
236.2591,119
236.2775,92.8
236.4573,722.2
236.5496,203.7
236.5844,257.9
236.6588,72.7
236.7074,102.7
236.7183,152.8
236.8669,125.1
236.8784,490
236.8878,172.1
236.9002,181.4
236.9072,135.5
236.9147,42.7
237.0144,125.9
237.0753,2227.6
237.1071,114.3
237.1639,231.5
237.2564,201.5
237.3596,76
237.4136,116.1
237.4197,140.1
237.4771,351.2
237.4914,440.2
237.6564,124.9
237.8502,197.3
237.8797,35.5
237.896,109.8
237.9086,501.3
238.0678,620.8
238.0775,610.6
238.1133,124.4
238.1562,121.3
238.1632,595
238.308,588.2
238.3699,121.8
238.3801,666.5
238.3952,430.6
238.5612,89.2
238.5861,166.5
238.5911,385.8
238.6156,135.8
238.6371,240.7
238.7042,19.2
238.7504,27.8
238.7548,162.6
238.803,212.7
238.8421,4840.6
238.8533,1107.7
238.8627,833.2
238.9435,113.7
238.9919,536.3
239.0094,6217.6
239.0499,445.4
239.0643,723.2
239.0679,611
239.181,176
239.2471,271.5
239.2534,515.6
239.2745,109.4
239.3383,19.2
239.3513,154.4
239.4501,302.7
239.4756,145.6
239.5322,663.7
239.6278,195
239.6374,512.8
239.7414,167.5
239.7575,290.4
239.9175,219.7
239.9312,159.8
240.012,111.5
240.0178,499.2
240.0311,626.7
240.0445,503.3
240.0998,1991.5
240.1218,337.2
240.1669,334
240.2905,102.2
240.3307,100.3
240.3713,119.7
240.3918,297.4
240.4289,167.7
240.4735,304.9
240.4879,123.4
240.6868,330
240.7329,350.3
240.7416,108
240.7841,192.9
240.839,1126.5
240.8582,334.6
240.9084,240.6
240.9492,92.6
240.955,1552.2
240.9675,2792.8
240.9739,24.6
241.0053,96.1
241.0088,708.8
241.0258,92.9
241.0449,155.8
241.11,488.1
241.1782,860.8
241.1969,184.8
241.2875,169.9
241.291,105.4
241.2952,396.9
241.3003,25.3
241.3186,176
241.3611,17.3
241.3899,126.7
241.3991,220.3
241.4041,129.5
241.4502,124.2
241.5377,144
241.5621,92.6
241.581,869.6
241.6917,133.1
241.696,138.6
241.7377,1016.1
241.7694,17.5
241.7994,704.9
241.8496,431.2
241.9327,96.2
241.949,18.6
241.9777,155.8
241.9983,1389.8
242.019,3528.6
242.0635,98.5
242.1339,23.9
242.2451,129.8
242.4882,155.2
242.5393,189.6
242.5479,225.2
242.5925,153.6
242.6342,241.5
242.6594,101.4
242.7206,118.2
242.7413,513.7
242.7784,234
242.8134,120
242.8809,20.2
242.9259,25366.3
242.9373,122.6
242.976,93.4
243.0065,635.6
243.0168,142.2
243.0278,204.5
243.0535,3941.1
243.0657,9944.5
243.0836,163.4
243.1267,148.4
243.3057,349.5
243.3192,26.2
243.3281,561
243.3687,319.2
243.635,78.2
243.7556,289.4
243.7648,828.9
243.8102,157.9
243.8311,131.5
243.8633,211.3
243.9402,248.2
243.9596,523.4
243.9688,929.6
243.973,4086.4
243.9837,237.4
243.9938,186.4
244.013,190
244.0313,395.3
244.0392,18.5
244.0828,464.3
244.1851,350.9
244.1923,19.3
244.2651,303.9
244.2938,520.7
244.3813,926.8
244.4209,147.3
244.4499,73.7
244.4729,263.7
244.5248,116.5
244.5808,622.3
244.6671,296.5
244.7827,96.5
244.867,38.5
244.871,7255.5
244.8841,22.4
244.8894,306.9
244.9761,759.8
245.1115,17.9
245.377,529.9
245.5044,283.7
245.5213,487.6
245.6312,498.7
245.6818,92.6
245.7951,19.5
245.9177,415
245.9287,47.3
245.946,184.8
245.9688,58
245.9734,226.9
245.9887,97.5
246.0016,59.2
246.0107,22.3
246.1588,96
246.1846,302.6
246.2596,86.5
246.3238,162.2
246.3588,532.1
246.5282,92.1
246.7814,124.6
246.8079,143.1
246.849,94.6
246.8628,862.4
246.8678,357.3
246.8998,70.6
246.9251,373.5
246.952,1953.9
246.9693,643.2
247.0179,518.2
247.0265,143.6
247.0316,29.4
247.037,1002.8
247.0511,131.2
247.0671,1477.6
247.0929,6052
247.1238,344.5
247.3098,170.1
247.3463,523.2
247.4613,592.5
247.4903,189.7
247.52,331.9
247.6395,178.3
247.7129,134.1
247.7613,347
247.781,144.4
247.7993,348.4
247.8317,106.4
247.851,91.9
247.8802,26.9
247.9467,582.1
247.9534,81.7
247.9679,727.9
247.9836,661
247.9946,109.8
248.0963,114.8
248.1245,5457.7
248.141,156.3
248.1824,302.7
248.3199,106.6
248.4073,92.1
248.5485,542.9
248.6446,291.5
248.6908,74.7
248.7479,310.8
248.7948,168.5
248.8447,281.5
248.871,10924
248.8806,339.1
248.8875,603.2
248.8918,757.9
248.901,261
248.9156,102.8
248.9448,26
248.9482,108.6
248.9599,4369.7
249.0166,853.8
249.0614,15056.5
249.1087,277.4
249.1468,21.9
249.3055,905.6
249.3485,135.3
249.4042,115.9
249.4193,335.8
249.4551,332.6
249.5288,232.9
249.5328,337
249.7441,120.1
249.7482,281.8
249.8382,339.6
249.8867,54.5
249.9683,37.4
250.0385,1214.8
250.1229,450.9
250.1437,121.4
250.1911,22.1
250.2187,21
250.3167,992.5
250.3495,154.2
250.4872,118.4
250.4961,336.6
250.5082,323.5
250.5506,127.1
250.5898,97.2
250.8542,195
250.8676,2040.6
250.8813,383.4
250.8941,334.1
250.9205,2775.9
250.9407,100.8
250.9558,2897.9
250.9989,27.4
251.0141,184.5
251.0343,328.7
251.1155,19.8
251.1499,430.5
251.1872,439.3
251.348,186.1
251.359,254.2
251.372,121.7
251.4279,119
251.4797,145.1
251.5537,567.7
251.6002,102.2
251.6892,18.9
251.8425,184.1
251.8743,319.4
251.981,547.9
252.0056,281.3
252.0365,869.6
252.046,99978.7
252.1041,552.7
252.1617,745.8
252.2177,440.1
252.2359,681.1
252.2635,19.3
252.311,180.6
252.5016,329.3
252.6821,701.3
252.8842,162.7
252.9109,90.8
252.9177,1986.9
252.9516,79.4
252.9561,271.3
252.9705,219.8
252.9842,111.4
252.9977,160.8
253.0248,151.9
253.0494,4894.5
253.0775,109.8
253.1251,22.9
253.1935,199.1
253.513,143.9
253.7258,347.2
253.7311,530.9
253.7974,194.1
253.8376,984.8
253.8545,19.1
253.9727,541.2
254.0121,119
254.0436,3808.8
254.0695,21.7
254.1203,48.6
254.1371,805.6
254.2867,24.3
254.2909,120
254.3529,428.5
254.3663,20.7
254.5508,521.4
254.6219,155.8
254.6312,346
254.7131,156.9
254.8071,18
254.8162,2383.2
254.8242,8755.8
254.8576,24.5
254.8844,18.5
254.9001,696.7
254.9589,300.6
254.9864,183.9
254.9966,19.4
255.0256,115.5
255.0333,21655.1
255.0383,332.1
255.0474,552.8
255.0495,620.9
255.0803,18.7
255.2426,180.6
255.3589,188.5
255.3695,21.1
255.5312,371.6
255.5649,124.5
255.6035,491.5
255.8988,177.7
255.9161,18.1
255.938,482.8
256.0037,2533.2
256.0357,347.3
256.2492,112.3
256.2879,773.8
256.3223,20.1
256.3935,253.8
256.5185,882.5
256.7494,217.9
256.8046,157.4
256.8138,430.4
256.8212,12627.3
256.842,164.1
256.8695,809.3
256.9286,679.2
256.9502,156.2
256.9569,19.4
256.9747,171.2
256.9778,503.8
257.0226,181.7
257.049,4081.7
257.0665,974.2
257.0749,39783.6
257.2418,105.4
257.2596,19.9
257.3736,471.2
257.4772,1091.8
257.6881,118.4
257.7284,387.5
257.7669,18.5
257.9288,663.3
257.9335,94.5
257.9398,94.6
257.9512,663
257.9887,126.4
258.0303,1437.8
258.0743,53.4
258.0781,439.3
258.1106,13046.8
258.1377,510.5
258.1893,431.2
258.2413,677
258.5118,308
258.642,642.1
258.6923,352.2
258.7257,18.9
258.8183,5329.4
258.8503,247.6
258.8602,17.9
258.8998,4971
258.929,533.4
259.0312,250
259.0794,157.9
259.0873,364.9
259.1714,132
259.3714,112.3
259.448,20.1
259.4863,169.9
259.49,313.3
259.4942,184.1
259.5055,21.9
259.5324,168.6
259.591,682.6
259.816,20.4
259.8776,623.3
260.0177,38.2
260.03,542.5
260.2432,296.4
260.2898,88.1
260.3521,29.1
260.3929,93.8
260.4083,130.3
260.4183,144.6
260.4362,20.8
260.5151,560.3
260.5457,89.4
260.5838,236.4
260.7902,444.1
260.8154,472.5
260.845,2468.3
260.8649,20.7
260.8695,249.1
260.8784,75.8
260.9493,7610.1
261.0469,204.7
261.1546,606.1
261.1674,99.4
261.371,19.6
261.4851,187.7
261.5143,136.3
261.531,1026.6
261.549,102.6
261.5597,24.3
261.905,159.8
261.9836,253.8
261.9888,410.6
262.1193,376.1
262.1619,22.8
262.2533,200.7
262.3056,356.2
262.7111,252
262.7276,322.2
262.8417,670.7
262.8978,243.3
262.9168,24
262.9312,22.3
262.9465,1860.7
262.993,102.6
263.0387,352.3
263.0855,4577.2
263.1157,505.3
263.1633,471.6
263.3406,518.4
263.4687,743.1
263.5771,204.5
263.5932,309.9
263.8043,21.4
263.8392,310.2
263.8804,238.4
263.9021,53.2
264.0623,208.1
264.1022,520.4
264.1749,509.7
264.2138,342.8
264.394,191.7
264.4555,317.4
264.5341,101.2
264.5428,388.5
264.5569,136.1
264.6818,357.5
264.7154,340.3
264.8453,1535.6
264.853,5507.4
264.8735,369.6
264.9338,6709.8
264.9887,15156.9
265.0167,33.8
265.0235,588
265.0275,19.3
265.0354,6642.9
265.0476,2259.7
265.0595,219.1
265.0654,188.1
265.1552,254.6
265.1827,103.9
265.233,140.3
265.399,87
265.4236,18.3
265.4566,164.9
265.4912,282.7
265.5163,78.1
265.5435,206.5
265.6284,184.3
265.8203,83.9
265.9581,132.6
265.9786,482.2
265.9925,193.7
266.0706,22.4
266.227,18.7
266.2515,198.5
266.4864,85.2
266.576,343.7
266.5831,158.8
266.7299,18.5
266.8345,30.7
266.8501,6104.1
266.8731,18.2
266.8945,2492.9
266.9593,92.9
267.1129,352.4
267.1636,2133.7
267.2246,99.3
267.242,336.2
267.3669,100
267.4402,171.1
267.4671,294.4
267.5363,105.8
267.6086,592.6
267.6352,133.2
267.6476,1942.5
267.6663,194.2
267.6915,320.7
267.7056,277.1
267.837,552.4
267.8461,19.5
267.894,23.5
267.9741,178
267.9942,1035.3
268.0083,252.8
268.0297,753.5
268.0855,18.4
268.1082,369
268.4174,524.5
268.5081,216
268.8472,414
268.8654,695
268.9562,103.3
268.9625,648.9
268.9974,64
269.0283,511.8
269.0331,24.5
269.0453,15495.6
269.049,36264.8
269.1062,207.4
269.1246,299
269.275,129.1
269.3038,578.7
269.3633,311.4
269.7193,499.8
269.8678,84.7
269.89,18.6
269.8956,325.9
269.9418,305.1
269.9522,27.5
269.9674,320.6
269.9939,2405.6
270.0098,162
270.0251,20292.1
270.0477,25876.9
270.1158,25.4
270.2046,20.3
270.3373,147.7
270.3688,139.4
270.4631,166.9
270.5256,18.9
270.5406,405.1
270.6288,268.8
270.7982,4208.6
270.8966,370.1
270.9599,58.8
270.9783,17884.8
270.9925,24.3
271.0284,1615.7
271.0509,218.5
271.0781,382.8
271.0908,809.7
271.2495,109.5
271.4058,144.5
271.5491,239.7
271.5731,97.3
271.702,403.8
271.7386,422.3
271.8592,229.7
271.9076,71
271.9878,27.5
272.0002,537.2
272.0048,22.4
272.0129,570.7
272.0209,536.8
272.0313,49.6
272.0437,26
272.0671,152.8
272.0809,213.9
272.0936,218
272.2883,736.4
272.4966,396.7
272.5505,77.8
272.5924,164.2
272.7952,5462.6
272.816,22
272.8243,77.2
272.8587,25
273.0238,19.9
273.0491,1092.4
273.316,213.1
273.8243,30
273.9629,14443.7
274.0154,25.3
274.0376,438.9
274.0691,36.3
274.0927,705.9
274.1174,221.8
274.1525,529.4
274.3077,350.1
274.337,794.1
274.5408,347.8
274.5876,112.8
274.7041,507.4
274.7249,140.4
274.7382,92.6
274.7922,2623.5
274.8029,89.7
274.83,99.6
274.8557,283.5
274.9654,458.2
274.9827,32.5
274.9981,145.3
275.0305,123.4
275.1203,313.7
275.1478,153.6
275.1564,137.6
275.1787,18.9
275.1927,25.5
275.2262,121.5
275.2363,99.1
275.2716,302
275.3072,124.3
275.3444,665.5
275.3549,628.1
275.3652,24.1
275.3868,141.5
275.4113,620.1
275.4212,346.9
275.4418,157.9
275.6277,304.7
275.992,700.1
275.9993,34.8
276.0037,175.2
276.0322,200.4
276.1842,224.2
276.2464,18.9
276.7198,19.8
276.7986,116.8
276.8195,217.4
276.8742,18.9
276.9105,120
276.9233,6278.2
277.0365,105.3
277.0477,115.3
277.1519,90.8
277.1772,332.4
277.3349,24.9
277.7097,307.1
277.7742,18.6
277.8335,126.8
277.8438,109.5
277.8749,31.1
277.881,27.1
277.8973,493.4
277.9087,355.8
277.9867,312.7
278.0007,20
278.0194,393.7
278.0259,92.9
278.0548,741.1
278.0835,640.3
278.1772,395.6
278.3292,25
278.3439,210
278.4259,306.1
278.4635,127.4
278.5688,514
278.5793,159.4
278.6284,221.6
278.6923,149.9
278.8472,20
278.8891,201.7
278.9204,2830.9
279.0044,1627.6
279.0482,469.9
279.0569,32374.4
279.1228,144.9
279.1456,222.6
279.1522,148.7
279.1747,24.7
279.2707,539.5
279.41,573.3
279.4548,412.1
279.5047,182.3
279.7261,163.3
279.7644,375.4
279.772,265.9
279.8133,177.4
279.8213,283.5
279.8246,405.8
279.8278,227.9
279.953,18.9
279.9786,549.2
279.9828,17.7
279.9993,25.6
280.0122,985.6
280.0528,201.1
280.0595,992.9
280.0926,738.3
280.1147,21.5
280.1522,90.1
280.44,533.3
280.5065,147.1
280.5427,193.2
280.5752,264.5
280.6141,156.3
280.7469,455.2
280.7617,184.8
280.8137,68
280.827,4229.2
280.8828,203.3
280.9618,343
281.0051,145
281.0093,544.8
281.0331,248.8
281.0515,144.1
281.2409,83.2
281.3263,170.4
281.4253,179.3
281.4652,198.8
281.5149,123.5
281.6051,482.6
281.6343,20.4
281.8582,87.7
281.8602,121.2
281.8614,120.3
281.8842,673.9
281.9629,687.8
282.015,160.4
282.0359,147.6
282.065,291.8
282.0785,425.4
282.1687,417.3
282.3583,321.5
282.5905,102.2
282.6618,642.8
282.7692,22.1
282.8078,116.1
282.8243,1637.6
282.8348,493.1
282.8551,88.6
283.028,686.5
283.0536,360.4
283.106,334.2
283.2006,174
283.2271,111.4
283.4678,662.7
283.5049,25
283.5634,345.2
283.8893,192.5
283.8961,135.6
283.9497,176.2
283.9893,31.7
284.0015,159.8
284.0245,502.8
284.0632,138.1
284.0716,1054.4
284.0874,525.8
284.159,447.8
284.1643,122.3
284.357,23.3
284.389,346.2
284.7221,118
284.7302,18
284.7438,135
284.7566,296.8
284.7597,321.2
284.8214,519.3
284.8661,440.6
284.9938,935
285.0228,700.2
285.1343,152.6
285.9398,187.7
285.9683,928.2
286.0201,4911.7
286.0268,464.9
286.1636,619.3
286.285,216
286.3888,444.7
286.4423,21.7
286.576,198.1
286.6293,333.1
286.6524,218.5
286.6579,153.3
286.7722,3233.3
286.8032,75.3
286.9195,97.1
286.9297,251.6
286.9523,8082.3
287.0235,400.5
287.0557,34937.1
287.1102,322.4
287.1144,266.3
287.1665,466.5
287.1927,137.7
287.2142,155.4
287.2578,30.1
287.2728,535.4
287.3636,91.1
287.3837,135.8
287.4631,189.3
287.5138,94.1
287.5837,232
287.82,111.8
287.8629,536
287.9447,799.4
287.9495,59.8
288.016,131
288.0358,233.4
288.0587,2019.6
288.0852,50
288.1104,95.5
288.1297,204.2
288.156,22809
288.3698,562.5
288.7515,238.2
288.7689,2708.9
288.7904,22.6
288.8108,257.8
288.8185,267.5
288.8239,201.6
288.8288,310.5
288.8371,597.5
288.8452,1363.9
288.8596,4389.4
288.8647,6536
288.8699,7673.6
288.8724,7208.7
288.8815,13935.8
288.8874,12065.4
288.897,14134.5
288.9005,16768.1
288.9065,17532.4
288.9123,21703.6
288.9178,20062.5
288.9239,17000.4
288.9303,16616.9
288.9354,11448.1
288.9409,11994.1
288.9451,9744.9
288.95,9798.9
288.9584,5124.9
288.9676,2883.7
288.9791,1475.1
288.9873,547.1
288.9968,415
289.0018,26
289.0154,20.7
289.0285,845.3
289.0423,133.4
289.062,121.6
289.1594,1682.7
289.3806,345.6
289.5653,355
289.7537,704.7
289.9299,262.6
289.9368,2428.9
289.9979,103.3
290.0218,424.8
290.0462,123
290.0683,240.6
290.081,473.2
290.3608,88.9
290.4788,218.7
290.5378,224.9
290.5915,108.4
290.6946,24
290.7661,704
290.7977,63
290.8354,171.2
290.89,165.3
290.9263,73.1
290.9388,346.9
291.0267,1900.9
291.0578,330.2
291.0676,168.3
291.3367,126.9
291.35,958.2
291.3684,248.5
291.3986,137.8
291.5986,121.7
291.6236,545.5
291.8346,22.8
291.8779,223.2
291.9422,19
291.9659,718.4
292.0798,50.8
292.0945,121.5
292.1956,19.6
292.2118,421.6
292.2449,121.9
292.2806,146
292.4051,117.1
292.4348,194.8
292.5528,301.7
292.6863,329.5
292.7295,574.6
292.8364,30.8
292.9408,523.9
292.9982,96.1
293.0301,90.7
293.0419,697.6
293.0724,1517.3
293.0863,326.1
293.0986,382517.5
293.1079,21.8
293.1198,487.6
293.1611,548.9
293.1795,6248.2
293.3004,458.8
293.3509,216.8
293.4452,1042.3
293.4509,125.7
293.4991,245.9
293.5285,18.5
293.5809,84
293.6641,401.8
293.7862,131.9
293.8535,79.6
293.8862,147.4
294.0373,864.1
294.0846,247
294.0955,976
294.1019,33656.4
294.2,160.7
294.2631,264.8
294.3754,83.7
294.4278,291.9
294.4561,93.6
294.4946,82.2
294.6079,776.2
294.7086,122
294.7138,182.4
294.8284,240.2
294.8325,314.9
294.93,692.4
294.9499,89.6
294.991,161.5
295.0313,461.2
295.0703,99.9
295.1026,2995.4
295.195,44179
295.2107,798.2
295.2747,238.3
295.3654,261.5
295.4503,310.9
295.4739,243.4
295.5459,163.6
295.5728,18.7
295.7262,165.1
295.8061,160.8
295.8601,172.3
295.8891,164.3
295.9361,167.5
296.0269,23.4
296.0661,286.2
296.1045,666.9
296.1982,5404.5
296.3359,85.9
296.3508,334.3
296.5016,106.5
296.5238,84
296.5583,936.7
296.6144,146.8
296.6522,586.6
296.6947,503.9
296.8002,430.1
296.8058,17.7
296.8126,464.6
296.9362,683.1
296.9878,48.5
297.0347,383.2
297.1181,312.9
297.22,831.4
297.2398,193.9
297.2844,77
297.3929,134.7
297.3984,243
297.5294,113
297.545,109.2
297.5877,827.2
297.6864,19.6
297.824,784.8
298.005,20.1
298.0256,1899.4
298.0426,14781.4
298.1111,48.2
298.1208,104.7
298.1904,896.8
298.2673,314.5
298.3619,243.2
298.4434,177.3
298.5041,128.1
298.5663,165
298.5757,19.1
298.6717,24.7
298.7649,17.9
298.7765,324.1
298.8563,170.2
298.8705,217
298.9711,484
298.9828,671
299.0012,19.2
299.0234,1120.5
299.046,397.4
299.1018,684.4
299.1396,4152.4
299.1562,161.1
299.1953,369.8
299.3558,93.5
299.4949,121.8
299.5576,208.1
299.568,230.3
299.6014,123.4
299.654,136.9
299.6813,371.9
299.7298,164.6
299.8424,726.1
299.9367,131.5
300.0048,834.6
300.0238,480
300.0357,1406.1
300.0489,30.7
300.0757,332.2
300.1458,752.5
300.2386,187.4
300.3382,190.2
300.4294,18.3
300.4587,207.4
300.5919,189.5
300.7463,18.8
300.8115,28.2
300.8193,63.1
300.9564,112.2
301.0125,124
301.0389,18557.2
301.0823,541.7
301.1012,116.4
301.1251,23.8
301.1308,18.5
301.1417,581.5
301.1489,218.9
301.202,18.2
301.2118,7681.6
301.2202,303.2
301.3164,152.9
301.3581,424
301.3639,536.5
301.445,443.5
301.5216,364.2
301.5448,520.9
301.6355,304
301.7976,367.2
301.8325,113.7
301.8889,433.7
301.9943,7646.9
302.0127,951.3
302.0202,1002
302.0322,75.7
302.0421,106.7
302.0514,403.6
302.0643,2970.1
302.0736,25
302.0805,22.2
302.0895,19.8
302.1184,553.5
302.1472,144.6
302.2579,282.4
302.3687,283.3
302.3977,84.4
302.4122,23.2
302.6703,170.2
302.6761,292.9
302.6816,140.2
302.7317,225.9
302.7656,164.5
302.8066,195.2
302.8199,23.3
302.8297,4085.1
302.9259,668.9
302.9883,369.1
303.0283,96.2
303.0677,311.5
303.0753,339.4
303.116,105
303.1437,126.7
303.1522,158.4
303.2177,2976.8
303.23,756.9
303.3352,343.1
303.4315,864.7
303.6107,448.3
303.935,135.8
303.9864,199.1
304.0098,581.6
304.0489,273.4
304.0598,79
304.0924,1057.3
304.1619,101.3
304.4537,18.8
304.5237,619.3
304.7187,230.9
304.7432,385.6
304.814,236.4
304.8268,1301
304.8822,368
304.8964,560.1
304.905,27.4
304.9181,566.7
304.9658,392.1
304.9758,620.8
305.0286,266
305.0436,202.9
305.2167,309
305.2332,2938.6
305.2576,432.6
305.3568,264.8
305.4333,386.6
305.476,130.3
305.5209,25.5
305.6751,524.1
305.7945,360.9
305.8098,121.7
305.8147,29.2
305.8239,89.1
305.8488,148.8
305.8609,201.5
305.8835,22.1
305.9092,122
305.9235,852.5
305.9334,452
305.9822,22.3
306.0665,232.7
306.0957,35.1
306.1532,574.6
306.1764,123.1
306.1858,1149.9
306.2324,1137.6
306.3473,318.4
306.3886,18.9
306.5649,295.5
306.625,502.8
306.6271,504.7
306.8131,24.6
306.8416,45.6
306.85,407.2
306.8798,318.4
306.8952,100.1
306.9776,3255.6
307.0518,672.1
307.1145,131.7
307.3685,80.9
307.4153,156
307.8069,527.7
307.875,20.5
307.9551,165.4
308.0228,493.4
308.0504,150.9
308.1223,90
308.1555,168.5
308.2819,201.3
308.3473,19.4
308.5246,291.6
308.5685,534.2
308.5764,362.5
308.8085,329.4
308.8319,124.5
308.8794,3878.4
308.9012,21.5
308.924,718.1
308.9428,651.3
308.9836,206.6
309.0069,52.7
309.0382,4103.1
309.0827,3317.5
309.1518,425.2
309.1845,119.7
309.2686,561.5
309.4042,84.7
309.8232,484.8
309.8557,201.4
309.8629,290.9
309.9793,132.5
310.0208,19.8
310.3086,97.1
310.442,423.3
310.5988,81.4
310.6556,107.1
310.7477,399.8
310.7848,78.4
310.8027,23
310.8602,23.5
310.8764,3760.1
310.939,293.8
311.0036,22.9
311.1276,612.6
311.1558,300.7
311.1675,846
311.4158,18
311.5249,162.8
311.5673,237.9
311.9261,126.2
311.9789,344.7
311.9994,115.9
312.0197,264.5
312.03,953.1
312.0415,1563
312.1311,87
312.1531,339.1
312.1726,318.8
312.4959,546.2
312.5938,671.8
312.6503,122.3
312.6704,367.6
312.8162,196.2
312.8587,1200.7
312.8727,306.4
312.8919,23.5
312.9376,280.1
312.96,21.8
313.0182,292.3
313.0309,245.3
313.0668,89.8
313.2458,149.1
313.2743,39708.5
313.2809,144.9
313.5396,130.1
313.6143,127.7
313.6403,19.8
313.8964,732.9
313.9737,102.4
314.0068,21.5
314.0151,5763.5
314.0625,358.1
314.0915,74.7
314.2116,693.4
314.2775,3232
314.3207,349.4
314.3377,120.6
314.3702,771
314.545,109.3
314.649,297.6
314.6753,181.4
314.7801,404
314.7861,540.2
314.7985,326.2
314.8374,4904.8
314.8551,324.1
314.9015,206.9
314.9571,133
314.9735,103
314.9885,511.5
314.9994,6151.7
315.004,2665.6
315.0184,522.8
315.0269,150.7
315.044,1481
315.0467,1661.6
315.0557,6438
315.0598,3650.7
315.0615,4256
315.0639,5928
315.0668,13606.5
315.07,20416.3
315.0734,19642.2
315.0805,7883335.5
315.0865,28407.6
315.0899,16198.2
315.0942,8107.4
315.0985,5031.9
315.1025,3017.3
315.1089,807.6
315.1154,215.4
315.1199,349.5
315.1257,102.4
315.1615,6093.4
315.2607,126.2
315.2997,399.3
315.324,5979
315.3728,109.1
315.486,455.6
315.6115,150.1
315.6186,371.1
315.75,147.3
315.7981,30.7
315.9443,25.2
315.9664,122.4
315.981,767.7
316.011,192.4
316.0374,215.4
316.0694,694.5
316.0777,43321.8
316.0839,831546.9
316.0964,18.7
316.1024,209.8
316.1726,267.6
316.3023,116
316.3841,423.8
316.4449,21
316.4498,116.8
316.5708,18.9
316.7186,184.2
316.7965,591.4
316.8127,115.5
316.9871,872.7
317.0571,386.7
317.0655,1238.2
317.0844,94253.4
317.1791,1331.5
317.2482,837.9
317.3155,138.7
317.5152,299.8
317.7186,97.9
317.8225,107.1
317.9712,91.6
318.082,96
318.0879,8706.3
318.2101,190.5
318.5293,18.5
318.5685,290.6
318.7083,222.3
318.7435,114.1
318.7928,1112.2
318.8037,2382.3
318.8235,18.3
318.8311,27.9
318.9082,676.9
318.9173,20.1
318.9349,472
319.0247,567.6
319.1617,24.5
319.1809,98.1
319.1951,50695
319.2036,1043.7
319.2582,331.9
319.4345,29.5
319.5315,543.3
319.5958,400.7
319.709,160.2
319.7923,23
319.8366,18.3
319.8948,470.7
319.9003,120.6
320.0362,540.2
320.0756,23
320.1985,7963.7
320.2228,19.1
320.2591,1593.6
320.5495,24.3
320.6854,189.4
320.7247,123.8
320.8006,1611.8
320.831,51.6
320.8582,24
321.0052,364.5
321.05,88.7
321.2107,100782
321.2408,463.8
321.2624,54.6
321.4395,168.9
321.4752,866.5
321.5885,563.4
321.8025,86
321.8163,70.4
321.8368,80.9
321.8936,252.4
321.9284,778.1
322.0094,113.8
322.095,177.9
322.1511,113.4
322.1617,163.7
322.1815,318.1
322.214,15772.6
322.2273,93.8
322.3491,23
322.624,124.6
322.6787,400.6
322.8121,785.8
322.8235,39.1
322.8869,589.3
322.9316,355
322.9437,78.1
322.9861,742.3
323.0096,98.5
323.0209,7628.4
323.1925,120.5
323.2267,6441.9
323.2418,93.4
323.349,178.4
323.621,128
324.0022,9712.4
324.0561,170.5
324.0659,861.1
324.121,125.3
324.2089,610.2
324.4006,155
324.4183,19.4
324.5451,3143.2
324.5553,4284.9
324.5627,3416.4
324.5666,2457.6
324.666,178.8
324.8092,299.1
324.8528,1900.1
324.92,1005.6
324.9474,121.6
324.9837,130.6
325.0028,897.4
325.0573,1143.6
325.2046,473.1
325.212,11125.8
325.231,19.9
325.2379,410.6
325.4024,325.1
325.4815,645.4
325.5092,291.1
325.579,148.4
325.6508,843.4
325.7572,538.5
325.8716,127.6
325.9312,322.6
326.0069,26.3
326.0398,20.1
326.0877,86.4
326.2157,2478.4
326.2286,929.1
326.2567,185.7
326.2628,696.7
326.3771,232.9
326.5919,92.8
326.6109,599.5
326.8073,175.7
326.8243,683.8
326.8368,332
326.85,1607.6
326.9053,458.8
326.9108,110.7
327.016,3945.1
327.046,300.5
327.052,1224.9
327.0896,379.5
327.2277,34745.7
327.3933,113.1
327.4556,96.5
327.4984,466
327.5464,117.6
327.7425,853.5
327.7624,904.9
327.8068,124
327.8138,20.1
328.0152,730.7
328.0308,21.3
328.1229,94.5
328.2311,4508.1
328.4176,750
328.421,714.2
328.4247,597.1
328.4333,1031
328.4409,658.9
328.5757,158.6
328.698,517.1
328.735,569.8
328.7845,20.2
328.8057,282.4
328.8145,95.4
329.0959,2343.8
329.1572,262.7
329.2424,1169.1
329.3025,370.5
329.3239,243.3
329.3969,322.8
329.6285,182.1
329.6603,344.9
329.6786,380.8
329.6969,174
329.8501,177.2
329.8908,101.3
330.0595,130.7
330.0678,114.1
330.2382,182.1
330.2463,425.9
330.2763,326.1
330.304,176.3
330.4378,103.5
330.6252,166.5
330.9156,237.9
330.9262,337.5
330.9611,519.6
331.0196,2364.4
331.0257,167.7
331.0457,112107.3
331.0545,984540.7
331.0661,338.8
331.1,191.5
331.1409,101.4
331.1581,20.1
331.2513,290.8
331.3174,86.9
331.4851,165.9
331.7418,533.8
331.8684,148.2
332.0259,28.4
332.0296,161.1
332.0484,6177.7
332.0578,86411.5
332.1259,674.7
332.3497,372.2
332.5786,187.8
332.7375,103.4
332.7466,119.1
332.8089,152.3
332.8155,22.4
332.8408,836.2
332.8665,335.1
332.8724,404.1
333.0387,608.2
333.0526,56725.2
333.0582,9902.6
333.0898,256.8
333.1524,758.2
333.163,239.4
333.2122,291
333.2714,832.8
333.3336,368.9
333.6896,18.8
333.906,104.9
333.9278,164.4
333.9792,449.4
334.0175,151.2
334.056,3797
334.0903,24.1
334.3562,101.5
334.4598,391.2
334.4698,136.9
334.6211,303.5
334.7401,102.2
334.7507,542.8
334.7852,310.1
334.8393,664.6
334.847,83.9
334.8647,494.1
334.8888,301.5
334.928,129.8
335.0388,481
335.0459,542.2
335.107,18.9
335.1674,4258.9
335.2366,343.6
335.3431,146
335.446,553.3
335.472,97.5
335.511,211.6
335.5553,537.8
335.6238,179.2
335.8331,147.5
335.9698,777.1
335.995,87.2
336.01,285.8
336.0164,1016.1
336.0849,20.3
336.1719,245.6
336.1779,19.5
336.2142,24.4
336.3367,165.6
336.3785,129.7
336.5906,691.4
336.6186,361
337.0366,8409.5
337.0501,16487.9
337.0625,527234.4
337.1833,6623.6
337.2244,20.1
337.2744,2246.5
337.3239,468.7
337.8254,248.5
337.8477,120.7
337.9128,275.9
338.029,215
338.0659,48408.8
338.1606,197.3
338.1865,292.5
338.237,89
338.2601,595.2
338.2786,678.6
338.2875,106.9
338.3426,24.4
338.3511,888.7
338.5859,196.1
338.7369,209
338.9206,1216.5
338.9631,17.6
339.0388,2466.2
339.0478,344.2
339.0665,4278.9
339.1993,418.8
339.2901,7756.1
339.3394,118.7
339.3547,350
339.4714,449.4
339.5945,256.3
339.696,831.9
339.7479,148.1
339.761,99.7
339.9677,333.9
339.9764,1023.1
340.0411,139
340.1778,170.3
340.2086,308.3
340.2933,618.5
340.3577,700.9
340.4405,558.3
340.7559,1159.5
340.7831,774.5
340.8003,144.3
340.8279,412.2
340.9868,1274.2
341.0328,19.5
341.1247,19.5
341.1796,1962.5
341.1859,1476.4
341.3059,5004.2
341.3391,183.2
341.3533,148.3
341.3899,576.5
341.5093,299.8
341.5716,433.6
341.8898,398.8
341.9638,140.5
342.0156,7897.4
342.0333,276.8
342.0352,307.1
342.0385,259.2
342.1461,20.7
342.1705,208.9
342.3434,604.5
342.4486,125.9
342.458,129.2
342.5286,353.8
342.5663,104.3
342.8699,1245.3
342.966,79.5
342.9762,799
342.9899,1465.6
343.0137,620.3
343.0689,811.9
343.1952,23309.8
343.2014,3059.9
343.3733,392
343.4582,132.7
343.5226,686.8
343.6171,85.1
343.6391,355.3
343.7474,293.7
343.8431,735.7
343.8754,439.5
343.8921,273.1
343.9883,103.7
344.067,116.8
344.0817,153.8
344.154,145.4
344.1988,2462.9
344.2453,250.5
344.2658,101.2
344.2736,350.5
344.3564,180.8
344.7847,170.7
344.8066,532
344.9077,561.2
344.9979,773
345.0457,25.6
345.0834,470.5
345.1166,539.4
345.2106,2618.9
345.2605,258.1
345.3296,651.7
345.4216,297.6
345.4576,285.3
345.4966,204.9
345.5337,183.2
345.5692,203.7
345.6193,183.1
345.7975,182.1
345.8174,63.8
345.8662,829.8
345.9097,105.6
345.9763,290.8
345.9842,41416.4
346.0101,250.3
346.0254,661.4
346.0415,238.4
346.0565,23.5
346.1203,17973.6
346.1575,271.6
346.2152,28.5
346.2865,102.3
346.3569,120.2
346.363,20.2
346.5176,204.4
346.602,796.3
346.6748,431.3
346.7969,303.1
346.9443,127.3
346.9878,1499.8
347.0181,2282
347.0239,286.8
347.1247,705.6
347.1839,19
347.2372,19.7
347.2491,188.2
347.5707,23.1
347.8724,478.3
347.9313,517.4
348.0218,92.1
348.0432,161.6
348.1688,109
348.307,168.2
348.3554,145.7
348.5324,20.6
348.5988,17.9
348.947,125.3
349.0184,2385
349.2254,111.5
349.2746,19.3
349.335,230.5
349.5065,303.4
349.8275,803.6
349.8844,538.5
350.0152,28.1
350.1696,239.8
350.3068,113.6
350.3591,143.8
350.3962,942.2
350.5599,512.7
350.8857,185.1
351.0138,851.8
351.0216,277.7
351.3387,268.7
351.4725,234.6
351.6237,22.2
351.6292,271.4
351.8344,529.9
351.9221,121.7
351.9631,299.9
352.0124,967.1
352.0343,477.2
352.2276,242.2
352.2966,389.4
352.3676,553.9
352.4613,296.5
352.5102,456.1
352.5373,187.8
352.8602,155.4
352.8977,1239.5
352.9702,393.4
353.0276,129135.1
353.0365,168663.7
353.2133,110
353.3463,206.2
353.378,249
353.5835,120.7
353.6402,93.5
353.8854,398
353.958,276.7
354.0306,8617.6
354.0399,14679.9
354.3734,831.2
354.4392,411.4
354.822,632.3
354.841,19
354.8946,1136.9
355.0122,838.6
355.0348,10294.3
355.0708,256.4
355.1267,585.9
355.1418,293.6
355.1972,151.3
355.2161,2330.8
355.225,203.2
355.2618,17.9
355.5265,125.9
355.6694,550.9
355.721,274.3
355.8045,782.4
355.8604,22.9
355.9397,29.5
356.0155,22.3
356.0702,22.9
356.2664,21
356.2715,435.4
356.288,122.9
356.3106,355.9
356.3607,500.6
356.7092,347.8
356.8635,576.1
356.9939,155.4
357.0092,251.5
357.0221,232.1
357.0475,98.4
357.0611,100.4
357.0857,768.3
357.1521,46
357.2157,481.6
357.227,162
357.3141,191.5
357.3562,115
357.5868,271.1
357.5941,198.8
357.5981,406
357.6024,711.9
357.616,292.4
357.7683,296.1
357.9305,226.5
357.9496,310.1
357.9781,1320
358.0393,303.8
358.0695,18.9
358.0834,303.6
358.1677,188.1
358.2413,515.2
358.2535,179.9
358.3465,280.1
358.5347,169.2
358.7223,168.5
358.8038,175.8
359.008,188.4
359.032,10231.7
359.0445,314499.8
359.1675,2259.3
359.5027,212.1
359.5651,367.8
359.5715,117
359.5735,115.4
359.5795,221.7
359.5928,169
359.609,407.7
359.622,23.1
359.6282,182.8
359.6433,800.8
359.6571,590.2
359.6695,601
359.6761,130.6
359.6914,307.6
359.6976,611.3
359.7011,632
359.7133,318.9
359.7248,563.3
359.7305,406.8
359.7534,688.4
359.7958,20.4
360.0306,280.2
360.0479,29014.8
360.0854,328.2
360.1012,18.3
360.1348,148.8
360.164,363
360.1713,894.2
360.3244,83.4
360.4785,100.6
360.5508,752.8
360.5895,376.1
360.6151,107
360.7949,453.2
360.8054,188.7
361.0206,4501.3
361.0478,336.1
361.1832,418.7
361.2745,2178.1
361.3095,24.6
361.3776,369
361.4962,373.5
361.7155,156.3
361.8937,198.6
361.9185,115.3
361.9581,11938.8
362.0942,1074.4
362.3597,106
362.3732,122.1
362.4328,174
362.5068,218.3
362.5769,18.5
362.7844,328.7
362.8527,287.3
362.8866,132.4
362.9271,1144.8
362.9618,176.7
363.0231,126.5
363.0457,82.6
363.0629,22.8
363.0876,174.4
363.1543,320.4
363.1939,26.7
363.4257,19.2
363.7908,53.5
363.8175,316.9
363.9977,1712.2
364.0111,178.5
364.2612,638.4
364.5693,111.9
364.5984,110.4
364.8523,195.5
364.9176,264.1
364.9407,155.4
365.1062,609.4
365.3411,350
365.371,96.7
365.4785,167.7
365.7864,152.6
365.8886,487.7
366.0383,91.9
366.0596,296.4
366.5097,216.2
366.7117,20.4
366.7669,313
366.7961,117.2
366.8146,31.6
366.9287,40.8
367.1219,5382.7
367.1715,441.3
367.1951,7581.2
367.267,475.8
367.3778,337.1
367.4893,1370.7
367.6691,94.4
367.8976,27
367.9791,99.4
367.9924,2268.4
368.0029,623.1
368.0122,356
368.1022,4675.4
368.2576,121.4
368.3274,777.3
368.3751,24.6
368.4068,307.9
368.4355,533.6
368.4897,571.4
368.5537,19
368.6022,302.3
368.6472,293.2
368.6879,485.2
368.858,26.1
368.9923,3238.5
369.0013,11778.8
369.0104,5416.8
369.2166,97.6
369.3527,438
369.4017,565.7
369.6909,506.5
369.7985,540.3
369.886,190.8
369.9313,118.8
369.9803,87.8
370.0268,22.3
370.0715,569.7
370.1145,103
370.1413,343.8
371.0003,3339.9
371.0411,931.2
371.1069,123.1
371.1156,102.8
371.2392,174.4
371.2651,2136.9
371.276,20.3
371.2907,204.4
371.4854,564.4
371.5501,190.3
371.6384,208.5
371.6835,248.7
371.9428,20.1
372.0679,3897.5
372.2379,143.3
372.6074,78.3
372.6347,497
372.7388,387.2
372.7761,631.1
372.8112,85.3
372.9617,24.8
372.9954,260.2
373.1681,230.4
373.1904,375.9
373.4743,476.5
373.5251,23.5
373.5389,369.6
373.764,117.6
373.8127,29
373.9503,36.1
374.353,193.3
374.4167,586.5
374.5129,97.8
374.7368,390.8
374.7911,113.9
374.8163,949
374.8681,312.1
374.9368,75.5
374.9661,114.5
374.9974,352.9
375.0096,121192.2
375.0184,86154
375.0621,219.7
375.1399,221.4
375.1586,449.6
375.3655,510.9
375.5719,216.9
375.6221,207.4
375.9654,105
376.0131,7436.1
376.0218,7126.9
376.1998,167
376.4768,1335.8
376.693,220.3
376.8686,238
376.9044,374.7
376.9941,795.7
377.0166,3962.8
377.2811,625.2
377.3354,139
377.4263,88.6
377.5936,161.9
377.611,840.7
377.6378,426.4
377.66,314.5
377.7196,131.1
377.74,339.3
377.8068,22.9
377.9135,152.8
377.9322,303.4
378.0016,505.2
378.0793,337.5
378.1109,173.2
378.1513,208.6
378.1692,134.1
378.326,83.7
378.3352,154.9
378.4623,843.2
378.644,376.8
378.7619,310.7
378.8616,313.2
378.9011,737.8
378.9918,23.3
379.1108,228.2
379.591,124.6
379.8314,176
379.9755,507.7
380.2102,283.2
380.2882,142.7
380.3644,103
380.4527,245.6
380.4973,90.6
380.5013,112.5
380.5032,111.3
380.5804,309.5
380.6513,915.7
380.7649,523.1
380.7702,1117.8
380.8296,22.7
380.9114,445
381.014,17119.2
381.0265,182955
381.0633,198.7
381.0803,434.1
381.1691,22.5
381.2314,522.2
381.4283,345.9
381.5875,250.7
381.6365,82.9
381.9002,520.3
381.9849,18.7
382.0298,18246.9
382.1352,488.6
382.2384,143.1
382.3191,122.6
382.7678,1947.7
382.7911,25.8
382.8373,552.6
382.8463,369.1
382.8769,24.2
382.9153,102.5
383.1168,303926.2
383.168,67
383.2928,224.9
383.5283,736.1
383.9242,110.5
383.9462,104.9
383.9661,2466.9
384.0759,995.9
384.0952,551.8
384.1201,35031.9
384.1351,173.8
384.2745,241.6
384.7114,155.5
384.7646,1614.2
384.9099,115
384.9738,152.5
385.0363,700.7
385.1203,2193.4
385.1915,163.5
385.275,515.8
385.3889,313.9
385.5198,401.7
385.5449,19.7
385.595,253
385.6203,132
385.812,119.6
385.8609,183.1
385.9162,310
385.9451,58.6
385.9797,8796.4
386.175,547.5
386.2817,313.9
386.7625,308
386.9249,436.2
386.9749,1143.7
387.0032,2434
387.1923,174.7
387.2402,158.2
387.3608,20.9
387.5936,91.5
387.772,119
387.9616,242.1
387.9793,1043.5
388.12,847.9
388.2244,437.9
388.2582,82.5
388.5251,141
388.65,185.9
388.8142,758.5
388.9086,338.8
388.9243,544.3
389.1813,286.3
389.3957,292.1
389.6058,160.5
389.6976,193.6
389.7789,918.2
389.8247,84.3
389.8946,26.4
389.9741,44941.6
389.9863,104.1
390.0162,117.7
390.097,722.4
390.4003,306.2
390.4406,21.2
390.5318,322.9
390.7022,317.5
390.7092,654.8
390.7994,1420.6
390.82,587
390.8281,354.2
390.8325,397.6
390.8418,20.4
390.8523,757.6
390.861,127.7
390.8758,524
390.9745,10384
390.9832,17527.2
390.9923,9219.3
391.088,190.2
391.1043,237.9
391.2059,285.9
391.2316,172.1
391.3518,139
391.47,89.1
391.808,333.1
391.9867,441.2
392.0054,88
392.2624,25.6
392.5168,122.2
392.6353,340.2
392.6849,106.3
392.697,150.8
392.7965,2417.4
392.9822,2177.3
392.9898,208.7
393.1517,186.7
393.2987,28.1
393.3091,18.6
393.4889,784.5
393.5135,315.9
393.782,129.9
393.8145,515.2
393.9065,21.2
394.0342,19.4
394.0667,105.4
394.2576,135.1
394.402,141
394.5273,952.2
394.6195,663.5
394.7282,308.8
394.7567,479.2
394.8405,83.9
394.9773,232
395.0038,99.2
395.5657,191.8
395.6402,176
395.7344,21.4
395.7552,107.7
395.7618,546.2
395.935,193.9
396.1391,343.7
396.1594,573.7
396.2639,19.9
396.3786,162.3
396.4532,111.9
396.4946,171.6
396.5288,282.1
396.5716,567.5
396.6242,169
396.7303,138.8
396.7452,1614
396.7605,185.2
396.7928,345.8
396.8621,405.9
396.914,19.2
396.9915,166729.2
397.0004,54804.6
397.1399,954.7
397.2601,120.6
397.2724,307.9
397.3936,283.8
397.4522,338.9
397.5688,712.9
397.6582,621
397.6741,196.7
397.8009,19.8
397.9639,120.8
397.9673,115.2
397.9947,13292.5
398.0037,2064.7
398.0181,200.5
398.1968,18.9
398.2423,6106.3
398.3356,121
398.3445,471.5
398.6644,25
398.7415,1876.5
398.7618,2145.6
398.8252,108.4
398.999,632.5
399.0709,917
399.087,658.7
399.1278,125.5
399.1789,3566.8
399.3422,566.8
399.5425,182.8
399.7696,2694.1
399.7917,432.8
399.9111,136.3
399.9639,176.8
399.9972,658.8
400.0716,112.7
400.2441,399.5
400.3527,109.1
400.5219,544.4
400.6207,174.1
400.7387,1099.6
400.7625,100.3
400.7776,207.4
400.8285,792
400.9849,1056.6
401.3671,193.4
401.3858,127.1
401.4043,141
401.4177,448.1
401.4374,502.9
401.6692,119.9
401.705,254.5
401.7649,175.3
401.9447,21
401.953,620.8
402.0339,176.8
402.1211,874.5
402.429,33.8
402.4638,260.9
402.718,142.6
402.8259,804.7
402.8508,132.2
402.9923,976.2
403.0084,219768.8
403.3014,81.2
403.3732,479.8
403.3823,111.5
403.7112,755.8
403.8118,131.1
403.8207,114.1
403.9263,178.1
403.9421,1012.7
403.9523,323.8
403.9956,25.9
404.0118,17087
404.033,288.1
404.095,359.6
404.1073,149.1
404.4435,484.3
404.5966,196.4
404.6862,513.8
404.7808,163.5
404.7953,25.7
404.9708,783.9
405.013,1136.9
405.0397,199.9
405.2213,95.1
405.2635,606.6
405.4189,346.6
405.4759,535.1
405.7488,549.5
405.9344,543.4
405.9481,24922
405.96,250.6
406.0561,17.3
406.1197,20.8
406.33,631.5
406.3628,562.5
406.4553,187.9
406.5661,93.3
406.6833,532.1
406.6983,298.4
406.7154,323.5
406.7734,1946.6
406.8282,127.3
406.8606,94.6
406.9342,180.9
406.9528,411
407.0949,112.2
407.3304,726.2
407.6646,18.1
407.8179,68.8
407.855,30.8
407.8718,111.9
407.9456,972
408.0481,329.7
408.1857,165.8
408.3454,194.1
408.4336,160.9
408.6126,246.5
408.7707,1698.9
408.7998,152.3
408.844,587.1
408.9567,145.8
408.9851,1280.5
409.1937,352.3
409.2113,367.5
409.4472,308.5
409.6503,182.1
409.9892,120.2
410.0844,23.1
410.2938,376.5
410.3038,128.8
410.7629,3297.9
410.8563,821.6
410.9147,107.5
410.985,292.5
411.1494,296.7
411.2397,26.6
411.264,1904.8
411.3149,270.5
411.3531,112.6
411.4125,18.8
411.4491,177.3
411.6551,220.4
411.8033,115.2
411.8963,155.6
411.9657,22.1
412.1632,429
412.3222,1181.4
412.3425,614.9
412.3757,158.4
412.3842,259.3
412.6991,225.4
412.8393,81.8
412.8544,771.6
412.9307,191.9
412.9379,21.9
412.9649,36317.5
412.9744,8423.9
413.0115,137.4
413.0611,581.1
413.1848,235.2
413.2274,849.8
413.267,3068.3
413.3246,273.5
413.3435,19
413.4708,105.1
413.5569,111.4
413.5833,114
413.6259,495.6
413.6752,395.6
413.758,416
413.9399,328.7
413.9571,25.8
413.9663,95.8
414.0682,92.2
414.2706,219.2
414.3572,286.2
414.3753,20
414.7154,531.6
414.8038,173
414.9632,465.6
414.9976,934.8
415.0368,18.4
415.1099,19.1
415.1525,1415.1
415.2317,128.4
415.2745,20.7
415.2956,703.8
415.306,109.5
415.384,132.6
415.618,18.1
415.6442,107.9
415.8905,532.9
415.993,408.3
416.1357,15025
416.2146,16547.9
416.2317,102.9
416.2896,319.5
416.343,160.2
416.4556,121.6
416.5462,202.9
416.6405,390
416.8808,281.4
416.9574,156.9
417.0151,1048.2
417.0507,123.2
417.1008,96.1
417.1383,463.5
417.2175,2294.4
417.3264,32.7
417.4432,762
417.5169,256.3
417.589,270.4
417.6577,110.5
417.7036,605.9
417.7856,249.9
417.9038,29.6
417.9272,269.7
418.019,20.6
418.0671,365.2
418.0984,196.1
418.2661,525.2
418.7869,112.9
418.8019,1443.9
418.9194,357.8
418.9824,74985.2
419.095,181.1
419.1093,240.1
419.2562,1328.9
419.2755,617.5
419.4376,199.3
419.4402,201.8
419.4991,148.2
419.538,373.7
419.5631,24.5
419.7249,157.8
419.7997,582.9
419.9511,132.4
419.9857,2683.8
419.9999,55.5
420.0751,118.5
420.2741,28
420.3233,303.9
420.3413,178.3
420.6169,21.5
420.6263,153.3
420.716,249.7
420.8494,21.9
420.9583,1323.6
420.9801,2025.3
421.0142,19.3
421.1445,182.1
421.1643,188.4
421.2409,158.3
421.2835,691.6
421.2922,148.5
421.3488,25.4
421.3625,678.4
421.4776,139
421.5221,179.2
421.5961,177.5
421.7912,115.9
421.8344,63.7
421.8713,219.1
421.922,3903.1
421.9333,25
422.0909,19.4
422.3046,25.1
422.3536,176.2
422.3609,18.3
422.3767,624.9
422.3936,123.9
422.4205,131.4
422.7029,150.4
422.8293,251.4
422.9547,413.2
423.2267,734.8
423.2948,353.4
423.3287,165.8
423.3951,170
423.4223,439.3
423.5757,392.6
423.8028,150.3
423.92,110.1
424.0694,500.1
424.1668,21.6
424.6809,657.2
424.7633,96.9
424.8281,405.1
424.8495,23.4
424.8761,214.5
424.9156,688.8
424.9832,730.3
425.0301,44.4
425.2914,162.1
425.3863,241.4
425.4313,326.7
425.4613,619.1
425.5682,91.9
426.0899,933.6
426.1153,88.7
426.1382,392.7
426.151,155.9
426.3363,192.7
426.4109,184.9
426.6638,84
426.8541,696.8
427.0433,105.4
427.1557,567.2
427.4796,80
427.7628,157.4
428.0712,521.2
428.1559,95.6
428.2277,821.7
428.2456,322.2
428.3505,105.1
428.5853,208.4
428.6086,195.4
428.7377,436.4
428.762,385.9
428.7787,901.9
428.8124,113.9
428.9381,5511.5
428.9678,266.8
428.9739,188.5
428.9828,1666.8
429.0137,1207.2
429.0738,148.2
429.0893,182.1
429.1609,113.6
429.3356,244.3
429.6577,188.5
429.9417,109.9
429.9968,471.7
430.1329,138.6
430.2057,1273.4
430.2417,197.2
430.2608,155.6
430.319,164.3
430.3511,370.2
430.3823,198.2
430.8313,522.9
430.9145,1372.6
430.9497,20.4
430.9968,261.5
431.015,141.6
431.1629,135.8
431.2183,1307.4
431.2402,90.5
431.3215,145.8
431.3419,213.1
431.376,177.9
431.3824,101.9
431.4228,19.3
431.5782,18.8
431.6256,206.4
431.8139,267.3
431.9158,291.8
431.9505,137.5
431.9708,21.4
432.411,327.3
432.4365,192.6
432.5491,108.7
432.613,350.6
432.669,504
432.9203,180.6
433.232,927.6
433.2561,338.9
433.3168,800.3
433.4774,181
433.4891,230.3
434.6384,182.8
434.6842,247.5
434.9563,12110.2
435.3357,260.2
435.864,111.2
435.8951,156.8
436.4492,181
436.5233,24.6
436.5488,20
436.7055,456.3
436.7933,342.7
436.8141,294.9
436.8955,19.4
436.9536,763.2
436.9933,24.8
437.1124,83.5
437.4071,101.3
437.5258,102.8
437.5444,168.8
437.6345,103.4
437.781,165.3
437.9891,116.6
438.197,488.9
438.255,345.4
438.5469,20.4
438.9723,2055
438.9851,4941
439.1566,244.1
439.2035,158.1
439.2288,99.8
439.2775,175.9
439.5199,327.9
439.7318,18.2
439.9564,25.1
439.9896,290.7
440.0628,18.2
440.1536,427.8
440.4324,222.3
440.447,24
440.6143,423.6
440.6656,471.6
440.7281,338.5
440.925,868.7
440.983,536.4
441.0862,22.3
441.1074,111.8
441.2984,150.3
441.3346,312.9
441.4836,651.6
441.7005,20.5
441.7916,146.9
442.0638,519.8
442.1814,193
442.222,141.7
442.4154,415.8
442.4396,130.3
442.6596,328.2
442.7247,390.5
442.766,687.2
442.8749,19
443.2544,2167.8
443.6863,336.8
443.8138,525.2
443.9729,99.7
443.9935,76.9
444.0863,24.3
444.2094,319.9
444.2216,143.7
444.2704,21.4
444.327,315.4
444.4369,110.5
444.6944,690.4
444.9597,459.5
445.1422,716.1
445.2333,1907.6
445.2621,631
445.2843,543.5
445.8424,159.3
445.9666,22.9
446.0586,166.8
446.1827,273.5
446.2353,845.4
446.3251,144.9
446.5986,313.6
446.8896,882.1
447.0175,212.1
447.0705,835.3
447.0889,92.6
447.1654,558.2
447.2567,17.9
447.3054,190
447.3168,19.1
447.3963,251.1
447.4484,119.8
447.4752,176.4
447.6045,360.9
447.84,128.3
447.9158,107.1
447.9329,3316.1
448.1549,27.8
448.6677,373.1
448.933,2912.4
449.026,313.2
449.056,138.4
449.0792,214.2
449.1547,2068.7
449.6524,130.6
449.6856,19.8
449.7428,20.1
449.7561,137.1
449.8537,439.2
449.93,231.4
450.1583,386
450.3286,411.4
450.5408,740.8
450.64,550.8
450.7538,398.5
450.8143,319.2
450.8576,186.4
450.9294,535.2
451.0017,107
451.0676,154.5
451.1507,169.5
451.3964,127.6
451.5582,20.7
451.8781,187.2
451.9978,347
452.0656,102.7
452.2323,338.2
452.6419,226.5
452.665,141.8
452.7234,693.4
453.14,195.3
453.1743,2865
453.488,569.1
453.5159,103.6
453.596,128.2
453.7724,192.5
453.7851,21.4
453.9159,81.7
453.935,158.4
454.1282,344.7
454.1763,572.1
454.2146,31.9
454.2427,230.4
454.3076,206.3
454.6169,99.7
454.7037,378.5
454.7583,572.7
454.8657,179.1
454.9372,147.9
454.9503,41793.3
455.1427,725.6
455.9098,592.4
455.9527,2310.3
455.9632,87.6
456.3095,187
456.4929,183
456.6401,527.8
456.6914,324.5
456.7017,600
456.9476,9919.6
457.1868,355.9
457.2335,10230.7
457.2445,254.6
457.5024,205.4
457.6247,87
457.767,426.5
457.9672,48
458.0461,302
458.1339,20.5
458.2375,882.1
458.4037,268.9
458.524,335.9
458.9336,396
458.9621,2479.4
458.9775,202
459.1386,248
459.2489,438950.1
459.3909,152.5
459.5929,87.2
459.7327,278.6
459.8714,712.3
459.9451,68.3
460.2523,93182.5
460.2651,188.2
460.3611,97.2
460.7122,314
460.7626,75.3
460.8319,334.5
460.8807,130.9
460.942,344.9
460.9671,73038.1
461.0073,310.9
461.145,894.9
461.2355,303.8
461.2554,5726.6
461.4711,111.5
461.5046,360.2
461.6749,199.1
461.792,147.4
461.8513,251.6
461.9703,5230.1
462.0861,100.7
462.1232,652.2
462.2443,269.6
462.3335,550.5
462.3726,923.6
462.3838,223.3
462.7289,24.7
462.9639,18349.4
463.2027,1734.8
463.3767,531.2
463.5802,182.6
463.598,269.8
463.7893,258.2
463.8381,576.3
463.9071,165.1
463.9676,2795.1
463.9897,281.9
464.0866,129.3
464.1301,18
464.2112,604.3
464.2528,29
464.3792,176.3
464.4743,856.9
464.7196,27.6
464.948,520.1
464.9557,132.8
464.9789,10834
465.0832,17.8
465.2414,413.3
465.6122,623.4
465.827,21.2
465.8509,682.6
465.8771,19.6
466.1492,340.3
466.1688,151.1
466.5457,105.2
466.6144,492.9
466.7284,869.9
466.7913,321.8
466.7959,324.1
466.7997,313.9
466.8239,170.1
466.847,136.7
466.8661,119.2
466.944,932.9
467.0702,197
467.157,349.6
467.171,352.4
467.514,581.4
467.5976,195.5
467.8012,363.1
467.8351,179.1
467.9227,590.5
468.0681,304.8
468.2407,92.3
468.3364,198.1
468.5626,524.4
468.8408,125.3
469.0031,26.1
469.0515,21.4
469.346,284.2
469.3668,258.6
469.4364,581.5
469.8372,391.1
469.8709,313.4
469.9191,19.2
469.9446,323.8
470.1266,116.5
470.2383,126.8
470.2516,111.1
470.4676,317.7
470.6771,410.1
470.8588,500.3
470.8781,80.5
470.924,17413.9
470.9671,28.1
470.9767,180.1
470.9962,3870.4
471.1967,1271.5
471.2144,201
471.4207,113.8
471.7554,21.2
471.8559,205.5
472.0501,247.4
472.1946,599.4
472.2016,376.7
472.2687,127.8
472.4658,377
472.5695,571.5
472.9213,4330.3
472.9392,488.1
473.031,350.7
473.2648,5812.7
473.337,149.5
473.4628,330.9
473.9227,392.1
473.9764,250.5
473.995,163.1
474.3609,134.1
474.5788,109.4
474.7424,18.6
475.1988,491.5
475.2229,19876.1
475.4225,123.1
475.4307,26.1
475.8028,129.1
475.9426,324.3
476.0799,601.9
476.1371,201.9
476.2262,1766.3
476.3692,86
476.6593,137.9
476.7569,707
476.941,38904.9
477.1927,750.4
477.2949,335.8
477.3455,115.1
477.3888,322.9
477.547,212.7
477.7106,155.1
477.9443,2349.3
477.9798,104.4
478.1527,19.1
478.33,64850
478.4017,122.2
478.4942,207
478.8953,274
478.9382,11535.7
479.0973,22.1
479.2655,21.6
479.2834,331.5
479.3332,11830.3
479.7448,20.7
479.9423,365.6
480.0056,847
480.0495,25.9
480.0661,238.8
480.185,132.5
480.2893,353.6
480.3364,517.3
480.3665,148.9
480.4543,229.2
480.4785,542
480.5166,20.3
480.7801,24.4
480.9359,366.4
480.9525,2253.7
480.9859,150.9
481.0749,28.9
481.0921,1917.5
481.2339,1150.9
481.4778,228.5
482.0959,334.8
482.2803,198.6
482.6285,343.9
482.6526,315.1
482.7017,714.3
482.8258,621.5
482.9404,533.1
483.0704,165.6
483.0865,28.3
483.249,80592.3
483.4801,484.8
483.5711,594.6
483.6707,94.7
483.779,107.9
484.0862,129.2
484.2001,88.8
484.2523,21212.2
484.902,509.3
485.1664,167.7
485.2646,129437.5
485.9502,71.5
486.0145,230.8
486.0651,264.4
486.0896,172.2
486.1281,76.6
486.2679,31321.3
486.4867,539.4
486.8981,1114.9
487.2371,19.3
487.2802,102964.3
487.3812,383.3
487.543,242.7
487.6288,579
487.7979,778
487.806,19.3
488.0124,217.3
488.102,378.8
488.2835,24855
488.2967,20.2
488.3649,350.5
488.5966,350.4
488.6392,453.5
488.7759,149.4
488.8826,319.7
488.9148,621.7
489.0188,494.6
489.3103,356.8
489.5153,131
489.5582,131.7
489.5868,197.1
489.6523,112.9
489.7051,101.8
489.937,120.1
490.0106,129.6
490.1484,154.4
490.2914,3229.7
490.3891,102.5
490.6501,146.2
491.1764,106.3
491.211,18.2
491.5127,697.6
491.5895,24.7
491.6014,136
491.6403,204.1
491.8374,22
492.0221,567.9
492.118,227.4
492.1717,381.3
492.4275,134.1
492.5978,277.7
492.6338,186.4
492.7557,27
492.8108,112.3
492.9151,7078.7
493.2315,159.3
493.4391,149.8
493.769,235.8
493.9367,193.9
493.9579,445.3
494.0582,117
494.2085,380.9
494.2341,1008.6
494.278,114.4
494.3251,4887.3
494.9123,1211.7
494.9498,159.6
494.9686,292.4
495.0655,957
495.2045,79.6
495.4783,162.9
495.51,448.1
495.6371,159.9
495.6499,203.4
495.8556,325.1
496.2192,714.2
496.3405,321289.5
496.4512,110.6
496.4869,307.5
496.5319,520.2
496.5519,140.3
496.7356,230.3
496.8681,400.5
496.9314,513.8
497.0872,292.1
497.2181,808.1
497.2742,217.4
497.3439,82096.1
497.3592,522.7
497.8919,302.1
498.3467,4471.2
498.4772,310.8
498.5162,97.6
498.5283,423.6
498.6843,511.5
498.7299,237.5
498.746,459.5
498.89,147.4
498.9396,359.1
499.0172,311.2
499.0897,669.4
499.223,2539.9
499.2882,328.8
499.3208,160.5
499.3846,302.1
499.418,176
499.9983,161.3
500.0232,136.3
500.3165,921.3
500.771,120.2
501.2388,6005.4
501.2568,760
501.2738,625.5
501.33,201.4
501.4384,326.9
501.5022,331.8
501.5651,479.8
501.6143,442.6
501.8189,116.7
501.8571,257
501.8864,607.3
502.0861,321.1
502.2616,663.9
502.3294,15104.1
502.5326,114.8
502.5474,189.6
502.6986,1058.1
502.8314,142.9
503.1077,45.8
503.2542,4187.4
503.3332,2854.4
503.7304,24.8
503.7492,133.7
503.8852,104.1
503.9122,457.7
504.108,17.2
504.2581,130
504.307,3449.7
504.3455,13186.7
504.3777,24.1
504.7756,582
504.9025,176.7
504.947,99
505.027,194.6
505.0474,194.5
505.1525,185.2
505.2331,3585
505.2897,394.5
505.3494,1162.4
505.8532,754.1
505.8911,406.9
506.0695,158.1
506.15,304.4
506.2649,618.7
506.3071,149.2
506.3612,7359.8
506.3952,226.6
506.6523,402.5
506.7964,537.9
506.8922,4631.4
507.0723,323.2
507.1352,244.3
507.2489,40167
507.365,556.1
507.4544,26.7
507.6035,161.6
507.8027,314.6
507.812,25.8
507.8889,211.1
508.2523,11147.7
508.282,82.6
508.3814,73.2
508.4316,97.3
508.4913,216.8
508.4992,204.3
508.605,197.8
508.652,537.9
508.6759,120.1
508.8889,1864.7
509.0052,3458.2
509.0911,342.5
509.2004,1024.1
509.2644,10382.6
509.292,226.4
509.3602,446.8
509.6782,93.7
509.9701,177.4
509.9824,100.3
510.0103,320.4
510.2356,23
510.268,2594.1
510.3558,2150.2
510.4607,203.5
510.5808,312.7
510.6575,137
510.712,385.5
510.7681,881.9
510.9032,733.6
511.1248,24.9
511.3173,237.2
511.359,474.1
511.3939,602.8
511.4528,352.3
511.5103,342
511.524,328.3
511.7248,298
511.9503,154.2
511.9691,407.7
512.3191,112.9
512.3354,177.2
512.6,161.5
512.8042,455.3
512.8814,320.4
512.9088,16284.1
512.9469,23.2
513.0743,359.1
513.3522,1088
513.6249,613
513.7043,263
513.803,221.9
513.8602,337.1
513.9118,513
514.5342,154.1
514.5966,495.8
514.6598,599.4
514.8869,99
514.9058,9570.4
515.0107,18.7
515.0228,789.5
515.0992,167
515.2973,274.2
515.3682,155.9
515.3813,156.7
515.6665,93
515.7884,374
515.9849,110.9
516.0138,180.6
516.2151,487.9
516.3069,13088.4
516.5098,19.2
516.6563,399.9
516.6958,278.4
516.9026,579.8
516.9197,409.4
517.0605,244.6
517.1356,513.2
517.2111,103.6
517.3107,1117.4
517.3732,141.2
517.4305,161.3
517.6113,521.3
517.677,538.7
517.6999,286.8
517.7446,514.3
518.1165,173.6
518.3225,682190.5
518.6489,293.1
518.9258,28070.7
519.2362,379.8
519.3258,162399.8
519.6837,103.7
519.8907,546.8
519.9287,752.1
520.1194,232
520.1721,115.7
520.3291,18931.6
520.3405,57738.4
520.3891,114.1
520.4574,537.5
520.6618,172.4
520.9227,19119.6
521.1818,456
521.3438,13754.8
521.3638,23.8
521.8399,559.8
521.8988,115.4
521.9268,726.2
521.9778,689.8
522.0086,284.6
522.0125,220.5
522.1051,502.7
522.1277,222.4
522.3562,104148
522.7948,180.5
522.9202,803.1
522.9376,5908.8
522.9682,647.3
523.0433,96.1
523.0565,130
523.3595,24304.1
523.3762,114.8
523.3939,733.6
523.446,205.5
523.4857,323.3
523.536,20.7
523.5521,19
523.6106,187.2
523.9704,488.1
524.0061,1397.5
524.0297,367.1
524.0441,110
524.2058,129.7
524.25,163.1
524.2814,142.9
524.3718,106117.4
524.5779,313.7
524.6889,566.7
524.9335,562.5
525.207,591.6
525.335,151.2
525.3752,22458.6
525.5956,132.1
525.8248,25.9
526.0895,231.3
526.22,21.4
526.3298,7053.5
526.3765,255
526.548,101.3
526.6005,393.9
526.7131,297.8
526.7731,538.5
526.9524,511.4
527.1586,293.1
527.2491,18.2
527.2722,346.3
527.3226,607.7
527.3344,1310.7
527.5403,923.4
528.0152,524.8
528.0182,606.9
528.0233,419.5
528.1829,106.2
528.3337,313.2
528.3447,959.8
528.7005,255.6
528.8037,246.2
528.8284,340.4
528.8429,219.7
528.8829,7170.4
528.9546,2884
528.9684,133.3
529.0234,171.6
529.2226,363.6
529.3119,262.8
529.4045,125.8
529.6887,93.3
529.7015,76
529.723,360.6
529.8459,21
529.8889,108.3
529.9533,126.7
530.1741,244.8
530.3588,3047.4
530.3719,154.8
530.5752,707.3
530.6983,131
530.8799,4600.2
530.95,540.5
530.995,350.4
531.0971,247.1
531.2207,2020
531.2492,8317.4
531.4199,419.4
531.5454,215.4
531.618,784.2
531.6898,87
531.8261,555.1
532.0318,613.7
532.1977,272.1
532.2502,1641.2
532.2804,1910.2
532.3381,12953.1
532.4505,485.4
532.7315,344.6
532.7968,456.1
532.9048,277
532.917,447.4
532.9673,604
533.2656,1119.8
533.3417,916.2
533.4444,371.2
533.5268,505.5
533.8066,293.5
534.0417,22.7
534.0748,21.1
534.1297,339.9
534.138,129.4
534.1958,211.4
534.257,25.9
534.2964,151974.7
534.3162,722.8
534.4922,181.6
534.5199,132.9
534.6417,417.6
534.7665,22.1
534.8997,15505.2
534.9474,27.2
535.2998,36696.3
535.3941,152.4
535.5347,137.1
535.5542,263
535.9033,729.4
535.9439,21.5
536.0596,210.4
536.0898,22.2
536.2327,18.6
536.2945,6221.8
536.3754,192.6
536.4648,129.9
536.6518,163.7
536.7601,581.1
536.8968,12708.8
537.2478,127.7
537.2981,2158.5
537.3429,595.8
537.4785,21.6
537.6699,241
537.8378,187.9
537.9014,397.5
537.9214,137.2
537.9519,161.6
537.9995,165.1
538.161,102.7
538.2413,109.5
538.3917,270.9
538.5258,669.6
538.751,31.5
538.8942,1143.6
538.9114,2860.7
538.9328,1213.7
538.9441,355.9
538.982,349.2
539.0353,504.9
539.2232,124.2
539.3027,93.1
539.8533,617.9
539.9329,316.5
540.0144,737.2
540.0984,133.5
540.2499,572.6
540.3059,1013.6
540.3425,572.7
540.4787,216.6
540.5072,118.3
540.7581,21.5
540.8652,134.5
540.9925,460.6
541.0499,146.9
541.0709,188.1
541.1152,625.7
541.1858,244.7
541.2544,370.9
541.4302,613.4
541.5286,956.7
541.9081,392.9
541.9531,119.3
541.9562,120.7
542.1333,190.4
542.3225,111046.8
542.4925,739.9
542.6509,217.4
543.0861,529.8
543.3259,29328.9
543.4096,21.2
543.4727,534.6
543.6919,357.2
543.7148,247
543.7478,313.3
543.791,121.3
543.825,781.6
543.9178,132.1
544.0786,112.6
544.3382,210952
544.6096,393.8
544.6396,117.5
544.7834,177.4
544.8586,428.5
544.9283,998.5
544.9348,781
544.9496,1492
545.1442,24.9
545.3415,54775.2
545.3793,351.5
545.4111,106.6
545.4612,287.1
545.6154,423.8
545.65,541.8
545.8297,327.4
546.2567,852
546.275,146.9
546.3538,197530.3
546.5422,600.6
546.8069,281.1
546.9701,231.5
547.3572,50952.5
547.4008,595.8
547.4361,452.4
547.5415,130.7
547.7947,131.2
547.8731,611.9
547.9134,112.6
548.0663,139.1
548.1298,20.2
548.2141,1001.3
548.2769,757.6
548.3127,2585.4
548.3605,5842.4
548.4592,149.4
548.5859,23.2
548.7692,442.6
548.8781,316.4
548.9203,137
549.0609,23.7
549.0867,291.8
549.223,808
549.241,24.2
549.362,768.8
549.481,923.5
549.5862,161.7
549.6301,19.6
549.8853,495
550.197,92.7
550.2693,898.2
550.3297,393.6
550.3876,512.4
550.5504,180.1
550.5822,105.6
550.7891,514.9
550.8734,1907.5
550.8923,25.4
550.9332,319.2
551.0759,94
551.7157,586
552.2815,23.4
552.4958,236.9
552.8706,2321.7
552.917,168.9
552.9566,492.9
553.1605,405.3
553.3289,316.2
553.5367,368.6
553.8348,405.2
553.9302,19.9
554.2307,122.1
554.3685,134.3
554.3855,456.7
554.413,120.8
554.5784,333.4
554.6003,368.5
554.9032,413.4
555.0789,289.4
555.604,668.3
555.8018,19.2
555.9629,125.9
556.3596,101.5
556.862,337.1
556.8886,725.9
557.0663,121.5
557.1136,611.6
557.5043,87.4
557.6204,174.8
557.7451,398
558.2967,23304.6
558.4324,362.2
558.5393,314.9
558.5787,21.8
558.662,519.3
558.8302,369
558.9914,668.8
559.1858,24.5
559.2999,4859.6
559.3795,311.8
559.4181,292.9
559.5282,735.5
559.7934,502.2
559.8531,19.8
559.9157,157.9
559.9902,379.6
560.0305,20.6
560.1609,596.1
560.2133,141.9
560.3121,42028.6
560.5853,524
560.7973,535.4
560.8148,293.4
560.8335,651.8
560.9228,425.2
561.2388,22.9
561.2969,645.6
561.3155,9500.6
561.4128,1169.7
561.896,109
562.0025,647.9
562.3106,1597.9
562.3277,36487.3
562.3488,413.1
562.5472,952.7
562.8036,19.8
562.8871,145.3
562.9299,366.2
563.0413,144.9
563.3311,8490.6
563.9207,23.5
564.2739,233.2
564.3075,2936.2
564.3416,279.3
564.5169,263.8
565.1179,21.5
565.2315,207.6
565.4932,88.2
565.5405,92.1
565.5923,18.3
565.7616,211.4
565.8383,96.5
565.8814,261.9
566.1205,158.2
566.3226,51661.1
566.4383,498.2
566.8261,121.3
566.8476,775.9
566.9617,847.5
567.3261,11966.7
567.599,122.5
567.7642,390.7
567.8431,277.1
567.8684,275.1
568.0259,272
568.1551,200.2
568.2459,1571.1
568.3386,16391.9
568.5302,403.5
568.5549,99.5
569.3417,2978.8
569.9024,934.9
570.0326,105.3
570.0633,166.6
570.4903,265.5
570.7686,356.1
570.8676,6496.5
571.0668,311.9
571.6682,660.9
571.7039,88.9
571.9055,20.2
572.1209,20.4
572.3356,906.7
572.3689,711.4
572.6624,598.7
572.865,5100.6
572.9792,650.7
573.0044,159.5
573.0824,207.5
573.1272,360.9
573.2075,118.2
573.2812,572.5
573.3747,615.3
573.443,498.3
573.461,22.8
573.8487,283.8
573.9274,308.5
574.1169,301.2
574.2839,1575.3
574.327,203
574.5849,304.5
574.648,366.2
574.8609,519.3
574.9896,146.5
575.361,450.5
575.5042,6278.2
576.0076,425.2
576.0379,191.4
576.2814,6802.5
576.2982,338.6
576.5084,40.1
576.7732,286.3
576.8846,9642.5
577.1948,157.2
577.4144,137.3
577.5199,46.8
577.8632,885.2
577.9074,19
578.0485,351.3
578.1258,937.4
578.278,1566.1
578.5035,169.9
578.5222,29.2
578.5504,337.2
578.8813,8484.3
578.9126,394
578.9805,195.6
579.1214,18.7
579.2209,955.5
579.809,99
579.9135,152.5
580.0174,545.4
580.2912,646.3
580.3566,286.5
580.7523,681
580.7661,169.3
580.8785,2437.2
580.8965,2625.5
581.0955,338.4
581.1277,344.7
581.9308,20.7
582.0907,167.8
582.2372,25.8
582.2631,23.6
582.2961,10900.2
582.3469,1177.5
582.3943,313.1
582.429,149.6
582.4446,198.7
582.488,177.1
582.4983,212.7
582.504,103.8
582.538,401.4
582.5545,545.8
582.5872,445.5
582.5932,418.8
582.6086,1440.4
582.649,876.1
582.6941,928
582.7108,232.2
582.8544,595.9
582.8936,806.9
583.0118,18.1
583.0736,225.1
583.2156,363.3
583.2556,2975.4
583.3003,1079.7
583.8524,777.3
583.8811,536.3
584.1807,530.4
584.2867,180.7
584.311,2281.3
584.4594,640.1
584.5353,233.8
584.7409,92.6
585.1057,196.8
585.2134,28.1
585.2715,4610.6
585.5344,526.8
585.7141,209.8
586.1075,559
586.2715,993.3
586.3109,4407.4
586.57,344.4
586.8418,2291.5
586.8625,412.4
586.9127,1152.7
586.9476,203.9
587.002,585.1
587.5906,261.4
587.9354,158.7
588.0501,201.1
588.0686,128.9
588.2539,25.6
588.4093,1074.6
588.8171,240.5
588.8387,1364.9
588.9114,458
589.6087,162.1
590.3227,10159.9
590.345,147
590.4265,131.2
590.4443,87
590.8676,232.6
590.9468,511.4
591.222,805.5
591.3259,1085.1
591.538,664.3
591.6606,88.2
591.7674,987.7
591.9248,235.5
592.2505,389.1
592.3897,634.4
592.5091,178.6
592.5412,580.2
592.5732,678
592.5825,221.5
592.5992,139
592.652,147.6
592.8583,4279.1
592.9047,178
593.2107,142.5
593.5954,220.2
593.6197,190.5
593.7175,183.7
593.9242,820.6
594.0635,29.2
594.101,159.3
594.248,330.3
594.3776,1214.5
594.8557,5346.3
594.9822,366.8
595.0614,324.8
595.2673,192.4
595.3276,1022.7
595.5615,166.6
595.6173,22.5
595.6864,131.8
595.8269,25.7
595.9779,135.7
596.1301,275.6
596.8521,1264.1
596.8703,1686.4
596.8838,1060.2
597.2407,204.4
597.2807,1090
597.362,900.4
597.4384,953.5
597.4526,1347.5
597.4621,1764.5
597.4683,1832.6
597.486,8572.8
597.9344,705.5
597.9966,625.9
598.2008,309.3
598.2917,134.2
598.3034,303.4
598.4627,653.9
598.8203,416.1
598.9025,99.2
599.0226,675.5
599.0886,176.1
599.1606,112
599.4642,1035.7
599.5035,6021.7
599.5902,88.2
600.0241,94.8
600.1109,342.3
600.2946,18.5
600.3537,106.7
600.464,108.5
600.4751,440
600.5092,1292.3
600.795,325.3
601.3021,114.8
601.3811,200.8
601.4025,20
601.4838,145.8
601.5186,1305.1
601.6077,21.3
601.6247,18.9
601.8534,215.5
601.867,323
601.9642,147.8
602.2963,868.1
602.3387,140.2
602.4885,598.6
602.5763,503.5
602.6044,146.2
603.215,1026.7
603.5366,1187.8
603.8147,31
603.8703,323.3
603.9555,181.7
604.0811,89.7
604.4982,232.2
604.5805,325.6
605.1846,259.2
605.2108,95.2
605.8342,229.7
606.1014,349.5
606.2975,1628.1
606.3497,108.4
606.7059,325.7
606.7648,80.2
607.1711,4328.9
607.2066,394.8
607.2451,18.2
607.6995,593.9
607.7656,24.9
608.0257,536
608.2258,569.3
608.414,78.9
608.833,1278.9
609.0686,108.6
609.1115,610.9
609.8806,108.2
610.265,102.9
610.424,319.4
610.6095,270
610.6442,145.6
610.7834,353.5
610.8304,1089.7
611.0449,386.8
611.4765,903.1
611.7162,23.9
612.1454,771.5
612.2592,177.8
612.7626,172.2
613.2563,153
613.3469,1784.9
613.4599,439.9
614.1811,147.8
614.2909,525.2
614.339,110.8
614.4185,231
615.2499,258.4
615.3094,94
615.4595,727.8
615.5437,381.5
616.299,854.5
616.3592,1806.9
616.4628,556.7
616.7521,371.5
617.1082,961.9
617.31,608.6
617.4125,117
617.4761,4450.9
617.8784,98.8
618.0622,389.3
618.1002,223.4
618.4789,1696.4
618.7419,120.1
618.86,171.1
618.8797,375.6
619.2539,308.6
619.4043,24.1
619.4451,222.5
619.4912,4344
619.5471,85.7
619.8993,88.9
620.0545,90.9
620.3071,753.5
620.3372,512.5
620.7751,434.1
620.8745,99.9
621.456,1825.1
621.4871,9927.4
621.6222,121.2
621.7721,460.3
621.9333,19.5
621.9765,916.4
622.023,209
622.1353,101.5
622.2352,1600.1
622.2559,106.6
622.3612,19
622.4077,842.5
622.4658,779
622.489,3378.6
622.6266,22.5
622.6812,197.2
622.7122,335
623.1367,17422.8
623.1776,840
623.2776,492.3
623.504,4290.2
623.8489,523.3
623.8914,159.7
623.9507,332.9
624.0998,707.6
624.1408,2618.8
624.4604,640
624.6326,721.1
624.6861,631.5
624.9282,114
625.259,18.8
625.3851,353.9
625.4862,108.3
625.5185,1289.4
625.6697,125.2
625.7048,212.4
626.1223,95.9
626.2635,187.6
626.3197,774.7
626.3644,380.6
626.4963,269.9
626.5416,153
626.7198,179.5
627.2909,510.9
627.5363,1510.6
627.8318,138.5
627.9178,204.8
628.1925,273.1
628.5404,28.7
628.7583,344.2
629.058,191.1
629.1535,36157.2
629.2399,123.8
629.507,335.7
629.5507,178.7
629.604,21.1
629.7643,147.5
629.8987,325.2
629.9907,495.8
630.1367,144.6
630.1574,5889.4
630.3069,260.9
630.3227,22.3
630.5231,405.5
630.8231,955.3
631.1607,189
631.6694,94.3
631.8462,19.9
631.8977,564.2
632.0573,303.6
632.165,127
632.2898,105.1
632.3546,1504.2
632.3834,222.5
632.6377,213.7
632.901,104
633.1647,180.1
633.2052,130.1
633.2967,157.6
633.3879,108.6
633.7917,542.5
634.301,346.3
634.4826,813
634.7118,290.5
634.8427,2249.5
635.0088,138.3
635.3663,195.4
635.4842,479.5
635.6096,104.1
635.7027,615.2
635.7183,456.5
635.8374,409.4
635.9205,106.1
636.3295,19.3
636.3666,1178.8
636.5013,28
636.522,358.4
636.8408,3874.4
636.9261,395.4
636.942,20.7
637.0761,124.8
637.1125,618.8
637.1998,257.8
637.924,328.1
638.102,884.3
638.4516,728.4
638.6985,140.5
638.8374,1236.1
638.932,100.1
639.1585,213.1
639.3467,24.3
639.6985,25.9
639.8391,128.4
639.8574,134
640.0443,277.1
640.6044,93.5
640.6311,584.9
640.6918,180.1
640.8735,233.5
642.1892,106.3
642.2356,117.8
642.2542,1041.8
642.3428,175.4
642.4554,204.2
642.5781,654.8
642.7691,182.8
643.3462,857.5
643.3826,134.5
643.4838,722
643.6874,172.6
644.4753,349.5
644.5541,140.2
644.8896,117.7
644.9139,137.7
645.056,139.6
645.1185,12223.4
645.2296,114.1
645.3263,440.5
645.3744,1579.5
645.4609,1015.7
645.4867,674.2
645.612,32.2
645.649,328.2
645.8272,26.5
646.1225,1410.9
646.3139,185.9
646.4566,219.9
646.9659,308.1
647.0942,336
647.3149,101.3
647.4535,1105.7
647.471,109
647.4859,530.2
647.5025,1077.1
647.5215,20.3
647.6888,22.9
647.8069,256.8
648.1463,97.1
648.2144,168.6
648.2628,148.3
648.3852,5755.5
648.604,146.1
648.8223,462
649.2094,21.4
649.3876,743.5
649.4871,1190.9
649.6974,578.6
649.9245,604.9
650.0944,159.1
650.1943,20.3
650.4402,3408.8
650.5664,165
650.5943,127.3
650.7581,178.4
650.7702,211
650.8178,1606.6
651.1357,36293.6
651.2826,411.7
651.3612,282.4
651.5246,507.9
652.1393,6837.5
652.8152,2964.9
652.8447,106.6
652.8847,112.8
652.9039,21.5
653.1156,114.5
653.143,178.2
653.2036,21.9
653.2294,102.6
653.6962,201
653.7137,864.5
653.8737,794.6
654.2773,531
654.3389,588.5
654.5101,147.1
654.5554,159.5
654.5931,134
654.8108,1170.9
654.9012,711.2
655.2898,169.8
655.401,219.9
656.0067,246.2
656.0872,105.4
656.226,186.8
656.6757,18.5
657.6179,197.1
657.7549,518.5
657.9707,395.8
657.9784,448.8
658.1075,156.3
658.4289,1190.2
658.7274,160
659.5354,110.9
659.5856,22.1
660.0824,4862.4
660.8452,986.6
660.8693,403
660.9488,638.9
661.041,325.5
661.0828,6265.2
661.2879,322.4
661.3201,81.4
661.4678,2181.1
661.4874,440.8
661.5913,339.8
661.7258,182.2
661.8428,493.1
662.2419,289.7
662.3226,328.4
662.3508,873.3
662.758,370.2
662.8158,159.7
663.0912,115.7
663.4547,2352.5
663.8635,114.4
663.9841,680
664.1791,518.2
664.2168,118.5
664.4687,4976.3
664.9607,18.7
665.0925,529.2
665.0986,568.4
665.1077,318.1
665.2336,105.4
665.3492,158.9
665.6021,294.2
665.8585,182.7
665.9107,305
666.032,121
666.2966,103
666.4438,898.7
666.4839,9678.4
666.7539,167.5
666.7894,380.3
666.9378,438
667.1003,18626.3
667.4194,1103.1
667.4889,1981
667.7518,295.5
667.8521,138.5
667.8752,20.4
667.9568,756.4
667.9841,600.2
668.1037,1748.4
668.3053,346.1
668.9791,259.2
669.1053,229.9
670.0994,170.2
670.1445,129.8
670.5388,18.6
671.0376,163.1
671.1056,529.8
671.1664,221.1
671.3424,632.3
671.5852,164.2
671.678,481.2
671.8757,595.7
671.9384,1208.6
672.0208,750.1
672.0542,193.1
672.2108,19.8
672.408,119.6
672.4217,3421.4
672.4442,617.8
673.0304,119.6
673.047,110.5
673.1176,43218.9
673.425,890.7
673.5885,17.7
674.0416,297.7
674.1213,7681.4
674.1618,674.1
674.2589,83.7
674.437,574.4
674.6491,446.2
674.9242,303.1
675.0924,193.7
675.2348,105.3
675.2786,226.3
675.5267,264.9
675.5452,12963.1
675.5755,300.7
676.008,157.4
676.0482,7326.6
676.4173,1004.1
676.4543,96.5
676.5487,1802.5
676.7582,559.8
676.9289,218.5
677.0515,476.9
677.5006,242
677.6066,855.8
677.7572,534.2
677.8234,343.3
677.9442,308.3
678.0703,471.4
678.3569,695.9
678.494,24.5
678.555,25.5
678.6676,24.4
678.9159,96.4
679.0589,132.1
679.0832,351.4
679.1098,125.3
679.175,764.7
679.5905,222.1
679.6244,306.6
680.0151,321.4
680.0704,215.2
680.176,280.5
680.5415,671.5
680.6435,143.3
680.7913,88
680.9197,107.4
680.9629,302.1
681.0228,22.4
681.2094,47
681.3123,377.8
681.8326,171.5
682.0299,147.1
682.065,17490.9
682.26,337.9
682.5549,711.2
683.0653,4797.8
683.1742,119.8
683.37,196.9
683.4525,1178.6
683.7619,745.7
683.8284,367.5
683.8678,341.9
684.2783,553.2
684.4419,123
684.5485,154.3
684.9573,111.9
685.0756,301.3
685.1454,25.6
685.3703,80.5
685.4367,9831.3
685.5643,482.5
685.7611,196
685.8412,106.8
686.2574,367.2
686.387,124
686.4412,2574.7
686.7584,360.4
686.7806,192
686.8772,153.4
686.9075,289.2
687.0614,256.8
687.1025,265.3
687.2376,89.8
687.3507,239.7
687.5543,329.8
688.4294,132
688.5214,1348.4
689.0817,12822.4
689.0908,11263.2
689.1514,641.1
689.3098,161.5
689.4331,559.9
689.4916,372.8
689.5597,1431
689.9363,24.1
690.051,194.4
690.0733,177.2
690.381,18.3
690.4322,1284.8
690.4544,126.3
690.872,773.3
690.9153,491.7
691.06,352.7
691.2424,317.2
691.4944,424.6
691.7299,154.5
691.8459,253.4
691.946,170.3
692.1629,885.4
692.3552,179.1
692.7305,148.6
692.8071,185.1
693.0856,89.9
693.2301,887
694.0783,156
694.1482,316.8
694.2964,108.8
694.9381,176
695.0631,189.1
695.0996,27874.4
695.1783,148.4
695.2508,862.6
695.3822,657.3
695.3912,657.1
695.5107,681
695.7041,162.1
696.1032,3909.1
696.3343,196.3
696.5913,591.1
696.7944,439
697.4051,103.7
697.5268,22778.6
697.7588,383.7
697.9795,350.3
698.0294,4061.8
698.0823,137.6
698.1249,548.3
698.1524,304
698.5303,7568
698.7111,144.6
698.7579,507.4
699.0318,263.7
699.2336,16.7
699.2627,711.3
699.3499,19.6
699.472,84.7
699.7924,146.9
700.4749,112.6
701.4113,673.1
701.5606,35821.8
701.629,93.3
701.7314,198.9
702.1726,89.7
702.3426,756.7
702.5638,12029.7
702.6144,212.2
703.2747,20.6
703.5762,83533.7
704.0469,10676.3
704.4491,3736.4
704.5252,175.1
704.5799,34301.3
704.8641,109.2
705.0485,1297.7
705.4532,2423.3
705.4799,111
705.5079,96.5
705.5827,4161.1
705.8411,301.1
706.0354,486.8
706.4335,567.2
706.4908,22.9
706.5406,946.3
707.2559,260.7
707.2867,103.3
707.3632,303
707.3823,583.8
707.6749,75.4
708.3839,949.4
708.7601,569.2
708.8173,528.2
710.163,102.3
710.2058,199.8
710.2594,18.6
710.3736,282.7
710.7736,484.9
710.9221,129.2
711.0636,8838.7
711.0744,10010.9
711.3554,773.3
711.5428,6575.9
711.6867,17.4
711.8531,97
711.8772,101.5
711.9905,782
712.0796,839.7
712.3626,19.7
712.5451,652.4
712.6051,622.3
712.6466,173.5
712.9956,179.3
713.0697,267.5
713.1345,142.5
713.4996,690.7
713.5713,490.4
713.7022,21.6
713.7482,111.4
714.0038,343.3
714.1674,197.9
714.3725,115.5
714.676,186.9
714.9436,97.8
714.9633,355.1
715.0513,313
715.2263,444.3
715.6726,882.8
716.3026,753.5
716.6621,27.4
716.8214,166
716.8491,260.9
717.0819,12923.2
717.4201,710.1
717.5936,454.4
717.6374,375.1
717.6724,580.7
717.8672,568.5
717.9959,440.8
718.0847,1615.9
718.2131,113.3
718.2539,294.7
718.5755,456.9
718.687,21
718.7459,83.8
718.7721,145.3
718.8101,180.2
719.1815,188.1
719.4656,568.1
719.6665,110.1
720.011,2047
720.0222,2462.4
720.3484,310.7
720.633,96.5
720.9982,682.1
721.1987,723.7
721.4135,90
721.4795,44725.8
721.5147,631.6
721.9087,22.3
722.0352,212.4
722.4086,195.2
722.4826,16459.2
722.5873,24.6
722.9871,123.1
723.4953,12548.7
723.5423,49290.2
723.8144,114.3
723.9686,35.3
724.0872,358
724.2928,186
724.4977,1802.3
724.5454,20913.6
724.6806,227.7
725.0507,85
725.2172,592.3
725.2492,592.9
725.2742,329.7
725.5583,112700.5
725.6972,254.8
725.8052,331.4
725.8155,262.3
726.0289,5495.4
726.5616,41908.9
726.8322,140.5
726.9676,505.5
727.006,117.2
727.0299,2062.9
727.0417,1421.7
727.1365,85.5
727.2627,245.1
727.5644,6105.1
727.8613,19
727.9083,341.6
727.9523,338.1
728.3191,23.4
728.4365,152.7
728.4616,100.6
728.7144,19.8
729.0305,157.6
729.277,744.5
729.4889,682.8
729.5919,13749.3
729.9383,515
729.9762,751.4
730.5398,4634.3
730.5952,1435.9
731.098,979.4
731.3975,729.7
731.4603,628.8
731.6082,3813
731.7955,19.2
731.9156,225
732.4517,136.9
732.5552,35402
732.6131,799.5
733.0449,5223.1
733.0557,4455.5
733.1653,325.9
733.5586,12838.8
733.6907,193.4
734.0473,280.2
734.1392,385.3
734.5719,8884.3
734.8299,254.2
734.8814,288.5
734.9787,409.5
735.1114,305.2
735.314,126.8
735.4873,110.5
735.575,3012.2
735.6696,219.2
735.7951,1027.3
736.1323,380.9
736.2456,851.8
736.2693,495.4
736.367,257.7
736.5772,309
737.0232,172.7
737.1183,433.3
737.2402,378
737.4301,355.6
737.4531,8888.3
737.7991,173.7
737.9356,232.8
737.9841,603.8
738.1452,191.5
738.3398,468.8
738.4404,20.7
738.4628,653.6
738.8809,214.9
738.9078,25.7
738.9369,678.4
738.9846,40.7
739.0329,185.2
739.0636,7371.6
739.2591,334.4
739.3978,107.3
739.4688,853.9
739.5163,1500.7
739.9962,116.1
740.0675,280.5
740.1563,199.5
740.5201,829.9
740.5705,106.2
740.6116,295.6
740.666,91.6
740.9091,196.5
741.0791,20.1
741.5327,10044.6
742.004,1250.1
742.1129,18.7
742.1507,593.9
742.5355,4058.8
742.5756,5960.3
742.8289,1016
743.0043,292.4
743.3767,1210.9
743.4633,1463.3
743.5555,115.1
743.5804,1357.3
743.6691,101.1
743.7486,316.7
743.9073,309.7
743.9295,109.9
744.4629,1129.9
744.5555,1701.4
744.5919,4341.4
745.0924,645.3
745.2412,27
745.4793,42105.6
745.5932,1229.9
745.9882,280
746.0607,120.4
746.1251,19.6
746.4516,23.9
746.4831,17781.7
746.5709,3994.5
746.6084,2287.2
746.6288,303.3
746.926,460
747.3077,345.5
747.4952,8603.5
747.5739,600.8
747.6121,379.3
748.0116,1949.9
748.4987,2780.7
748.8433,107
749.0103,1692.4
749.2348,286.1
749.3756,461.8
749.5107,3386.3
749.5442,115.1
749.6826,364.3
749.926,121.8
749.9899,643.8
750.0311,338.5
750.4376,206.9
750.4787,264.6
750.5521,1003.4
751.1656,77
751.417,196.1
751.5737,11103.3
751.6448,459.7
751.6861,1096.5
752.2088,435.8
752.5208,6392.3
752.546,150
752.5775,3189.1
752.7587,378.2
753.5256,1269.3
753.5902,3558.3
753.6169,193.8
753.6592,124.3
754.2565,108
754.3483,161.5
754.4657,27.5
754.5376,42054.8
754.5908,1493.2
754.8621,394.1
755.0297,4405.3
755.1638,105.8
755.2325,87.9
755.5113,156.9
755.5406,15474.8
755.5819,222
755.6988,905.6
755.7481,340.5
756.0361,95.5
756.3301,457.9
756.3828,828.1
756.4447,470.4
756.5552,35454.5
756.5868,142.2
757.4204,689.2
757.5161,116.9
757.5583,14463.5
757.6231,1444.7
758.11,102.2
758.5711,684993.1
759.5745,318558.2
759.6387,420.1
759.9646,114.1
760.1084,98.4
760.2869,179.9
760.4105,193
760.4406,724.6
760.5874,388498
761.0452,3131.1
761.34,87.7
761.4533,8870.6
761.5904,184167.4
761.7949,148.2
761.962,465.7
762.5931,40015.2
763.5959,3883.2
763.9804,684.6
764.2002,393.9
764.4113,86.9
764.4725,907
764.5346,583.6
764.5585,4405.2
764.7069,213.4
764.9877,296.7
765.4999,20.9
765.5632,1037.9
765.7262,774.6
766.014,505.6
766.1549,554.3
766.4172,20.5
766.4403,616.4
766.5369,2916.6
766.576,28082
767.5412,125.2
767.579,10543.4
767.8748,529.7
768.1272,126.5
768.2042,80.1
768.5538,7690.5
768.592,31727.9
768.7064,24.6
769.158,79.8
769.2761,690.5
769.4156,80.4
769.479,13022.6
769.559,1596.6
769.5954,11080.9
769.7067,114.3
769.8067,173
769.9516,18.9
770.1221,110.5
770.4822,1427.3
770.5118,4528.1
770.6054,459.2
770.6301,149.1
770.8768,486.2
770.9929,4031.4
771.192,196.6
771.4956,4084.1
771.6097,1137.4
771.9637,378.8
772.0946,692.8
772.5036,1015.6
772.5226,577.5
772.5297,609.8
772.5867,12151.9
772.6249,436.6
772.7272,352.2
772.7564,553.7
772.8897,128.5
772.9324,114
773.1123,296.8
773.1658,101.6
773.5113,3727.9
773.5334,385.5
773.5906,2070.6
773.7064,378.5
773.9385,223.3
774.0762,119.5
774.1503,557
774.5148,161.8
774.5703,905.3
774.6032,4139.5
775.0332,358.6
775.2806,573.4
775.4188,85.2
775.5105,588.8
775.6012,137
775.7277,777.2
775.8767,121.8
775.9439,197.1
776.0118,131.4
776.5222,3480.2
776.5685,526.8
776.6026,581.2
776.6185,847.7
776.8882,575.5
777.0098,3311
777.4503,257.7
777.4979,354.3
777.5259,773.5
777.7732,145.8
778.0472,870.3
778.2937,132.3
778.5371,28546.5
779.0201,209.3
779.1511,322.1
779.2289,280.5
779.5411,14243.2
779.5869,258.1
780.0197,304.7
780.1677,136.6
780.2231,289.8
780.3687,90.4
780.4614,266.9
780.5532,604591.3
780.8175,431.2
781.1658,515.6
781.4281,494.3
781.5567,269090.2
781.6217,115.8
781.7654,401.2
782.1957,18.1
782.2418,299.3
782.5706,899196.1
782.8535,21.2
783.0268,3556.4
783.1236,283.7
783.3113,186.7
783.3439,108.1
783.3752,876.4
783.436,243.3
783.574,412337.2
783.746,622.7
784.5879,265010.3
784.9374,97.3
785.4717,321.9
785.5906,137260
785.6551,3789.6
786.1443,109.8
786.2719,590.8
786.6031,221706.3
786.6576,850.4
786.7659,385.1
786.9685,583.8
787.4395,502.2
787.6061,110970.7
787.6726,112.7
787.8341,666.4
788.1095,311.5
788.4956,19.8
788.5582,13202.6
788.6053,13890.4
788.6214,17974.9
788.6752,90.2
788.817,337.3
789.5607,3977.9
789.6226,8871
789.8854,314.8
790.0464,2119.3
790.2034,363.5
790.4366,562.8
790.5744,23392.8
790.6246,865.9
791.0559,1581.9
791.2834,375.5
791.4755,115.9
791.5763,6975.1
791.7153,317.1
791.8872,100.5
791.9259,117
792.0774,189.1
792.568,36.7
792.5916,12699.1
792.9873,116.8
793.5664,746.7
793.5948,5525.5
793.805,449.6
793.9242,422.3
794.5125,1526.1
794.5383,656.1
794.5688,10165.1
794.6078,39756.1
794.6731,102.9
795.5705,1186.7
795.6111,17830.6
796.3113,90.9
796.477,551.3
796.5269,91130.4
796.5864,11325.3
796.6248,5416.8
796.9236,102
796.9614,20.4
797.0636,292.2
797.2542,555.5
797.5306,38392.3
797.5904,3560.3
797.6281,685.4
798.293,322.7
798.5435,41450.6
798.6038,404
798.6297,179.1
798.8169,388.2
798.8896,558.4
799.0013,683.8
799.0734,373.3
799.5462,19511
799.6077,365.7
799.6684,393
800.163,218.7
800.5315,595
800.6181,110.8
800.7846,395.1
801.4704,338.6
801.4935,601.1
801.5434,1223
801.6461,17.6
801.711,154.1
802.0416,464
802.5373,61854.8
802.6826,388.8
803.0552,578
803.2788,113
803.5409,24976.3
804.1601,554.5
804.4572,158.3
804.5531,505357.3
805.0647,76
805.2932,535.9
805.4277,81.4
805.4566,558.3
805.5565,240943.3
806.1669,343.3
806.5706,393609
807.0617,105.5
807.5167,21.4
807.5736,199565
807.6402,316.2
808.5864,258037.8
808.6397,132
808.9174,327.5
808.9606,273.8
809.5892,134971.1
809.8647,475.3
810.1969,166.4
810.5352,316.8
810.603,193259.8
811.0744,261.9
811.606,96133.5
811.6706,13343.1
811.9058,27.7
811.9491,19.9
811.9759,127
812.083,24.7
812.6041,8392.8
812.6208,23942.9
812.6732,3456
813.5605,103.1
813.5808,19.4
813.6223,12953
813.6873,6527.9
813.7703,103.8
814.0405,868.1
814.5727,1301
814.6224,987.2
814.6887,2317.5
814.8046,148.9
815.5175,19.1
815.5758,1975.7
815.6787,225.6
815.9411,380.2
816.0594,629.8
816.5896,21638.9
816.8491,349.8
816.9372,164.1
817.0678,691.2
817.1097,175.2
817.2556,315.7
817.3569,791.6
817.5925,8226.4
817.6925,368.9
818.0293,295.8
818.5113,7609
818.5377,512.4
818.5696,4212.2
818.6078,3875.9
818.7335,21.2
818.8248,159
819.0017,316.3
819.12,1114.1
819.6115,1385.1
820.096,186.2
820.1723,233.3
820.2618,86.6
820.5272,82727.6
820.5876,2360.8
820.6232,1724.5
821.0037,527.2
821.4779,310.3
821.5307,41149.7
821.5579,337.7
821.5893,405.6
821.6914,189
821.9852,157.4
822.544,26918.8
822.601,379.4
822.6419,545.7
822.899,132.5
822.9881,122.1
823.4449,776
823.5461,13499
823.6099,759.5
824.1036,395.5
824.1877,277.9
824.4254,276.7
824.5591,18147.8
824.585,874.3
825.0817,19.7
825.2789,173.5
825.3563,246.9
825.4224,90
825.5619,6329.4
825.7923,318.9
826.3036,619.5
826.5375,2843.4
826.8616,625
827.1429,120.3
827.2579,460.1
827.3323,82.1
828.2815,410
828.477,130.2
828.5531,150818.9
828.5995,253.9
829.5565,80184.4
830.3311,142.4
830.5698,95836.9
831.5727,47998.7
831.6808,598
832.4689,324.8
832.5343,254.9
832.5852,121116
832.6607,182.2
832.7431,308.5
832.9341,621.6
833.0701,603.5
833.5139,363.4
833.5375,391.8
833.5885,59290.4
833.6504,1856.8
834.0884,855.7
834.2537,26.3
834.4203,677.8
834.6029,44370.3
834.6557,683.6
835.0588,716.2
835.1165,26.2
835.474,111.4
835.6057,25028.4
835.6672,657.9
835.7451,567.7
835.7844,422.1
835.8112,20.1
835.8304,20.9
835.9381,635.3
836.1935,157.4
836.3924,342.6
836.5211,271.7
836.6203,6480
836.672,116
836.9097,118.8
837.6211,2272.3
838.117,307.8
838.53,122.5
838.6376,431.5
838.6818,424.2
838.8799,107
839.0098,243.8
839.4296,115.8
839.5288,979.6
839.6592,177.9
839.7339,194.2
840.1661,118.8
840.7483,1094.8
840.7782,132.3
840.8558,136.9
840.9151,543.2
841.8461,203.2
842.5704,106.9
842.8157,309.6
843.0985,116.2
843.3538,314.6
843.4454,1201.8
843.5442,94.6
843.5581,152.4
843.5643,150
844.0095,296.8
844.3113,760
844.527,26275
845.5305,8609.7
845.8167,599.5
846.1275,311.9
846.1743,152.5
846.5432,13118.1
847.0585,102.1
847.3421,18.3
847.3653,23.1
847.44,23.4
847.5472,3504.2
848.5587,12898.6
848.9757,252.9
848.9995,95.8
849.3392,228.4
849.5638,3154.4
849.6495,538
850.2505,19.7
850.3695,162.5
850.4063,339.3
850.5013,549
850.5723,1013.5
851.7427,575.1
852.0505,298.1
852.0945,1053.3
852.1257,114.4
852.3464,187.2
852.9272,505.9
852.9682,984
853.0536,250.3
853.099,350.9
853.2204,813.4
853.6752,864
854.0503,603
854.5695,5220.8
854.6129,313.9
854.6398,134.3
854.872,112.7
854.9116,206.9
855.1357,334.6
855.1942,20.8
855.2843,113.3
855.3191,270.5
855.572,3514.6
856.1493,18.7
856.4936,855.5
856.5846,18129.5
856.711,315.2
856.8681,17.8
856.9844,818.4
857.1615,315.3
857.4328,666.1
857.5879,5348.5
858.0146,19
858.1678,29.3
858.3759,107.6
858.4228,161.8
858.4765,133.6
858.601,153.3
858.6832,589.8
859.3233,21.5
859.3509,162.2
859.6078,770.3
860.6187,319.3
860.7852,176.5
860.981,123.7
861.0353,523.2
861.0855,110.2
861.6423,164.2
862.2881,108.2
862.4694,146.6
862.5385,351.9
862.647,135.3
862.7181,18.8
863.2095,541.3
863.4695,90.6
863.5779,112.2
863.8194,500.1
863.8445,927
864.2663,133.8
864.5098,909.4
864.6307,95.2
864.9511,90.7
865.5224,19.1
865.7705,548.4
866.2875,475.2
866.4187,138.7
866.8621,18.4
867.0073,468.3
868.238,118.9
868.3606,131.5
869.0649,159.8
869.6242,529.4
869.7948,258.7
869.8255,115.6
869.8656,398.3
870.0121,1097.4
870.0662,511.7
870.1167,1400.2
870.1452,1220.5
870.1679,1100.8
870.2208,22.2
870.2861,4988
870.3318,5016.9
870.4067,2323.6
870.4556,715
870.498,1463.1
870.5526,911.2
870.6019,329.2
870.6179,25
870.6436,169.2
870.7709,482.6
871.1429,168.2
871.5338,957.2
871.7994,19.6
871.823,313.5
872.2072,204.7
872.5443,901.4
872.5557,945.7
873.118,551.3
873.5459,790.4
874.0412,329.6
874.4573,93.6
875.1469,147.8
875.3414,241.5
876.029,574.5
876.1231,143.9
876.6246,25
876.7088,336.9
877.8085,859.4
878.0166,121.7
878.1055,180.5
878.4356,82.3
878.5069,339.1
879.0289,813.3
879.6651,19.1
879.9096,28.1
880.3451,665.7
880.8187,210.9
881.3942,765.7
881.677,559.5
882.0228,129.5
882.3924,436.5
882.4722,110.3
882.4956,285
882.5674,440.3
882.6108,541.4
882.8847,287.1
883.1635,515
883.2428,166
883.4128,106.2
883.6368,84.6
884.078,352.3
884.7635,479.6
886.0378,259.9
886.0716,18.5
886.5405,512.7
887.7718,94.2
887.8232,26.3
887.8977,359.6
887.9071,334
887.9251,323.7
888.1292,192.1
888.3318,318.5
888.5529,89.6
888.6971,254.1
889.3231,831.6
889.5409,19.9
889.823,207.5
889.9425,120.9
890.2459,343.4
890.5916,245
891.2008,26
891.239,216.4
891.2676,235.6
891.8124,259.1
892.6278,287.6
893.0336,783.4
893.0626,413.6
893.2472,103.4
893.3607,204.2
893.6865,275.8
894.052,299.1
894.3431,286.3
894.3918,1194
894.68,191.3
894.9393,697.5
894.9766,209.9
895.1859,374.3
895.4496,22.7
895.4855,203.7
895.9852,19.1
896.7775,172.5
897.2495,203.6
897.9511,306.7
897.959,303.6
898.3041,1546.3
898.5011,489.9
899.2301,308.6
899.3857,145.9
899.677,242.2
899.6823,241.8
899.9846,441.7
900.218,342.5
900.7767,572.8
900.9278,578.5
901.1016,223.1
901.9008,20.6
902.2049,907
902.2591,829.5
902.3531,28.3
902.6755,988
903.4856,79.3
903.6149,244.2
903.9992,346.3
906.1795,602
907.1239,20
907.3906,980.9
907.5411,127.3
907.6247,83.1
908.1343,630.5
908.2957,78.3
909.1709,782.8
909.4194,118.1
909.4632,126.4
909.4892,105.5
909.5209,372.7
909.9297,736.9
910.353,273.5
910.7033,544.8
911.0783,412.9
911.1482,20.5
911.7356,105.3
911.9618,310.3
912.4036,263.5
912.7489,23.7
913.73,101.2
913.7785,351.3
917.0832,161.5
917.3083,519.1
917.6488,1158.2
917.7724,398.9
918.078,109.5
918.0929,104.4
918.5435,201.4
918.8636,251.7
918.9731,796.5
919.0581,96.5
919.1384,379.3
919.2314,138.1
919.3169,185.8
919.4127,101
920.0552,430.1
920.4168,415.5
920.724,139.4
920.9374,134.9
920.9663,93.2
920.9941,730.4
921.6638,114.8
921.7824,360.7
921.98,249.9
922.4712,348.7
923.9967,801.7
924.1076,473.8
924.9836,29.3
925.2518,589.5
925.3063,20.1
925.4892,96.9
926.5716,78.2
926.9005,210.6
927.0795,650.7
927.2122,595
927.2839,174.3
927.3163,178
927.8695,591.3
927.8952,487
928.5959,96.9
928.8159,133.9
929.0714,168.5
929.2917,136.9
929.6483,170
929.9179,161.3
930.1036,236.6
930.2632,1080.8
930.5462,256.8
930.9953,478.4
932.3641,146
933.1401,120.1
933.9298,314.6
934.1205,348.3
934.6592,393.2
934.7465,173.6
934.8568,215
935.0099,300
935.0967,138.4
935.7157,464.4
935.8519,468.7
936.6205,222.1
936.8749,592
937.9545,476.7
938.0081,19.4
938.6796,629.7
938.8658,502.3
938.9579,21.6
939.3763,751.9
939.7442,31.3
940.7379,1093
940.8078,372.1
941.0041,244.1
941.0999,132.3
941.1792,346.8
941.3526,93.2
942.2052,115
942.4639,546.7
942.7506,23.9
943.1923,310.6
943.6033,489.3
944.2261,262.6
944.4537,614.2
944.6083,662.3
944.7757,32.3
945.1476,127.9
945.3165,272.6
945.4729,266.7
945.6761,288.1
945.756,336.7
945.7958,339.1
946.9949,246.9
947.3559,420.6
947.4422,183
947.8666,147.2
947.8998,92.3
947.9415,453.9
948.0835,1200.8
948.3557,373.7
948.9944,548.1
949.0439,141
949.1448,324.3
949.7974,244.3
950.144,988.2
950.1817,237.8
950.2176,335.9
950.2782,207.8
950.3502,256.3
950.4645,123
951.096,284.1
951.17,573
952.3949,709
952.5942,26.6
953.0205,227.7
953.2886,148.5
953.762,168.1
954.8301,307.2
955.0048,167.2
955.1078,363.8
955.2316,20
955.856,540.6
956.145,19.9
957.147,524.2
957.1843,1240.1
957.5959,90.5
957.6093,88.1
957.7186,259.8
957.8761,26
958.1824,22.7
958.4387,130.5
958.6754,23.4
959.082,100.1
959.986,121.2
961.2927,340.1
961.4794,576.2
963.009,162.8
963.2306,224.6
963.5866,136.8
964.6137,987.8
964.8584,1073.6
965.116,254.6
965.1372,825.7
965.1704,536.3
965.4127,17.9
965.4528,20.2
965.5378,206.2
965.7492,20.6
965.9441,171.7
966.2799,336.7
966.4496,271.5
966.6921,428.9
966.7677,991.6
966.8047,246.3
966.9323,224.1
967.5621,133.9
967.803,1215.7
967.9141,158.3
968.4971,24.8
968.8308,343.2
969.1565,249.1
969.3848,613.6
969.6113,20.6
969.8238,22.1
970.4293,591
971.0109,179.6
971.0656,136.2
971.172,124.7
971.2749,577.4
972.1128,89.7
972.4248,22.5
972.6528,18.8
972.8762,107.4
972.9846,404.1
973.0358,197.7
973.0659,947.5
973.2094,176.7
973.3389,383.3
973.4269,20.6
973.7777,328.3
973.7914,323.9
973.906,220.5
974.1444,456.6
974.6273,182.3
974.712,23.1
974.8346,2526.5
975.0328,111.5
975.1598,162.8
975.3841,597.6
975.4283,248.2
975.4743,99.2
975.6847,172.5
976.0111,714
976.8234,483.9
977.2498,93.7
977.6892,101.6
978.1398,185.5
978.2894,329.8
978.5715,91.7
978.6771,932.6
979.253,125.1
979.2827,199.6
979.4851,24.7
979.6259,283.4
979.8104,205.7
980.4128,366.2
980.6469,21.9
980.7279,96.7
980.7787,129.7
981.1329,111
981.2185,135.1
981.9994,210
982.3168,853.3
982.5958,167.9
982.9922,235.2
983.3545,554
983.3746,548.7
983.4696,516.4
983.8429,20.9
984.6122,18.6
984.7223,214.2
984.9202,217.9
985.041,247.2
985.3597,294.1
985.5839,457.5
985.6598,100.1
985.6695,146.8
985.6799,99.4
985.7274,851.2
985.8293,582.5
986.1708,508
986.4043,127.5
986.4258,350.8
986.4339,306.2
986.5187,155.3
987.4116,160.2
988.0454,442.8
988.1955,21.1
988.2964,686.1
988.4549,111
988.9267,524.3
988.9698,120.2
989.0836,672
989.6828,427.1
989.9786,299.5
990.0422,492.9
991.3287,582.1
991.3966,18.9
991.4711,219.9
991.9689,685.8
993.0674,336.9
993.1598,208.9
993.9105,187.6
994.7002,108.6
994.9739,259.8
995.1045,425
995.4661,1013.5
995.5648,781.5
995.5777,731.9
996.1324,132.4
996.4456,786.3
996.5048,387.1
996.829,19.2
997.2057,22
997.3906,132.6
997.5917,912.3
997.9822,309.2
998.2634,263.2
998.3188,384.6
998.7155,153.9
999.4209,540.9
999.6486,19
