SPECTRUM - MS,
1020.RAW,
FTMS + p ESI Full ms [50.00-1000.00],
Scan #: 1-40,
RT: 0.01-1.97,
AV: 40,
m/z,Intensity

50.0063,277.6
50.0142,19.9
50.0188,568.4
50.0262,262.8
50.0284,103.2
50.053,152.2
50.056,109.6
50.0664,555.6
50.0934,123.8
50.1203,372.8
50.1364,203.2
50.1396,85.9
50.1437,277.8
50.1481,19.4
50.1576,115.3
50.1626,663.7
50.1673,71.5
50.1816,81.6
50.196,17.3
50.1996,248.6
50.2202,102.1
50.2352,798.6
50.2406,360.8
50.2427,270.3
50.2861,90.5
50.3097,18.1
50.3132,124.8
50.3522,110.7
50.3577,15.4
50.3753,284.7
50.3825,156.7
50.384,16.3
50.393,17.6
50.4104,367.9
50.4109,487.6
50.4512,17.6
50.4566,94.9
50.467,315.4
50.4966,117.9
50.5051,86.8
50.5298,624.3
50.5341,280.2
50.5362,15.7
50.5514,87.9
50.5605,129.4
50.5647,361
50.582,16.2
50.6042,186.7
50.6114,259.2
50.6153,818.4
50.6183,129.1
50.6212,206.9
50.6334,205.8
50.6394,16.1
50.6684,684
50.6796,106.1
50.6807,77.8
50.6831,597.4
50.6841,82.4
50.6936,81.4
50.7301,529.5
50.7341,18.3
50.7509,370.4
50.7523,696.5
50.7565,265.8
50.7687,286.7
50.7701,475.7
50.819,251.5
50.8221,151.6
50.8547,714.4
50.859,683.8
50.8596,550.8
50.8696,482.1
50.8946,73.7
50.8984,589.3
50.8996,20
50.9095,16
50.926,270.1
50.94,339.2
50.9458,121.1
50.9658,89.1
50.9796,446.2
50.9942,114.8
51.0157,212.2
51.0185,17.3
51.019,141.5
51.0446,267.5
51.0569,20.4
51.0677,171.9
51.07,106.8
51.0715,198.1
51.1213,585.4
51.1228,267.9
51.1306,221.4
51.1334,117.2
51.1476,16.8
51.1504,262
51.1735,28.4
51.1835,105.9
51.1887,16.9
51.1899,247.7
51.2026,129.4
51.2066,158.3
51.2102,339
51.2408,97.6
51.2542,16.8
51.2608,77.2
51.2622,338.6
51.2691,77.3
51.3024,261.7
51.3116,310.7
51.3173,372.1
51.3222,299.8
51.3356,116.4
51.3374,126.8
51.3396,89.6
51.3415,165.2
51.3507,421.7
51.3583,737.3
51.3758,183.1
51.4094,686.3
51.4111,216
51.4248,28.5
51.4497,146
51.4533,91.4
51.4593,284.5
51.4713,230.4
51.4847,275
51.5027,211.3
51.525,102.4
51.5326,82.6
51.5872,249.4
51.6108,73.3
51.6309,123.1
51.6644,279.5
51.6906,717.7
51.7146,265.3
51.7253,326.5
51.746,116.9
51.7462,135.4
51.7521,19.1
51.7564,114.8
51.76,125
51.7616,294.7
51.7878,19.5
51.7932,270.5
51.7937,109.5
51.7993,339.6
51.8041,84.9
51.8111,356.5
51.812,85.9
51.8173,593.5
51.8303,432.2
51.8323,106.7
51.8348,64.8
51.8375,147.6
51.8438,590.5
51.8625,202.6
51.9116,28.4
51.9444,139
51.9674,338.1
51.9731,15.9
51.9764,376.8
51.989,188.9
52.0262,345.8
52.0324,463.8
52.039,214
52.0606,423.5
52.0681,625.3
52.1061,235.4
52.113,139.1
52.1284,85.2
52.1294,159.4
52.1445,285.4
52.1509,32
52.1527,85.9
52.1586,69.3
52.1636,449.2
52.1716,137.6
52.186,16.8
52.1905,19.3
52.2453,72.8
52.2507,91.2
52.2626,71.3
52.2628,67.3
52.2782,17.9
52.3008,373.6
52.3054,219.7
52.3093,328.3
52.3095,300.9
52.3101,86.2
52.3293,422.4
52.3298,677.3
52.3482,134.8
52.3553,28.7
52.3573,478.4
52.3681,318.2
52.3691,128.7
52.3694,129.8
52.3777,244.6
52.3783,396.4
52.3937,16.8
52.4087,311.8
52.424,120.3
52.4245,70.3
52.4276,488.2
52.4376,141.2
52.4651,679.8
52.4821,326.1
52.4889,207.7
52.512,282.4
52.5415,289.1
52.5767,362.9
52.5833,102.9
52.5935,18.5
52.5962,314.6
52.6076,106.4
52.6115,283.6
52.6248,15.7
52.6556,95.1
52.6614,144.5
52.671,118.1
52.6734,116.8
52.6752,439.2
52.7553,766.7
52.7585,117.3
52.7639,99.4
52.77,154.7
52.7713,318.9
52.7718,577.8
52.7724,2406.3
52.7734,1578.5
52.7742,1776.3
52.7747,4071.6
52.7757,1085.5
52.7761,1305.3
52.777,146.1
52.8122,114.2
52.8169,81
52.8301,454.5
52.8349,156.2
52.8494,281.5
52.8515,475.3
52.8527,587.5
52.8744,15.8
52.877,489.7
52.88,161.5
52.8814,99
52.9107,503.9
52.9159,126.2
52.9234,88.1
52.9311,728.9
52.9345,152.4
52.948,262
52.9549,425.8
52.9563,82.5
52.9732,17.5
52.9765,76.4
52.9794,94.4
52.981,90.4
52.9871,137.2
52.998,78.4
53.0019,216
53.0092,311.5
53.0389,181.4
53.0398,226.8
53.0409,332.5
53.0427,499.3
53.0512,82.8
53.0677,600
53.0735,182.2
53.0898,91.7
53.0956,402.6
53.1083,454.4
53.126,453.7
53.1282,406.3
53.1395,247.3
53.14,187.5
53.17,449
53.1884,322.6
53.1928,82.2
53.2092,171.9
53.213,328.5
53.2146,116.4
53.2194,303.8
53.258,139.2
53.2595,363.4
53.2695,311.6
53.2754,508
53.2778,470.7
53.2822,97.9
53.2874,16.6
53.3047,100.9
53.3056,199.3
53.3067,131.7
53.3121,148.9
53.3256,19.5
53.3287,646.4
53.336,720.1
53.3407,1002.8
53.3509,222.4
53.3601,119
53.3664,408.8
53.3809,76.2
53.39,29.9
53.3997,123.9
53.4421,125.5
53.4434,93.9
53.4623,444.8
53.4863,136.9
53.5038,445.1
53.5043,101.9
53.5067,15.9
53.523,526.9
53.5386,158.4
53.552,136.8
53.5816,85.9
53.5848,538.6
53.5981,96
53.6075,355.2
53.6101,452.8
53.6283,89
53.632,599.4
53.6325,151.6
53.6354,269.2
53.6387,250.6
53.6559,18
53.6617,610.9
53.6948,76.4
53.7014,346.6
53.7087,286.7
53.7132,332.2
53.7177,101.3
53.7265,174.6
53.7346,96.2
53.7471,281.7
53.7528,321.9
53.7552,122.9
53.7611,107
53.7682,148.7
53.7803,363.6
53.7955,105
53.842,158
53.8447,26.1
53.8495,686
53.8543,589.3
53.8648,343.4
53.8668,461.2
53.8832,122.4
53.9141,210.7
53.9146,24.9
53.9152,432.5
53.9403,15.3
53.9424,81.6
53.955,149.4
53.9603,239.4
53.965,797.1
53.9842,132.9
53.9962,489.1
54.0011,200.8
54.0043,188.9
54.0069,186.3
54.0108,23.4
54.018,98.9
54.0631,116.5
54.0715,92.6
54.0731,361.5
54.0755,350.7
54.078,317.7
54.0821,297.2
54.0836,332.2
54.095,151.6
54.0973,111.4
54.0991,78.4
54.0998,799.2
54.1028,170.6
54.1053,16.8
54.1128,16
54.1154,318.5
54.1264,596.6
54.1282,441.3
54.1421,66.6
54.1549,583.8
54.1568,287.2
54.162,22.1
54.1759,387.9
54.1825,386.9
54.1929,73.5
54.194,101.2
54.1987,75.8
54.1992,710.4
54.2106,95.8
54.2211,380.1
54.2323,91.8
54.2403,98.3
54.2658,99
54.2814,144.3
54.2997,101.8
54.3034,373.9
54.3274,190.7
54.3396,130.1
54.3412,423.4
54.3419,324.4
54.3425,82.4
54.3439,14.6
54.344,14.9
54.3482,367.4
54.3702,82.3
54.3929,750.3
54.4036,67.3
54.4098,249.3
54.4175,244.2
54.4187,750.1
54.4291,199.4
54.4315,355.5
54.435,343.8
54.4585,435.9
54.4793,79
54.4873,103.2
54.497,502.3
54.5068,195.1
54.5105,330.7
54.512,136.9
54.5255,76.2
54.5363,398.1
54.55,15.4
54.552,438.2
54.558,431.6
54.5594,454.4
54.5743,571.5
54.5757,314.2
54.578,359.6
54.5841,136
54.5933,17.9
54.6014,135.3
54.6019,612.1
54.6079,369.4
54.6087,16.3
54.6252,110.4
54.6497,247.1
54.6551,249.8
54.661,108.3
54.6648,495.4
54.6676,299.8
54.6692,96.3
54.7229,315
54.7247,203.1
54.7345,118.8
54.7537,91.8
54.7671,437
54.7913,499.2
54.7955,201.7
54.7983,440.6
54.8189,286.9
54.8206,530
54.8224,556.3
54.8523,532.1
54.8537,189.8
54.8615,380.6
54.8934,89.6
54.9012,311.1
54.9023,368.7
54.9126,642.3
54.9242,354.1
54.932,17.6
54.9467,230.1
54.9504,398.9
54.9833,129.3
54.9948,576
54.9962,252.4
55.0027,76.1
55.0075,128.8
55.0118,117.9
55.0136,136.9
55.0137,139.1
55.0175,147.1
55.0201,317.8
55.0277,442.5
55.0315,19
55.0433,286
55.0754,291.4
55.09,109.8
55.0998,90.5
55.1148,335.8
55.1156,26.9
55.127,269.7
55.1301,446.6
55.1376,262.6
55.157,354.8
55.1619,115
55.1803,704.2
55.1896,83
55.2016,278.1
55.2338,121.2
55.2469,593.7
55.2849,117.5
55.2998,213.4
55.3336,301.9
55.3447,566.3
55.3521,102.7
55.3553,415.3
55.3894,82.1
55.4154,266.6
55.4539,263
55.4583,126.4
55.463,570.4
55.4642,367.2
55.47,471.7
55.5051,537
55.5156,466.6
55.5228,261.7
55.531,129.8
55.5404,135.6
55.5518,17.9
55.5609,86.3
55.5804,142.2
55.5968,76.8
55.606,111.2
55.6266,27.3
55.6362,297.5
55.6633,107.1
55.6663,547.3
55.6692,116.4
55.6876,268.5
55.7057,85.8
55.7203,253.5
55.7271,288.7
55.7339,77.4
55.7393,414.5
55.7595,223.4
55.7809,394.1
55.7924,178.6
55.793,87.3
55.7994,88
55.806,65.2
55.8096,100.8
55.8113,759
55.8278,16.6
55.8325,102.6
55.8337,545.5
55.847,323.9
55.853,226.8
55.8693,261.1
55.9196,643
55.9268,377.4
55.9291,31
55.9329,17.7
55.9411,126.2
55.9455,460.2
55.9999,335.8
56.0083,105.6
56.0137,155.4
56.0293,371.1
56.0319,507.3
56.0323,71.3
56.0373,79.7
56.0539,133.8
56.0734,511.2
56.0895,134.8
56.0941,238.6
56.1063,89.7
56.1186,118.6
56.1235,18.8
56.1391,309.1
56.1437,16.6
56.166,148.1
56.1806,375.3
56.1858,456.5
56.1904,120.2
56.1967,536.4
56.2191,349
56.2241,137.3
56.2277,138.8
56.2651,445.7
56.2929,315
56.3039,100.3
56.3249,127.7
56.3607,126.5
56.3793,567.9
56.387,121.3
56.4037,14.9
56.4198,246.4
56.4266,738.6
56.4279,288.2
56.4474,498.3
56.4555,530
56.4602,74.4
56.4626,153.8
56.4821,72.3
56.4873,752.1
56.4908,117.6
56.4913,81.6
56.5199,157.7
56.5453,151.9
56.5528,272
56.5823,16.8
56.5981,313.3
56.6075,26
56.6154,25.8
56.6249,478.2
56.6399,16.3
56.6407,278.6
56.6706,510.4
56.6966,409.9
56.7011,110.5
56.7041,305.8
56.7114,471.6
56.7235,20.3
56.7275,124
56.7294,134.2
56.7514,645.6
56.7705,97.8
56.8151,28.6
56.8178,84.8
56.8228,234.2
56.8588,25.7
56.8676,112
56.8973,480
56.9003,24.7
56.9148,16.4
56.9347,119.6
56.9642,209.6
56.969,145.2
56.9868,80.2
57.0049,118.9
57.0173,101.9
57.0242,14.9
57.0417,193.4
57.0458,130.8
57.0555,262.8
57.0692,192.9
57.0936,393.1
57.1084,259.6
57.1171,707.2
57.1224,747.5
57.144,458.1
57.1453,91.5
57.1568,15.8
57.1597,226.8
57.1665,123.2
57.1702,285.1
57.1719,185.5
57.1728,277.2
57.1765,82.4
57.1784,280.9
57.1812,176.2
57.1926,406.4
57.2039,76.3
57.2066,430.5
57.2373,18.1
57.27,311.8
57.2753,160.3
57.2798,424.6
57.2876,303.8
57.2978,173.8
57.3035,119
57.3065,212.5
57.3204,105.5
57.3572,209.2
57.3608,90
57.362,18.3
57.3722,135
57.4413,214.8
57.4655,251
57.4725,376.1
57.4795,166.7
57.4888,196.4
57.5314,698.3
57.541,113.6
57.5619,146.9
57.5734,81.5
57.5757,107
57.6216,30.9
57.625,301.7
57.6315,149.2
57.6338,414.5
57.6495,16.6
57.6647,80.2
57.7006,671.5
57.7012,282.2
57.7091,99
57.7153,15.8
57.7238,524.7
57.7359,80.1
57.7448,90.8
57.7596,451.2
57.7646,113.3
57.7776,449.1
57.7831,483.8
57.7843,173.8
57.7933,196.9
57.7992,269.4
57.8104,29.7
57.8156,246.5
57.8243,423.9
57.8261,150.6
57.8606,628.6
57.8842,117.3
57.9016,90.9
57.9112,79.9
57.9147,111.9
57.9318,165.3
57.935,148.2
57.936,537.8
57.9365,160.1
57.9386,69
57.9416,170.8
57.9445,586.9
57.953,501.7
57.9667,132.2
57.9673,157.3
57.974,300.9
58.0025,236.5
58.0032,194.6
58.0075,206.8
58.0083,387.9
58.0111,84.1
58.0276,706.8
58.0343,174.4
58.0379,411.1
58.0514,145.2
58.0618,121.5
58.0632,105.8
58.0719,139.8
58.08,19.6
58.0897,176.5
58.0947,175.4
58.1144,16.2
58.1337,228.1
58.1378,351.9
58.1643,363.1
58.17,353.3
58.1819,109.3
58.2074,27.8
58.2199,633
58.2203,17.8
58.2238,327.5
58.2281,17.4
58.2555,15.7
58.2712,586.3
58.2952,247.2
58.2994,16.8
58.3009,265.9
58.3142,69.3
58.3166,103.7
58.333,143.7
58.3639,138.3
58.3938,915.7
58.4025,140.8
58.4046,139.8
58.4056,101.8
58.406,109.5
58.4209,74.5
58.4236,155.7
58.444,98.9
58.4447,71.3
58.4474,127.1
58.4575,110.7
58.4669,148.2
58.4743,138.3
58.4967,123.3
58.547,692.3
58.55,202.5
58.5661,226.5
58.5862,205.4
58.5922,159.3
58.5995,99.7
58.6348,140.1
58.6372,514.9
58.6401,112.2
58.6534,85.8
58.6565,110.5
58.666,202.2
58.6822,403.6
58.6963,793.8
58.6968,163.7
58.7044,20.4
58.7102,17.1
58.7145,76.6
58.721,231.3
58.7264,80.3
58.7445,376.1
58.7613,14.9
58.7989,91.8
58.8137,239.3
58.8213,882.3
58.8406,82.4
58.8912,21.4
58.9,299.3
58.9758,145.4
59.0027,24.7
59.0111,27.3
59.0274,308.1
59.0348,607.7
59.0445,133.5
59.0448,131.6
59.0499,21
59.051,490.7
59.0648,202.7
59.0954,101.3
59.1011,19.7
59.1025,74.3
59.1092,350.5
59.1188,325.2
59.1199,20.6
59.1281,84.5
59.1326,79.3
59.1359,438.9
59.1439,646.6
59.1441,667.3
59.1458,464.3
59.1782,507.7
59.1829,150
59.1885,183.2
59.2014,72.2
59.211,310.7
59.2366,82.6
59.2555,268.3
59.2572,611.5
59.2619,532.7
59.2875,466.9
59.2958,136.5
59.3074,482.2
59.3123,24.6
59.3208,16.2
59.3487,458.1
59.3564,210.6
59.3709,199.9
59.3763,137.8
59.3779,72.4
59.3869,152.7
59.4049,288.3
59.4076,108.2
59.4362,653.2
59.4392,460.1
59.4407,76.6
59.4491,18.9
59.4504,124.8
59.4515,96.8
59.4608,16
59.4694,549
59.4873,158.7
59.5225,815.8
59.5271,86.9
59.594,440.7
59.6016,349.5
59.6153,774.5
59.6322,301.9
59.6369,102.1
59.6504,269.2
59.6553,309.9
59.6622,91.7
59.6693,259.7
59.6715,709.6
59.6817,300.2
59.6866,127
59.6899,428.8
59.7001,196.4
59.7006,136.5
59.7031,20.6
59.7142,356.9
59.7151,379
59.7198,106
59.7245,437.2
59.7313,81.4
59.752,17.5
59.7667,134.2
59.7948,161.9
59.8168,237.7
59.8251,291.1
59.8312,355
59.8365,122.9
59.8562,439.5
59.8604,15.7
59.8919,247.9
59.904,464.8
59.911,391.3
59.9275,116.8
59.9297,109.8
59.9306,77.6
59.937,280.7
59.9378,313.7
59.9449,216.9
59.9509,84.9
59.9529,94.5
59.9641,212.1
59.9805,106.8
59.9874,717.8
60.0106,92.1
60.017,25.3
60.0186,320.1
60.031,125
60.044,17.8
60.0557,583.3
60.0579,16.9
60.0753,136.3
60.0887,18.3
60.0989,141.7
60.1014,70.8
60.1065,28.6
60.1125,268.8
60.1163,371.2
60.1276,125.7
60.1562,494.3
60.1573,226.1
60.1719,124.4
60.1766,259.1
60.2184,16.6
60.2205,287.9
60.2235,820.7
60.2243,308.5
60.2285,477.2
60.2339,643
60.2426,116
60.2517,403.8
60.2787,123.5
60.2806,132.8
60.3021,117.1
60.3184,332
60.3242,19.2
60.3253,177.1
60.3372,27.8
60.3594,17.8
60.3659,307.7
60.3708,99.3
60.3912,141.7
60.4059,275
60.4129,118.8
60.4237,18.3
60.448,207.8
60.4509,363.2
60.4565,17.7
60.4605,194.9
60.4644,141.7
60.474,117.9
60.4797,16.2
60.4851,357.9
60.4954,462.4
60.5038,240.4
60.5335,307.8
60.5439,15.1
60.5528,75.6
60.5538,80.7
60.5659,346.4
60.5833,83.3
60.5988,107.8
60.6042,69.7
60.6092,334
60.6108,15.3
60.6119,98.9
60.6299,86.8
60.637,258.8
60.6487,16.5
60.6546,183.3
60.6585,132.8
60.6786,400.6
60.6864,17.7
60.6895,189.6
60.6971,139.6
60.7004,997.3
60.7027,183.2
60.7111,159.3
60.7191,98.6
60.7444,258.9
60.7491,291
60.762,106.7
60.7878,193.5
60.7888,499.8
60.7916,23.6
60.8123,325
60.8571,184.9
60.8722,116.5
60.8771,201.9
60.909,264.3
60.9291,336
60.9704,137.7
60.9924,233.6
61.0223,732
61.0398,534.3
61.0607,17.2
61.0865,531.1
61.1043,102.9
61.1103,386.7
61.111,215.3
61.1338,19.1
61.1369,19.3
61.1647,838
61.1696,757.6
61.1823,216.6
61.1945,942
61.2035,561.6
61.216,585.3
61.2319,105.2
61.2356,194.8
61.2434,29.3
61.2486,33.6
61.2505,93.9
61.2685,18.2
61.283,19.1
61.3172,290.2
61.3197,105
61.3299,288
61.3301,332.1
61.3304,201.5
61.3368,180.9
61.3665,99.4
61.3861,93
61.4122,115.4
61.4172,128
61.4276,596.8
61.4284,645.8
61.4302,118.8
61.4363,364.5
61.4437,133.4
61.4476,139.1
61.4682,502.5
61.4862,99.7
61.4895,489.4
61.4907,352.7
61.5121,94.8
61.5391,732.3
61.5415,857.2
61.5564,565.8
61.5623,438.5
61.5763,337.3
61.6138,257.4
61.6143,131.3
61.6417,278.5
61.6534,425.1
61.6539,364.1
61.6567,190.8
61.6616,556
61.6653,162
61.6695,303.8
61.6703,167.8
61.6859,268.5
61.6931,239.4
61.7041,357.8
61.7143,19.5
61.7182,120.1
61.7493,81.6
61.7574,368.4
61.7598,15.8
61.7832,728.1
61.8089,275.5
61.8239,755.5
61.8328,15.8
61.8332,26.4
61.8454,245
61.8587,325.4
61.8753,138
61.8929,304.8
61.8971,179.5
61.9005,138.6
61.9088,114.1
61.9127,260.7
61.9318,17.5
61.9396,333
61.9784,363.1
62.0175,482.1
62.0252,112.8
62.0283,112.1
62.0364,641
62.0474,361
62.0889,102.9
62.117,103.1
62.1514,458.3
62.1581,200.2
62.1613,131
62.1648,172.8
62.2053,17.7
62.2292,300.2
62.2668,770.9
62.2841,110
62.338,103.3
62.3632,20.1
62.367,327
62.3726,105.6
62.3785,178.9
62.3886,228.9
62.3942,305.9
62.3993,159.1
62.4136,431.8
62.4287,722.7
62.4311,85.2
62.4358,127.5
62.4617,547.6
62.4633,230.6
62.466,335.1
62.4879,359.5
62.4993,255.8
62.5001,113.8
62.5026,17.8
62.5192,162.8
62.5341,644.9
62.5474,318.5
62.5576,290.5
62.5581,113.3
62.566,292
62.5769,19.6
62.5794,93.6
62.5837,152.3
62.6168,160.3
62.621,92.5
62.6252,375.9
62.6433,600.4
62.6458,88.3
62.6662,444.7
62.6733,481.5
62.6764,199.8
62.6774,75.4
62.6927,793.3
62.7011,212.4
62.7035,30.2
62.7176,94.6
62.7193,225.4
62.734,463
62.7387,331.5
62.7626,322.6
62.7637,341.7
62.7733,90.7
62.7827,373.3
62.8031,93.3
62.8077,571.9
62.8213,628.3
62.8224,191.9
62.837,144.3
62.8724,845.5
62.9242,75.1
62.9308,668.9
62.9569,17.3
62.9607,349.2
62.9663,249.3
62.9685,122.6
62.9725,138
62.9888,137.6
63.0365,126.6
63.0631,144.5
63.0691,724.4
63.0705,469.7
63.0766,108.9
63.083,162
63.1185,355.2
63.1202,143.6
63.1344,141.8
63.1485,20.3
63.1615,20.6
63.1638,212.9
63.2007,123.9
63.2111,116.2
63.2346,697.3
63.2468,593.4
63.2579,566.2
63.2693,135.6
63.2771,149.1
63.2803,345.5
63.292,368.5
63.3043,163.1
63.3108,292.2
63.3218,487.9
63.3259,504.2
63.3285,17.2
63.3445,510.2
63.3492,15.8
63.3604,456.7
63.3681,134.2
63.3815,15.9
63.39,342.2
63.4129,201
63.4388,340.8
63.4396,17.5
63.4412,386.5
63.4564,454.3
63.4593,17.1
63.4609,280.6
63.4693,594.8
63.4845,355.3
63.5083,118.3
63.515,119.6
63.5163,18.7
63.5267,568.4
63.5358,19
63.547,150.5
63.548,117.5
63.5549,189.8
63.565,301.8
63.5674,19.2
63.5709,34.4
63.5784,88.4
63.5847,291
63.5954,128.9
63.6071,164.9
63.611,87.7
63.6159,26.7
63.6192,85.4
63.626,16.1
63.6275,90.1
63.6488,404.1
63.6554,118.2
63.6646,549.4
63.6709,18
63.6714,334.7
63.6748,309.4
63.6831,17.9
63.6868,542.3
63.6896,375.9
63.7149,220.1
63.7189,82.6
63.7208,402.6
63.7508,19.9
63.7556,18.2
63.7615,525.5
63.7633,204.2
63.7816,143.3
63.8021,495.2
63.8204,96.1
63.8453,575.6
63.8506,119.7
63.8576,176.1
63.8597,31
63.8626,521.8
63.867,106.2
63.8713,236.1
63.9238,119.6
63.9471,408.1
63.9852,31.1
63.989,274.5
64.0191,167.7
64.0393,18.2
64.0444,31.4
64.0942,612.3
64.1038,379
64.1108,28
64.1242,104
64.1269,283.4
64.1543,341.5
64.1678,310.9
64.1695,296.6
64.1952,115.4
64.197,15.9
64.2105,81.9
64.2152,354
64.2178,153.8
64.2276,660
64.2537,542
64.2572,327.1
64.2583,394.8
64.2786,16.2
64.2792,394.9
64.284,652.8
64.3067,123.3
64.3136,26.3
64.3153,271.3
64.323,315.5
64.3813,287.7
64.3921,587
64.3998,78.3
64.402,145.1
64.4046,108.3
64.412,91.8
64.4132,379.4
64.4149,167.1
64.4177,235.8
64.4194,222.2
64.4227,156.8
64.4731,143.5
64.4781,688.2
64.4884,93
64.5011,76.6
64.5161,490.4
64.5182,103.6
64.5388,270.2
64.563,583.3
64.571,445.4
64.5826,34.8
64.6004,81.4
64.6057,282.6
64.6077,274
64.6194,145.2
64.632,292.9
64.6562,725.8
64.6569,84.6
64.6661,378.9
64.6668,19.9
64.6733,307.2
64.6761,96.1
64.6817,335.9
64.7121,227.3
64.713,98.6
64.7161,102.8
64.7406,476.4
64.7413,139.9
64.7469,100.7
64.7516,88.4
64.7677,488.1
64.7702,554.9
64.7863,94.8
64.8031,232.1
64.8066,522.5
64.8085,237.2
64.809,131.2
64.8215,83.8
64.831,371.9
64.8331,121.5
64.8414,434.8
64.8425,118.3
64.8437,822.6
64.8456,141.8
64.8478,222.3
64.8562,200.7
64.8563,199.1
64.8729,140.4
64.89,588.5
64.898,97.9
64.9016,442.7
64.9129,251.7
64.9271,264.5
64.9348,17.7
64.939,77.4
64.942,24.8
64.9429,467.8
64.9549,19.3
64.9571,183
64.9694,426.2
64.9732,21.8
64.9798,172.8
64.9931,93.7
64.997,113.2
65.0295,355.9
65.0381,111.5
65.039,291
65.0543,443.3
65.071,80.6
65.0832,338.4
65.1292,127
65.1366,79.2
65.1946,395.4
65.1968,130
65.1982,244.2
65.2057,149.7
65.2068,751.9
65.213,82.2
65.219,459.7
65.2283,80.7
65.2493,691.4
65.2747,640.1
65.2893,208.7
65.2948,19.3
65.2969,17.4
65.3276,98.5
65.3448,14.8
65.3857,247.2
65.3933,183.2
65.4215,207.3
65.4536,103.2
65.4592,103.9
65.4694,15.5
65.5073,545.1
65.5275,458.9
65.5376,513.5
65.5551,209.8
65.5569,140.8
65.5972,82.8
65.5985,112
65.6003,76.3
65.6146,425.8
65.6395,283.9
65.6445,124.4
65.6544,124.5
65.6864,185.2
65.6869,119
65.6871,140.2
65.6873,143.7
65.6936,503.1
65.7051,313.8
65.7212,432.5
65.7298,295.4
65.7605,17.4
65.7657,148.9
65.8046,19.7
65.8358,16.4
65.8723,208.9
65.8749,295.3
65.8912,141.7
65.8998,278.1
65.903,388.4
65.9035,95.9
65.9203,422.7
65.9895,702
66.0098,21.1
66.019,661.5
66.0227,252.3
66.0268,580
66.033,107.6
66.0447,123.9
66.0846,86.9
66.0945,105.8
66.1033,659.2
66.1433,138.9
66.1599,88.5
66.1638,892
66.1709,240.7
66.1808,99.1
66.2224,171.8
66.2342,101.9
66.256,98.8
66.301,84.3
66.3066,90.1
66.3545,201.7
66.3607,183.3
66.3626,102.5
66.3784,115.2
66.3919,160.7
66.4011,89.9
66.4336,27.7
66.443,472.6
66.4437,397.7
66.4493,223.7
66.4518,130.7
66.4529,208.6
66.4577,171.4
66.474,80.1
66.4783,143.7
66.4862,149.2
66.4884,76.3
66.5093,430.6
66.5242,126.7
66.547,23.2
66.5548,363.6
66.5813,21.9
66.6287,399.8
66.6448,16.7
66.6851,419.7
66.6929,448.8
66.6972,18
66.7154,459.7
66.73,232.8
66.7347,501.6
66.7356,173.9
66.8167,20.8
66.8252,172.1
66.8282,346.7
66.8342,292.5
66.836,294.7
66.8441,772.6
66.8491,73.4
66.8565,107.2
66.8766,138.6
66.891,17.8
66.8977,18.6
66.9355,463.8
66.9557,85.8
66.9599,497.8
66.9961,20.3
67.0016,96.1
67.031,98.8
67.046,209
67.0611,307.9
67.0642,18.7
67.0796,210.1
67.0841,72.7
67.1031,104
67.1034,108.4
67.1063,100.6
67.1275,131
67.1292,399.8
67.1429,288.2
67.1563,224.9
67.1944,111.2
67.2071,147
67.2126,218.8
67.2325,86.4
67.2385,73.4
67.291,588.6
67.296,551.5
67.3026,119.8
67.3083,563.6
67.31,18.5
67.3378,26.8
67.3497,527.1
67.3518,188.2
67.3861,29.9
67.4121,144.5
67.4176,27.1
67.4286,88.8
67.4294,678.9
67.4372,106.8
67.4378,242.4
67.4398,337.8
67.4537,259.9
67.4919,95.3
67.5007,121
67.5951,191.6
67.6047,276.9
67.6205,17.9
67.7214,296.2
67.7346,19.6
67.7454,134.1
67.7495,385.3
67.7565,639.1
67.7664,16.4
67.7798,214.3
67.783,16.2
67.7868,297.6
67.8366,483.6
67.8859,283.5
67.9201,117.3
67.9269,718.8
67.9277,322.7
67.9384,432.4
67.9392,154.2
67.9504,937.8
67.9703,122.9
67.981,85
67.9913,507.5
67.9925,135.7
68.0007,229.7
68.0171,126
68.0179,444.7
68.0805,541.2
68.0832,209.8
68.0991,151.5
68.1958,303.7
68.214,402.8
68.2485,348.2
68.2815,724.3
68.2863,408.3
68.2912,660
68.3325,17.5
68.3388,18.7
68.3517,16.2
68.3653,220.5
68.3666,293.3
68.3864,313.6
68.3942,17.5
68.4256,411.5
68.4611,277.7
68.5042,326.5
68.5297,103.2
68.5392,108.8
68.5643,287
68.5645,304.2
68.5648,274.6
68.5699,294.1
68.5912,87
68.6123,353.2
68.6437,90.4
68.6452,91.1
68.6805,155.9
68.6836,610.9
68.6918,17.3
68.705,146.3
68.7148,381.5
68.7418,141.2
68.7497,648.1
68.773,159.8
68.7928,535.6
68.8434,548.9
68.8438,508.5
68.8444,16.6
68.8558,109.7
68.8694,240.6
68.8972,299.8
68.9028,131.7
68.9038,303.2
68.9181,441.2
68.9523,92.1
68.9547,280
68.9563,359.9
68.9638,16.4
68.9727,412.2
68.9803,393.4
68.9813,203
68.9831,771.9
69.0178,19.3
69.0209,499.6
69.0295,246.4
69.0426,20.7
69.0617,118.8
69.0684,74
69.0874,709.7
69.0918,111
69.1198,347.6
69.1213,325.4
69.1482,126.6
69.1726,140.9
69.178,84.2
69.2422,164.4
69.2455,291.1
69.2713,101.2
69.2757,18
69.3219,102.7
69.3518,144.2
69.3662,504.5
69.372,537
69.4068,190.1
69.4199,30.4
69.4466,294.3
69.4538,17.3
69.456,117.6
69.4953,147.8
69.5113,86.9
69.5413,157.7
69.5451,370.2
69.5455,360.7
69.5465,238.1
69.563,451.1
69.5926,191.6
69.6277,22.2
69.632,164.9
69.6665,107.4
69.6725,97.7
69.6847,82.7
69.6887,94
69.6898,104.5
69.7001,18
69.7077,465.1
69.7114,25.4
69.7134,17.6
69.7395,513.7
69.7499,272.1
69.7582,702.6
69.7702,128.5
69.7766,24.7
69.7841,84.9
69.7939,16.1
69.8085,240.8
69.8144,464
69.8282,129.1
69.8286,275.5
69.8566,165.7
69.8724,92.6
69.8807,89.8
69.9089,76.2
69.9372,196.3
69.9415,83.8
69.9509,156.8
69.9579,375.4
69.9608,351.9
69.9728,15.9
69.9781,490.6
69.9791,144.4
69.9963,16.6
69.9989,224.6
70.009,203.8
70.0134,324.3
70.0405,119.3
70.0638,570.6
70.0649,216.8
70.0885,710.5
70.0913,648.4
70.1196,828
70.1549,160.7
70.168,87.9
70.1777,130.8
70.1866,29.7
70.2078,112.2
70.2125,16.7
70.2673,105.2
70.2703,71.4
70.2929,220.9
70.3079,168.8
70.3091,343.3
70.3343,385.6
70.3464,20.7
70.3499,607
70.3798,450.8
70.3822,506.2
70.3971,95.9
70.4047,31.2
70.4405,374.8
70.4637,92.4
70.4722,491
70.4811,494.5
70.5068,130.6
70.5202,433.8
70.5227,493.6
70.5324,488
70.558,525.5
70.5613,423.4
70.5628,287.7
70.5803,301.4
70.5942,92.9
70.6097,86.4
70.6296,116.7
70.636,118.5
70.662,283.4
70.6891,704.5
70.7098,31
70.7112,117.2
70.7125,117.1
70.7366,261.5
70.7582,19.2
70.7842,97.9
70.7869,290.6
70.7918,299.1
70.8108,308
70.8308,229
70.8485,605.9
70.8529,15.6
70.8916,488
70.8962,140.8
70.9374,767.4
70.988,17.2
70.9928,279.6
71.0176,218.2
71.0386,376.6
71.0542,114.4
71.0631,205.6
71.0696,206
71.0814,81.3
71.0842,104.4
71.0908,720.4
71.0942,99.7
71.1005,23.2
71.1039,26.6
71.1834,114.5
71.2044,205.2
71.2104,99.3
71.2301,249.1
71.2483,313.8
71.2604,113.2
71.2917,331.8
71.2973,246.7
71.3111,101.8
71.3523,415.9
71.3549,192.8
71.3889,301.6
71.3902,121.3
71.4061,291.8
71.4485,299
71.4603,74.7
71.4609,119.5
71.4702,387.3
71.4893,94.2
71.4982,16.7
71.5001,125.4
71.5136,78.1
71.5257,333.4
71.5305,367
71.5541,81.1
71.5837,398.3
71.5884,203.6
71.6008,208.5
71.6046,88.4
71.6076,301.6
71.6137,498.8
71.6244,574.5
71.6391,767.8
71.647,26.9
71.6551,17.8
71.6646,265.9
71.6728,145.1
71.6826,319
71.6912,343.1
71.6967,93.5
71.716,161
71.7311,306
71.733,242.8
71.7681,587
71.7686,111.1
71.7904,236.8
71.8006,34.9
71.825,236.2
71.8398,151.1
71.8624,209
71.8753,17.6
71.8801,85.5
71.907,152
71.919,370
71.9281,498.1
71.9358,17
71.9578,998.6
71.9698,290.8
71.9735,731.3
71.9781,236.6
71.9844,94.7
71.9914,452.2
72.0037,92.6
72.0085,448.6
72.0226,103.7
72.0642,101.4
72.0806,646.5
72.1027,578.7
72.1075,248.6
72.1413,137.7
72.1632,352.2
72.1642,323
72.1712,99.9
72.1826,24.6
72.1932,204.9
72.2092,504.8
72.2101,1054.7
72.2107,864.1
72.2122,383.4
72.213,564.2
72.2139,702
72.2149,847.9
72.2156,1857.8
72.2162,1956.1
72.2168,478.8
72.2175,1529.6
72.2185,1008.5
72.2191,1791.3
72.2198,2191.2
72.2206,2160
72.2214,2205.9
72.2222,2556
72.223,4665
72.2237,4827.1
72.2242,3432.2
72.2253,4748.5
72.2263,2684.5
72.228,5647.1
72.2292,1586.2
72.2299,2915.2
72.2315,2031.5
72.2326,338.2
72.2337,572.5
72.2346,116.5
72.2352,888.7
72.2364,127.7
72.2379,18.1
72.2385,26.9
72.2396,17.9
72.2408,21.2
72.2451,382.1
72.2483,214.4
72.2577,785.5
72.2626,31.5
72.2761,241.8
72.2852,279.4
72.2881,77.7
72.3149,810.8
72.3185,307
72.3252,361.1
72.3413,143.1
72.3718,79.6
72.3728,141.6
72.3823,623.2
72.3889,110.3
72.3898,270.8
72.4031,521
72.4279,15.3
72.4995,347.9
72.5127,760.9
72.5345,122.3
72.5411,18.4
72.5488,494.4
72.5819,751.6
72.6113,564.2
72.6253,739.8
72.6646,315
72.6662,425.9
72.6738,117.8
72.6752,116.9
72.6905,100.5
72.7005,137.4
72.7036,74
72.7056,545.1
72.7348,395
72.7362,552
72.7462,17.2
72.7474,235.1
72.7539,731.4
72.7591,462.8
72.7616,18.2
72.7739,18.4
72.7748,551.8
72.8045,289.1
72.8152,128.3
72.8517,20.4
72.859,663.2
72.8863,104.8
72.8926,771.6
72.8997,213.2
72.9369,1007.7
72.9436,310
72.9544,78.9
72.9566,119.4
72.9858,17.5
72.9893,481.3
72.9947,250.7
72.9971,320.5
72.9999,613.5
73.0278,283.3
73.0319,140.3
73.0591,129.9
73.0778,265.9
73.118,160.4
73.1267,394.3
73.1326,86.5
73.1471,17.4
73.1658,761.8
73.1711,127.4
73.2038,18
73.2235,149.5
73.2384,309.3
73.247,115.3
73.2496,289.2
73.252,79
73.2909,789
73.2963,17.2
73.3008,670.2
73.3122,310.8
73.3362,18.1
73.3492,84.7
73.3763,154.5
73.3824,208.7
73.4068,456
73.417,140.4
73.4562,18.4
73.4747,345.4
73.4869,265.6
73.4895,294.9
73.4989,275
73.4994,323.9
73.5021,732.3
73.5659,330.8
73.5696,16.5
73.594,132.8
73.5976,97.8
73.603,118.8
73.6247,132
73.6675,104.6
73.6685,112.8
73.6773,16.2
73.6887,320.2
73.6921,186.3
73.6984,73.6
73.7407,93.9
73.7492,131.6
73.7585,530.5
73.7678,614.6
73.7811,19.7
73.8098,137.5
73.8133,440.9
73.8206,94.7
73.8378,18.8
73.8391,19.7
73.8548,231.2
73.8646,119.7
73.8917,233.2
73.898,125.8
73.9025,137.9
73.9302,95.4
73.9333,92
73.9443,229.3
73.9603,17.5
73.9812,16.8
74.0174,319.8
74.0355,587.3
74.0598,4550.2
74.0716,707
74.0768,164.5
74.1105,284.3
74.1203,518
74.1498,128
74.1508,76.3
74.171,87
74.1737,18.5
74.1847,187
74.2021,349.1
74.2395,19.7
74.2405,133.7
74.27,81.7
74.2743,86.5
74.2879,554.2
74.318,19.6
74.3196,23.3
74.3346,129.6
74.3366,331
74.384,15.8
74.3899,290.5
74.4215,88.9
74.4259,316
74.4315,342.7
74.4333,587.7
74.451,91
74.4524,78.3
74.4968,104
74.5066,84.2
74.5073,520.1
74.5213,100.8
74.5306,95.4
74.5408,116.9
74.5432,16
74.5585,558.1
74.5671,121.7
74.5757,32.4
74.5834,84.8
74.5851,171.5
74.5965,613.3
74.6066,222.3
74.6093,292.9
74.6184,453.7
74.6439,103.6
74.6583,100.4
74.6591,101.4
74.6654,217.4
74.7094,751.7
74.717,701.5
74.7223,96.8
74.7234,126.7
74.7249,16.6
74.7408,104.5
74.7443,103.1
74.7588,186.4
74.7607,124.6
74.7642,200.6
74.7948,110.4
74.8284,509.3
74.8471,312.4
74.8513,328.5
74.8605,88.4
74.8614,270.4
74.8645,104.9
74.8696,698.2
74.8819,392.6
74.8966,630.7
74.9016,264.3
74.9396,116.6
74.9449,76.9
74.947,512.1
74.9923,110.7
75.004,136
75.0338,105.5
75.0752,365.2
75.092,574.3
75.1375,28.2
75.143,300.3
75.1571,216.7
75.1755,475.6
75.1914,17
75.1953,762.2
75.2095,345.3
75.2291,607.4
75.2311,347.1
75.2519,126.6
75.262,112.2
75.2759,661.4
75.2811,321.5
75.2839,316
75.2929,130
75.3244,121.8
75.3372,149.2
75.3558,332.3
75.365,131.4
75.3848,396
75.4081,121.2
75.4115,180.2
75.4403,405.9
75.4424,509.7
75.4434,226.3
75.4596,660.4
75.4602,220.6
75.4715,325
75.4757,84.1
75.4945,78.6
75.5401,82.7
75.5574,217.5
75.5907,81
75.6176,110.9
75.6276,311.9
75.6351,452.1
75.6705,165
75.674,151.6
75.6774,17.7
75.7301,85.6
75.7441,272
75.7477,88.6
75.749,131.9
75.7655,356.3
75.7701,465.6
75.7943,125.2
75.828,551
75.8292,291
75.8338,123
75.8527,330
75.859,175.2
75.8958,109.5
75.9252,88
75.9863,126
76.0123,622.1
76.0272,364.9
76.0365,520.5
76.0514,16.6
76.0608,148.1
76.0823,533.4
76.1222,496.4
76.1479,88.7
76.1533,17.4
76.1651,371.4
76.1679,141.6
76.1701,253.2
76.1761,28.7
76.221,646.8
76.2218,79.5
76.2287,130.9
76.2316,130.2
76.2509,851.9
76.2968,451.6
76.3155,615.8
76.3173,536.4
76.3188,523.1
76.3344,125.5
76.3442,155.4
76.3818,19.2
76.3878,345.5
76.432,695.1
76.4342,105.2
76.454,483.1
76.4575,831.6
76.4863,73.1
76.4952,560.4
76.5321,125.3
76.6446,515.2
76.6466,612
76.6827,86.5
76.6938,18.6
76.6978,334.5
76.6993,20.4
76.7063,376.6
76.712,189.1
76.7332,17.4
76.7363,161.3
76.7396,107.6
76.7451,373.7
76.7695,94.2
76.7727,353.7
76.7949,148.4
76.8004,152.4
76.8072,518.4
76.8125,88.7
76.8223,91.7
76.8255,177.3
76.8258,160.8
76.8275,132.5
76.8533,521.5
76.8591,331.2
76.8622,194.1
76.8838,337.9
76.8857,74.5
76.8901,311.4
76.8904,223.7
76.8918,298.4
76.8946,114.8
76.9025,154.7
76.9108,153.8
76.9722,17.9
77.0022,20.5
77.0259,160.3
77.034,18.5
77.0347,107.2
77.0354,683.8
77.0384,117448.6
77.0527,262.3
77.0548,823.4
77.0678,131.3
77.0887,92.8
77.0937,154.5
77.1031,646.2
77.1148,573
77.1237,114.9
77.1334,282.3
77.1371,595.7
77.1476,199.4
77.1976,132.2
77.2084,20
77.2104,132.9
77.2379,17.7
77.24,80.8
77.2603,17
77.2727,16.9
77.3137,143.5
77.3169,86.9
77.3263,83.3
77.3649,107.9
77.3869,16.8
77.4013,16.2
77.4162,220.7
77.4388,132
77.4458,87.5
77.4465,490.1
77.4879,120.2
77.4965,80.2
77.5302,716.8
77.5612,175.6
77.6045,392.8
77.6144,16.2
77.6234,18
77.6321,17.8
77.6624,148.3
77.6626,131.6
77.6985,691.1
77.7022,236.6
77.7069,91.1
77.7247,453.8
77.7419,93.7
77.7506,90.1
77.7711,228.9
77.7765,319
77.7797,97.2
77.7875,90.8
77.8192,703.9
77.8223,106.8
77.828,16.4
77.8443,436
77.8498,693.6
77.8611,139.9
77.8734,385.9
77.8747,100.3
77.8892,337.9
77.9114,153.1
77.923,146.5
77.9264,258.6
77.935,354
77.9425,108.5
77.9563,641
77.9795,93.8
78.0086,214.8
78.0274,115.6
78.0322,445.5
78.0357,118.3
78.0418,3201
78.0461,20.8
78.0465,18.5
78.0753,28.4
78.1032,569.1
78.1214,194
78.1234,140.8
78.1335,836.1
78.1564,100.5
78.1719,239.1
78.1795,115.7
78.1838,379.5
78.2082,501.2
78.2111,99.8
78.232,17.8
78.2354,349.1
78.2481,255.1
78.2625,562.2
78.2851,18.4
78.2953,185
78.2966,257.3
78.3221,452.2
78.3227,268.3
78.3429,116.8
78.3631,178.5
78.365,24.7
78.3709,19.1
78.4002,199
78.4067,16.1
78.4264,269.5
78.4528,113
78.4626,675.9
78.4913,486.1
78.4947,297.9
78.4972,147.7
78.5181,151
78.5256,200.8
78.5504,271.8
78.5515,16.3
78.5665,499.7
78.5742,429.7
78.5787,20
78.5934,109.4
78.5997,124.9
78.6057,359.3
78.6161,617.4
78.6297,335.6
78.6575,124.9
78.6796,275.2
78.6819,154.3
78.6839,16.2
78.6889,346.7
78.6927,318
78.8127,111.3
78.8233,366
78.8267,119.6
78.8708,16.9
78.8865,200.2
78.9086,190.5
78.9441,127.2
78.954,348.3
78.9551,126.1
78.9566,371.6
78.9622,16.8
78.9639,438.2
78.9833,235.3
78.9851,324.8
78.986,424
78.9969,130.4
79.0123,423.5
79.0362,304.7
79.0541,2225.5
79.0581,81.7
79.0665,20
79.0789,466
79.1011,182.8
79.1299,113.8
79.1324,489
79.1535,327.9
79.1543,259.8
79.1739,101
79.1834,482.4
79.2116,149.6
79.2336,337.6
79.2462,136.9
79.2643,21.2
79.3101,490.7
79.32,154.2
79.3264,538
79.3423,217.7
79.3564,97.7
79.391,18.2
79.4214,102.9
79.4455,312.4
79.4677,636.2
79.4803,661.4
79.4871,325.9
79.5095,325.2
79.5239,629.2
79.5267,541.1
79.5595,327.2
79.5729,26.2
79.6064,133.1
79.6213,121.4
79.6434,33.6
79.6467,145.9
79.6672,88.8
79.6869,119.8
79.6981,114.6
79.7032,112
79.7137,84.6
79.7552,491.9
79.765,120.3
79.7658,96.8
79.7912,348.5
79.811,486.3
79.8268,76.1
79.8282,132.3
79.8665,470.3
79.8843,119.8
79.9205,428.1
79.9282,187.8
79.9324,362.1
79.9405,166
79.9629,396.8
79.9675,506.6
79.9799,283.6
79.988,77
79.999,620.9
80.0346,291.5
80.0575,17.9
80.0692,92.9
80.07,133
80.0709,146.1
80.0835,270.7
80.1384,131.1
80.145,673.8
80.1483,132.6
80.1609,106.2
80.1682,94.6
80.178,136.1
80.1865,274.2
80.1933,274.7
80.2137,99.5
80.2373,461.9
80.2845,79.1
80.2937,95.8
80.3195,465.4
80.3366,17.1
80.3596,17.4
80.3725,587.3
80.3786,385
80.3999,718.4
80.4011,78.2
80.4099,279.7
80.4252,701.7
80.4452,397.1
80.4554,83.1
80.4648,71.5
80.4682,565.7
80.5267,507.5
80.53,364.2
80.5434,107.9
80.5569,534.8
80.5863,605.1
80.6032,174.8
80.6302,93.4
80.6323,79.4
80.6399,116.4
80.6438,125.5
80.6592,17.7
80.6636,17.9
80.6888,18.1
80.7272,98
80.73,323.4
80.7975,122.8
80.8025,82.6
80.8072,18.4
80.8536,93.1
80.8735,109.1
80.8749,113.8
80.9012,20.9
80.9284,326.8
80.9477,50867.6
80.9647,585.6
80.9758,168
80.9765,410.1
80.9779,460.7
80.9854,111.6
81.006,680.9
81.0079,182.8
81.0152,107.2
81.0171,282.6
81.039,91.7
81.0411,756.2
81.0551,127.8
81.0658,262.8
81.0698,2498.7
81.0751,160.9
81.0768,154.6
81.0982,112.8
81.1089,114.5
81.1321,284
81.1333,223.4
81.1362,731.6
81.1377,1308.7
81.1385,776.9
81.1392,234.9
81.1407,463.2
81.1418,140.5
81.1421,162.5
81.1587,794.3
81.1635,155.6
81.176,132.7
81.2586,153.8
81.2857,514
81.3798,764.9
81.4068,118.3
81.4141,132.4
81.4464,17.7
81.4498,140
81.4776,546.6
81.5267,126.9
81.5359,147
81.5387,264.6
81.5424,469.8
81.5488,17.2
81.5528,89.1
81.5659,236.1
81.5877,279.2
81.6118,222.4
81.6254,148.6
81.6285,393.3
81.6395,17.6
81.6627,128.3
81.6668,120.5
81.6821,193.9
81.693,134.8
81.6964,446.4
81.7272,699.7
81.7722,715.3
81.7961,100.9
81.8008,124.5
81.8053,19.5
81.8076,373.1
81.8082,77.5
81.8174,205.7
81.8186,28.8
81.8339,342.3
81.8469,410
81.8719,293.1
81.8821,438.9
81.8852,265.6
81.8936,672.8
81.9199,149
81.9327,15.3
81.9367,297
81.9424,127.1
81.9437,347.2
81.9448,139.4
81.9884,31.9
82.0085,390.8
82.0134,107.1
82.0347,225.2
82.0408,111
82.0434,143.8
82.0572,92.6
82.0956,385.1
82.1114,27.7
82.1135,387.6
82.1178,140
82.1193,514
82.1306,18.1
82.134,141.9
82.1387,22.2
82.143,146
82.1535,112.5
82.161,17.2
82.1791,168
82.1842,401
82.1889,507.9
82.1941,639.5
82.2122,16.7
82.229,87.3
82.2342,452.5
82.2691,83.8
82.2795,381.9
82.288,33.7
82.3153,578
82.325,115
82.3625,22.7
82.3866,114.1
82.4097,143.1
82.447,147.3
82.449,130
82.4853,118.4
82.5069,507.6
82.5348,395.4
82.5423,170.7
82.5448,91.9
82.5664,87.5
82.5769,298.6
82.6074,132.8
82.6162,141.6
82.6432,325.3
82.7169,18
82.7367,538.5
82.796,198.5
82.8075,310
82.8376,89.1
82.8681,732.1
82.8693,410.8
82.907,140.4
82.9189,21.9
82.9385,88.9
82.9406,362.6
82.9447,16037.4
82.975,171.1
82.9964,90.9
83.0068,183.1
83.0161,404.6
83.0184,594.3
83.0215,148.6
83.0249,117.1
83.057,354.9
83.0854,30.5
83.0934,145.8
83.0952,99
83.1096,122.5
83.1104,21.9
83.1375,326.7
83.2088,19.7
83.2116,1051
83.217,112
83.2328,162.6
83.261,145.7
83.2704,374.8
83.2792,105.5
83.2801,35.6
83.3048,17.8
83.3101,114.9
83.311,19.7
83.3415,124.4
83.362,16
83.3667,280.7
83.371,413.7
83.3744,122.4
83.3762,103.7
83.3803,251.6
83.3904,251.7
83.3938,231.3
83.4099,115.2
83.4135,554.2
83.4575,270.6
83.4592,116.2
83.4668,17.9
83.4781,128.8
83.4845,269.2
83.4903,218.9
83.5447,141.1
83.582,142.4
83.5905,439.5
83.6167,379.1
83.6361,333.1
83.6598,106.6
83.6944,34.7
83.6968,284.2
83.7011,786.4
83.7382,416.5
83.7433,111.2
83.7621,282.8
83.7897,120.7
83.8028,87.4
83.8144,108.2
83.8258,18.3
83.8416,193.4
83.8528,325.8
83.8603,17.7
83.878,81.4
83.9155,217.5
83.9514,164.7
83.9647,117.6
83.9929,231.8
84.0198,27.9
84.0249,341.6
84.0258,29.2
84.0432,780.2
84.0443,645.8
84.07,97.8
84.0998,752.7
84.1103,807.7
84.1259,17.6
84.1493,453.5
84.1729,16.6
84.2111,79.1
84.2148,22.4
84.2426,330.9
84.246,258.3
84.2565,120.1
84.2698,110.2
84.2841,20.8
84.2899,265.5
84.2906,207.7
84.2932,220.1
84.3321,219.8
84.3384,101.7
84.3508,127.5
84.4014,82.6
84.4028,92.1
84.4087,19
84.4111,364.1
84.4255,601.5
84.4442,111.2
84.492,96.6
84.5227,353.9
84.5497,19.4
84.5508,330.2
84.5588,510.3
84.5644,298.6
84.5827,97.8
84.5864,93.9
84.6029,199.1
84.647,17.7
84.649,159.4
84.6505,31.2
84.6777,90.1
84.6833,480.6
84.6863,101.6
84.7011,541.7
84.7067,90.9
84.7118,365
84.7127,431.4
84.7149,338.9
84.724,19.6
84.7467,656.3
84.7558,679.2
84.758,98.5
84.7719,125.9
84.781,86.2
84.7941,16.5
84.8036,100.4
84.8196,81
84.8224,678.6
84.8524,138
84.8618,17.3
84.8684,134.3
84.8696,320.2
84.9012,156.9
84.9135,310.8
84.9566,16.7
84.9596,24821.4
85.0282,3877.6
85.0708,157.7
85.0781,136.9
85.0792,196.4
85.1339,150.5
85.1443,480.6
85.1569,423.5
85.2328,536.1
85.2843,709.2
85.2898,87.8
85.3811,272.9
85.3903,178.8
85.4156,16.3
85.4205,126.3
85.4505,85.9
85.4634,88.6
85.4664,203.1
85.4721,142.4
85.4924,16.7
85.4947,647.6
85.499,261.8
85.531,606.4
85.5357,18.6
85.544,136.7
85.6095,130.8
85.6109,310.4
85.6339,145.5
85.6763,135.4
85.6786,133.2
85.6805,91
85.7055,458.8
85.7079,328.7
85.7107,520.1
85.7129,30.9
85.7261,81.4
85.7295,609.8
85.7387,98
85.7523,111.1
85.7889,579.5
85.8114,387.5
85.8226,154.9
85.8833,83.8
85.9237,90
85.9328,76.5
85.948,271.9
86.0355,114.8
86.0396,23
86.0505,154.5
86.0599,38594.8
86.067,379.8
86.0684,27.5
86.0895,206.3
86.0963,109098.6
86.1091,483.2
86.1263,18.6
86.1496,92.8
86.1518,408.3
86.1676,147
86.1841,708.4
86.1926,266
86.2157,712.3
86.2306,17.4
86.2767,733.3
86.2939,277.2
86.2958,184.3
86.2993,313.6
86.3155,135.6
86.3277,140
86.336,285.5
86.3603,18.3
86.3915,240.2
86.4128,391.6
86.4279,134.9
86.4539,293
86.4584,16.9
86.4601,16.4
86.5138,83.9
86.5712,109.6
86.5778,318.7
86.5788,78.6
86.5886,324
86.6031,95.5
86.6199,116
86.6208,264.6
86.6457,18.6
86.6634,116.7
86.6777,302.8
86.6827,274.7
86.6841,668.2
86.698,295.2
86.7215,489
86.7291,460.5
86.7545,284.2
86.7998,302.3
86.8187,335.8
86.8269,475.5
86.8319,197.1
86.841,18.7
86.8635,685.4
86.8792,363.5
86.9052,364
86.9195,619.6
86.9527,152.6
86.9704,851.3
86.9814,725.2
86.9941,18.7
87.0089,129.4
87.0217,81.4
87.0298,307.3
87.0465,373.4
87.0473,313.3
87.0996,960.3
87.1485,173.9
87.1597,77.7
87.1646,293.2
87.2032,586
87.2101,175.1
87.241,127.2
87.2428,15.3
87.2431,15.1
87.2447,119.7
87.2484,174.9
87.2525,356.2
87.2642,668.1
87.271,340.4
87.3096,173
87.3362,94.7
87.3386,143.6
87.372,179.8
87.3821,235.3
87.385,427.3
87.4073,806.9
87.4214,124.3
87.4488,246
87.4521,502.1
87.4545,183.4
87.4583,515.5
87.516,142
87.5262,144.4
87.5623,124.7
87.5738,90.8
87.6542,549.9
87.6865,422.1
87.6893,852.5
87.6928,88.3
87.6982,376.1
87.7294,127.7
87.7364,110.1
87.7613,116.5
87.786,305.8
87.7921,133.7
87.7943,858.4
87.8028,328.9
87.8063,20.5
87.8132,203.2
87.8271,83.2
87.829,142
87.8811,270.6
87.8947,529.3
87.9334,274.5
87.9538,761.9
88.0392,9845.8
88.0482,337.4
88.0566,29.6
88.0625,17.3
88.0719,288.8
88.0788,691.2
88.0997,142
88.1053,305.8
88.1249,923.7
88.152,147.4
88.2009,126.9
88.297,417.8
88.3031,334.4
88.3116,81.3
88.331,393.4
88.3354,703
88.3639,101.8
88.3802,201.6
88.4018,281.1
88.4885,100.1
88.5202,76.3
88.5705,552.7
88.5897,119
88.592,310.9
88.6053,280.7
88.6118,19.5
88.6339,16.7
88.6418,461.4
88.6483,106.1
88.6873,114
88.6955,174.7
88.7592,370.8
88.7742,340.5
88.8204,123.3
88.8458,178.7
88.8653,18.2
88.866,342.6
88.8679,363.1
88.8865,17.2
88.902,148.7
88.9476,117
88.9524,81.2
88.9542,608.2
88.977,487.7
88.985,84.4
88.9973,120.7
89.0239,89.5
89.0261,16.5
89.0414,19.8
89.0667,810.8
89.0685,22.7
89.0883,20
89.0909,97.7
89.1095,106.1
89.1377,322.8
89.1434,89.5
89.1444,18.9
89.1462,348.5
89.1489,339.1
89.1692,125.7
89.1723,335.1
89.1937,129
89.201,103.8
89.2075,87.8
89.2091,19.8
89.2172,289.1
89.2271,23.5
89.232,295.9
89.2677,168.6
89.2975,147.7
89.3075,191.4
89.3127,17.1
89.3228,339.4
89.338,128.2
89.4056,388.3
89.4288,334.1
89.4771,331.8
89.4877,689.9
89.5091,308.5
89.5244,376.1
89.5608,244.7
89.5694,23.3
89.5832,292
89.6,398
89.6242,759.8
89.6521,234.6
89.6568,147.2
89.6776,155.3
89.7112,285.8
89.7222,408.8
89.7419,226.6
89.7498,204.3
89.7646,89.1
89.7895,113.2
89.7996,137.5
89.8071,105.9
89.8207,735.8
89.8385,88.7
89.8747,162.6
89.898,686.4
89.9609,29.1
89.9636,521.3
89.9798,423.3
90.0265,19.3
90.0598,156.3
90.1966,563.3
90.2567,132.4
90.3109,22.1
90.335,425.9
90.3371,20.4
90.3769,341.1
90.4128,660.4
90.4153,182.4
90.4195,346.5
90.4737,148.2
90.5023,29.5
90.509,136.9
90.511,289.5
90.5236,19.4
90.5557,223
90.5571,92.4
90.5776,17.2
90.5798,348.1
90.6289,24.4
90.638,29.1
90.6482,286.8
90.6509,18.4
90.6531,73.8
90.6657,135.2
90.6721,123.6
90.6847,684.4
90.6951,352.1
90.7165,128.5
90.7498,242.8
90.7514,322.7
90.7526,503.5
90.8239,758.2
90.8416,195.2
90.8431,576.6
90.8454,578.1
90.853,137.7
90.8731,689.8
90.8887,254.5
90.9035,350.4
90.9258,236.2
90.9476,4686.4
90.9565,19
90.9592,654
90.9765,8656.8
90.9876,95.6
90.9909,472.8
90.9997,159.9
91.0153,466.2
91.0226,133
91.0541,2349.4
91.0593,761.7
91.0596,946
91.0599,741
91.1292,146.4
91.1441,661.1
91.1486,247
91.1511,17.3
91.1573,17.8
91.1603,458.3
91.161,286.8
91.1724,91.6
91.1834,17.4
91.1928,146.5
91.2005,839.5
91.2538,100
91.2729,188.7
91.2733,242.9
91.2736,247.5
91.3001,309.2
91.3224,280.2
91.3253,150.7
91.3268,106.4
91.333,17.8
91.3426,175.7
91.3444,22.1
91.3738,270.8
91.3794,403
91.3876,176.4
91.3901,289.1
91.3939,147.2
91.4091,305.3
91.4102,994.4
91.4169,234.3
91.4599,546.9
91.4828,141.6
91.5127,398
91.5867,103.8
91.5918,154.6
91.5968,523.6
91.6511,168.2
91.6569,424.5
91.6683,104.4
91.7061,415
91.7868,91.7
91.8035,386.4
91.8711,17.8
91.9083,305.6
91.9189,529
91.9192,540
91.9493,132.1
91.9994,285.1
92.0279,143.5
92.0313,16.8
92.0324,338
92.0347,504.7
92.0494,194.4
92.0909,17.8
92.1393,345.5
92.198,300.7
92.2271,18.9
92.2313,300
92.2825,424.4
92.2914,17.6
92.314,137.9
92.3216,420.8
92.3506,28.9
92.3661,217
92.3937,352.2
92.3968,303.7
92.4196,141.2
92.4274,418.8
92.4645,230.9
92.4877,126.5
92.5193,780.3
92.5497,125.4
92.5623,268.8
92.5809,317.6
92.5873,660.4
92.6056,135
92.6242,124.8
92.6512,119.3
92.69,144.5
92.7376,814.5
92.7393,86.8
92.7479,153.2
92.7545,322.4
92.7638,149.8
92.8007,261.6
92.8583,101.9
92.8732,534.8
92.8857,280.9
92.8963,97.1
92.9017,317.2
92.967,122.2
92.9689,177.7
93.0097,99.8
93.0126,501.3
93.0254,751
93.0334,317.9
93.0369,140
93.0699,59.6
93.0724,266.3
93.083,18.8
93.1155,176.6
93.1158,221.7
93.1162,183.4
93.1261,712.1
93.1345,106.1
93.168,288.7
93.2464,17.2
93.258,377.7
93.3078,665.8
93.3451,117.7
93.3469,20.9
93.377,411.1
93.4107,484.8
93.4118,102.7
93.4129,37.9
93.4154,538.9
93.4198,130.3
93.4212,203.6
93.4248,132.6
93.4341,788.8
93.4453,306.6
93.4683,299.7
93.4733,181.6
93.4816,152.3
93.5461,359.4
93.5543,627.1
93.5599,227.1
93.5691,519.1
93.5744,17.7
93.5821,524.1
93.6018,78.6
93.6277,101
93.6524,101.9
93.6581,440.4
93.6911,123.5
93.7027,85.6
93.7267,118.9
93.7469,131
93.7965,18.1
93.8179,172
93.8192,148.4
93.837,99.9
93.8586,457.6
93.8825,267.6
93.8898,459.4
93.8957,206.2
93.926,143.1
93.9759,565
93.9769,243.2
93.9876,496.6
94.0401,42.8
94.0413,58624.9
94.0902,119.4
94.1154,105
94.1423,89.7
94.1821,105.1
94.2191,194.5
94.226,345.8
94.3091,252.4
94.3626,90.2
94.421,22
94.4299,450.2
94.4586,346.5
94.4601,16.1
94.4876,91.7
94.5078,337.2
94.5235,22.1
94.5468,123.3
94.5582,17.7
94.5606,308.8
94.5987,292.5
94.6039,106.8
94.6177,25.8
94.699,17.9
94.7223,93.4
94.7456,318.8
94.7763,465.7
94.7773,18.4
94.8009,89.9
94.8046,180.3
94.8171,631.6
94.8525,144.5
94.8557,94.3
94.8776,240.6
94.9448,91.4
94.9504,615.6
94.9832,624.2
94.9953,17
95.0446,1708.4
95.0456,25.2
95.0491,409707.2
95.0511,37
95.0618,618.4
95.0699,127.3
95.0748,291.6
95.0785,117.5
95.0854,865.1
95.0898,155.8
95.1083,86.8
95.1412,400.5
95.2618,309.7
95.2655,267.8
95.2819,307
95.2861,89.8
95.3321,19.3
95.3358,466.8
95.3425,345.2
95.3531,492
95.3985,594.8
95.4271,18.3
95.4316,120.8
95.472,92
95.5086,134.3
95.5121,523.9
95.5736,205.9
95.591,194.5
95.6137,529.5
95.6229,252.3
95.6582,211.1
95.6938,142
95.7008,134.8
95.7227,119.9
95.7931,465.7
95.7964,199.6
95.8413,476.6
95.8422,107.9
95.847,26.8
95.8614,118.7
95.8624,17.7
95.8669,142.5
95.8758,152.5
95.9369,108.9
95.943,248.5
95.9628,267.4
95.9633,261.4
95.9748,571.2
96.0014,84.1
96.0136,19.2
96.0257,138.5
96.0524,17785.5
96.0643,400.7
96.0886,18.6
96.1111,678.8
96.1219,539.4
96.1696,358.5
96.171,353.4
96.1908,128.1
96.1963,302.4
96.2195,255.5
96.2744,321
96.3006,17.7
96.3101,159.4
96.3447,421.7
96.417,100.1
96.4304,28.1
96.444,406.2
96.4542,207
96.4743,371.1
96.4768,159.7
96.4887,116.4
96.4947,26.7
96.5117,710.1
96.5129,80
96.5259,188.1
96.5389,20
96.5421,139.9
96.5634,620.8
96.5672,372.2
96.5695,537.6
96.5742,95
96.5884,21.8
96.6423,78.8
96.6576,133.5
96.6714,18.5
96.6731,218.5
96.6741,724.1
96.6908,17.4
96.7378,143.7
96.7453,139.1
96.786,110
96.7885,479.4
96.7916,84.1
96.8629,184.7
96.8766,150.9
96.8806,18.2
96.8828,33.7
96.8963,113.8
96.9086,379.6
96.9217,145800
96.9306,86.9
96.9375,115.5
96.963,329.1
96.9724,97.2
96.993,263.3
97.0036,144.9
97.0075,95.3
97.0106,36.5
97.0286,19
97.0391,562.9
97.0415,294.4
97.0534,186.9
97.0556,17.6
97.0564,77.6
97.101,20.6
97.1161,607.1
97.1203,34.9
97.1344,317
97.1522,107.6
97.1595,39.2
97.2118,98.5
97.2333,736.7
97.2571,496.9
97.2619,224.4
97.2841,84.2
97.294,16.9
97.369,309.6
97.3853,83.5
97.4468,402
97.4691,673.6
97.4706,98.2
97.4751,270.8
97.5156,78.2
97.5345,78.9
97.5646,815.6
97.5676,16.5
97.6028,457.3
97.6377,17.8
97.6565,94.8
97.6616,107.3
97.6627,549
97.7172,456.8
97.7221,191.9
97.7653,98.4
97.7821,105.1
97.8421,414.7
97.8472,133.6
97.8636,146.5
97.8768,604.7
97.9331,261.1
97.9466,269.5
97.9551,731.3
97.9669,20.6
97.9751,106.6
98.0026,18.4
98.0476,435.7
98.0671,433.8
98.1247,109.7
98.1522,144
98.2231,265.8
98.2266,146.7
98.2281,581.5
98.2643,16.8
98.2776,170.3
98.3309,100.6
98.3486,236
98.3526,649.5
98.3878,469.8
98.3969,275.1
98.4873,624.8
98.5139,464.3
98.5286,248.7
98.5489,431.1
98.5663,18.6
98.5812,411.3
98.664,110.6
98.7311,772.1
98.7983,17.9
98.861,310.4
98.8652,122.5
98.8685,348.4
98.886,93.7
98.9188,40320.1
98.9198,6890.3
98.9528,318.9
98.9753,24548.1
98.9841,56.5
99.0073,118.6
99.0126,27.6
99.0311,240.5
99.0354,90.3
99.0917,262.8
99.0948,111.7
99.1517,339.1
99.1541,190
99.1793,400.9
99.205,16.5
99.2361,561.8
99.2391,283.4
99.24,456.2
99.2841,391.6
99.2866,136.5
99.3057,189.3
99.3164,21
99.3379,139.6
99.3833,377.4
99.3854,93.2
99.3953,194.9
99.4251,325.1
99.432,326.9
99.4336,222.7
99.4478,85.8
99.4487,130.7
99.4748,404.5
99.49,231.3
99.4917,180.6
99.5033,97.8
99.5201,17.2
99.5358,152.9
99.5751,667.7
99.5823,579.6
99.5939,127.9
99.6055,123.5
99.6234,497
99.6369,1116.7
99.6661,101.7
99.6913,324.9
99.7046,165
99.72,30.4
99.728,222.7
99.759,372.9
99.7831,330.5
99.8326,348.2
99.8573,301.7
99.905,691.3
99.9075,118.9
99.9402,20.3
99.9623,365.3
99.9796,182.3
99.9893,157.4
100.049,102.7
100.0798,155.2
100.0871,17.6
100.0976,238.1
100.1052,89.2
100.1579,469.9
100.1835,633.8
100.2232,21.3
100.2523,761.5
100.2744,566.1
100.2859,224.7
100.3201,156.9
100.3324,621.1
100.3334,277.6
100.3611,16.7
100.3716,228.8
100.4056,385.1
100.4113,294.4
100.4277,592.5
100.4726,661.2
100.5008,132.6
100.5076,1019.1
100.521,181.3
100.5234,131.7
100.5604,104.7
100.594,20.4
100.6184,691.1
100.6286,121.3
100.6728,121.5
100.6859,17.9
100.724,116.3
100.7255,279.3
100.7333,145.5
100.7336,157.2
100.7495,764.1
100.8283,18
100.8323,666.2
100.8639,146.8
100.8863,489.8
100.9154,20.3
100.9169,1665.4
100.9688,43.3
100.9765,537.3
100.9781,394.7
101.0082,561.7
101.0471,2645.4
101.05,321.7
101.0532,418
101.0617,158.2
101.0655,17.3
101.0709,587.6
101.0876,635.7
101.1474,468.7
101.1974,19.4
101.2329,430.2
101.2373,112.6
101.2665,85.1
101.2703,439.2
101.3062,129.6
101.3262,566.9
101.3295,17.9
101.3348,707.3
101.4713,281.2
101.4804,112.3
101.489,719.6
101.4905,134.4
101.5057,308.6
101.5097,597.9
101.5304,457.9
101.5612,130.1
101.5819,105.7
101.587,683.4
101.6028,770.8
101.6074,559.8
101.7032,195.6
101.762,122.1
101.7672,20.3
101.7781,316.9
101.7807,88.4
101.7857,133.5
101.8106,117
101.873,868.5
101.8829,678.1
101.8936,138.3
101.9133,181.3
101.9239,78.8
101.9303,137.8
101.9637,279.3
101.9717,219.7
101.9828,358.3
101.9869,18.7
101.9995,186.1
102.0303,326.7
102.0468,158
102.0549,4523.1
102.0847,518
102.147,19.3
102.1518,152.4
102.2032,125.3
102.2531,84.8
102.2702,213.9
102.2976,511.9
102.3431,125.7
102.3928,92.2
102.4946,290.8
102.507,318.5
102.5148,189.6
102.5189,277
102.531,559.5
102.5483,78.1
102.5666,214.6
102.5983,289.8
102.6549,104.6
102.6705,324.6
102.6973,116.6
102.7604,297.5
102.7753,374.1
102.792,78.9
102.8019,417.1
102.8102,150.3
102.8459,140.4
102.8707,338.2
102.8862,123.6
102.9153,88.2
102.9169,331.9
102.9476,84.3
102.954,131
102.968,232.7
102.9703,447.3
103.0268,613.2
103.079,155.6
103.0872,354.9
103.1036,338.2
103.184,112.5
103.2091,357.3
103.2262,269.6
103.253,20.7
103.2617,95.4
103.2749,752.4
103.2983,770
103.3904,156.8
103.3986,491
103.4172,373.2
103.504,121.1
103.51,141.2
103.5544,83.5
103.5622,259.8
103.5699,143.4
103.5725,494.7
103.5759,112.6
103.5937,222.9
103.6328,16.8
103.6367,639.2
103.6494,86
103.6896,416.7
103.7032,664.1
103.7251,141.2
103.7489,419.4
103.8091,16.9
103.8115,371.3
103.8451,113.8
103.8514,120.2
103.8822,133.3
103.9122,105.2
103.917,17.4
103.9356,162.2
103.9793,362.8
103.9843,86.1
103.9862,91.2
104.0183,106.3
104.0316,134.1
104.0415,142.5
104.0624,309.3
104.0864,205.7
104.0959,153.7
104.107,450950
104.1122,326.4
104.1135,297.7
104.1179,80.3
104.1468,260.8
104.1667,456.1
104.1861,620
104.1901,29.3
104.2275,80.6
104.2456,169.7
104.2499,117.6
104.2655,17
104.3102,793.2
104.3292,147.8
104.3724,280
104.3889,18.1
104.4026,215
104.4088,84.5
104.4109,388
104.4889,279.6
104.4972,27.4
104.646,214.8
104.7425,577.1
104.7909,156.6
104.8054,125.3
104.8183,491.2
104.8402,342.9
104.8665,151.1
104.8791,478.4
104.8968,301.8
104.8989,177.2
104.9011,118.8
104.9112,191.4
104.9481,325.8
104.9634,6331.1
104.9841,215
104.9923,3147.6
105.002,115.6
105.0365,118
105.0405,577.2
105.0447,39521.9
105.0699,22.3
105.0908,227.7
105.1052,251.5
105.1103,15543.5
105.1134,145.9
105.1354,504.8
105.1394,132.4
105.2645,554.7
105.2747,292.6
105.2933,314.8
105.3147,103.4
105.3536,704.2
105.3638,20.2
105.3693,292.6
105.3852,115.2
105.4175,379.6
105.4281,323.6
105.4745,106.8
105.5492,89.1
105.5906,756.9
105.6111,439.7
105.6426,122.6
105.6866,138.3
105.7519,418.3
105.7644,166.3
105.7665,87.6
105.7728,125.5
105.7747,182.7
105.7762,92.6
105.8145,352.3
105.8377,30.1
105.8895,18.2
105.891,17.3
105.9121,141.3
105.9346,143.2
105.9641,120.1
106.0057,841.6
106.0221,80.9
106.0481,589.1
106.0651,32.6
106.1738,123.4
106.1799,19.4
106.2332,35.9
106.2498,130.7
106.2833,146.7
106.318,233.6
106.3285,114.2
106.3478,149.5
106.3655,149.5
106.3872,173.3
106.3964,352.4
106.4233,598.1
106.4259,484.4
106.4508,146.7
106.4798,719.5
106.4867,348.9
106.4974,220.8
106.5068,82.9
106.5391,228.3
106.5454,17.2
106.5628,155.6
106.5683,519.2
106.6111,130.3
106.6254,365.3
106.631,119.6
106.6446,99
106.6641,94.8
106.6707,443.6
106.683,86.3
106.7161,226.2
106.7934,27.7
106.8146,74.3
106.8692,156.8
106.8864,215.3
106.902,195.6
106.9196,297.9
106.9409,376.5
106.9435,93.3
106.9506,3537.1
106.953,458
106.9637,161.6
106.9965,247
107.0283,89.2
107.0398,87.9
107.0481,374.2
107.0492,1008.9
107.1239,264.9
107.1318,108.1
107.1338,805.7
107.1808,136.7
107.1821,139.2
107.2336,296.4
107.2423,288.4
107.2461,17.1
107.2723,256.9
107.274,416.7
107.294,145.1
107.3163,79.5
107.3191,672
107.3247,145.4
107.3267,18.6
107.3527,590.8
107.3704,659.9
107.4023,134.8
107.4136,85
107.4162,344.6
107.4278,336.3
107.4304,586.7
107.4605,113
107.4919,19.6
107.4976,760.2
107.5024,73.4
107.506,432.1
107.5111,283.9
107.522,289.4
107.5783,452.8
107.6415,115.4
107.6859,134.7
107.7521,250.5
107.7657,481.5
107.8444,195.5
107.8766,347.7
107.9121,18.7
107.9264,465.9
107.9287,187.9
107.9335,510.6
107.964,650.1
107.9723,218.6
108.0358,491.1
108.0631,736.1
108.1482,176.7
108.1776,163.7
108.1838,16.9
108.234,355.6
108.2376,17.5
108.2396,19.3
108.3446,171
108.3949,317.7
108.5396,100
108.5828,488.7
108.6153,18
108.6175,18.5
108.6514,280.6
108.6596,138.1
108.7092,365.6
108.7343,368.3
108.746,283.6
108.7639,115.6
108.779,555.5
108.8041,460.8
108.8313,16.1
108.8557,407.3
108.8668,19.8
108.9006,383.2
108.9016,102.8
108.9526,18
108.9584,139.3
109.0405,902.2
109.0616,89.3
109.0648,60796.4
109.0668,30.1
109.1011,20
109.103,102.8
109.1058,239.1
109.1866,120.6
109.2019,798.8
109.2877,481.1
109.2907,242.3
109.3541,20.7
109.3903,497.3
109.4026,87.4
109.4374,20
109.4792,259.6
109.4877,270.8
109.4991,20.9
109.5099,183.2
109.5399,122.3
109.5505,96
109.5843,231.3
109.6085,272.1
109.6321,668.7
109.6775,98.5
109.6976,617
109.7358,138.6
109.7461,427.6
109.7497,151.3
109.7783,100.2
109.7803,532.9
109.8218,421
109.8425,150.5
109.861,103.7
109.8693,112.6
109.8742,17.5
109.9035,214.7
109.9279,319
109.9368,136.8
109.9501,290.3
109.967,24.4
109.9702,243.7
109.976,284.1
109.9915,77.6
109.9989,26.9
110.0364,444
110.0682,1728.3
110.0712,623.2
110.1141,301.1
110.2352,212.8
110.2501,91
110.2514,300.5
110.2939,28.9
110.3195,125.4
110.3487,18.1
110.3724,213.3
110.382,419.1
110.3864,19.2
110.4129,329.1
110.4341,639
110.4545,82.8
110.541,874.9
110.5448,147.9
110.593,242.6
110.5999,250.4
110.6252,503.8
110.7193,134
110.7698,833.5
110.8041,477.5
110.812,123.4
110.9335,345.9
110.9567,625.7
110.9588,458.1
110.9644,122.2
111.0176,26.4
111.0233,272.4
111.0441,200.3
111.0804,20.9
111.1036,720.5
111.1209,535.5
111.1427,496.1
111.2207,428.3
111.2433,155
111.257,116
111.2661,242.9
111.2812,552.9
111.2942,542.1
111.33,17.2
111.3361,885.7
111.343,121.3
111.3546,724.8
111.3929,794.7
111.4039,145.4
111.4118,15.8
111.4445,310.1
111.4847,80.4
111.4992,26.3
111.5194,412
111.5213,323.8
111.5259,97.5
111.5773,305.6
111.5818,271.1
111.5861,20.6
111.6138,798.9
111.6362,145.3
111.6488,442.7
111.6596,135.8
111.6863,214.7
111.7142,17.5
111.7498,428.1
111.7629,585.2
111.7659,513
111.7738,185.8
111.7789,100.8
111.8509,153.1
111.8747,129
111.8907,142.2
111.9042,299.7
111.9296,30
111.9748,393
112.0252,153.7
112.0297,18.4
112.0876,534.9
112.0892,233.5
112.0995,238.8
112.1107,275.7
112.1205,17
112.1641,120.2
112.2062,121.1
112.2086,716.4
112.2454,337.3
112.2601,105.6
112.2655,278.4
112.2782,141.9
112.2798,231.7
112.2824,301.9
112.2854,554.4
112.3031,94
112.4697,236.2
112.4793,767
112.491,136.9
112.4998,89.6
112.5012,680.3
112.5023,18.3
112.5308,138.4
112.5528,423.3
112.5681,87.3
112.6585,123.5
112.7437,17.7
112.7491,74.2
112.7564,151.3
112.8289,252.2
112.8579,124.4
112.8929,474
112.8957,378805
112.9477,403.6
112.9533,297.7
112.9698,419.3
113.0002,506.8
113.0066,137.8
113.0093,233.1
113.047,16.9
113.0795,273.5
113.0836,304.7
113.1073,425.9
113.111,132.4
113.1199,81.4
113.1376,77.5
113.141,90.4
113.1594,705.3
113.1836,265.2
113.1922,359.8
113.2097,167
113.2114,787.7
113.2934,141.3
113.3408,420
113.4454,88.6
113.4617,316.2
113.4628,123
113.4685,115.1
113.507,179.6
113.5183,120.4
113.5636,720.9
113.5711,134.6
113.622,28.6
113.636,92.8
113.6694,18.8
113.697,385.1
113.7265,235.8
113.7553,640.5
113.7586,329.3
113.8265,112.4
113.8796,91.8
113.903,113.9
113.913,471.1
113.9638,43.2
113.9716,318.7
113.9768,19.3
113.984,19.9
113.9865,350.9
113.9931,17.9
114.026,161.7
114.0317,744.8
114.0456,366.2
114.055,54556.3
114.0591,457.4
114.0661,201.6
114.0743,319.1
114.0913,21.4
114.0959,243.9
114.1086,337
114.1743,255.2
114.207,463.9
114.2241,486.2
114.2774,135.9
114.2778,139.1
114.3258,340.5
114.4142,24.2
114.4783,304.2
114.5001,133.9
114.5409,175.3
114.5481,16.1
114.5656,165.8
114.577,161.5
114.5975,536.2
114.6185,113
114.647,18.9
114.6484,326.1
114.6718,167.8
114.7011,347
114.7343,501.6
114.7674,172.9
114.7939,481.6
114.8006,88.1
114.8681,748
114.8928,123385.3
114.9055,29.5
114.9229,320.5
114.9411,17.1
114.9464,98.9
114.9482,434.7
115.0241,493.6
115.0326,622.7
115.0526,18.9
115.0583,646.1
115.0865,411.6
115.2539,146.8
115.2646,93.5
115.3388,80.8
115.3521,134.7
115.3613,89.8
115.4261,116.9
115.4378,281.9
115.4611,32.2
115.4715,776.7
115.4894,608.9
115.507,27.7
115.5131,164.5
115.5185,398.5
115.5477,522.7
115.5843,16.6
115.6069,118.3
115.6134,480
115.6458,280
115.6545,683.5
115.6957,307.1
115.7342,105.1
115.741,559.9
115.7763,324
115.7884,438.3
115.8136,103.5
115.8236,237.4
115.8353,88
115.913,130
115.9467,107.7
115.9718,266.5
115.9793,941.4
116.0599,363.8
116.0706,4926.8
116.079,382.7
116.0893,143.7
116.1228,166.3
116.1963,168.8
116.2086,111.3
116.2141,218.9
116.3398,128
116.3727,25.8
116.4413,19.9
116.4652,380.3
116.4949,83.5
116.5214,159.6
116.5253,509.3
116.5594,257.5
116.568,395.1
116.5722,85.8
116.6089,86.1
116.6502,29.1
116.6797,101.9
116.7296,274.2
116.7496,601.7
116.7879,132.3
116.7907,33.1
116.8468,295.5
116.8726,252.6
116.8909,12404.6
116.8956,337.3
116.9167,413.8
116.923,25.7
116.9476,38.6
116.9633,221.8
116.9843,161.1
116.9859,3788.4
116.9923,272.7
117.046,257.2
117.0583,136.6
117.0701,119.7
117.1196,17.6
117.1358,278.5
117.1772,335.2
117.2073,164.3
117.2488,135.4
117.262,114.3
117.3092,127.7
117.3176,197.6
117.3531,18.4
117.3559,20
117.3663,336.2
117.4089,123.9
117.4948,105.3
117.5765,296.1
117.6872,234.9
117.6887,284
117.721,222.8
117.7238,151.7
117.7247,160.5
117.7561,91.5
117.7878,102
117.827,527.1
117.8365,140.7
117.8538,17.1
117.884,369.1
117.8922,91.6
117.9163,18.7
117.9458,53.1
117.9608,275
118.0572,279.4
118.0618,265
118.0664,111.8
118.0863,166.5
118.102,103
118.1279,480.6
118.1703,463.9
118.1716,1004.5
118.1995,855.4
118.2418,228.5
118.2944,729.1
118.3454,148.3
118.3969,494.2
118.4034,87
118.4635,139.4
118.5017,284.8
118.5153,317
118.5173,461
118.5381,98.4
118.5475,201.1
118.5875,361
118.6084,382.6
118.6802,370.1
118.6968,250.4
118.7029,159.5
118.7185,19.9
118.7235,370.7
118.7965,152.9
118.8258,236
118.8672,343.2
118.8779,500.7
118.922,718.6
118.9427,1067.3
118.9774,17.5
118.979,1259.8
118.9895,16.1
118.9938,376.8
119.0268,251.5
119.0726,488
119.0821,473.3
119.0854,19.9
119.0887,18.1
119.0932,104.4
119.116,16.2
119.1598,139.2
119.1742,269.7
119.1959,93.7
119.2283,309.2
119.2398,160.7
119.2774,288.2
119.2807,345.4
119.2942,546.4
119.3002,200.4
119.303,307.7
119.3289,230
119.4295,17.5
119.4572,385.2
119.4652,18.2
119.4915,100.6
119.5939,284.3
119.6005,307.6
119.6094,672.5
119.6958,17.8
119.7132,127.4
119.7485,18.1
119.7637,19.4
119.7906,98.6
119.8589,18.8
119.8652,253.3
119.8665,453.7
119.8883,282.5
119.91,22.7
119.9166,609.3
119.9405,564.5
119.9823,17.7
119.9834,136.7
120.0032,9507
120.0322,224.2
120.0401,397.6
120.053,315.9
120.0655,579.4
120.072,132.6
120.0785,635.9
120.0808,11274.7
120.1225,101.7
120.1421,18
120.1576,159.5
120.1816,125
120.2166,487.2
120.2273,101.9
120.2287,110.7
120.2614,286.3
120.2695,111.9
120.3088,681.9
120.318,20.3
120.326,520.9
120.3619,100.3
120.4119,20
120.4291,101.5
120.4509,136.5
120.4784,16.8
120.4832,357.6
120.5336,370.5
120.5448,18.2
120.5569,260.2
120.5674,494.3
120.5728,135.2
120.6158,86.5
120.6445,124.4
120.6846,21.3
120.718,149.3
120.7319,104.7
120.7826,496.1
120.7844,100.3
120.7919,301.2
120.8501,26.8
120.8548,461.8
120.8754,480.5
120.8811,392.9
120.8822,136.8
120.9261,150.5
120.9525,380
120.9622,18.8
120.9716,521.3
120.9795,120.8
120.9809,123.4
120.9937,99.6
121.0053,234.7
121.0077,298.7
121.0285,237.9
121.043,84
121.0826,403.8
121.0862,156.9
121.1012,342.9
121.1126,145.8
121.1215,527
121.1489,416.7
121.1579,83.9
121.1634,574
121.1935,688.9
121.2736,95.9
121.2989,126
121.3289,611.3
121.3469,494.7
121.4602,170.1
121.4693,116.2
121.4707,126.2
121.4904,148
121.5194,22.8
121.5251,76
121.536,80.5
121.6114,86.2
121.617,238
121.6725,282.7
121.7144,161.3
121.7544,448.3
121.7661,18.9
121.7774,163.1
121.8116,828.2
121.8318,361.3
121.8605,145.4
121.8708,309.4
121.9239,173.5
121.9731,271.8
122.0001,146.2
122.0219,322.2
122.0306,342.8
122.0706,106.2
122.0874,19.4
122.1017,21
122.1186,129.9
122.1644,340
122.2604,247.4
122.2764,528.1
122.3675,557
122.4134,88.5
122.517,621.4
122.5608,382.3
122.5646,88.3
122.5739,706.9
122.5815,517.9
122.5931,125.5
122.6456,128.5
122.6656,90.1
122.6687,90
122.8028,103.8
122.8617,28.5
122.8747,18.9
122.8907,366
122.9142,110.6
122.9246,17265.3
122.9296,26.9
122.974,212.7
123.0219,88.1
123.0509,534.7
123.0784,254.3
123.0806,25.5
123.0864,133.7
123.0938,112.9
123.1168,149
123.1563,262.2
123.1769,75.1
123.3067,255
123.3392,91
123.3684,373.4
123.3837,154.1
123.4307,137.8
123.4481,251.4
123.4515,94.5
123.5005,298.9
123.5123,103
123.5189,252.6
123.542,376.4
123.583,353.3
123.6097,287
123.6279,18.5
123.6777,18.5
123.6834,128.3
123.7684,20.4
123.8071,121.2
123.8336,846
123.8801,625.7
123.9061,322.8
123.9313,137.6
123.9345,174.3
123.9365,85.1
123.974,121.5
124.0367,190.2
124.0393,377.3
124.0546,18.1
124.0651,84.5
124.1122,19.6
124.1238,250.8
124.1409,106.1
124.1774,528.4
124.2595,232.8
124.2622,328
124.2714,144.5
124.2853,544.2
124.3109,111.7
124.3446,31.9
124.3534,213.7
124.3587,101.9
124.4532,125.6
124.4655,259.1
124.4941,130.3
124.5098,378.3
124.6806,155.1
124.6837,179.3
124.6894,755.4
124.7481,163.7
124.7518,80.5
124.7681,106
124.8258,18.3
124.891,129.9
124.9209,115.3
124.9227,1496.2
124.9429,157.2
124.9528,16.6
124.9723,375.6
124.9789,312.9
124.9803,490
124.9833,246.1
124.9855,112.1
124.9999,4854
125.0056,1086.4
125.0277,447
125.0389,231.8
125.0597,50.7
125.0737,332.2
125.1307,268.3
125.2211,234.4
125.2254,180.1
125.237,217
125.2387,676.3
125.2754,273
125.3041,165.9
125.3282,152.5
125.404,18.2
125.4089,19.9
125.4226,17.8
125.4612,176.2
125.4744,134.8
125.4919,336.3
125.5001,150.2
125.5404,318.4
125.5495,493.6
125.5751,18.5
125.5863,16.9
125.593,157.6
125.6517,274.7
125.7025,513.6
125.7043,256.4
125.7062,102
125.8316,83.8
125.8587,619.8
125.8812,777.5
125.8973,164.3
125.9261,16.7
125.9606,131.1
125.9845,127.5
126.0002,176.8
126.0416,249.1
126.0432,449.1
126.0636,385.2
126.0647,158.5
126.0996,278.6
126.101,763.4
126.1131,218.6
126.1289,214.4
126.1505,163.4
126.1757,329.1
126.2437,94.4
126.2454,515.9
126.3341,341.5
126.3415,18.2
126.3504,313.1
126.4225,353.7
126.4483,179.6
126.4646,685.2
126.4696,269.5
126.4843,383.1
126.5588,573.6
126.5716,522.6
126.593,83.6
126.6547,169.1
126.673,16.5
126.6922,17.5
126.784,124.3
126.8369,391.8
126.8708,827.5
126.9067,538.8
126.9149,756.6
126.9668,20.6
127.0444,129.5
127.0479,696.3
127.0752,152.6
127.0797,89.1
127.1077,142.5
127.1215,539.8
127.1331,18.6
127.1875,91.3
127.1956,20.7
127.2791,94.3
127.3066,518.3
127.3184,325.5
127.3495,223.9
127.4083,345.3
127.4131,24.6
127.4493,161.3
127.5034,454.4
127.5406,487.7
127.5463,154.5
127.5506,245.4
127.6007,77.1
127.6619,25
127.6685,86.6
127.7819,125
127.8214,360.6
127.8299,662
127.8381,130.9
127.8832,592.5
127.8934,104.2
127.9398,97.1
127.9457,284.9
127.9746,19.4
127.9794,25.7
127.9841,150.3
128.0018,121.8
128.0157,57.1
128.0389,17.2
128.0838,441
128.0991,343
128.1188,295.1
128.13,276.2
128.2017,832.5
128.2906,114
128.3587,76.7
128.367,87.4
128.4088,829.4
128.4164,357.9
128.5262,499.1
128.5312,36.1
128.5433,596.1
128.555,473.7
128.5647,86.3
128.5709,95.5
128.5793,800.5
128.5958,135.7
128.6423,87.1
128.677,141
128.6823,544.6
128.7487,285.9
128.7568,375.1
128.7647,235.8
128.8588,90.4
128.8865,107.5
128.9084,413.5
128.9148,183.2
128.9199,317.6
128.9224,257.7
128.9639,402.4
128.9852,20.2
129.0034,1597.1
129.0455,601.4
129.0605,151.1
129.0781,15.9
129.1023,1594.7
129.1109,538.5
129.1258,572.4
129.1651,272.2
129.1757,344.4
129.2334,33.7
129.2522,288.3
129.351,132.4
129.3627,119.6
129.4003,581.2
129.4918,90.3
129.4991,585.5
129.5086,17.5
129.5243,272.4
129.528,140
129.5731,580.6
129.6106,388
129.64,86.9
129.7141,445.4
129.757,375.7
129.7665,695.1
129.8095,369.8
129.8113,164.5
129.9159,308.8
129.9286,127.7
129.9344,23.2
129.9439,119.3
129.9587,202.1
129.9951,259
130.0033,98.9
130.0253,434.9
130.0389,148.9
130.0499,6220.2
130.133,97.4
130.1901,104.7
130.2482,381.2
130.2514,293.6
130.2681,406.3
130.3261,18.3
130.4866,546.7
130.491,615.7
130.4968,205.6
130.5833,160.7
130.6045,144.8
130.6357,123.2
130.6479,308.2
130.7521,246
130.7601,756.9
130.7645,358.7
130.7699,82.1
130.7971,186.1
130.8015,323.9
130.803,286.6
130.8691,252.3
130.9211,142.1
130.9366,140.7
130.9631,24.5
130.979,71.3
131.0002,235.1
131.0037,206.9
131.0244,678.5
131.0612,213.8
131.0732,226.3
131.1389,133.5
131.1785,605.7
131.1876,844.5
131.2311,81.1
131.2389,136.7
131.2439,93
131.2467,549.5
131.2487,77
131.2544,490.7
131.2842,18.8
131.3117,97.2
131.3166,230.3
131.3552,800.1
131.3837,275
131.3959,234.1
131.4272,389.1
131.4682,269.2
131.4847,147.1
131.5084,309.2
131.5192,323.9
131.6145,18.2
131.6959,773.4
131.7191,219.1
131.8058,115.2
131.8086,152.2
131.8312,571.1
131.8391,21.5
131.861,271.1
131.8808,139.1
131.8816,129.5
131.8898,778.2
131.8947,96.6
131.8978,652
131.9111,146.1
131.9391,408.9
131.9602,40.4
132.0033,28118.4
132.0465,952.6
132.0656,93765.1
132.0769,4694
132.085,20.8
132.1018,332.1
132.1216,88.3
132.1546,135.8
132.2358,289.7
132.2886,133.1
132.2909,154.7
132.3367,144.3
132.4364,726.2
132.449,912.9
132.499,709
132.5539,155.7
132.6484,163.3
132.7046,670.3
132.7252,132.3
132.8212,17.4
132.831,283.6
132.856,96.5
132.9356,568.5
132.9384,411.5
132.9513,799.6
132.9583,1872.6
132.9695,59.8
132.9709,118.6
132.9873,4605.2
132.9957,43.4
133.0114,19.1
133.0501,115.7
133.069,3277.2
133.0972,18656.2
133.1022,110.2
133.1307,432.3
133.1597,382.5
133.1796,1027.7
133.2233,19
133.2825,20.7
133.3362,143.3
133.3577,16.8
133.3603,112.2
133.3756,155.6
133.4034,27.8
133.4875,19.7
133.5435,389.7
133.5954,107.9
133.6676,677.2
133.7152,140.4
133.7307,168.6
133.7669,642
133.8754,148
133.9034,145.5
133.9533,18.8
133.9781,251.8
133.9815,46.2
133.9893,214.1
133.9942,111.7
134.019,16026.8
134.0698,153.2
134.1177,350.1
134.1191,686.1
134.1234,28
134.1366,726.4
134.1507,112.1
134.1669,154.7
134.2432,511.2
134.3152,17.3
134.3685,183.9
134.3945,533.3
134.4223,81
134.4385,801.2
134.4629,97.7
134.4791,133.4
134.5167,140.4
134.5389,244.8
134.5449,306.7
134.5588,113.5
134.5784,539.4
134.6441,587.6
134.7206,95
134.755,132.3
134.7692,23.3
134.7997,28.2
134.8183,185.6
134.832,103.4
134.8383,260.6
134.8482,117.5
134.888,223.5
134.8967,355.8
134.9165,336.8
134.974,95.8
134.9893,263.4
134.9967,22.4
135.003,111051.5
135.0092,356.2
135.0553,83.4
135.065,209.2
135.1169,129.2
135.1403,579.9
135.1796,117
135.2397,768
135.2464,340.9
135.2567,112.8
135.2971,135.7
135.347,339.3
135.3568,241.9
135.4233,19.6
135.5104,529.3
135.5173,155.6
135.5502,138.7
135.663,118
135.6673,467.9
135.7039,646.3
135.7062,627.1
135.7741,303
135.7747,320.4
135.7805,100.3
135.7918,476.9
135.7984,99.3
135.8617,308.6
135.9772,3609.1
136.0062,1267.2
136.025,21
136.0482,8672
136.0617,22.3
136.0758,8533.9
136.1103,338.3
136.1192,82.8
136.162,319.6
136.2084,112.8
136.2229,366.7
136.2321,525.1
136.2346,462.3
136.2785,19.6
136.301,123.3
136.3129,260.9
136.3181,179.3
136.3627,138.1
136.3758,136.4
136.4198,267.4
136.4721,27.1
136.5821,189.4
136.5953,789.8
136.6015,277.7
136.6105,949.9
136.6845,274.4
136.7134,109.4
136.7303,91.3
136.7758,325.3
136.8062,20.3
136.8529,392.8
136.8841,96.8
136.8973,440.4
136.9079,501.4
136.9312,1485.4
136.9533,326
136.9684,201.1
136.9897,104.2
137.0158,164
137.0306,93
137.0636,335.1
137.0919,564.2
137.1131,362
137.1855,290.7
137.2008,313.4
137.2333,93.7
137.2357,338.6
137.24,326.2
137.3007,127.8
137.319,167
137.3299,106.2
137.3533,157.6
137.3749,136.5
137.3795,309.6
137.3847,95.9
137.4196,122.2
137.4415,140.5
137.4745,378.7
137.4984,418.1
137.5024,182
137.5888,145.8
137.6102,193.5
137.6608,20.7
137.6793,175.2
137.6964,871.8
137.735,17.6
137.7705,78.4
137.8522,204.1
137.8914,251.6
137.8954,364.9
137.9525,472.2
137.9975,100
138.0473,135.2
138.0527,3966
138.0673,711.6
138.1054,155.8
138.1432,85.9
138.1623,405.3
138.1678,1011.2
138.1875,134
138.2391,342.2
138.2508,101.5
138.2783,404
138.3003,121
138.3176,370.9
138.3271,383.1
138.3355,401.3
138.3449,808.9
138.3614,30.9
138.3659,698.2
138.3751,100.1
138.3863,336.4
138.3908,485.3
138.4264,110.7
138.4587,111.9
138.4649,213.6
138.5122,18.7
138.5818,132.5
138.5889,488.1
138.6058,31.2
138.6481,449.8
138.6737,340.2
138.8099,477.8
138.8707,95.8
138.9066,3261
138.9186,16.4
139.0231,128
139.0265,429.7
139.068,90.7
139.0801,374
139.1492,390.7
139.1745,129
139.1929,245.8
139.2096,383.3
139.3625,184.6
139.4035,654.6
139.4042,686.8
139.4245,725.9
139.435,93.4
139.4407,751.3
139.4425,127.6
139.4735,242.7
139.5156,145.2
139.5277,144.5
139.5645,19.9
139.5883,253.2
139.6866,187.5
139.7088,153.7
139.7292,574.1
139.754,284
139.7721,687.1
139.8057,98.8
139.8102,87.4
139.8167,365.1
139.8733,346.1
139.8782,202.6
139.8851,244
139.8877,84
139.9218,320.2
139.9295,101.4
139.9796,23.7
139.9942,326.4
139.9985,503.9
140.0001,20.6
140.0166,5424.7
140.0683,1629
140.0824,230
140.1226,173.7
140.1595,254
140.1651,105.2
140.1978,86.2
140.2367,673.7
140.2607,435.6
140.2758,151.8
140.32,18.9
140.3222,97.6
140.4019,237
140.4752,26.4
140.6364,545.6
140.7043,115.7
140.7208,249.8
140.7901,79.3
140.8493,17.2
140.8537,427.4
140.9036,1321.7
140.9681,363.3
140.9824,265.1
141.0006,16084
141.0199,230.5
141.0941,28.6
141.1048,107.7
141.1098,402.4
141.1319,18.2
141.1757,95
141.1998,103
141.2205,137.1
141.242,281.4
141.2583,159.9
141.2956,118.6
141.3273,416.7
141.3996,363.2
141.4021,364.6
141.4149,655
141.4351,96.7
141.481,312.4
141.6187,216.9
141.6293,108.9
141.6403,425
141.7134,165.9
141.7834,320.1
141.7867,111.7
141.8146,212.7
141.9951,276
142.0039,370.7
142.0124,74.6
142.0157,30.5
142.0179,872.5
142.0292,265
142.0304,448
142.0807,271.1
142.1229,21.6
142.1634,73.4
142.1954,78.5
142.2844,910.4
142.316,114.2
142.3215,84.4
142.3566,288.1
142.4265,31.6
142.4451,152.3
142.4721,90
142.5024,490
142.5196,95.1
142.6322,155.3
142.6647,130.1
142.7136,262.5
142.719,179.4
142.7264,82.7
142.7404,120.4
142.7652,141.8
142.7817,153.8
142.8166,221.1
142.8222,143.5
142.8247,149
142.8765,164.2
142.8982,311
142.9382,20
142.9504,93.9
142.9964,215.4
143.0192,1871.3
143.0313,835.4
143.0719,387.6
143.0816,506
143.1114,138.4
143.1484,171
143.219,110.4
143.2677,89.6
143.3917,141.5
143.4224,250.5
143.4525,309.3
143.4766,20.8
143.6026,18.3
143.6096,356.3
143.6607,22.5
143.8783,30.8
143.9534,557.6
143.9695,124.2
143.9798,170.4
143.9914,454.3
143.9969,578.7
144.0028,288.4
144.0059,323.4
144.0108,1148.6
144.0187,112.5
144.0338,257.3
144.0582,709.7
144.0603,172
144.0619,681.7
144.0774,298
144.0822,103.8
144.0932,395.7
144.1647,105
144.1697,408.1
144.1779,506.5
144.1793,549.1
144.2116,106.3
144.2872,131.8
144.306,16.3
144.3134,19.4
144.4188,500.2
144.4843,134.1
144.5451,134.6
144.5586,136
144.64,434.3
144.6889,643.9
144.7261,109.8
144.7293,323.7
144.7319,17.7
144.7418,87.6
144.7497,18.6
144.7898,230.3
144.7941,411.5
144.8181,27.5
144.853,314.1
144.9488,378.3
144.9607,495.9
144.9625,121.5
144.981,6750.7
144.9947,27.1
145.0158,31.9
145.0684,307.7
145.0988,475.7
145.1493,32.5
145.1974,380.1
145.2769,273
145.3282,129.1
145.3497,145
145.4338,19.7
145.5424,280.4
145.6683,564.9
145.6928,624.5
145.7121,572.6
145.7294,796.6
145.7894,474.3
145.8489,152.4
145.8515,286.8
145.8576,271.3
145.8593,356.4
145.8886,225
145.9473,96.1
145.9548,529
145.9584,34.2
145.9651,304.1
145.9937,573.1
146.003,338.7
146.0126,2791.5
146.019,17597.8
146.0265,203.9
146.0498,112
146.0711,667.9
146.09,539.5
146.1555,581.9
146.1841,84.9
146.2187,134.9
146.2303,805.2
146.2518,18.5
146.3716,19.3
146.3792,368.5
146.4293,303.7
146.4348,449.7
146.4556,137.6
146.4615,486.5
146.4662,248.7
146.471,488.5
146.4966,148.2
146.5705,553.1
146.5731,283.4
146.6492,91.6
146.6599,30.7
146.6633,341.7
146.679,479.5
146.688,91.9
146.7206,227.1
146.7588,77
146.8408,127
146.845,383.5
146.8892,603.9
146.8992,359.8
146.9033,81.9
146.9054,47
146.9741,36.3
146.9819,110043.8
147.0271,646.1
147.0422,144.1
147.0766,51042.1
147.0837,138.1
147.113,23836.7
147.1168,333
147.1395,114.8
147.1541,122.7
147.1902,79
147.2226,203
147.2304,406.3
147.2365,410.2
147.2529,346
147.2671,341.2
147.2801,573.8
147.3479,20.3
147.3852,153.7
147.3872,320.3
147.4631,88.4
147.467,990.7
147.5188,156.7
147.554,89.4
147.5596,18.3
147.5759,452.3
147.6182,245.7
147.6697,19.8
147.7138,17.7
147.846,676
147.8614,458.6
147.8665,95.9
147.8695,352.3
147.8983,30.1
147.9571,113.1
147.9613,163.8
147.9772,819.3
148.0762,391.9
148.0799,737.7
148.0896,194.6
148.1001,133.1
148.1123,52.1
148.131,449.2
148.1474,91.7
148.1662,126.2
148.182,30.2
148.192,202.5
148.1947,323.9
148.2921,308.9
148.3526,25.1
148.372,141.6
148.3812,21.3
148.3864,106.3
148.4521,272.4
148.4901,222.3
148.5324,4001
148.5544,344.8
148.5929,149.2
148.6205,158.2
148.6231,242.5
148.6334,16.9
148.6973,224.1
148.7036,554.5
148.7286,331.2
148.7352,416
148.8375,268
148.8569,96.3
148.8879,134.1
148.8938,220.5
148.8962,28.6
148.9007,29.6
148.9033,498.4
148.9312,126.4
148.944,395.7
148.9613,4314.9
148.9645,202.8
148.9884,893.9
148.989,744.9
149.0026,68.1
149.0188,2580.1
149.0235,4943
149.0706,243.7
149.0736,721.4
149.1039,656.6
149.1221,176.6
149.1324,20.2
149.1457,217.3
149.1848,168
149.2043,19.5
149.2061,18.6
149.2609,546
149.2706,168.2
149.3051,17.7
149.4053,130.8
149.4302,100.2
149.4706,100
149.4929,435.8
149.543,17.4
149.566,114.5
149.6318,648.7
149.6493,80.4
149.6785,222
149.7341,77.1
149.8641,81.9
149.8845,203.3
149.892,102.8
149.911,19.5
149.9275,246.8
149.937,35.3
149.9783,93.5
149.9874,82.8
149.993,11012.9
150.0139,8946.1
150.1245,373.4
150.1776,445.4
150.19,98.7
150.2398,99.8
150.2446,325.3
150.308,126.8
150.3574,359.8
150.3887,295.4
150.4721,93.8
150.496,19.7
150.5001,252
150.6216,20.4
150.6493,117
150.6583,82
150.6636,19.4
150.7068,454.2
150.7349,95.4
150.7553,449
150.8267,433.2
150.9183,23
150.969,136.9
150.977,66617.6
150.9843,6105.4
151.0479,3652.2
151.3741,315
151.4536,102.7
151.4595,17.5
151.5689,310.3
151.6206,352.2
151.6319,277
151.6492,17.1
151.7049,211.5
151.7164,374.9
151.7188,107.1
151.731,131.4
151.9107,20.3
151.9564,369.5
151.9846,51.7
151.9877,216.5
151.9939,92.2
152.0222,8128.3
152.0319,3442.3
152.0677,668.7
152.0789,25.8
152.0937,326.1
152.1015,82.3
152.1141,23.1
152.1854,260.8
152.1989,736.3
152.3008,630.8
152.4147,123.5
152.5053,124
152.5092,116.6
152.5267,78.1
152.5968,99.9
152.6146,138.9
152.7143,80.5
152.7269,726.7
152.7389,654.6
152.8384,16.7
152.8542,127.9
152.8836,132
152.9123,122.7
152.9156,116.4
152.965,20.7
152.9673,304
152.9734,22
152.9751,1762
152.9847,33.1
153.0199,420
153.055,234.1
153.0786,77.7
153.0959,302
153.1715,100.7
153.2195,155.4
153.284,737.4
153.4124,95.7
153.5407,103.3
153.5574,637.8
153.6116,316.3
153.615,411.5
153.6587,351.1
153.6879,231.6
153.7132,116.4
153.7449,380.2
153.7682,577.9
153.8975,19.3
153.9094,454.9
153.9342,243.5
153.9388,224.3
153.9847,216.5
154.011,296.6
154.052,132.8
154.0589,7057.1
154.0772,114.2
154.0836,185.7
154.2236,710
154.2524,122.3
154.2536,121.2
154.2762,743.2
154.3102,18.2
154.3388,744.1
154.3448,138.9
154.3601,294.4
154.3963,277.5
154.4006,20.4
154.4032,209.7
154.4081,16.9
154.42,295.6
154.4271,20
154.4294,20.8
154.444,270.7
154.4493,373.9
154.5074,190.8
154.5539,19.8
154.6678,314.4
154.683,29.4
154.7024,323
154.8115,83.5
154.8467,555.7
154.9077,50
154.9418,843.3
154.9647,230.4
154.9694,355.3
154.9958,30
154.999,682.8
155.0041,300.1
155.0404,106.4
155.0428,903.6
155.0542,2682.5
155.0794,1546.4
155.1079,126.2
155.1142,627.9
155.1773,455.8
155.2499,635.3
155.2563,200.2
155.3135,276.7
155.3651,98
155.4367,738.3
155.4412,138.6
155.469,581.7
155.4839,100.8
155.4861,154.7
155.4917,305.1
155.5813,677
155.5995,476.4
155.6122,345.3
155.6945,680.2
155.7507,279.1
155.7761,15.8
155.826,418.4
155.9096,115
155.9206,17.1
155.95,73
155.9548,74.6
156.0209,215.6
156.0269,113.2
156.03,132.2
156.0341,773.7
156.039,286.5
156.0424,2015.3
156.0575,24.8
156.0656,124.1
156.0769,40453.3
156.0883,275.7
156.1426,558.6
156.2023,17.5
156.2047,615.6
156.4428,21.1
156.4712,179.2
156.5067,788.9
156.5282,244.5
156.56,129.3
156.5833,107
156.5929,132.4
156.6166,531.1
156.6572,19.6
156.6881,150.8
156.7651,105.1
156.8385,152.8
156.8775,379.6
156.9,26.3
156.9344,883.8
156.9545,127.5
157.0061,68.5
157.0671,486.5
157.0802,930.7
157.0971,59.5
157.1002,427.1
157.1195,158.9
157.1644,296.1
157.1959,365.5
157.2038,637
157.2217,310
157.2559,191.4
157.3009,309.7
157.312,84.4
157.3485,221.5
157.3554,266.2
157.3899,122.1
157.4299,134.8
157.4507,548.4
157.4572,129.5
157.4624,92.7
157.4913,718.4
157.5377,94.5
157.6378,139.2
157.6418,231
157.7084,517.5
157.7465,270.7
157.8331,158.4
157.8594,364.7
157.9023,359.7
157.9118,144.7
157.9812,582.5
158.0128,245.6
158.0273,3420.3
158.0603,266.2
158.1267,89.6
158.15,135.7
158.1526,287.3
158.2234,293.2
158.2432,631.8
158.2595,91
158.2717,102.2
158.3331,93.5
158.3897,128.1
158.4572,21.3
158.4632,313.2
158.5167,22.7
158.5234,128.2
158.6069,271.4
158.6289,95.3
158.6941,118.9
158.7542,303.3
158.8373,137.3
158.85,476.2
158.8641,206.3
158.9222,328.7
158.9278,1710
158.9418,165.9
158.9643,10785.8
158.974,17.6
158.9826,129.7
158.9967,14920.5
159.0306,105.3
159.048,142.1
159.0538,349.1
159.0687,143.1
159.1407,98.5
159.1828,341.7
159.2917,111.4
159.3373,86.1
159.3638,152.5
159.5391,129.9
159.547,368.3
159.5877,285.1
159.638,476
159.6433,17.3
159.6688,246.9
159.7239,126.4
159.7394,177.7
159.7564,142
159.7776,511.3
159.7869,104.9
159.7985,454.7
159.8531,164
159.8624,316.8
159.8706,127.6
159.8955,246.8
159.9295,298.5
159.9428,551.5
159.97,23.7
159.983,126.6
160.0196,135
160.0229,48.2
160.0347,14762.9
160.0607,106929.1
160.1516,127.4
160.1987,96.1
160.2138,91.6
160.2279,22.2
160.2328,158.7
160.2416,585.4
160.2684,552.8
160.3297,679
160.3341,198.8
160.3555,173.2
160.3599,111.5
160.3872,756.9
160.4226,738.4
160.599,130.8
160.6087,147.6
160.6422,317.1
160.6821,349.2
160.7021,143.9
160.7511,99.6
160.7737,19
160.8264,90.2
160.8444,542.3
160.855,129.5
160.8677,79
160.8812,368.6
160.9646,25.2
160.9924,186.2
161.0189,942.6
161.047,530.5
161.064,4356.6
161.1086,101.8
161.1156,108
161.1285,403.7
161.1327,353.2
161.1905,549.3
161.1928,373.2
161.2033,18.4
161.2145,28.9
161.234,280.5
161.2967,152.4
161.3058,347.2
161.3113,472.8
161.3346,392.2
161.3471,161.5
161.3496,731.8
161.3608,760.1
161.4278,139.4
161.4511,138.6
161.4616,463.4
161.5044,215.6
161.5216,339
161.5299,119.3
161.5829,537.8
161.6216,586.7
161.6419,218.2
161.7289,595.7
161.7586,630.6
161.8011,364.4
161.8251,171.3
161.865,332.3
161.8826,102
161.9381,75.7
161.94,340
161.9425,544.2
161.9899,89.3
162.0324,18.5
162.0504,19741.3
162.0853,217.4
162.1041,115.2
162.1126,499.8
162.1245,84.2
162.1815,232.4
162.2453,183.7
162.2652,282.7
162.3065,177.4
162.337,75.8
162.3743,109
162.4148,103.1
162.4418,416.5
162.4478,797.3
162.4726,642.6
162.5335,671.2
162.554,145.3
162.7384,21.4
162.838,80
162.8753,23.2
162.8778,343.8
162.9285,87
162.9367,156.9
162.9559,945.2
162.97,165.7
162.9928,24.8
163.0156,2599.2
163.0343,732.7
163.0452,233
163.1334,136.6
163.2055,472.7
163.3419,89.7
163.3456,777.1
163.3729,167.1
163.4197,457.2
163.4264,288
163.4603,135.4
163.5205,183.8
163.5669,125.4
163.6284,615.1
163.6302,769.2
163.648,127.5
163.6772,334.5
163.7127,111.8
163.7435,551.5
163.8208,134.8
163.8584,82.4
163.8855,64.5
163.9997,108.7
164.0086,443.4
164.0233,177.4
164.0296,18015.5
164.067,126.6
164.1671,145.8
164.1756,304.9
164.1921,146.1
164.2886,108.7
164.291,603.2
164.3867,102.6
164.447,17.7
164.5076,106.9
164.5102,84.2
164.5497,27.4
164.5915,106.1
164.6034,517.9
164.6133,133.4
164.6441,283.1
164.6857,754.7
164.758,225.5
164.7763,90.1
164.781,438
164.9129,346.2
164.9151,126.7
164.9208,4231.3
164.9303,15495.8
164.9354,1698
164.9847,46.8
164.9928,1026.1
164.996,54.9
165,617.3
165.0549,18.8
165.0924,140.9
165.1218,18.8
165.145,18.1
165.148,293.7
165.1597,118.7
165.2347,963.4
165.2594,94.9
165.2613,22.2
165.2862,30.9
165.3342,319.3
165.3837,396.9
165.4809,38.5
165.6455,16.9
165.6973,296.9
165.7035,109.2
165.7669,108.2
165.8196,105.1
165.8861,22.5
165.8919,312
165.8976,927.8
165.9635,123.3
165.9669,1816.6
165.9789,2217.7
165.988,7516.3
165.9953,2209.5
166.006,79.1
166.087,115.2
166.1022,20.6
166.1114,370.5
166.126,79.7
166.1421,167.7
166.1935,17.3
166.2265,107.7
166.2596,133.8
166.3123,287.6
166.3838,162.4
166.4321,94.4
166.4578,504
166.5032,815.7
166.5088,88.4
166.5197,346.7
166.526,105.5
166.5941,96.8
166.6865,136
166.7989,224.1
166.8432,554.7
166.946,24.7
166.951,21513.7
166.9631,2003.6
166.9794,80.4
166.9914,18.6
166.9985,111.5
167.0004,119.5
167.0055,94.4
167.0101,289.2
167.0163,27.3
167.022,5293
167.038,21.8
167.0702,19.4
167.1116,20.4
167.1845,141.9
167.2462,270.7
167.2679,105.1
167.28,941.5
167.2945,740.3
167.3171,101.4
167.3204,321.8
167.3598,23.7
167.3935,80.5
167.6189,115.9
167.6754,498.6
167.758,30.2
167.8534,101
167.8844,138.6
167.9232,31.1
167.9319,19.9
167.9644,410.3
167.9948,2717.3
168.0059,482.3
168.0272,193.2
168.074,139.3
168.0808,682.8
168.0867,414.9
168.1427,108.9
168.1466,550.9
168.2038,140.9
168.2154,20.3
168.2221,304.1
168.2438,314
168.2451,326.2
168.2876,284.5
168.3628,463.5
168.3784,337.1
168.4687,104.1
168.5418,21.3
168.5448,432.4
168.6019,274.1
168.6167,168.1
168.6329,248
168.6481,538.9
168.6741,820.5
168.7578,534.2
168.7812,118.2
168.8228,390.4
168.8432,22.5
168.9015,125.6
168.9254,60.5
168.9377,271.2
168.9449,221.9
168.9492,1063.1
168.9777,394.7
168.993,421.9
169.0012,142.7
169.0586,62481.7
169.0655,989.5
169.0765,287.9
169.0848,291.7
169.095,1627.3
169.1934,156.2
169.3731,116.6
169.3741,121.6
169.3905,90.8
169.4037,18.4
169.4086,87.1
169.4605,236.2
169.466,434.2
169.5046,338.7
169.5103,271
169.7143,511.8
169.7527,364.5
169.7691,515.7
169.7866,591.5
169.8163,78.7
169.8523,92.3
169.8681,409.7
169.9128,346
169.9175,492.9
169.9827,406.5
169.9861,2211.9
169.991,31.9
170.0256,450.7
170.0329,9379.4
170.0413,212.6
170.0527,21.9
170.0591,120
170.0619,1401.9
170.0837,217.6
170.0927,13361.6
170.1241,621.9
170.2517,80.5
170.2638,185.4
170.2814,100.3
170.4111,173.7
170.483,102.1
170.5377,466.8
170.6162,93.8
170.6339,287.2
170.6512,531.8
170.7056,587.9
170.7183,211.8
170.738,590.6
170.8072,278.4
170.8299,354
170.8336,140.4
170.8546,3643.4
170.8863,94.1
170.8979,304.3
170.908,614.4
170.9144,165.2
170.947,720
170.9652,19.8
170.9926,511.5
171.0166,394.2
171.0217,109.4
171.0281,40.6
171.2337,74
171.2481,92.5
171.3008,158.2
171.3161,487.1
171.3378,17.4
171.43,414.1
171.53,220.8
171.5498,546.4
171.5674,21.5
171.5717,239.2
171.667,749.6
171.7429,143.2
171.7539,88.2
171.7826,794.5
171.8221,669.9
171.847,135.8
171.8531,104.4
171.8768,230.7
171.9266,116.4
171.9819,470
172.0238,497.1
172.0285,1779.1
172.0311,440.6
172.0672,672.9
172.089,489
172.1117,362
172.1205,107
172.1344,120.9
172.1962,788.3
172.2075,706.6
172.2234,356.1
172.2297,87.7
172.2387,17.2
172.2732,371.1
172.2838,463.9
172.2944,541.5
172.3222,476.4
172.3245,92.6
172.3573,19
172.3737,586.7
172.3767,146.8
172.3885,129.9
172.407,121
172.4724,89.5
172.5033,140.4
172.5314,241
172.5742,27.4
172.596,491.3
172.6349,413.8
172.8516,2167
172.859,312.3
172.8995,22.1
173.0186,270
173.027,272.5
173.0872,21.3
173.1286,350
173.1605,20.3
173.2266,566.3
173.2327,149.7
173.3647,20.9
173.4003,319.3
173.4673,276.7
173.4893,89.1
173.5252,210.8
173.5829,124.1
173.6057,91.3
173.6815,298.5
173.6907,323.5
173.7417,114.5
173.8095,533.3
173.8514,351.8
173.8701,117.3
173.8751,492.6
174.0008,53.4
174.0133,80.1
174.0181,133.5
174.0303,17.1
174.039,648.3
174.0503,363.9
174.1155,312.1
174.1212,155.6
174.2115,104.9
174.2205,108.6
174.2827,159.4
174.3031,104.4
174.4972,121.9
174.5088,143
174.5643,101.1
174.5664,19.3
174.5952,31.1
174.6114,178.8
174.6321,372
174.6789,85
174.689,245.1
174.7112,107.8
174.7337,131.1
174.7849,322.3
174.8394,835.9
174.8982,357.8
174.9005,223.1
174.9241,18
174.9289,121.9
174.9383,2455.2
174.9691,990.9
174.9892,123.7
174.9928,23.1
175.0054,40.4
175.0207,61.1
175.0345,13147.4
175.0457,1682.6
175.0592,183.3
175.0949,112.7
175.109,123.9
175.1193,80147.4
175.1633,387.2
175.2198,18.9
175.234,280.8
175.2484,77.7
175.3244,18
175.4425,589.5
175.4539,123.2
175.5113,201.1
175.6185,80.6
175.6597,656.4
175.6721,443.1
175.7237,97
175.7815,381
175.8539,93.4
175.882,104.8
175.9195,508.2
175.9756,132.8
176.0009,488.8
176.0044,964.1
176.0087,7554.2
176.0409,1969.3
176.0661,26762.1
176.0829,115.8
176.1034,371
176.1079,95.6
176.1226,879.9
176.3268,298.9
176.3394,450.8
176.3582,284.2
176.3681,20.8
176.372,125.3
176.4092,426.8
176.4155,17.7
176.4543,78.6
176.5692,139
176.6267,379.3
176.7942,638.5
176.8635,243.4
176.894,351
176.9336,25.7
176.9358,148.8
176.9454,409.3
176.9927,1787.7
177.0111,22.8
177.0249,3523.7
177.0614,7067.8
177.0723,451.7
177.0872,113.3
177.1165,94
177.1545,124.8
177.2345,520
177.2772,167.7
177.4826,96.7
177.5053,80.2
177.5625,311.6
177.5847,195.3
177.5963,196.5
177.6998,237.8
177.7108,21.1
177.9559,319.7
177.9685,518.2
177.9714,151.6
177.9912,19.4
178.009,9441.5
178.0165,135.2
178.0244,11067.6
178.0589,4591.4
178.1754,102.8
178.2188,157.2
178.2323,529.9
178.2849,95.5
178.3206,370.7
178.388,754.9
178.3953,235
178.4715,381.5
178.4872,322.1
178.7261,339.5
178.752,858.8
178.8005,111.7
178.8053,255.4
178.8543,662.6
178.8642,93.5
178.8932,74.2
178.9143,280.7
178.922,73.3
178.9514,347.4
178.9644,381.1
179.0007,88.3
179.003,86.8
179.0986,371.6
179.2489,292.8
179.3032,83.9
179.3062,369.9
179.31,26.8
179.3458,213.8
179.3707,17.4
179.4338,18.6
179.4422,514.8
179.5394,136.8
179.5714,358.8
179.5778,659.7
179.5973,86.4
179.6354,95.2
179.6904,244.6
179.7621,804.8
179.778,19.1
179.7846,228.1
179.7948,569.8
179.8117,225.4
179.8915,48.6
179.8976,914.2
179.9145,762.8
179.9791,120
179.9842,691.7
179.9879,195.9
179.9956,20.4
180.0037,12213.1
180.0108,206.9
180.043,19.4
180.0855,137.9
180.0984,246.5
180.1157,83
180.1729,151.5
180.2961,531.8
180.4197,653.3
180.4768,106
180.4789,582.4
180.5838,286.3
180.5948,93
180.6608,95.5
180.7121,243.1
180.7232,541.3
180.8885,1323.8
180.8947,2050.3
180.9043,9446.9
180.9576,2341.1
180.9883,347.8
181.0162,58.9
181.0436,395.5
181.0651,9441.9
181.2156,20.4
181.2285,367.3
181.4547,19.1
181.4836,85.6
181.513,205
181.5383,143.2
181.9043,483
181.9216,138
181.9513,311.3
181.9622,487.9
181.9661,19.4
182.0114,59.4
182.0427,31282.8
182.0572,186.2
182.2331,358.8
182.3809,271.4
182.3857,79.8
182.3944,135.6
182.4316,178.4
182.4658,90.8
182.5093,266.4
182.5532,134.1
182.6319,123.7
182.7815,253.7
182.8004,303.2
182.8214,79.5
182.8414,365
182.9029,27.3
182.9216,19.2
182.9411,28.6
182.9533,22.6
182.9588,78.4
183.0008,473.4
183.0072,505.3
183.0356,170
183.0447,1221.8
183.0983,88.4
183.1318,259.4
183.2185,121.7
183.2564,164.2
183.3444,499.1
183.4165,155.2
183.4647,547.2
183.4734,923.7
183.4789,113.9
183.5274,911.1
183.5662,427.2
183.5752,81.8
183.5838,232
183.6218,724.3
183.6351,18.4
183.657,18.5
183.6722,19.2
183.7555,28.4
183.8406,515.5
183.8433,395.5
183.9458,90.8
183.965,1883.8
183.9847,289.2
183.9931,96.8
184.0128,95.5
184.0376,254.6
184.0737,4314204.5
184.0799,541.5
184.0822,321.9
184.0857,374.9
184.0948,576.3
184.1825,1807
184.2448,90.7
184.2555,229.7
184.3109,479.3
184.3151,480.2
184.3195,161
184.3453,134.9
184.3862,100.2
184.43,284.6
184.4632,85.7
184.5743,677.2
184.5773,90.1
184.5987,133.2
184.6256,276.3
184.6403,842
184.7058,96.1
184.7136,134.3
184.7282,527.9
184.8185,131.4
184.8636,177
184.867,110.9
184.93,46.3
184.9898,420.4
185.0326,56907.4
185.04,638.5
185.048,935.3
185.0598,358.5
185.0644,662.3
185.0706,8178
185.077,194666.1
185.08,2301
185.0906,89.3
185.1635,689.9
185.3986,233.5
185.4883,86.1
185.5184,85.1
185.5225,279.4
185.5742,104
185.7566,21.7
185.8982,150.9
185.9602,1199.5
185.973,16.5
185.9854,507
186.0358,1420.3
186.066,84
186.0779,25317.6
186.1239,213.2
186.2842,141
186.3344,232.2
186.3745,17.1
186.4111,361.7
186.5047,154.1
186.5527,397.4
186.5557,289.4
186.5649,223.6
186.5677,91.9
186.5766,294.2
186.6353,151
186.6713,193.4
186.7538,172
186.7737,101.8
186.8061,655.8
186.8322,98.6
186.8786,105.5
186.9122,4660.6
186.9784,323.1
187.0308,384.4
187.0581,11147.6
187.0716,1503.3
187.0784,30.9
187.1081,1747.2
187.1253,110
187.276,205
187.2836,111.6
187.3427,184.6
187.3466,252.7
187.3527,114.4
187.3787,307.4
187.3819,119.6
187.4132,850.7
187.4645,290
187.6836,134.8
187.8135,437.9
187.9137,517.2
187.9445,167.6
187.9707,439.9
187.99,300.1
188.0712,453.8
188.0831,120.2
188.1937,98.5
188.2256,225.2
188.2639,17.3
188.275,76.8
188.2852,656.7
188.3232,573.2
188.4156,109.5
188.4728,465.1
188.4805,685.1
188.5362,16.8
188.5641,125.7
188.5773,425.4
188.5812,152.2
188.5917,103.4
188.6155,124.5
188.628,156.3
188.6439,457.3
188.8774,18.8
188.925,19.2
189.0072,707.6
189.0181,552.1
189.0214,95
189.0614,2090.7
189.066,124.6
189.0873,6894.7
189.1237,870.7
189.1822,804.9
189.203,120.7
189.2191,544.1
189.3171,95.1
189.3635,508.5
189.3783,127.9
189.4304,394.4
189.561,99.9
189.6089,289
189.6253,213.4
189.6928,324.1
189.7844,288.5
189.8096,21.1
189.8757,24.9
189.9134,290.2
189.9288,37.7
190.107,542.9
190.2098,655.5
190.2738,398.4
190.2811,562.1
190.4613,733.3
190.4915,561.7
190.55,332.8
190.5625,98.2
190.6247,126.3
190.6659,665.4
190.712,335.7
190.7499,578.3
190.7839,333.7
190.8018,302.3
190.8413,16.9
190.8728,961.4
190.8983,131.8
190.9038,122.5
190.9098,43.3
190.9124,1198.4
190.9447,19.6
190.9542,764.7
191.0005,194.6
191.0085,8278.6
191.0242,85.3
191.0407,147566.4
191.0771,26645.6
191.0966,98
191.103,120.7
191.2749,332.8
191.3507,279.4
191.5617,476.6
191.6785,72.7
191.6868,21.1
191.7162,701.9
191.7681,151.1
191.8178,77
191.8184,76.9
191.8809,52.8
191.919,147.5
191.983,1192.7
192.0148,524.9
192.0401,13916.5
192.044,5949.5
192.0479,253.9
192.0785,105.2
192.2438,292.3
192.2547,327
192.2853,235.6
192.2958,456.4
192.3689,325.1
192.4268,600.5
192.5317,318.7
192.6337,771.4
192.7909,142
192.8438,295.6
192.8714,24.2
192.911,149.9
192.9617,422.9
192.9803,531.5
192.9989,2659.3
193.0162,297.9
193.0183,134.1
193.0352,1536.8
193.0522,81.4
193.0583,171.4
193.1133,211.9
193.1713,554.1
193.2145,113.6
193.2761,150.1
193.2849,504.6
193.3151,174.8
193.3352,19.6
193.4665,150
193.5151,299.2
193.5783,94.4
193.5842,17.9
193.695,33.5
193.8518,321.6
193.8975,264.8
193.9805,365.5
193.9984,1675.3
194.0097,481.2
194.0157,271.8
194.033,1460.4
194.1003,221.7
194.1082,222.6
194.1543,52.3
194.2124,186.3
194.2174,270.1
194.2374,121.2
194.273,461.6
194.3161,297.9
194.3467,168.8
194.3685,355.3
194.3806,93.3
194.4152,265.1
194.4203,106.5
194.4517,542.1
194.4597,443.2
194.5178,224.7
194.709,16.6
194.7178,138.6
194.7896,180.4
194.8465,651.7
194.862,231.2
194.9042,458.4
194.9156,530
194.9662,385.7
194.9977,26.4
195.0116,93.5
195.0797,416.2
195.0877,24.2
195.1972,301.8
195.2368,86
195.2512,20.6
195.3076,108.4
195.3111,99.1
195.3251,139
195.4916,113.3
195.5211,292.4
195.5665,140.2
195.5728,142.9
195.7562,236.9
195.7681,94.5
195.8003,313.9
195.8312,81.7
195.8412,101.5
195.8727,131
195.8787,117.3
195.9512,26.4
195.9558,30.4
195.9778,920.2
195.989,469.1
196.014,116.7
196.0419,138.9
196.0604,108.9
196.0795,438.3
196.1361,97.8
196.1654,460.9
196.17,248.7
196.2172,136.5
196.2364,402.4
196.278,555.5
196.2949,849.7
196.3196,489.9
196.3309,104.2
196.341,86.5
196.3734,199.9
196.5074,87.4
196.5333,364.4
196.5423,81.6
196.6003,116.5
196.6857,274.8
196.6901,438.6
196.6951,316.3
196.8483,83.6
196.8655,6015
196.8783,1803.5
196.9327,331.9
196.9495,87.9
196.9729,110
197.0081,120.8
197.016,22.7
197.0506,719.8
197.0599,348.8
197.1014,2007
197.1421,28.6
197.1957,89.2
197.217,597.7
197.2332,457.1
197.2479,146.3
197.4423,152.1
197.469,431.8
197.5169,137.5
197.5953,20.7
197.72,198
197.7329,108.1
197.7617,450.6
197.7951,374.1
197.8192,132.2
197.8349,113.2
197.8913,33.7
197.8979,274.9
197.8992,293.9
197.9322,127
197.9437,408.6
198.0078,306.5
198.0853,7728.7
198.1278,561.5
198.1381,312.1
198.1637,429.3
198.1857,4413.2
198.2651,85.5
198.2981,261.1
198.4031,102.4
198.4084,17.9
198.5098,19.5
198.5624,686.9
198.6028,232.8
198.6752,358.7
198.7054,433.4
198.7452,286.9
198.7704,134.5
198.855,43.9
198.8626,5561.9
198.8718,728.8
198.8782,637
198.8921,188.9
198.9003,52
198.9204,146.1
198.9741,21.7
198.9911,120.8
198.997,759.1
199.017,470.4
199.0395,137.6
199.0758,1952.3
199.0889,589.2
199.1186,120.8
199.189,192.8
199.2257,279.3
199.3832,116.1
199.3879,529.9
199.4318,280.2
199.4515,18.7
199.4723,85.3
199.6023,314.8
199.6162,118
199.6284,76.9
199.6415,92
199.6596,99.3
199.6683,741.2
199.7074,496.3
199.7721,20
199.7762,603.4
199.9277,107.5
199.9459,185.7
199.9485,305.3
199.9773,617
199.9911,26977.4
200.0271,7897.5
200.0411,17239.5
200.0446,690
200.0707,142.1
200.0794,104.7
200.1257,180.1
200.1769,139.6
200.2321,110.8
200.2783,546.5
200.3449,465
200.3663,269.9
200.3807,142.6
200.3933,537.5
200.5897,917.1
200.6976,144.6
200.7355,21.3
200.8491,280
200.854,17.5
200.8596,1469.7
200.8837,19.1
200.8945,3111.9
200.9864,145.4
201.0459,19.9
201.055,153
201.08,16.7
201.0873,59.5
201.1096,353.5
201.1785,542
201.224,534.6
201.2623,682
201.3256,593.3
201.4074,21.9
201.4114,533.8
201.4838,215.9
201.5111,22.4
201.5222,102.5
201.5743,85
201.6184,144.8
201.6575,99.5
201.7078,579.4
201.865,373.4
201.8767,96.6
201.8949,99.8
201.9124,396.9
201.9341,346.6
201.9961,50.5
202.0165,177
202.0259,747.6
202.0965,21.2
202.1665,521.5
202.2621,514.7
202.297,365.6
202.306,17.7
202.3374,115.8
202.4139,340.2
202.4188,19760.7
202.4772,234.3
202.4855,18.3
202.5405,112.8
202.5726,18.9
202.8733,83.1
202.8783,805.3
202.8828,267.5
202.8956,79.7
202.9151,223.1
203.0321,5341.1
203.053,2034973.4
203.0771,8182
203.081,125.9
203.0963,17.6
203.1203,107.8
203.1719,832.4
203.1785,632.7
203.2041,550.9
203.2114,168.5
203.2536,102.4
203.2987,109
203.3045,598.3
203.3358,859.3
203.343,469.9
203.4515,666.1
203.5088,150.7
203.5375,147.9
203.5405,205.5
203.5492,105.3
203.5944,194.6
203.5988,19
203.723,865
203.7959,223.5
203.8093,804.5
203.8888,22.3
203.9459,21
203.9512,203.8
204.0005,625.7
204.0248,39041.7
204.0321,200.7
204.0563,112492.7
204.077,95.3
204.1166,141.9
204.1959,100.3
204.2163,383.2
204.2413,82.5
204.3144,583.4
204.3796,84
204.4187,90.2
204.4359,1069.9
204.4463,18.4
204.4698,475.5
204.6,301.8
204.6749,513.7
204.687,95.3
204.6976,96.4
204.7163,20
204.8492,23.1
204.8537,118.6
204.8732,78.2
204.8797,491.1
204.8847,19.8
204.889,2112.8
204.9413,937.5
204.9623,98.5
204.9651,380.9
204.9951,19
205.0096,442.5
205.015,450.4
205.028,206.5
205.0402,21.6
205.0573,17013.8
205.0684,440.7
205.0732,227.7
205.084,17.7
205.0976,293.1
205.1037,493
205.1109,93.4
205.1569,588.3
205.19,18.8
205.223,734.5
205.4947,17.7
205.5404,138.4
205.5849,407.1
205.5964,317.8
205.6472,389.8
205.7101,122.9
205.7606,376.8
205.817,115.2
205.8812,24
205.8892,109.8
205.9154,117.2
206.0277,22.5
206.0478,253.3
206.0556,774.6
206.0602,19.4
206.2281,31.9
206.2893,159.7
206.3501,138.6
206.4254,98.8
206.5405,281
206.5713,116.7
206.5897,418.2
206.6049,501.8
206.6588,87.1
206.6794,149
206.6947,134.7
206.7126,117
206.7316,113.4
206.7379,83
206.7847,263.2
206.8183,109.4
206.8523,227.1
206.8886,603.5
206.8943,18501.4
206.9113,145.6
206.9172,394.7
206.9824,3921.8
206.9909,211
206.9981,181.1
207.0147,89109.9
207.0259,383.2
207.0318,86.7
207.0445,1003.9
207.0511,12432.4
207.0602,123.1
207.0836,23.1
207.1241,597.1
207.1646,486.7
207.1798,538.6
207.2114,19.1
207.2631,98.2
207.2852,123.9
207.3066,439.1
207.3443,99.9
207.4281,481
207.4288,468.9
207.544,84.8
207.6299,305.1
207.7011,796.2
207.7898,82.4
207.794,462.9
207.798,104.6
207.8135,17
207.8372,598.3
207.8787,149.6
207.8866,120.2
207.9161,17.9
207.9314,18
207.9911,2030.9
208.0105,359.9
208.0141,1317
208.018,3411.9
208.1699,820.7
208.2158,214.3
208.2289,177.6
208.2385,475.8
208.4089,148.4
208.4752,81.2
208.4832,116.3
208.4884,245
208.4977,959.2
208.543,331.5
208.6394,87.2
208.7427,19.9
208.7691,145.8
208.8489,83.3
208.871,18.4
208.8835,2669.7
208.8914,13101.3
208.9137,229.5
208.9201,21.1
208.9357,1541.1
208.9872,86.1
208.9955,106.4
209.0129,3191.4
209.1139,276.7
209.1419,238.7
209.1528,153.8
209.1756,85.7
209.2882,236.5
209.5046,413.7
209.608,102.4
209.7531,20.4
209.8839,24.8
210.8145,222.3
210.8841,26.1
210.8886,645.8
210.936,474.5
210.9481,409.3
210.9589,84.6
211.0157,101.3
211.0567,232.9
211.0696,753.9
211.0904,11115.1
211.0981,31236.3
211.1005,29455.6
211.1025,33607.2
211.1065,19491.2
211.2275,436.7
211.2701,352.2
211.3098,134.2
211.37,102.1
211.4267,97.2
211.4319,102.5
211.5688,86.1
211.6095,18.3
211.6368,357.2
211.6581,18.9
211.6614,281
211.7035,219.9
211.7447,140.8
211.8442,208.2
211.9354,18
211.9385,21.4
211.9465,19.5
211.9592,20
211.9678,423.1
211.9722,17
211.9847,134.7
211.9998,18.4
212.0244,519.9
212.0309,233.3
212.0602,406.2
212.0746,143.3
212.1778,120.9
212.2801,325.4
212.3386,18.7
212.347,178.2
212.3941,286.9
212.4321,593.1
212.5154,292.2
212.5354,328.9
212.6234,303.1
212.6827,155.9
212.7804,803.7
212.8394,1468.6
212.854,129.3
212.9722,130.4
212.9808,16
213.033,21.3
213.0556,533.6
213.0752,1574.6
213.16,114.2
213.3061,129.9
213.4267,30
213.5761,774.4
213.622,581.9
213.7201,122
213.7446,152
213.7618,16.7
213.7725,852
213.8097,96.5
213.8587,155
213.9624,3492.3
213.9851,191.3
213.9928,395
214.0066,786
214.0117,474.6
214.0592,6757
214.07,193.6
214.09,870.6
214.2738,939
214.2873,17.2
214.2995,363.2
214.3513,786.3
214.4793,788.3
214.5249,293.1
214.5414,97.5
214.5714,217
214.6028,186.6
214.6771,132.4
214.7136,119.4
214.7187,93.1
214.8365,2189.4
214.8589,21.1
214.8739,282.3
214.9019,132.8
214.9104,617.3
214.9181,1673.4
214.9285,101.3
214.962,18.1
214.966,80.6
214.9763,154.1
215.0125,360.8
215.0933,28.7
215.1375,108.5
215.1984,176.5
215.2356,539.1
215.247,563.3
215.345,666.6
215.3611,568.4
215.5847,398.8
215.8741,33.3
215.881,29
215.9102,32.9
215.9161,262.6
215.9264,443.4
215.9377,324.8
215.9988,130.3
216.0151,8765.8
216.0221,82.5
216.0275,122
216.0855,30.8
216.1063,30.1
216.133,479.8
216.3073,93.1
216.3146,110.2
216.3336,512.9
216.4317,106.3
216.5445,507.5
216.56,147.5
216.6325,89.9
216.6488,139
216.7897,98
216.8336,415.3
216.8721,704.9
216.8893,63.7
216.9159,309.8
216.9232,47803
216.9585,19.3
216.9755,251.4
216.9816,19.3
217.0275,701.1
217.057,78.6
217.1333,127.7
217.1479,318.3
217.1844,1024.6
217.2227,29.4
217.2414,355.7
217.3441,319.3
217.3993,634.2
217.5235,249
217.5501,138.4
217.6908,204
217.741,412.5
217.7719,289.4
217.9225,16.8
217.9711,474.3
217.9747,219.1
218.0027,129.5
218.1537,119.3
218.1768,409.5
218.1967,544.5
218.2416,571.1
218.4061,16.9
218.4292,107.6
218.4724,102.4
218.4822,17.1
218.5727,890
218.6005,21.8
218.7602,697.9
218.868,377.9
218.9048,789.3
218.9203,12635.9
219.0182,1063.4
219.027,1915266.5
219.0462,309.5
219.0776,138.1
219.0832,9376.4
219.1043,697.5
219.2233,96.6
219.327,800
219.562,244.4
219.6316,225.4
219.6564,89.3
219.7888,111.7
219.8631,18.2
219.9051,83
219.9188,93.1
219.933,19.8
219.9982,350.3
220.006,22.2
220.0111,473.4
220.0303,103442.1
220.0373,1321.7
220.0412,20.1
220.0673,8385.7
220.1037,19.3
220.1407,269.9
220.1676,371.9
220.2406,145.6
220.2984,585.8
220.385,596.1
220.4437,384.3
220.4984,472.1
220.7327,287.7
220.8841,198.8
220.9041,70.4
220.9236,165.9
220.9331,62
220.9556,211.3
220.9773,274.9
220.9997,102.7
221.0053,282.8
221.0251,117362.6
221.0313,17066.1
221.0515,110.6
221.0663,502.5
221.0845,852.9
221.101,136.4
221.1254,85.3
221.1767,133.3
221.1861,541.9
221.1989,691.8
221.25,859.7
221.2711,161.3
221.2791,579.2
221.3086,425.7
221.3172,88.5
221.3441,23.7
221.3641,463.1
221.5486,84
221.561,645.5
221.6301,130.1
221.7037,289.6
221.754,112
221.902,29.8
221.9566,179
221.9839,1867.9
222.0084,443.9
222.0285,3621.6
222.1128,112.6
222.1288,381.9
222.1845,136.3
222.1976,372.2
222.3077,140.8
222.3353,430.5
222.3379,89.6
222.4612,141
222.4799,123
222.675,100.3
222.8683,12971.2
222.8795,425.2
222.8892,465.1
222.8991,953.3
222.9543,1689.8
222.9887,10489.3
223.0248,1533.9
223.0647,18.4
223.162,472.3
223.1914,140.2
223.3194,244.3
223.5039,274.4
223.5413,540.1
223.633,96.6
223.6504,109.2
223.6615,669.8
223.6836,124.4
223.7165,296.6
223.8712,21.7
223.8825,18
223.9014,18.6
223.9532,51.3
224.0299,1004.6
224.1121,415.5
224.2456,133.5
224.3499,18.7
224.3794,20.3
224.5025,217.2
224.5824,31.1
224.6816,138.1
224.7409,761.9
224.8116,141.7
224.856,80.2
224.8654,7974.8
224.8765,105.9
224.8988,139.2
224.9279,176.9
224.9341,19.2
224.9567,22.2
225.0171,655.2
225.0239,76.3
225.0352,649.2
225.0551,25790.9
225.0853,477
225.1634,147.2
225.1856,619.9
225.3181,499.5
225.474,523.3
225.5274,319.8
225.5426,140.6
225.5766,104.3
225.6785,19.6
225.731,725.7
225.7843,590.6
225.8045,93.4
225.8089,212.6
225.8903,286.6
225.8968,192.8
225.9067,106.6
225.9658,150.6
226.002,603.9
226.0066,1640.1
226.0246,6680.4
226.0455,9128.7
226.0501,112
226.0781,126.4
226.1464,18.8
226.399,98.5
226.4649,208.6
226.4985,19.5
226.5055,307.8
226.514,16.9
226.5534,363.4
226.6054,249.1
226.6519,267.9
226.7177,345.4
226.7484,144.8
226.8621,500
226.8692,122.7
226.8792,23.9
226.894,71.7
226.9221,576.9
226.935,286
226.952,37823.9
226.9822,392.4
227.0322,781.9
227.0535,125.4
227.0797,911
227.0868,106.4
227.1241,20.7
227.1319,22.6
227.1539,108.7
227.2321,283
227.2653,168.6
227.3023,20.2
227.3525,99
227.4653,167.8
227.4917,367
227.753,135
227.8149,104.4
227.8645,247.1
227.9184,20.3
227.9301,99.5
227.962,324.3
227.9968,300.4
228.0008,113.1
228.0571,454
228.0885,17.8
228.1005,303.5
228.1346,242.9
228.2708,21.4
228.3306,28.8
228.3569,117.9
228.3619,241.9
228.3942,256.3
228.4112,163.3
228.4506,88.2
228.4785,116.5
228.7143,111
228.7229,22.9
228.8135,525
228.8167,710.8
228.8893,103.7
228.9614,257.4
228.9765,773
229.0048,212.7
229.0097,130.8
229.0187,186.6
229.1086,166.3
229.1405,115.5
229.3098,528.6
229.3757,96.6
229.3904,36.1
229.5132,286.4
229.6056,105.3
229.6202,343.6
229.707,436.3
229.7399,19.9
229.7781,161.2
229.7948,379.5
229.8422,379.5
229.8509,211.3
229.8971,23
229.9307,493.8
229.9574,10012.9
229.963,30.8
229.999,18.3
230.0338,104.2
230.0693,30.4
230.0959,99.4
230.1175,144.6
230.2984,160.1
230.3168,130.8
230.3987,84.7
230.4583,143.1
230.512,152.7
230.742,307
230.8679,59.7
230.8904,595.1
230.8937,785
230.902,276.3
230.9551,16.9
230.9607,376
230.9908,23.9
231.0079,83.1
231.0109,264
231.0561,151.1
231.1142,20.3
231.1979,818.5
231.253,708.3
231.4271,19.8
231.5228,544
231.58,179.5
231.7358,746.3
231.7483,21.2
231.8054,295.3
231.8181,217.9
231.913,61.3
231.9531,264.9
231.9579,371.2
231.962,25.6
231.9714,611.5
231.9804,170.3
231.9959,40.4
232.1286,102.1
232.2121,102.3
232.2135,110.7
232.2152,121.5
232.22,227.5
232.3156,621.8
232.3452,262.5
232.3941,246.8
232.4087,20.9
232.4204,19
232.4305,324.3
232.4894,114.1
232.6231,237.3
232.8011,124.6
232.8837,225.8
232.8971,38732.3
232.9207,94.2
232.9238,29.9
233.0514,8053.9
233.0561,286
233.1475,22.5
233.2189,20.6
233.2673,183.8
233.4157,905.3
233.4517,114.8
233.4951,21.5
233.5595,111.6
233.6661,450.5
233.7252,695.9
233.799,101.6
233.815,701.5
233.8292,91.6
233.8839,19.2
233.9144,19.7
233.9246,18.1
233.9529,234.1
234.1835,144.8
234.2777,346.9
234.2925,218.3
234.3013,173.8
234.3584,88.5
234.4117,98.1
234.553,466.2
234.8018,18.5
234.8464,802.7
234.8739,19.5
234.8832,51.3
234.8941,10533
234.9001,188.8
234.9495,531.3
234.9819,6381.8
235.0127,121.7
235.0573,2785.3
235.0671,1639.3
235.093,11696
235.1456,545.1
235.182,134.2
235.2511,546.6
235.274,18.4
235.2785,293.9
235.3113,431.5
235.357,139.1
235.4229,542.3
235.4669,463.2
235.5552,271.3
235.5865,119.9
235.7595,355.9
235.9018,101
235.9181,88.8
235.9247,475.5
236.0225,190.5
236.0414,4108.9
236.0669,23.8
236.0721,52687.5
236.0965,96.7
236.141,676.2
236.2264,298.4
236.2778,97.7
236.4802,149.5
236.5761,126.7
236.5989,117.1
236.6167,82.1
236.7723,599.3
236.8785,516
236.9041,211.5
236.9075,114.6
236.9149,49.9
236.9546,83.6
237.0716,129.8
237.0755,1596.1
237.091,308.9
237.1558,20.9
237.1583,16
237.2032,934.1
237.2124,521.8
237.3813,290.1
237.5828,247.7
237.7294,439.8
237.7377,19.9
237.7497,29.3
237.8592,121.4
237.9237,527.5
238.0023,95
238.0679,679.7
238.0714,265.7
238.0818,279
238.114,168.2
238.197,237.7
238.2274,19.7
238.299,260.6
238.3216,442.7
238.5386,303.9
238.6056,557.9
238.625,229.4
238.6427,592.1
238.6914,18.4
238.7325,165.4
238.8423,3791.9
238.8627,382.1
238.9062,23
238.9436,85.7
238.95,117
238.9584,459.2
238.968,95
239.0095,6335.2
239.0519,411.4
239.0645,537.7
239.0682,1613.8
239.2466,313.6
239.3597,357.1
239.4191,139.3
239.5174,321.9
239.5227,692.4
239.6299,182.5
239.6423,597.4
239.7461,640.2
239.8034,499
239.8379,775.4
239.8444,91.3
239.9191,106
240.0003,801.5
240.0079,508.2
240.0314,782.1
240.0397,248.9
240.0975,150.8
240.1247,747.9
240.1415,127
240.2551,503.9
240.3189,23.4
240.4504,443
240.7112,21.9
240.8393,2651.3
240.9098,31.6
240.9548,1768.4
240.9676,2220.6
240.9864,1013.3
241.0088,879.3
241.0293,99.4
241.1946,29.9
241.1991,84.4
241.2053,18.9
241.2672,659
241.2718,664.8
241.342,112.3
241.4262,232.6
241.4803,108.2
241.4842,177.3
241.5557,731.9
241.5714,91.4
241.587,297.9
241.7538,345.2
241.756,133.6
241.7892,122.8
241.8113,20.3
241.944,20.3
241.9777,142.5
241.9987,2501.1
242.0112,809.4
242.0195,6272.1
242.1284,118.9
242.1599,391.3
242.3213,438.3
242.3636,528.9
242.4053,230.3
242.5225,157.8
242.552,173.1
242.5605,97
242.5757,739.8
242.6028,285.8
242.6106,123.9
242.8135,174
242.8181,485.6
242.9056,52.3
242.926,18427.1
242.9485,94.9
242.9634,206.7
242.9763,115.2
243.0069,669.6
243.0334,440.5
243.0536,4083.3
243.0657,10043.4
243.0906,219.7
243.1087,213.3
243.1883,363.8
243.2485,124.1
243.405,452
243.4237,223.4
243.5254,86.9
243.5343,507.5
243.5496,130.3
243.6945,444.1
243.7091,144.7
243.7952,643.6
243.8251,189.3
243.8374,417.5
243.846,148.1
243.8729,834
243.9188,629.7
243.9731,4132.3
244.013,246
244.0182,31.3
244.0291,463.6
244.0495,22.6
244.0697,128.1
244.1049,288.5
244.1211,318.6
244.1539,408.1
244.1767,471.7
244.183,232.8
244.2156,35.3
244.2764,189.7
244.4666,561.4
244.5066,294.6
244.8711,8087.1
244.924,1315.3
244.9392,107.7
244.9766,155.2
245.0621,302.9
245.2268,442.8
245.2442,577.1
245.3441,17.6
245.3795,609.6
245.4526,128.4
245.472,127.5
245.5489,247.1
245.6418,401.8
245.8435,488.4
245.8659,69.4
245.9504,695.3
245.9689,78
245.9737,234.6
245.9847,416.9
245.9886,116.7
246.0017,93.2
246.0593,718.7
246.0866,522.1
246.1596,655.6
246.2356,134.8
246.3343,210
246.3387,662.6
246.3809,469.6
246.4558,533.3
246.5226,81.1
246.5254,468.3
246.5297,205.8
246.5534,210.8
246.5584,393.1
246.6271,514.4
246.636,366.4
246.6773,18.9
246.706,295.3
246.7653,632.5
246.8081,201.4
246.8582,283.2
246.8629,884.8
246.8685,591.3
246.9001,64.6
246.9051,241.6
246.9357,113.4
246.9516,1653.2
246.9642,541.4
247.0099,126.8
247.0377,975.3
247.0465,312.8
247.0672,1291.6
247.093,6472.5
247.2196,359.4
247.266,104.4
247.482,19.9
247.4938,91.4
247.5342,731.7
247.6034,279.3
247.6364,541.1
247.6622,247.1
247.7583,126.4
247.7654,121.7
247.7683,158.2
247.9251,130.4
247.9384,21
247.968,1172.8
247.9836,694.4
248.0958,141.1
248.1246,12875.2
248.1391,78.1
248.1574,123.5
248.1966,549.4
248.2252,149
248.3143,163.3
248.383,129.6
248.498,315.1
248.5119,158.7
248.7244,98.9
248.8183,96.8
248.8631,19.7
248.8711,9015.2
248.901,235.4
248.9156,57.8
248.9486,95.9
248.9729,88.9
248.9994,411.6
249.0615,16898.3
249.1081,139.8
249.1228,218.2
249.3063,91.7
249.4156,709.9
249.487,170.4
249.5317,452.1
249.6071,289.1
249.7475,237.8
249.7811,520.6
249.8242,17.5
249.887,40.7
249.9133,329.8
249.9687,30.2
250.0388,367.9
250.1446,381.3
250.2641,676.7
250.4543,261.2
250.4744,553
250.5858,404.5
250.7217,461.6
250.8124,124.4
250.8678,1537.3
250.8941,329.7
250.9205,3345.1
250.9559,1045
251.0127,108.2
251.0344,416.3
251.2295,365.7
251.2736,660.3
251.3606,86.4
251.4215,112.7
251.5559,366.1
251.6693,278.9
251.751,166.9
251.7986,320.4
251.9518,472.1
251.981,255.4
252.0099,116.6
252.0363,61.8
252.0461,96544.2
252.0649,247.8
252.1509,306.5
252.2293,388.1
252.2505,186.9
252.3269,523.5
252.3348,30.4
252.3415,246.3
252.5241,540.3
252.6486,133.2
252.6812,180.6
252.7784,24.4
252.7928,133.5
252.8253,110.4
252.8577,220.6
252.905,526.1
252.9108,114.7
252.9178,1288.9
252.9381,396.7
252.9519,58.8
252.9666,482.6
253.025,127.6
253.0421,148.6
253.0496,4633.3
253.1065,104.5
253.1515,124.7
253.3074,287.5
253.5909,269
253.6683,106.2
253.6845,157.2
253.7248,18.3
253.9738,244.3
254.0441,4385.9
254.0524,125.8
254.0777,105.3
254.0934,124.9
254.1209,106.8
254.4836,1084.4
254.5672,399.6
254.5781,223.4
254.5918,18.3
254.684,133.2
254.8162,388.5
254.8243,8886.3
254.8574,19.5
254.9864,174.2
255.0255,187.5
255.0334,20579
255.047,491.3
255.1195,280.8
255.1843,207.2
255.2112,328.1
255.2467,838.8
255.3034,130.4
255.3656,462.9
255.4307,21.4
255.6811,721.6
255.8621,164.1
255.9335,687.1
255.9597,127.3
255.979,717.1
255.9926,17.5
256.0037,1496.7
256.0202,154.6
256.0404,300.9
256.0673,17.5
256.0809,18.3
256.1084,379.5
256.168,228.9
256.1747,133.6
256.1931,518.1
256.2294,302.7
256.2314,339.6
256.2327,335.4
256.3041,20
256.3199,18.8
256.5105,323.9
256.6369,136.3
256.6726,462.8
256.732,279.5
256.7571,143.6
256.8213,9569.7
256.8279,84.1
256.8964,257.5
256.9294,717.5
256.9605,757.5
256.9816,33
256.9855,117
256.997,372.7
257.0129,105.5
257.0156,169.4
257.0164,159.6
257.0227,136.1
257.049,5585.8
257.0655,709.8
257.075,44797.7
257.3159,115.8
257.4,98.1
257.5064,462.2
257.8106,367.5
257.8506,798.1
257.855,709.3
257.8772,287
257.9524,401.1
257.9888,184.3
258.0062,81
258.0303,1021.8
258.059,154.4
258.0748,90.8
258.0783,653.8
258.0992,349.6
258.1106,17012.8
258.1408,17.9
258.1622,442.7
258.2095,133.7
258.2326,96.4
258.3525,559
258.4609,106.4
258.4959,101.6
258.5777,184.2
258.6053,165.5
258.6154,462.4
258.6948,276.5
258.6985,636.8
258.7029,357.2
258.7358,142.5
258.8085,29.7
258.8184,3246
258.8631,45.5
258.9,3586.2
258.9189,110
259.0879,136.4
259.1139,93.1
259.1241,22.8
259.214,318.2
259.3039,214.8
259.3155,25.9
259.3926,332.2
259.4823,163.6
259.486,27.2
259.4891,84.9
259.6102,567.7
259.6242,733.7
259.6708,87.4
259.8929,19.3
259.9648,456.4
259.9929,233.5
260.003,203.6
260.068,109.2
260.0973,251.5
260.1699,108.8
260.2896,151.9
260.2977,801.1
260.6033,234.9
260.608,520.5
260.618,781.9
260.6594,400.1
260.7566,465.9
260.7654,155.6
260.8153,627
260.8279,20.2
260.8454,1705.6
260.8818,147.1
260.8888,20.9
260.9165,18.9
260.9496,10895.2
261.0377,95.2
261.0464,224.1
261.2597,754
261.4431,352.2
261.5716,123.2
261.5948,504.5
261.6137,18.3
261.6328,91.9
261.6377,368.6
261.6839,161
261.855,320.3
261.8863,21.2
261.9837,295.4
262.0817,698.1
262.0876,149.2
262.249,370.8
262.2538,39.2
262.3413,135.3
262.4336,20.6
262.484,287.8
262.4906,167.9
262.6375,779.5
262.6716,872.1
262.8419,884.2
262.9463,1173.6
262.9633,786.6
262.9867,19.2
262.9934,384.8
262.997,235.5
263.0316,907.2
263.0663,402.9
263.0851,917.6
263.0901,404.6
263.2527,436
263.3221,316.4
263.4084,519.5
263.4667,312.1
263.4817,539.9
263.5095,126.8
263.5805,102
263.6444,711
263.6648,431
263.76,301.4
264.1686,719.1
264.2299,385.8
264.263,100.4
264.3604,35.9
264.4528,76.6
264.5778,293
264.7543,162.8
264.8453,1170.1
264.8531,5980.8
264.8734,431.6
264.9009,232.1
264.9155,18.6
264.9224,780.9
264.9733,1202.1
264.9888,13681.8
265.0166,80.3
265.0236,811.3
265.0356,6806.2
265.0483,272.5
265.0645,179
265.0906,292.9
265.1202,756.8
265.1471,89.6
265.2025,219.7
265.2838,89.8
265.2951,637.8
265.3816,426.6
265.4246,637.5
265.5339,392.4
265.573,372.4
265.6327,145.5
265.648,78
265.7848,157.7
265.9057,692.9
265.9582,54
265.9786,534
265.9925,129.9
266.0835,1060.3
266.1521,185.4
266.3259,108.2
266.3985,407.8
266.4066,226.2
266.4183,99
266.6062,131.2
266.6215,725.2
266.6366,356.3
266.6408,238.2
266.6537,886
266.7836,408.7
266.7914,150.1
266.835,29.3
266.8503,4286.3
266.8947,3214.4
266.9122,18.7
266.9264,20.5
266.9592,108.2
266.9914,481.6
267.0805,137.4
267.1472,22
267.2114,18.3
267.2347,83.5
267.2694,263.6
267.4159,363.1
267.5229,120
267.6063,340.5
267.6082,461.1
267.6102,482.5
267.7048,130.8
267.7237,642.9
267.8025,329.8
267.9428,21.5
267.9619,351.5
267.9742,239.9
267.9944,1292.2
268.0096,88.1
268.0309,889.3
268.3143,215.2
268.3848,21.8
268.4392,932.3
268.6068,130.1
268.6277,226.1
268.6341,292
268.7713,19.1
268.847,1179.6
268.8917,1013.5
268.9065,480.9
268.9181,384.9
268.9976,120.8
269.0284,654.6
269.0334,293.8
269.0356,205.1
269.0452,15522.4
269.0491,34107.8
269.0926,28.4
269.1038,22.2
269.1186,117.3
269.1854,386.3
269.3189,27
269.4596,135.9
269.5218,16.8
269.6027,563.7
269.6332,332.2
269.6496,91.8
269.7087,228.8
269.7411,739.3
269.8633,412.4
269.8697,501.2
269.9524,35.6
269.9899,504.9
269.9945,2001.9
270.0102,195.8
270.0252,19970.6
270.0434,321.9
270.0478,25396.1
270.0975,597.4
270.116,675.2
270.4912,576.2
270.6247,110.4
270.6668,682.4
270.7873,383
270.7983,3261.5
270.8635,20.7
270.9601,105.1
270.9784,18087.3
271.0285,1570
271.0513,561.8
271.0687,234.1
271.0909,1682.8
271.0985,360
271.3983,339.4
271.4081,815.8
271.469,143.4
271.6482,89.8
271.908,80.6
271.919,372
271.9318,432.7
271.9663,367.3
272.0049,45.3
272.021,950
272.0435,28.2
272.0809,102.4
272.1702,181
272.2301,635
272.2781,84.8
272.3045,84.8
272.3401,630.9
272.4515,632
272.5887,524.7
272.7954,4240.9
272.8247,94
273.0493,1012.9
273.1076,918.3
273.2132,391.7
273.3572,107.5
273.3752,317.1
273.4622,187.9
273.5097,19.7
273.5421,233.3
273.7478,744.6
273.963,13868.2
274.0693,83
274.093,1178.1
274.2642,192.7
274.2835,117.3
274.4078,590.9
274.4606,88.3
274.5914,444.2
274.7621,214.5
274.7924,1795.1
274.8033,35.8
274.9303,137.6
274.9444,194.4
274.9831,27
275.1049,724.1
275.1807,20.5
275.2513,120.8
275.3108,630.4
275.3261,105.1
275.3736,279.7
275.378,115.6
275.4066,313.7
275.4212,133.3
275.4608,103
275.6829,20.6
275.9394,596.7
275.9887,130.2
276.0038,109
276.0394,854.9
276.0834,437.2
276.3184,310.5
276.3834,329.8
276.4139,81.4
276.6305,19.2
276.6605,517.8
276.7426,133.2
276.8189,186.8
276.8714,336.4
276.9108,158.5
276.9235,7989.4
277.041,141
277.2469,128
277.6055,23.6
277.6309,291.8
277.7888,297.7
277.8816,22.3
277.9859,166.2
277.9935,121.1
278,24.7
278.0195,371.2
278.1452,198.9
278.1899,868
278.2367,159
278.2723,20.9
278.5335,298
278.538,23.5
278.5559,112
278.6624,809.3
278.7216,305.5
278.7353,739.2
278.7805,374
278.8477,274
278.8893,148.2
278.9202,1085.2
278.9879,357.1
278.9951,75.9
279.0045,517.5
279.0233,88.2
279.0571,30746.2
279.2961,21.8
279.559,423.4
279.8161,591
279.8203,150
279.8266,20.7
279.8334,204.8
279.9785,707.1
280.0124,1352.4
280.0606,420.8
280.0867,87.4
280.1558,23.6
280.1813,138.5
280.2391,17.8
280.307,154.6
280.3638,19.6
280.4645,171.4
280.4704,231.3
280.4803,240.4
280.4961,212.7
280.5609,144.6
280.6342,129.8
280.725,313.2
280.814,34.9
280.8272,1984.4
280.8966,163.9
280.9627,1298.7
281.0105,1531.8
281.0202,21.1
281.0299,20.9
281.0518,207.7
281.0798,725.6
281.2909,24.1
281.3274,688.4
281.5415,543
281.6262,192.8
281.7361,447.2
281.8054,115.2
281.8709,31.6
281.9048,456.7
281.9958,83.5
282.012,147.2
282.015,78.5
282.0652,288
282.0809,139
282.0995,113.5
282.1234,19.2
282.1371,25.8
282.1499,326.9
282.25,128.7
282.4544,23.1
282.539,336.7
282.6045,206.5
282.8103,19.4
282.8244,1772
282.8683,565.7
282.9064,454.2
283.0207,20.7
283.0285,1605.6
283.0701,141.4
283.084,328.9
283.1058,396.4
283.179,579.9
283.1881,401.5
283.2355,277.4
283.2633,21
283.2905,683.2
283.3508,196.5
283.3563,516.5
283.5483,112.2
283.6279,21.9
283.7382,309.8
283.817,21.4
283.8253,187.5
283.8422,1035
283.8858,20.9
283.9471,127.4
283.9894,87.5
284.0043,99.7
284.025,237.9
284.0531,63.4
284.0634,92.8
284.0907,396.6
284.2869,108.7
284.365,113.9
284.3838,142.5
284.4243,89.1
284.4883,111.4
284.6213,136.8
284.8065,85.9
284.8323,134.3
284.8663,691.6
284.9981,245.1
285.0234,336
285.0842,121.7
285.0932,84.8
285.2424,416.8
285.4885,521
285.5322,366.7
285.6325,179.7
285.6508,134.6
285.66,20
285.6764,704.6
285.9059,221.7
285.949,125.8
285.9501,123.9
285.9811,629.7
286.0202,4437.5
286.0964,61
286.1046,645.6
286.3138,531.9
286.3599,923.8
286.4076,154.6
286.7721,1921
286.7874,366.7
286.802,447.9
286.9125,20.9
286.9524,9272.1
287.0032,303.8
287.0236,438.6
287.0558,34358.6
287.2073,418.6
287.3302,414.6
287.3968,264.3
287.5758,19.8
287.7344,333.1
287.8113,84
287.8563,88.8
287.9494,29.9
287.9963,713.9
288.0161,143.6
288.036,227.9
288.0594,962.3
288.1191,105.7
288.1269,170.9
288.1343,212.4
288.1561,22164.2
288.2865,418.1
288.3104,18.6
288.3276,558.3
288.6358,514.3
288.6941,190.3
288.7693,2493.5
288.8079,636.6
288.8163,344.8
288.8185,443.7
288.839,4375.9
288.8437,4326.4
288.8477,4814.6
288.8561,11148.6
288.8672,14706.4
288.8725,12535.8
288.8766,15346.6
288.8803,15294.7
288.886,18060
288.8931,17934.3
288.8999,24933.7
288.9076,17068
288.9128,18727
288.9166,16997.1
288.923,11406.2
288.9246,11494.2
288.9283,13401.8
288.9357,6433.3
288.9403,4515.4
288.9504,1223.9
288.9559,462.8
288.9686,188.8
288.9745,96.2
288.9851,56.1
288.9889,53.3
288.9956,25.8
289.001,20.5
289.0999,20.4
289.11,146.2
289.1593,379.1
289.2384,423.7
289.319,166
289.5106,20.4
289.6338,794.9
289.6824,136.7
289.8085,388.9
289.8532,18.9
289.9108,596.8
289.937,1730.7
289.9782,21.6
290.1012,22.3
290.1096,114.1
290.1556,599
290.1759,138
290.2222,80.2
290.3409,214.3
290.4858,148.5
290.5028,553
290.5853,126.5
290.5923,209
290.5982,209.2
290.6659,23.1
290.6694,249
290.6738,90.5
290.7665,377.9
290.771,106.3
290.7979,116.3
290.8351,81.3
290.89,150.8
290.9149,803.2
290.9213,145.8
290.9268,31.5
291.0269,1771.7
291.0685,21
291.1657,499.7
291.5105,137.4
291.6551,643.7
291.7863,560.3
291.8057,24.9
291.8358,29.7
291.9424,586.8
291.9744,373.5
291.9834,562.9
292.0582,19.1
292.0803,47
292.1023,487.9
292.2577,103.3
292.2905,384.5
292.439,452.5
292.792,266.9
292.8344,977.2
292.8457,416.8
292.8478,553
292.8491,501.8
292.8642,493.6
292.8756,170.8
292.8972,984
292.9405,309
293.0067,85.5
293.073,1779.7
293.0986,624380.9
293.1795,1912.6
293.2695,382.2
293.4982,21
293.5292,17.8
293.7577,183.7
293.7618,312.9
293.9869,526.5
294.0957,668.4
294.102,55535.9
294.1131,637.7
294.1201,303.7
294.1566,314.4
294.1932,507.5
294.3362,529.1
294.3448,301.6
294.3867,105
294.6525,144.5
294.6963,589.7
294.7257,81.9
294.7538,489.9
294.8298,114.2
294.8707,118.6
294.991,134.3
295.0058,213.2
295.0261,463.9
295.0298,536.4
295.1029,4398.3
295.1951,22192.2
295.2284,300.6
295.3313,19.3
295.3686,368.2
295.3927,99.9
295.4012,144.6
295.5302,28.4
295.6942,598
295.9052,652
295.9779,444.8
296.0099,988
296.0914,313.8
296.1047,663.6
296.1725,19.1
296.1984,2208.7
296.2799,327.1
296.2842,541.4
296.3462,734.5
296.4006,390.6
296.507,128.3
296.5754,334
296.6788,102.9
296.6895,179.7
296.7341,21.7
296.7664,241.6
296.7779,18.9
296.8137,542.5
296.8573,23.8
296.8837,22.3
296.988,53.5
297.008,368
297.1074,19.9
297.1567,585.3
297.2238,243.6
297.3843,281.8
297.5483,914.4
297.7311,110.3
297.819,406.5
297.8996,124
297.9115,135.1
298.0213,97.7
298.0258,1475.2
298.0427,11413.2
298.1109,51
298.1465,30.3
298.1593,232.3
298.417,122.2
298.4229,128.3
298.5886,230.9
298.6179,344.9
298.6813,119.9
298.9768,121.4
299.0233,1153.9
299.0396,52.9
299.046,368.1
299.1395,1319.9
299.1586,402.4
299.1617,375
299.1676,21.2
299.1798,656.2
299.2551,460.9
299.2955,93.4
299.3323,293.4
299.732,160
299.7919,243.8
299.888,491
299.9088,404.1
300.0209,131.9
300.0359,1322.6
300.0434,537.9
300.0757,267.6
300.197,29.4
300.2439,708.5
300.341,613.9
300.3509,409.6
300.3763,489.9
300.3991,267.9
300.4247,182.3
300.4325,18.6
300.6454,18.8
300.6964,29.7
300.82,132.4
301.0128,42.7
301.0278,91.9
301.039,19665.6
301.0968,237.1
301.14,575.1
301.2121,477.9
301.2418,239.1
301.3392,236.5
301.3451,304.9
301.3991,93.7
301.4834,219.7
301.6516,405.3
301.8142,104.8
301.8508,87.5
301.8791,107.7
301.8865,18.7
301.9376,28.9
301.9628,837.6
301.9862,96.6
301.9944,6733.9
302.0126,688.2
302.0203,1248.4
302.0258,340.6
302.0358,50
302.0517,395.4
302.0645,2710.7
302.0967,505.8
302.2508,157.9
302.3076,286.7
302.317,129.2
302.3829,375.2
302.6208,23.4
302.6442,770.8
302.6596,867.8
302.6968,111.3
302.7006,341.1
302.8093,245.6
302.8302,2997.7
303.027,100.9
303.0678,222.3
303.1041,778.6
303.2135,236.2
303.2178,1266.7
303.2263,131.6
303.3474,145.3
303.8314,148.4
303.856,328.4
303.8677,348.8
303.9452,30.5
303.986,160.8
304.005,87.2
304.0606,34.6
304.1091,204.8
304.1189,373
304.1398,317.6
304.1596,256.7
304.1898,166.1
304.2956,791.2
304.5078,426.5
304.7034,227.3
304.7848,189.7
304.8093,92
304.8142,262.9
304.8271,2268.6
304.8779,183.7
304.9056,24.6
304.9758,429.8
305.0282,778.9
305.0377,548
305.054,140.7
305.0871,601.5
305.1228,697.8
305.1704,219.1
305.1798,23.6
305.1853,936.9
305.2108,386.6
305.2332,1442.5
305.2766,211.3
305.3634,110.9
305.4451,486.2
305.6165,144.9
305.7064,139.1
305.8448,815.1
305.8952,521.2
305.9824,21.7
306.0957,50.6
306.5041,118.5
306.5294,490.8
306.6056,84.3
306.7499,597.5
306.7748,643.1
306.8137,22.4
306.842,21.4
306.8872,21.8
306.8953,137
306.9112,113.7
306.9587,1507
306.9778,3192
307.0541,471
307.077,21.5
307.1365,83.3
307.2813,418.1
307.528,272
307.572,750.8
307.6375,22.6
307.6967,377.3
307.7084,577.9
307.811,25.6
307.9716,305.6
308.0228,375.5
308.0906,287.9
308.1124,84.9
308.3024,364.2
308.376,343.5
308.3865,116
308.4518,18.8
308.4658,458.4
308.6402,18.4
308.6504,91.3
308.7597,140.6
308.8086,358.6
308.8238,609.1
308.8361,355.5
308.8795,3351.3
309.0071,65.7
309.0238,298.8
309.038,2266.9
309.0891,463.8
309.1526,45.5
309.243,379.5
309.2987,476.9
309.355,19.1
309.431,306.6
309.544,387.5
309.6248,19.8
309.7769,149.3
309.9507,670.9
310.0669,217.4
310.2381,811.9
310.2735,466.8
310.3654,98
310.4127,18.2
310.4311,29.7
310.6235,99.8
310.8038,48.6
310.8325,508.2
310.8765,3220.6
310.9134,685.1
310.9824,327.8
311.0097,722.1
311.0405,349
311.1677,779
311.2344,319.4
311.2513,103.8
311.3017,383.8
311.3436,18.1
311.4184,150.6
311.631,305.9
311.8043,22.8
311.8109,18.6
311.8329,130.1
311.9041,164
311.9905,639.5
311.9996,102.3
312.0197,355.6
312.0362,24.8
312.0413,2713.6
312.0502,143.7
312.1277,112.2
312.4707,153
312.5827,401.6
312.6355,99.1
312.7048,296.6
312.8317,21.1
312.859,665.6
312.8737,848.5
312.8914,31.6
312.9002,20.9
312.9105,160.2
313.0183,299.7
313.1667,963.5
313.2117,93.7
313.2745,43380
313.2844,1206.9
313.3971,85.3
313.4634,207.1
313.6866,164
313.8279,24.5
313.9299,18.8
313.9455,274.6
313.9997,807.2
314.0152,5768.1
314.092,98.9
314.1023,109.3
314.2776,4372.9
314.2869,29.4
314.2946,477.3
314.3672,757.9
314.6136,134
314.7619,19.6
314.7802,538.4
314.7982,853.5
314.8374,4676.7
314.8753,156.1
314.9009,1277.7
314.9995,4795.3
315.0042,1407.9
315.0186,545.7
315.0458,1271.5
315.0558,9590.1
315.0606,4110.7
315.064,7010.9
315.0668,17234.5
315.07,22024.2
315.0724,16305.7
315.0807,8069521.5
315.0886,17196.8
315.0987,6646.5
315.1026,3373.1
315.107,1864.1
315.1112,611.9
315.1134,687.7
315.1172,536.8
315.1193,384.6
315.1215,253.3
315.1618,5184.8
315.2202,19.1
315.2598,153.8
315.2918,574.7
315.3166,508.9
315.3242,6292
315.3381,119.2
315.3957,108
315.4867,453.5
315.5526,110.1
315.6122,143.5
315.6191,393.5
315.6927,133.5
315.7316,413.4
315.7415,17.4
315.798,263.4
315.8137,98.7
315.8437,23.9
316.011,189.3
316.0638,113
316.0682,139.3
316.078,43996.2
316.084,844242.8
316.1285,265
316.269,308.9
316.3006,345.5
316.3287,197.3
316.4808,218.8
316.6054,116.1
316.6401,371.6
316.7492,161.3
316.7974,145
316.8101,231.3
316.8519,142.9
316.9872,3709.9
317.0567,638.3
317.0655,1754.2
317.0845,93958
317.1782,245.8
317.1866,1039.6
317.2441,107.6
317.5507,797.8
317.8226,142.3
317.9893,148
318.0107,18.3
318.0461,29.7
318.0881,9310.1
318.1678,607.9
318.4927,435.5
318.5016,19
318.5914,99.6
318.7521,18.6
318.793,1219.4
318.804,2359.8
318.8123,140.5
318.8292,19
319.0141,28.4
319.0199,603.5
319.1212,23.8
319.1642,149.2
319.1952,35833.6
319.2257,356.1
319.3982,23.3
319.5103,442.5
319.7367,148.4
319.8554,181.9
320.0035,436.2
320.0756,78
320.1194,921.1
320.1709,113
320.1988,1849.5
320.2377,543.1
320.2592,1038.1
320.2778,424.2
320.4056,684.8
320.607,362
320.7935,52.9
320.8009,935.7
320.8315,70.1
320.9052,1265.3
321.0625,124.7
321.1121,185.6
321.1171,128.3
321.2108,53214.3
321.2345,406.9
321.2416,496.7
321.2623,53.9
321.3466,390.7
321.5095,20.6
321.5383,422.7
321.5493,127.2
321.5654,19
321.8167,62.1
321.9172,910.7
321.9398,18.4
322.0081,181.7
322.0903,112.6
322.1016,320.5
322.1195,293.3
322.17,189.6
322.2141,7612.4
322.2535,332.6
322.5169,402.6
322.5539,112.5
322.6553,125.7
322.8117,478
322.8238,22.3
322.8358,17.3
322.8539,671.8
322.9274,310.3
322.9556,714.5
322.9669,224.2
323.021,8491.7
323.1003,148.2
323.1456,19.9
323.1593,395.2
323.2264,4054.3
323.2669,178.3
323.3765,36.1
323.431,20.1
323.5042,110.7
323.5867,27.6
323.617,275.9
323.6616,28.7
323.9766,712.6
324.0023,11048
324.028,18.4
324.103,631.2
324.2638,399.8
324.361,100.7
324.5425,1887.2
324.5511,7528.7
324.5713,521.7
324.5742,402.1
324.8534,1969
324.8801,109.2
324.9365,348.7
324.996,173.9
325.0492,577.3
325.0773,391.1
325.1755,98.4
325.2031,101.2
325.2122,3657.6
325.3501,190.5
325.4019,214.1
325.5236,18
325.7475,410.3
325.7685,453.7
325.8658,467
325.9254,141.8
326.0076,173.3
326.0809,539.3
326.1528,98.8
326.1868,119.2
326.2193,492
326.4086,543.3
326.7978,502.6
326.8506,2824.6
326.8982,173.8
327.0161,5181.5
327.0521,1033.7
327.2165,527.6
327.2277,12437.2
327.2977,98
327.841,99.6
327.8516,175.7
328.0161,567.2
328.0312,29.5
328.223,277.4
328.2585,308.9
328.4096,130.2
328.4162,166.5
328.4274,157.8
328.6101,396.4
328.7986,95.2
328.8148,134.2
328.8256,116.1
328.8477,454
328.9324,1053.1
328.937,320.7
328.9424,143.7
329.0865,30.8
329.0965,1834.6
329.1703,87.8
329.2743,639.8
329.2966,126.4
329.3268,95.6
329.4014,90.6
329.4344,155.3
329.4475,19.5
329.6806,542.1
329.8137,18.7
329.8218,25.3
329.9528,531.8
330.0594,111.7
330.1394,96.9
330.1749,369.3
330.1924,500.6
330.2245,103.2
330.389,309.6
330.647,557.3
330.671,249.9
330.9784,339.1
331.0191,1130
331.0458,111699.3
331.0546,1000357.3
331.1763,551.1
331.3089,580.3
331.3877,324.5
331.4331,141.4
331.4811,24
331.4887,304.9
331.6893,18.8
331.9812,762.8
332.0486,8280.5
332.058,91146.9
332.1524,85
332.2944,367
332.3797,317.1
332.4971,267.3
332.6382,190.4
332.7455,39.8
332.8091,189.3
332.9164,102.4
332.9358,83.3
332.9613,1423.8
332.9815,429.3
333.0528,57893.9
333.0583,9299.7
333.0693,156
333.2035,358.1
333.2579,216.7
333.6058,102.6
333.6525,103.9
333.8174,27.2
333.838,96.6
333.9382,454.1
333.9552,27.3
334.0341,480.6
334.0562,4483.6
334.0901,43.6
334.1794,17.9
334.2766,370.6
334.4064,19.9
334.5086,404.4
334.5256,147.1
334.7236,476.7
334.8379,518.6
334.8679,104.3
335.1677,2988.1
335.2966,135
335.4278,133.1
335.4739,333.9
335.5158,95.5
335.7466,285.7
335.7576,317.7
335.8331,152.6
335.8663,377.8
335.9718,548.9
335.9896,362.2
336.1233,418.4
336.1709,31.7
336.3568,929.2
336.4608,216.9
336.5029,20
336.5831,313.8
336.8126,19.1
337.0368,7362
337.0502,17875.5
337.0627,555831.2
337.156,85.7
337.1833,2191.2
337.2062,1540.3
337.2457,84.1
337.2746,3503.4
337.2935,111.6
337.3434,112.6
337.3661,134.1
337.5527,336.2
337.6919,284
337.6998,84.6
337.7807,168.4
337.8536,101.7
337.9585,382.2
338.0542,354.3
338.066,48609.8
338.1864,38.9
338.2464,356.9
338.2585,240.9
338.3017,604.5
338.3421,69.8
338.3487,383.8
338.3826,20.4
338.4617,107.5
338.5204,18.5
338.5516,276
338.5889,201
338.7857,464.2
338.8033,22.1
338.9219,1352.5
338.9758,121.5
339.0388,2794.1
339.0476,844.6
339.0666,4442
339.1649,388.9
339.199,183.7
339.2394,300.2
339.251,2533.6
339.2902,9296
339.4253,626.9
339.4727,149.8
339.5838,119.5
339.8853,485.8
339.9676,721.3
339.9762,1411
340.041,314.3
340.2668,98.6
340.5046,123.8
340.5304,498.7
340.7565,818.2
341.0185,22.3
341.0443,107.3
341.0751,143.8
341.0941,171.2
341.1794,914.1
341.3056,5209
341.6026,171.9
341.6823,596.9
341.8147,19.1
341.8779,631.4
342.0158,4853.4
342.111,148.6
342.2183,142
342.2896,79.6
342.2963,147.7
342.3141,136.6
342.3571,220.4
342.3633,189
342.5691,306.8
342.7935,20.6
342.8692,664.2
342.8885,85.6
342.9901,1529
343.0051,168.7
343.0181,110.2
343.0262,655.3
343.1085,133.2
343.1953,10863.6
343.3453,145
343.4257,148.2
343.573,140.3
343.7056,87.9
343.7538,216.8
343.779,136.4
343.7937,21
343.8101,30
343.9889,652
344.0149,351.9
344.0686,427.1
344.1213,568.1
344.1994,941.7
344.4444,645.1
344.4608,858.8
344.6994,89.8
344.9458,116.9
345.2111,853.8
345.2714,311.2
345.3419,256.1
345.469,19.8
345.5404,124.6
345.8177,32.6
345.8804,481
345.9608,420
345.9843,38630.5
346.0104,969.3
346.0215,590.5
346.0424,678.8
346.095,22.6
346.1748,91
346.345,102
346.6384,84.3
346.7256,121.7
346.8244,45.8
346.9557,22.6
346.9878,1503.9
347.0182,2703.9
347.0458,32.9
347.1177,261
347.2046,18
347.8906,158.9
347.935,312.9
347.974,284.6
347.9888,105.5
348.0219,207.9
348.0712,104.8
348.2019,109.5
348.2243,107.4
348.4634,95.1
348.7041,530.1
348.7587,156.3
348.8048,22.4
348.8574,766
348.8703,485.5
348.9313,17.8
348.9471,617.6
349.0184,2246.6
349.0541,258.5
349.1284,19.9
349.1837,89.4
349.2755,86.2
349.4702,93.2
349.6257,1070.1
349.7161,571.8
349.9415,346.4
350.0194,1536.6
350.0886,19.4
350.1946,111.4
350.2517,330.1
350.2771,576.5
350.4495,279.9
350.4554,435.9
350.6465,181.6
350.6508,428.1
350.7041,162.7
350.7125,666.2
350.7349,786.7
350.7963,306.8
350.8994,479.7
351.0139,477.4
351.0325,469.3
351.0501,141
351.223,118.3
351.2338,829.8
351.2438,576.9
351.3035,31.7
351.3356,19.2
351.3966,134.2
351.4281,560.9
351.5265,111.5
351.796,621.1
351.8117,114.6
351.8972,143.4
352.0165,95.2
352.0199,107.3
352.0993,164.3
352.1731,114.7
352.2403,286
352.4447,527.3
352.5255,205.3
352.5736,563.3
352.7526,95.3
352.7735,116.2
352.8723,408.3
352.8987,1195.7
353.0277,129749.2
353.0366,169662.1
353.1247,98.7
353.1784,803
353.2008,86.7
353.2469,164.7
353.5774,154.1
353.6518,101.8
353.6665,19.4
353.8069,432.6
353.8736,298.4
353.9539,105
354.0309,8926.3
354.04,14611.9
354.105,27.7
354.1384,420.1
354.2007,549.4
354.3797,140.3
354.451,167.2
354.4706,19.8
354.4997,136
354.6732,760.5
354.7439,373.3
354.8675,130.3
354.8958,378.7
355.0124,670
355.0212,96.3
355.0349,9838.7
355.0469,89.7
355.0706,265.6
355.1659,114.5
355.4099,337.6
355.6615,304.4
355.6851,633.8
355.8744,575.1
356.0432,627.9
356.0646,124.6
356.0836,496.6
356.1614,79.2
356.1998,20.6
356.2752,108
356.3049,567.8
356.4465,311.9
356.4842,246.3
356.8398,172.4
356.9373,285.5
356.9543,118.2
356.9861,83.5
357.0092,264.8
357.0777,682.2
357.102,362
357.3019,668.1
357.4329,231
357.4691,17
357.571,857.4
357.58,132.8
357.6007,639.2
357.657,520.9
357.6916,391.6
357.6962,415.3
357.8008,29.3
357.8802,111.4
357.8923,118.5
357.9789,1309
358.0108,25.8
358.1234,338.3
358.5812,381
358.6307,18.9
358.7182,86.1
358.7675,679.7
358.826,19.8
358.8469,333.4
358.8582,111
358.885,185.9
358.9493,494.2
359.0078,121.6
359.0323,10755.2
359.0447,344367.2
359.1551,151.4
359.1674,850.1
359.2047,634.4
359.2652,32.9
359.4336,18.6
359.4537,30.1
359.5719,1202.4
359.5978,182.2
359.6181,235.1
359.6327,569.6
359.64,321.7
359.6591,216
359.6887,137.7
359.6934,432.2
359.7076,588.5
359.7143,356.1
359.7199,158.1
359.7239,139.4
359.7634,1115.1
359.8204,399.5
359.8369,373.9
359.8424,850.9
359.8821,88.5
359.918,20.4
359.9442,328.1
360.0318,107.5
360.0481,31018
360.3245,195.1
360.3813,133.6
360.5944,169.1
360.604,135.7
360.6736,144.1
360.7465,22
360.7892,379.2
360.8373,365.4
360.8515,148.6
360.9124,560.3
360.9843,80.1
361.0043,311
361.0208,5077.2
361.0296,225.2
361.0482,1002.2
361.1606,841.9
361.2496,346.7
361.2744,530.6
361.3109,681.8
361.3614,493.9
361.38,431.4
361.5569,364.2
361.9582,11760.1
361.9687,123
362.1865,168.8
362.4403,338.9
362.5917,595.1
362.6034,199.1
362.6759,654
362.8201,238.9
362.8316,576
362.9598,502
363.0309,87.1
363.1789,424.4
363.1998,354.4
363.7907,50.7
363.9558,258.1
363.9979,1783.3
364.042,592.7
364.097,108.6
364.2029,102.6
364.258,331.4
364.2881,130.2
364.3914,308.6
364.5349,85.9
364.6146,538.5
364.8746,153.9
364.9368,401.9
364.9591,20.9
364.9837,124.3
365.7962,154.6
365.9866,25
366.0732,122
366.1581,478.4
366.1729,176.9
366.2129,117.9
366.3098,349.4
366.372,83.9
366.7235,18.5
366.7617,97.1
366.8146,51.5
366.8206,343.6
366.96,138.8
367.0295,160.4
367.0815,127.5
367.1132,168.4
367.122,4142.1
367.1954,9860.5
367.296,391.9
367.3509,286.4
367.5427,108.4
367.6615,400.9
367.8777,487.9
367.9146,216
367.9923,2362.4
368.0033,755.5
368.1868,322.5
368.1988,537.8
368.3284,89.3
368.4329,541.6
368.526,235.3
368.538,513.1
368.5694,82.6
368.9728,117.7
368.9925,3711.5
369.0015,12642
369.0107,4758.7
369.0619,162.8
369.0788,359
369.1785,265.2
369.3005,286.4
369.4759,126.2
369.5662,866.9
370.0039,107.5
370.0151,142
370.0898,132.6
370.2261,111.3
370.2384,21.4
370.4361,161.2
370.4858,553.3
370.5014,735.8
370.5258,347.4
370.6014,583.9
370.6104,220.7
370.6931,139.8
370.72,200.4
370.7468,288.9
370.8041,914.6
371.0006,3197.8
371.0086,211
371.0423,1338.3
371.1029,23.3
371.2656,1028.7
371.3568,21
371.5558,79.7
371.8357,20
372.1031,193.5
372.1161,109.3
372.1732,28.2
372.2137,96.3
372.3558,409
372.4832,983
372.5542,492.8
372.7385,500.2
372.8482,532.9
372.9354,391
372.9961,383
373.0549,218.6
373.2118,1060.4
373.2713,320
373.3001,714.9
373.5747,115.8
373.7079,19.1
373.7985,73.2
373.812,117.2
373.938,19.9
373.9899,349.3
374.0894,18.7
374.1484,86.5
374.1732,362.5
374.3232,325
374.4052,286.7
374.6012,653.9
374.6996,171.8
374.8365,309.8
374.8522,327.4
374.9062,103.7
374.9282,518.2
374.9527,475.9
375.0097,125871.1
375.0186,93348.2
375.2182,18.5
375.2419,158.3
375.4403,529.6
375.7581,332.1
375.8282,729.3
375.8364,105.3
375.9663,23.8
375.9848,162.7
376.0131,9167.9
376.0219,7996.4
376.0583,20
376.0801,361.8
376.1178,219.8
376.2414,154.7
376.3607,93.6
376.4911,1492.2
376.515,495.9
376.7975,93.7
376.8362,24.2
376.9948,1131.6
377.0171,2400.2
377.0529,200.5
377.0646,78.4
377.1571,185
377.1658,85.3
377.2336,153.2
377.7829,101.9
377.8074,73.2
377.9028,434.6
377.9325,227.4
377.9862,528.1
378.0361,917.6
378.1904,181.7
378.2203,17.7
378.2592,120.6
378.3353,71.5
378.433,687.9
378.5073,121.6
378.7104,652.5
378.7265,515.2
378.7601,419.5
378.8325,106
378.9188,693.1
379.0869,94.4
379.4229,474.1
379.6317,240.7
380.0513,159.8
380.0912,323.5
380.3097,286
380.5678,94.2
380.6303,547.5
380.6827,117.4
380.7241,277.6
380.7705,521.7
380.7976,387.6
380.8305,89.3
380.9029,127.8
381.0142,20804.3
381.0267,194229.8
381.3319,685.1
381.447,217.1
381.5479,449
381.6649,411.3
381.6803,93.4
381.8634,493.9
382.03,15684.1
382.1875,78.6
382.2942,110.4
382.4517,557.6
382.7678,1773.7
382.8382,43.9
382.8479,391
382.9689,103.9
383.0322,343.9
383.0662,285.1
383.1169,333321.6
383.1666,518.6
383.2656,331.1
383.3376,36.8
383.7558,784.9
383.9661,1982.2
384.0127,273.6
384.1202,38066.5
384.1819,20
384.397,377.8
384.4197,20
384.765,585.6
384.7723,331.8
384.9736,226
385.0265,146.7
385.0621,102.7
385.1216,1326.8
385.2752,522.8
385.3665,300.8
385.4176,132.7
385.5991,89.2
385.6168,99.1
385.9451,38.8
385.9597,306
385.9798,7778.9
386.0081,328.8
386.3149,363.9
386.7247,370.6
386.7473,105.1
386.8176,385.8
386.8335,200.8
386.8677,139.8
386.9297,280.9
386.9596,713.7
386.9738,500.1
387.0027,1291.1
387.2533,84.1
387.3479,842.8
387.389,112.4
387.4038,34
387.4225,557.8
387.4944,319.9
387.5204,267.9
387.7777,118.6
387.9243,229.7
387.9791,592.6
388.1028,896.4
388.1864,1563
388.2153,317.9
388.2268,257.3
388.2996,18.6
388.4122,18.6
388.7134,854.8
388.7257,364.4
388.7724,30.3
389.0009,294.7
389.0578,385.3
389.1106,19.6
389.8066,36.2
389.8984,658.2
389.9743,45872.8
389.9851,104.7
389.9946,67.9
390.154,271.5
390.2534,386.5
390.3415,143.5
390.4884,316.2
390.6851,125.8
390.7097,1204
390.8013,1093.7
390.8135,558.5
390.8249,408.8
390.8356,336.1
390.8583,295.1
390.901,236.6
390.9748,9326.9
390.9834,16136.6
390.9926,7952.9
391.1483,105.3
391.1616,225.4
391.1712,304.7
391.3557,90
391.3639,341.8
391.3809,20.9
391.4001,119.6
391.5973,91.1
391.6501,409.2
391.8388,332.7
391.8726,717.1
391.8903,112.3
391.9153,104.2
391.943,98.1
391.9861,431.5
392.0051,65.8
392.0616,336.9
392.1825,86.9
392.3389,168.1
392.3794,21.4
392.6692,453.4
392.7066,397.8
392.7965,1479
392.8484,291.3
392.8811,135.2
392.8925,120.3
392.9691,92.9
392.9823,2619
393.2016,590.6
393.3067,132.7
393.3603,332.9
393.4134,182.1
393.624,92.9
393.6656,93.7
393.8618,19.7
393.9075,428.4
393.9609,19.5
393.9871,105.4
394.0073,188.1
394.026,949.1
394.1895,184.5
394.3975,17.2
394.5642,502
394.6564,350.4
394.6602,345.5
394.784,789.9
394.7935,433.5
394.9776,240.9
394.9858,135
395.1099,315.5
395.1199,528
395.4026,312.5
395.4821,147.5
396.1836,258
396.2507,359.1
396.3335,942.4
396.5066,105.3
396.6049,397
396.6107,550.4
396.811,78.6
396.9241,492.2
396.9917,167920.6
397.0005,55054.2
397.1636,230
397.2362,126.9
397.3637,132.8
397.5845,118.7
397.6145,629.8
397.8384,138.1
397.9264,187.2
397.968,67.9
397.995,13758.5
398.0038,1481.3
398.0692,116
398.2044,18.2
398.2323,257
398.2425,8886.4
398.2614,367.6
398.4003,149.5
398.438,112.1
398.4579,84.4
398.5717,19.2
398.578,145.2
398.6336,330.7
398.6984,93.3
398.7417,2245.8
398.8051,533
398.9869,456.7
399.0002,563.5
399.1702,163.3
399.1729,159.5
399.2387,201
399.2465,592.8
399.5282,302.4
399.59,503.9
399.9618,347.8
400.0532,259.9
400.2083,94.8
400.2693,305.6
400.4628,98.7
400.4836,117.3
400.6149,135.8
400.6487,114.2
400.69,347.1
400.7388,1135.2
400.7964,29
400.8286,1964.3
400.9536,85.5
400.9841,974.1
401.2649,289.6
401.3155,91.4
401.342,32.7
401.5804,541.4
401.6387,614.7
401.6871,31
401.8556,80.7
401.9536,693.3
401.9853,329.7
402.1892,86.1
402.6939,554.6
402.8246,485
402.9744,338.8
403.0086,233492.9
403.2972,116
403.3853,190.3
403.502,552.8
403.7055,21.1
403.7268,93.2
403.9148,464.9
403.9335,88
403.9433,385.2
403.9532,219.9
403.985,22.3
404.012,19023.8
404.0592,491.3
404.1946,114.4
404.3146,86
404.3314,130.9
404.3807,101.6
404.4386,286.9
404.6866,628.9
404.7623,101.4
404.7952,27.4
404.846,322.2
404.8534,191.3
404.8593,697.2
404.9135,100
404.9753,569
405.0122,754.3
405.1274,293.5
405.5976,115.8
405.7738,643
405.8569,372.8
405.9032,143
405.9127,207
405.9482,23961.2
406.3302,565.8
406.6103,156.1
406.6849,446.6
406.7169,363.3
406.7731,1014.9
406.8196,587.7
406.8563,21.4
406.9499,1436.7
406.9987,652.2
407.078,170.2
407.1338,171.8
407.1852,246.7
407.2815,21.5
407.3333,52.3
407.4879,111.7
407.8178,822.8
407.9463,329.7
407.9874,228.3
408.167,112.3
408.3095,988.8
408.3448,390.6
408.4921,810.4
408.5313,450.8
408.5924,374.3
408.6519,316.2
408.7702,2108.4
408.8186,21.5
408.9388,758
408.9578,117.8
408.9854,2538
409.2557,106.7
409.4188,365.1
409.6392,803.3
409.7294,245.8
409.9315,24.5
410.1066,161.6
410.1235,164.6
410.2003,128.9
410.3233,26.3
410.6557,17.1
410.6826,244.4
410.7676,518.9
410.8576,931
410.9344,26.6
410.9682,119.3
411.1307,284.2
411.2288,21.9
411.2866,312
411.6757,532.2
411.9677,101.2
412.3219,1891.8
412.413,20.2
412.4326,157.2
412.6472,330.8
412.6694,497.6
412.8539,777.8
412.9403,254.8
412.965,34620.4
412.9747,7864.9
412.989,692.2
413.0494,125.6
413.2671,2424
413.3253,119.4
413.4708,322.7
413.7003,294.4
413.7753,88.3
413.7845,788.3
413.8416,110.1
413.8503,30.2
413.8869,100
413.8995,424.1
413.9232,92.7
413.9402,333.3
413.9609,685.3
413.9699,400.9
414.0137,602.1
414.0346,18.2
414.0881,510.5
414.2708,173.6
414.2834,204.2
414.5963,186.2
414.682,165.5
414.7153,456.7
414.7433,19.7
414.8416,407.5
414.8996,861.6
414.9424,21.7
414.9648,994
414.9986,1218.9
415.144,147.3
415.1861,480.2
415.2226,443.4
415.3086,809.1
415.3801,659.4
415.514,183.9
415.5554,579.7
415.6168,589.2
415.646,211.6
415.73,101.4
415.7605,334
415.8764,264.7
415.8837,18.8
415.9409,448.1
415.9658,381.6
415.978,58.4
416.0317,471.3
416.1359,12534.1
416.1503,18.9
416.2148,19052.1
416.4257,320.7
416.507,172
416.6781,226.7
417.0114,219.1
417.0815,190.6
417.1173,290.1
417.1631,460.1
417.2179,1950.9
417.4021,963
417.7095,140
417.7979,111.5
418.1281,453.1
418.2244,156.9
418.5669,89
418.7323,23.9
418.8001,825.9
418.8103,123.1
418.9636,453.5
418.9826,70202.6
419.129,221.3
419.2571,529.8
419.2956,223.7
419.3812,205
419.4953,362.4
419.5855,188.5
419.6275,306.1
419.6477,27.6
419.7657,947.9
419.9859,4427.3
420.0002,40.2
420.0979,560.2
420.1818,273.7
420.2572,146.7
420.3346,143.8
420.5116,425.2
420.7191,19.4
420.7978,597.2
420.8857,1042.6
420.9223,792.1
420.9594,1441.8
420.9803,1847.2
421.047,285.9
421.1315,31.4
421.221,18
421.2464,323.7
421.2571,169.9
421.3411,19.9
421.3563,436.5
421.392,315.8
421.4482,514.4
421.5624,512.9
421.6817,340
421.7511,30.4
421.8339,229.5
421.8597,179.8
421.8737,132.4
421.9221,4824.8
421.9348,23.1
422.1431,290.3
422.2125,105.7
422.2208,555.3
422.3041,39
422.3524,725.9
422.5273,363.2
422.6337,271.8
422.7665,604.7
422.9551,539.9
422.9885,83.2
423.0014,282.1
423.0522,388.1
423.0756,323.2
423.4204,558.8
423.4671,189.6
423.6936,532.3
423.943,133.7
423.9941,593.5
424.0977,138.6
424.2688,1168.9
424.5598,18.4
424.7461,222
424.8126,292.9
424.8521,113.6
424.8629,735.5
424.9525,333.9
424.9596,301.4
424.9955,275.8
425.0295,75.5
425.5145,146.7
425.6633,22
425.8285,102
425.9755,495.4
426.0134,125.6
426.0733,112.6
426.2939,114.3
426.5361,117.5
426.5749,111.1
426.6205,375
426.8482,21.3
426.9426,58.1
427.1281,523.2
427.1768,690.3
427.447,468.1
427.4938,527.7
427.7671,121.8
427.8573,19.5
428.3442,862.9
428.4431,361.3
428.5404,136.8
428.5676,185.9
428.6292,19.4
428.9382,6852.2
428.9476,1060.1
428.9689,148.2
428.9799,31.5
429.0127,525.4
429.0895,183.9
429.1172,433.8
429.1737,530.8
429.1916,101.8
429.2307,132.8
429.3341,256.3
429.4725,186.2
429.6208,19.5
429.7051,150.4
429.8437,412.6
429.8708,160.4
430.0891,22
430.4151,620.6
430.6336,637.4
430.6972,331.8
430.7739,20.6
430.8501,145.6
430.9346,131.2
430.9588,217.2
430.9751,106.2
431.1658,101
431.2174,3053.5
431.337,354.4
431.3887,18
431.4326,80.4
431.4408,105.6
431.5217,214.2
431.7395,333.6
431.9508,167.5
432.3679,142.7
432.429,187.7
432.6419,98.4
432.6946,420.1
432.7244,353.5
432.7795,221
433.1721,115.6
433.2504,24.1
433.4024,117.3
433.4547,304.6
433.6871,19.4
433.8421,30.4
434.2183,222.4
434.287,18.3
434.5483,430.1
434.9565,10572
435.1573,486.2
435.223,482.8
435.2704,99.4
435.3616,721.5
435.5073,84.3
435.538,116.1
435.7238,18.5
435.8518,306
435.9372,362.3
435.9601,960.5
436.1219,90.3
436.5044,639.5
436.8201,26.1
436.8454,390.3
436.9592,304.6
436.999,147.3
437.205,1552.4
437.4221,726.1
437.5866,339.8
437.7248,502.4
437.7713,137.9
437.9801,337.7
438.3198,586.6
438.3722,101.9
438.6022,20.1
438.6669,994.6
438.6774,356.6
438.8817,128.1
438.9467,95.1
438.9727,3752.9
438.9853,4918.7
439.0499,394.2
439.1011,199.4
439.1526,220.5
439.2027,96.2
439.2562,537
439.3333,20.9
439.6537,603.3
439.8743,135.5
439.9557,960.3
440.0332,378.3
440.1287,322.8
440.3121,29.2
440.5158,29
440.5515,104.2
440.7269,523.2
440.7961,17.4
440.97,597
440.9828,733.1
441.151,121.5
441.298,136.2
441.4511,30.2
441.5553,289.5
441.6302,86.1
441.6848,272.6
441.8429,153.9
442.7359,22.1
442.9491,99.2
442.9878,24.8
443.0215,126.2
443.1721,569.6
443.2386,206.9
443.2533,2562.8
443.2984,241.2
443.4004,414.1
443.4678,564.3
443.9734,213.8
444.0051,341.2
444.083,289.5
444.2639,379.3
444.2789,258.1
444.38,86.7
444.5715,379.2
444.9894,847.4
445.2341,1354.9
445.2926,496.2
445.4749,186.6
445.5348,163
445.6609,226.6
445.7626,100.9
445.91,113.7
446.0836,214.5
446.1178,580.3
446.2726,819.7
446.5204,391.9
446.8582,79.3
446.889,609.8
447.5783,385.6
447.9326,1743.3
447.9647,141.5
448.2041,34.2
448.2689,434.6
448.3774,109.9
448.4676,164.8
448.4857,153.3
448.4973,183.3
448.649,316.4
448.6689,430.1
448.8141,392.4
448.933,3229.4
449.1549,2095.9
449.362,223.9
449.5227,150.2
449.829,27.7
449.9294,207.5
450.1581,334.9
450.2077,436.4
450.2624,362.1
450.4114,25
450.5162,258
450.6747,152.7
450.7952,535.7
450.8916,423.5
450.9317,633.5
450.9913,209.5
451.0368,645
451.1508,90.5
451.3091,21.4
451.4277,117.2
451.4745,468.2
452.1255,18.3
452.1505,85
452.2258,386
452.3199,125.9
452.3322,351.7
452.3663,319.7
452.4844,148.8
452.6899,294.6
452.8578,304.7
453.0126,106.7
453.1944,596.7
453.203,24.6
453.2377,491.7
453.3017,1003
453.3276,286.6
453.4232,22.1
453.4824,149
453.651,541.5
453.8502,152.2
454.0794,293.9
454.0954,628.9
454.1164,764.4
454.3388,93.3
454.7028,439.3
454.7998,690.2
454.9349,19.2
454.9505,35513.6
455.2275,147.3
455.2865,302.9
455.3372,19.6
455.384,293.3
455.4802,138.6
455.7207,83.7
455.7713,17.4
455.9534,1057.3
456.5376,114.8
456.6475,336.5
456.6662,210.3
456.7002,555.4
456.9226,618.5
456.9475,8598
457.03,199.1
457.2336,15538.1
457.627,119.3
457.6449,528.2
457.7363,207.4
457.8722,455.9
458.0912,509.5
458.2006,654.1
458.237,1529
458.3866,640.4
458.633,325.3
458.7507,443.2
458.9268,112.7
458.9416,344.1
458.9617,1554.5
459.0687,22
459.2491,433231.4
459.3384,255.6
459.3957,20.3
459.5577,495.9
459.6462,819
459.6613,185.4
459.7814,335.6
459.9248,133.7
459.9461,110.1
460.1075,236.5
460.2524,94488.6
460.658,147.1
460.9413,389.7
460.9673,71230.3
461.2015,86.7
461.2059,88.2
461.2556,6807.8
461.3272,93.3
461.3619,732
461.38,250
461.4127,140.9
461.4883,189.8
461.5271,411.2
461.5641,20.7
461.6087,156
461.7524,326.5
461.9017,187.5
461.9185,19.9
461.9707,4664
462.1587,32
462.8417,924.4
462.9644,18155
463.2021,687.1
463.3211,647.4
463.3397,275.4
463.3768,6484.7
463.7715,202.1
463.7976,366.9
463.8104,37.6
463.8465,119.9
463.9066,567
464.0919,405.5
464.4746,107.5
464.7184,145
464.7559,732.2
464.794,154
464.8629,502.4
464.9674,161
464.9793,9447.4
465.1336,155.4
465.3453,218
465.3971,18.6
465.4839,227.8
465.5186,151.7
465.9223,720.4
465.9911,132.3
466.0292,408.9
466.1341,93.2
466.1592,124.9
466.3331,485.8
466.5034,519.3
466.6967,101.6
466.7284,423.8
466.7435,500.3
466.8275,141.7
467.1885,903.1
467.3673,464.1
467.4557,30.8
467.6495,232
467.9779,810.8
468.2288,112
468.3086,1809
468.4482,21
468.489,82.2
468.539,301
468.6048,348.9
468.8528,139.1
469.2787,406.6
469.4068,21.6
469.5662,272.1
469.6919,113
469.7659,122.2
469.8635,350.4
470.0709,140
470.7711,22.3
470.8389,22
470.9243,13640.8
470.9961,2799.1
471.0845,177.8
471.1565,515.3
471.2145,644.4
471.2482,456.5
471.4477,20.8
471.6514,337.2
471.9283,625.3
472.2301,84.2
472.4419,116.8
472.8847,761.8
472.8982,1791.8
472.9213,4173.1
472.9405,498.5
472.9523,25.8
473.1497,264.9
473.2396,332.7
473.2643,3254.8
473.2998,470.4
473.342,603.2
473.5862,736.6
473.651,109.9
473.8029,84.7
474.0627,818.6
474.0726,104.7
474.195,272.4
474.2674,735.2
474.5009,82.4
474.9639,97.1
474.9765,386.8
475.1339,84.6
475.2229,18315
475.3375,21.5
475.3859,371.2
475.8446,100.7
475.9804,231.9
475.9937,86.1
476.0503,435
476.0816,788.6
476.2265,3816.3
476.3107,720.4
476.3789,19.5
476.4301,406.7
476.4711,144.9
476.6537,625.5
476.7993,31.9
476.9412,38834.9
477.0074,184.2
477.3357,620.7
477.4162,518.9
477.5916,89
477.6136,354.9
477.7401,301.4
477.9448,1912
478.2108,122.7
478.3301,49934.9
478.7211,693.4
478.9195,414.3
478.9384,10982.9
478.9939,125.6
479.0598,132.5
479.0972,54.8
479.3334,10517
479.3513,588.9
479.5592,490.7
479.5809,490.1
479.8107,325.2
479.9441,119.9
480.2159,871
480.3441,1104.4
480.4411,464.7
480.7671,22.5
480.9419,507.5
480.9532,1342.7
481.0437,296.5
481.0922,1846.9
481.1258,108.8
481.4921,93.7
481.6134,156
481.8655,122.4
482.0959,411.8
482.1798,392.4
482.2766,190.8
482.3247,1903.4
482.3614,648.4
482.4904,385.9
482.5656,321.1
482.5893,611.8
482.7503,165.1
483.0056,214.7
483.0473,846.2
483.0499,772.2
483.0865,124.6
483.1347,21.1
483.2491,80208.5
483.3189,232
483.4297,103.1
484.2525,15505.2
484.2866,19.3
484.497,433.6
484.5795,231.9
484.6109,90.5
484.688,117
485.0867,20
485.1072,778.6
485.2648,119476.7
485.2989,17.5
485.5495,120.3
485.8506,94.3
486.0129,791.5
486.194,121.5
486.2117,494.8
486.2682,27861.1
486.3968,185.1
486.519,132.1
486.6173,132.2
486.7518,835
486.8985,1322.4
487.0082,252.6
487.0252,155.2
487.0685,166
487.2367,128.7
487.2804,86732.5
487.6281,94.3
487.694,123.6
487.7207,824.4
487.8791,185.1
488.1247,232.6
488.2254,96.8
488.2837,17975.8
488.4291,113.5
488.7323,418.1
488.7636,369.4
488.8955,933.2
489.2127,19.4
489.3279,414.9
489.3341,451.2
489.3463,25.7
489.3695,90.1
489.4008,275.3
489.437,415.8
489.4726,104.5
489.5104,334.1
489.5348,92.2
489.5716,507.6
489.6339,87.8
489.6526,607.8
489.6631,295.7
489.6748,18.1
489.6926,649.7
489.7174,419.6
489.7307,436.8
489.8976,123.5
489.9812,329.6
490.055,152.8
490.2915,6685.1
490.5063,148.6
490.5745,101.1
490.9214,409.1
490.9521,31.2
491.092,875.3
491.2298,147.1
491.2584,18.9
491.2941,508.7
491.3134,19.6
491.3716,3259.3
491.4463,34.5
491.6135,92.9
491.6336,663
491.6714,577.7
491.686,166.8
492.0507,708.2
492.3743,734
492.4986,20.6
492.5087,146.8
492.5728,309
492.9154,5958.1
492.9368,142.4
493.0071,570.9
493.0532,395.9
493.1075,103.5
493.2546,153.6
493.3039,19.2
493.6933,87.8
493.9592,956.1
494.1413,421.5
494.1495,19.2
494.2357,392.7
494.3248,7251.5
494.5954,97.4
494.7707,22.2
494.9131,1748.6
494.9666,92.5
494.9793,130.6
495.0844,122.8
495.2357,21.7
495.2835,474.4
495.5125,28.6
495.6379,17.7
495.7062,97
495.8626,178
495.9992,20.9
496.0827,1057.2
496.2996,564.6
496.3407,435502.4
496.5001,398.7
496.7991,169.1
496.8242,863.3
496.932,805.6
497.0324,665.1
497.344,107019.1
498.0824,136.7
498.1689,532.7
498.3469,6710.3
498.3943,369.9
498.4872,141.8
498.5096,153
498.929,476.4
499.0812,123
499.2236,2610
499.2583,254.8
499.276,18.6
499.3247,167.5
499.6116,274.2
500.0354,23
500.1353,187.1
500.2083,366.2
500.2295,740.1
500.3141,639
500.3531,722.8
500.8662,92.9
500.917,32.4
501.238,6229.2
501.2553,211.1
501.3232,323.9
501.4583,96.9
501.5789,308
502.1119,31.5
502.2947,694.1
502.3296,14476.6
502.3527,107.3
502.4814,129.5
502.7539,827.9
502.762,138.1
502.7942,336.6
503.1113,84.9
503.1838,214.5
503.2535,3431.8
503.3329,1162
503.3931,96.7
503.5039,135
503.7078,182.8
503.8674,22.2
504.2227,247.9
504.3072,2515.4
504.3453,12342
504.6583,271
505.1818,265.5
505.2339,4596.4
505.3503,643.5
505.3739,521.1
505.5579,251.5
505.6264,376.8
505.8057,102.4
505.8927,139.1
506.2433,273
506.2648,1768.7
506.3615,6182.4
506.3898,87.1
506.4827,346.6
506.7353,26.7
506.7707,21.8
506.8526,170.1
506.8917,2561.2
506.9045,308.9
506.9735,225.8
507.2491,21043.5
507.4861,108.6
507.5017,652.5
507.5172,508.2
507.8399,271.8
507.9385,533.3
508.0397,460.9
508.1206,92.9
508.2524,3145.7
508.3779,1651.1
508.6429,182.1
508.7142,382
508.7863,20.1
508.8889,2533.1
509.0054,4661
509.0697,544.9
509.2649,5382
509.4181,573.8
509.4631,19.7
509.5482,125.5
510.1223,500.2
510.1568,327.2
510.1934,545.9
510.356,1391.1
510.653,176.8
510.6951,439.9
511.1252,25.3
511.1983,310.7
511.2197,278.9
511.3979,407.1
511.4215,325.2
511.6202,19.9
511.633,264.3
511.6513,94
511.8178,114.2
511.8682,101.9
511.8742,175.2
511.8773,145.4
511.9167,518.3
511.9616,133
511.9694,169
512.1865,119.6
512.5262,103
512.6085,189.4
512.6392,694.8
512.9091,13671.4
512.9956,639.8
513.3776,237.5
513.5855,584.2
513.7683,280.3
513.8064,418.3
513.8795,559.4
513.9116,1370.8
514.0976,256.2
514.1338,336.7
514.16,393
514.2522,313
514.2899,495
514.4281,168.8
514.5133,131
514.6591,325.3
514.8485,151.2
514.9063,7713.1
514.9535,163
515.0219,633.5
515.1768,443.4
515.3772,120.9
516.0162,634.1
516.0733,630.9
516.307,19454.2
516.4673,137
516.5088,150.1
516.5541,164.9
516.9198,1416.1
517.0421,19.8
517.1393,157.4
517.31,6170.4
517.3864,468.4
517.4377,291.7
517.5975,654.1
517.6688,17.5
517.8486,639
518.0942,105.2
518.2146,124.2
518.2269,247
518.3227,782654.1
518.8165,241.7
518.9259,27114
519.1997,18
519.326,188260.4
519.4419,137.5
519.5397,216.5
519.6392,317.5
519.6982,390.5
519.7701,20.1
519.7765,21.5
519.9289,996.9
519.9613,107.1
520.0231,28.8
520.1416,240.4
520.2089,263.6
520.3303,17568.6
520.3407,79097.9
520.412,21
520.4316,131.4
520.7362,22.1
520.7628,384
520.9029,885.8
520.9229,16124
521.2218,476.7
521.293,984.2
521.3439,17680.4
521.5559,244.1
521.8438,521.9
521.9278,632.4
521.9777,877.5
522.26,453.4
522.3563,133625.4
522.6076,303.8
522.7234,443.8
522.8319,160.6
522.9203,1258.2
522.938,5696.8
522.9694,415.4
523.127,201
523.267,843.3
523.3597,37522.2
523.3967,761.8
523.4444,22.9
523.4595,171.9
523.6195,124.5
523.7329,591.3
523.8375,425.3
523.9952,549.5
524.0046,199
524.0208,167.8
524.169,161
524.2502,134.5
524.372,114930.8
524.4698,421.7
524.6175,37.6
524.9347,1271.6
524.9791,1090.6
525.1451,136.8
525.2532,23
525.2887,553.8
525.3754,26921.1
525.9545,18.4
526.1954,313.8
526.2224,110.6
526.3301,3801.2
526.3748,508.6
526.5188,113.4
526.5386,257.8
526.631,173.1
526.6771,102.8
526.7001,217.9
526.7151,271.1
526.8154,85.7
526.8489,620.8
526.8682,474.9
527.0983,20
527.1367,340.6
527.3207,22.3
527.3334,369
527.3587,315
527.4861,23.8
527.5061,127.3
527.7593,406.5
527.9428,99.6
528.0819,132.7
528.1039,284
528.141,186
528.2624,887.4
528.3451,49.4
528.4865,609.4
528.7157,194.9
528.8834,7142.1
528.955,658
529.1538,18.9
529.4027,18.9
529.4736,410.4
529.888,329.6
530.0216,548.9
530.1856,542.2
530.3222,1965.3
530.3591,2354.3
530.88,2558.4
530.9943,85.7
531.0216,559.7
531.2491,10003.5
531.3262,335.6
531.362,1000.9
531.3754,146.8
531.9856,138.1
532.0082,168.8
532.2423,526.3
532.2534,2193.8
532.2804,2203
532.3384,9212.1
532.3745,741.8
532.4193,350.5
532.7713,126.4
532.8947,84.9
532.9091,444.8
532.9347,569.3
532.9679,1093
533.0229,308.7
533.1449,571.6
533.4001,993.1
533.7337,236
533.8837,84.3
533.9281,156.1
534.04,627.9
534.1625,151.1
534.2641,133
534.2967,176391.5
534.3206,406.6
534.5231,241.4
534.6415,187.4
534.6932,176.7
534.7656,26.4
534.8999,14787.9
535.0415,102.2
535.1372,910
535.3,43521
535.4652,255.3
536.0498,296
536.1151,75.5
536.2352,109.8
536.2949,7744.4
536.6995,86.1
536.8971,7928.4
537.1865,92
537.2998,704.2
537.3439,837.1
537.5318,20.7
537.5594,206.2
537.7758,101.8
537.8243,264.7
537.8559,320.4
537.9006,451.9
538.0318,388
538.0959,438.1
538.1569,547.5
538.1827,90.8
538.2161,147.8
538.2337,132.3
538.3885,111.1
538.5066,361
538.644,288.4
538.7592,354.1
538.8684,24.9
538.8956,1448.2
538.912,1576
539.235,498.9
539.3399,125.3
539.4803,29.7
539.5643,301
539.7022,428.6
540.07,127.9
540.3106,328.3
540.4068,313.2
540.6221,123.6
540.7947,107.8
540.9094,700.2
541.2135,95.8
541.4463,151.1
541.4833,392
541.8242,481.9
542.1302,129.6
542.2787,143.4
542.3227,127572.8
542.4051,300.5
542.4408,429.3
542.4562,634.6
542.4916,1183.1
542.8732,195.9
543.1931,247.7
543.3263,31810.6
543.3493,164.5
543.4676,19
543.5036,316.6
543.5762,56.7
544.2514,107.5
544.2756,718.1
544.3384,229995.8
544.39,202.6
544.8578,1106
544.9057,495.1
544.9292,579.2
544.9489,1650
544.9635,181.7
545.072,575.2
545.1498,659.3
545.2341,22.5
545.3418,59022.5
545.4188,879.5
545.4353,309.4
545.4584,188
545.757,133
545.8016,134.1
545.909,461.8
545.9816,425.2
546.354,186666.6
546.5163,418.9
546.8356,421.1
546.8825,308.1
547.3575,44197.6
547.7795,194.1
547.8043,160.1
547.8602,171.4
548.1342,364
548.2072,137.5
548.2621,163.9
548.3126,773.2
548.3615,3409.9
548.4028,159.7
548.9004,203.8
549.9683,90.4
550.0651,153
550.0974,116.4
550.1375,356.5
550.2607,341.8
550.3311,1167.7
550.5076,998.5
550.58,528.5
550.6045,145.8
550.8261,328.7
550.874,2036.6
550.9456,136.3
550.9702,151.4
551.0132,605.8
551.0191,739.6
551.425,20
551.4677,416.6
551.7818,83.2
551.8266,30.4
551.9531,307.8
551.9962,692.1
552.5583,265.3
552.738,117.3
552.764,247.5
552.8713,2020.7
552.9202,217.2
553.0563,137.6
553.1672,89.9
553.484,720.6
553.5385,130.1
553.6112,22.8
553.8343,808.8
553.9177,23.3
554.1053,28.3
554.2801,393.7
554.3687,541.1
554.821,276.4
554.913,156.6
555.0043,741.3
555.5716,162.3
555.5927,101.3
555.6768,503
556.062,112.4
556.1646,94.2
556.4243,686.3
556.7366,19.9
556.8862,348
557.5443,313.4
557.6121,203
557.6358,595.5
558.006,92.6
558.0331,550
558.2967,27547.4
558.4597,112
558.5375,25.9
558.6319,712.3
559.1233,29.3
559.2708,394.1
559.3,6616.8
559.3243,886.3
559.9381,695
560.1785,136.3
560.3124,48224.3
560.7005,173.1
560.7237,126.4
560.8015,468.3
561.2328,36.7
561.2773,182.2
561.3155,9694.5
561.3493,118.6
561.4137,8484.9
561.4369,240.8
561.7436,611.8
562.0637,199.4
562.2423,492.8
562.3112,777.2
562.3279,35072.7
562.417,1437.4
563.2066,800.4
563.3317,7973
563.4143,261.1
563.429,7895.3
563.5133,309.9
563.7847,678
563.9056,862.9
563.9085,844.8
564.2346,527.9
564.2401,550.5
564.2837,568.2
564.3073,4222.7
564.3979,297.8
564.4346,625.2
565.0236,674.1
565.2376,996.8
565.262,580
565.3105,482.6
565.486,317.4
565.5061,872.2
565.7481,85.7
565.9584,599.4
566.1548,505.9
566.2297,201.5
566.3227,34881.5
566.5581,414.9
566.6144,423.5
566.8467,113.7
566.9647,1761.7
567.2131,32.9
567.326,6724.1
567.4505,159.5
567.5444,196.7
567.7157,339.6
567.7788,398.4
568.102,23.6
568.3392,15434.6
568.441,173.1
568.7902,186.5
568.9616,422.7
569.3423,3102.9
569.3899,140.2
569.4271,656.7
569.776,494.7
569.9738,94.5
570.2388,36.4
570.2585,711.8
570.3047,242.3
570.4619,588.8
570.4772,28.9
570.6525,130.5
570.8679,5579.9
570.9018,134.9
570.9397,188.5
571.0044,563.1
571.0594,608.1
571.15,944.7
571.2785,883.5
571.8372,107.8
572.3677,889.2
572.5024,777.7
572.512,20.5
572.8649,3374.9
573.001,249.5
573.0197,183
573.0437,103.8
573.2582,142.4
573.3459,158.9
573.7241,223.4
574.0034,240.1
574.2832,1156.8
574.5127,320.2
574.6835,331
574.9027,127.8
575.0863,500
575.1681,504.6
575.3388,707
575.5043,4997.2
575.872,577.8
575.952,105.1
576.1694,94.1
576.2816,8026.6
576.5095,985.9
576.6741,669.4
576.8848,8736.6
577.2849,565.9
577.3838,346
577.389,539.5
577.3942,498.8
577.4089,135.6
577.5197,1061.2
577.8871,436.8
578.0335,207
578.2782,655.3
578.3091,448.1
578.3869,699
578.5509,22.1
578.5707,719.7
578.7677,89.3
578.8819,7586
579.0188,484
579.3431,211.3
579.6399,381.6
579.6911,110.7
579.9692,333.6
580.0956,21.5
580.2571,554.9
580.3632,585
580.4099,491.1
580.5284,252.4
580.6153,141.6
580.6697,35.4
580.793,621.3
580.8789,1372.9
580.8964,1626.5
580.9602,786.8
580.9854,699.1
581.5045,125.7
581.8036,202.2
581.862,38.6
582.026,1114.1
582.2969,6025.5
582.4065,259.4
582.4253,212.7
582.451,105
582.475,18.9
582.5015,125.4
582.5335,268.9
582.538,156.7
582.5543,686.8
582.6043,487.4
582.6115,631.3
582.6342,818.5
582.6525,414.3
582.6741,99
582.6899,204.8
582.7024,827
582.7232,288.4
582.7383,345.3
582.7594,590.3
582.7791,98.7
582.7886,20.6
582.8939,1827
582.9247,537.7
582.9376,376.9
582.9774,364.4
583.2561,1237.8
583.3408,179.3
583.4098,753
583.7899,225.5
583.8924,214
584.0773,155
584.3124,1139.9
584.3722,473.6
584.4328,665.3
584.4414,622.8
584.4678,118.5
584.7588,20
585.1301,115.8
585.2532,402.5
585.2719,941.8
585.448,413.9
585.5409,259.1
585.7457,398.8
585.9497,313.4
586.31,3261.5
586.8416,2217.1
586.9134,1173.7
587.3687,118.7
587.4142,600.7
588.5406,464.9
588.839,1926.4
588.9113,519.5
588.9581,531.1
589.0143,19
589.2226,104.7
589.4261,750.3
589.4516,506.8
589.5789,89.2
589.717,147.1
589.818,121
590.2709,136
590.3232,15293.4
590.8371,442.6
590.9258,524.1
591.0382,116.5
591.1391,476.3
591.1558,31.8
591.327,2917.1
591.4598,906
591.8464,107
592.0699,136.2
592.256,747
592.338,446.7
592.37,520.5
592.5749,109.3
592.7265,20.9
592.7607,223.1
592.8586,6857.4
593.068,386.3
593.313,256.9
593.6685,305
593.8774,672.6
594.0538,29
594.2619,339.4
594.4038,490.9
594.5389,145.4
594.8561,6281
594.9377,113.2
595.0999,32.7
595.6136,1300.7
595.6523,300.7
595.8602,499.7
596.0082,777.6
596.1372,198.7
596.2128,103.6
596.4585,99
596.69,149.8
596.7892,27.3
596.8528,1653.1
596.8708,621.4
597.0176,162.9
597.4068,22.1
597.4532,2484.3
597.4863,5685.3
597.6849,305.9
597.94,185
598.4606,1365.9
598.4892,1447.1
598.5399,305.7
598.7799,115.9
599.0042,205.2
599.0806,110.5
599.1588,322.9
599.2825,579.5
599.4663,2319.9
599.4836,1491.8
599.5042,1377.6
599.6017,282.9
599.746,319.2
601.0371,396.1
601.4827,573.7
601.6579,130.5
601.6639,213.1
601.6684,170.3
601.6836,501.6
601.7023,188
601.7806,191.2
601.8829,550.8
602.6554,441.3
602.6769,388.6
602.8588,254.6
603.1741,603.8
603.2332,23.1
603.2887,32.5
603.465,79
603.5379,121.4
603.7375,262.9
604.3126,524.5
604.5297,145
604.974,128.6
604.9874,22.1
605.3762,119.9
605.8228,88.2
606.488,492.5
606.8064,273.1
606.8372,162
606.9986,379.1
607.1718,3961.9
607.2256,111.5
607.453,300.9
607.5756,400.2
607.694,95.9
607.8604,316.3
607.8811,92.9
607.9151,18.9
608.0594,194.1
608.1762,128.8
608.3142,103
608.4058,1016.5
608.4214,493.7
608.8331,511.1
609.114,400.5
609.1656,236.7
609.4527,91.1
609.7765,662.2
610.3915,112.8
610.4679,231.8
610.7718,248.3
610.83,1101.1
610.9563,925.5
611.0234,815.5
611.2267,620.6
611.412,828.9
611.4437,528.6
611.9166,966.1
612.1562,359.2
612.7034,117.1
612.8299,33.7
612.9445,634
613.0453,246.2
613.1744,788.9
614.2,664.9
614.4305,475
615.0532,209
615.1021,85.8
615.1765,19
615.4585,1147.2
615.7715,118.7
615.9468,239
616.3598,209.2
616.4615,595.5
616.5724,193.9
616.9468,83.5
616.9948,126.4
617.0111,158.7
617.3229,197.2
617.476,12682.1
618.0043,292.1
618.3238,596.7
618.373,403.9
618.48,2089.5
618.9074,1260.1
619.377,335.4
619.4224,29.9
619.4427,825.3
619.492,24297.1
619.7253,593.4
620.4957,8018.5
620.6389,258.4
620.6899,92.9
620.7746,91.8
621.0595,309.8
621.1756,815.6
621.3069,500.4
621.4543,619.4
621.4859,2976.3
621.554,246.7
622.1928,156.4
622.268,119.8
622.4228,250.3
622.7095,78.6
622.81,140.6
623.1369,17550.4
623.1971,152.4
623.348,34.3
623.504,2758
623.6861,761.1
624.1408,2641.8
624.4934,518.4
624.5059,789.2
624.6572,641.2
624.8101,431.1
624.9219,489.5
624.9592,216.6
625.2327,727.9
625.2675,365.3
625.351,138.2
625.5227,764.4
625.8441,106.1
626.4179,214.2
626.6413,389.7
627.2181,88
627.3337,980.8
627.5347,35.9
627.6418,463.8
627.7315,20.7
627.8227,284.7
629.0466,170.2
629.1538,36011.7
629.371,119
629.401,34.7
629.5161,18.6
630.0095,312.5
630.1574,6708.1
630.2848,737.2
630.7429,544.1
630.9067,291
630.9415,401
631.1281,104.1
631.1578,393.5
631.2086,526.7
631.2432,89.8
631.5351,340.6
632.058,327.5
632.1346,455.9
632.384,370.7
632.5366,267.3
632.5769,215.7
632.5904,383.5
632.6401,563.9
632.6451,856.7
632.653,758.7
632.7836,744.7
633.026,110.8
633.2101,395
633.3926,303.6
633.5084,20.4
633.6978,87
633.9013,590.2
634.7449,677.5
634.8113,449.6
634.8431,2672.2
634.9692,311.3
635.4341,173.3
635.4639,1731.1
635.4873,895.4
635.7257,103.6
635.9694,153.4
636.4193,394.1
636.4637,930.5
636.525,321.5
636.6464,219
636.8407,2031.8
636.9435,519.8
637.0145,229.8
637.8872,18
638.0563,24.1
638.1016,591.6
638.2724,628
638.4896,111.4
638.6427,19.4
638.8375,2023.1
639.131,128.6
639.3894,337.8
639.4641,101.9
639.936,597.8
639.9555,101.7
640.1547,314.4
640.1865,21.7
640.4518,842.3
640.4898,372.7
640.4964,453.4
640.5017,402.2
640.6974,569.9
640.9223,253.3
641.5262,738.1
641.5819,127.2
641.6335,704.1
642.2448,20.2
642.4444,96.3
642.6469,21
642.9945,559
643.2838,635.1
643.5256,105.2
643.683,929
644.1665,104
644.2346,20.1
644.5153,511.7
644.7718,438.4
644.8914,249.8
645.0041,571.6
645.1187,13736.7
645.3212,1309.9
645.465,470.7
645.4854,2922.5
645.8607,606.7
646.1011,154.4
646.1222,1084.3
646.2942,130.1
646.4301,1366.6
646.4886,480.4
646.6961,107
646.945,81.7
646.9975,117.6
647.0942,149.3
647.4607,431.4
647.5007,518.7
648.175,106.7
648.1823,116.2
648.2209,346.9
648.3872,1133.3
648.7571,239.6
648.7911,294.2
648.9727,101.5
649.0502,560.2
649.2577,145.8
649.4787,103.1
650.1793,104.6
650.248,296
650.4405,1753.3
650.816,1067.9
651.1358,38603.4
651.5092,226.2
651.7675,515.8
651.8188,124.9
651.9978,20
652.1394,7251.7
652.5592,130.1
652.6595,20.7
652.6649,28.3
652.6832,556.8
652.726,206.7
652.8147,2664.4
652.858,778.6
653.0623,871.8
653.1122,306.7
653.5223,338.9
653.6939,31.2
653.9222,168
653.9389,152.5
653.9888,126.1
654.1157,746.2
654.4381,800.1
654.528,31.5
654.5597,243.4
654.6017,151.9
654.7732,18.4
654.8113,543.2
655.3049,739.7
655.4678,95.2
656.0884,130
656.2545,152.1
656.3104,671.7
656.3338,452.2
656.3972,144.6
656.6888,107.6
656.7167,320.8
656.831,311.6
656.8454,468.8
656.9028,147.2
657.3705,299.8
657.4046,111
657.7875,531.6
657.9243,121.8
658.4432,108.9
658.5879,409.1
658.8618,87.8
659.2308,141.8
659.344,32.9
659.4111,481.1
659.4459,91.2
659.7448,680.3
659.8235,656.2
659.9347,808.9
660.0833,4828.1
660.1032,586.9
660.2837,772.8
660.4471,779.3
660.4701,138.8
660.4853,342.6
660.6181,87.3
660.6823,31.2
660.7916,107
660.8455,390.7
660.8928,471.3
661.0833,7119.1
661.1685,571.5
661.2208,790.1
661.497,123.7
661.7776,227.3
661.9986,27.7
662.0883,400.5
662.1462,120.1
662.2759,138.5
662.3344,435.9
663.0907,378.3
663.4553,446.5
663.6399,754.7
663.6743,111.3
663.9994,622.5
664.469,3291.9
664.5749,230.8
664.6016,29.3
664.9848,133
665.2131,457.6
665.4929,653.2
665.5421,250.8
666.2645,120.7
666.395,329.8
666.4843,9351.5
666.5251,586.5
666.7606,31.2
666.839,127.4
667.1004,20184.7
667.2689,95.7
667.3756,313.8
667.4874,1419.4
667.6269,402.2
667.636,398.6
667.643,320.5
667.7183,588.4
667.9873,536.3
668.1042,2761.7
668.5221,371.7
668.5572,103.9
668.7004,21.9
668.9488,352.1
668.979,314.3
669.0782,103.1
669.1034,243
669.4713,139.6
669.7658,619.1
669.9304,454.7
669.9788,297.4
670.0276,207.6
670.2593,175.2
670.6173,868.1
670.7596,244.3
670.9324,595.4
672.4217,3310.8
672.4513,183.5
672.6687,392.1
673.05,224.3
673.087,118.5
673.1179,46485.1
673.4818,479.1
673.5293,917.8
673.8233,181.3
674.1213,7487.7
674.3752,499.7
674.451,146.7
674.8378,104.5
675.0921,131
675.1211,151
675.3712,142.1
675.5451,18863.9
675.7583,154.1
675.9108,521.4
675.994,95.7
676.0484,6827
676.5265,32.2
676.5484,7908.9
676.616,104.8
676.6481,91.9
676.9715,118.4
677.012,96.1
677.0262,393.8
677.0535,156
677.2248,97.8
677.3287,407
678.067,137.6
678.2672,18.6
678.4721,345.1
678.6046,263
678.8323,202.7
678.953,427
679.2859,90.9
679.6075,300.6
679.7873,124.9
679.9375,132.7
680.2333,349.6
681.012,97.1
681.0542,259.1
681.2083,142.4
681.9681,313.2
682.0653,15356.3
682.3151,177.3
682.5128,381.5
682.6382,386.7
682.7374,307.4
683.018,88.4
683.0653,4137.8
683.0916,157
683.4529,792.7
683.8694,394.1
684.2188,53.7
684.7508,309.3
684.9943,484.6
685.0249,117.9
685.0726,363.4
685.1121,39.7
685.1272,868.2
685.2922,338.8
685.4368,7401.9
685.9262,181.1
686.3745,336.8
686.4411,1556.6
686.5704,458.3
686.6152,125.1
686.9642,483.8
686.9848,271.6
687.0643,119.1
687.2003,326
687.4345,107.8
687.5073,766.5
687.5903,418.4
687.6723,113.2
687.8768,145.6
688.0784,735.7
688.3813,84.8
688.4748,298.6
688.5541,552
688.5803,21.3
688.6727,150
689.0819,15642.1
689.3566,727.8
689.5602,7896.3
689.9877,109.1
690.0965,785.8
690.5627,1372.7
691.0394,386.2
691.5522,19.9
691.7599,154.4
691.8051,114.5
692.1485,193
692.2798,252.4
692.4443,98.1
692.5687,99.5
692.7923,413.9
693.1634,129.5
693.4481,926.6
693.6974,377.9
693.8245,506.1
694.314,396
694.4111,463.2
694.7629,560.3
694.7988,535
695.0999,30287.8
695.2959,157.2
695.5114,4100.2
695.8001,511
696.1038,4749.4
696.3346,20.6
696.394,974.6
696.5013,140.6
696.7738,35
696.7985,1042.3
697.1573,115.8
697.1647,160.5
697.2976,281.9
697.4438,239.3
697.5271,24037.8
698.03,3645.4
698.1667,216.5
698.1847,213.5
698.2938,305.3
698.5305,5895.8
698.5981,154.6
698.6925,322.6
698.9051,178.5
699.0183,247
699.0228,251.9
699.0344,218.1
699.056,205.9
699.2495,23.5
699.5311,1081.3
700.0517,222.8
700.0782,754.5
700.7684,410.1
701.159,587.8
701.5607,47480.4
701.919,317.5
702.2553,245.3
702.3428,1369.2
702.3971,126
702.5642,15456.5
703.0773,110.1
703.245,205.6
703.2776,394.7
703.3232,500.4
703.5765,104716.8
703.6116,761.8
703.7025,93.6
703.9796,95.4
704.0474,9659.7
704.4493,1791.3
704.5798,47231.1
704.6656,213
704.6942,98.5
704.7528,168.4
704.9836,145.7
705.0157,215.7
705.0483,2163.9
705.4503,731.3
705.5821,6258.7
705.7949,135.7
705.842,219.8
706.0426,282.2
706.1271,94.8
706.5111,381.8
706.539,2751.9
706.7994,231.3
707.0389,335.8
707.2524,118.4
707.3095,262.6
707.3769,18.7
707.4807,230.1
708.0934,27.2
708.5424,170.7
709.5742,452.9
709.7335,146.6
709.8839,118.6
710.3765,21.6
710.3991,451
710.4737,116.4
710.7726,639.1
710.8457,292
711.0637,10701.4
711.0742,9573.9
711.2368,857.7
711.476,426.2
711.5426,8469.9
711.6157,299.2
711.7377,106.7
712.0693,1233.7
712.1961,346.8
712.4585,18.9
712.5458,1170.6
712.6287,495.7
712.9907,90
713.0706,252
713.5029,751.5
713.6668,23.1
713.8694,239.5
713.9009,126.7
714.0046,118.9
714.0706,675.7
714.1359,464.3
714.4242,195
714.6568,162.3
715.2496,176.3
715.3549,97.6
715.3806,115.5
715.4243,22.4
715.5167,128.1
715.6725,97.6
716.1831,19.2
716.7365,161.8
716.8868,357.9
716.9562,431.5
717.082,15362.3
717.2464,43.8
717.4901,59.6
717.5942,37
717.7891,318.1
718.0855,1437.6
718.0984,462.8
718.3007,17.6
719.0059,21.6
719.4625,347.8
719.6997,335.5
719.9791,1007.7
720.0111,1931.7
720.0226,2260.2
720.5789,534.7
720.5974,234.4
720.9912,854.5
721.2135,169
721.3631,143.4
721.4795,37831.9
721.6892,404.1
721.7541,19.3
721.8104,350.2
721.9975,105.6
722.0151,140.6
722.1189,692.1
722.2209,103
722.3104,341
722.4832,14454.7
723.1033,251.1
723.2345,569.9
723.3557,111.1
723.3935,356.3
723.4957,14103.9
723.5427,47534.4
723.8148,741.6
724.0376,565.4
724.4976,1333.3
724.5459,20321
725.0505,255.7
725.5586,108583.5
726.0298,4978.8
726.5619,43130.2
726.7941,289
726.8021,327.2
726.808,335.8
727.0291,1479.8
727.0514,524.2
727.2603,20
727.4098,935.5
727.5645,6983.7
727.896,692.1
728.0722,860.3
728.2022,102.5
728.2511,710.6
728.2557,736.2
728.2677,504.1
728.5213,2064.9
728.6289,144.4
728.9259,419.1
729.0233,287.7
729.0415,188
729.4059,414
729.4991,202.8
729.5594,106.7
729.5921,17053.9
729.6183,154.8
729.7376,132.8
729.8074,170.8
729.9826,327.2
730.5396,7366
730.5767,301.2
730.5962,4366.5
730.6226,290.2
731.3806,36.5
731.5444,1434.7
731.6081,7574.1
731.6847,144.8
731.7755,427.9
732.1126,794.8
732.5555,54924.3
732.6116,3084.6
732.9445,304
733.0135,212.8
733.0457,4444.8
733.0565,4898.6
733.0841,745.2
733.1112,152.1
733.3094,300.5
733.5589,23721.1
734.2883,372.1
734.5723,8559.2
734.8162,128.2
734.9622,20.7
734.9907,528.9
735.2857,31.2
735.5744,1198.3
735.6993,635.6
735.722,487.2
735.9944,204.7
736.062,361.3
736.1415,362.1
737.0358,203.3
737.3185,272.4
737.4542,6045.5
737.4908,322.5
737.6539,601
737.7269,132.6
738.0158,596.9
738.2684,340.3
738.6291,123.3
738.8074,104.1
738.8487,418
738.8843,895.7
738.9113,141.9
738.9334,1177.9
738.9674,22.4
739.0637,9074.9
739.3186,331.7
739.4066,303.8
739.4665,268.4
739.5167,5022.2
739.7605,112.9
740.1004,246.1
740.1625,372.1
740.2414,17.6
740.5208,1539.1
740.5511,143.9
740.6344,552.6
740.7834,126.9
740.8689,578.6
740.9117,19.1
741.0359,146
741.434,390.6
741.5327,12019.4
741.6308,86.5
741.7531,151
741.8846,330.5
741.955,161
742.004,1170.7
742.2281,145
742.51,319.4
742.536,4457.5
742.5764,8373.2
742.7769,85.5
742.8807,22.3
742.9569,125.4
743.4131,184.9
743.4649,1223.2
743.5314,235.5
743.5782,493.2
743.7331,617.5
743.9987,144.2
744.0185,158.1
744.3924,399.8
744.459,648.9
744.5559,2417.7
744.5923,7100.6
744.7771,152.4
745.1637,345.5
745.343,41.6
745.4498,148.8
745.4797,17178.4
745.5581,753.1
745.5956,224.6
745.6174,101.8
745.7993,94.9
746.396,383.8
746.4158,635.6
746.4828,6366.1
746.5717,7432.4
746.607,3770
746.6518,497.3
746.849,696.1
746.9423,115.4
746.9625,348
747.028,193.6
747.4947,4216.3
747.5737,3178.9
747.6073,392.6
747.6392,93.4
747.7407,327.2
748.0112,1312.2
748.0541,113.3
748.1321,155.9
748.1742,187.4
748.2024,123.1
748.4931,539.4
748.6191,102.1
748.7173,177.7
748.8965,323.5
749.0109,1111.9
749.1019,173.2
749.1855,176.1
749.2731,250.7
749.4266,250.6
749.5108,2277.4
750.51,152.5
750.6077,503.9
751.0191,506.8
751.1822,150.8
751.3291,368
751.4734,85.5
751.5226,448.3
751.5741,12783.6
752.0442,134.5
752.5217,7750.5
752.5761,1848.8
752.8309,576.4
752.8762,245.1
753.3986,414.7
753.4089,424.5
753.5249,2492.2
753.552,322
753.5894,4836.8
754.3947,303.5
754.5376,47014.8
754.8293,89.8
754.9667,117.7
755.0278,3484.7
755.3903,597.2
755.4189,24.6
755.467,30.3
755.5412,17035
755.8762,799.8
756.0054,17.7
756.0353,206.9
756.2604,789.8
756.5554,44743.9
756.6392,147
756.703,367.8
756.9734,313.1
757.1129,19.1
757.5585,16081.4
757.6231,2213.3
757.8958,338.5
758.3655,97.9
758.5713,826859.4
758.9341,460.7
759.3844,871.2
759.5747,369996.9
759.6406,1159.8
759.7765,20.5
759.8721,216.1
760.1709,392.4
760.361,123.6
760.4786,424.2
760.5876,453413.6
760.6404,184.4
760.7237,537.3
761.046,2872
761.2243,92.3
761.4511,651.1
761.5906,215869.4
761.6228,780.6
761.9503,159.6
762.0298,47.1
762.1296,125.5
762.5934,46366
762.921,18.5
763.0027,296.9
763.0565,513.2
763.1518,22.9
763.5954,2762.5
763.6501,207.4
763.7571,511.8
763.9864,228.5
764.2468,375.3
764.4702,758.3
764.5581,4545.6
764.6798,178.6
764.8183,411.3
764.8685,156.8
764.9769,869.5
765.5583,665
765.6339,270.3
765.9868,169.2
766.3292,416.9
766.3473,18.3
766.5387,2528.4
766.5762,28250.7
766.8137,324.7
766.8563,115.1
767.2651,19.5
767.5795,13161.5
767.6574,146.2
768.4978,476.9
768.5521,3559.8
768.5924,36038.4
768.7552,159
769.4794,11643.7
769.5953,14565.1
769.666,94.5
769.8436,93.1
770.1662,186.3
770.2323,102.6
770.4816,3327.9
770.512,3077.4
770.5733,1758.9
770.6088,3658
770.9131,139.2
770.9927,3810.5
771.502,836.2
771.6091,563
772.2364,81
772.2723,356.9
772.46,846.7
772.4797,194.4
772.5869,9977.9
773.593,1584.1
773.7431,87.6
773.931,678.1
774.0656,36.6
774.077,30.9
774.2012,727.7
774.2955,21.2
774.4257,170
774.4547,484.8
774.6035,825.8
774.6244,19.3
774.6537,90.4
774.7785,341.8
775.0883,32.2
775.2204,253.5
775.3394,642
775.5254,370.2
775.6045,169.2
775.7167,125.6
775.8732,154.8
776.521,2212.2
777.0106,3079.9
777.0526,358.4
777.3645,518.8
777.4252,41.1
777.954,135.6
778.0308,19.2
778.393,197.8
778.5377,33696
778.7936,318.8
779.4373,190.1
779.475,17.7
779.5412,15441.5
779.605,819.1
779.9477,202.6
780.243,1032.9
780.5535,595232.5
780.591,119.8
780.6628,825.5
780.6959,507.5
781.1619,116
781.413,313.3
781.557,269943.8
782.5284,20.4
782.5708,634412.9
782.9554,35.4
783.0283,3446.7
783.2071,19.2
783.574,303358.5
783.6041,140
784.5878,252563.7
784.6987,354.1
784.9001,327.7
785.1734,115.7
785.5907,124997.2
785.6553,6724.2
785.8268,102.5
785.9114,1098.3
786.1419,592.9
786.539,463.3
786.6032,234000.9
786.657,2067.8
786.7298,17.3
786.7506,19.1
786.9671,425.6
787.0671,387.1
787.2128,304.7
787.3106,358.6
787.3828,750.2
787.6064,114727.6
787.6711,1140.4
788.5578,10799.1
788.6056,12605.7
788.6214,21841.4
788.675,22.6
788.8834,598.3
788.8968,522.1
789.0939,369.7
789.2522,387.5
789.4656,421.9
789.5298,676.8
789.5424,557.5
789.5667,253.3
789.6229,9592.2
790.3948,907.7
790.4266,560.4
790.575,23623
790.6243,393.3
790.8408,18.5
790.9378,111.5
790.98,170
791.0559,517.4
791.4339,784.8
791.5593,1440.6
791.5782,4080.3
792.0675,485.1
792.1695,284.1
792.3786,33.6
792.5516,597.5
792.5919,20972.1
792.899,151.9
792.9833,869.5
793.0238,607.6
793.4827,422.4
793.5947,8365.5
794.1104,786
794.5106,4090
794.5436,20.5
794.5705,1784
794.6081,44525.1
794.8598,653.8
795.611,22529
795.9072,381.4
795.9693,142.8
796.1641,351.7
796.2249,226.7
796.2621,56.2
796.2912,31.1
796.4405,415.8
796.5271,91232.2
796.5574,585.2
796.5866,2400.7
796.6254,3749.2
796.864,96.2
797.3976,22.8
797.5305,39552.5
797.5895,49.1
797.6269,1134.2
797.8745,22.1
798.5438,43073.4
798.6833,104.8
798.8651,457.5
799.0674,738.2
799.3261,132.9
799.5465,18767.5
799.6704,1006.7
800.1045,22.5
800.2857,31.5
800.34,131.3
800.5214,1562.3
800.7076,846.2
801.0714,49.8
801.5139,99.1
801.5377,119.8
801.6896,90.9
802.4354,559.6
802.5375,66629.4
802.7588,114.5
802.8278,169.7
803.0551,559.8
803.4792,212.7
803.5409,27336.6
803.6349,519
803.7304,280.1
803.9719,113
804.1764,202.3
804.3806,584.6
804.4785,205.7
804.5535,258511.7
805.003,126.4
805.087,239.3
805.1341,40.4
805.2552,763.6
805.5567,122185.4
805.7862,248.2
805.9331,123.5
806.5709,439916.3
806.8157,23.4
807.5393,365.5
807.5742,225448.2
807.6351,958
808.5436,121.3
808.587,189339.3
809.3481,103
809.5897,98725.5
809.6752,178.4
810.1342,417.4
810.4274,599.3
810.6034,116163.8
810.8967,387.5
810.9485,452.6
811.0856,90.4
811.3549,396.3
811.4681,466.8
811.6062,56798.2
811.6704,14094
811.8709,19.4
811.9283,233.2
811.9861,174.8
812.0818,633.7
812.1026,333.4
812.1223,321.4
812.2304,99.6
812.4731,443.6
812.5619,130.3
812.6205,22671.7
812.6735,5526.1
812.916,485.4
813.0722,42.8
813.21,83.8
813.3935,703.8
813.4359,850.3
813.6225,11605.2
813.6871,8011.5
814.0107,160.8
814.5745,6336.5
814.6257,415.9
814.6903,2590.6
814.7473,128.8
815.1344,98.8
815.5767,1761.1
815.6225,465.2
816.1241,422.1
816.1545,194.6
816.3364,703.3
816.5626,283.4
816.5898,21787.2
816.9186,29.4
817.5296,711.7
817.593,9019.1
818.1758,316.1
818.3341,117.8
818.511,9419.6
818.5681,2231.6
818.6078,12434.7
819.0366,103.7
819.5161,1214.3
819.6114,6551.7
819.7107,653
819.8203,165.8
819.9547,497.6
820.3093,460.5
820.5276,43964.2
820.5871,904.5
820.624,1630.9
820.6955,97.9
820.8245,18.3
821.0981,769.3
821.1418,599.4
821.4514,19.1
821.5306,17200.7
821.6284,99.7
821.6812,19.2
821.7537,209.2
821.8519,331.2
822.544,21746
822.636,184.4
823.1076,650
823.5464,6082.7
823.7094,610.4
824.531,749.8
824.5594,17634.8
824.8934,733.7
825.0117,535.3
825.1682,653.9
825.3058,339.2
825.5248,315.9
825.5622,3779.8
825.795,325.3
825.8655,174.8
826.0898,1134.4
826.5371,3569.5
826.5678,973.1
827.166,316
827.4435,558.3
828.259,44
828.4291,665.2
828.5533,181721
828.6159,754.4
828.8434,32.2
829.389,737.5
829.5568,90029.2
829.6746,888.9
829.76,388.5
829.8331,941.1
829.956,113.3
830.0799,974.5
830.3233,603
830.5305,320
830.5711,49450.7
831.5732,28157.4
831.6074,471.3
832.0938,70.5
832.455,168.7
832.5857,68817
832.6261,594.5
832.7889,95.9
832.8592,536.1
833.0329,427.2
833.2834,441.2
833.5887,31663.3
833.6521,219.7
834.1381,22.9
834.1781,572.5
834.603,54953.9
834.6549,918.7
835.3026,248.4
835.4534,163.6
835.6056,27747.3
835.6697,880.1
835.748,735.7
835.8488,525.1
836.1664,575.4
836.6204,2971.8
836.7382,133.5
836.7524,244.3
837.5089,836.6
837.6223,277.6
838.3837,17.6
838.4533,428.1
839.2377,115.7
840.5902,2495.3
840.6539,155.4
840.6842,363.3
840.7338,1132.9
840.7585,452.8
840.8001,21.3
840.9695,987.1
841.5967,143.8
841.9393,99.8
842.2427,230.1
842.3187,572.3
842.3931,710.9
843.0962,183
843.2961,518.4
843.5593,381.8
843.6278,385.3
843.6663,19.5
843.7769,733.3
843.8055,551
844.3511,321.9
844.527,30647.3
844.7174,554
845.0856,100.3
845.1595,104.3
845.2785,178.4
845.4504,98.3
845.4845,127.8
845.5306,12218.5
845.6047,142.9
846.0451,153.9
846.1925,150.2
846.2244,231.5
846.3242,859.4
846.4424,511.8
846.5434,3027.2
846.9619,245.2
847.5491,784.3
848.0507,204.4
848.5591,4457.2
848.949,697.4
848.9936,1005.8
849.4373,556.3
849.5558,1029.4
849.6321,572.1
849.7081,96
849.825,23.4
850.4178,201.9
850.5441,910.5
850.7942,107.7
851.3733,575.7
851.4497,1154.1
851.5267,450.9
851.5747,402.3
851.9054,144.7
852.0811,283.7
852.1554,681.1
852.2639,91
852.2926,459.4
852.348,19.1
852.6515,699.9
852.8755,402.3
853.5429,233.5
854.0439,226.3
854.0643,104.7
854.3287,421.7
854.5407,361
854.5692,6822.7
854.9629,298.9
855.5736,1184.4
855.6845,137.2
855.8322,741.7
855.926,133.8
856.0278,106.8
856.0671,41
856.1146,574.3
856.209,424.4
856.3002,33.7
856.536,570.4
856.5847,16047.2
857.3549,90.4
857.5878,7522.9
857.9343,136.3
858.1558,94.1
858.9635,148.8
859.2171,1035.6
859.5061,192.9
859.6056,368.5
859.6267,505.6
859.9009,145.2
860.0942,21.1
860.1894,19
860.5588,322.4
860.585,184.5
861.3013,19.5
861.3261,549.3
861.4444,756.9
861.7425,84.7
861.9212,1674.3
862.0081,18.6
862.951,136.1
862.98,767.8
863.0207,165
863.1686,28.3
863.5814,32.5
863.6739,159.1
863.9244,18.9
864.6556,114.4
864.7586,240.8
865.3265,310
865.4665,170.1
865.7447,349.3
866.0363,19.8
866.2194,1238.3
866.3542,41.7
866.5342,19.8
866.6191,1112.1
866.8522,34.9
867.1475,18.4
867.4538,666.6
867.6525,33.2
868.2984,1336.3
868.4355,333.6
869.2876,368.3
869.5928,128.5
869.8195,147.6
869.89,251.5
869.9543,579.4
869.9889,258.1
870.0453,1017.2
870.1001,1348.7
870.1349,1238.1
870.17,756
870.19,1327.1
870.2559,2344.7
870.3227,3730.4
870.3838,2355.1
870.3956,2395.9
870.4556,2050.6
870.4919,2636.4
870.5436,1944.8
870.5617,1289.8
870.5991,417.4
870.6518,99
870.9182,136.2
871.7036,249.4
871.9178,328.8
872.1922,365.4
872.2268,245.6
872.3223,547.3
872.4862,516.8
872.5236,88.1
872.5583,1095.6
873.0641,20.8
873.3847,28.6
873.4587,91.7
874.0131,784.2
874.1954,500.6
874.2278,685.6
874.7723,1399.3
874.9568,154.2
874.9972,327.2
875.0246,708.4
876.3918,603
876.4455,416.2
877.253,768.3
877.3696,344.5
877.6259,202.5
878.3891,156.5
878.7374,315.1
878.8407,507
878.8982,952.7
879.3211,115.6
879.3915,183.9
879.6208,93.5
880.2411,28.1
880.7606,423.8
881.0226,330
881.2206,812.8
881.3413,1285.9
881.44,548.2
881.7836,228.1
882.7726,243.7
883.0864,123
883.236,845.4
883.3993,88.6
883.4759,19.5
884.2934,990.5
884.5147,19.5
884.6182,619.9
884.6595,21.4
884.7067,374.2
884.7134,362.5
884.7735,644
885.0217,755.6
885.8933,409.6
886.0159,551.6
886.1906,737.9
886.3534,190.6
886.4205,165.1
886.4556,189.4
886.5095,183.2
887.3662,26.7
887.8069,416.6
888.1404,20.9
888.2229,31.6
888.6571,184.3
888.7118,198.6
889.0543,125
889.714,228.6
890.031,1165.7
890.1501,131.8
890.5097,572.9
890.7469,19.1
891.1674,197.2
891.4542,229.2
891.6158,604.5
891.794,203.4
891.9379,487.9
892.3852,740.3
892.5996,846.6
892.7636,38.1
892.8676,133
894.6204,103.1
894.7668,296.4
894.8117,21.6
894.8459,282.8
894.9331,516.4
895.3067,297.7
895.3483,340.4
895.388,622.4
895.5451,84.7
895.7758,196.1
896.4971,92.5
896.9828,299.4
897.6421,1625.4
897.898,99.1
897.9789,86.4
898.0623,412.3
898.0748,385.8
898.5724,107.8
899.0121,1013.6
899.0804,424
899.2346,18.1
899.5536,277.2
899.73,200.3
900.9741,173.8
901.1253,105.9
902.1096,580.8
902.6739,21.3
902.7625,130.9
903.6343,105.8
904.0148,374.7
904.5124,276.1
904.6338,201.2
906.7753,50.6
906.799,57.2
907.0873,342.9
907.2186,158.6
907.2998,364.4
907.3656,595.9
907.6367,142.6
907.6986,245.9
907.8963,669.9
909.0706,87.2
909.2676,34.7
909.4365,273.4
909.5382,451.9
909.5897,362.8
910.7071,93.3
911.5485,580.1
911.7353,119.2
911.9725,545.7
912.1689,182
912.2371,508.4
912.7873,108.2
913.2075,21.4
913.7165,919.2
913.9634,115.1
914.1049,39
914.145,747.4
914.1803,89.2
914.6645,769.8
915.2353,545.7
915.2596,19.2
915.3306,629.1
915.5316,775.2
916.3553,199.8
916.4351,363.1
916.487,912
916.6428,562.4
916.6906,723.6
916.7231,34.9
916.7792,545.2
916.8187,1177.7
917.2463,372.5
917.7801,94
917.9546,99
918.1801,17.4
918.2735,530.3
918.9548,608.9
919.5739,172.4
920.0537,795.8
920.1113,582.4
920.2594,737.8
920.7274,568.4
920.8794,176.8
921.2317,18.5
921.4615,53.3
921.5467,463.7
921.8376,122
922.2239,155.2
922.464,110.3
923.1302,225.3
923.3248,467.9
923.8173,194.7
923.8692,21.5
924.0236,714.9
924.2521,141.6
924.4593,992.3
924.5317,178.7
924.5933,150.8
924.6172,310.2
925.2783,1157.7
925.6279,94.8
926.2328,251.9
926.402,38
928.6089,1541
928.8809,152.4
929.8301,493.5
930.0951,509.4
930.3455,475.3
930.4169,865
930.6863,19.7
930.8411,178.5
930.8817,324.7
931.0477,126.6
931.1486,800.8
931.6017,144
931.7208,1218.7
932.0747,346.6
932.515,19.1
932.7122,18.8
933.361,285.9
933.6973,415.1
933.8215,446.9
933.8331,391.5
933.8922,629.9
934.5353,373.2
934.699,878.1
934.9225,609
935.4742,707.4
935.5136,241.3
936.1141,354.8
936.4305,94.2
936.5042,23.8
936.9059,570.6
937.3337,483.2
937.3791,300.7
938.2597,51
938.5774,555.4
939.5857,440.2
939.9437,818.5
940.2786,81
940.5029,154.1
941.9203,634.8
942.2151,94.1
942.6512,626.6
943.0589,34.1
943.1058,514.1
944.0489,452.5
944.6477,717.4
945.6109,99.1
945.8359,123.7
945.8731,549.1
946.1561,725.6
946.6379,204.4
947.6311,187
947.9699,242.8
948.1962,102.6
948.2296,440.6
949.1462,30.5
949.2553,110.2
950.216,1188.4
950.229,1086.6
950.529,443
950.5578,30.5
950.7473,713.4
950.901,327.3
951.1297,831.4
951.2173,986.5
951.6997,329.2
951.8865,115.8
952.1736,114.6
952.3926,587.7
952.4934,721.1
952.6552,896.8
953.5701,137.6
953.6695,490.6
953.7111,311
953.9933,615.8
954.0441,789.5
954.7695,652
954.81,299.2
954.8519,329.7
954.9078,265.7
954.9753,281.3
955.1415,288.9
955.8256,719.1
956.3611,649.5
956.8197,1032
956.8766,443.2
957.0365,344.5
957.1913,442.2
957.2245,20
957.2733,21.3
957.3931,169.2
958.0466,626.8
961.0379,908.2
961.3826,26.1
961.4205,127.9
961.5397,602.4
961.7547,338.9
962.4177,123.6
962.9269,428.4
962.9998,522.8
963.0592,387.3
963.1814,468.3
963.8519,337.4
964.0234,376
964.0766,587.6
964.1911,149
964.3439,141.1
964.4064,31.5
964.433,451.7
964.4853,120.2
965.0104,486.5
965.0857,136.8
965.1324,89.9
965.1541,558
965.2053,166.5
965.3284,93.1
966.4061,1270.7
966.8192,169.4
967.12,240
967.8227,630.1
968.0798,182.7
968.3174,528.8
968.3576,212.1
968.5084,447.9
968.5484,150.7
968.9228,356.1
969.3675,592.2
969.4645,402.5
969.6602,642.2
969.6994,281.3
969.7933,1185.3
969.9705,127.4
970.0981,1329.1
970.1419,437.3
970.5376,466.1
970.5601,555.8
970.7374,98.9
970.8459,22.9
970.9388,882.7
971.2835,317.4
971.5645,386.8
971.9628,717.2
972.6525,821.4
972.872,195.4
972.9941,87.3
973.0942,120.4
973.3779,40.4
973.4179,49.9
973.5408,465.6
973.8572,20
974.1567,300
974.5106,235.4
975.927,1362.1
976.7836,541.1
977.5881,383.5
977.869,706.8
977.9783,544
978.1123,596.4
978.7362,95.8
978.7649,858.2
979.0983,1031
979.2069,659
979.3335,172.7
979.9718,514.2
980.1411,224
980.2834,536.3
980.3931,458
980.4074,465.9
980.6569,349
981.1543,1257
981.5732,376
982.7721,124.4
983.378,549.2
983.8548,253
983.9416,85.2
984.0541,234.9
984.2271,109.3
985.0321,858.3
985.1789,1053.5
985.3838,712.5
985.6993,218.5
986.0713,597.6
986.3177,455.3
986.3367,246.4
986.6599,411.2
986.7426,463.3
986.8593,1013.9
987.5579,343
987.7603,187
988.2615,30.9
988.5014,968.6
988.6155,781
988.7796,270.8
988.8974,109.9
990.1529,778.2
990.2479,254.3
990.4623,722.2
990.8448,128.1
991.0827,177
991.5054,116
991.794,169.8
992.2776,818.1
992.3075,709.6
992.8832,417.5
992.9381,111
993.284,123.8
993.4921,274.3
993.9603,657.8
994.2203,742.3
994.3405,321.6
994.4575,102
994.909,241.7
995.1321,383.9
995.3813,240.6
995.5463,20.8
995.7631,776.4
996.0844,132.6
996.14,450.4
996.5178,504.3
996.5729,820.4
996.76,105.3
996.8861,99.7
996.9842,47.4
997.1679,98.8
997.223,122
997.5472,596.3
997.8942,223.1
997.9331,634.2
998.4111,168.1
998.4567,563
998.6838,1744.7
999.2577,1401.3
999.3123,36.1
999.3981,109.5
999.5208,396
999.8226,439.1
