SPECTRUM - MS,
657.RAW,
FTMS + p ESI Full ms [50.00-1000.00],
Scan #: 1-39,
RT: 0.01-1.98,
AV: 39,
m/z,Intensity

50.0024,195
50.0074,46.6
50.0112,30.2
50.0125,25.4
50.0319,23.9
50.0477,23.7
50.0495,24.9
50.0683,134.5
50.0728,40.2
50.0904,22.6
50.1022,31
50.1082,27.2
50.1163,33.5
50.1318,41.9
50.135,37.1
50.1608,152.7
50.1736,18.5
50.1845,29.1
50.1858,67.7
50.197,48.2
50.2039,30
50.2172,118.7
50.2227,227.9
50.2387,62.9
50.2502,30.2
50.2573,41.1
50.2585,123.7
50.2603,44
50.2687,30.2
50.2706,33.7
50.2735,38.4
50.2753,407.3
50.2755,446.3
50.2862,19.3
50.2949,184.5
50.3133,25.4
50.3183,33.5
50.3284,158.9
50.3306,27.8
50.343,39.2
50.351,33.8
50.3611,134.2
50.3638,29.2
50.3812,97.3
50.3818,214.4
50.436,142.1
50.441,247.7
50.4458,25.8
50.4614,197.2
50.4618,32.2
50.4627,29.6
50.478,30.2
50.5298,17.2
50.5326,53.2
50.5465,62
50.5546,41.8
50.5832,109.3
50.5897,54.9
50.5918,28.3
50.6072,170.4
50.6126,39.6
50.622,28.7
50.6236,33.5
50.624,48.2
50.6281,30.2
50.6388,35.6
50.6418,25.4
50.6431,610.4
50.6487,102.4
50.6535,84.6
50.6683,24.6
50.6703,170.7
50.7005,324.7
50.7083,32.6
50.7092,27.7
50.7236,101.4
50.7348,364.5
50.7423,24.3
50.7474,43.1
50.7491,16.7
50.7549,30.1
50.7613,215.9
50.7835,204.7
50.819,82.9
50.8372,29.1
50.8404,29.5
50.8491,85.9
50.8525,26.7
50.8672,206.5
50.8777,48.9
50.9026,131.2
50.9065,89.1
50.9112,84.5
50.9153,359.6
50.9176,26.2
50.9317,36.9
50.9319,35.9
50.938,297.5
50.9532,28.7
50.989,58.2
50.992,28.3
51.0182,77.2
51.0197,29.5
51.0221,30.4
51.0321,139.8
51.0378,36.3
51.0442,164.8
51.0519,72.5
51.0606,24
51.0706,247.1
51.0783,507.6
51.0802,21
51.081,26.9
51.0852,28.8
51.0858,23.7
51.0921,35.6
51.0985,79.6
51.1035,58.6
51.1042,22.5
51.1207,16.8
51.1282,28.3
51.1462,614.3
51.1493,35.2
51.2301,123.3
51.2348,408.7
51.2356,60.3
51.2396,26.3
51.2437,77.8
51.2441,33.6
51.2818,49.6
51.2876,28.7
51.3118,411
51.3178,37
51.3203,30.4
51.3221,88.1
51.3465,30.5
51.3519,90.7
51.3595,197.9
51.3634,28.1
51.3658,24.9
51.3747,22.6
51.3821,146.8
51.3843,28.6
51.3996,173.5
51.4054,30
51.4172,33.1
51.4193,322.9
51.42,66.9
51.4516,174.8
51.4629,22.5
51.4752,27.6
51.5117,363.9
51.5173,378.5
51.5244,43.2
51.5372,58.7
51.5448,535
51.5559,32.3
51.5671,303.2
51.5682,23.7
51.5907,470.6
51.5944,25
51.6004,103.8
51.6019,25.7
51.6045,282.8
51.6113,31.6
51.6119,489.6
51.634,160.4
51.638,27
51.6503,45.3
51.6511,22.3
51.6709,25
51.6712,28.4
51.6734,155
51.6793,29.9
51.7101,53.8
51.714,74.8
51.7408,28.6
51.7441,81.8
51.7557,30.2
51.7604,24.3
51.8021,27.8
51.805,172
51.8109,34.2
51.8192,32.1
51.8298,25.1
51.8463,31.9
51.8608,23.1
51.8616,212.3
51.8628,33.2
51.8638,33.6
51.8733,56.4
51.8759,116.6
51.8946,44.1
51.8952,177.2
51.8977,29.6
51.9409,35.8
51.9652,45.9
51.9786,618.2
51.9855,66.4
51.9891,18.8
51.9915,535.7
52.0148,31.7
52.0369,176.4
52.0743,120.5
52.0747,189.1
52.0799,17.9
52.087,27.7
52.095,46.5
52.0963,54.2
52.1213,34.3
52.1249,212.6
52.1333,586.7
52.1681,25.7
52.1778,27.7
52.1849,49.2
52.2185,57.3
52.2267,93.4
52.2378,158.4
52.2428,36.4
52.2877,73.7
52.3091,36.8
52.3133,200.5
52.3297,83.2
52.3412,40.2
52.3456,205.7
52.3462,398.8
52.3575,209.6
52.3645,51.8
52.3729,31.8
52.3807,215.5
52.3829,297.2
52.4235,26.6
52.4302,24.6
52.4321,578.7
52.4334,59.4
52.4364,26.1
52.4405,600.7
52.4443,25.1
52.4476,39.5
52.4506,183.5
52.4533,210.8
52.454,544.8
52.483,35.4
52.4878,29.5
52.4916,25.2
52.5094,28.1
52.5395,24.3
52.5436,76.1
52.5464,30.4
52.5471,27.3
52.5499,249.9
52.5521,215.3
52.5693,27.5
52.5764,16.7
52.5943,29.9
52.5965,28.2
52.6118,93.4
52.6125,45.8
52.6214,515.4
52.6306,24.9
52.647,37.5
52.6491,38.1
52.6512,218.4
52.6637,29.1
52.6713,48.8
52.6726,428.1
52.6985,113.9
52.7029,61.4
52.7046,21.5
52.7462,26.8
52.7518,36.8
52.7547,37.3
52.7568,180.4
52.7707,30.1
52.7711,26.6
52.7893,53
52.7909,160.1
52.7916,572.9
52.7922,1659
52.7927,2227.1
52.7936,419.2
52.7943,386.1
52.7952,247.2
52.7956,502.6
52.7959,583.4
52.7964,485.6
52.7976,128.9
52.7981,31.8
52.8134,114.7
52.8219,23.4
52.8297,77.7
52.8332,159.4
52.8384,41.5
52.845,27.9
52.8878,55.1
52.8962,22.6
52.9132,429.9
52.9225,28.2
52.938,242.6
52.9439,34.8
52.9511,30.2
52.9643,37.7
52.9652,36.4
52.9704,532.1
52.9867,328.8
52.9897,28.2
52.995,581.6
53.0013,34.7
53.0018,162.2
53.0085,58.1
53.0216,619
53.0314,60.2
53.0335,49.8
53.0348,34.9
53.064,27
53.069,136.4
53.079,369.9
53.0801,28.7
53.0915,26.3
53.109,44.9
53.112,300
53.1187,458.3
53.1297,413
53.132,162.6
53.1478,65.4
53.1689,40.3
53.1805,40.6
53.1914,26.1
53.1988,493.5
53.2171,38.5
53.2204,68.2
53.2679,51.1
53.2696,31.5
53.2746,67.3
53.2866,187.1
53.3015,43.9
53.3308,71.5
53.3365,186
53.3491,191.1
53.3649,45
53.3879,314.2
53.4199,37.7
53.4564,29.9
53.4662,166.6
53.4916,23.6
53.4962,117.3
53.5238,36.5
53.5295,92.5
53.5507,168.7
53.5548,64.9
53.5564,39
53.5592,93.8
53.5613,37
53.5725,61.4
53.5813,74.8
53.5981,34.3
53.6018,28.3
53.6169,15.6
53.6516,37.7
53.6634,195.3
53.6661,29.8
53.7108,37.3
53.7147,276.9
53.7279,29.5
53.7329,30.3
53.7375,40.5
53.745,24.7
53.7668,106.7
53.7683,31
53.7714,26
53.7717,161.9
53.7746,26.8
53.7782,26.3
53.7841,31.1
53.7849,21.4
53.7863,32.2
53.7919,26.2
53.7933,29.8
53.8085,53.3
53.8098,604.2
53.8187,406.8
53.8249,517.8
53.8279,32.5
53.8352,30.7
53.8424,24.2
53.8449,75.9
53.8995,21.3
53.9064,162.5
53.9105,117.5
53.9307,61.1
53.9316,35.9
53.9356,17.6
53.9385,67.5
53.9397,24
53.9464,25.3
53.9505,25
53.9555,16.2
53.9584,28.9
53.9747,29.1
53.9789,220.7
53.9791,224
53.9837,44.6
53.9853,534.4
53.9939,25.6
53.9954,28.8
53.9976,26.7
54.0013,34.4
54.008,146.9
54.0089,29.8
54.0407,26.9
54.0425,79.4
54.0439,370.6
54.0466,300
54.0475,26.6
54.0564,28.9
54.0694,25.1
54.0723,76.4
54.0851,38.7
54.0943,57.4
54.0948,343.3
54.0982,251
54.0992,33.8
54.1236,54
54.1296,27.4
54.1375,27.4
54.14,34.9
54.1458,247.7
54.1522,60.1
54.1565,30
54.1599,30.5
54.1676,46.9
54.1682,436.6
54.1715,72.6
54.174,27.5
54.2047,579.9
54.2106,18.5
54.2164,48
54.2233,29.9
54.2249,30
54.2273,26.1
54.2376,24.8
54.2711,228.7
54.3001,174.8
54.3115,417.2
54.3128,39.2
54.319,148.7
54.33,33.1
54.3416,26
54.3424,61.6
54.3434,364
54.3461,22.4
54.3511,137.8
54.3523,107.2
54.357,39.6
54.3649,26.3
54.3723,145.6
54.3774,196.7
54.3863,189.9
54.4231,27.6
54.43,25
54.4333,35.1
54.4587,107.6
54.463,37.7
54.4686,28.7
54.4711,47.2
54.4799,29.6
54.4862,27.8
54.4984,23.8
54.5028,26.3
54.5125,373.2
54.5161,51.8
54.5285,306.6
54.5414,96.2
54.5598,141.2
54.5628,221.3
54.5643,204.4
54.57,26.9
54.5851,25.7
54.5894,464.1
54.6013,602.3
54.6116,298.7
54.6491,41.8
54.6516,23.3
54.6683,24.4
54.6773,228.2
54.6823,453.4
54.6875,202.6
54.6963,41.9
54.7011,220.8
54.7035,148
54.709,23.1
54.7269,51.7
54.7472,27.1
54.7548,33.9
54.7585,21.3
54.7979,438.1
54.799,26.6
54.8074,26.9
54.8186,18
54.8377,49.8
54.8546,31.1
54.8642,41.4
54.8816,58.9
54.893,58.9
54.9004,30.9
54.902,30.2
54.9234,109
54.9443,58.5
54.9645,307.3
54.9664,30
54.9851,26.4
54.988,36.2
54.9925,54.2
55.0031,42.6
55.0095,26.8
55.0154,27.5
55.028,29.1
55.0466,27.3
55.0563,129.5
55.062,41.5
55.0704,31.8
55.0757,53.9
55.0981,204.2
55.1247,62.1
55.1335,75.6
55.1625,82.3
55.1657,51.5
55.1752,405.8
55.2146,40.1
55.2159,23.8
55.2255,25
55.2444,43.5
55.2509,103.9
55.2556,33.9
55.2631,31.8
55.2758,567.3
55.2799,148.9
55.285,204.2
55.3237,84.2
55.3264,88.8
55.3328,158.8
55.371,43.6
55.3756,36
55.3826,167.4
55.4485,168.4
55.4557,33.4
55.494,23.9
55.5111,160.6
55.5126,28.1
55.5174,62
55.5433,99.7
55.5468,28.5
55.563,36
55.566,100.5
55.5762,387.3
55.5852,69.7
55.5997,162.8
55.6015,47.6
55.6036,136.6
55.612,27.1
55.6303,42.3
55.6321,37
55.6521,40.8
55.6587,41.3
55.6817,166.2
55.6843,25.1
55.69,75.6
55.6956,52.8
55.7257,63.8
55.7284,138.3
55.7392,22.4
55.7727,25
55.7783,136.9
55.8219,19.9
55.8227,447.6
55.8256,203.2
55.847,53
55.8513,24.4
55.8556,31.8
55.8907,34.7
55.916,325.1
55.9238,33.6
55.952,515
55.9836,182.9
55.9922,447.5
56.006,27.5
56.0132,558.6
56.0143,19.5
56.0149,350.1
56.0168,47.8
56.027,34.5
56.0476,47.9
56.0483,91.9
56.0491,132
56.0546,40.3
56.0702,572.5
56.0768,29.4
56.0781,467.5
56.0825,38.8
56.1003,49.7
56.1061,397
56.1331,36
56.1411,31.3
56.1603,348.6
56.1642,27.3
56.1664,40.1
56.1812,58.9
56.1825,17.7
56.1914,26.1
56.1997,100.9
56.2135,526
56.217,245.6
56.2194,18
56.2235,17.8
56.2269,104
56.2302,31.4
56.2547,40.7
56.2634,18.6
56.2667,616.4
56.2739,47.8
56.2768,242.6
56.3115,32.9
56.3558,234.9
56.3569,242.4
56.3576,542.9
56.3853,24.2
56.4079,456.2
56.449,116.5
56.4572,41.6
56.4767,27.5
56.4854,63.4
56.4947,31.2
56.4956,82.8
56.5145,32.4
56.548,35
56.568,26.9
56.6179,36.5
56.6276,22.8
56.6321,151.8
56.6473,26.2
56.6609,511.4
56.6727,29.4
56.683,485.9
56.6955,28.6
56.7301,26.2
56.7314,46.4
56.7441,69.7
56.759,29
56.7822,250.6
56.7914,28.5
56.7935,306
56.8022,26.9
56.8113,26.3
56.83,33.1
56.8786,744.3
56.887,25.4
56.9023,31
56.9143,48.2
56.9776,100.3
57.0153,402.3
57.0307,28.6
57.0367,50.1
57.051,637.3
57.0651,49.1
57.0731,43.3
57.0779,38.1
57.1013,37.4
57.119,25.9
57.1197,18.6
57.124,503.7
57.1313,23.4
57.1407,59.8
57.143,89.1
57.1454,593.5
57.1479,557.4
57.15,48.6
57.159,167.8
57.1698,24.5
57.1767,40
57.1874,121.6
57.1991,37.8
57.2115,149.9
57.2177,37.2
57.2183,29
57.2216,118.7
57.2298,150.5
57.2496,23.5
57.2758,40.6
57.2798,369.7
57.2871,39.5
57.3007,104.8
57.3399,29.4
57.3425,26.7
57.3469,27.5
57.363,37.5
57.3689,102.1
57.3779,136.3
57.4424,24.1
57.4688,242.7
57.4728,168.2
57.5021,118.3
57.5081,30
57.5118,261.8
57.5263,35.6
57.5358,468.2
57.56,43.3
57.5722,506.6
57.6043,58.3
57.6481,36.3
57.6544,175.2
57.6754,33.1
57.6802,415.4
57.6895,24.1
57.6964,37.3
57.7035,100.3
57.7088,243.3
57.7345,138.1
57.7361,27.6
57.7442,40.5
57.7479,65.7
57.7763,23.5
57.7851,164.6
57.8032,26.5
57.8109,30.2
57.8154,25.8
57.8166,27
57.8305,40.8
57.8412,333.6
57.8499,30.5
57.8734,30.9
57.8859,30.5
57.89,153
57.9105,29.2
57.916,29.1
57.9167,31.7
57.9452,193.2
57.956,326.5
57.9664,135.3
58.0151,25.3
58.0374,478.7
58.0401,16.3
58.0422,36.5
58.0532,37
58.0581,28.6
58.0609,29.8
58.0705,25
58.0776,40.9
58.1137,196.8
58.1166,17.6
58.1387,56.8
58.1652,483.3
58.1772,232.1
58.2003,81
58.2437,17.3
58.2608,30.1
58.2642,31
58.2651,34.1
58.2749,42.6
58.3181,51.3
58.3196,72.5
58.3599,39.6
58.4039,48.3
58.4095,28.2
58.4112,165.2
58.4224,40.5
58.4254,43.2
58.4346,38.8
58.4451,48.5
58.4579,165.5
58.4653,29
58.4739,93.3
58.4858,26.3
58.4986,40.4
58.5133,96.5
58.5216,287.9
58.5414,35.9
58.5587,38.2
58.576,40.4
58.5785,41.2
58.5896,19.1
58.5988,136.5
58.6078,187.6
58.6133,39.4
58.625,454.3
58.6287,405.9
58.6378,50.3
58.646,137.5
58.6464,16.5
58.6628,465.1
58.6648,27.1
58.6926,368.8
58.6933,28
58.7039,88.6
58.7065,60.5
58.7261,26.8
58.7454,29.2
58.7521,129
58.7528,115.9
58.7537,55.7
58.7624,477.2
58.7648,71.9
58.7897,44.1
58.7976,18.8
58.8052,29.9
58.8118,38.4
58.8332,24.1
58.8352,25.3
58.8394,500.5
58.8444,23.5
58.8706,543.9
58.8813,93.6
58.8825,27.7
58.8839,36.5
58.8903,38.9
58.8945,712.5
58.9034,37.2
58.9056,311.8
58.9447,43.4
58.9454,37.3
58.9613,59.4
58.989,55.3
59.0085,53.9
59.01,31.2
59.0245,52.1
59.0352,35.8
59.0356,598.9
59.0449,164.1
59.0614,21.4
59.0818,23.5
59.0896,43.3
59.0919,165.8
59.0989,52
59.0995,574.7
59.108,33.1
59.1145,159.4
59.144,146
59.1686,454.7
59.1732,40
59.1765,30.8
59.228,34.2
59.2302,232.3
59.2373,32.3
59.2468,29.2
59.2497,64.4
59.2602,20
59.2691,50.5
59.2996,98.9
59.3221,38.4
59.3233,44.7
59.3262,181.7
59.3393,414
59.3497,36.7
59.3631,183.5
59.3675,47.8
59.4046,178.8
59.4102,559.8
59.4503,172.4
59.4527,50.3
59.4707,38.5
59.4799,58.7
59.4816,22.1
59.515,127.9
59.5204,349.1
59.5243,28
59.5324,437.8
59.544,227.2
59.5633,205.9
59.5793,333.7
59.5936,59.1
59.6005,54.1
59.6186,32.7
59.6216,44
59.6235,16.1
59.6595,27.7
59.6682,28.5
59.6713,233.3
59.6725,25.3
59.6775,37.6
59.6783,67.7
59.6997,160
59.7028,35.6
59.7072,29.6
59.7132,24
59.7137,100.9
59.7412,39.7
59.7425,599.7
59.7449,136.6
59.7513,92
59.7584,368.3
59.7619,34.9
59.816,35.2
59.843,495.9
59.8472,41.2
59.864,26.8
59.8675,33.6
59.8761,36.5
59.8859,82.7
59.8903,53.8
59.8993,129.3
59.9081,37.4
59.9134,42
59.9197,28.5
59.9335,539.6
59.9384,48.3
59.9607,102.7
59.9741,165.8
59.9787,86
59.986,35.1
59.9929,71.8
60.011,16.8
60.0129,55.8
60.0372,332
60.044,418
60.0478,28.3
60.0644,27
60.0865,37
60.09,563
60.1007,27.4
60.1214,36.4
60.1476,52.7
60.1555,39.4
60.1804,119
60.1806,67.9
60.1851,42.9
60.1917,29.1
60.1928,44.6
60.1972,41.2
60.2208,180.7
60.2332,29.9
60.28,50.7
60.2877,24.4
60.2934,226.6
60.3094,27.6
60.3149,55.5
60.3209,31.4
60.3434,156
60.3751,54.7
60.3816,44.8
60.4053,34.4
60.4111,119.2
60.4137,24.7
60.4316,34.7
60.438,43.9
60.4399,367.5
60.4445,17.6
60.4458,93.2
60.4652,28.6
60.5033,23.7
60.512,25.4
60.5618,28.6
60.5688,53.5
60.5813,511.1
60.5971,46.4
60.6148,51.3
60.6592,317.5
60.672,30.3
60.6733,36.9
60.6885,63.9
60.7016,27.9
60.7048,33.5
60.7061,248.6
60.7255,23.3
60.7506,40.5
60.7597,27.8
60.7717,542.5
60.7802,43.6
60.7912,41.5
60.795,24.6
60.8006,27.3
60.8329,537.5
60.8695,40.8
60.8779,38.1
60.8961,37.8
60.8987,118.2
60.9007,32.6
60.903,168.6
60.9051,138.2
60.9157,107
60.9186,354.2
60.9232,194.6
60.9405,29.2
60.9508,157.3
60.9522,35.4
60.9604,42.9
60.9647,41.3
60.9673,34.6
60.9787,33.9
60.9906,43.3
60.9917,646.7
61.0095,179.9
61.0102,177
61.0159,85.5
61.0209,37.8
61.0321,48.4
61.0329,31.1
61.0586,27.4
61.0641,149.9
61.0702,96.1
61.0807,16.8
61.0918,73
61.1015,30.9
61.1316,15.6
61.1574,229.7
61.1608,52.7
61.1839,68.5
61.1843,152.2
61.192,110.4
61.1939,27.8
61.2541,28.3
61.2633,60.1
61.2695,227.1
61.2728,82.3
61.287,31.6
61.2916,33.7
61.3435,107.7
61.3627,188.5
61.3805,71.9
61.4163,408.9
61.4165,443.1
61.426,182.8
61.4312,234.7
61.4336,51.5
61.4347,17.5
61.4663,97.7
61.4812,28.6
61.4827,120.4
61.5021,85.1
61.5453,26.3
61.5571,19.8
61.5592,349
61.5765,147.9
61.5943,174.8
61.5969,121.9
61.6079,27.7
61.6238,42.1
61.6243,87.8
61.6688,388.3
61.682,435.6
61.7035,31.5
61.7085,50.6
61.7106,242.8
61.7548,131.6
61.7648,27.1
61.78,38.8
61.7908,40.6
61.8178,23.3
61.8194,54.6
61.8517,29.8
61.8525,29.7
61.8565,440.6
61.8699,69.9
61.8762,35.2
61.8844,40.3
61.9007,182
61.9094,24.3
61.9147,39.2
61.929,239.2
61.9411,168
61.9849,32
61.9862,42.9
61.9887,32.4
62.0086,54.1
62.021,30.9
62.0318,41.2
62.0498,26.8
62.0605,34.1
62.0627,27.1
62.0689,33.4
62.0981,28.2
62.1004,51
62.114,112
62.1443,44.8
62.1456,18.2
62.1483,30.9
62.1633,37.6
62.1662,26.5
62.1726,102.3
62.1734,37.5
62.1883,47.4
62.1999,18.6
62.2167,616.8
62.2207,31
62.2403,40.8
62.3066,30.5
62.307,21.7
62.3127,89.7
62.3263,27.1
62.3766,209.7
62.3788,40.7
62.4098,25.7
62.4305,63.6
62.4623,195.5
62.5014,61.7
62.5092,65.2
62.5258,29.2
62.5342,18.5
62.5358,73.5
62.5412,305.8
62.5464,566.7
62.5487,55.2
62.5584,29
62.5687,362.1
62.6008,38.8
62.605,231.2
62.6295,321.3
62.631,29.4
62.6434,34.5
62.6443,24
62.6465,27.5
62.6505,33.9
62.7085,35.5
62.7112,165.9
62.7194,50.1
62.7312,28.2
62.7323,32.6
62.7624,26.4
62.7768,30.1
62.7879,184.2
62.7979,485.5
62.8123,33.6
62.813,416.6
62.8283,28.8
62.8333,22.8
62.8545,102.5
62.859,400.2
62.8627,51.2
62.8643,420.3
62.8757,53.5
62.8814,71.6
62.8927,24.6
62.8939,15.7
62.912,454.5
62.9256,32.8
62.9355,440.3
62.9371,37.2
62.9537,113.2
62.9936,26.4
63.0002,76
63.0193,55.2
63.0276,25.1
63.0318,32.9
63.0403,132.5
63.0467,45
63.0659,21.6
63.0716,43
63.0769,502.2
63.0808,141.4
63.0894,40.4
63.1336,48.6
63.1341,72.8
63.1359,227.2
63.1432,29.7
63.1493,45.8
63.182,28
63.1915,103.7
63.1921,86.7
63.1955,27.8
63.2025,60.3
63.211,86.6
63.2238,72.4
63.2309,29
63.233,64.7
63.2544,52.6
63.2558,33.7
63.2623,32.7
63.2794,17.1
63.2893,425.6
63.2995,33.6
63.3137,521.4
63.3333,42.1
63.3387,461.1
63.3396,54
63.3407,228
63.3484,27.8
63.3646,27.7
63.3656,97.8
63.3995,34.5
63.4075,276
63.4084,52.5
63.4115,53.6
63.4225,434.3
63.424,46.9
63.4258,65.4
63.4311,191.9
63.4467,43.6
63.4543,30.4
63.4569,46.2
63.4593,26.9
63.4975,47.7
63.4984,346.3
63.5016,92.2
63.5101,612.1
63.5255,46.8
63.5334,70.1
63.5484,410.3
63.5592,471.7
63.5716,33.5
63.5762,66.1
63.6387,37.4
63.6479,289.3
63.6814,22.7
63.6817,22.5
63.7052,29
63.7061,32
63.7113,28.9
63.7689,129.6
63.7759,115.7
63.7817,26
63.7828,475.2
63.7874,293.9
63.791,168.5
63.7924,38
63.8314,59.6
63.8485,27.9
63.8506,49.7
63.859,115.1
63.8794,53.7
63.8849,69.1
63.9004,460.8
63.9134,25.5
63.9192,28.4
63.924,563.5
63.9277,390
63.9293,34.7
63.9367,53.1
63.9565,209.4
63.9639,47.9
63.9745,143
63.9901,23.7
63.994,83.7
63.9975,197.5
63.999,16.6
64.0179,183.1
64.0312,37.5
64.0605,180.2
64.0621,26.5
64.0849,17.2
64.0953,40.3
64.0977,26.7
64.1277,158.6
64.1573,25.5
64.1793,27.6
64.1954,41.7
64.2015,35.1
64.212,195.3
64.2251,28
64.2301,48.5
64.2309,447.5
64.2733,21.2
64.2747,38.8
64.2967,24.7
64.3126,26.2
64.3384,76.6
64.3665,28.6
64.3932,28.2
64.3945,34
64.4036,25.7
64.4038,25.1
64.404,24.1
64.4367,387.1
64.4477,37.2
64.4654,31.9
64.4769,117.4
64.4993,323.5
64.5003,61.7
64.5094,94.7
64.5151,81.3
64.5247,20.1
64.5272,40.2
64.555,124.7
64.556,25.3
64.5565,77.4
64.5735,29.1
64.59,195.2
64.5905,180.5
64.6072,23.7
64.6077,35.8
64.6084,165.8
64.6118,47.4
64.6151,126.2
64.6194,39.5
64.6238,19.1
64.6344,29
64.6357,25.9
64.6562,29
64.6664,32.9
64.6682,179.4
64.702,71.6
64.7035,34.4
64.7224,84.8
64.7277,44.6
64.7357,25.9
64.7375,30.3
64.7388,89.6
64.7784,46.5
64.7797,232.7
64.7903,18.5
64.7937,125.4
64.7954,129.3
64.8068,34.9
64.8539,615.3
64.8634,24.9
64.8713,45.5
64.8734,61.9
64.875,167.2
64.8855,37.8
64.8988,59.5
64.9294,463.7
64.9406,19.4
64.9528,83.4
64.9653,173.3
64.9703,453.3
64.9758,73.4
64.9821,89.2
64.9837,30.9
64.9978,503
65.0312,32.1
65.0332,783.6
65.0538,68.1
65.0649,106.7
65.0703,27.7
65.0769,39.4
65.1156,75.9
65.123,50.5
65.1476,141.9
65.1621,54.8
65.1879,84
65.2144,196.2
65.2409,179.3
65.2414,34.8
65.2529,24.1
65.2577,27.7
65.2718,30.1
65.2765,230.2
65.2781,477.2
65.2798,118.5
65.2819,42.8
65.2935,34.8
65.3228,37.6
65.3254,34.4
65.3325,423.5
65.3371,483.2
65.3455,33
65.3532,29.8
65.3711,38.1
65.3829,26.5
65.4119,29.8
65.4179,667.3
65.4316,82.2
65.4353,94.3
65.4403,592.7
65.4552,25.1
65.4579,29.1
65.4703,48.5
65.4768,463.1
65.4912,55
65.5044,243.8
65.5199,65.9
65.5269,37.2
65.5302,115.8
65.534,130
65.5423,180.1
65.5575,65.1
65.5657,29.9
65.5677,76.1
65.6028,57
65.6119,21.2
65.6173,35.3
65.6213,29.2
65.6239,18.7
65.6268,83
65.6524,32.4
65.6582,166.2
65.6635,114.9
65.6803,123.9
65.6886,31
65.7183,27.2
65.7226,39.4
65.7287,24.8
65.7665,29.7
65.7793,477.6
65.7842,31.6
65.7877,28.7
65.7955,62.3
65.8178,42.8
65.8184,344.1
65.82,636
65.8252,101.7
65.8341,36.1
65.8389,25.7
65.8502,395.6
65.8571,38.3
65.8607,65.1
65.9039,30.6
65.9112,28
65.9334,31.6
65.9375,153.5
65.954,41.6
65.9743,112.4
65.9767,363.4
65.9779,67.6
65.9921,77.4
65.993,25.6
66.012,585.7
66.0169,18.6
66.0278,41.3
66.0378,27.5
66.0403,70.2
66.0409,65.4
66.0484,27.7
66.0889,26.1
66.0921,25.7
66.0968,17.6
66.098,19
66.1045,725.9
66.1178,17
66.1249,31.3
66.1262,116.4
66.1477,45.4
66.1756,29.3
66.2048,134.7
66.2086,42.9
66.2158,153.2
66.2202,116.3
66.2237,107.5
66.2351,39.6
66.244,92.3
66.2594,25.3
66.2676,38.1
66.2759,27.9
66.2939,115.9
66.3064,26.8
66.3106,80.8
66.3145,69.5
66.3188,35.7
66.3311,27.4
66.3554,28.8
66.3699,120.9
66.3739,523.9
66.3765,67.9
66.402,32.9
66.4097,300.8
66.4196,28.9
66.4746,17.5
66.4781,28.5
66.4824,17
66.4918,25.9
66.4942,28.8
66.5081,47.7
66.5092,26.7
66.5113,26.1
66.5138,42.7
66.519,27.1
66.5224,25.6
66.5442,208.2
66.5469,135.4
66.5734,27.6
66.6081,16.9
66.6144,59.5
66.6397,32.8
66.6413,164
66.6416,177.8
66.6417,173.7
66.6438,27.4
66.65,44.8
66.6841,30.2
66.6869,316.7
66.6947,134.9
66.7006,37
66.7051,41.5
66.717,141.2
66.741,112.6
66.752,28.4
66.7618,32.6
66.7636,196.6
66.7737,16.7
66.789,121.2
66.8004,38.4
66.8097,35.5
66.8204,211.6
66.8541,484.9
66.8654,34.1
66.882,29.7
66.8828,31.1
66.8909,27.7
66.8969,610.7
66.9011,162.9
66.9079,495.2
66.9101,566.8
66.9124,31
66.9132,30.6
66.9509,18.3
66.9879,70.5
66.9903,31.1
67.0013,219.4
67.0149,45.7
67.0188,26.1
67.0276,171.6
67.0328,154.6
67.0333,33.9
67.0366,28.1
67.0492,44.6
67.0538,49.2
67.0617,33.8
67.0757,459.1
67.0995,24.4
67.1016,549.6
67.1223,32.3
67.1334,212.9
67.1621,18.8
67.1862,560.1
67.211,122.5
67.2127,79.2
67.2307,47.8
67.2317,447.2
67.2404,42
67.2421,430.5
67.2544,403.4
67.2887,50.8
67.2985,82.9
67.3114,23.2
67.325,32.9
67.3422,33.8
67.3625,35.1
67.3816,403.7
67.3904,31.7
67.4044,26.7
67.4055,80.7
67.41,30.5
67.4239,41.8
67.4246,57.5
67.4459,47.6
67.4541,45.2
67.4701,19.1
67.4822,23.9
67.4942,25.9
67.5058,60.2
67.5185,150.5
67.5299,41.5
67.6511,27.3
67.6612,209.8
67.6742,396.7
67.6969,25.8
67.714,42.9
67.7181,48
67.7254,44
67.7411,101.5
67.7547,36.8
67.761,56.3
67.7842,155.7
67.7981,109.5
67.8162,46
67.8516,82.5
67.8527,43.4
67.8622,57.7
67.8684,47.7
67.9031,43.5
67.912,27.2
67.9252,364.6
67.9332,28.3
67.9474,129.6
67.9583,43.2
67.9625,39.4
67.9934,590.8
68.0038,18.2
68.0461,84.8
68.0644,16.5
68.0984,25.4
68.1286,488.7
68.1368,27.6
68.1373,35.2
68.1529,76.9
68.1548,123.2
68.157,60.9
68.1662,24.8
68.175,19.8
68.1772,24.9
68.1779,656.5
68.1943,49.5
68.1998,187.1
68.2064,423.9
68.2148,40.2
68.2266,409.9
68.2317,134.8
68.2428,28.5
68.2622,27.8
68.2845,377
68.2969,27.1
68.3203,650.1
68.3429,25.4
68.3507,230.3
68.3544,504.8
68.3559,128.6
68.3562,135.6
68.3769,181.8
68.3839,155.2
68.3878,246.2
68.4085,185.2
68.4199,33.8
68.4348,34.2
68.4691,38.2
68.4787,20.7
68.4911,45.2
68.494,63.7
68.4949,119
68.5211,171.2
68.5314,46.2
68.5336,68.3
68.539,62.4
68.5589,28.5
68.5698,21.5
68.5869,194
68.5883,375.7
68.5997,118.4
68.6044,174.6
68.6127,121.4
68.6434,49.3
68.6868,59.2
68.6903,32.1
68.7101,75.7
68.7149,31.6
68.7156,195.7
68.7337,52.3
68.7435,25.2
68.7451,26.9
68.7657,67.7
68.7686,171.1
68.7767,463.6
68.7793,80.5
68.7916,17.1
68.8189,333.6
68.8256,111.1
68.8308,24.6
68.8401,34.6
68.8403,34.3
68.8592,28.7
68.8746,157.7
68.8794,39.3
68.8835,88.9
68.9451,43.5
68.9676,558.1
68.9739,171.1
69.0141,139.8
69.0808,32
69.0891,720.9
69.0996,29.9
69.1173,30
69.1254,193.6
69.1438,40.9
69.1624,48.9
69.1803,381
69.1825,28.6
69.1883,41.6
69.2006,24.9
69.2062,97.1
69.2245,29.5
69.2275,55.3
69.3571,84.7
69.3609,24.5
69.3724,66.5
69.4018,27.3
69.4076,90.3
69.4136,90.7
69.4267,48.6
69.4406,41.6
69.4528,63.1
69.4539,63.4
69.4567,66.2
69.4582,34.3
69.4645,26.1
69.4768,31.5
69.5117,56.8
69.5327,35.8
69.5358,53.2
69.5445,29.1
69.5562,180.5
69.6139,174.1
69.6342,53.5
69.6414,37.2
69.6467,31.2
69.6971,29.9
69.7002,29.2
69.7048,63.3
69.732,24.6
69.7552,30.3
69.7593,28.5
69.766,41
69.7695,157.4
69.8173,28.5
69.8183,32.7
69.8365,147.5
69.8471,38
69.8708,154.7
69.8964,20.5
69.9036,43.4
69.9203,37.8
69.926,43.5
69.94,348
69.9762,186.5
69.9918,65.1
70.0053,88.3
70.0138,16.8
70.045,94.5
70.0489,560.3
70.0509,32.7
70.0574,59.5
70.0648,792.1
70.0685,84
70.074,593.9
70.08,223.9
70.0805,186.4
70.115,35.8
70.1691,28
70.1877,28.2
70.1953,23.9
70.2058,24.6
70.2604,77.9
70.2833,101.5
70.2854,231.6
70.32,50.8
70.4212,36.9
70.4223,68.6
70.5132,192.3
70.5291,184
70.5534,25.1
70.6081,28.6
70.6296,368
70.655,186.7
70.6593,340.7
70.6675,219.3
70.6726,27.3
70.6754,58.8
70.6878,25.8
70.7062,55.5
70.7085,172
70.7401,84
70.7636,44.9
70.8026,44.8
70.8108,54.2
70.854,26.4
70.8552,363
70.8592,517.8
70.8658,29.8
70.9099,37.8
70.9109,46.3
70.9207,26.4
70.9376,60
70.9525,414.3
70.98,46.9
70.9846,26.9
71.0262,19.5
71.0376,33.4
71.0526,275
71.0553,740.9
71.0593,17.7
71.0624,74.4
71.0659,481.4
71.074,32.8
71.0889,28.5
71.0916,40.1
71.0949,451.8
71.0997,58.5
71.11,27.8
71.1539,31.3
71.1618,261.2
71.1714,34
71.1901,24
71.2072,97.4
71.2181,31.4
71.2276,47.3
71.2553,26.4
71.2567,146.8
71.2731,60.8
71.2981,20.6
71.3268,141.4
71.3441,426.4
71.3527,39.2
71.3836,105.4
71.3954,34.8
71.4115,28.4
71.4435,21.1
71.4471,28.4
71.461,42
71.4636,43
71.4654,17.3
71.4666,30.3
71.471,41.5
71.4854,76.6
71.4962,57.2
71.5117,39.6
71.5269,414.9
71.5318,17.8
71.5552,34.9
71.5806,429
71.5891,42.4
71.5912,51.8
71.5916,22.1
71.6016,55.7
71.6026,233.1
71.6101,185.8
71.6142,108.9
71.6283,25.1
71.6397,165.3
71.6732,84.8
71.697,31.1
71.7196,31.5
71.7328,61.7
71.7496,35.4
71.7732,433.8
71.7918,24.3
71.8054,196.4
71.8339,26.9
71.8393,48.1
71.84,174.6
71.8446,168.9
71.8626,28.7
71.8929,411.3
71.8954,36.9
71.9037,32
71.9236,26.4
71.9907,114.9
71.9946,88
72.0074,172.9
72.0087,33.6
72.0188,31.1
72.0276,45.9
72.036,26.7
72.0564,87.2
72.0805,2931.8
72.1204,27.6
72.127,113.2
72.1384,40
72.1568,46.6
72.1579,28.8
72.185,43.5
72.1899,17.6
72.1958,23
72.1998,538.2
72.2049,495.6
72.207,598.4
72.2088,652.9
72.2116,219.4
72.2122,449.2
72.2129,193.7
72.2146,428.6
72.2155,65.7
72.2162,127.7
72.2165,138.9
72.2171,181.2
72.2178,80.3
72.219,783.5
72.2198,671.3
72.2205,443.8
72.2209,432.6
72.2223,643.4
72.2237,1342.4
72.2239,1385
72.2246,1920.2
72.2261,1311.2
72.2266,1620.2
72.2281,1241.2
72.2287,668.3
72.2295,1857.9
72.2303,677.7
72.2309,654.6
72.2324,1803.5
72.2352,214.8
72.2363,748.1
72.238,537.6
72.2388,118.6
72.2397,49.4
72.2407,64.7
72.2413,522.8
72.2419,88.7
72.2557,15
72.2559,15.3
72.2701,29.9
72.2829,366.3
72.3532,37.8
72.3691,27.4
72.3754,28.6
72.377,29.1
72.3826,182.6
72.3912,224.9
72.4096,35.2
72.4259,380.2
72.4525,135.6
72.4928,404.7
72.4947,272.6
72.4956,453.2
72.5011,162.7
72.5057,56.6
72.5167,31.7
72.5231,52.6
72.5267,33.5
72.537,40
72.5632,387.6
72.5895,471.2
72.6462,29.1
72.6702,88.7
72.6925,29.6
72.7015,44.9
72.7131,47.1
72.7268,75.2
72.7279,38.9
72.7295,97.8
72.7304,429.8
72.7695,36.7
72.7719,55.2
72.789,393.2
72.8139,23.4
72.8159,155.7
72.8478,17.9
72.8612,25.7
72.869,47.4
72.871,42.3
72.8722,387.4
72.9364,41.4
72.9473,47.9
72.9584,35
72.9657,31.8
72.991,119.1
72.9971,26.9
73.0024,92.7
73.0253,183.9
73.0283,22.1
73.0842,23.1
73.0942,36.5
73.1032,399.3
73.1052,18.6
73.1138,29.9
73.123,211.3
73.1482,29.1
73.1678,23.7
73.1689,111.4
73.1934,455.6
73.1991,79.6
73.2053,45.5
73.2184,27.5
73.2531,263.9
73.2825,96.1
73.3136,32.8
73.3646,697.8
73.3871,149.8
73.4013,58.7
73.406,18.8
73.4231,26.3
73.4328,141.2
73.4601,395.8
73.4613,27.9
73.4926,31.3
73.5027,45.2
73.5157,64.5
73.5285,77.4
73.5329,64.8
73.5791,316.6
73.5989,350.7
73.6006,26
73.6021,585.8
73.6404,43.3
73.6441,386.8
73.6606,32.8
73.6824,177.9
73.6849,49.1
73.6911,79.5
73.6993,220.5
73.7272,27.3
73.728,23.9
73.7849,473.8
73.791,40.6
73.8029,26.5
73.8127,28.7
73.8192,18.2
73.8567,49.4
73.8695,50.2
73.8963,41.3
73.9141,31.8
73.9515,99.7
73.953,88.6
73.9663,103.8
73.973,51.9
73.9824,469.6
73.9871,183.1
74.0016,702.3
74.0057,47.9
74.0106,144.9
74.0352,119.9
74.0598,6692.7
74.0615,363.9
74.073,120.5
74.0913,29.6
74.0962,211
74.1582,30.2
74.1639,30.1
74.1676,43
74.1704,20.8
74.1834,210.4
74.1897,382.3
74.1966,341
74.25,17.8
74.261,36.5
74.2827,36.1
74.3354,47
74.3751,609
74.4094,43.8
74.4113,640.6
74.4216,62.9
74.4746,34.9
74.5083,27.2
74.5158,58.3
74.5365,143.1
74.5446,68.4
74.5616,116.5
74.5992,26.8
74.604,156.5
74.6057,30.1
74.6447,29
74.6568,112.1
74.6917,57.5
74.7227,142.8
74.7415,32.6
74.7435,30.1
74.7493,301.8
74.7541,29.9
74.7592,375.6
74.7871,50
74.8138,28.9
74.8244,57.4
74.8339,26.6
74.8366,632.9
74.8373,33.3
74.8538,34.2
74.857,44.8
74.86,181
74.8812,33
74.8879,46.3
74.8889,30.3
74.9016,46.4
74.9128,56.2
74.9315,185
74.9342,36.5
74.9434,36.6
74.9451,26.4
74.9461,98.5
74.9751,31.1
75.0117,30
75.0734,24.5
75.0774,30.3
75.0873,26.4
75.0899,32.7
75.1068,47.1
75.1329,103.6
75.1461,391.2
75.1474,375.2
75.1486,119.2
75.1554,27.3
75.1606,42.7
75.1648,24.7
75.1682,25.4
75.1857,50
75.2023,425.4
75.2043,236.4
75.2064,30.2
75.2087,201.6
75.2111,27.1
75.2522,57.5
75.2589,27.3
75.2625,35.5
75.2688,28.7
75.3014,26.8
75.3347,190.3
75.3626,201.9
75.3714,66.3
75.3765,48.9
75.3788,60.9
75.3926,179.3
75.4006,55
75.4087,40.1
75.4137,98.1
75.4212,94.9
75.4452,23.4
75.456,17.1
75.4568,90.8
75.4612,117.2
75.4652,23
75.4872,30.2
75.5009,134.4
75.524,35.3
75.5291,28.5
75.543,179.4
75.5443,62.5
75.5485,149
75.6257,18.7
75.6594,70
75.7047,163.7
75.7318,416
75.736,107.5
75.7382,48.7
75.742,27.7
75.7586,215
75.7603,55.1
75.7916,510.7
75.8005,28.9
75.8203,59.5
75.8222,97.4
75.8253,28.6
75.8356,24.3
75.8358,24.4
75.8401,151.8
75.8669,27.8
75.8889,25.4
75.9354,25
75.9723,19.9
75.9877,33.5
76.0106,91.1
76.0144,36.6
76.0252,34.6
76.0266,36.9
76.049,27
76.0526,40.5
76.1076,32.6
76.1313,408.7
76.1342,56.8
76.1447,343.2
76.1579,58
76.1704,29.9
76.1741,99.8
76.1785,29.8
76.1944,29.4
76.2148,29.1
76.2222,28.6
76.2257,27.9
76.2281,33.8
76.231,18.8
76.2484,471
76.2606,146.4
76.2761,428.6
76.2905,38.4
76.2949,47.5
76.3002,80.1
76.3295,51.9
76.3349,39.1
76.3423,60.5
76.3603,28.9
76.3785,67.5
76.3884,34.9
76.3937,775.6
76.3992,27.6
76.4474,31.4
76.4491,128.8
76.458,18.3
76.4707,61.8
76.4733,35.8
76.4963,33.8
76.5018,24.6
76.5138,26.6
76.5239,29.2
76.5293,30.2
76.5441,239.1
76.556,86.6
76.5586,118.2
76.5589,121.7
76.56,590.5
76.5663,85.5
76.6007,396.3
76.6035,40.4
76.6244,38.1
76.6412,19.9
76.6766,28.6
76.6789,52.2
76.7,45.3
76.7029,185.1
76.7097,65
76.7153,34.9
76.7458,70.6
76.7636,44.3
76.7718,37.9
76.7757,119.4
76.7994,461.6
76.8026,189.2
76.8215,355.7
76.8364,56.8
76.8687,95.6
76.8745,25
76.8758,190.1
76.8916,35.6
76.904,325.7
76.9731,55.4
76.9977,28.6
77.0026,49
77.0302,29.4
77.032,24
77.0337,36.8
77.0346,514.1
77.0353,180.3
77.0363,34.8
77.0383,136696.6
77.0562,169.2
77.0724,16.7
77.0803,51.8
77.0974,26.8
77.129,50.1
77.1421,94.3
77.1545,63.1
77.1554,35.9
77.1569,416.7
77.1747,19.8
77.1978,55.2
77.2044,29.3
77.2282,318.5
77.2637,43.7
77.2718,27
77.3167,480
77.3602,499.8
77.3834,188.1
77.3869,456.4
77.3992,174.8
77.4011,31.6
77.4017,92.3
77.4278,40.3
77.4389,29.8
77.4681,42.8
77.5108,32
77.5215,58.7
77.5243,119.5
77.5448,62.4
77.5644,118.7
77.5741,126
77.5836,548
77.587,31
77.6093,150.7
77.6251,224.8
77.6332,33.9
77.6415,402.4
77.6537,123
77.6598,392.2
77.6718,52.4
77.6899,233.4
77.6906,33.6
77.6925,86.1
77.7122,28.2
77.7291,43.8
77.7736,28.9
77.8044,62.6
77.8143,27.6
77.871,252.1
77.9042,94.3
77.9532,30.3
77.9736,86.9
78.0417,5234.8
78.0458,26.7
78.0631,108
78.0702,34.6
78.0736,31.6
78.0795,178.5
78.0926,64
78.1253,71.2
78.1416,517.3
78.1481,76.9
78.1674,603.8
78.1901,26.1
78.2221,199.6
78.2401,20.1
78.2469,142.2
78.2538,35.6
78.2671,70.7
78.2707,41.6
78.2889,43.3
78.3288,27.5
78.3636,21.3
78.373,75.1
78.3795,483.5
78.4072,26.4
78.4092,472.8
78.4157,26.8
78.4222,45.9
78.4604,92.1
78.4639,36.5
78.4931,60.9
78.5063,25.4
78.5739,26.5
78.5753,230.2
78.5846,86.8
78.5963,40.9
78.6404,487.3
78.6518,142.8
78.6534,84.1
78.6701,681.1
78.6827,28.1
78.6992,69.5
78.7377,122.4
78.7398,33.8
78.7779,413.8
78.7999,685.7
78.8206,336.6
78.8524,30.5
78.9007,77.6
78.9348,126.2
78.9427,103.7
78.9588,35.2
78.9759,39
78.9797,425.3
78.9885,22.5
78.9968,63.7
79.0151,37.3
79.0307,42.9
79.0483,48.6
79.054,11708.6
79.0698,158.3
79.1023,426
79.1186,28.8
79.12,72.3
79.1254,25.1
79.1486,364.5
79.2162,77.6
79.2518,203.2
79.2998,20.1
79.3095,30.5
79.3205,38.9
79.3266,32
79.3351,434.7
79.3537,57.2
79.37,29.6
79.3804,27.6
79.3876,44.8
79.4264,625.9
79.4371,74.2
79.4387,38.3
79.4585,41.1
79.4892,99.9
79.5082,216
79.5105,732.4
79.5127,26.4
79.5212,345.8
79.5589,222.9
79.5655,46.4
79.5812,343.9
79.6027,151.5
79.6679,28.7
79.6739,49.2
79.6852,105.7
79.707,50.1
79.7139,33
79.7185,43.4
79.7471,84.5
79.7771,91.1
79.7802,19.8
79.7863,29
79.7901,224.1
79.7957,44.7
79.8067,25.3
79.809,38.6
79.8289,28.5
79.8423,269.6
79.8775,85.7
79.8996,34.4
79.9065,52.4
79.9094,38
79.917,29.3
79.9317,50.6
79.9441,373.2
79.954,108.7
79.9568,30
79.9767,42
79.9799,27.9
79.9843,34.8
79.9874,45.2
80.0113,42.3
80.0394,36.4
80.0492,36.1
80.0547,45
80.0573,90.8
80.058,653.1
80.0766,24.6
80.0924,198
80.0968,32.1
80.1199,78.6
80.1446,196.6
80.152,165.3
80.1668,31.5
80.1893,489.1
80.2011,224
80.2306,48.9
80.2376,35.3
80.2412,45.7
80.2435,27.1
80.2521,113.2
80.2604,61.2
80.2771,26.5
80.2838,114.9
80.2987,367.7
80.3133,40.7
80.3331,39.4
80.3343,27.7
80.3629,49.9
80.3645,201.8
80.3766,474.5
80.3857,46.3
80.4034,520.6
80.421,114
80.4298,31.6
80.4433,102.6
80.4521,37.6
80.4562,17.4
80.4633,40.1
80.4897,50.6
80.497,33.6
80.4982,17.6
80.505,29.4
80.5085,32.9
80.5136,29.5
80.5432,24
80.544,181.7
80.5552,61.5
80.5857,27.3
80.6015,515.1
80.6287,30.8
80.652,34.7
80.6633,244.5
80.6688,92.8
80.685,237
80.7845,43.9
80.7959,254.4
80.7999,29.2
80.8094,27.8
80.8201,19.2
80.8215,24.8
80.8259,206
80.8273,32.9
80.8307,218.4
80.8575,28.3
80.8596,40.5
80.8704,33.3
80.8866,21.8
80.8908,32.3
80.8942,28.9
80.9216,21.9
80.9356,27.1
80.9384,50.7
80.9429,25.8
80.9476,17899.9
80.9506,121.8
80.9713,175.8
80.9773,82.3
80.9857,18.8
80.9907,27.6
80.9923,50.5
81.0029,31.3
81.0069,29.3
81.017,29.6
81.0246,54.4
81.0375,63.3
81.0696,8071.6
81.0743,31.3
81.1003,58.9
81.117,24.2
81.1269,57.9
81.1389,52.7
81.1439,43.8
81.1451,35.6
81.1463,48.1
81.147,550.1
81.1479,2053.4
81.1492,47.4
81.15,283.3
81.1508,43.5
81.2074,39.7
81.2169,347
81.2358,186.4
81.2461,41.5
81.2599,43.4
81.3126,33.5
81.3271,34.4
81.3788,166.9
81.4202,35.7
81.4215,93.3
81.4617,17
81.4623,29.9
81.4974,66.8
81.5204,498.1
81.5214,40.5
81.523,26.8
81.5261,644.8
81.5616,43.3
81.5765,29.6
81.5881,18.9
81.5928,95.4
81.5947,32.5
81.6441,28
81.6542,26.3
81.6593,364
81.6614,62.7
81.6753,24
81.6788,32.6
81.6996,638
81.7063,50.7
81.7071,174
81.718,479.9
81.7341,35.8
81.7566,176.6
81.7722,572.2
81.7923,492.5
81.8009,97.8
81.8036,26.7
81.8151,237.2
81.8299,149
81.8405,61.4
81.85,57.9
81.8552,37.6
81.8876,40.1
81.8971,32.3
81.9048,34
81.9513,29.3
81.9918,33.2
82.006,28
82.0112,35.2
82.0125,124.2
82.0659,23.7
82.0731,19.9
82.0897,687.4
82.0984,86
82.1001,34.7
82.1068,32
82.1293,115.9
82.1346,382.3
82.1425,156.6
82.1486,55.8
82.1516,61.4
82.1528,42.7
82.1761,481.8
82.2574,217.1
82.2639,29.4
82.2886,42.6
82.312,31.7
82.3251,482.3
82.3264,48.4
82.3274,34.4
82.353,198.9
82.3622,82.5
82.3763,47.5
82.3773,18.8
82.3853,196.9
82.4429,138.5
82.5271,25.6
82.5614,115.1
82.5984,36.7
82.6523,141.2
82.7031,58.5
82.7207,43.5
82.725,205
82.7258,203
82.7452,33.1
82.7709,27.4
82.794,31.3
82.7967,400.4
82.8355,83.1
82.8665,39.4
82.8905,187.7
82.9265,25.1
82.9446,3253.1
82.9583,25.6
82.9732,676.7
82.9964,378
83.0277,45
83.0334,36.8
83.0601,478.4
83.0703,474.4
83.0733,30.9
83.0778,33.8
83.0854,48
83.0961,15.8
83.1069,28.7
83.1126,35.1
83.1208,369.1
83.1331,427.3
83.1429,470.1
83.1546,310.2
83.1873,528
83.1911,27.4
83.1933,17
83.2012,502.1
83.2107,25.8
83.2262,32.7
83.2265,37.9
83.2268,32.8
83.2494,47.7
83.2666,24
83.3072,53.3
83.3117,146.5
83.3547,40.5
83.3892,23.2
83.4221,321.3
83.4254,26.7
83.429,29.1
83.4684,181.8
83.4915,287
83.4944,310.9
83.5154,31.6
83.531,24.2
83.5462,25.7
83.5518,47.8
83.5699,152.7
83.6007,35.6
83.6274,47.2
83.6364,29.2
83.6407,212.4
83.6436,174.2
83.6665,449.5
83.6925,63.2
83.7198,26.6
83.7277,52.5
83.7288,48.5
83.7328,140.5
83.7911,378.6
83.8184,31.4
83.8204,34.2
83.8318,96.6
83.8726,25.9
83.8818,74.9
83.9034,76.8
83.9175,20.2
83.9364,27.8
83.9475,438.5
83.9623,40.2
83.9698,29.6
83.9711,29
83.9763,418.7
84.0239,30.4
84.0249,29.8
84.0291,32.5
84.0335,37.2
84.0433,160.6
84.0442,171.4
84.0506,19.5
84.0572,395.6
84.0771,45.5
84.078,452.7
84.0805,38.4
84.0863,22.1
84.0872,32.7
84.0966,45.7
84.1156,88
84.178,193.4
84.1817,220.5
84.1833,65.6
84.1877,126.8
84.2002,34.4
84.2402,30.4
84.2491,47.3
84.273,121.3
84.2948,69.2
84.2979,28.9
84.3367,191.5
84.3405,43.7
84.3587,218.7
84.3662,658.6
84.4057,373.2
84.4078,55.7
84.4365,36.3
84.4655,47.9
84.4937,802.5
84.5554,64.5
84.5814,28.9
84.5864,55.6
84.5902,535.8
84.5917,64.4
84.627,28.3
84.6314,465.9
84.6415,382.8
84.6454,29.7
84.6457,56.7
84.6459,58.5
84.6875,133.5
84.6963,484.1
84.7124,29.7
84.729,34.5
84.7765,683.3
84.7812,18.5
84.7843,336.8
84.7887,25.5
84.8144,205.6
84.8189,52.5
84.8192,65.4
84.8195,28.8
84.8612,38.1
84.868,88.3
84.8739,34.4
84.9142,32.4
84.9194,36.4
84.9595,24113.8
85.0239,29.1
85.0281,671.2
85.0291,51.6
85.0426,90.1
85.0498,239.3
85.051,603
85.0671,16.8
85.0829,60.5
85.087,28.9
85.0955,58.2
85.099,39.5
85.0998,42.9
85.1193,28.7
85.1518,18.3
85.1904,532
85.2647,44.4
85.2806,225.3
85.2845,57.2
85.3068,29.8
85.3095,419.6
85.3544,110.8
85.369,21.4
85.3732,519.4
85.3966,87.1
85.4012,44.2
85.4103,49.9
85.4462,33.1
85.454,42.6
85.4808,98.2
85.4975,19.1
85.5186,58.8
85.5193,347.6
85.5201,316.7
85.5584,48.5
85.5627,192
85.566,39.7
85.5684,489.3
85.6359,42.6
85.677,69
85.6911,28.1
85.73,29.7
85.7561,27
85.7581,39
85.7784,30
85.8539,105.5
85.8645,33.4
85.8671,40.4
85.9431,622.5
85.9462,31.6
85.9628,28.9
85.9932,735.8
86.0129,129.6
86.0153,72.7
86.0161,30.4
86.0498,77.3
86.0519,23.6
86.0535,52.1
86.0545,53.1
86.0555,205.2
86.0582,63.1
86.0585,56.1
86.0598,66505.8
86.0798,32.4
86.0962,9571.9
86.135,125.9
86.1568,335.5
86.16,609.1
86.2016,74
86.2077,28.7
86.2202,27
86.2425,33.6
86.2903,143.4
86.3003,213.6
86.3206,23.1
86.3232,37.1
86.3433,536.6
86.3666,444.4
86.3721,29.4
86.3748,621.3
86.4301,275.1
86.4411,98.9
86.4468,230.1
86.4601,74.9
86.4901,114.3
86.5438,19.5
86.6049,28.3
86.6234,227.9
86.631,24
86.6703,29.4
86.6831,65.1
86.6856,477.7
86.6874,33.1
86.7007,86.8
86.7027,27.2
86.7362,173.5
86.7507,30.6
86.7652,26.6
86.7888,33.5
86.7919,49.9
86.7949,28.7
86.8186,33.4
86.8697,54.9
86.8724,83.9
86.882,57.5
86.8822,57.3
86.939,27.5
86.9613,28.1
86.9899,43.6
87.0119,32.7
87.0179,625.9
87.0514,142.3
87.0579,24.5
87.0632,417
87.0967,33.9
87.099,42.9
87.1275,34
87.1312,48.4
87.184,553.4
87.1872,34.8
87.1881,676.5
87.2104,83.7
87.2178,391.4
87.2225,148.7
87.2293,416.8
87.2331,27.5
87.2369,27.2
87.242,60.1
87.2653,219.1
87.3212,30.4
87.3572,132.7
87.3626,30.2
87.3681,28.3
87.3908,50.8
87.4292,29.5
87.4404,18.3
87.4531,497.3
87.4906,32.4
87.4913,330.2
87.4923,161.6
87.4996,199.5
87.5499,28.5
87.583,44
87.596,25.2
87.6011,76.2
87.6023,39
87.6272,33.2
87.6543,53.6
87.6567,42.1
87.6626,38.1
87.6953,43.9
87.7403,61.9
87.7567,675.6
87.762,44.3
87.7645,57.1
87.7865,61.7
87.7901,64.6
87.8044,25.8
87.8236,560.6
87.8259,675.2
87.8421,32.6
87.8493,520.5
87.851,363.1
87.8538,211.9
87.898,395.8
87.8996,211.2
87.91,49.6
87.9246,25.3
87.9334,126.7
87.942,129.3
87.9484,109.7
87.9671,32.1
88.0153,26.3
88.0391,36183
88.0601,32.9
88.0897,29.5
88.0986,20.2
88.1736,43.2
88.1744,40.3
88.2086,40.2
88.2168,59.6
88.2698,36.5
88.3976,35.6
88.4372,33.5
88.4573,577
88.461,446.9
88.4924,65.9
88.5217,46
88.5382,26.7
88.5439,50.5
88.5618,241.4
88.5865,52.2
88.5921,593
88.5938,20.5
88.6018,53.9
88.6073,35.1
88.617,121.1
88.6214,52.7
88.6379,40.5
88.6479,115.3
88.7115,39.8
88.7392,21.2
88.7707,34.3
88.8674,35.8
88.8748,105.6
88.88,40.9
88.9242,32.4
88.9391,745
88.9488,49.9
88.9708,27.1
88.9908,364.5
89.0159,60.6
89.0287,30
89.0425,187.5
89.0594,70.7
89.0623,48.9
89.072,48.8
89.0792,143.3
89.1204,17.3
89.1232,605.5
89.1998,57.9
89.2141,22.2
89.2206,25.8
89.2233,88.3
89.2292,27.2
89.2801,33.3
89.2908,30.5
89.3294,552.5
89.3472,26.8
89.3504,101.8
89.3603,58.6
89.3796,51.9
89.3993,153.8
89.4021,27
89.4463,315.7
89.4517,92.6
89.5107,253.4
89.5547,33.8
89.6091,24.5
89.6233,105.2
89.641,430.9
89.6452,33.7
89.6753,681.4
89.677,88.7
89.7081,20
89.7099,170.7
89.7555,39.2
89.7978,106.5
89.8186,29.8
89.8483,409.9
89.8816,35.5
89.9112,102.1
89.9336,408.9
89.9377,33.7
89.9387,84.2
89.9737,26.3
89.9943,56
90.0184,337.2
90.0853,33.3
90.0936,36.6
90.0951,20.6
90.1063,65.2
90.1194,26.7
90.1229,46.8
90.1258,36.8
90.1624,26.9
90.1868,183
90.2352,94.1
90.2998,449.5
90.3242,96.4
90.337,30.9
90.3573,20.1
90.3611,33.6
90.3682,41.3
90.3713,86.7
90.3744,148.7
90.4029,32.4
90.4224,31.9
90.4389,34.2
90.4525,46.3
90.4584,42.7
90.4739,92.9
90.4757,30.2
90.4816,29.9
90.5155,18.7
90.528,31.2
90.5604,44.3
90.5677,35.1
90.5923,151.6
90.6168,24.7
90.6341,31.7
90.6396,63.1
90.6462,214.5
90.6641,26.3
90.6679,95.7
90.6857,331.7
90.7128,85.9
90.7481,40.6
90.7563,26.2
90.7716,51.4
90.7805,130.6
90.8059,28.6
90.8244,31.4
90.8441,26.7
90.8494,39.8
90.8772,29.9
90.8836,36.8
90.8993,18.7
90.9154,36.7
90.9296,84.8
90.9475,63.9
90.9582,36.3
90.9649,55.1
90.9732,35.2
90.9764,2037
90.9982,196.4
91.0514,25.4
91.054,6760.3
91.0925,16.7
91.1065,441.9
91.1358,589.7
91.1499,31
91.1677,40.5
91.1696,151.9
91.1826,37.8
91.1834,25.7
91.1985,30.8
91.1999,67.6
91.2583,136.4
91.2737,49.6
91.3102,54.2
91.3309,35.3
91.3342,93.8
91.3444,45.3
91.3622,156.8
91.37,60.9
91.3723,44.3
91.3935,19.1
91.3958,465.2
91.4035,28.9
91.4504,155.4
91.5687,32.9
91.5948,203.7
91.6537,77.9
91.6825,35
91.6913,53.3
91.7006,232.8
91.7648,35.2
91.7689,113.2
91.7778,30.1
91.7821,196.7
91.8053,42.9
91.8147,44.3
91.889,490.7
91.8949,372.2
91.8973,310.7
91.9103,28
91.9142,35.4
92.0107,18.2
92.0221,31.7
92.0436,25.7
92.0575,34.9
92.0639,15.3
92.0938,44.5
92.1029,46.3
92.1134,136.5
92.1238,139.8
92.1254,157.7
92.1299,24.4
92.1546,301.4
92.1685,289.9
92.2003,34.7
92.2219,39.2
92.2243,71
92.2333,39.4
92.2387,40.8
92.2405,412.4
92.2754,116.2
92.2776,124.6
92.3257,83.8
92.3475,84.5
92.3627,598.7
92.3995,242.8
92.4052,32.7
92.4131,29.8
92.4178,26.8
92.4619,45.7
92.4994,55.2
92.5158,518.7
92.5408,36.3
92.5482,58.8
92.5567,502.8
92.5593,29.1
92.6227,41.2
92.6271,46.5
92.6426,30.5
92.6969,125.8
92.7045,139.3
92.7161,206.4
92.7287,112.3
92.7538,505.3
92.7944,409.9
92.8033,17.7
92.8186,26.4
92.8277,18.7
92.8367,28.7
92.8682,599.3
92.8869,26
92.9094,31.4
92.931,65.9
92.9352,49
92.9587,57.2
92.9644,41
92.9865,61.2
93.0052,398.7
93.0125,3353.2
93.0152,24.9
93.0334,92.5
93.0388,677.4
93.0417,197.3
93.063,29.9
93.0697,386.8
93.0731,173.2
93.075,53.1
93.1239,104.6
93.1301,28.5
93.1348,230.7
93.1717,157.6
93.2455,206.5
93.2681,237.1
93.2753,34
93.2798,41.7
93.2942,24.3
93.3255,569.1
93.37,58.5
93.3844,36.4
93.3862,158.1
93.3876,63.4
93.4346,187.8
93.4412,43.3
93.4442,62.8
93.4537,709.8
93.4551,16.6
93.4594,124.5
93.4739,102
93.4866,30.6
93.5031,28.5
93.5097,59.7
93.5119,613.1
93.5144,38.9
93.5421,38.3
93.5834,30.7
93.592,32.1
93.612,58
93.6161,25.9
93.6641,41.4
93.6658,57.8
93.7401,35.3
93.7601,36.5
93.7651,33.5
93.7981,46.9
93.8068,656.4
93.8203,420.1
93.8524,206
93.856,181.9
93.9395,62.4
93.9592,29.3
93.9842,31.1
93.9923,36.7
93.9935,27.2
94.0014,38.5
94.0041,33.3
94.0122,20.6
94.028,32.9
94.0346,141.6
94.0388,46.4
94.0412,345250
94.0442,54.2
94.0648,59.5
94.0676,66.8
94.074,39.6
94.144,641.8
94.1565,78.1
94.1716,27.3
94.208,33.1
94.2311,28.9
94.2406,180.2
94.2489,155.1
94.258,43.8
94.2593,47.6
94.2687,39.7
94.2908,60.4
94.3089,36.8
94.3438,27.1
94.3847,32.5
94.43,209.4
94.4419,40.3
94.4468,76
94.4692,123.2
94.4823,28.1
94.5169,448.7
94.5362,33.2
94.5971,26.1
94.6,29.6
94.608,269.9
94.6164,544.4
94.6532,27.6
94.6693,24.4
94.6952,204
94.7101,27.1
94.7119,26.4
94.7417,65.9
94.7497,39.4
94.7719,57.8
94.777,35.1
94.8087,29.7
94.8101,167.7
94.8204,31.8
94.8265,63.7
94.8312,198.5
94.8332,40.4
94.8398,50.6
94.8653,53.2
94.9335,512
94.9693,316.7
94.981,66.5
94.9817,80.5
94.9959,36.3
95.0087,104.1
95.0191,18.6
95.0338,30.1
95.0354,107.8
95.0415,29.5
95.0445,15364.4
95.049,409005.7
95.0609,27.4
95.0623,32.9
95.0811,413.9
95.0854,1240.1
95.0894,38.6
95.104,35
95.162,51.9
95.1748,61.4
95.1863,522.8
95.2022,43.1
95.3193,25.6
95.3569,39.5
95.3585,37.9
95.3985,117.5
95.4077,37.7
95.4268,21.6
95.4705,67.9
95.5106,163
95.5915,43.2
95.6237,65.7
95.6298,30.7
95.6489,456.1
95.6886,79
95.7063,29.1
95.7162,90.2
95.7217,57.8
95.7399,349
95.7514,189.9
95.7588,18.5
95.7697,66.4
95.7747,61.7
95.7826,23.1
95.8106,54.4
95.8392,26.4
95.8403,27.5
95.8563,27.4
95.8622,40.7
95.8881,242
95.927,27.7
95.9299,123.1
95.9447,27.3
95.9579,31.7
95.9625,37.8
96.0013,206.9
96.0523,20703.9
96.0552,50
96.0806,37.5
96.107,45
96.136,19
96.1398,178.2
96.1812,30
96.1867,216.1
96.2152,88.7
96.2259,158.3
96.2518,62.3
96.2596,27.7
96.3006,29.4
96.3085,40.4
96.3195,51.1
96.3331,26
96.3365,28.9
96.3421,28.9
96.3438,56.3
96.3696,49.6
96.3749,42.1
96.3942,23.9
96.4001,33.4
96.4119,24.4
96.4294,149.9
96.452,43.2
96.4664,38.1
96.4793,37.6
96.5065,16.6
96.5259,40.3
96.5561,101.3
96.5868,28.8
96.6141,30.7
96.65,24.4
96.6685,30.9
96.695,325
96.699,489
96.7223,103.9
96.7574,70
96.8443,45.8
96.9022,57.4
96.9113,28
96.9216,42108.1
96.923,53.6
96.932,52.1
96.9417,29.2
96.9536,555
96.9657,419.7
96.9694,40.7
97.0076,37.4
97.0201,75.7
97.0496,27
97.0558,43.1
97.0628,459.3
97.076,28.2
97.0893,176.6
97.0972,45.2
97.101,254.9
97.1351,107
97.1678,28.2
97.1949,36.8
97.202,39.1
97.2034,25.6
97.2225,181.1
97.2275,57.4
97.2467,81.8
97.2718,59.4
97.2859,21.8
97.3061,16.6
97.3079,32.9
97.3146,61.3
97.3154,27.9
97.3412,28.2
97.3549,25
97.3913,466.4
97.396,49.2
97.3992,772.7
97.5069,26.8
97.5112,29.6
97.5264,52.6
97.5478,17.7
97.5634,60.5
97.5662,62.4
97.5824,115.3
97.6141,39.9
97.7144,406.1
97.7605,49.9
97.7664,27
97.7858,144
97.8024,31.8
97.807,123.7
97.8119,27.5
97.8177,90.3
97.8269,166.7
97.8609,53.7
97.8879,462.4
97.8964,66.7
98.0432,17.6
98.0552,30.3
98.1349,32.4
98.1662,147.8
98.1745,27.4
98.2029,154.2
98.236,28.4
98.251,27.8
98.2825,218.8
98.3048,43
98.3268,30.1
98.3416,57.9
98.3446,28.4
98.3692,30.6
98.4237,53.4
98.4687,170.8
98.4742,190.7
98.5022,52.1
98.5563,43.4
98.6165,76.5
98.6501,35.7
98.6519,34.8
98.6928,29.6
98.7174,63.6
98.7591,133.6
98.7722,27.5
98.7938,120.4
98.7991,48
98.8222,86.5
98.8494,55.4
98.8873,42.5
98.9064,87.9
98.9186,11781
98.9196,1976.5
98.9508,24.8
98.9523,200.3
98.9558,31.6
98.96,41.4
98.9684,118.1
98.9754,116
98.977,82.2
98.978,42.8
98.9839,1500.6
99.0106,28.2
99.0357,37.5
99.044,39
99.0689,31.2
99.1329,85.1
99.2096,63.1
99.2115,229.2
99.2367,618.6
99.2565,28.2
99.2658,27.8
99.2814,238.1
99.3121,35.7
99.3427,44.1
99.3666,234.6
99.4087,111.7
99.4583,187.3
99.495,28.1
99.4974,94.1
99.5006,464
99.5459,313.6
99.5513,29.7
99.5707,32
99.5927,582.2
99.6092,118.3
99.6527,393
99.6604,47.8
99.6673,35.4
99.6716,83.3
99.6817,31.1
99.6988,18.8
99.7089,30
99.7101,45.5
99.7353,55.9
99.7899,170.7
99.8203,57.8
99.824,127.9
99.8563,41
99.8722,422.7
99.8762,591.6
99.8955,68.7
99.8996,37.9
99.904,30.3
99.9306,25.6
99.949,77.8
99.9689,24.5
99.9751,32.3
99.9823,194.6
99.9846,99.4
100.0755,167.2
100.1099,43.5
100.1187,27.5
100.1779,28.5
100.2107,30.8
100.2166,173.9
100.242,28.7
100.2495,71.6
100.2782,104.6
100.3019,309.4
100.3041,67.1
100.3146,28
100.3312,61.2
100.3665,64.7
100.416,28.3
100.4327,65.8
100.4441,46.8
100.4475,74.4
100.4526,32
100.455,482
100.4645,51
100.4695,64.2
100.5312,37.2
100.54,445.6
100.5772,42.5
100.5931,43.7
100.5975,49.4
100.6569,19.4
100.6648,22
100.67,452.8
100.6743,221.9
100.6962,27.2
100.7297,39
100.7354,33.9
100.8009,115.3
100.843,35.2
100.844,41.4
100.8642,465.9
100.873,27.8
100.9028,18.7
100.9374,490.7
100.9413,213.5
100.9496,45.1
100.9886,26
100.9904,44.7
100.994,68.9
100.9952,172.5
101.0014,184.2
101.0083,481.3
101.0168,53.7
101.023,122.1
101.047,5332.3
101.0597,40.1
101.0652,525.2
101.071,22.2
101.1088,86.2
101.1282,19.8
101.1473,518.2
101.1992,18
101.2025,26
101.2114,30
101.2228,262
101.2363,18.1
101.2475,31.5
101.2563,114.9
101.2589,164.4
101.2763,29.3
101.2855,26.8
101.2876,86
101.2957,60.1
101.3481,27.6
101.3518,30.1
101.3562,48.1
101.3838,45.8
101.416,33.4
101.4204,29.1
101.7028,30.8
101.7822,30.5
101.8059,397.5
101.8169,111.2
101.8299,101.2
101.836,61.9
101.8533,188.8
101.868,32.2
101.9241,41.2
101.9305,33.9
101.9387,294.8
101.9408,48.6
102.0476,154.6
102.0548,13863.2
102.0601,294.8
102.0788,36.3
102.0812,79.5
102.0982,47
102.1128,31.7
102.1167,1076.9
102.1435,39.2
102.1967,27.3
102.2178,21.4
102.2471,58.7
102.2494,61.2
102.2564,51.3
102.2714,25.6
102.2821,29.2
102.3081,34.9
102.3119,699.2
102.3252,30.2
102.3533,135.1
102.378,185.9
102.3858,232.9
102.3971,18
102.4397,117.3
102.4737,64.4
102.5117,412.8
102.5225,25.4
102.5458,29.8
102.5698,28.4
102.5851,33.5
102.5918,65.6
102.61,29.2
102.6719,140.3
102.6848,29.1
102.7393,53.1
102.7912,27.5
102.8179,28.1
102.8291,78.8
102.8399,489
102.8584,17.8
102.8719,28.6
102.9044,56
102.9056,29.3
102.9149,20.2
102.9237,17.4
102.933,30.3
102.9701,7212.5
102.9992,498
103.0018,67.2
103.0063,41.8
103.0383,246.6
103.0528,70.7
103.0541,58.6
103.0581,24.6
103.0679,21.7
103.096,31.4
103.1597,27
103.2094,810.7
103.273,143.9
103.2892,86.6
103.3002,159.7
103.4066,24.5
103.4197,49.9
103.4812,56.3
103.4894,106.9
103.4979,259
103.5528,201.1
103.5691,28.9
103.5908,17.3
103.631,37.9
103.6407,29.5
103.6492,243
103.7048,27
103.7093,49.5
103.7155,33.3
103.7853,228.6
103.7864,29
103.7888,29.6
103.7897,109.2
103.7983,28.9
103.8216,101.2
103.8325,48.3
103.8386,708.5
103.8583,495.5
103.8819,25.6
103.8847,27.4
103.8987,30.2
103.924,183.4
104.01,202.9
104.0498,37.4
104.063,39.4
104.0705,1314
104.0927,97.4
104.1068,46343.8
104.1097,136.9
104.1138,97.3
104.1203,29.8
104.1291,199.3
104.2151,24.4
104.2563,39.9
104.2841,24.9
104.3562,29
104.374,182.4
104.4031,45.4
104.4038,42.4
104.4071,30.3
104.474,43.6
104.4928,20.7
104.4938,473.9
104.5015,26.7
104.5515,184.5
104.5571,37.7
104.566,198.7
104.6058,27.8
104.6199,97.9
104.6889,32.9
104.7549,35.1
104.7571,247.1
104.7964,28
104.8044,41.9
104.8087,33.6
104.8361,27.8
104.8371,26.3
104.9035,30.7
104.9137,17.7
104.9273,240.2
104.9382,606.9
104.9524,92.4
104.9632,157.4
104.9873,34.4
104.9921,1389.7
104.9941,280.2
105.0032,19.7
105.01,371.9
105.0109,127.9
105.0179,75.3
105.0232,50.6
105.0425,356.3
105.0446,38219.6
105.0489,323
105.07,62.1
105.077,87.4
105.1101,1385.2
105.14,152
105.143,180.4
105.1523,26.3
105.1547,33.6
105.2138,32
105.2377,183.7
105.2812,107.5
105.302,45
105.3137,43.7
105.3591,34.7
105.3618,256.7
105.4086,169.8
105.4279,337.9
105.4995,18.2
105.5013,95
105.5256,153
105.5357,24.9
105.5788,25.8
105.5853,35.3
105.6201,34.7
105.6619,57.6
105.6801,628.9
105.6914,179.7
105.7126,18.6
105.7282,116.7
105.7333,42.3
105.7354,26.1
105.7537,207.1
105.8066,37.4
105.8091,43.8
105.8148,51.6
105.8184,28.1
105.8274,88.5
105.8334,29.3
105.842,26.9
105.857,31.1
105.8652,692.4
105.8723,239.6
105.8915,28.9
105.921,465.2
105.94,27.3
105.9471,320.5
105.9504,72.1
105.9749,42.4
106.048,1585.8
106.0719,115.2
106.1053,69.1
106.1228,27.1
106.1604,30.9
106.1809,119.2
106.199,38.1
106.2431,54.4
106.255,26.5
106.261,19.3
106.2724,29.5
106.2921,39.2
106.307,31.5
106.3373,32
106.3415,46.9
106.3472,62.1
106.3504,114.9
106.3552,38
106.3828,277.7
106.4712,347.2
106.5489,18.1
106.5533,563.8
106.5591,474
106.6081,28.7
106.7219,19.1
106.7315,321.2
106.7376,39.1
106.7524,231.1
106.756,526.4
106.7571,46
106.7803,136.4
106.7884,162.4
106.8204,28.4
106.83,38.9
106.8552,33.9
106.8632,575.2
106.9505,626.1
106.9603,61.9
106.9615,416.6
106.9642,29.6
106.9829,204.4
107.0016,30.2
107.0216,49.8
107.0282,2610.7
107.0313,42.8
107.0402,85.2
107.049,5897.5
107.0854,233.1
107.1399,54.7
107.1625,38.2
107.187,442.1
107.2042,27.1
107.2247,121.4
107.23,36.8
107.2367,606.6
107.2443,441.1
107.2687,527.9
107.2732,35.7
107.3076,463.2
107.3099,139.8
107.3349,28.7
107.3568,302.3
107.4103,37.8
107.4371,26
107.4484,59.2
107.4601,168.2
107.4668,31.1
107.4807,247
107.5059,35.4
107.5161,35
107.5207,29
107.5638,47.7
107.5675,16.9
107.6695,63.7
107.7176,559.2
107.7776,30.8
107.802,49.1
107.8123,40.5
107.9247,191.8
107.9445,70.7
107.9782,87.8
108.0131,188.3
108.0189,26
108.0289,27.3
108.0536,41.2
108.0569,366.8
108.0641,536.4
108.074,42.6
108.1758,43.2
108.1917,33
108.2173,31.2
108.2269,487.1
108.2509,384.7
108.2549,58.8
108.2559,68.7
108.2717,237.6
108.4227,448.7
108.4485,31.6
108.4605,24.8
108.4688,54.3
108.4977,26.2
108.503,401.2
108.5107,17.6
108.5711,19.7
108.5861,29
108.5911,30.4
108.6003,59.5
108.6366,226.1
108.6455,69.5
108.6743,304.6
108.6972,86.3
108.7232,419.2
108.7309,134.9
108.7453,235.2
108.7821,29.8
108.8251,36.5
108.878,188.7
108.8794,26.8
108.9369,43.1
108.959,17.8
108.9738,43.6
108.9815,17.7
109.0047,60.4
109.0112,385.4
109.0152,34.7
109.0411,492.7
109.0482,84.1
109.0647,419225.5
109.068,83.3
109.101,538.6
109.1143,49.5
109.1437,40.9
109.1571,31.2
109.2361,527
109.2421,34
109.253,57.8
109.2555,182.4
109.316,28
109.3181,109.7
109.3278,35.4
109.3446,32.6
109.3529,84.1
109.4622,159.8
109.4847,30.9
109.5034,193.7
109.5203,212
109.5863,633.9
109.685,115.6
109.7045,19.7
109.7068,237.7
109.7104,176.1
109.7218,77.4
109.7377,31.6
109.7558,35.1
109.7922,87.4
109.8116,30
109.8162,46.5
109.8881,306.7
109.8956,91.5
109.9319,67
109.9364,24.6
109.9387,188.8
109.9784,31.1
109.9811,31
110.0097,88
110.0552,41
110.068,26179
110.0712,1012.5
110.0784,54.2
110.0909,25.6
110.1035,92.3
110.1133,60.9
110.1254,384.8
110.1559,31.9
110.1657,172.3
110.1919,46
110.2001,352.5
110.2435,25.5
110.2626,33.7
110.2644,577.6
110.2702,24.2
110.2953,94
110.3043,233.9
110.3345,516.7
110.3579,45.3
110.3639,29.6
110.3816,34.5
110.3834,120
110.4378,61.9
110.4748,37.4
110.479,33.8
110.4816,105.1
110.5061,58
110.5208,37.8
110.5241,246.4
110.5591,134
110.5809,193.1
110.5906,170.1
110.6108,26.5
110.6229,32.3
110.6443,67.6
110.6572,32.6
110.661,32
110.75,85.2
110.8296,156.4
110.8329,29
110.8779,31.3
110.8881,89.8
110.9047,68.7
110.9064,46.6
110.9231,50.6
110.954,47.6
110.9703,271.1
110.9734,319.7
110.9822,30.1
111.0028,46.7
111.0092,33.8
111.0232,1419.1
111.0316,64.7
111.044,1746.5
111.0471,28.7
111.0688,50.7
111.0714,43.6
111.0858,489.7
111.1168,17.2
111.163,200.7
111.2045,392.9
111.2191,133.2
111.2334,38.8
111.3321,29.5
111.3456,186.6
111.3477,28.9
111.3945,49.2
111.4189,33.3
111.4247,117.3
111.4403,157.1
111.4453,31.2
111.5363,26.4
111.5707,26.2
111.5918,193.6
111.6041,37
111.6087,66.4
111.6202,496.2
111.6423,212.7
111.6527,33.5
111.7296,48.8
111.7347,24.6
111.7536,25.4
111.8244,140.5
111.8621,48.6
111.8782,32.4
111.8958,29.2
111.9082,70.2
111.9375,33
111.9679,452.1
112.0094,55.5
112.0475,158.5
112.0572,29.9
112.0947,100.6
112.0995,34.9
112.1033,244.9
112.1047,43.3
112.1135,62.3
112.1188,29.7
112.1388,47.4
112.1439,85.3
112.1878,126.1
112.2047,20.7
112.2079,40.9
112.3145,449.2
112.3672,438.7
112.3846,40.2
112.441,21.6
112.4597,123.5
112.4896,308.9
112.5249,209.8
112.5308,51.9
112.5324,377.7
112.6859,314.1
112.7326,409.5
112.75,28.4
112.8045,328.5
112.8312,72.3
112.8673,244.6
112.8956,123713.1
112.9057,213.4
112.9093,27.2
112.9241,52.7
112.9309,39.3
112.9591,20.2
113.0097,25.8
113.049,29.4
113.0706,36
113.0997,25.6
113.1023,39.8
113.1046,53.1
113.1439,554.5
113.2206,42.8
113.2413,26.1
113.2873,52.4
113.2879,48.8
113.2904,366.9
113.3164,113.7
113.3512,39.2
113.3642,52
113.4286,56.2
113.433,716.6
113.4347,111.4
113.4392,32.4
113.4434,68.6
113.5098,28.2
113.5637,43.2
113.5732,33.7
113.5773,182.2
113.5878,105.3
113.6041,174.2
113.6373,31.4
113.6415,28.2
113.6625,35.5
113.7074,78.7
113.7125,31.6
113.7169,35.3
113.7392,87.8
113.7414,29
113.7804,65
113.8607,324.7
113.8847,16.9
113.9656,168.2
113.9678,99.6
113.9732,133.6
113.9838,41.7
114.0118,450.6
114.0274,234.2
114.0389,20.3
114.0457,34.6
114.0472,137.7
114.0481,78.6
114.0496,83.1
114.0548,181613.1
114.0661,496.1
114.0873,452.3
114.0913,259.3
114.1391,27.6
114.1621,30.3
114.2114,28.6
114.2169,333.1
114.2195,18.9
114.2352,37.7
114.2388,326.7
114.2436,150.5
114.2479,77.8
114.2657,148.8
114.2709,31.5
114.2736,160.6
114.285,19.3
114.3001,34.5
114.3015,67.1
114.3175,403.6
114.326,78.6
114.3669,31.1
114.3768,18.6
114.4002,36.6
114.4398,483.1
114.4549,43.1
114.4999,61.1
114.5103,64.7
114.564,136.8
114.6452,37.9
114.677,114.8
114.6851,75.4
114.7078,26.8
114.7146,424.7
114.7326,38.9
114.7667,63
114.7841,37.8
114.7904,53.4
114.8216,385.4
114.8262,43.1
114.8442,132.6
114.8927,37028.6
114.8936,17952.4
114.9689,37.8
114.9866,27.1
115.0465,199
115.0582,6250.8
115.0789,55.9
115.0879,26.5
115.1678,404.6
115.1691,60.3
115.1758,218.2
115.1876,69.2
115.2427,27.2
115.2762,260.3
115.2949,663.8
115.2953,567.8
115.299,35.6
115.3271,58.5
115.3337,34.3
115.3549,17.9
115.3743,37
115.3774,127.1
115.4935,264.3
115.524,365.9
115.5289,153.3
115.5425,36
115.5594,66.8
115.5671,31.9
115.5841,435.6
115.639,604.6
115.6756,29.5
115.7852,35
115.7866,92.6
115.7899,36.3
115.8277,96.9
115.8671,45.4
115.9317,48.7
115.9456,43.8
115.9472,38.8
115.9894,33
116.0066,491
116.0382,158
116.0589,112.8
116.0705,3250.8
116.0839,32.7
116.1478,45.8
116.1809,25.5
116.198,37
116.2004,45.9
116.2155,225.3
116.2378,33.4
116.2784,137.8
116.3662,235.2
116.368,198
116.3755,47.3
116.4203,28.3
116.4401,44
116.4466,30
116.4537,146.8
116.4725,335.8
116.4979,395.6
116.5055,113.1
116.5408,23.6
116.5657,30.3
116.5679,34.1
116.57,29.8
116.5887,218.9
116.6,61.8
116.6168,86.7
116.6452,67.9
116.742,60.1
116.7771,230.1
116.8192,433
116.8323,61.6
116.8437,186.6
116.8449,160.8
116.8585,48.5
116.8711,293.2
116.8907,3974.1
116.9154,42.9
116.9295,126.5
116.9502,29.4
116.9729,582.8
116.9743,183.9
116.9858,26348.3
116.9987,49
117.001,94.8
117.0472,165.4
117.0498,37.2
117.0699,31.7
117.0862,347.5
117.0895,106.1
117.1022,55.6
117.134,93.2
117.1433,28.6
117.1708,50.4
117.1912,26
117.3848,132.3
117.4092,101.7
117.4113,32.1
117.4158,35.6
117.422,19.9
117.4477,39.7
117.481,41.6
117.5057,39.2
117.526,557.7
117.562,48.1
117.5683,24.3
117.6357,242
117.8593,39.7
117.8686,24.9
117.8697,29.1
117.8872,37.3
117.9081,38.2
117.9304,32.2
117.9603,26.9
117.9628,558.6
118.0158,30.1
118.0496,947.1
118.0652,41.5
118.0862,1052.8
118.1035,550
118.1251,151.6
118.1562,39.6
118.2241,34.2
118.2643,26.1
118.2724,43.2
118.2796,40.1
118.3099,38.8
118.3292,45.5
118.3453,34.6
118.3504,17.6
118.3734,71.2
118.3835,527.7
118.4003,35
118.4397,557.1
118.4413,28.3
118.4913,40.4
118.5056,640.8
118.5088,76.2
118.5253,246.9
118.6038,372.8
118.7131,42
118.7531,32.7
118.7647,44.3
118.7691,498.8
118.7853,40.6
118.7923,188.4
118.8767,117.6
118.8824,123.5
118.9679,76.4
118.9788,55.2
119.0188,1111.9
119.0855,71.7
119.0974,149.8
119.1424,78.2
119.1528,46.8
119.2232,71.3
119.2307,257.4
119.275,31.2
119.3131,80.5
119.4067,129.9
119.4162,98.1
119.5797,59.8
119.5907,41.3
119.6347,554
119.6687,21.1
119.6967,59
119.7557,33.7
119.8771,28.8
119.8841,461.2
119.9979,28.5
120.003,1899.9
120.0548,107.9
120.0575,370.8
120.0805,1423.3
120.1554,31.9
120.1997,26
120.2057,29.9
120.2279,484
120.2526,44.2
120.354,347.4
120.3577,20.9
120.364,40.3
120.3777,39.8
120.3823,54.8
120.3869,42
120.403,43.8
120.4092,33.6
120.4202,257.4
120.4643,150.1
120.4766,75.7
120.4803,83.7
120.5192,65.1
120.5288,172.9
120.6213,38.3
120.6426,107
120.6849,51.9
120.7038,18.9
120.7287,175.3
120.7459,417.9
120.7545,46.9
120.7751,33.3
120.7978,36.8
120.8259,32.2
120.8382,62.9
120.8814,166
120.9654,652.9
120.9781,617.6
120.9808,1444.6
120.9879,48.1
121.0059,101.7
121.0075,5222.2
121.0283,738.9
121.0648,116
121.0727,61.2
121.1012,407.7
121.121,126.3
121.1303,42.7
121.1725,35.6
121.2306,17.5
121.2514,29.4
121.4071,362.6
121.4132,565.8
121.4543,429.4
121.466,147.3
121.5034,32.6
121.5483,46
121.5826,317.8
121.6355,206.3
121.6568,88
121.6654,36.4
121.6713,230.4
121.7018,43.3
121.7075,36.7
121.7103,29.2
121.7294,34.1
121.74,311.8
121.7577,27.2
121.7595,46.6
121.8378,497
121.8419,37.3
121.8447,121.9
121.8798,58.8
121.939,32.6
121.9526,177.2
121.98,117.8
122.0021,180.6
122.0392,34
122.0419,91.6
122.0811,304.7
122.0874,93.4
122.1198,34.3
122.2049,44.1
122.2164,35.2
122.2274,620.4
122.2524,104.2
122.2942,25.1
122.3287,42.5
122.3939,19.4
122.417,31.7
122.4219,48
122.5065,126
122.5945,40.8
122.6577,30.8
122.6664,47.9
122.67,19.2
122.6926,36.4
122.707,62.7
122.7285,32.1
122.8088,33.7
122.8145,637
122.8542,115.3
122.9154,52.7
122.9244,3516.8
122.9436,478.9
123.0255,65.5
123.0384,62.2
123.0555,33
123.0804,1462.6
123.0946,118.9
123.1167,95.2
123.1414,42
123.1528,34
123.1693,30.4
123.1794,96.9
123.2017,38.6
123.2035,38.1
123.2135,39.7
123.2175,39.1
123.2395,31
123.2553,129.2
123.2647,27.8
123.3136,75.5
123.3242,36.4
123.3728,19.2
123.4054,52.9
123.4126,32.2
123.4249,43.3
123.4412,596.7
123.4453,162
123.4645,475.7
123.5249,29.6
123.5348,175.8
123.536,29.1
123.5592,30
123.5755,189.9
123.6341,29.9
123.6813,32.6
123.6985,31
123.7318,35
123.733,17.7
123.7894,65.6
123.7994,194.7
123.8358,67.4
123.8417,461.7
123.8563,28.1
123.9039,467.6
123.9331,26.9
123.9501,32.5
123.9678,30.5
124.0223,43.6
124.0304,38.9
124.0469,28.5
124.1279,138.3
124.1793,98.1
124.2634,66.6
124.2795,30.8
124.3489,174
124.3741,104.1
124.378,458.7
124.3845,99.4
124.4183,235.7
124.4411,25.3
124.5466,73.5
124.5684,51.3
124.6093,31.6
124.6448,18.8
124.6884,225.2
124.714,28.1
124.7197,173.3
124.7218,44.4
124.7469,30.4
124.7617,67.6
124.7732,21.1
124.8394,27.6
124.8702,57.9
124.889,41.5
124.8943,26.4
124.9091,468.5
124.912,81.8
124.942,54.3
124.9425,52.3
124.9432,41.8
125,75
125.003,30.2
125.0053,177
125.0139,27.4
125.0145,28
125.0388,6319.4
125.0596,2236.5
125.0776,80.1
125.0961,45.8
125.1928,537.1
125.1947,47
125.2477,31.4
125.2818,29.8
125.3528,103.8
125.3769,36.6
125.3817,50.5
125.4072,28.7
125.4551,42.3
125.4623,86.2
125.5464,159.7
125.5791,256.4
125.6091,169.3
125.6251,139.9
125.6803,48.7
125.6922,564
125.7361,19.5
125.7949,501.3
125.8207,42.9
125.8706,33.2
125.929,60.9
125.9404,131.7
125.9552,74.7
125.9841,42.5
125.9869,21.7
126.0305,45.6
126.0353,135.4
126.0681,59.7
126.1929,37.4
126.2132,463.1
126.2373,429.8
126.3208,609.2
126.3436,28.6
126.4817,42.5
126.4898,559.9
126.4961,446.7
126.5283,431.8
126.5353,38
126.5847,17.7
126.6026,53.8
126.6373,62.6
126.7108,166.6
126.7189,291.8
126.7328,55.7
126.7662,28.4
126.7875,28.1
126.8107,37.5
126.8126,81.5
126.8595,33.7
126.8629,522
126.9011,151.9
126.9095,29.3
126.9604,40.7
126.9645,30.6
126.9816,66.2
126.9884,29.1
127.0296,312.2
127.0359,35.1
127.0392,31.9
127.0477,46.3
127.0752,57.2
127.0991,30.7
127.102,21.6
127.1817,26.9
127.2094,33.4
127.2288,42.8
127.2308,28.2
127.2324,93.1
127.2617,169.1
127.2902,62.7
127.3011,31.6
127.4054,28.4
127.4414,53.3
127.4728,44.7
127.5125,529.2
127.5229,19.3
127.5271,35
127.5714,27.3
127.5833,30.9
127.6101,49.1
127.6375,207.5
127.6626,696.9
127.6671,185.8
127.7,137.5
127.7254,65.6
127.7838,100.1
127.8143,18.4
127.8467,45.9
127.8752,30.2
127.9036,158.8
128.0363,46.6
128.0665,31
128.107,68.7
128.1432,19.1
128.1487,382
128.1522,40
128.2309,110.6
128.2398,45.1
128.2592,93.2
128.2905,57.4
128.3308,20.5
128.4115,48.7
128.4657,43
128.529,28.1
128.5381,32.9
128.5647,307.5
128.5801,19.1
128.634,39.2
128.6592,356.8
128.6784,29.9
128.6933,532.3
128.7329,203.4
128.8578,42.6
128.8643,30.3
128.8815,57
128.9014,35.2
128.9268,599.4
128.9482,41.8
128.9545,129.8
128.9667,90.7
129.0037,27.8
129.0855,38.9
129.1023,23.5
129.1204,342.4
129.1289,28
129.2248,43.2
129.3,245.4
129.3208,35.1
129.3927,32.5
129.4124,71.5
129.4343,66.3
129.5145,428.4
129.5232,456.5
129.5247,23.2
129.6296,104.9
129.7032,18.2
129.7102,323.6
129.7336,28.9
129.8159,404.6
129.8685,32
129.8743,84.4
129.9106,48.1
129.9566,27.2
129.9599,31.2
129.9627,173.1
129.9675,46.2
129.9912,27.5
130.0313,33.3
130.0498,3266.7
130.1447,36.5
130.1553,192.3
130.1607,636.1
130.1942,38.9
130.2264,439.3
130.2318,84.1
130.2432,27
130.2522,26.1
130.2748,33.4
130.3087,19.4
130.35,197.3
130.3673,35.2
130.4136,40
130.4314,35.9
130.4393,99.5
130.4688,56.8
130.4856,37.2
130.504,94.8
130.5275,186.2
130.6043,462.5
130.635,125.1
130.7646,25.2
130.8081,49.2
130.8408,288
130.8753,632.1
130.8968,57.8
130.9069,25.5
130.9084,427.3
130.9386,38.3
130.9464,618.4
130.9612,33
131.0014,317
131.0029,76.8
131.0696,32.2
131.0763,138.2
131.0822,37.8
131.0826,32.6
131.0833,32.3
131.1429,33.2
131.1508,118.8
131.1984,19.7
131.2018,43.8
131.2834,148.4
131.2848,524
131.2928,934.6
131.3195,28
131.3652,272.2
131.4362,175.8
131.4698,44.6
131.5297,27.3
131.6009,687.1
131.6333,43.2
131.7281,44
131.769,28.6
131.8191,135.8
131.8364,192.3
131.8899,199.7
131.9055,38.7
131.9391,127.4
131.9468,552.1
132.0031,1198.4
132.0225,22.2
132.0577,92.2
132.0612,950
132.0655,614905.5
132.0702,55.1
132.0767,2544.2
132.0875,58.3
132.1019,393.3
132.1313,42.8
132.1373,55.7
132.1712,31.1
132.201,39
132.3393,331.3
132.3968,46.6
132.4046,51.2
132.454,469
132.456,50.3
132.4689,384.7
132.5322,36.7
132.5441,51.2
132.559,37.1
132.5614,299.5
132.6488,64.6
132.6736,60.8
132.679,20.7
132.69,41.5
132.7663,736
132.7794,93.8
132.7882,41.5
132.8608,53.9
132.8939,159.9
132.9123,18.2
132.9582,26.8
132.9869,886.1
132.9959,31.1
133.0283,45
133.0345,1274.3
133.041,134.4
133.0625,660.9
133.0688,27733.8
133.0859,71.5
133.097,8799.4
133.1014,35.1
133.1567,19.1
133.176,236.8
133.1944,26.5
133.2392,256.3
133.2681,68
133.3508,28.3
133.3705,163.9
133.375,34.8
133.3914,52.3
133.4255,47.4
133.4418,27.8
133.5891,48.3
133.6172,378.8
133.6611,45.6
133.7415,32.9
133.7422,50.9
133.7427,45.7
133.7666,33.4
133.8001,37.2
133.8612,44.3
133.8903,31.2
133.9869,77.5
133.9971,99.7
134.0187,4084.7
134.0447,2093.8
134.0491,26
134.0557,49.5
134.0697,1836.9
134.1475,25.3
134.1566,19.3
134.1954,61
134.1977,180.3
134.2371,72.2
134.2388,87.5
134.3358,31.8
134.3484,33.5
134.3664,163.3
134.3816,28.8
134.3875,19.3
134.4049,122.6
134.4218,229.7
134.4617,38.7
134.4748,49.1
134.4836,653.1
134.6046,31
134.6213,136.9
134.657,84.7
134.6931,48.5
134.7073,30.9
134.7309,84.4
134.7437,17.5
134.7865,39.4
134.8409,60.2
134.8715,34.2
134.8908,37.4
134.9964,3480.7
135.0028,15486.7
135.0232,1252.3
135.0718,140
135.0913,18.9
135.1168,503.8
135.1278,31.1
135.1532,209.3
135.1699,250.2
135.2127,81.8
135.2151,37.5
135.2596,27.4
135.2686,37.7
135.3386,27.7
135.3831,33.5
135.6721,526.9
135.6911,131.6
135.7014,481.2
135.7334,32.9
135.7593,440.7
135.8238,27.2
135.8595,48.9
135.8648,25.6
135.9028,42.4
135.905,125.2
135.977,498.6
135.9937,594.4
136.0481,2250.6
136.0537,117.7
136.0759,168.1
136.0799,57.7
136.1189,32.5
136.1419,19.4
136.1631,50.8
136.178,34.5
136.2253,304.4
136.2622,40.4
136.4376,160.2
136.5345,45.9
136.5444,28.8
136.6053,156.1
136.6584,63
136.8091,44.3
136.9306,26.9
136.9326,45.8
136.9468,32.9
137.0414,43.5
137.0596,123.7
137.0961,131.9
137.1538,46.8
137.1641,36.3
137.2281,44.1
137.2333,25.5
137.3449,30.9
137.3864,50.4
137.4316,155.8
137.549,62.4
137.6159,19.1
137.6352,74
137.6506,33.8
137.6535,53
137.6666,443.1
137.7043,59.2
137.7346,34
137.8641,28
137.9033,33.1
137.9104,527.4
137.9452,76.4
138.0524,2056.8
138.0662,1086.8
138.0979,515.3
138.1395,30.9
138.1757,246.5
138.1786,407.6
138.1915,39.5
138.2006,24.3
138.2087,32.7
138.2823,89.1
138.3886,36.1
138.477,33
138.4874,18
138.5154,102.3
138.5803,114.7
138.6102,650.9
138.7099,44.3
138.7119,28.1
138.7426,20.9
138.8639,30.3
138.9063,700.8
138.9343,274.9
138.9978,478.2
139.0181,46.5
139.0333,62.4
139.0496,33.4
139.0766,35.2
139.1115,57.9
139.1314,477.9
139.1417,61
139.17,25.8
139.2459,190.8
139.2649,17.6
139.2793,304.8
139.3853,17.7
139.3996,98.7
139.4263,359.7
139.4378,350.9
139.4518,34
139.4676,82.5
139.4858,84.4
139.5779,69.2
139.5852,32.4
139.6217,34.8
139.6928,36.3
139.7058,547.4
139.7087,442
139.7118,26.8
139.7361,374.9
139.8151,27.4
139.8907,26.1
139.8969,29.5
140.0027,88
140.0164,985.1
140.0666,63.5
140.0681,1819.4
140.1174,119.1
140.1573,98.3
140.1812,524.9
140.1916,42.2
140.2767,439.4
140.3373,28.6
140.3486,34.6
140.401,71.3
140.4589,28.4
140.5434,27.8
140.603,551.9
140.6791,27.6
140.8108,482.8
140.8283,165.2
140.9197,411.3
140.9524,53.6
140.9954,38.1
141.0004,266009.2
141.0436,244.8
141.049,64
141.0633,39.6
141.0901,523.9
141.1326,44.8
141.1399,91.8
141.1782,39.2
141.1907,36.1
141.272,622.3
141.3612,196.5
141.3878,29.1
141.4087,448.6
141.4272,36.8
141.4282,63.9
141.4322,72.2
141.4527,33.4
141.4727,220.7
141.5065,71.1
141.5257,30.2
141.585,162.6
141.6097,187.5
141.6687,228.1
141.6749,334
141.739,486.2
141.7629,383.9
141.859,27.8
141.9999,851.3
142.0038,13639.3
142.0175,19.7
142.0243,27.3
142.0499,477.5
142.0767,25.9
142.1325,30.6
142.1828,30.3
142.2203,92.4
142.2229,49.9
142.2831,358.7
142.2902,92.9
142.3282,592.7
142.369,196
142.3995,19.3
142.4507,172.3
142.7339,50.1
142.7456,49.1
142.7528,31.2
142.7534,38.3
142.761,181.4
142.766,108.9
142.8063,409.4
142.8286,32.1
142.8739,33.7
142.8766,26.9
142.8951,29.7
142.9482,590.5
142.9962,8977.7
143.0025,88.2
143.0048,219.9
143.0193,40.1
143.0512,323.6
143.0566,75.5
143.0815,557.6
143.0848,194.9
143.0919,31.7
143.1249,30.4
143.1521,579.8
143.2462,35.4
143.3565,622.2
143.3878,164.9
143.3957,101.9
143.4179,35.3
143.4382,429.2
143.5,27.9
143.5072,45.6
143.5339,158.6
143.5706,89.8
143.5788,37.2
143.5828,30.6
143.6305,44.5
143.7411,54.3
143.7643,19.1
143.7815,278.5
143.8112,67.4
143.9408,603.2
143.9882,83.1
143.9967,42.6
143.9996,86.9
144.0177,23.3
144.0184,23.7
144.0652,59.7
144.0864,124.7
144.0952,34.2
144.0991,153.9
144.1114,41.1
144.1716,27.6
144.1897,106.3
144.1936,43.5
144.204,35
144.3303,37.1
144.405,26.6
144.4161,74.7
144.4784,58.5
144.5613,49.9
144.5842,85
144.6103,37.8
144.6392,74
144.695,663.1
144.7488,29.4
144.7809,40.6
144.8065,110.6
144.8299,460.4
144.8432,40.5
144.8741,90.7
144.908,67.3
144.9171,28.3
144.9686,118.2
144.9807,985
144.9874,624.4
144.9922,74.7
145.0122,509.8
145.0875,498.9
145.1012,32.2
145.2289,132
145.3103,27.7
145.3147,245
145.3604,93
145.4887,382.7
145.5435,17.6
145.6265,456.3
145.669,585
145.7113,189.8
145.7297,30
145.7805,215.8
145.8267,447.3
145.8457,667.2
145.8546,29.9
145.891,336.5
145.9287,30.4
145.9558,79.7
145.9607,203.4
145.9651,179.1
146.0126,278.5
146.0187,1227.8
146.0337,24.6
146.0448,1035
146.0604,19.9
146.0721,60.1
146.0811,346.1
146.2101,27.6
146.3246,457
146.4212,38.5
146.4292,34
146.4541,192.3
146.5178,399.1
146.5203,20
146.539,20.7
146.5738,126.4
146.782,25
146.7921,644.2
146.82,48
146.8222,142.7
146.8703,220.9
146.9086,42.8
146.9396,27.3
146.9562,27.6
146.9817,6464.5
146.9897,76.5
146.9961,33.8
147.0068,37.2
147.0228,33.9
147.0764,16284
147.0864,36.4
147.0931,32
147.1128,12140.2
147.1169,204.4
147.2648,29.3
147.2836,116.2
147.2859,143.4
147.3041,71.6
147.3651,448.1
147.5108,32.6
147.6038,445.1
147.6282,44.2
147.7604,47.7
147.7852,32
147.7909,498.4
147.8311,20.5
147.891,43.1
147.944,100.5
147.9904,37.2
148.0405,38.1
148.0417,137
148.0452,83.2
148.0797,390.3
148.1927,26.1
148.2194,44.3
148.2564,31.4
148.3483,188.1
148.4663,30.2
148.4894,427.2
148.497,144
148.5319,478.2
148.5544,71.1
148.6451,51.2
148.7076,82.1
148.75,32.9
148.7885,31.2
148.7967,33.8
148.8035,31.4
148.8197,104.4
148.8767,120.1
148.8828,386.7
148.9334,38.7
148.9501,41.6
148.9612,1599.6
148.9716,17.4
149.0026,1986.4
149.0122,566.6
149.0186,527.9
149.0233,10581.2
149.0261,35.7
149.0603,240.4
149.0787,33.5
149.0929,27.4
149.0961,37.3
149.1019,43
149.1325,129.4
149.2208,35.4
149.2429,103.4
149.2457,17.8
149.2787,106.7
149.3524,27.8
149.4265,20.5
149.4434,522.5
149.4543,19.3
149.5059,34.1
149.5438,55
149.5745,68.1
149.5905,156.3
149.593,43.2
149.7341,24.5
149.7926,120.6
149.8209,19.2
149.9151,92.7
149.9814,47.2
149.9928,2521.6
150.0137,1961.3
150.0267,77.7
150.0328,57.8
150.0519,28.9
150.0608,19.8
150.12,72.4
150.1419,66.3
150.1502,404.5
150.1901,191.2
150.2366,150.2
150.3312,120.5
150.3789,33.2
150.4027,451
150.4113,401.2
150.4263,30.4
150.5627,246.3
150.5907,123.2
150.5946,67
150.6017,84.6
150.618,64
150.6722,25.3
150.7218,20.1
150.737,37.3
150.7533,27.6
150.7726,163
150.7749,139.3
150.857,31
150.9282,52.5
150.9702,231.3
150.9768,10756.4
151.0477,537.8
151.0522,185.4
151.0733,61.3
151.0758,24.2
151.1557,26.4
151.1777,31.7
151.1817,20
151.2005,684.6
151.2461,58.3
151.3268,258.8
151.4739,26.5
151.5162,96.7
151.5343,54.3
151.5399,136.1
151.6569,184.3
151.6612,238.8
151.7123,41.5
151.7217,72.4
151.8951,27
151.9179,34.6
152.0219,3186.1
152.0276,202.5
152.032,401.8
152.0964,69.2
152.2028,42.2
152.2205,414.1
152.3347,31.4
152.3734,33.2
152.3896,18.7
152.4053,41.6
152.412,140
152.4382,26.1
152.4485,24.9
152.5099,118.4
152.5194,576.9
152.6372,199
152.6617,119.1
152.7254,52.2
152.7521,456
152.8237,86.3
152.8269,463.9
152.8335,24.6
152.8384,67.9
152.8473,32
152.8492,47.2
152.8627,35.7
152.9131,549.4
152.9324,29.7
152.9437,189.9
153.0095,29.7
153.0339,114.3
153.0623,27.4
153.1286,221.3
153.1618,28.5
153.2499,314.7
153.2517,71.5
153.2923,31.8
153.303,91
153.3691,28.4
153.4062,39.7
153.4318,27.4
153.4379,161.8
153.4632,31.3
153.5053,48.7
153.5126,90.9
153.551,32.4
153.6189,56.3
153.6487,47.2
153.6776,27.9
153.7505,28.9
153.7614,26
153.8348,134.8
153.9128,43
154.0111,1066.1
154.0234,22.4
154.0264,573.8
154.0413,20.3
154.0586,2578.4
154.0944,40.1
154.1386,47.5
154.1563,129.7
154.1582,49.6
154.1797,45
154.2583,688.2
154.2865,32.6
154.2946,213.6
154.3294,54.1
154.3343,604.8
154.3693,30
154.3709,59.6
154.3833,29.9
154.4095,21.6
154.4156,204.8
154.4197,212.9
154.4231,50.8
154.4258,38.1
154.4318,45.8
154.4802,72.6
154.5169,216.8
154.6176,120.8
154.6444,43.5
154.6602,475.9
154.7188,30.4
154.7456,45.1
154.8336,217.8
154.8575,33.2
154.8817,65.3
154.9349,26.7
154.9417,23.2
154.972,32.4
154.975,38.5
154.999,104.2
155.051,31
155.0539,2449.4
155.0718,264.1
155.1511,27.9
155.2268,482.3
155.2854,710.9
155.2985,96.7
155.3373,88.7
155.3546,745.3
155.3886,37
155.3949,654.2
155.3959,628
155.4224,29.7
155.4745,59.2
155.4953,180.6
155.5274,26.7
155.5323,49.8
155.5847,168.7
155.6606,59.7
155.6968,617.6
155.7005,49.7
155.7207,84.4
155.8395,100.7
155.8502,262.7
155.9312,29.1
155.9458,34.5
155.9592,129.2
155.965,25.4
155.9852,225.8
155.9972,35.4
156.0266,81.7
156.0421,3143
156.0767,19742.8
156.1799,29.6
156.2071,48
156.2103,29.7
156.2378,191.5
156.2707,25.5
156.2905,29.4
156.3063,185
156.3371,68.6
156.3483,70.3
156.3757,60.3
156.4139,52
156.4498,27.7
156.6505,374.6
156.6961,25.5
156.7175,122.4
156.7772,57.8
156.8114,29.3
156.8269,103.6
156.9152,17
156.9744,21.3
157.0741,30.9
157.0811,50.1
157.0973,37.4
157.1371,47.9
157.1501,25
157.1921,27.5
157.1992,82.8
157.2353,31.8
157.2402,31.5
157.2547,471.4
157.2666,30.7
157.3022,59.8
157.3175,20.2
157.3963,112.4
157.4306,26.4
157.5414,371.6
157.5825,137.7
157.621,18.9
157.7171,76.3
157.7524,36.2
157.7681,472.3
157.7814,51.9
157.7995,44.7
157.8105,39.9
157.8184,38.2
157.8709,89.5
157.8986,165.2
157.9593,33
157.9652,17.7
158.0127,61.6
158.0147,34.1
158.0271,121106.7
158.1523,51.5
158.1584,585.5
158.215,56.4
158.232,44.6
158.2674,28.4
158.2723,143.9
158.359,30.7
158.4176,38.9
158.4643,522.5
158.5849,177.5
158.6225,36.1
158.639,146.6
158.6566,147.7
158.6905,29.2
158.7054,155
158.7299,571.1
158.762,118
158.8166,28.1
158.8187,175.7
158.8335,40.1
158.8556,29.5
158.8576,30.2
158.8612,124.9
158.9584,29.9
158.9642,774.1
158.9965,4088.3
159.0111,1243.4
159.0192,75
159.0263,80.5
159.0304,5419.3
159.0767,47.5
159.0921,25.2
159.121,29.1
159.1277,28.2
159.2591,25.3
159.2689,55.2
159.2835,31.6
159.3769,27.2
159.4522,291
159.4736,610.7
159.4799,460.3
159.6031,97.6
159.6427,32.9
159.6957,482.8
159.7373,30.7
159.8626,46.3
159.9273,26.2
159.9482,29.4
159.9645,34.3
159.9724,359.1
160.0138,28.5
160.0229,3243.6
160.0272,29.5
160.0286,30
160.0312,603.3
160.0344,1832.5
160.0515,119.9
160.0541,61.2
160.0605,1080621.9
160.0899,663.1
160.1255,63.7
160.1487,610.6
160.1638,24.5
160.1715,26.3
160.2251,48.8
160.248,35.1
160.3066,69.7
160.3776,25.7
160.4103,775.7
160.474,483
160.542,25.7
160.549,72.8
160.5691,199.5
160.6217,57.5
160.6239,107.6
160.7332,510.7
160.7881,41.2
160.8274,57.4
160.8838,38.8
160.9102,21
160.9856,36.8
160.9968,48.2
161.001,27.3
161.0405,43.3
161.0455,56.7
161.0495,57.3
161.0575,2036.7
161.0638,62444.6
161.0666,406.2
161.0942,30.9
161.1196,24.4
161.1325,506.6
161.2273,75.9
161.2298,32.6
161.3148,92.9
161.4092,611.8
161.4506,31.6
161.5082,616.1
161.5383,19.7
161.5721,178.8
161.5804,29.4
161.5976,23.8
161.65,91.7
161.6665,282.9
161.6733,697.1
161.8088,26.6
161.8682,47
161.8833,46.6
161.9102,29.2
162.0076,29.5
162.0501,3299.3
162.0617,136.3
162.0647,5963.3
162.0671,670.2
162.0845,95.4
162.0919,83.8
162.1129,39.7
162.1226,57.2
162.2234,28.6
162.2399,62.5
162.2484,40.3
162.3254,40.3
162.364,114.4
162.3866,187.4
162.4935,32
162.6006,140.2
162.6064,65.6
162.6295,87.4
162.6621,47.9
162.7104,485.1
162.7593,207.9
162.8636,182.5
162.9893,638
163.016,29.9
163.0346,32.7
163.0391,271.1
163.0567,82.3
163.0676,64.1
163.0696,440.7
163.091,88.4
163.1064,91.9
163.2645,34.2
163.2747,53
163.3037,462.2
163.5384,75.6
163.5743,31.6
163.6339,53.3
163.6382,478.1
163.6427,157.6
163.6712,611.1
163.7429,28
163.8231,158.3
163.8306,474.9
163.9248,28.5
163.9667,152.8
163.9756,31.8
164.0108,32.4
164.0294,4608.5
164.0601,23.5
164.0705,43.2
164.1702,60.8
164.2182,69.8
164.223,28.4
164.3694,43.5
164.3947,118.8
164.4722,197.5
164.5054,41.1
164.5222,115.4
164.5724,63.3
164.6039,488.1
164.6205,37.4
164.6358,27.9
164.6739,156.7
164.6964,100.8
164.728,503.3
164.8419,570.4
164.9204,1020.1
164.93,5334.6
164.9348,639.1
165.0416,49.4
165.0635,29.4
165.0725,44.2
165.0911,275
165.1371,25.9
165.2133,396.6
165.3881,33.9
165.394,46.2
165.3947,42.2
165.4109,439.1
165.4945,28
165.5567,32.4
165.6041,33.5
165.6923,38.6
165.7009,56.7
165.7034,40.5
165.7153,64.3
165.7325,28.5
165.7988,29.6
165.8776,86.9
165.9638,252
165.9877,2062
166.0261,3561.3
166.0427,25.8
166.0557,114.8
166.0713,159.5
166.0867,97.2
166.0965,45.2
166.1866,354.9
166.2035,36.7
166.2425,70.3
166.2486,95.2
166.3154,27.2
166.3596,17.9
166.4123,94.9
166.4379,372.7
166.4402,81.8
166.5007,27.8
166.5251,30.9
166.5277,93.6
166.5682,32
166.5766,46.4
166.6244,68.1
166.6524,438.7
166.6583,222.7
166.6868,21
166.6955,35.5
166.8216,32.2
166.875,21.5
166.9161,184.3
166.9321,157.9
166.9508,4672.7
166.9861,346.5
167.0218,2097.3
167.0342,31.9
167.0494,35.4
167.0987,159.3
167.1547,32
167.1654,29.4
167.1871,477.6
167.248,26.1
167.286,609.1
167.3174,369.7
167.3716,196.1
167.3793,408
167.4073,27.6
167.5334,72.2
167.6516,30.1
167.6539,69
167.6945,51
167.7347,27.2
167.7723,18.3
167.8329,31.8
167.916,55.9
167.9277,73.4
168.0057,443.7
168.0287,323.5
168.0404,123.1
168.0481,160.7
168.1056,48.4
168.1349,70.9
168.1607,597.5
168.1812,44.1
168.2304,34.1
168.2403,35.2
168.3257,37
168.3454,153.6
168.3541,32.7
168.4164,152.5
168.4549,34.7
168.4676,174.2
168.4739,52.3
168.5292,32.7
168.5555,31.1
168.5618,683.6
168.6525,682.7
168.7158,123.6
168.7427,39.2
168.8133,30.3
168.8635,30.4
168.8758,145.2
168.8881,485.5
168.8923,46
168.9575,31.8
168.9758,26.4
169.0014,38.8
169.0356,44.5
169.0541,30
169.0584,24815.7
169.0649,83.9
169.0949,1954.4
169.2124,32.6
169.258,41.5
169.3623,29
169.3659,524.8
169.3997,31
169.467,206.8
169.4869,348.2
169.5384,41.1
169.5517,27.8
169.6388,34.8
169.7272,120.8
169.8183,18.4
169.8284,28.9
169.8938,405.7
169.9316,33.2
169.9857,811.2
170.0326,3665.3
170.0904,180.3
170.0924,1272.9
170.1438,17.4
170.1468,588.7
170.2017,50
170.2253,499.8
170.2982,25.6
170.3806,252.3
170.3977,180.7
170.4023,26.9
170.4369,194.2
170.4489,16.2
170.4858,180.7
170.501,680.1
170.5453,35.2
170.5754,27.4
170.6006,694.7
170.6672,26.7
170.7064,37.5
170.7265,62.3
170.7611,26.6
170.8545,1997.9
170.8579,98.2
170.8969,41
170.9511,108.2
171.028,142.9
171.0351,76.9
171.064,109.8
171.0855,32
171.1347,37.9
171.2557,170
171.2587,27.4
171.2785,174
171.3001,40.7
171.3183,107.6
171.3848,26.7
171.4162,199
171.4215,41.5
171.4336,36.8
171.4751,475.3
171.52,49.2
171.5636,103.4
171.6428,549.1
171.7034,75
171.7245,534.7
171.8788,46.2
171.8902,96
171.9777,74.4
172.0285,81.1
172.0623,35
172.0833,125.9
172.115,124.3
172.2252,75.9
172.2427,584.2
172.2788,70.5
172.3388,279.6
172.3436,26.4
172.3596,32.7
172.3946,68.3
172.4342,29.4
172.4913,28.1
172.5219,416.9
172.5812,740.5
172.6068,31.1
172.6241,657.3
172.6444,59.5
172.7222,89.8
172.7264,375.6
172.7521,230
172.762,322.8
172.7715,35.9
172.8572,116.7
172.8925,74.9
172.9195,62.3
172.9716,68
172.9906,31.1
173.0268,34633.8
173.0403,38
173.075,39
173.1221,119.3
173.1328,36.7
173.2358,487.3
173.2647,27.4
173.3788,44.5
173.4066,28.2
173.4184,624.1
173.4285,92.5
173.496,500.3
173.6093,42.6
173.639,29.4
173.6988,41.1
173.7194,26.9
173.723,74.9
173.7942,38
173.8078,187
173.8556,153.2
173.8644,26.3
173.9179,97.8
173.9243,45.9
173.9341,34.7
173.985,40.2
174.0301,1438.4
174.1318,123
174.1612,17.9
174.1834,81.6
174.1968,43
174.2136,44.6
174.2376,41.1
174.2688,177.1
174.3575,30.9
174.4481,95.3
174.4515,320.4
174.5915,31.7
174.7202,83.3
174.756,459.1
174.8663,220.4
174.8972,34.4
174.9377,959.2
174.991,60.8
175.0184,76.6
175.0228,911.9
175.0341,1350.3
175.0465,43.8
175.1124,63.8
175.119,43942
175.1371,38.4
175.1486,71.2
175.1614,31.4
175.1918,35.6
175.1939,368.9
175.2257,127
175.232,26.5
175.236,47.7
175.24,28.9
175.2487,67.3
175.2711,138
175.3441,26.8
175.3548,181.2
175.4008,99.3
175.4442,27.9
175.4605,38.3
175.4632,46.2
175.6555,181.5
175.6979,515.9
175.7386,189
175.7468,191.4
175.773,39.9
175.7932,25
175.7967,32.4
175.8251,33.9
175.9927,208.3
176.0085,1121.4
176.0111,77.4
176.0445,36.8
176.05,31.7
176.0658,5979.4
176.1034,85.9
176.1223,274.6
176.1533,49.4
176.1622,587
176.166,694.4
176.1847,360.4
176.2054,41.4
176.2241,154.1
176.2279,473.7
176.2668,51
176.3008,69.1
176.3692,43.5
176.5428,31.6
176.5569,185.7
176.5671,53.7
176.5969,27.9
176.603,501
176.6218,88.7
176.6576,33.7
176.7134,50.4
176.718,25.6
176.7401,61.3
176.7538,32.9
176.8636,492.2
176.8807,395.1
176.8839,42.7
176.9156,76.7
177.0071,460.3
177.0246,563
177.0612,565.7
177.0871,36.8
177.2126,30.4
177.3094,28.3
177.3371,98.9
177.3874,67.5
177.3969,25.9
177.4699,117.3
177.5098,442.9
177.5719,26.9
177.5889,262.2
177.6534,21.4
177.6572,48.1
177.7632,33.4
177.8195,143.7
177.8563,29.9
177.913,33.1
178.0088,471.4
178.0118,430.8
178.0241,2612.7
178.0588,1849.3
178.0948,30.4
178.1683,253.4
178.2185,198.2
178.2281,28.6
178.2717,70.1
178.4545,480.3
178.5246,448.9
178.536,61.6
178.5805,26.5
178.6531,181.8
178.6554,282.2
178.663,34
178.6779,25.8
178.8308,29.7
178.9188,27.1
179.0024,33.4
179.0137,254.9
179.0324,29.4
179.0461,47.2
179.0496,20.3
179.0572,26.3
179.1093,406.5
179.2492,688
179.3588,36.6
179.4006,187.9
179.4426,27.7
179.4521,253.1
179.534,38.9
179.5542,30
179.6424,70.9
179.652,251.6
179.6837,41.9
179.702,60.6
179.7461,93.4
179.7873,40.4
179.8073,29
179.8819,66.8
179.9376,147.9
179.9582,189
179.9817,552.5
179.997,38.5
180.0034,5875
180.0753,461.7
180.1275,238.7
180.1883,66.6
180.2786,155.6
180.3833,29.5
180.4347,95.2
180.4382,524
180.4682,463.7
180.4795,68.3
180.508,29.2
180.5119,585
180.6204,94.8
180.6829,126
180.8172,116.8
180.8376,111.9
180.8582,25.1
180.8944,581.4
180.904,3751.4
180.9892,34.5
180.998,250.6
181.0084,30.1
181.0494,67.2
181.065,1177.1
181.1037,227.7
181.2687,550.6
181.2987,136.6
181.3374,350.1
181.4798,25.8
181.5994,696.8
181.6274,43.4
181.6314,107.7
181.6789,31.3
181.7069,21.9
181.7396,58.8
181.8303,84.3
181.8903,35.9
181.9129,632.8
181.9206,34.8
181.9406,78.1
182.0054,30.1
182.0425,49027.3
182.1071,28.5
182.1116,156.8
182.1581,69.9
182.1608,95.5
182.2248,17.3
182.3295,125.2
182.5114,207.7
182.6571,18.1
182.7076,27.5
182.7205,130.1
182.7276,48
182.7613,27.4
182.876,61.4
182.9026,140.7
182.9549,30.4
183.0378,49.1
183.0458,1418
183.0979,25.5
183.1059,95.6
183.1551,37.5
183.1861,25.8
183.196,25.6
183.2299,31.1
183.278,111.1
183.2842,31.8
183.3283,28.6
183.3899,35.7
183.4546,162.9
183.4714,32.3
183.6011,34.6
183.6845,31.6
183.728,192.6
183.7632,39.6
183.8483,149.5
183.8557,33.9
183.8766,40.9
183.9212,111.6
183.941,29.8
183.9651,43.2
183.9741,30.8
183.9887,28.9
184.0373,53
184.061,39
184.0649,39.7
184.0661,42.1
184.0696,126.4
184.0734,490079.4
184.0794,53.4
184.0821,49.4
184.0842,28.6
184.086,34.5
184.0874,36.2
184.0948,637.8
184.0996,36.3
184.1099,104.6
184.1553,173.7
184.1698,438.1
184.1825,51.4
184.1944,50.8
184.2548,19.6
184.2892,29.3
184.3168,233.3
184.3199,78.8
184.3685,464
184.6286,20.8
184.6521,34.2
184.6616,74.8
184.7225,360.2
184.7658,27.8
184.782,30.2
184.8347,723.1
184.8419,343.3
184.866,427.4
184.8923,20.8
184.9293,72.7
184.9998,306.8
185.0324,34602.7
185.0371,30.5
185.0688,766.5
185.0708,68.6
185.0768,19343.1
185.1164,35.1
185.1324,35.1
185.1662,40.4
185.2059,30.3
185.2095,93
185.3016,32.8
185.3996,30.7
185.4263,303
185.4336,166.8
185.4633,466.5
185.4941,36.8
185.5637,37.3
185.618,33.7
185.6325,28.7
185.7787,483.2
185.7843,364.2
185.8238,148.6
185.8581,32.8
185.998,18
186.0164,47.1
186.0357,697
186.0776,1072
186.1191,668.7
186.1241,124.6
186.1685,650.1
186.1983,38.1
186.2084,422.4
186.2194,386.5
186.2353,27.8
186.2804,180.6
186.3253,27
186.3406,110.3
186.3418,116.4
186.3483,49.7
186.464,506.1
186.4974,29.9
186.5168,51.7
186.5222,711.4
186.653,35.3
186.7994,42.7
186.8172,49.1
186.8253,52.2
186.8388,98.6
186.9228,20.4
186.928,82.1
186.9411,114.4
187.0305,1359.8
187.058,503.8
187.0715,546.8
187.1084,200.8
187.1481,31.5
187.1843,60.6
187.3411,31.9
187.3437,247.2
187.3458,192.3
187.4023,204.1
187.4467,28.5
187.4693,36
187.4799,45.4
187.4897,29.3
187.514,45.9
187.52,45.7
187.5487,42.1
187.5532,30.4
187.5862,165
187.6372,193.7
187.711,152.1
187.7197,66.6
188.0004,28.3
188.0288,59.1
188.0706,34.1
188.0793,3043.6
188.1845,65.2
188.3051,73.4
188.3584,616.7
188.4463,219.4
188.4645,31.1
188.6093,102.8
188.6302,28.6
188.6388,622
188.6424,205
188.7157,60.2
188.7485,18.1
188.8285,89.3
188.8743,238
188.9464,165.7
189.025,21.5
189.0871,4095.5
189.1214,18.2
189.1855,262.8
189.2666,395.3
189.2682,389.7
189.3157,69
189.3337,49.6
189.3839,41.2
189.4919,55.9
189.5089,255.1
189.5131,637.7
189.5324,87
189.5387,105.3
189.6646,46.3
189.7594,36.7
189.8116,19.6
189.8397,144.8
189.8457,37.3
189.8592,21.1
189.9353,134.2
189.959,148.4
189.9809,31.3
190.0302,72.8
190.1999,91.9
190.203,99.9
190.217,41
190.2265,28.9
190.4246,237.5
190.4429,152.9
190.4663,189.7
190.4881,23.6
190.7203,58.5
190.7538,29.9
190.7723,27.6
190.7862,610.1
190.8763,61.9
190.9137,59.6
190.9445,74
190.9747,224.6
191.0347,490.2
191.0404,24682
191.068,510.1
191.0768,3369.8
191.0856,82.8
191.1141,57
191.1219,30.4
191.142,121.9
191.1824,488.1
191.2444,52.6
191.277,100.4
191.2888,145.5
191.2973,36.6
191.3408,74.2
191.4477,32.1
191.5942,184.3
191.7149,339.8
191.8792,88.3
191.9838,767.9
192.0107,25.6
192.0398,2907.2
192.0437,580.6
192.0645,27
192.0897,357.9
192.109,266
192.1553,30.5
192.2575,33.1
192.3148,48.4
192.325,126.9
192.3411,167
192.3478,36.1
192.4084,100.3
192.5433,68.9
192.7144,46.6
192.7668,555.9
192.888,155.7
192.9987,1323.2
193.0092,57.4
193.0647,510.1
193.111,35.2
193.135,21.2
193.1648,475.7
193.1714,45.9
193.2144,48.5
193.4032,412.6
193.4598,51.8
193.4701,610.7
193.5101,21.9
193.5336,172.5
193.582,31.2
193.5856,66.2
193.5954,28.4
193.6552,27
193.7094,148.1
193.7129,29.1
193.8356,40.1
193.9979,636.8
194.0051,816.3
194.0326,1381
194.094,36.9
194.1541,782.3
194.1714,34.3
194.1767,73.7
194.3182,63.2
194.3232,31.6
194.3913,51.6
194.4784,62.1
194.5071,35.9
194.5859,28.5
194.6127,52.5
194.6309,220.5
194.7386,35.7
194.7508,61.2
194.9653,437.8
194.9728,28.1
195.0203,32.2
195.0409,68.7
195.0447,77
195.0737,49.6
195.0878,79.5
195.1071,108.8
195.1381,28.1
195.2009,126.4
195.2617,76.9
195.2981,574.2
195.4482,34.7
195.5851,17.6
195.6214,257.8
195.6244,43.3
195.69,276.2
195.7169,319.6
195.7651,23.5
195.9271,95.5
195.9958,725.3
196.0179,58.7
196.0224,40.8
196.0792,116.2
196.1698,4688.4
196.1956,37.8
196.1966,43.7
196.198,31.5
196.2214,28.5
196.226,27
196.3661,47.2
196.3865,44.3
196.4382,124.5
196.4693,35
196.488,36.5
196.5399,39
196.5604,403.5
196.6055,51.5
196.795,81.1
196.8621,79.7
196.8653,2972.3
196.8782,1316.3
196.9216,194.5
196.9255,113.3
196.9407,20.2
197.0238,26.9
197.0386,486.2
197.101,1665.6
197.1733,86.9
197.1962,490.5
197.2178,37
197.2808,32.1
197.3151,31.3
197.3762,31.6
197.4144,394
197.602,25.1
197.6692,157.5
197.6728,35.5
197.7232,70.5
197.8476,37.1
197.8698,261.9
197.8847,162.2
197.8867,71.3
197.9158,36.5
197.9728,30.8
197.9765,45.9
198.0073,75.8
198.0537,477.6
198.0849,3193.8
198.0897,68
198.1854,48708.2
198.2716,51
198.2881,708.1
198.3207,662.2
198.384,358.6
198.4047,102.9
198.4639,41.6
198.52,622.5
198.5773,46.9
198.6236,110.6
198.6366,39.2
198.7169,246.8
198.8118,32.9
198.8622,3153.6
198.9319,31.5
199.0062,47.8
199.0168,51.7
199.0207,42.3
199.0395,25.8
199.0756,334.5
199.0786,155.9
199.1207,41.2
199.1828,33.8
199.1888,4851.8
199.1924,99.4
199.1975,28.8
199.2283,55
199.2442,19
199.3004,105.5
199.3143,192
199.3546,20.9
199.3692,46.8
199.394,62
199.4295,32.1
199.4697,19.6
199.539,43
199.6466,87.6
199.6608,38.8
199.7445,43.3
199.7696,292.5
199.8062,19.3
199.9042,60.3
199.9536,31.4
199.9713,23.7
199.9743,29
199.9807,633.8
199.9908,1469.2
200.0193,28.9
200.0406,1810.9
200.0615,111.9
200.0647,48.7
200.1205,5142
200.1234,2349.4
200.134,24.3
200.1906,67.7
200.2032,426.4
200.259,30.7
200.3245,59.9
200.3594,35.3
200.4534,30.3
200.4721,51.9
200.5175,39.6
200.5352,177.4
200.6387,36.5
200.6804,36.5
200.8171,20.3
200.8594,46.2
200.8966,513.5
200.909,48.4
200.9249,260.8
201.0128,860.8
201.0872,344.9
201.1199,385
201.2151,26.7
201.2831,115.8
201.4763,41.3
201.5139,61.2
201.5216,64.9
201.5971,46.5
201.6315,27.9
201.6803,36.3
201.8223,344.8
201.9782,452.5
201.9964,201.9
202.0481,141.8
202.0841,26.7
202.1206,406
202.1222,397.9
202.3676,49.5
202.4106,44.9
202.4699,19.4
202.4909,9480.2
202.4967,550.9
202.5202,48.1
202.64,32.9
202.6491,35.2
202.6729,30.2
202.7191,28.4
202.7666,433.6
202.7786,26
202.8133,39.7
202.9213,138.7
202.9531,100.9
202.975,347.7
202.9778,92.5
203.0527,371085
203.0763,690.2
203.0996,20.2
203.1029,96
203.1394,83.7
203.1719,64.2
203.1795,40.2
203.1862,39
203.2025,23.7
203.2067,27.9
203.2108,19.8
203.2166,81.2
203.3635,44.3
203.3754,91
203.4088,33.5
203.5628,55.7
203.5738,44.9
203.607,164.9
203.6516,44.2
203.656,59.6
203.6629,592.3
203.7602,89.2
203.7881,40.7
203.8388,208.2
203.9456,32.3
204.0103,721.6
204.0244,9395.3
204.056,18567.6
204.0929,501.5
204.1124,48.5
204.2282,55.3
204.2918,86.4
204.3203,21.3
204.4178,32.7
204.4431,87.6
204.4867,49.5
204.5366,35.1
204.5486,30.5
204.6855,641.3
204.7199,68.2
204.9385,38.1
204.9578,39.2
204.9689,59.4
205.0016,813.5
205.0391,130.5
205.0568,1230.5
205.0619,27.8
205.065,25.3
205.0838,73.9
205.0976,20.8
205.2858,468.6
205.3147,69.3
205.3252,33.8
205.5336,86.2
205.596,28.5
205.7152,33.7
205.76,63.6
205.8033,123.7
205.8513,146.6
205.8624,43.6
205.9344,32.1
205.9685,100.1
205.9735,26.1
205.9783,244.3
205.9886,36.2
206.0359,28.2
206.0403,30.2
206.0533,205.2
206.055,240.3
206.1525,156.5
206.2713,28.6
206.2858,34.1
206.355,65.3
206.3941,70.8
206.4187,32
206.4831,37.1
206.4997,35.7
206.5731,38.9
206.576,37.5
206.5994,147.5
206.6229,32.7
206.631,87.7
206.6597,29.5
206.7355,35.4
206.7667,445.9
206.7751,73.9
206.8259,370.3
206.8716,100
206.894,10692.4
207.0144,20380.2
207.0443,699.2
207.0508,1714.8
207.1611,60.2
207.1668,184.4
207.1959,250.2
207.3081,147.1
207.339,67.6
207.3612,68.6
207.6348,41.6
207.6948,145.1
207.7348,180.4
207.739,101.4
207.7527,32.8
207.7773,50.9
207.7932,58.6
207.9392,25.5
207.9468,20.8
207.9906,34.3
208.0138,570.4
208.0352,32.4
208.2236,276
208.3027,256.4
208.4684,76.5
208.5957,166.6
208.6658,555.5
208.6872,54
208.7492,604.8
208.891,6230.5
208.9383,60
208.9551,30.9
209.0085,223.1
209.0116,42.3
209.0367,234.6
209.0671,61.2
209.1231,76.1
209.2287,29.7
209.2608,28.6
209.2912,550.2
209.306,32
209.3113,28.6
209.3623,294.9
209.3751,201.8
209.4073,36.4
209.4607,58.9
209.5239,30.6
210.0503,1653.1
210.6799,169.5
210.7081,28.5
210.7202,36.4
210.7345,36.2
210.7434,155.8
210.7826,58.4
210.8263,150.5
210.8577,357.7
210.8881,966.6
210.9196,148.1
210.9528,514.1
210.9815,30
211.0347,31.4
211.0494,34.5
211.052,52
211.0573,42.4
211.069,411.9
211.0992,21.6
211.1324,32.6
211.1372,40.1
211.1477,59.2
211.1584,4695
211.1634,9359.3
211.1686,13687.7
211.1715,10622.5
211.1758,9596.5
211.1796,4022.3
211.182,3680.3
211.1848,3328.9
211.1893,1053.8
211.1928,611.2
211.1974,471.1
211.2148,132.8
211.249,29.4
211.2716,35
211.3113,52.8
211.4798,116.3
211.5511,218.3
211.7661,48.6
211.7811,266.1
211.8067,20.3
211.9175,31.8
211.9467,35.2
211.9669,344.6
212.0407,34.6
212.0742,102.1
212.091,24.8
212.0956,24.5
212.1605,17.8
212.2264,62.3
212.4672,23.9
212.4905,457
212.5013,58.2
212.5367,44.8
212.8392,2264.1
212.9546,399.7
212.9579,43.9
212.9787,37.7
213.0505,26.5
213.0547,133.6
213.1747,26.7
213.1907,393.6
213.2076,248.4
213.3877,34
213.4106,388.6
213.5755,108.4
213.6203,40.2
213.6257,35.3
213.7051,27.2
213.7586,217.3
213.8634,165.3
213.9217,39.4
213.9816,544.5
213.9847,633.9
214.0323,103.9
214.0471,45.2
214.059,5797.4
214.0898,55152.4
214.1235,31.8
214.2019,27.4
214.2038,25.5
214.208,32.7
214.2691,68.9
214.2885,50.7
214.2961,274
214.3693,47.5
214.3786,29.3
214.4229,385.9
214.5459,179.7
214.5976,573.4
214.6469,25.2
214.66,366.5
214.763,31.7
214.8363,772.6
214.8407,39.4
214.9176,88
214.956,43.1
215.0108,40.7
215.037,114.2
215.0553,74.5
215.0893,72.9
215.0932,4684.2
215.1796,430.8
215.3036,32.5
215.3571,82.6
215.3801,33.1
215.403,143.9
215.436,101.2
215.773,53.8
215.8407,51.6
215.8714,211
215.9156,157.8
215.9384,107.4
216.0035,35.5
216.0149,1263.3
216.0177,176.4
216.0493,26.7
216.0857,1398.7
216.1397,36.6
216.2888,27.9
216.4315,17
216.4805,268.4
216.6277,52.9
216.7066,33.9
216.8242,50.2
216.9228,19940
216.9389,405.5
216.9449,31.3
217.0823,58.1
217.2151,30.3
217.2269,630.7
217.3429,39.8
217.4547,80.7
217.4731,27.2
217.5663,33
217.5737,46.3
217.5855,44.6
217.6186,81
217.6984,40
217.7618,238.2
217.9657,33.5
218.0068,21.1
218.0442,536.3
218.1516,571.3
218.2466,43.1
218.2818,21.7
218.3381,203.2
218.3732,28
218.4094,36.4
218.445,1105.2
218.4483,44.9
218.5221,35.4
218.5444,23
218.5635,182.6
218.591,49.5
218.8199,178.3
218.8329,173.1
218.8683,180.1
218.9199,5226.1
218.944,29.1
219.0058,62.6
219.0267,565088.2
219.0302,1921
219.0395,38.8
219.0476,446
219.0616,26.4
219.0829,2320.8
219.0875,50.6
219.0909,72.5
219.2453,88.9
219.2633,28
219.3171,165.8
219.322,18.3
219.4443,28.2
219.4712,30.2
219.5493,20.6
219.6425,129.6
219.647,523.3
219.6842,31.6
219.8331,191.7
219.8846,78.6
219.8867,76.8
219.9072,34.3
219.9262,514.5
219.9865,22.5
219.9923,104.5
219.9981,218.5
220.03,27266.6
220.067,1839.3
220.1146,27.3
220.1674,4540.5
220.2112,36.4
220.3253,27.1
220.3882,100.9
220.4554,58.2
220.5671,96.4
220.7108,51.8
220.7408,681.1
220.7456,47.7
220.7493,31.7
220.7933,17.1
220.8349,49.4
220.9344,49.5
220.9415,82
221.0033,27.3
221.0248,31595.7
221.0308,3975.6
221.0357,39.9
221.0846,480.7
221.1176,57.5
221.1568,57.4
221.1705,63.6
221.2015,27.3
221.2986,62.7
221.6243,30.3
221.7073,29.2
221.7849,27.2
221.846,42.1
221.9563,97.8
221.9708,255.8
221.9763,30.3
222.0282,907
222.0394,68.5
222.1732,153
222.1757,28.2
222.2035,32.3
222.2626,35.6
222.329,27.8
222.342,45.3
222.5505,30.6
222.5965,463.9
222.8007,173.3
222.8544,35.6
222.868,8036.9
222.9592,174.1
222.9883,2276.4
223.0121,245.4
223.037,506.4
223.1813,33.8
223.2358,491.3
223.4052,41.6
223.4696,643
223.5288,57.7
223.5331,24.5
223.5728,24.5
223.6069,133.4
223.8075,65.7
223.8641,108.1
223.9149,33.7
223.9534,22.6
223.9717,502.7
223.9851,38
224.0425,52.1
224.0497,27.2
224.0688,28.7
224.0909,43.8
224.17,20.5
224.182,20.8
224.255,30.7
224.261,44.7
224.2697,123.3
224.4267,202.9
224.4963,28.3
224.524,29.4
224.6657,26.7
224.7388,164.2
224.7845,26.7
224.8369,445.2
224.865,4912.6
224.9324,36.9
224.944,21.1
224.9857,530
225.0346,1227
225.0429,82.8
225.0548,11760.1
225.0846,638.9
225.134,176.8
225.2339,31.2
225.2382,68.6
225.3452,34
225.5613,166.8
225.6657,182.5
225.9518,30.5
226.0022,36.8
226.0244,2127.9
226.0453,1747.2
226.054,33.7
226.0586,102.4
226.265,48.4
226.469,34.3
226.5142,62.4
226.7079,31.1
226.7319,17.9
226.9391,204.1
226.9477,37.4
226.9517,6734
226.9718,31.8
226.9762,81.7
227.026,54.7
227.0342,765.6
227.0868,74.5
227.2145,690.8
227.2369,36.6
227.2458,39.4
227.2611,42.3
227.2652,22.1
227.3236,46.9
227.3356,40.3
227.345,31.8
227.3463,48.6
227.3475,46
227.3837,388.8
227.4693,32
227.5488,191.4
227.5822,59.4
227.6876,19.4
227.6892,30.1
227.6907,38.4
227.713,542.8
227.7585,29.8
227.7977,74.1
227.8324,34
227.9169,25.8
227.9482,27.9
227.9845,456.7
228.0004,641.5
228.0535,325.8
228.1338,26.1
228.2446,132.6
228.2481,85.9
228.3175,540.9
228.4135,63.2
228.444,27.1
228.463,83
228.5945,771.5
228.6943,27.3
228.8663,32.6
228.9919,576.1
229.0561,70.4
229.0609,28.6
229.1034,232.6
229.162,19.7
229.3117,529.1
229.3382,33
229.3944,33.9
229.3956,52.3
229.3972,51.5
229.4975,41.5
229.6006,33.5
229.7336,46.3
229.9569,68.5
229.9651,785.9
230.0161,23.4
230.0334,302.8
230.0576,98.8
230.1032,57.3
230.268,93.6
230.2795,300.3
230.4852,717.5
230.5729,82.6
230.6696,138.9
230.81,614.3
230.8979,55.7
230.9061,19.5
230.9998,21.8
231.0037,75.3
231.0558,1233
231.1128,31.8
231.1148,28.7
231.1163,30.5
231.5068,57
231.5378,34.4
231.5801,35.9
231.5881,36.6
231.9953,436.1
232.1398,30.2
232.1598,489.3
232.2395,32.3
232.2487,63.7
232.3476,18.2
232.3581,203.7
232.4507,346.7
232.5177,185.1
232.5907,48.8
232.7575,46
232.8109,582.8
232.8139,175
232.8721,81.8
232.8968,16155.7
232.986,1968.5
233.0162,165.5
233.051,705.2
233.0635,79.4
233.0906,34.6
233.1337,538.9
233.2964,86.5
233.3178,27.6
233.48,63.8
233.557,621.1
233.6168,41.5
233.718,31
233.8369,50.8
233.8422,38
233.9841,24.1
234.0136,215.4
234.0259,30.7
234.059,28
234.1984,30.6
234.3,228.6
234.3353,20.2
234.3461,49.4
234.5076,40.7
234.5127,361.9
234.5261,83.6
234.5524,575.8
234.6006,101.1
234.6919,27.1
234.711,642.8
234.7384,31.2
234.7773,62.2
234.8936,3720.8
234.9161,20.9
234.9426,30
234.9814,1070
235.067,117.4
235.0927,8060
235.2249,488.3
235.3594,348.9
235.3735,71.5
235.5365,467.2
235.6281,93.6
235.6929,70.5
235.7675,54.7
235.7785,72.2
235.9397,568.9
236.0718,95874.9
236.096,71.1
236.3622,32.5
236.4665,34.4
236.5137,30.2
236.5549,38.3
236.883,36.3
236.9065,21.2
236.9582,89.3
236.9599,88.6
237.0752,6467.4
237.102,58.2
237.1561,20.7
237.2316,40.6
237.2421,39.5
237.3607,470.6
237.4802,26.5
237.7043,33.9
237.727,513.8
237.7714,43.9
237.9536,29.5
237.9887,117.2
238.0153,29.9
238.0677,1366.9
238.0783,23.8
238.2006,650
238.2365,32.6
238.32,27.3
238.325,480
238.3305,26.8
238.4325,31.8
238.5348,31.7
238.6053,101
238.6225,536
238.6621,33.3
238.6781,29.7
238.6851,72.2
238.7026,414.8
238.7268,40.7
238.7868,444.3
238.842,3079.2
238.8816,29.6
238.933,30.1
238.9518,53.8
238.987,30.5
239.0094,33.7
239.0459,36.1
239.0497,118.7
239.0516,131.2
239.0641,192.7
239.0706,227.9
239.1433,123.6
239.2102,34.1
239.2857,39.1
239.3293,552.1
239.3628,61.8
239.3737,31.6
239.5431,31.2
239.5751,30.8
239.6399,25.5
239.7171,62.1
239.7385,34.3
239.8269,43.2
239.875,27
239.91,35.4
239.9219,34.9
240.0319,34.8
240.0873,232.8
240.1001,32.1
240.1054,69.5
240.4011,539.3
240.4649,42.4
240.5094,88.7
240.5845,246
240.5951,51.3
240.649,22
240.682,33.9
240.9308,680.3
240.9356,303.1
241.0033,351.2
241.032,60.6
241.0498,88.1
241.0624,708.3
241.1006,47.2
241.1035,40.7
241.2718,45.6
241.2914,41.1
241.301,27.7
241.3131,97.1
241.3895,38.8
241.4314,33.1
241.6096,65.8
241.6792,66.1
241.803,30.8
241.9221,453.2
241.9796,100.1
242.0079,34.3
242.0456,124.9
242.0686,86.3
242.098,358.7
242.1823,32.2
242.2456,32.1
242.2771,146.7
242.2876,25.2
242.294,373.6
242.3089,45.3
242.4538,239
242.4795,44.5
242.567,148.1
242.6247,454.4
242.6672,42.9
242.6826,19.9
242.7246,61.3
242.7719,143.7
242.7817,30.5
242.8526,37.6
242.9255,3456.4
242.9398,62.9
243.0064,473.9
243.0532,5725.2
243.0654,6362.8
243.2015,34.6
243.2813,114.7
243.3278,39.9
243.4805,28.6
243.5752,40
243.5901,214.5
243.6314,576.3
243.8192,30
243.8251,425.7
243.9729,72.3
244.0127,364.8
244.0489,26.6
244.1716,47.7
244.2949,38.1
244.4864,30.9
244.6607,26.8
244.687,58.1
244.7046,607.7
244.7727,47.4
244.8337,39
244.8707,780.6
244.9081,58.4
244.9183,546.8
245.0159,28.7
245.0214,69.5
245.0429,92
245.0715,1513.8
245.0799,56.8
245.082,57.5
245.1242,202.6
245.155,30.8
245.1911,40.8
245.2259,127.9
245.2352,29.5
245.3087,41.9
245.3616,28.9
245.4518,28.6
245.5423,42
245.7335,35.2
245.7596,203.9
245.9916,34.5
246.0015,76.2
246.011,80.9
246.0177,29.2
246.0364,39.4
246.1004,663.4
246.2861,82.4
246.2993,148.7
246.3922,23.1
246.4152,28.8
246.456,35.6
246.5007,20.3
246.5746,138
246.6438,452.2
246.6702,67.9
246.6864,725.8
246.7118,49.6
246.7232,19.6
246.7967,18.7
246.8073,405.3
246.8295,42.7
247.0456,354
247.0513,163.2
247.0671,673.9
247.086,631.4
247.0927,37076.9
247.1524,62.8
247.1743,86.1
247.2265,28.5
247.263,30.8
247.2799,69.1
247.3182,39.9
247.3413,35.7
247.4239,263.8
247.5769,34.6
247.6701,22.3
247.7594,38.9
247.7753,33.8
247.8057,428.9
247.8579,27.7
247.9857,45.7
248.0873,17.2
248.0961,2339.6
248.1239,208.6
248.2264,32.5
248.2404,19.7
248.3858,180.1
248.3927,28.5
248.5207,34.5
248.5402,191.8
248.6926,87.6
248.6954,28.5
248.7957,88.9
248.8363,27.7
248.8708,3448.9
248.89,179.2
248.8967,187.9
248.9599,529
249.013,363.2
249.0331,318.5
249.0457,33.1
249.0612,3100.4
249.109,108.1
249.1759,95
249.1797,28.8
249.1872,458.6
249.2097,28.6
249.2156,18.1
249.2574,556.4
249.2782,23.7
249.391,33.1
249.4306,29.8
249.4887,33.7
249.5845,31.8
249.6993,39
249.7894,603.4
249.8256,38.7
249.87,47.2
249.9352,29.5
249.9406,203.6
250.0511,29
250.0744,71.9
250.0915,25.1
250.1235,32
250.3684,46.1
250.449,45.5
250.5425,20.8
250.5864,32
250.5953,41.5
250.6384,28.6
250.762,265.9
250.8051,638.2
250.8215,29.4
250.8314,33.3
250.8476,28.3
250.8683,486.9
250.9203,989.3
250.9554,619.9
251.0004,34.9
251.0188,30.7
251.0339,495.6
251.0802,81.8
251.102,34.3
251.1179,58.9
251.1607,28.6
251.1801,53.2
251.1981,575.3
251.2142,29.6
251.2471,22.2
251.2606,448.2
251.2751,59.4
251.3297,42
251.3492,35.4
251.4309,350.4
251.5874,31.7
251.6771,29.8
251.7313,92.9
251.7861,69.2
251.8376,28.3
251.8607,40.4
251.887,67.1
251.9082,29.7
251.9823,65.9
252.0285,33.5
252.0364,209.9
252.0457,50457.3
252.1588,48.8
252.2755,118.7
252.4821,252.5
252.6102,31.1
252.6446,96.3
252.6609,147.5
252.6979,19.8
252.8686,75.9
253,74.5
253.0276,47
253.0492,1510.8
253.0678,26.9
253.2716,397.2
253.3243,21.7
253.3808,34.9
253.4175,107.5
254.0436,2263.5
254.0724,40.8
254.4539,16.8
254.4552,16.8
254.4592,28.6
254.5449,43
254.651,104.6
254.6879,27.5
254.7096,47.3
254.8158,549.3
254.8239,3486
254.844,28
255.0288,110
255.0329,584.8
255.0464,423.3
255.0814,93.4
255.1267,29.1
255.3199,224
255.3739,28.5
255.4685,138.4
255.5735,548.8
255.6273,27.5
255.6451,27.1
255.9056,39.6
255.925,28.5
255.9535,111.3
255.9601,116
256.0081,227.2
256.0583,29.3
256.0669,339.6
256.1113,47.9
256.1905,23.7
256.2903,38.9
256.3185,399.7
256.3994,45.9
256.5439,31.6
256.6537,125.9
256.6588,113.3
256.6787,408.1
256.8036,192.3
256.821,4531.5
256.8515,171.6
256.8936,99.1
256.9016,41.4
256.9364,166.7
257.0106,551.7
257.0323,36.6
257.0674,29
257.0747,34955.6
257.082,30.9
257.0992,31.2
257.1462,114.5
257.2073,29.6
257.2087,29.4
257.2269,27.6
257.2393,33.5
257.2533,219.3
257.3438,31.2
257.3571,26.5
257.4139,375.9
257.4482,514
257.4623,29.7
257.5256,88.3
257.617,176.5
257.6303,73.4
257.6365,156.2
257.7369,32.6
257.8395,28.9
257.8866,125.8
257.9313,122.1
257.9749,80.6
258.0041,70.5
258.0196,33.7
258.0241,33.9
258.0304,1742.9
258.0535,66.5
258.0781,1023.8
258.1017,62.6
258.111,551.7
258.2222,37.1
258.5324,31.4
258.5795,49.1
258.7673,29.6
258.7967,506.5
258.8179,2554.4
258.8568,34.8
258.9557,33.6
258.9706,18.6
258.9779,230.7
259.0494,54.6
259.0803,109.1
259.1623,63.9
259.1774,63.5
259.2269,41.5
259.2407,160.8
259.3306,250.9
259.393,61.6
259.497,91.9
259.5349,28.1
259.5823,26.4
259.6638,91.7
259.6868,65.3
259.6988,33.9
259.8302,333.2
259.9602,18.7
259.9656,536.8
260.0173,33.8
260.1004,29.1
260.1756,112.4
260.1954,186.2
260.2589,197.1
260.3294,496
260.4455,175.6
260.4532,111.9
260.5677,31.1
260.5793,237.5
260.5985,27.2
260.6716,27.9
260.7535,19
260.815,469.2
260.8451,487
260.8722,34.1
260.8751,34.2
260.9491,2492.8
261.0328,31.6
261.0852,58.7
261.1374,51.3
261.1491,100.5
261.1705,85.8
261.4769,32.4
261.481,33.5
261.4855,57.9
261.5813,487.5
261.8547,51.3
262.0039,45.2
262.0936,33.6
262.1183,20.9
262.4164,572.2
262.4217,61.1
262.4384,29
262.6461,514.4
262.7664,17
262.9552,32.2
263.0063,47.1
263.0276,215.2
263.0818,25.3
263.0851,1452.3
263.1781,133.2
263.1986,79.2
263.281,32.7
263.457,42.7
263.4843,30.5
263.5338,36.3
263.6468,28.7
263.6611,38.9
263.8281,46.7
263.8627,81.4
263.9946,20.8
264.0478,35.9
264.2282,77.1
264.2401,189
264.3716,55.7
264.4407,44.6
264.484,631.5
264.5077,134
264.5474,28.4
264.568,37.1
264.6701,290
264.8528,3412.5
264.9336,925.9
264.9687,150.4
264.9884,367.1
265.0165,51.7
265.0234,3060.8
265.0352,2569.3
265.1843,93.6
265.2147,45.8
265.2791,118.9
265.2971,29.2
265.3125,67.6
265.3641,35.1
265.4277,120.1
265.6222,300.6
265.6309,152.6
265.6547,54.5
265.713,92.2
265.922,37.4
265.9739,113
266.0265,56
266.2711,165.1
266.4578,54.3
266.6473,44.2
266.6723,48.5
266.7366,34.4
266.8497,2806.4
266.8607,30
266.9613,34.6
266.9775,30.3
266.9989,25.8
267.0138,58.9
267.0249,36.7
267.0575,100.1
267.0812,27.7
267.1951,30.5
267.3141,71.4
267.3817,28.5
267.4471,65.3
267.6113,389.9
267.6331,22.6
267.6773,182.4
267.7624,259.4
267.808,35
267.8467,69.5
267.8612,59.1
267.8742,36.1
267.8782,31
267.9448,30.7
267.9934,22.4
268.0322,31.4
268.0515,29.4
268.3055,27.5
268.6092,37.1
268.7041,200.7
268.7156,26.1
268.7533,19.9
268.8915,749.4
269.0345,235
269.0448,9082
269.0545,67.8
269.116,141.6
269.4882,63.8
269.4961,30.6
269.6321,32.6
269.649,38.6
269.9468,30.6
269.9587,22.2
270.0249,385.9
270.0475,10403
270.1408,30.6
270.2645,42.3
270.4785,432.4
270.5329,146.6
270.6414,182.8
270.7723,588
270.7982,2230.2
270.978,2329.3
271.0242,601.1
271.045,146.7
271.0509,1419.1
271.0779,512.2
271.0902,1013.4
271.1692,472.5
271.2051,168.6
271.222,62.3
271.317,45.2
271.5924,25.7
271.6043,26.5
271.8361,30.3
271.9223,28.9
271.938,198.1
272.0022,707
272.0443,151.9
272.0535,19.2
272.0806,230.2
272.3522,586.1
272.3911,32.1
272.4017,41.7
272.4242,34.3
272.5583,69.9
272.5697,551.1
272.6012,42.1
272.7948,2027.3
272.829,30.7
272.8991,807.3
272.9519,26.4
272.9598,201.6
272.9687,38.5
272.9982,50
273.0311,31.5
273.0436,505.5
273.4621,62.5
273.471,66
273.611,39.8
273.7286,36.6
273.8316,147.3
273.8399,507.8
274.0928,29.7
274.1944,32.7
274.261,124.4
274.2651,30
274.3067,88.3
274.3617,32.5
274.3752,29.5
274.5092,27.5
274.5413,490.6
274.6321,35.2
274.6351,30.7
274.7701,30.9
274.792,725.6
274.8403,48.3
274.8972,28.9
274.9025,34.3
274.9275,27.1
275.0023,119.1
275.0327,131.8
275.0944,21.2
275.1066,34.1
275.1916,30.5
275.2677,42.5
275.3062,1043
275.3111,241.9
275.3499,27.9
275.3911,40.2
275.5911,42.8
275.6784,30.1
275.8616,30.3
275.9034,97.1
275.9687,665.5
275.9739,37.7
275.9832,27.2
276.0338,113.7
276.1164,58.1
276.1205,42.4
276.1985,37.4
276.4261,165.5
276.4741,21.4
276.575,608.1
276.7695,47.4
276.7891,55.8
276.923,2571
277.0527,73.4
277.0924,32.8
277.1104,516.9
277.1809,29.3
277.1903,58.9
277.2329,57.9
277.2896,35.9
277.3078,404.2
277.4283,34.2
277.5419,46.5
277.6179,189.2
277.6958,132.4
277.8955,394.1
277.9084,34.8
278.0191,333.9
278.3101,30.8
278.3267,135.1
278.362,181
278.4068,579.6
278.4971,36.4
278.5297,47.2
278.547,565.2
278.6077,294.4
278.7111,36
278.8506,28.8
278.8937,1184.3
278.961,56.5
279.0567,9089.9
279.0963,23.5
279.1053,100
279.1198,29.1
279.6776,65.1
279.695,27
279.7771,161.6
279.8178,183.2
279.8354,58.5
279.8443,310.3
279.855,29.3
279.998,26.7
280.0161,183
280.1583,24.4
280.2258,28.5
280.3006,156.9
280.3218,95
280.3957,51
280.4262,53.5
280.5217,34.7
280.5609,54.6
280.5831,35
280.5893,18.3
280.6781,20
280.7198,38.7
280.8268,1616.9
280.8502,34.6
280.8807,39.5
280.9903,21.8
281.0516,340.1
281.2194,124.8
281.419,32.2
281.6634,19.2
281.7253,133.9
281.7321,37.2
281.9226,64.4
281.9672,29
282.0148,88.4
282.0649,3765.9
282.0763,19.4
282.1372,28.3
282.1918,60.9
282.2073,489.9
282.3575,146.7
282.4119,64.6
282.5333,102.7
282.5872,29.4
282.6013,167
282.7314,40.7
282.7826,30.4
282.8237,1552.8
282.9053,22.4
282.9308,438.3
282.9606,28.9
282.9757,138.9
283.0287,615.7
283.0487,28.7
283.0663,183.5
283.0744,475.9
283.3222,17.8
283.3934,61.3
283.4013,557.6
283.4241,35.9
283.4576,373.6
283.5105,280.2
283.5521,136.2
283.6352,266.5
283.6746,43.3
283.7566,45.7
283.9501,419
283.9736,17.4
283.9967,30.5
284.005,62.8
284.0468,28
284.0523,65.5
284.0632,1970.3
284.1033,33.3
284.3739,28.6
284.4842,357.4
284.8029,39.6
284.9101,400
284.9483,33.2
284.9844,69.2
285.0199,45.3
285.0398,37.2
285.0667,29.4
285.2083,26.6
285.3241,224
285.4375,39.6
285.4732,186
285.4802,83.6
285.6103,31.9
285.6757,38.6
285.7291,33.4
285.7752,60.4
285.8403,419.8
285.8913,207.2
285.9204,20.1
285.9402,233
286.0201,95.1
286.0961,100
286.1117,65.3
286.1316,127
286.1774,59.3
286.1952,31.3
286.3335,29.4
286.3797,18
286.4221,39.4
286.4977,33.1
286.5499,33.6
286.7088,38.1
286.7184,87.3
286.7718,1265
286.8219,32.1
286.8677,34
286.9402,28.4
286.9521,684.2
286.9842,159.3
286.9905,78.4
286.9993,22.7
287.0492,82.4
287.0554,37426.4
287.1125,28
287.1548,34.2
287.1739,19.2
287.2864,21.5
287.361,32.3
287.4143,179.3
287.4227,51.9
287.4299,523.6
287.5152,28.1
287.6757,198.9
287.6965,75.5
287.7439,33.7
287.8012,29.2
287.8618,158.8
287.8714,44.9
288.0135,51
288.0589,2086.5
288.0849,520.3
288.1474,28.7
288.1561,840.2
288.2602,29.9
288.4808,50.2
288.6321,49.5
288.7688,2457.7
288.8058,558.3
288.8153,764.4
288.8217,1417.9
288.8274,1921.2
288.8348,704.2
288.8418,1283.6
288.855,2161
288.8594,2274.7
288.8639,8143.2
288.8679,5805.4
288.8719,5450
288.8766,4275.9
288.8797,4611.9
288.8894,7090
288.8985,8205.5
288.9031,8282.5
288.9068,8256.4
288.9137,8923.1
288.9202,6775.3
288.9273,7820.4
288.9384,4823.6
288.9425,4968.2
288.9526,1248.9
288.9598,814.6
288.9659,231.7
288.9705,156.3
289.0617,1746.1
289.1669,70
289.3036,75
289.3282,83.1
289.3926,29.9
289.4324,88.3
289.4437,67.9
289.4604,34.4
289.5711,132.4
289.7358,26.2
289.7667,34.9
289.8725,122.5
289.8819,61.3
289.9427,26.3
290.0473,44.7
290.0722,31.5
290.2104,537.6
290.3981,403.9
290.5777,337.7
290.5823,18.4
290.6162,494.3
290.6538,256.5
290.7664,934.6
290.843,37.6
291.349,33.4
291.3858,24.8
291.4762,557.4
291.5413,1507.5
291.5481,354.4
291.5503,369.8
291.5886,26.9
291.6016,129.5
291.6911,27.7
291.7588,60.8
291.7637,40.4
291.7859,93.3
291.8801,491.5
292.0701,312.2
292.0796,25.6
292.0992,22.1
292.1704,27.9
292.191,39.7
292.2672,212.2
292.4463,845
292.4744,28.7
292.5573,32.9
292.7795,529.6
292.8801,373.1
292.8969,486.3
293.0056,199
293.0255,169.5
293.0655,32.1
293.0724,209.5
293.0795,99.3
293.0843,44.5
293.0983,1134763.8
293.1154,67.1
293.1194,73.2
293.1714,383.5
293.3079,187.1
293.3169,325
293.5829,25.7
293.6737,49.6
293.7087,445.2
293.7516,26.7
293.7901,290.7
293.8058,31.8
293.8886,67
294.0606,685
294.0867,533
294.0954,4823.6
294.1017,107959.2
294.1859,57.7
294.5707,30.2
294.5752,31
294.6505,30.2
294.9908,1312.9
295.0307,207.7
295.08,57.6
295.1023,11593.5
295.121,25.8
295.1665,577.8
295.1765,74.1
295.1947,612.7
295.2183,155.6
295.2922,31.3
295.4711,181.3
295.4838,450.8
295.5038,84.5
295.5522,159.8
295.6353,226.6
295.6715,46.7
295.8168,64.3
296.106,276.4
296.1619,47.1
296.2034,28.4
296.291,482.4
296.3728,35.3
296.3776,32.8
296.3793,35.4
296.382,31.1
296.4377,43.9
296.5237,46
296.6489,38.2
296.6581,360.1
296.752,60.7
296.7954,52.7
296.8271,68.8
296.9256,101.8
296.9421,59.8
296.9877,413.2
296.9981,157
297.1064,94.4
297.1356,55.5
297.1676,33.4
297.3605,31.4
297.3802,67.2
297.4333,165.5
297.4711,35.2
297.5541,32.9
297.6405,424.9
298.0172,459.7
298.0424,93960.8
298.0537,58.7
298.1408,66.4
298.1769,31.2
298.4662,90.9
298.5301,17.1
298.6145,29.8
298.7929,43.3
298.9333,472.6
298.987,28.4
299.0327,99.7
299.0458,8479.7
299.1394,3434.7
299.2361,178.9
299.4896,36
300.0182,47.9
300.0251,38.9
300.0383,2634.8
300.046,52.7
300.0755,3273.5
300.1194,33.1
300.1425,72.7
300.1829,43.9
300.1962,301.8
300.239,27.8
300.4572,58.3
300.4644,234.1
300.5341,665
300.5648,97.5
300.6229,253.6
300.6411,331.6
300.8212,32.3
300.8371,50.1
300.9155,49.6
301.0388,1138.4
301.0761,161.2
301.0913,28.9
301.1012,194
301.1414,1634.1
301.1842,730.9
301.2492,29.8
301.4508,52.3
301.5523,281.3
301.5684,26.4
301.7058,153.7
301.72,64.4
301.9266,260.9
301.9705,307.1
301.9769,57.3
301.9821,32.6
302.0121,412.7
302.0201,6268.7
302.0354,874.7
302.0642,14119.7
302.073,147.8
302.1992,126.9
302.225,559
302.3076,132.4
302.3538,21.6
302.404,116.5
302.4179,31.4
302.442,58
302.6622,203
302.6727,37.5
302.734,148.8
302.8412,41.5
302.8969,33.5
302.9764,160.1
303.023,252.8
303.0275,60.3
303.0676,1384.2
303.0772,3350.8
303.2167,55.2
303.3653,502.2
303.4358,54.3
303.4673,31.1
303.524,149.1
303.6562,29.9
303.6679,45.9
303.7368,196.8
303.8365,611.3
303.91,400.7
304.0412,27.5
304.0598,439.6
304.0726,39.4
304.1857,21
304.2182,17.8
304.3591,33.2
304.4153,31.7
304.6587,27.4
304.7306,32
304.7757,116.1
304.8596,31
305.0274,42.3
305.1278,35.8
305.1721,32.1
305.2331,44.8
305.3009,43.9
305.3607,60.3
305.4012,153.4
305.4137,30.9
305.6716,40.4
305.6909,47.7
305.7432,59.4
305.7814,176.3
305.8418,35.5
305.9997,33.4
306.0519,280.8
306.0821,730.4
306.0956,490
306.1916,35.4
306.2027,184.6
306.2128,30.4
306.225,154.5
306.2389,101.8
306.2597,29.8
306.3919,459.9
306.3982,41.8
306.5367,29
306.6809,52.2
306.9223,312.8
307.1141,45
307.2983,208.8
307.4847,51.1
307.5547,31
307.5672,28.4
307.5719,488.4
307.9206,42.7
308.0432,35.3
308.3871,31.8
308.3989,181.7
308.4447,151.4
308.4492,41.9
308.4854,40.6
308.5285,34.3
308.7087,26.5
308.7498,69
308.8066,71
308.8976,64.5
309.0066,545.5
309.0609,112.9
309.3437,52.5
309.5332,193.2
309.558,126.9
310.2247,31.8
310.2538,422.2
310.2766,37.2
310.3065,28.8
310.4437,34.6
310.5036,501.3
310.564,55.2
310.7259,128.8
310.7996,137.3
310.8755,1194.4
310.9112,39.8
311.0033,106.9
311.0179,28.7
311.139,38.3
311.1576,28.2
311.2604,194.3
311.2954,25.7
311.3557,128.2
311.385,109.4
311.4442,40.2
311.5727,26
311.6972,36.6
311.7568,121.7
312.0351,20.6
312.1259,479.4
312.1388,40
312.1528,219.9
312.3385,28.4
312.4476,32
312.6974,76.1
312.706,35.1
312.765,32.2
312.7759,84.1
312.8818,779
312.9743,38.5
313.0024,35.7
313.0178,30
313.0308,151.2
313.1521,29.9
313.2591,38.4
313.2742,666.6
313.382,41.6
313.5013,30.8
313.5323,72.2
313.5612,30.4
313.5633,32
313.7323,41.8
313.7419,66.5
313.8668,29.7
313.9339,365.4
313.9927,29.3
314.0147,305.7
314.0253,28.7
314.07,32.7
314.0747,388.4
314.081,125.5
314.0912,5946.8
314.1764,36.4
314.2215,34.4
314.2974,162.7
314.3234,69.1
314.3344,29.7
314.4465,303.2
314.5766,35.3
314.8317,29.3
314.8369,1669.8
314.98,485.9
314.999,2105
315.0489,258.8
315.0553,1672
315.0683,48284.1
315.0802,4474519
315.0877,13128
315.0965,2368.6
315.1044,1119.8
315.1107,488
315.1453,33.9
315.1612,2252.9
315.2609,233.8
315.2877,80.9
315.2891,77.1
315.3238,3138.7
315.3384,30.6
315.4085,45.4
315.4769,31
315.4856,240.2
315.5864,56.6
315.6115,44.5
315.6989,43.4
315.7291,54
315.7854,43.5
315.8721,29.6
315.9156,44.1
316.028,584.4
316.053,288
316.0681,4356.2
316.0721,3128.2
316.0773,21262.6
316.0836,450880.7
316.1575,29.1
316.1776,42.6
316.3008,17.7
316.4445,71.1
316.4941,29.8
316.5082,56.1
316.6316,655
316.7191,35.4
316.7538,82.1
316.8854,55
316.9253,68.6
316.9752,448.1
317.0112,27.2
317.0564,69191.9
317.0653,5361
317.0716,222.6
317.0841,50679.6
317.1214,44
317.2601,30.8
317.5099,32.1
317.6048,155.8
317.9225,30.8
317.9795,26.6
317.986,680
318.0462,270.9
318.0535,85.9
318.0597,6297.2
318.0691,134.8
318.0877,4527.5
318.1296,129.8
318.3366,670.7
318.3604,35.9
318.4968,107.6
318.6173,588.8
318.761,138.4
318.878,35.5
318.9785,17.7
319.0608,119.6
319.0908,21.8
319.1831,35.1
319.1947,8884.2
319.2628,33.4
319.3287,29.8
319.3933,644.9
319.4281,89.2
319.5039,48.1
319.6094,50.2
319.6747,37.1
319.6819,32.2
319.6955,43.3
319.7802,555.5
319.7975,136.2
319.9168,51.3
320.0747,206.9
320.1124,688.4
320.1404,183.6
320.1986,727.6
320.2588,5014.9
320.3021,112.9
320.3643,177.1
320.3843,302
320.6915,326.8
320.7026,28.6
320.872,30.3
320.8871,30
320.9133,630.7
321.0372,40.7
321.2104,7559
321.2624,408.1
321.2884,34.4
321.3271,483.1
321.422,127.3
321.426,23.7
321.4414,260.2
321.4809,23.2
321.6685,89.1
321.7943,34.2
321.9378,18
321.9466,31.4
321.9639,63.6
322.009,232.1
322.0482,90.3
322.1971,661.1
322.2143,29.5
322.3411,21.5
322.5229,19.7
322.6511,132.2
322.7727,143.8
322.8117,553.9
322.9316,838.6
323.0445,61.2
323.0565,84.6
323.2261,197.9
323.8115,186.6
323.9873,40.8
324.002,3855.3
324.0089,161.1
324.0295,32.6
324.1899,51.5
324.2549,40.1
324.3122,35.1
324.3947,200
324.4742,28.7
324.5448,50.8
324.5586,25.9
324.5909,2901.2
324.6901,499.2
324.7021,51.2
324.8085,518.8
324.9163,31.1
324.973,74.8
325.0056,59.6
325.1125,33.8
325.1571,21.8
325.1681,38.7
325.2244,33.1
325.3358,30.9
325.4184,33.2
325.5343,347.2
325.6784,62.1
325.7535,200.1
325.9265,28.8
325.9808,90
325.9864,39
326.0055,98
326.1796,26.5
326.2281,362.9
326.5808,28.1
326.8496,515.4
326.8946,584.7
326.9454,30.6
327.1234,40
327.1428,553
327.1712,35.5
327.2279,1150.3
327.4028,56
327.645,20.7
327.8086,26.7
327.8426,18.7
327.9412,55.9
328.0532,99.7
328.1847,333.6
328.3507,59.4
328.4056,82.9
328.4119,61.7
328.4274,205.5
328.4358,624.1
328.4544,28
328.624,33.2
328.6426,101.7
328.708,30.6
328.7521,58.7
328.7959,402
328.8073,27
328.9028,62.3
328.9646,31.3
329.0961,631
329.1792,86.1
329.25,52.3
329.2928,34.7
329.3048,36.1
329.3651,66.2
329.4501,32.4
329.4736,26
329.5399,61.4
329.5737,122.3
329.6025,202.2
329.677,248.6
329.9006,104.6
329.9744,416.4
330.0016,28.3
330.0156,297.9
330.0592,6590.8
330.0688,1607.6
330.2049,33.9
330.3214,27.4
330.3274,44
330.4672,31.9
330.5565,85.5
330.7549,687.2
330.8127,49.3
331.0454,277947.5
331.0541,534998.7
331.0714,86.8
331.1021,33.7
331.1898,502.5
331.2243,34.7
331.2721,265.7
331.2827,19.5
331.303,133.6
331.5471,427.2
331.6576,37.2
331.7005,19.5
331.7869,392.5
331.8043,453.2
331.9342,60.5
331.9978,392
332.012,30.9
332.0485,23068.2
332.0575,48587
332.1354,90.1
332.4001,38.1
332.4993,47.3
332.5233,39.1
332.6777,34
332.7679,29.6
332.8324,68.1
332.9841,31.7
333.0299,202.1
333.0418,670.1
333.0524,28876.1
333.058,5110.4
333.0965,210.7
333.2384,55.7
333.3127,29.6
333.3296,123.6
333.3739,162.1
333.4302,131
333.4707,41.4
333.4759,35.3
333.6126,621.6
334.0413,94.6
334.0556,2268.8
334.0904,620.5
334.2258,35.9
334.5363,28.3
334.5445,24.5
334.6657,52
334.8077,52.9
334.8373,611.3
334.8554,435.7
334.9564,655.2
335.0384,2801.1
335.0478,128.6
335.2976,133.1
335.5901,39.1
335.6897,352
335.7413,34.4
335.868,76.5
335.8835,46.2
336.0293,185
336.152,487.5
336.3228,31.8
336.4466,479.9
336.4868,30.2
336.5029,28.2
336.537,46.6
336.6127,53
336.6517,39.5
336.7578,30.3
336.7696,36.6
336.9139,31.4
336.9399,64.5
336.9473,37.4
337.0498,16145.2
337.0622,460938.9
337.2431,567.2
337.3869,19.4
337.5473,34.4
337.7999,29.8
338.0494,276.1
338.0655,44208.6
338.1746,43.3
338.2222,59.8
338.2941,142.2
338.3421,2492.9
338.3734,18.1
338.4151,67.2
338.4308,31.9
338.4477,28.1
338.6076,30.6
338.7587,111.6
338.9204,514.8
338.9666,43.6
339.0384,12394.9
339.0469,535.6
339.0559,128.2
339.066,3946.5
339.2389,64.8
339.2516,215.4
339.2904,145.5
339.3456,37
339.3635,22.4
339.4177,211.9
339.5341,29.2
339.5978,48.9
339.6046,180
339.7593,29.5
339.7683,175
339.9481,20.5
339.9886,180.2
340.0417,438
340.0793,46.6
340.1018,127.1
340.1974,215
340.2704,177.1
340.347,28.8
340.6684,49.8
340.7826,476.9
340.8676,62.2
341.0552,577.6
341.1801,88
341.205,32.7
341.2773,73.5
341.3205,46.2
341.43,31.7
341.5788,20.6
341.804,31.3
341.8852,56.4
341.9838,56.9
341.9986,31.3
342.0153,1049.5
342.0299,464.2
342.0689,243.4
342.1806,39.3
342.2268,512.1
342.2952,31.6
342.3297,319.4
342.5642,43.9
342.6156,62.6
342.7871,56.5
343.0168,31
343.0252,272.5
343.0298,201.3
343.0484,30.5
343.0711,242.1
343.1179,105.3
343.1948,1688.6
343.3099,19.8
343.4091,358.3
343.7074,161.4
343.7826,129.3
344.0149,375.2
344.0747,34.1
344.2323,116.8
344.2498,61.1
344.319,35.9
344.4434,56.1
344.5677,55.2
344.6508,28.8
344.6832,36.1
344.7233,35.4
344.901,38.2
344.9664,18.9
345.0219,29.1
345.1963,27.6
345.2105,81.5
345.8151,593.4
345.8745,477.4
345.9719,42.3
345.9788,331.6
345.9846,44.1
346.0099,10140.2
346.021,788.1
346.0405,21.3
346.0685,36.3
346.2963,628.4
346.3545,54.7
346.5048,46.8
346.8741,133.4
347.0176,1776.3
347.127,40.2
347.1665,37.7
347.2538,105.6
347.3736,204.1
347.3973,21.4
347.4236,74.9
347.5428,31.7
347.5961,48.4
347.6383,65.9
347.7503,60.1
347.9226,178.4
347.9606,28.8
347.9748,206.3
348.0129,73
348.5744,19.9
348.6606,32.8
348.8151,563.8
348.9018,33
348.9217,95.6
349.0182,2082.8
349.0576,547.6
349.0719,36.3
349.1646,19.3
349.1761,60
349.2044,39.4
349.3304,71.2
349.5185,210.3
349.73,65.9
349.7557,32.1
349.8015,155.7
349.8687,35
350.0186,867.2
350.0723,36.3
350.2265,118.5
350.2651,46
350.287,655.6
350.5207,65.4
350.5694,39.8
350.6651,20.1
350.788,173.3
350.8114,572.1
350.8197,35.3
351.0137,359.9
351.0216,32.3
351.1357,189.7
351.1928,51.5
351.2516,58.4
351.2834,228.9
351.4366,29.2
351.6768,331.5
351.6932,59.2
351.7026,116.9
351.7165,47.4
351.8576,37
351.8906,22.2
351.9375,603.1
351.9959,31.9
352.2867,70.4
352.369,38
352.399,47.9
352.4902,64.9
352.5306,38.8
352.6951,26.2
352.8145,34.1
353.014,41.4
353.0273,95969.5
353.0361,140456.4
353.0835,36.6
353.3038,60.1
353.3988,135.2
353.431,21.6
353.4765,30.8
353.4999,30.8
353.6945,27.8
353.9067,27.5
353.9156,279.9
354.0131,545
354.0306,7558.3
354.0395,13226.6
354.079,588.6
354.7921,50.8
354.8949,489.1
355.012,30194.6
355.0345,7338.1
355.0704,1173.2
355.1711,79.4
355.2491,68.2
355.2806,34.5
355.4018,35.5
355.4924,35.7
355.5836,519.6
355.6123,30.2
355.702,565.9
355.8468,31.1
355.9616,126.2
356.0052,30.3
356.0154,2683.2
356.0839,28.6
356.1624,127.5
356.3731,31.4
356.4838,30.1
356.5406,728.4
356.7555,519
356.8439,30.1
357.0089,15848.2
357.1823,120.3
357.4592,64.2
357.5665,30.2
357.5951,56.7
357.6205,95.3
357.6665,467.3
357.7401,37.5
357.883,41.4
357.9461,21
357.9782,42.8
358.0091,1079.3
358.1175,29
358.3738,29.3
358.3814,53.4
358.4823,29.6
358.6067,362.3
358.6426,124.8
358.8671,37.2
358.9148,32.9
358.942,366.6
359.0076,10701.7
359.0316,7798.9
359.0442,207541.1
359.0684,77.1
359.1773,77.1
359.2638,29
359.2772,39.6
359.3194,139.1
359.3722,52.1
359.4505,109.6
359.4604,103.4
359.5439,95.8
359.5561,38.7
359.5706,35.5
359.5802,312.5
359.6002,707.3
359.6133,38.3
359.6294,116.7
359.6367,31.8
359.6435,42
359.6535,405
359.6653,80.3
359.6818,97.7
359.7193,32.9
359.727,30.2
359.9628,60.5
359.9887,559.1
360.0044,249.4
360.0109,706.9
360.0475,18859.9
360.0677,95.2
360.143,286.3
360.3238,363.5
360.4784,429.8
360.7963,33.3
360.9326,27.1
361.0054,25.9
361.0204,3957.8
361.0275,28.5
361.0491,541.2
361.1659,40.1
361.3285,23.1
361.3888,30.7
361.556,21.6
361.5789,52.9
361.6495,113.6
361.8289,783.5
362.0017,48
362.0382,61.6
362.2349,52
362.3206,593.1
362.6301,43.6
363.1059,41.1
363.1146,33.8
363.1452,199.5
363.1697,255.8
363.2898,48.6
363.2951,30.6
363.3029,42
363.3404,36
363.3515,30
363.3852,45.6
363.4695,63.2
363.4894,72.4
363.5082,227.4
363.5757,77
363.696,35.2
363.8084,36.8
364.0225,540.9
364.1409,37
364.5012,100.9
364.6128,70.1
364.7596,30.3
364.7719,37.8
364.8299,23.8
364.8768,29.5
364.979,51.8
365.1511,38.9
365.2484,521.9
365.2539,30.6
365.2828,50
365.3204,35.7
365.4297,64.7
365.451,421.9
365.4782,27.6
365.5133,41.8
365.5273,56.4
365.5506,49.4
365.652,33.3
365.696,503.2
365.9098,32.4
365.9963,130.2
366.0623,224.9
366.4617,65.4
366.5083,39.8
366.5929,91.9
366.607,25.5
366.6175,32.3
366.6602,29.3
366.7557,19.1
366.8224,46.5
367.1205,571.4
367.1949,1634.8
367.5599,35.9
367.816,68.2
367.9309,127.1
367.992,4529
368.0776,529.8
368.1872,119.5
368.2628,677.3
368.3807,18.9
368.4792,614.7
368.709,40.2
368.767,480.8
368.8218,31.2
368.8687,42.8
368.9619,270.6
369.0012,14476.9
369.0101,5669.9
369.061,346.1
369.1951,59.9
369.2113,62.1
369.2793,30.3
369.3522,6078
369.4282,73.1
369.9783,29.5
370.0039,142.2
370.0759,79.4
370.1146,27.6
370.1477,40.7
370.3554,485
370.6996,53.6
370.7406,451.6
370.769,32.4
370.8733,19.2
370.8993,61.2
370.9223,26.4
370.9987,181.9
371.0183,36
371.0942,19.7
371.1139,46.2
371.1869,107.2
371.3238,148.1
371.3962,29.9
371.9552,33.7
372.1027,31
372.175,182.2
372.3324,30.8
372.5047,86.5
372.6069,40.7
372.992,34
373.0159,34.1
373.2723,151.7
373.6775,709
373.7888,51.2
373.9351,32.2
374.0118,95.7
374.364,30.2
374.4103,103.9
374.5319,108.5
374.5665,220.9
374.6928,188.9
374.7339,485.1
374.7597,42.3
374.7676,27.6
375.0092,52426.6
375.018,79761.1
375.3817,218.4
375.3963,125.1
375.6736,31.2
376.0124,4982.7
376.0212,6608.3
376.052,506.8
376.0672,42.8
376.2201,177.7
376.2378,487.3
376.4098,279.5
376.4234,345.5
376.4304,412.1
376.642,232.7
376.7127,63.9
376.8757,87
376.9476,445
376.9941,5047.1
377.0161,2766.9
377.0336,38.4
377.2088,158.5
377.2537,35.8
377.3996,33
377.4412,341.2
377.5695,266.8
377.6626,98.4
377.7839,46.8
377.8348,454
377.8498,530.4
377.997,100.2
378.335,401.8
378.4498,156.1
378.4683,69.2
378.4934,87.2
378.5417,129.6
378.5942,30.8
378.991,1267.8
379.1048,44
379.1128,34.4
379.2689,66
379.2965,601.4
379.3115,32.5
379.3377,45.8
379.5133,37.2
379.5762,33.8
379.6169,30.8
379.749,353.6
380.0383,29.5
380.1613,54.2
380.1898,28.9
380.3121,38.4
380.3299,130.3
380.3717,250.4
380.5102,32.9
380.6083,44.4
380.7708,1210.7
380.9338,47.4
380.9895,839.2
381.0132,6503.8
381.0261,92841.9
381.0461,33
381.2181,98.5
381.2629,170.7
381.2825,150.8
381.3674,49.5
381.4845,196.5
381.5468,32.5
381.6302,62
381.7508,30.4
381.7972,37.2
381.824,274.5
381.912,98.7
381.9415,466.9
382.0295,10309.2
382.2796,114.7
382.3228,33.9
382.4237,40.3
382.5508,33.3
382.5904,73.8
382.6202,31
382.7127,20
382.7435,107.8
382.767,901.3
382.8191,30.2
382.8321,35
382.893,98.8
382.9633,98.6
383.1164,67417.4
383.5285,398.1
383.5401,31
383.7186,26.3
383.9658,203.6
383.992,112.3
384.0348,129.2
384.1198,6633.6
384.2986,66.2
384.4056,98.6
384.5198,36.6
384.5449,497.9
384.5627,197.8
384.6229,292.9
384.6897,50.8
384.9735,28.7
385.0662,28.8
385.119,438.9
385.219,67.4
385.2441,30.6
385.275,57
385.5234,149.9
385.5848,37.3
385.8474,135.4
385.8562,49.2
385.9726,388.7
385.9885,96.1
386.3183,483.2
386.6348,95
386.9768,26.6
387.182,49.5
387.3973,81.9
387.4328,26.6
387.5274,33.9
387.7288,39.7
387.8709,239.5
388.0064,34
388.0517,187.4
388.0627,35.7
388.1812,77.1
388.2215,47.9
388.3246,42.5
388.3301,30
388.6857,72.6
388.6968,501.2
388.7678,54.1
388.9788,240.9
388.9951,26.4
389.0188,18.9
389.1244,228.2
389.3975,29.1
389.6102,36.4
389.7029,23.5
389.83,52.2
389.9739,1519.8
389.9941,608.9
390.3805,27.5
390.8275,186.4
390.8428,125.3
390.8468,144.4
390.8667,276.5
390.983,13683.9
390.9919,12311.7
391.025,303.3
391.0786,32.1
391.1563,576.4
391.2493,38.2
391.493,125.8
391.8887,33.2
391.9062,661.1
391.9504,30.3
392.0175,300
392.2751,31.5
392.3008,43.1
392.4505,23.3
392.6635,730
392.7959,1860.3
392.911,35.5
392.9191,31.6
392.9585,126.8
392.9676,157.6
392.9898,748.3
393.0503,29.1
393.1979,225.2
393.2481,36.4
393.2981,89.5
393.3704,27.2
393.4401,96.4
393.7372,185.5
393.8794,33
393.9178,28.1
394.0701,38.8
394.3192,47.1
394.3641,32.1
394.4002,44.3
394.4698,44
394.6335,28.1
394.9059,629.6
395.5604,216.5
395.6283,27.3
395.6603,475.5
395.6759,124.9
395.8575,25.9
396.1809,116.6
396.2568,129
396.3044,128
396.4164,187.2
396.4681,65.6
396.5081,44.4
396.7436,1223.1
396.9094,630.4
396.9912,33492.1
397,46174
397.0245,37.8
397.1191,61
397.3157,174.5
397.3654,28.2
397.4555,143.9
397.9958,635.5
398.0035,2183.7
398.0986,73.1
398.2417,4486
398.2944,32.7
398.4005,22.1
398.6928,287
398.7256,72.5
398.7412,1494.8
398.7623,84.2
398.8183,148.6
398.8562,116.6
398.9072,39.4
398.9754,238.8
398.9993,1089.4
399.0202,1161.7
399.1183,135
399.2264,30.6
399.2458,1502.7
399.3067,30.4
399.3239,39.3
399.5261,36.6
399.5522,126.8
399.5684,64.8
399.6804,19.2
399.77,93.1
399.9095,25.4
399.9445,380.8
400.1604,25.8
400.3392,32.4
400.6979,29.1
400.738,1564.7
400.8272,628.8
400.9131,231.3
400.9215,38.3
400.9567,35.5
400.9714,85
401.0117,76.9
401.0545,32
401.6152,287.4
401.7612,562.4
401.8036,47.3
401.8756,32.1
401.9501,45.1
402.1222,177.9
402.2277,142.2
402.2506,57.6
402.2663,28.9
402.5319,20.7
402.7375,176.9
402.7698,650
402.8323,534.6
402.9724,86.5
403.008,38415.2
403.098,162.2
403.115,27.3
403.1384,38.6
403.193,36.1
403.227,42.1
403.3412,338.4
403.5574,494.4
403.5913,712.2
403.9048,90.2
403.9212,517.2
403.9299,33.8
403.983,19
404.0119,1777.7
404.2539,44.7
404.2988,610.6
404.3178,128.9
404.3556,117.6
404.4543,20.4
404.9092,44
405.0105,512.3
405.0301,334.1
405.0401,54.3
405.1138,38.9
405.1763,34.2
405.2894,72.2
405.336,22.9
405.3428,198.3
405.3493,39.6
405.4541,317.2
405.5132,126.4
405.8319,84.5
405.8508,30.9
405.9479,31.6
405.9941,45.3
406.2177,43.8
406.2815,259.1
406.3297,4483.2
406.4264,33
406.4691,45.8
406.5835,54.2
406.6107,29.5
406.6137,30.1
406.7728,1624.1
406.9503,54.7
406.9581,297.2
407.333,515.4
407.5413,62.5
407.5609,179.4
408.0848,27.5
408.1131,169
408.226,241.4
408.3349,43.2
408.3475,217.6
408.3492,217.4
408.3601,29.9
408.4708,75.4
408.544,625.7
408.5613,33
408.7698,1704.7
408.7841,554.9
408.8848,65.3
409.0247,509.1
409.0562,161
409.0841,71.9
409.2941,209.9
409.401,200.7
409.7583,41
409.7804,31.5
409.883,33.3
409.9229,387.7
409.959,185.7
410.0733,25.2
410.0907,26.3
410.1156,19.1
410.2869,28.5
410.7207,423.9
410.7674,542.6
410.7975,19.6
410.9665,149.9
410.9867,477.7
411.0816,34.6
411.3558,56.7
411.5276,198
411.5987,30.2
411.7694,57.2
411.821,428.1
411.9598,466.9
412.2729,390.1
412.3214,10676.9
412.4989,707.1
412.7779,558.4
412.8948,19
412.965,11502.8
412.974,10527.2
412.9897,30.1
413.0268,234.8
413.1086,43.9
413.2164,733.8
413.2323,57.5
413.2667,15098.8
413.325,2364.3
413.3503,49.2
413.4752,48.8
413.5069,33.7
413.6143,265.6
413.6251,34.6
413.6704,51.2
413.7037,34.5
413.7892,36.4
413.8241,479
414.0875,528
414.2462,33
414.2699,1852.5
414.3015,152.1
414.41,40.3
414.7145,502.7
414.9614,35.1
414.9975,4365.3
415.0383,48.8
415.0767,85.3
415.095,53.6
415.3029,56.6
415.3617,31.6
415.5308,72.5
415.5947,35.8
415.6762,29.7
415.737,463.9
415.7756,80.9
415.8025,502.4
415.8256,194.3
416.0012,331
416.1354,5371.1
416.1938,48.8
416.2147,129.7
416.316,528.1
416.6491,72.5
416.8022,615.4
416.9469,31.3
417.0027,14013
417.0236,183.4
417.1534,195.6
417.2089,42.4
417.2156,22
417.2444,20.7
417.3183,32.5
417.4314,25.6
417.5359,485.7
417.6484,217.5
417.7953,19.9
417.869,28.4
418.0381,42.4
418.3244,30.3
418.3662,474.6
418.391,26.4
418.4309,97.4
418.7999,509.6
418.8173,238.3
418.9819,21498.5
418.9998,2198.2
419.0204,34.5
419.0452,34.3
419.4253,422.3
419.4577,168
419.6366,413.2
419.9363,40.9
420.0465,259.3
420.4745,30.2
420.9786,787.8
421.0918,49.9
421.4658,68.8
421.5458,66.3
421.6239,20.9
421.7416,46.7
422.0293,21.7
422.3056,30.2
422.4939,33.2
422.6107,30.2
422.7468,1258.7
422.9616,42.2
423.2533,654.6
423.2677,41.5
423.3349,44.2
423.5491,30.6
423.6248,43.4
423.6657,19.8
423.768,43.7
423.9655,29.5
424.4228,235.7
424.6814,20.9
424.7794,278.4
424.8179,161.7
425.0292,35.7
425.0427,29.2
425.1506,106.7
425.1623,771.3
425.2114,685.9
425.2753,32
425.2801,46.3
425.3124,84.8
425.4437,23.5
425.5014,46.5
425.7514,166.8
425.8208,56
426.0591,59.2
426.0743,107.3
426.0831,47.6
426.173,164.9
426.1949,111.4
426.2585,41.8
426.4145,37.7
426.4317,27.2
426.5575,32.8
426.9196,64.3
427.4275,572.3
427.5555,60.2
427.7037,187.1
427.7813,59
427.8205,31.7
428.4417,30.2
428.4657,236.6
428.7183,32
428.8892,31.6
428.9223,162.1
428.9294,34.1
428.9396,576.6
428.9459,117.4
428.9603,111.5
429.0129,422.6
429.0221,727.8
429.0894,1291.6
429.1052,47.1
429.241,30.1
429.2613,796.4
429.3262,647.2
429.5707,29.5
430.0206,143.2
430.05,332
430.0589,38.9
430.0879,26.3
430.1429,598.2
431.1065,135.2
431.1469,28.5
431.4025,42
431.416,41
431.4748,93.3
431.7407,109.8
431.7683,110.3
431.906,21.7
432.1028,42.9
432.2251,773.3
432.252,67.2
432.3113,878.4
432.349,41.3
432.512,21.3
432.5266,27.4
432.5619,32.1
432.6491,30.4
432.7559,74.1
432.8036,30.1
432.9552,48.1
432.9677,3787.1
432.9767,5909.9
433.0158,85.4
433.0772,53.7
433.3806,86.4
433.3898,49.9
433.755,47.1
433.9705,434.8
434.0526,30.5
434.2207,20
434.2258,39.6
434.2282,40.1
434.2455,209.3
434.4796,92.2
434.4964,38.3
434.5615,33
434.6237,246.6
434.656,38.4
434.8421,58.8
434.9018,115
434.956,3927.5
434.9737,1234
435.0393,132.8
435.0592,47.6
435.0851,35.1
435.2407,42.1
435.3682,32.8
435.3834,33.1
435.4128,29.2
435.5499,30.7
435.7729,30.9
435.8267,27.9
435.9672,616.8
435.9781,42
436.3387,417.8
436.4778,334
436.5104,45.5
436.7769,68.7
436.8127,33.7
436.8777,37.9
436.9331,22.8
436.9791,1283.3
437.0865,54.9
437.2368,30.1
437.3013,29.4
437.4631,77
437.7094,36.2
437.7729,31.8
437.8695,625.5
438.014,446.3
438.2986,156.6
438.3896,126.5
438.4359,217.4
438.6593,422.3
438.779,47.4
438.8682,30.7
438.9638,40.4
438.972,158
438.9847,25064.7
439.0244,62.3
439.0519,21.2
439.1218,24
439.2033,101.3
439.3305,33.9
439.6314,29.7
439.7948,539.6
439.8025,660
439.9863,778.6
440.1245,223.9
440.2075,126.6
440.2948,67.9
440.5374,29.7
440.5779,256
440.7225,70.3
440.7333,44.7
440.7662,42.4
440.9692,144.5
440.9817,7245.3
441.2189,368.7
441.2978,480.1
441.3495,66.3
441.5521,259.2
441.7065,65
441.8026,75.8
441.9018,316
441.966,29.8
442.2076,36
442.5007,30.8
442.5177,75.1
442.5892,30.7
442.6788,33.4
442.9337,122.8
442.9429,555.9
442.9979,309.4
443.0234,387.5
443.2187,95.2
443.2963,54.9
443.3619,30.9
443.3706,39.8
443.7618,38
444.2901,150.9
445.1546,26.5
445.33,56.9
445.3814,33.6
445.4669,731
445.5495,29.6
445.6013,76.3
445.6551,30.2
446.2619,53
446.7853,34.4
446.8626,254
447.0781,35.4
447.1259,69.2
447.4496,31.5
447.5493,385.3
447.7029,36.7
447.8391,77.5
448.0292,38.1
448.6102,57.4
448.6675,517
448.7387,233.3
448.8082,89.3
449.1544,1090.8
449.2035,355
449.3249,53
449.6433,94.1
449.9614,47.9
450.0252,240.3
450.0774,27.3
450.1577,184.9
450.1892,418.2
450.2704,20.1
450.3221,616.9
450.5856,279.7
450.6736,94.4
450.7542,544
450.9506,71.8
450.9542,69
451.15,64.6
451.1676,835
451.5003,40.4
451.5175,24.4
451.6559,29.2
451.7542,387.2
451.8812,129.7
451.9896,250.8
452.1024,162.4
452.2489,33.2
452.2797,41.1
452.4649,31.2
452.7436,33.6
452.8486,318.7
452.9554,27.2
453.0959,268.1
453.2677,451.7
453.7664,49.5
454.1552,36.5
454.2566,501.2
454.5399,513.9
454.6888,36.4
454.7953,30.9
454.8292,37.3
454.8939,99.2
454.9502,10282
454.9585,16627.1
455.3002,39.2
455.3307,29.9
455.3593,29.2
455.4822,36.5
455.9613,607.8
456.0893,37.8
456.337,515
456.4066,74.2
456.4234,49
456.5613,20.4
456.659,41.3
456.712,37.2
456.837,197.8
456.947,1746.5
456.9562,2852.3
457.0206,402.1
457.0448,34.8
457.2323,556
457.3099,974
457.5599,39.4
457.6854,26.7
457.7342,667.4
457.8317,26.2
457.9462,29.4
458.3281,453.2
458.5413,32.4
458.6974,1103.4
458.83,64.3
458.8521,215.2
458.9618,716.7
459.0356,59.3
459.205,52
459.2486,40858.5
459.3663,40.6
459.7418,35.9
459.9478,235.3
459.9917,102.5
460.0432,43.5
460.1546,67.8
460.2517,5928.5
460.2861,235.9
460.324,35
460.7836,512
460.825,477.5
460.9666,20398.4
461.3213,29.1
461.756,451.9
461.9695,1410.5
462.5803,378.6
462.6112,46.7
462.6623,29.4
462.8109,99
462.9633,5269.3
463.1454,107.4
463.208,497.8
463.3728,127.4
463.7441,358.8
463.8803,48.3
464.5396,50.2
464.979,3731.1
465.2999,43.7
465.3305,37.1
465.3863,208.2
465.7629,164.7
465.8371,123.6
465.8767,32.1
465.914,273.6
465.9322,29
465.9629,535.3
466.0484,30.9
466.4091,19.3
466.8607,62.3
467.0928,392.2
467.1342,17.8
467.168,35.5
467.5515,652.7
467.7107,44.1
467.7482,21.7
467.8332,21.2
468.2707,423.5
468.3088,25.2
468.3628,28.7
468.7148,97
469.0527,157
469.3477,74.6
469.7283,221.1
469.8362,58.2
470.3311,134.6
470.5703,33.4
470.6557,65.8
470.8362,70.3
470.8931,28.7
470.924,6159
470.9324,2302.6
470.9444,132.7
470.9947,1255.9
471.0586,140.2
471.1311,20.2
471.5545,26.9
471.8653,260.6
471.891,97
472.5131,37.4
472.5492,38.5
472.5775,19.8
472.6036,22.9
472.7924,810.3
472.9098,907
472.9126,918.2
472.9205,1470.9
472.9437,20.8
473.115,20.7
473.1497,415.6
473.4509,38.2
473.67,29.3
473.7644,44
474.4478,37.2
474.4762,31.9
474.6305,42.8
474.6929,190.4
475.0205,44.4
475.2223,4070.6
475.2315,519.5
475.2876,486.1
475.6796,72.1
476.0019,28.6
476.0662,53.6
476.2393,37.9
476.4491,118.8
476.6574,69.1
476.757,539.8
476.9405,15098.8
476.9989,52.5
477.1062,37.9
477.1514,36.1
477.2271,41
477.4262,23.2
477.5066,32.4
477.6887,34.1
477.7973,140
477.8093,523.6
478.0553,34.3
478.1602,163
478.2095,33.8
478.3295,12004.1
478.6169,197.8
478.6783,28.2
478.7288,26.6
478.9374,4406.4
478.9607,24.7
479.0031,1053.9
479.0497,37.1
479.1948,269
479.3328,2370.4
479.9995,28
480.172,26.7
480.3448,638.1
480.9523,1059.7
481.0277,49.9
481.0919,84.1
481.1394,177.7
482.1857,29
482.2941,49.9
482.3217,26.1
482.4891,166.7
482.5284,378.7
483.0446,30.1
483.2485,8727.1
483.5734,58.9
484.1737,105.1
484.2513,1485.4
484.873,694.8
485.2312,21.3
485.2641,15997.9
485.3437,105.1
485.4344,111.6
485.586,28.9
485.6748,157.4
485.6993,30.8
485.7375,29.2
485.9093,567.7
486.1337,100.6
486.1796,22.7
486.2361,28.8
486.2672,2604.7
486.4254,435.9
486.4693,34.1
486.5355,36.5
486.6059,420
486.9699,74.5
487.0635,29.2
487.2797,8575.6
487.4748,46.3
487.493,239.6
487.6454,60.5
487.7875,220.4
487.9565,385.3
487.9846,558.8
488.2831,730.3
488.3206,52.3
488.4066,49.9
488.6002,32.7
488.7655,44.7
488.8908,28.1
489.0859,51.4
489.1004,75.8
489.3993,50.6
489.5096,29.4
489.5546,133.7
490.0637,195.3
490.152,49.3
490.441,32.5
490.5781,25.8
490.6727,68.8
490.7413,192.1
490.8995,755.3
490.9122,214.6
491.1619,37.8
491.9287,33.6
491.9745,19.9
492.0119,39.7
492.1698,166.7
492.2534,40.1
492.3219,30
492.3392,46.5
492.4739,91.6
492.8406,59.8
492.8989,237.3
492.9144,4472.8
492.9737,33.8
493.0496,670.8
493.5841,46.8
493.6863,79.5
494.2413,31.1
494.3026,67.8
494.3247,52.3
494.6427,197.4
494.7299,27.1
494.8399,283.2
494.8674,41
494.9121,1414.4
494.943,50.6
494.9649,65.9
494.9757,204.9
495.053,26.4
495.1103,30.5
495.1475,141.3
495.1944,129.7
495.3078,210.8
495.8687,113.8
496.0643,32
496.3401,126669.8
496.4447,138.7
496.6759,145.2
496.7716,21.5
496.8173,36.6
496.892,106.8
496.9428,5464.7
497.1287,30.8
497.2297,83.2
497.3434,30542
497.5501,89.2
497.7426,18.4
497.8207,500.3
498.2815,35.8
498.3468,2335.1
498.5019,134.9
498.5781,20.9
498.6792,93.9
498.8936,69.8
498.9407,2286.5
499.0029,120.8
499.0615,24.9
499.2224,562.5
499.2915,30.1
499.9527,229.5
500.3045,36.7
500.5493,32.9
500.6704,450.2
500.8045,43.6
500.887,24.6
500.985,642.5
501.049,34
501.0963,73.5
501.3908,32
501.4021,137.2
501.7625,45.4
502.0308,38
502.1371,41.1
502.2396,557.3
502.3295,2667.7
502.4194,217.2
502.9859,644.4
503.1072,504.2
503.2625,607.7
503.422,218.9
503.5219,26.3
503.5517,596.1
504.0779,30.7
504.0959,79
504.3205,20.3
504.3447,3222.9
504.4493,47.1
504.4946,33.2
504.664,19.5
504.9264,190.3
504.9815,64.5
505.3475,39.4
505.7741,34.2
505.7902,42.9
505.8657,42.3
505.8886,156
506.0125,30.2
506.1144,33.3
506.3608,3388.9
506.3899,63
506.5533,31
506.5637,140.4
506.9619,36.1
507.0473,48.9
507.1964,78.7
507.2494,767.9
507.2968,380.2
507.3642,177.7
507.4443,768.4
507.5192,42.2
507.8161,46.8
508.0451,267.8
508.278,438
508.3102,29.3
508.3776,27.8
508.6259,191.3
508.65,200.2
508.7124,734.8
508.8881,185
509.6244,95.6
509.8565,103.8
509.9812,38
510.0325,41.1
510.1368,206.3
510.3561,1814
510.714,30.1
510.9146,28.5
510.9369,37
511.0371,34
511.0503,19.7
511.1085,2089.6
511.125,780
511.4403,76.7
511.6011,62
511.6188,41.1
511.6835,771.9
511.8424,41.9
511.9416,50.9
512.505,102.6
512.6182,30.1
512.6602,415.8
512.7016,533.5
512.8869,30.6
512.9158,3260.8
512.9736,38.9
513.4916,37.4
513.8273,38.3
514.0739,115.6
514.0897,83.3
514.2964,46.5
514.7322,189.6
514.7516,27.8
514.9071,2203.7
515.0094,56.2
515.0377,91.4
515.1315,163.7
515.3045,95.7
515.541,24.9
515.7081,39.1
515.8103,30.9
515.8368,39.5
515.8962,48.8
515.9192,599.7
516.129,41.1
516.293,37.3
516.3063,3535.2
516.5648,62.7
516.6517,78.8
516.6938,35.2
516.7671,32.2
517.012,35.8
517.0439,80.3
517.0842,31.5
517.14,129.2
517.3182,54.1
517.5307,60.6
518.2732,32.3
518.3219,204367.4
518.3725,110.1
518.4525,20.4
518.9252,8554.3
519.1017,32.6
519.1261,28
519.151,105.9
519.2135,131.2
519.2801,31.7
519.3253,50315.8
519.8086,46.6
519.8735,32.8
519.9066,32.6
520.3284,3678.4
520.3398,27650.3
520.5807,88.9
520.8036,63
520.9224,4988.1
521.2393,38.5
521.2847,29.2
521.3432,3837.9
521.4617,30.6
521.5264,28.3
521.8868,48.1
522.1309,133.2
522.2554,64.2
522.2741,54.3
522.3044,385.7
522.3556,60430.9
522.9212,127.7
522.9375,2794.4
523.0499,104.5
523.3589,15786.2
523.9844,200
523.9964,50.2
524.0113,588.4
524.0262,160.9
524.1259,150
524.3713,47954.7
524.6169,39.1
524.6485,57.4
524.6677,32.9
524.951,66
525.0524,34
525.3746,9412
525.4547,50.1
525.5278,41.1
525.8155,32
526.2861,33.6
526.3529,123.6
526.4756,19
526.6369,156
526.8869,37.3
527.3333,32.1
527.3599,183.1
527.4395,30.7
527.5106,42.2
527.5165,20.8
527.6477,75
527.7672,21.3
528.0281,21.9
528.0358,20.9
528.0525,684.9
528.0709,32.1
528.3588,36.6
528.392,716.7
528.5937,37.1
528.6398,30.8
528.7418,58.2
528.8261,22.1
528.883,2626.9
528.9538,1828.3
529.0118,29.3
529.3182,49.4
529.3956,21.4
529.6346,146
529.8076,67.2
530.1178,391.1
530.1527,50.3
530.3216,421.7
530.3588,656.5
530.5427,601.1
530.8033,158.3
531.1536,23.2
531.2475,570.3
531.5692,32.6
531.6548,139.8
531.6756,29.9
531.7147,18.6
531.7472,27.9
531.9263,205.1
532.129,78.8
532.23,24.5
532.3381,1694.3
532.3916,344
532.4868,34
532.6372,229.2
532.8438,51.6
532.93,152.3
532.9659,1102.6
533.1222,88.9
533.2057,99.7
533.3012,57.4
533.4151,842.6
533.5654,19
533.7001,123.2
533.7778,67.5
533.888,53.3
533.9214,34
534.0163,477.9
534.1708,75.5
534.296,53792.9
534.6085,72.9
534.8991,7736.1
535.0063,446.5
535.1856,31.2
535.2993,13552.7
535.3365,118.1
535.3753,31
535.396,178
535.5083,520
535.6327,77.1
535.6398,69.8
535.6878,32.1
535.7682,30.4
536.1694,39.8
536.3005,2547.8
536.4156,33.8
536.8062,33.1
536.8961,4922.5
537.1249,45.5
537.7596,19.5
537.8276,396
537.8905,37.4
538.1466,33.7
538.3766,69
538.5522,99.2
538.7078,337.1
538.9109,1887.4
538.9998,50.1
539.0219,33.3
539.0437,64.1
539.1084,369.8
539.4851,208.6
539.7935,151.1
540.1055,218.5
540.115,30.3
540.3151,34.9
540.3204,51.2
540.369,165.9
540.4921,28.4
540.6626,559.1
540.7269,34.1
540.9288,429.2
540.9474,67.9
541.7086,32.6
541.8965,210.6
542.048,33
542.322,46011.5
542.6808,35.1
543.0309,254.2
543.1015,82.2
543.2078,91.1
543.3254,13056.8
543.3769,49.5
543.53,38
543.6006,503.6
543.9253,33.1
544.1278,3299.2
544.3376,90180.7
544.4715,96.4
544.6188,69.6
544.6321,122.7
544.9606,41.3
545.1306,119.4
545.1739,66
545.341,23928.4
545.3631,645.7
545.813,109
546.0931,38.4
546.3532,70383
546.4757,38.1
546.6669,31.4
546.8158,669.3
546.8545,1241.8
546.9224,45.1
546.9605,35.9
547.2431,30.3
547.3228,117.8
547.3565,16055.8
547.4154,103.6
547.4384,34.7
547.5555,39.8
547.6719,738.8
547.9014,68.2
547.9104,53.6
547.9498,90.6
548.3597,566.7
549.114,550.8
549.2261,521.4
549.6493,116.2
549.7877,496.9
549.8801,138.1
550.0296,71.5
550.3543,51.7
550.3615,107.5
550.3642,104.4
550.4206,65.7
550.4411,33
550.8735,2211.7
551.0195,624.6
551.3592,38
551.633,261.6
551.9564,475.5
551.9899,33.2
552.0146,456
552.2319,35.3
552.3579,30.5
552.4308,498.5
552.4866,36.2
552.8702,1307.9
552.9412,80.9
552.9698,34.5
553.1651,42.5
553.378,473
553.6644,299.3
553.6984,482.7
553.786,44.2
553.8527,38
554.0382,152.6
554.2315,42.4
554.4475,462.6
554.5233,35.6
554.5986,25
554.629,31.8
554.7307,479.3
554.861,25.8
554.9025,1818.1
555.0729,201.4
555.224,32.7
555.2846,189.2
555.2898,182.4
555.3781,827.9
556.0556,47.7
556.0844,129.5
556.1615,156.3
556.3552,530.6
557.1705,44.9
557.6425,32.9
557.907,30.4
557.984,50.4
558.0284,177.9
558.1735,32.8
558.2958,11440
558.8459,35
558.8957,540
558.9111,33.4
559.2281,123.9
559.2991,2558.3
559.4896,918.4
559.7114,202.4
559.8274,67.5
559.9656,54.2
560.0444,347.1
560.3116,25607.9
560.4412,48.9
560.5463,288.8
560.5797,138.1
560.9687,27.2
561.2456,69.2
561.3152,7150.9
561.3496,48.5
561.5093,54.1
561.905,247
562.3102,1073.2
562.3273,16137.1
562.4484,719.7
562.5042,38.2
562.6223,644.5
562.6468,38.3
563.3304,4493.6
563.6742,87.3
563.7046,22.6
563.8161,57
564.3062,2107
564.3275,503
564.3393,407.1
564.6857,244.3
564.9273,28.5
565.0089,31.6
565.019,319.7
565.1275,56.3
565.1888,33.8
565.3283,411.2
565.6704,42.6
565.8132,53.2
565.9008,360.1
565.92,240.6
566.241,225.6
566.3223,7892.5
566.3859,918.1
566.4659,121.1
566.6534,81
566.7207,19.5
566.7877,31.3
566.8178,34.3
566.8771,386.9
566.9337,73.6
567.2825,470.9
567.3249,1797.5
567.7854,239.9
568.2569,55.3
568.3391,1748.6
568.4528,91.8
568.4806,312.8
568.5272,353.6
568.5691,672.7
568.995,69.5
569.0344,107.4
569.5624,37.4
570.0326,25.9
570.8456,207.6
570.8699,1846.2
570.8748,1620.2
571.0791,573.3
571.0959,33.2
571.1299,68.9
571.5641,194.7
571.9868,580
572.0553,75.2
572.122,30.5
572.3026,183
572.4484,35.7
572.4662,27
572.8667,2647.6
572.9507,39.5
573.4943,70.1
573.5173,155.5
573.7322,132.8
573.7469,34.1
574.1194,62.8
574.174,40.2
574.3296,38.8
574.4422,27.5
574.6215,37.1
574.6629,32.2
574.7711,47.2
574.9839,33.6
575.0452,64.3
575.1237,663
575.3604,21.2
575.436,29.2
575.5036,60.4
576.0077,622
576.028,53.3
576.1835,31.3
576.2808,5170.1
576.3841,157.5
576.445,172.5
576.5628,62.1
576.7852,695.1
576.8838,4363.9
577.0428,17.5
577.283,890.3
577.4669,28.2
577.5718,126
578.2022,29.5
578.2965,77.6
578.3909,465.4
578.4773,31.2
578.6896,38.9
578.8809,3164.6
579.0236,311.2
579.1475,27.4
579.2033,286.3
579.35,72.8
579.4605,131.4
579.7479,29.8
580.2584,318.4
580.3601,141.1
580.4312,30.9
580.8963,763.9
581.0582,58.5
581.7296,212.9
582.0646,85.3
582.2026,404.5
582.2354,291.8
582.2974,610.8
582.3186,38.2
582.3546,60.7
582.3684,95.7
582.4049,99.4
582.4325,59.1
582.4449,129.4
582.4621,454.1
582.4656,469.4
582.4713,221.4
582.5036,106.3
582.514,33.9
582.5337,103.6
582.5745,76
582.6062,176.1
582.706,19.1
582.8658,35.2
582.9692,105.3
583.2559,562.6
583.3359,19.1
583.8188,228.1
583.8631,79.6
583.978,673.6
583.9982,616.2
584.1967,41.8
584.4674,171.2
584.5691,28.5
585.0052,47.1
585.0876,131.1
585.1894,1854.2
585.2293,182.8
585.271,5937.8
585.5667,99
585.8054,100.9
585.9679,50.4
586.1918,86.9
586.2737,1677.8
586.3095,2214.8
586.8409,1730.6
587.2934,69.4
587.5026,520.4
587.5922,33.8
587.7184,64.8
587.8167,103.5
588.0305,147.1
588.0521,27.9
588.1417,30.6
588.316,56.3
588.3463,29.8
588.7058,79
588.8378,473.6
588.9746,18.2
589.0026,45.1
589.0638,32.8
589.2979,2769.7
589.5493,60.3
589.609,221.8
589.6296,46.9
589.9475,178.5
590.0059,470.8
590.0661,507
590.3215,3234.5
590.4187,32.7
590.4651,21.6
590.5824,137.1
590.6703,31.5
590.9245,579.4
590.9954,47.9
591.1054,337.8
591.1285,32.4
591.3123,959.3
591.3253,734.5
591.761,91
591.768,99.1
591.8199,86.9
591.8837,34.3
591.9725,33.2
591.9867,273.6
592.0473,63.3
592.1943,40.4
592.2551,585.3
592.3654,31.5
592.5571,96.3
592.6999,30.5
592.8582,3473.6
593.0341,326.4
593.1126,59
593.1419,201.6
593.5055,21.8
593.8501,522.6
594.2314,112.3
594.4044,60.1
594.4586,52.4
594.8548,4541.6
594.902,583.3
595.0096,34.5
595.7199,190
595.7523,66.7
596.1698,191.8
596.8521,526.3
596.9484,39.1
597.0393,36.5
597.0892,76.8
597.3701,75
597.4443,56.2
597.5212,95.1
597.7948,43.7
597.8391,114.1
597.9685,644.3
597.9906,28.9
598.4249,74.4
598.46,677.5
598.6259,243.9
598.6469,77.4
598.6624,34.6
598.842,32.4
599.4656,568.5
599.5042,34.8
599.5681,164.8
599.6116,63.1
600.1742,160.3
600.2818,761.6
600.3003,18.4
600.6204,58.5
601.0224,37
601.3011,43.2
601.522,31.8
601.9023,54
602.1628,524.9
602.2958,817.7
602.4346,18.7
602.4906,31.4
602.6148,435.2
602.6533,80.9
602.7141,104.9
603.0517,31.1
603.1317,34.1
603.5349,84.3
604.0793,54.4
604.2478,76.6
604.2971,77.9
604.3142,473.9
604.3666,33.4
604.4248,66.3
604.5381,42.4
604.7955,481.6
605.0995,80.5
605.3211,35.5
605.5389,28.6
605.8703,53.7
606.1006,339.5
606.1923,73.8
606.26,122.8
606.7026,50.3
606.7522,36.2
606.8353,432.4
606.9713,32.8
607.0897,85.5
607.1201,55.9
607.1603,6393.2
607.1708,9437.1
607.4308,242.1
607.7731,39.8
607.8218,175.5
608.1222,143.7
608.1731,1293.9
608.2862,161.6
608.3307,532.6
608.366,84.8
608.8329,796.7
609.0771,31.5
609.0884,353.3
609.1475,5255.1
609.3071,32.9
609.4382,31.3
609.5037,432.3
609.5912,28.4
610.0325,43.3
610.1505,549.3
610.2348,743.6
610.4113,49.4
610.4316,95.3
610.7386,30.4
610.8292,1124
611.1735,257.8
611.3418,207.8
611.6562,21.4
612.0274,34.8
612.08,383.8
612.1031,62.9
612.1543,49.4
612.3247,645.1
612.7846,35.2
612.9412,41.7
612.9706,534.6
613.6885,100.2
613.9651,28
614.2336,47.9
614.5346,27.9
614.6335,205.2
614.7916,127.2
614.8821,51.7
615.2747,50.5
615.7447,38.6
615.7987,33.3
615.9524,30
616.3779,82
616.6865,50.5
616.7466,126.1
616.7964,725.6
617.0299,541.5
617.4778,1222
617.7737,41.6
617.8173,49.3
618.0478,18.6
618.7793,168.6
619.0698,60.5
619.1321,225.4
619.6074,262.3
619.7345,52.6
619.8678,506.9
620.013,127.6
620.3111,25.2
620.7382,32.9
620.8695,215.4
621.1087,268.2
621.1867,26.9
622.1937,100.1
622.4488,210.6
622.4979,33.8
622.6159,200.2
622.6903,32.3
623.1361,61767.1
623.2506,100.9
623.4708,834.4
623.5061,31.2
623.6195,173.8
623.6625,120
623.8649,30.9
623.9144,107.9
624.0044,61.4
624.1398,12435.9
624.4805,20.8
624.6627,593.6
624.9874,32
625.1415,1726.7
625.208,33.7
625.4844,199.1
625.7425,45.4
626.0867,30.4
626.579,58.7
626.7311,106.2
626.7984,32.5
626.838,47.6
626.9145,35.1
627.129,379
627.2421,590
627.3303,182.4
627.3663,33.8
627.3927,201.9
627.5361,218
627.5681,147.6
627.6758,44.9
627.806,647.5
627.9347,46.3
627.9929,31.9
628.5383,71.2
628.7329,19.2
629.0194,201.8
629.0728,36
629.1529,53705.3
629.5247,29.7
629.6101,39.9
629.6565,69.4
629.9836,439
630.1567,9545
630.9079,19.9
631.1288,3469.9
631.1572,777.8
631.2143,35.2
631.2765,54.8
631.3836,45.8
631.6252,34.5
631.9849,39.6
632.132,193.9
632.6329,34
632.8167,439.9
632.9634,96.3
633.0236,32.5
633.2826,33.3
633.4181,33.2
634.1089,37.1
634.1773,31.4
634.3607,178
634.7423,347.1
634.8431,881.5
634.8897,65.9
635.0155,631.7
635.4614,48.8
635.6458,60.1
636.0686,49.9
636.3035,373.1
636.3966,19.5
636.5998,98.8
636.8408,2436.6
637.0393,65.6
637.1644,74.1
637.3979,18.9
637.6614,33.7
637.693,36.6
637.9121,366
638.1008,1816.1
638.4402,591.2
638.8897,63.5
638.9537,33.6
639.1008,103.1
639.2024,141.5
639.2422,76.5
639.4549,30.3
639.8204,637.8
639.9678,127.3
641.0432,185.6
641.1641,41.4
641.771,39.3
641.8737,574.3
641.9748,29.8
642.0062,441.6
642.0882,93
642.5832,24.5
642.6907,517.5
643.0162,33.6
643.044,36.7
643.2923,138.4
643.3293,43.2
643.6843,51.6
643.8713,46.2
644.1815,179
644.2062,28.8
644.872,697.8
645.1179,22702.7
645.2998,560.2
645.6447,29.5
645.8331,93.9
645.9152,760.4
646.1069,843.4
646.1214,3420.3
646.1927,76.4
646.4571,185.5
646.7503,78.6
646.8171,39.3
646.8402,40.3
647.0331,34.8
647.094,8009.7
647.1241,259
647.186,34.1
647.6634,641.6
647.7619,339
648.0283,828.4
648.0982,692.6
648.1312,19.8
648.214,74.7
648.3157,85.3
648.3357,12964.7
648.4014,34.6
648.4354,174.4
648.6023,34.1
649.1,1103.2
649.2906,203.9
649.3397,4220.1
649.4562,90.8
649.4879,45
649.5811,50
649.9946,350.9
650.0301,80.9
650.0573,37.9
650.1,32.9
650.5832,232.6
650.5914,224.4
650.8168,838.6
650.9029,31.6
650.9441,70
651.0983,259
651.1348,49485.3
651.3642,421.3
651.4204,712.9
651.442,55
651.7041,589.2
652.1385,9303
652.2144,52.5
652.8133,1854.4
652.9818,31.6
653.1108,1430.1
653.1389,647.6
653.2729,93.2
653.3573,488.6
653.5975,19.6
654.1784,45.3
655.0879,40.7
655.3348,31.6
655.5208,491.4
655.7086,178
656.038,462.8
656.1437,623.6
656.333,155.2
656.5677,26.1
656.6612,65.9
657.1364,71.5
657.2003,668.2
657.3626,26.4
657.4422,31.8
657.5413,36.1
657.5696,142.6
657.6344,28.1
657.777,219
657.9912,57.7
658.2748,32.2
658.9345,209.3
658.9792,331.5
659.2544,272
659.2883,154
659.3536,431
659.724,413.5
659.8482,55.2
660.0546,36.9
660.0822,1386.5
660.1328,23.2
660.8075,45.5
660.8658,47.2
660.8999,40.1
660.9962,432.8
661.083,8314.5
661.1291,33.8
661.6388,209.3
662.0589,162.9
662.0877,792.2
662.1531,20.3
662.689,386.4
662.9104,35
663.4542,733.4
663.5944,30.3
663.7185,87.9
664.0723,42.6
664.2163,51.7
664.4639,527
664.9583,31.7
665.0834,29.7
665.168,445.7
665.2436,30.1
665.5308,22.7
665.7449,34.5
666.1908,39.5
666.6534,42.5
666.9547,240.2
667.0999,16644.7
667.1782,51.8
667.4421,46.3
667.4973,736.3
667.5931,34.4
667.7419,32.2
668.1131,2393.3
668.3816,40.1
668.4508,47.4
668.7878,1133.6
668.8075,33.9
669.0851,742.4
669.1251,33.2
669.2528,44.3
669.3433,648.4
669.9953,39.8
670.0629,30.2
670.3172,1355.1
670.4295,932.9
670.892,302.3
670.955,270.4
671.0616,145.3
671.078,29
671.6718,239.1
671.8685,31.1
671.9902,668.3
672.3654,47.9
672.4224,533.3
672.442,34.1
672.7777,19.9
673.0662,55.7
673.0826,31.8
673.1168,33825.5
673.2531,19.4
673.3217,39
673.4032,45.5
673.5843,32.7
673.6167,32.4
673.6384,51.9
673.7212,51.6
674.0569,69.5
674.1202,7191.5
674.3314,25.7
675.1231,1052.4
675.5437,2443.7
675.6181,68.5
675.6928,58.1
676.048,2176.9
676.1974,244.7
676.2325,51.5
676.3106,41.8
676.3367,479.5
676.5485,517
676.6727,248.5
676.699,251.1
676.7488,162.2
676.9513,26.7
677.0516,79.5
677.1407,352.3
677.3211,48.6
678.1397,71.8
678.2343,35.1
678.4778,22.6
678.5306,32.6
678.6485,544.3
679.0289,47.7
679.309,62.9
679.8656,44.4
680.0818,28.1
680.2309,530.3
680.26,36.3
680.7223,76
680.8126,259.2
681.0473,54.5
681.2905,17.6
681.3736,204.1
681.4711,99.8
681.6947,61.2
681.7228,34.6
681.8255,170.1
681.8687,56.5
681.9758,444.3
682.0656,146.1
682.351,268.9
682.3756,36.5
683.0164,147.3
683.074,2665.3
683.186,244
683.3447,130.1
683.3959,145.1
683.6943,73.6
683.7129,49.3
683.7725,19.1
683.9187,144.8
683.9902,204.9
684.0555,68.9
684.1051,65
684.2202,72.5
684.3371,40.9
684.8797,121.2
685.0519,738.8
685.1136,38.1
685.4342,465.5
686.4421,114.2
686.8772,84.1
686.9723,466.2
687.0523,160
687.1921,81.7
687.6157,349
687.6627,366.7
688.123,47.4
688.223,660.5
688.672,252.3
688.7297,36.2
688.7524,33.5
688.8947,32.5
689.0219,215
689.0443,46.5
689.0914,12449.1
689.1374,33.2
689.4327,46.2
689.6931,102.1
689.7283,171.4
689.8064,66.9
689.8598,55.4
690.0948,1822.5
690.1164,106.9
690.2773,213.3
690.7293,231.1
691.0578,44.1
691.0885,262.7
691.1733,34.2
691.2021,381.9
691.3583,133.3
691.4399,559.4
692.2969,34.2
692.4245,69
692.6336,63.8
692.6888,103.9
692.7749,65.7
693.0436,32.3
693.2612,432.7
693.5333,18.2
693.6506,101.4
693.7225,29.5
693.7762,182.2
694.033,25.9
694.1139,30.4
694.6915,36.5
694.8051,132.4
695.0989,18640.9
695.2675,32.2
695.4889,76.1
695.9498,22.2
696.0353,40
696.1026,3145.5
696.3457,55.2
696.5265,447.2
696.5539,33
696.8415,25.6
697.0761,39.1
697.5258,5380.1
697.5542,30.3
697.5851,28.7
697.8785,23.3
698.1045,31.7
698.3742,32.2
698.5275,717.3
698.9334,68.5
699.037,24
699.0503,43.2
699.1725,222.6
699.4801,30.7
699.5273,19.1
699.6904,46.9
700.0212,28.5
700.0972,133.7
700.2828,37.7
700.4762,28.2
700.5349,46.9
700.6319,28.9
700.8219,38.8
701.0948,73.1
701.4108,224.7
701.5022,70.6
701.5598,7745
701.9408,28.5
702.0283,19.7
702.3491,676
702.5634,2412.4
703.12,31.7
703.3583,438
703.4719,29.6
703.5755,27040.8
703.6264,29.6
703.6714,66.6
703.9161,723.8
704.1929,52.8
704.5041,203.3
704.5793,9299.6
704.64,28
704.8634,65.5
704.9991,22.6
705.051,2262.1
705.0651,1757.1
705.2564,50.4
705.5823,1051
705.7713,65.8
705.8926,40.7
706.0566,991.4
706.0866,378.8
706.3518,29.4
706.3776,52.5
706.4573,350.1
706.5864,207.2
706.6104,65.8
706.787,566.9
706.8755,20.2
707.54,324.5
707.7885,51.8
708.1234,501.3
708.7646,20.1
708.8264,123.4
709.0479,31.2
709.6155,148.8
709.8732,45.4
710.2062,75.8
710.8536,606.6
710.944,171.2
711.0394,42.2
711.0737,8597.2
711.541,2443.7
711.9969,32
712.0717,852.9
712.0978,592.3
712.2223,27.3
712.3003,29.9
712.359,55.3
712.5479,230
712.5856,28.2
712.6315,32.4
713.1809,21.7
713.1974,65
713.3592,30.5
713.964,69.1
714.3337,186.3
714.7055,96.3
714.9507,679.3
715.4451,294.6
715.807,57.4
716.7776,49.3
717.0806,8777
717.2948,59.9
718.0456,596.9
718.0845,572.9
718.4385,48.3
718.5415,191.7
718.7414,30
720.0089,33.2
720.3336,30.9
720.3853,34.4
720.5689,31.2
720.83,30.3
720.9557,29.8
720.9908,134.6
721.2278,36.8
721.4773,3316.6
721.5363,32.3
721.7187,28.2
721.7407,635.4
722.0646,324.5
722.1516,666.2
722.2227,165.2
722.4442,58.7
722.4783,1072.6
723.0097,112
723.3382,45.2
723.4882,1343
723.5421,10449.2
723.5802,43.9
723.6344,424.6
723.7924,96.9
723.8317,259.2
723.9998,465.9
724.0862,19.9
724.2692,223.6
724.4155,268.3
724.5451,3244.4
724.8112,66.2
724.9883,599.9
725.2706,86.8
725.5576,31876.1
725.9958,493.3
726.2247,26.7
726.5609,12126.1
726.8839,77
727.0264,1419.8
727.0478,1123
727.1723,34.5
727.5623,853.9
727.617,649.1
727.6871,27.8
727.7054,33.6
727.8102,75.5
727.921,32.2
728.1163,296.3
728.5105,34.9
728.7567,74.6
729.591,1390.1
729.6122,549.8
729.7137,32.2
729.7337,230.4
729.8131,31.3
730.006,356.1
730.1175,44.8
730.2368,53.4
730.8963,609.6
730.973,228.6
730.986,62.9
731.1504,51.9
731.1757,43.8
731.6015,22.8
731.7445,34.8
732.0088,37.5
732.5544,3246.3
733.0435,3017.2
733.0562,4187.1
733.1715,34.6
733.2529,30.6
733.5573,563.4
733.5762,278.7
734.0568,269.4
734.3495,55
734.4424,58
734.5308,32.5
734.5696,1126.9
734.6818,126.6
735.1526,74
735.4045,43.2
735.4659,60.5
735.57,106.9
735.6183,874.1
735.6995,55.3
736.0799,32.8
736.1879,53.2
736.6801,30
737.1376,1696.7
737.1598,412.4
737.3994,253.5
737.511,188.1
737.9389,34.2
738.29,391.3
738.3537,57.5
738.4169,76.6
738.5587,243.4
738.9099,51.4
738.9407,216.2
739.0623,3516.8
739.2056,35.6
739.7149,54.5
739.7402,517.3
740.3423,798.1
740.3803,37.4
740.4697,1549.4
740.8066,1023.3
740.9467,26
741.0907,473.9
741.3534,503.4
741.5313,5498.2
742.5754,7020.3
742.7759,600.3
742.8922,53.8
743.0064,169.9
743.0858,74.7
743.4623,178
743.5065,333.5
743.5419,26.8
743.5772,832.8
743.8825,34.3
743.8997,98.4
744.5918,2290.7
744.9701,77.2
745.175,41.4
745.5552,39.4
745.5922,1040.4
746.5005,326.4
746.5679,323.6
746.6078,579.4
746.6464,32.1
746.7644,32.6
747.4827,212.5
747.5627,32.6
747.8034,22.2
748.5282,88.1
748.6802,30.9
749.0318,616.3
749.1139,186
749.2079,954
749.5048,402.2
749.5241,34.1
750.0153,44.4
750.227,76.1
750.4108,121.4
750.4441,217.9
750.5128,630.3
750.5454,103.4
751.2156,507.4
751.2623,128.8
751.419,254
751.5214,612.8
751.5736,2760.5
751.7342,1038.3
751.8579,48.3
752.319,35.3
752.3625,524
752.4322,1007.6
752.5237,1480.1
752.765,29.9
752.8164,734.4
753.0989,52.9
753.1771,29.2
753.5881,497.6
753.6276,30.9
753.6632,26.8
753.9606,37.1
754.2644,33.2
754.3557,64.4
754.5369,4586.4
754.5908,124.6
754.6721,187.4
754.8135,612.9
755.0246,892.2
755.0388,1236.6
755.3593,39.3
755.5422,54.8
755.8601,46.7
756.1087,93.2
756.3726,283.9
756.4971,37.9
756.5547,7690.3
756.7635,31.6
756.9157,53
757.355,212.7
757.5581,2988.3
758.1418,54.8
758.3986,116.4
758.5703,242160.9
758.6366,445.8
759.4638,838.9
759.5308,276.2
759.5737,103929.5
759.6364,183.6
759.7087,37.6
759.7525,71
760.0406,137.7
760.5866,131879.5
760.7889,169.8
761.017,40.8
761.0451,1360.7
761.1717,145
761.5897,60845.3
761.9759,466.4
762.4994,606
762.5923,15252.9
762.6569,34.6
762.8616,45.5
763.2712,61.7
763.5954,537.6
764.0044,18.1
764.4072,94.5
764.527,74.1
764.5583,5672.3
764.5968,193.6
764.9742,469.9
765.092,52.5
765.5617,1061
765.6789,34.9
766.0528,19.7
766.1676,54.6
766.5749,10764.6
766.822,25.1
767.4138,38
767.4553,298.9
767.5312,309.9
767.5782,3162.8
767.6949,51.3
767.7746,306.3
768.0636,249.8
768.1475,50.4
768.5505,887.9
768.5912,6763.1
768.719,43.1
768.9279,662.2
769.1145,34.2
769.1501,39.1
769.3928,661.3
769.4757,751.4
769.5019,32.9
769.5949,3113.8
769.7786,37.8
769.8678,28.9
770.6073,1458.6
770.999,265.8
771.0474,429.1
771.0831,31.8
771.5443,203.9
771.6094,66.9
771.9327,550.2
772.0987,30.9
772.2378,52.9
772.2995,445.4
772.4957,366.1
772.5241,520
772.5857,4357.2
772.6213,498.4
773.5878,645.2
773.6293,235.5
773.899,707.2
773.9259,148.8
774.5484,32.5
774.6008,169.1
774.7959,70.3
775.1177,157.5
775.2974,438
775.3194,48.8
775.4206,52.7
775.8107,563.1
775.8834,75.1
776.0847,22.5
776.1126,56.1
776.2942,47.8
776.5248,65.7
776.7639,402.8
777.0075,597.9
777.4222,56.6
777.4666,46
777.6049,28.6
777.9985,31.5
778.042,20.2
778.2734,97.5
778.2989,466.7
778.3846,68.5
778.4375,26.2
778.5371,7021.8
778.6861,36.3
778.8189,34.1
779.0238,30.8
779.108,134.4
779.3562,697.2
779.3915,147.1
779.5382,3161.3
780.1064,31.5
780.266,94
780.5525,203526.8
781.4647,696.3
781.5559,93819.4
781.967,1598.4
782.5695,154504.9
782.6302,912.1
782.6772,711.6
783.0261,466.6
783.2288,80.9
783.5727,74429.7
783.6905,377.9
783.921,118.4
784.5433,63.8
784.5865,79049.8
784.7271,30.8
785.125,75.1
785.1795,631.8
785.2813,50.2
785.3231,67.4
785.5896,41868
785.6542,1584.3
785.6953,238.2
785.759,30.1
785.8166,30
786.1013,30.2
786.602,116690.8
786.655,251.2
787.0383,18.9
787.5451,571.6
787.6051,56380.9
787.6713,524.6
788.389,33.3
788.5581,3556.5
788.6051,7515.2
788.6201,8514.1
788.6519,1051.5
788.6745,66.8
788.7113,61.1
788.781,137
789.4079,197.9
789.5629,604.8
789.6218,4712.9
789.6791,33.4
789.7393,141.2
790.5743,5756.4
790.6242,274.1
790.706,37.9
790.9502,693.4
791.5773,1205.4
792.0389,223.9
792.1201,101.5
792.1825,374
792.5906,8706.1
792.8359,25.2
792.9774,898.8
793.1696,376.3
793.5945,1476.6
793.6968,30.2
793.9213,614.8
794.5665,1650.3
794.6069,11867.7
794.9627,44
795.3549,325.5
795.4605,28.4
795.5104,508.2
795.5817,56.9
795.6101,6612.6
795.833,192.1
796.0194,690
796.1601,129.5
796.5261,38111
796.5841,456.6
796.6184,93
797.2808,22.8
797.5297,18444.6
797.5919,280.4
797.6111,66
797.7065,35.4
798.4767,103.7
798.5425,16284.3
799.0004,269.3
799.1018,67.2
799.5456,8188.7
799.6243,326.6
799.6711,178.7
799.8842,308.5
800.6621,44.8
800.7033,585.9
800.9242,171.6
801.0785,102
801.4073,30.5
801.4871,66.1
801.541,553.5
801.685,65.4
801.9308,549.4
802.0194,36.4
802.385,47
802.5364,25810.6
803.1787,77.6
803.2468,81.3
803.5405,9830.8
803.9624,44.1
804.1333,536.4
804.1911,33.5
804.388,32.9
804.5525,60208.5
804.6297,377.1
804.6598,29
805.5557,27606.5
805.9019,31.2
806.5007,33.4
806.5697,137068.1
807.573,66564.6
807.7799,82.6
807.798,54.9
807.85,179.9
808.3703,193.4
808.5442,132
808.5852,88653.8
808.6657,257.7
809.552,66.3
809.5883,41785.4
809.6232,130
809.916,142.8
809.9945,127.9
810.4119,72.1
810.6025,31371.5
810.7654,52
810.8105,32.1
811.1451,91.6
811.2971,72.1
811.4464,52.9
811.6053,14964.3
811.6698,3414.7
811.7971,34.2
812.1164,167.3
812.1665,43.8
812.6194,4575.4
812.6769,897.5
813.6215,783.2
813.6858,4580.4
813.8889,28.9
813.9296,132.4
814.0645,77.2
814.3486,142.1
814.5733,2274.2
814.6334,34.8
814.689,1602.8
814.8277,530.2
815.1776,54.4
815.2122,237.6
815.3023,30.7
815.3448,20
815.4384,29.9
815.7329,167.8
816.1817,39.1
816.2963,45.6
816.5888,6341.6
816.6573,184.5
817.2801,685.2
817.4431,44.1
817.5926,50.5
818.255,41.7
818.5099,3325.4
818.6069,2383.7
818.9463,42.1
819.5135,1747.6
819.6114,372.1
820.1186,120.9
820.3133,68.2
820.5261,11613.5
820.6229,202.1
820.6728,28.8
820.8749,134.3
821.177,19.6
821.2388,62.8
821.2924,22.6
821.4483,290.1
821.5307,3805.7
821.6258,138.4
822.0244,56.6
822.1323,96.8
822.2371,31.4
822.2583,31.3
822.4281,224.2
822.5156,521.6
822.5426,9575.4
822.7382,30.8
822.8596,1283.7
822.9595,30.4
823.1393,677.5
823.5054,789.7
823.5458,4064.1
823.6429,89.6
823.7229,197.1
824.1139,69.1
824.1243,53.3
824.251,284.5
824.5049,98.5
824.558,10243.5
824.6744,119.6
824.8195,95.2
824.9531,33.6
825.2652,877.4
825.327,132.1
825.4057,113.3
825.5617,4844.1
825.6203,605.3
825.713,41.9
826.0893,374.4
826.3752,993.8
826.8257,33.8
827.1115,1239.9
827.3942,196.9
827.9905,221.2
828.4214,29.6
828.4484,31.6
828.5523,61595.8
828.6463,163.3
829.0117,32.4
829.4363,33.8
829.5556,27751.3
829.6659,43.3
829.6918,378.7
829.7598,31.4
830.0747,171.7
830.5693,18674.3
830.7436,227.2
831.5721,8206.7
831.7461,33.2
832.172,56.2
832.2795,44.2
832.3518,46
832.4207,76.6
832.5852,19284.9
832.6893,683.2
832.7236,657.6
832.841,273.3
833.3686,21
833.5882,10567
833.8751,23.8
834.2606,199.1
834.5066,79.8
834.6019,15760.2
834.6333,474.6
834.6993,562.5
834.7871,39.1
834.8848,33.6
835.2086,99.3
835.2339,29.8
835.3166,103.5
835.6053,7939.9
835.6436,101.9
835.6941,83.5
835.7106,73.5
836.1568,58.8
836.3992,722.8
836.619,336.8
836.6706,239.5
836.7924,799.6
836.8432,69.2
837.1383,27.2
837.6157,130.8
837.772,76.6
838.0853,532.9
838.1542,36.1
838.2753,113.3
838.5109,646.6
838.5595,54.9
839.3805,51.1
839.5121,574.5
839.9991,823.6
840.0994,42
840.2854,37.6
840.4957,1010.3
840.529,1092.9
840.6991,45.7
840.741,72.1
840.7616,113.3
840.798,38.9
841.6422,34.6
841.8409,775
841.9337,44.5
842.6071,155.7
843.0826,827.4
843.1306,63.8
843.1989,159.3
843.2876,730.3
843.7048,37.5
844.0558,39.3
844.3559,38.5
844.444,1689.8
844.5266,9708.6
844.9658,516
845.069,39.4
845.0932,110.6
845.2491,46.2
845.5302,5289.6
845.5883,91.8
845.6265,42.1
845.8444,135.3
845.9209,717.8
846.5433,1716.2
846.7038,102.3
846.9514,677.3
847.0024,209.3
847.1839,38.4
847.2177,754.2
847.3468,266.4
847.4591,44.9
847.5482,381.8
848.2813,871.8
848.3554,1157.6
848.5463,1977.9
848.5795,987.9
848.6795,652.6
848.7387,91.8
848.8743,69.7
849.3628,33.8
849.4474,88.6
849.547,791.6
849.5628,622.2
849.8452,430.1
850.2377,187.8
850.4495,2668.7
850.5602,633.1
851.0262,286.2
851.3348,683.8
851.6584,2431.2
851.7345,34.9
851.8667,134.4
851.9134,39.9
852.041,69
852.1196,32.4
852.1897,514.4
852.4189,74.9
852.6024,45.2
852.7905,524.4
852.9062,68.1
853.006,527.6
853.0602,22.3
853.1234,95.4
853.3965,383.5
853.4197,32.9
853.5051,40.1
853.5708,58.3
853.9622,40.9
854.5666,948.7
855.0334,448
855.7637,56.9
856.116,67
856.3152,101.3
856.3775,20.6
856.5848,5005.6
856.7153,28.6
857.1503,177.6
857.5876,651.9
857.678,25.1
857.9049,23.2
858.0853,31.8
858.2892,537.4
858.6927,480
858.9632,461.5
859.5541,108.9
859.6773,69.9
860.2835,19
860.5779,307.9
860.6309,49
860.7408,33
860.8599,560
861.6037,114.2
861.8045,357.7
861.8921,27.2
862.0725,46.7
862.6345,28.6
863.4564,1594.9
864.1786,129.5
864.3187,34.6
864.4093,46.2
864.5722,33.9
865.162,317
865.463,64.5
865.7815,38.2
866.1944,54.7
866.3316,37
866.6015,40.8
867.2227,44.9
867.9202,37.7
868.1054,878.2
868.2065,30.2
868.4254,40.7
869.5624,498.4
869.757,36.8
869.7992,759.4
869.8201,683.8
869.8646,756.3
869.9253,413.9
869.967,1406.7
870.0028,866.8
870.0734,2811.2
870.1157,1833
870.1431,1852.8
870.173,847.3
870.2016,434.9
870.2258,882.8
870.2454,562.5
870.2618,531.9
870.2903,272.7
870.3254,414.3
870.3718,280
870.4148,234.1
870.532,602.6
870.9411,27.6
871.0402,969.3
871.122,192.8
871.1472,34.7
871.3064,98.7
871.3977,109.8
871.6124,509.1
871.8373,126.9
871.9419,735.5
872.1966,40
872.2868,861.6
873.1864,53.4
873.3315,20.1
873.5604,228.7
873.6135,1251.2
873.7613,123.9
874.0951,1726.4
874.1466,47.5
875.0862,31
875.2458,35.6
875.5735,560.9
875.8822,59.6
876.2326,234.9
876.3895,583.4
876.6933,41.1
876.7428,39.6
877.2818,36.5
877.3544,30
877.7965,36.4
878.2893,51.3
879.1556,94.7
879.2505,31
879.4725,57.5
879.8988,575.1
879.9591,246
880.057,143.2
880.4116,647.3
880.7148,74.4
880.7717,32.7
880.8706,51.1
881.2061,32.2
881.5102,550.1
881.8709,913.4
881.9719,538.9
882.1614,53.7
882.2853,69.2
882.4472,555.8
882.7504,253
882.824,33.2
883.2575,107.9
883.4341,71.9
883.4876,60.5
883.8249,561.8
884.2012,31.3
884.4456,35
884.7029,97.9
885.0531,109
886.7487,124.3
887.6231,296.2
887.6747,158.3
887.7362,547.7
887.838,33.5
887.9816,27.9
888.0824,487.9
888.4334,51.4
889.484,120.6
889.6379,43.3
889.8752,267.7
890.1853,126.8
890.5957,30.9
891.8499,21.1
892.4012,132.1
892.9282,34.5
893.3536,30.7
894.0765,36.9
894.6412,31
895.5511,34
896.1031,86.3
896.5364,203.5
896.7822,1061.3
897.3371,604.8
897.6026,20.7
897.7507,34.7
898.1079,33.9
898.3081,43.3
898.3711,34.5
898.7926,29.2
899.5622,66.2
899.7805,1749.3
900.2538,187.2
900.5252,44.9
900.8658,458.7
901.24,71.7
902.1959,40.2
902.5096,42.4
903.0187,28.3
903.444,23.2
904.1565,77.4
905.0536,45.4
905.1428,606.5
905.167,337.6
905.5035,35.5
905.7276,98.8
905.9879,2106.7
906.9382,249.7
907.1385,93.9
907.3462,32.9
907.9296,1029.9
908.1828,755.5
908.2596,285.6
909.0614,172.1
909.9435,963.6
910.0796,679.7
910.1829,98.3
910.53,72.9
910.6818,27.4
910.8051,37.4
911.7525,38.2
912.3044,32.4
912.7169,42.8
913.4141,61.6
913.664,544.5
915.228,473.8
915.3158,56.7
916.5656,36.6
916.6646,32.3
916.7594,31.7
916.9257,226
917.014,472.3
917.0411,893.9
917.6147,39.7
918.505,137.1
918.6677,981.9
919.0344,261.7
919.1739,79.3
919.2044,86.2
920.5231,19.1
921.0021,65.5
921.6211,172.8
922.1071,117.2
922.1804,214.7
922.2398,75.6
922.4263,843.9
922.5773,42.7
922.8054,50.2
923.0911,18.9
923.24,189.7
923.7232,30.7
923.7484,44.9
923.9866,32.4
924.0618,37.4
924.1404,20.9
924.3474,145.6
924.725,194.2
925.0029,195
925.4849,81
926.0837,940.3
926.1091,666.1
926.9986,905.5
927.5569,19.1
928.2499,433.8
928.6875,39.3
928.7342,32.8
929.5251,31.8
929.8861,28.5
929.951,53.9
930.0641,40.1
930.4543,665.5
930.5668,120.5
931.6184,30.5
931.6682,37.1
932.6323,90.4
932.8372,669
933.1877,28.5
933.2596,58.4
933.358,238.1
933.4509,30.8
934.5459,213.9
934.5808,30.8
934.7062,72.3
934.9923,47.5
935.0475,36
935.4105,111.5
935.4623,42.7
936.0926,52.7
936.1938,199.4
936.376,900.7
936.4537,34.7
937.0251,1328.2
937.1963,113.4
937.2107,191.7
937.3091,46.3
937.3953,64.5
937.4758,33
937.6234,1943.9
938.3019,810.1
938.6925,207.1
938.8756,30.5
938.973,128.2
939.0349,51.1
939.3961,135.3
939.6141,20.3
940.5362,205.4
940.5738,20.7
941.0194,33
941.0597,53.7
941.3878,2328.7
942.2368,30.6
942.2646,318
942.6124,33.8
942.7832,55.5
943.0656,137.8
943.1588,25
943.2266,269.5
943.278,48
943.4202,2942.6
943.5573,64.4
944.1887,36.5
944.2351,134.6
944.2663,19.7
945.0984,39.5
945.5231,30.9
945.5766,195.3
945.6089,57.5
945.7481,23.3
946.0213,81.1
946.4282,67.4
946.6018,35.1
947.0357,211.1
947.4832,174.5
947.8447,150.8
947.9698,27.8
948.0772,477.1
948.4112,91.7
949.0859,3181.5
949.1146,36.2
949.7239,48
949.884,374.3
950.0604,34.5
950.1592,31.1
950.2885,35.7
950.6532,407.9
950.7816,46.9
951.5309,32.7
951.6282,70.1
952.8551,118.4
952.9207,271.3
953.865,31.9
954.097,368.5
954.2619,51
954.2943,597.5
954.6523,451.6
954.7135,522.4
954.8398,603
955.4141,41
955.6857,39.6
955.8952,31.8
956.2169,35
956.44,32.2
956.8837,35.1
957.0627,27.3
957.1819,1561.3
957.3062,393
957.6611,28.6
957.8029,553.1
958.1698,128
958.3044,34.4
958.5995,596.4
959.0732,37.5
959.1897,51.5
959.3522,159
959.5213,169.9
960.3468,30.4
960.4469,1377
960.4901,58
960.6017,880.6
961.0737,611
961.1017,753
961.6367,29
962.5143,838.3
962.5773,29.5
962.6764,23.2
962.7822,449.6
962.9235,484.2
963.3604,267.8
963.8109,59.9
963.9071,158.5
964.0473,921.3
964.1404,187.2
964.2821,36
964.3887,198.4
964.5435,231.3
964.9735,69.2
965.1278,227.7
965.2587,1106.1
965.2874,40.9
965.3699,54.8
965.8286,31.7
966.4427,506.6
966.5808,31.8
966.6594,670.3
966.9038,497.3
967.1027,49.3
967.3673,690
967.6206,186.3
967.7589,86.3
967.8126,32.9
967.9712,210.7
968.0293,49.7
968.0524,32.1
968.2098,31.7
968.7343,46.7
968.9467,27.9
969.2371,57.1
969.9656,1141.9
970.1177,37.6
970.374,40.1
971.2606,187.1
971.5231,127.2
971.6008,97.5
971.6989,142.5
973.2359,66.4
973.3894,635.1
973.7987,69.4
974.4596,68.9
974.9375,546.7
975.154,138.8
975.2084,617.3
975.5929,1381.7
975.6443,65.2
976.2868,67
976.5759,94.7
976.7672,44.9
977.1752,38
977.372,918.9
977.4247,1828.7
978.0936,57.2
978.653,369.4
978.952,31.1
979.4064,254.4
979.7173,43.7
979.8146,38.9
979.9543,680.3
980.0479,952.9
980.0588,668.8
980.3669,68.7
980.8112,219.2
980.8428,36.8
980.9883,1158
981.0817,282.6
981.5202,164.3
981.6499,32.9
981.976,547.3
982.4218,98.8
982.4817,64.8
982.5925,35.7
983.1242,103
983.6245,1040.6
984.1658,860.3
984.3904,565.2
984.9373,68.2
985.3077,75.2
985.578,229
985.6769,186.3
985.6941,575.4
985.8547,61.7
986.082,368
986.3114,33.6
986.6055,950.4
986.6567,37.6
986.9664,19.4
988.3896,30.4
989.4547,30.4
989.801,30.8
990.1494,395.6
990.3274,977.2
990.6261,31.4
990.7987,908.3
990.8204,1179.9
991.7153,566.5
992.0181,33.5
992.308,317.7
993.0535,46.9
993.1621,350.2
993.4402,47.2
993.8082,132
993.8713,30
994.5123,151.8
995.4388,429.6
995.7366,18.5
996.0529,405
996.634,28.3
996.7835,408.2
997.3921,776.9
997.4237,68.9
998.2867,342.4
998.4611,430.7
998.5242,34.1
998.913,20.8
998.9844,31.9
999.2855,357.4
999.4246,679.3
999.456,1061.6
999.8515,91.1
