SPECTRUM - MS,
704.RAW,
FTMS + p ESI Full ms [50.00-1000.00],
Scan #: 1-40,
RT: 0.01-1.97,
AV: 40,
m/z,Intensity

50.0013,412.2
50.0177,250.9
50.0195,144.5
50.0254,167
50.0259,341.8
50.0285,202.3
50.0341,109.6
50.0444,157.7
50.0548,165.3
50.0618,18.7
50.0655,16.5
50.0732,519.9
50.1096,195.6
50.1132,103.7
50.1228,51.6
50.1374,205.3
50.1571,297.5
50.1634,146.8
50.1852,149.4
50.1914,90.1
50.2006,374.2
50.203,392.8
50.2159,466.2
50.2187,91.4
50.2233,107.4
50.2278,162
50.2288,466
50.2436,467.2
50.2484,448.6
50.256,131.3
50.2703,442.9
50.2845,17.7
50.3004,306.2
50.3032,435.4
50.3083,253.2
50.3268,16.3
50.3724,209
50.3732,41.8
50.3804,354.7
50.3909,137.6
50.3962,497.5
50.4112,320.5
50.4314,333.3
50.4458,264.4
50.4472,377.4
50.4482,686
50.4498,17.9
50.4577,125.4
50.4732,116.4
50.4773,74.2
50.4916,95.4
50.4963,477.5
50.5107,235
50.5347,285.5
50.5375,338.8
50.5524,144.9
50.5623,598.1
50.568,285.1
50.5688,125.4
50.5987,160.6
50.617,394.6
50.621,532.2
50.6216,201.6
50.6372,246.3
50.6392,470.8
50.6418,409.2
50.6466,14.9
50.6469,319.1
50.6492,543
50.6498,40.9
50.6559,211.6
50.6846,17.2
50.7021,136.4
50.7025,474.6
50.7063,314.5
50.7599,16.9
50.7608,685.2
50.7619,241.7
50.7708,242.3
50.7724,90.2
50.786,80.2
50.7974,651
50.7992,512.9
50.8059,451.7
50.836,42.6
50.8711,217.3
50.8848,294.9
50.9097,163.6
50.9159,770.5
50.9612,16.2
50.964,429
50.9736,85.3
50.9874,18.5
50.9989,132.6
51.0209,16.8
51.0338,409.1
51.036,136.8
51.0443,16.4
51.046,360
51.0498,141.4
51.0504,15.2
51.0538,17.4
51.0558,145.7
51.0578,15.6
51.0623,162.3
51.0804,94.6
51.084,613.3
51.0854,150.2
51.0877,16.4
51.121,103.8
51.139,164.1
51.1407,19
51.1511,141.6
51.1635,94.5
51.1793,343
51.1899,18
51.1925,377
51.1959,206.6
51.2229,383.6
51.2348,92.1
51.2364,212.8
51.2583,112.4
51.2625,204
51.2753,468.2
51.2948,266.7
51.2982,201.9
51.3087,18.5
51.3101,310
51.3262,17
51.3361,291.3
51.3499,116.4
51.3543,111.3
51.3652,89.6
51.3658,347.1
51.3679,193.2
51.3717,113.3
51.3941,156.2
51.3952,747.3
51.4025,86.6
51.4055,274.9
51.4174,76.2
51.4186,198
51.4308,159.2
51.4452,251.7
51.4606,154.3
51.487,179.6
51.54,276.4
51.5409,289.5
51.5468,114.7
51.559,261.1
51.5597,537.5
51.5707,530.7
51.5945,18.2
51.5979,794.3
51.6281,330.9
51.6304,537.6
51.6325,420.2
51.6335,98.2
51.6675,98.8
51.6775,138.1
51.702,373.1
51.7039,16.6
51.7119,331.5
51.7194,103.8
51.7646,540.8
51.7773,144.5
51.7931,116.5
51.8018,108.6
51.8193,100
51.8197,616.1
51.8295,77.1
51.8386,231.3
51.8563,77.7
51.8999,109.8
51.9034,324.2
51.936,169.9
51.9425,16
51.9768,181.5
51.9964,133.7
52.0342,147.1
52.0416,15.1
52.0437,533.2
52.0462,314.6
52.064,413.1
52.0874,105.5
52.0891,584.4
52.0928,813.7
52.104,221
52.1185,17.6
52.1245,555.1
52.1391,265
52.142,722.9
52.1449,18.2
52.1573,154.1
52.1671,109.5
52.1728,17
52.194,720.1
52.2326,18
52.2469,292.8
52.2482,88.5
52.2594,307.3
52.2642,121.4
52.2745,205.7
52.2749,299.2
52.2823,109.3
52.2848,15.4
52.2927,20
52.3007,285
52.3045,115.6
52.308,423.6
52.3085,162.3
52.3217,331.2
52.3231,45.8
52.3389,409
52.345,245.5
52.3529,47.4
52.3746,15.7
52.3848,18.5
52.3852,105.8
52.3966,15.5
52.3986,142.9
52.4086,138.1
52.4104,712.9
52.425,303.1
52.4412,370.1
52.4553,375.8
52.4712,16.3
52.4922,231.5
52.4977,587.1
52.5026,151
52.5087,88.7
52.5105,89.2
52.522,356.3
52.5271,137.3
52.5303,325.9
52.533,193.8
52.5335,103.9
52.5473,291
52.5534,707
52.5581,149.2
52.5622,359.8
52.5639,16.4
52.5839,129.8
52.598,419.4
52.6061,17.1
52.6139,145.1
52.6245,376.7
52.6403,79
52.6407,350.4
52.6514,90.4
52.6669,313.1
52.6767,540.3
52.6866,144.6
52.7006,41.5
52.7033,334.6
52.7267,241.9
52.7395,137.9
52.744,18.8
52.7476,443.9
52.751,295.9
52.7941,125.6
52.7957,340.3
52.7992,703.3
52.7997,298.7
52.8001,1846.5
52.8009,2497.1
52.8014,1485
52.8018,1859.7
52.8021,1350.3
52.8023,1426.2
52.8027,2496.5
52.8031,1378.2
52.8039,338.8
52.8063,324
52.8163,178.3
52.8215,646.4
52.8251,19.9
52.828,15.6
52.8367,144.9
52.8502,130.5
52.8527,36.8
52.8594,146.2
52.8609,216.5
52.8911,284.1
52.9235,20.3
52.9269,329.9
52.9353,14.9
52.9441,84.9
53.0007,520.8
53.006,97.8
53.0192,349.2
53.0202,16.4
53.0441,38.8
53.0561,109.6
53.058,235.5
53.0632,297.1
53.081,338.2
53.0912,39.1
53.1042,132.7
53.1175,245.4
53.128,41.3
53.1309,49.3
53.1553,21.4
53.1712,154.5
53.1759,71.5
53.1767,387.8
53.1812,309.4
53.1881,166.3
53.1895,40.5
53.2011,294.3
53.2052,15.8
53.2244,89.8
53.2322,17.4
53.2453,675
53.2537,92
53.2592,167.8
53.2657,222.2
53.3293,233.9
53.3307,142.2
53.3316,455.6
53.3376,104
53.3428,347.7
53.3716,22.1
53.3881,96.8
53.4076,270
53.4092,256.9
53.4096,187.9
53.4117,107.2
53.4266,16.8
53.4377,148.6
53.4391,241
53.4924,817.8
53.4947,562.9
53.5182,192.6
53.5205,16.3
53.5473,17.7
53.5603,724.1
53.5837,144.3
53.5935,778.4
53.6178,575.7
53.6202,18.4
53.6221,330.1
53.6711,114.3
53.7,105.9
53.7104,112.8
53.7115,343.2
53.761,117.4
53.7767,138.7
53.7954,179
53.7973,228
53.816,122.2
53.8181,91.8
53.8226,378
53.8255,388.4
53.843,209
53.8844,128
53.923,533.7
53.9338,128.4
53.938,121.9
53.951,112.6
53.9737,147.8
54.0313,96.3
54.044,489.8
54.05,311.2
54.051,322.2
54.0555,284.6
54.0622,122.2
54.0648,284.4
54.0808,158.4
54.0994,278.2
54.1095,15.9
54.1154,582.2
54.1211,297.7
54.1485,161.5
54.1549,17
54.1606,140.6
54.171,406.9
54.1981,324.2
54.2047,369.5
54.2144,226.7
54.2186,310.5
54.2399,77.8
54.2559,290
54.2572,284.1
54.2584,113.3
54.2923,203.1
54.3052,481.2
54.3185,18
54.3233,17.4
54.3394,117.9
54.3404,348.9
54.3471,17.2
54.3864,16.6
54.3969,210.7
54.4009,204.5
54.4035,15.9
54.4121,17.2
54.4143,18.9
54.4401,117
54.4712,446.5
54.4906,439
54.4994,93.9
54.5024,461.2
54.511,105
54.5114,245.5
54.5237,666.5
54.5294,210.6
54.5357,364.1
54.542,188.4
54.5452,340.3
54.5539,135.8
54.5541,169.3
54.5682,557.9
54.5687,16.7
54.5745,124.1
54.5765,19.1
54.5817,283.1
54.5844,316.6
54.5925,52.3
54.5933,404.4
54.5956,324.6
54.6185,262.2
54.6251,121.5
54.6415,282.8
54.6471,89.8
54.6524,77.6
54.6733,258.5
54.6785,258.3
54.682,361.2
54.6867,128.4
54.7014,278.2
54.7054,37.3
54.7629,123
54.7771,211
54.7803,88.9
54.7854,440.3
54.7973,39.2
54.8093,339.1
54.8137,468.6
54.8217,141.9
54.8265,292.5
54.8371,398.2
54.8634,426.2
54.868,116.4
54.8726,113.5
54.8791,127.9
54.8829,133.4
54.8922,38.2
54.8953,470.7
54.9014,390.5
54.9044,452.8
54.9178,16.8
54.9193,89.7
54.9198,16.8
54.942,101.6
54.9924,392.5
54.9984,379.8
55.0104,15.7
55.0161,399.4
55.0287,111.9
55.0319,289
55.0383,104.8
55.0591,728
55.0654,329.2
55.0829,139.5
55.0854,21.3
55.1532,433.8
55.1651,21.3
55.1668,243.8
55.1914,567.7
55.1955,177.4
55.2002,460.9
55.2088,279.4
55.2096,667
55.246,463.6
55.2463,720.8
55.258,188.5
55.2624,242.6
55.2731,17.3
55.2814,375
55.2848,334.3
55.3123,229.1
55.3157,16.2
55.3221,92.1
55.3254,238.6
55.339,17.7
55.3451,137.8
55.3455,283.7
55.3588,155.4
55.3723,22.2
55.3773,150.6
55.3778,162.9
55.3783,106.1
55.3953,150.1
55.3986,103.7
55.4039,184.1
55.4237,158.4
55.4434,17.7
55.4449,19.5
55.4498,81.5
55.4521,353.5
55.4542,250.2
55.4871,88.6
55.4923,316.1
55.5196,502.8
55.529,146.8
55.5491,305.9
55.5532,94.5
55.5544,475.5
55.5645,312.6
55.5669,16
55.5696,667.8
55.5739,213.8
55.6,614.7
55.6121,133
55.62,150.3
55.65,116.9
55.6561,161.4
55.6674,659.4
55.6693,299.3
55.6737,156.1
55.6801,238.5
55.6863,850.8
55.7041,283.2
55.716,416
55.7191,468.8
55.7373,98.8
55.7414,92.2
55.7568,171.6
55.7632,414.2
55.7673,263.1
55.7695,183.2
55.8023,161.8
55.8639,174.6
55.8819,312.4
55.8847,304.6
55.8921,39.7
55.9244,179.8
55.9262,16.2
55.928,122.8
55.9763,18.1
55.9767,198.5
55.9821,172.9
56.0063,285.5
56.0289,15
56.0306,657.3
56.0352,19.1
56.0409,168.8
56.0576,336.9
56.0674,375.3
56.0697,212.3
56.0981,88.2
56.101,277.3
56.1015,774.7
56.1052,318.9
56.1207,84.5
56.1278,607.6
56.1305,209.5
56.1428,152.3
56.1483,16.7
56.1579,106.3
56.1607,165.8
56.1616,291.2
56.1688,130.5
56.1699,418.5
56.172,138
56.1732,318.9
56.1948,86.9
56.2136,280.5
56.2222,309.9
56.2293,136.3
56.2321,363.3
56.2326,117
56.2345,556.3
56.2514,118.9
56.2601,311.1
56.2838,337.2
56.2864,645.1
56.2939,211.8
56.3108,15.9
56.3321,99.2
56.3547,222.5
56.3578,149
56.3818,432.3
56.3877,17
56.3956,561.7
56.4094,41.8
56.4395,15.2
56.4548,204.1
56.4675,455.8
56.4719,127.1
56.4798,143.5
56.4869,121.2
56.4878,228.4
56.5022,137.4
56.5063,251.3
56.5081,399.5
56.5139,688.4
56.5192,133
56.536,18.1
56.5417,637.3
56.5548,82.6
56.5741,127.4
56.5878,134.6
56.5908,160
56.6065,121.5
56.6217,146.5
56.6233,243.3
56.648,123.6
56.6527,263.9
56.6747,533.1
56.6878,41.6
56.694,407.9
56.7098,143.9
56.7119,639
56.7358,398
56.7458,330.4
56.7491,149.5
56.7548,15.5
56.7772,86.1
56.7803,300.5
56.7843,173.7
56.7852,91.5
56.7911,562
56.8024,16.3
56.8206,81.1
56.8249,208.1
56.8339,649.8
56.8367,299
56.8466,16.4
56.8499,328.8
56.8513,156.6
56.8556,189.9
56.8628,120.9
56.8857,148.9
56.889,16.3
56.8943,216.3
56.9002,395.7
56.9089,454.8
56.913,392.8
56.9164,42
56.9234,329.6
56.9289,190.5
56.9475,82
56.966,162.1
56.9743,88.5
56.9806,281.3
57.0044,21.9
57.0097,477.4
57.0209,146
57.0293,421
57.0311,199.9
57.0389,495.1
57.0968,368.9
57.0976,627.5
57.0986,360.1
57.1018,216.4
57.1111,18.5
57.1157,176.1
57.1372,305.4
57.1462,150.7
57.1608,371.6
57.1658,312.4
57.1664,221.1
57.1811,561.2
57.1841,535.2
57.2404,91.4
57.2427,209.9
57.2563,497.1
57.2638,17.8
57.2877,135.4
57.2908,354.4
57.2975,375.6
57.3097,48.6
57.3149,139.4
57.3292,387.3
57.3313,134.7
57.3403,251.5
57.3482,290.1
57.3517,295.4
57.3537,672.9
57.361,148
57.3665,86
57.3686,387.9
57.3867,424.7
57.3903,118.5
57.3969,15.6
57.4162,401.7
57.417,84.2
57.42,15.4
57.4263,267.4
57.4356,92.3
57.4391,17.6
57.4462,457.2
57.4468,130
57.4716,149.9
57.482,217.9
57.5026,117.4
57.5036,147.3
57.5151,17.5
57.5212,624.5
57.5223,102.6
57.5244,633.1
57.5267,171.5
57.5559,841
57.575,190.2
57.5922,17.8
57.595,641.6
57.5991,200.1
57.6047,136.2
57.6128,339.1
57.6369,170.1
57.6379,259.7
57.6507,237.8
57.6562,132.6
57.6808,15.5
57.7246,142
57.7378,347.7
57.7602,377.1
57.7668,409.4
57.7675,678.2
57.7765,261.4
57.8452,127.5
57.8467,194.7
57.8607,147.5
57.8648,218.8
57.8698,725.4
57.8702,119.6
57.8947,670.3
57.9348,17.6
57.9521,51.8
57.9715,269.2
57.9787,93.5
57.9995,322.7
58.0029,198.3
58.0062,554.9
58.0139,258.1
58.0173,17.9
58.0199,211.5
58.0216,533
58.038,18.1
58.0495,381.3
58.0517,664.9
58.0575,194.5
58.0634,203
58.0679,373.7
58.0705,74.5
58.0725,233.9
58.0806,494.9
58.0947,260.8
58.098,16.7
58.1041,140.2
58.1045,399.5
58.1087,94
58.1106,551.6
58.1251,295.8
58.1272,330.8
58.1446,300.5
58.1547,186.2
58.1624,37.3
58.1677,170.9
58.1983,15.1
58.2205,209
58.2211,120.8
58.2235,110.4
58.2363,139.4
58.2676,471.2
58.2832,570.2
58.2865,233.9
58.2992,20.3
58.2998,22.2
58.3487,200.9
58.35,264.1
58.3546,176
58.3553,350
58.3834,402.2
58.3853,16.3
58.3929,787.5
58.3996,17.5
58.4026,21.7
58.4474,168.8
58.4733,142.8
58.4862,391.9
58.494,249.6
58.5046,510.9
58.5096,151.9
58.5276,107.2
58.5367,269.8
58.5381,388.3
58.5396,120.2
58.5641,310.9
58.5691,104.8
58.643,150.5
58.6505,154.7
58.6533,349.1
58.6751,159
58.7064,193.6
58.7075,44.3
58.7252,179.3
58.7258,15.5
58.7378,258.2
58.7456,496.2
58.7531,720.1
58.7891,306.3
58.7973,16
58.8047,17.7
58.8264,15.9
58.8274,195.9
58.8444,678.6
58.8638,207.3
58.872,16.8
58.8936,16.6
58.9016,124.2
58.9224,82.6
58.9306,241.6
58.9329,356.8
58.9544,92
58.9674,147
58.9688,240.2
58.9835,227
58.9844,49.9
59.0019,15.9
59.0261,239.9
59.0484,157.7
59.0539,18.4
59.0673,368.5
59.0755,168.2
59.0921,656.4
59.0978,16.9
59.1011,291.5
59.1062,143
59.1314,106.2
59.1471,377.1
59.1571,235.7
59.1712,36.7
59.186,15.1
59.1873,129.7
59.1897,506.5
59.1931,393.9
59.1995,98.1
59.2109,181.3
59.2158,378.9
59.2388,106.3
59.2447,99.1
59.2511,312.4
59.2551,17.4
59.2585,374.9
59.2662,158.1
59.2885,590.7
59.2936,16.7
59.3,368.9
59.3302,35.8
59.3317,206.9
59.3486,394.4
59.3687,153.9
59.3872,104.1
59.4023,140.3
59.4054,306.7
59.4157,196.9
59.4208,177.9
59.4468,225.6
59.4529,19.7
59.4566,411.1
59.4867,100.5
59.5024,808.6
59.5089,738.4
59.5126,512.4
59.5225,316.4
59.5247,178.1
59.5339,97.1
59.5354,49
59.536,303.1
59.5375,84.4
59.5604,71.9
59.5751,138.4
59.5784,652.4
59.5903,327
59.5914,143.7
59.6024,164.7
59.6278,251.4
59.6395,91
59.6472,99.6
59.6557,311.6
59.658,532.7
59.6607,202.2
59.6609,164.7
59.6663,280.5
59.6738,442.3
59.6804,428.7
59.7058,276.6
59.7166,779.9
59.7462,656.4
59.7553,125.7
59.7584,133.9
59.7656,283.5
59.775,150.6
59.7877,373.2
59.7949,164.1
59.8035,115.2
59.8096,416.5
59.8203,358.7
59.8433,588.8
59.867,205.1
59.9269,547.1
59.9275,33.7
59.9294,527.9
59.9317,204.7
59.9444,247.1
59.9773,315.1
59.9897,350.3
60.0046,282.4
60.0292,16.5
60.0659,18.7
60.0687,473
60.0791,164.7
60.1278,147
60.1287,691.3
60.1338,516
60.1368,102.9
60.1451,360.3
60.1713,465
60.1884,114.9
60.2083,125.4
60.2316,109.8
60.2353,17.5
60.2369,226.7
60.2699,388.9
60.2734,167.6
60.2967,494.4
60.3013,106
60.3198,223.6
60.3214,270.8
60.325,81.4
60.331,195.5
60.3357,401.9
60.358,142.2
60.3635,21.6
60.3913,709.7
60.4089,600.4
60.4267,78.3
60.4271,129.7
60.4761,305
60.4791,228.1
60.4867,124.2
60.4973,100.9
60.5262,382.4
60.5324,439.9
60.5394,226.5
60.5427,39.1
60.5609,522.5
60.5737,146.6
60.5768,15.2
60.5776,190.7
60.6038,20
60.6075,89.4
60.6304,305.5
60.6391,295.5
60.6427,542.7
60.6448,305.6
60.6581,38.8
60.6613,20.3
60.6656,111.8
60.6668,77.4
60.6719,397
60.7115,129.2
60.7118,122.4
60.7162,255.3
60.7495,193.5
60.7604,144.4
60.7655,177.6
60.7788,21
60.7838,316.9
60.786,169.7
60.7965,481.1
60.8177,105.4
60.8372,312.2
60.847,405.1
60.8575,249.2
60.872,160.2
60.8723,665.8
60.877,418.8
60.8869,17.7
60.9087,157.2
60.9361,137.4
60.9379,248.3
60.9425,225.2
60.9467,161.1
60.9925,99.9
60.9957,160.8
61.0011,237.6
61.0136,343.8
61.0243,185.6
61.038,21
61.0497,164.4
61.0695,493
61.0733,105.9
61.0774,150.5
61.0957,143
61.1203,248.9
61.1245,144.8
61.1302,490.8
61.1449,239.4
61.1844,370.1
61.1888,136.3
61.1911,349.7
61.2102,16.7
61.2197,240.7
61.2208,79.5
61.2255,353.4
61.2298,635.2
61.2359,296.7
61.2475,75.5
61.2648,437.3
61.281,137.4
61.2964,16.9
61.2988,221
61.3138,148.8
61.3276,41.7
61.3648,98.5
61.3823,469.3
61.3844,347.5
61.3885,134.1
61.3948,145.2
61.4056,18.7
61.4062,179.3
61.4112,498.7
61.4342,155.9
61.4405,139.6
61.4485,764.2
61.4497,163.1
61.5029,232.6
61.5105,705.1
61.5132,390.6
61.5172,305.6
61.519,163.5
61.543,172.6
61.5523,271.1
61.554,193.4
61.5677,535.2
61.5698,180.8
61.5716,365.6
61.5724,154.7
61.5858,149
61.5921,244.8
61.6097,221.7
61.6115,372.6
61.6458,550.9
61.6527,41.1
61.6638,676.9
61.6796,421.1
61.6863,431.2
61.6878,363.1
61.6996,327.1
61.7002,146.3
61.7223,154.3
61.7258,450.3
61.7416,541.7
61.7493,447.7
61.7498,248.5
61.7535,107.2
61.7547,333.7
61.7687,19.8
61.7801,198
61.7858,108.6
61.7955,42.9
61.8038,332.1
61.8296,50.1
61.8302,42.2
61.851,484.6
61.8523,17.9
61.8669,487.3
61.8697,586.5
61.8698,508.7
61.8795,79.1
61.8833,443.1
61.8866,17.4
61.9013,177.8
61.9105,638.1
61.927,246.4
61.9401,92.4
61.9444,15.9
61.9486,567.9
61.95,280.5
61.9561,240.2
61.9988,353.9
62.0127,90.1
62.0283,734.4
62.0328,268.2
62.0607,22
62.0667,324.4
62.0806,118.6
62.0925,761.1
62.1134,576.3
62.1142,493.3
62.1276,316.5
62.1298,38
62.1459,524.1
62.1586,441.9
62.1806,465.8
62.2096,319.5
62.2196,18
62.2285,131.3
62.2385,352.6
62.2453,101.7
62.2477,239.9
62.2485,403
62.2554,109.6
62.2691,623
62.288,116.9
62.31,218.2
62.3115,17.1
62.3169,16.7
62.3178,175.3
62.3241,42.9
62.3308,330.3
62.3373,420.9
62.3572,267.2
62.3596,106.7
62.3648,218
62.3814,19
62.3941,180.6
62.4005,226.9
62.4742,152.2
62.4836,626.3
62.5026,89.8
62.5277,697.1
62.531,131.9
62.538,372.8
62.5776,19.7
62.5955,81.2
62.6381,381.2
62.6395,215.3
62.6811,17
62.6957,516
62.7012,173.5
62.7015,144.8
62.703,217.7
62.7135,146.1
62.7158,42.1
62.7302,769.6
62.7306,818.7
62.7314,397.2
62.7375,203.8
62.7406,469.2
62.7468,134.1
62.7513,120.3
62.7624,171.8
62.7697,342.1
62.774,188.5
62.7924,96.7
62.8055,760.6
62.8125,174.1
62.8523,515.4
62.86,80.7
62.8653,390.1
62.8832,269.5
62.8857,47.2
62.9028,322.3
62.911,354.5
62.9795,17
62.9958,225.8
63.0034,119
63.0128,131
63.0153,197.2
63.0222,111.8
63.0565,85.7
63.0594,511.4
63.0647,392.3
63.0663,557.9
63.071,92.7
63.0987,251.8
63.1393,326.9
63.1593,598.6
63.1696,492.7
63.1906,14.7
63.2051,680.4
63.2069,482.9
63.2109,317.2
63.2116,149.9
63.2196,401.9
63.2209,43.1
63.2351,315.1
63.2609,276.1
63.2778,338.2
63.2826,405.2
63.2936,404.3
63.299,19.2
63.3023,396.3
63.3035,175.1
63.3077,177.1
63.3172,96.5
63.3461,18
63.3806,84.6
63.3868,559.7
63.3914,161.5
63.4143,510.1
63.4179,154.5
63.432,839.2
63.4483,783.9
63.4499,32.5
63.4705,19.7
63.4765,151.8
63.4768,361.7
63.4815,109.5
63.4838,17.6
63.4896,83.4
63.5041,149.8
63.5215,162.6
63.5386,341.7
63.541,163.4
63.5621,163
63.5759,401.6
63.5798,117.6
63.5807,147.7
63.5821,38.7
63.5862,187.4
63.6009,717.5
63.6053,248.1
63.6231,495.2
63.6241,332.4
63.6284,16.7
63.6457,99.5
63.6585,267.9
63.6704,15.3
63.6831,530.2
63.6877,342.8
63.7109,324.2
63.7175,19.5
63.7216,122.2
63.7229,131.8
63.7477,109.3
63.7502,151.5
63.7682,871
63.7798,224.4
63.7883,164.1
63.7899,83.1
63.7969,164.3
63.8012,538.4
63.8059,263.6
63.813,230
63.8154,308
63.8275,17.2
63.8428,93.1
63.8497,517.8
63.853,76.6
63.8593,456.3
63.8623,397.3
63.8646,17.2
63.8668,554.6
63.8968,19.2
63.9011,131.8
63.9183,211
63.9219,336.9
63.9393,39.8
63.9559,254.3
63.9643,40.8
63.9742,51.1
63.988,23.1
63.9981,228.1
64.0077,517
64.0156,475.4
64.0371,151.7
64.0423,363.5
64.0516,100.3
64.072,134.3
64.0733,371.6
64.0841,239.3
64.0855,661.9
64.1265,108.3
64.1335,144.6
64.1429,297.3
64.1672,367.9
64.1723,397.3
64.1764,199.4
64.1877,260.5
64.1935,49.9
64.1966,167.8
64.2015,280.6
64.2193,200.9
64.2205,177.5
64.2218,376.6
64.2412,380.5
64.2481,340.1
64.2551,17.1
64.2578,101.2
64.2612,159.2
64.2828,234.1
64.2906,16.6
64.2938,22.2
64.2962,220.6
64.3019,457.1
64.3105,17.6
64.3152,129.6
64.3372,21.4
64.3438,613.6
64.3526,111.2
64.3694,100.9
64.3849,395.3
64.4013,119.9
64.4271,16.5
64.4339,373.7
64.4341,443.1
64.4342,290.4
64.4393,17.3
64.4456,696.5
64.4727,100.6
64.4734,528.3
64.4769,121.9
64.4817,150.3
64.4923,78.3
64.4957,23.8
64.5038,17.4
64.5108,520.1
64.5159,303.9
64.5255,81.3
64.5494,342.1
64.5618,40
64.6145,78.7
64.6158,155
64.6197,104
64.6204,517
64.6241,337.3
64.6392,78.3
64.6686,736.3
64.6706,240.5
64.6962,111.4
64.7038,146.6
64.7348,178.3
64.7382,603.3
64.7406,99.7
64.7436,101.4
64.7595,814.1
64.7613,108.9
64.767,404.2
64.7829,196.3
64.7927,670.4
64.7937,550.6
64.7971,280.9
64.7996,428.7
64.8239,284.2
64.8269,299.9
64.832,818.4
64.8613,193.4
64.8705,120.2
64.8893,326.5
64.9182,386.1
64.9237,178.2
64.9288,149.1
64.9348,320.9
64.9636,381.5
64.9691,95
64.9728,155.1
64.9732,41.6
64.9831,130.4
65.0081,216.1
65.0093,265.4
65.0146,612.6
65.0176,130.4
65.0329,95.8
65.043,124.4
65.0525,43.2
65.0533,303.1
65.0633,18.8
65.0715,130.9
65.0725,448
65.1204,137.7
65.1375,98
65.1404,374.9
65.1429,615.7
65.1471,296.5
65.1536,117.1
65.1554,333.3
65.23,16.4
65.2339,926.6
65.2384,97.6
65.2442,478.3
65.2604,488.1
65.2709,336.2
65.2747,79.5
65.297,83.3
65.309,147.7
65.3235,102.9
65.3262,86.1
65.3348,16.1
65.3409,19.9
65.3486,592.6
65.3707,343
65.3723,18.5
65.3964,359.9
65.4317,17.9
65.4477,361
65.4634,46.4
65.4717,133.9
65.4831,17.3
65.4846,82.6
65.5087,545.9
65.5258,289.7
65.5473,324.9
65.5519,174.8
65.5551,250.2
65.563,412.4
65.5717,750.3
65.5734,104.5
65.5747,376.5
65.5782,241.3
65.5877,524.2
65.6075,44.8
65.6129,413.6
65.6204,287.8
65.6246,524.3
65.64,485
65.6448,92.7
65.659,131.9
65.689,58.9
65.7101,356.5
65.7176,557.3
65.7594,143.8
65.7659,745.6
65.7885,16.9
65.7941,188.8
65.8152,379.8
65.8164,18.7
65.8185,107.5
65.898,190.3
65.9016,145.2
65.9131,19
65.9256,443.7
65.9614,304.9
65.9658,626.4
66.0058,612.1
66.0092,400.5
66.0272,693.1
66.0379,147.2
66.0475,16.1
66.0859,140.3
66.1055,283.8
66.1443,157.4
66.1451,141.1
66.1755,334.4
66.1766,178.8
66.1961,286
66.2039,313.8
66.2359,393.4
66.2621,309.6
66.2642,129.3
66.2679,100.6
66.2966,964.8
66.2985,220.3
66.3054,527.3
66.3146,367.1
66.3251,228.6
66.3275,19
66.3399,283.2
66.3412,117.5
66.3531,147
66.3559,17.7
66.358,194.4
66.367,697.4
66.3694,307.8
66.3895,171
66.3975,143.3
66.4183,175.3
66.4212,102.3
66.4265,325.8
66.4359,359.8
66.4571,21.1
66.47,424.8
66.4723,14.3
66.4732,213.1
66.4967,193.9
66.507,20.7
66.5286,227.3
66.5436,99
66.5653,15.9
66.5679,471.1
66.5684,20
66.5873,155.6
66.5892,249.6
66.605,661.4
66.6089,184.6
66.6144,333.9
66.618,731.2
66.6246,836.1
66.6256,17.6
66.643,261.7
66.6715,233.1
66.6722,347
66.6753,125
66.6757,280.5
66.6892,75.1
66.6895,72.1
66.6932,201.8
66.6944,147.3
66.6989,181.6
66.7292,152.9
66.7377,682.3
66.7463,425.8
66.7537,75.2
66.7547,328.4
66.7595,210.1
66.8127,156.3
66.8331,245.2
66.852,369.3
66.8562,159.8
66.861,721.6
66.8692,201.7
66.8759,16.5
66.8807,322.7
66.8941,286.2
66.9033,41.8
66.9098,421.3
66.931,42
66.9421,726.5
66.9629,18.4
66.9637,17.9
66.9902,335.5
66.9996,273.8
67.0157,81.2
67.0245,237.6
67.0335,191.6
67.0481,215
67.0539,26
67.0658,168
67.0762,90.9
67.0988,53.2
67.113,152.2
67.1135,361.9
67.1213,244.3
67.1225,20.7
67.1309,252.8
67.1419,415.5
67.1635,494.6
67.1646,152.7
67.1712,753.7
67.1961,15.4
67.2048,120.4
67.2051,117.3
67.2075,280.8
67.2164,151.1
67.2232,205.1
67.2236,344.6
67.2354,122.6
67.2361,17.8
67.2396,267.7
67.2404,343.1
67.2412,282.4
67.2487,222.9
67.2529,154.4
67.2594,441.3
67.2696,138.5
67.2776,15.3
67.3063,239.2
67.3391,201.4
67.3461,123.7
67.349,197.4
67.3675,18.8
67.3801,175
67.3818,353.6
67.4028,735.1
67.42,226.2
67.4264,403.8
67.4268,816
67.4397,205.2
67.4515,451.2
67.4608,20.5
67.4685,100.7
67.4773,234.5
67.481,348.6
67.4901,133.7
67.4921,191.2
67.4976,40.7
67.4987,494.8
67.5377,100.8
67.5449,300.1
67.5555,130.6
67.5568,258.6
67.5589,444
67.5945,424.8
67.605,302.4
67.6075,87.5
67.6086,362.1
67.6383,149.1
67.6447,46.6
67.6517,281.9
67.6634,801.1
67.6761,429.8
67.6967,590.4
67.7033,342.3
67.7098,200.3
67.7488,20.8
67.7515,310.3
67.7736,240
67.7777,344.3
67.8055,74.4
67.8408,354
67.8441,52.4
67.8526,152.4
67.8848,159.5
67.9402,264.6
67.9416,495.6
67.9456,178.3
67.9474,258
67.9554,16.6
67.9821,86.6
67.9846,146.2
68.0297,18.4
68.0404,399.6
68.0429,370
68.0494,346.3
68.0663,17.4
68.0726,337.4
68.0869,16.2
68.0872,16.4
68.098,18
68.1083,585.2
68.1456,22.4
68.2227,254.6
68.2233,309.4
68.2305,605.4
68.2436,178
68.248,511.3
68.2547,179.7
68.2811,375.9
68.2979,161.2
68.2999,172.4
68.3398,212.6
68.3606,285.7
68.3666,218.9
68.3743,351.6
68.436,354.7
68.4556,107.8
68.4836,330.7
68.4864,953.2
68.4955,187.4
68.4986,47.1
68.5063,19.7
68.5235,495.8
68.5339,20.7
68.5652,460.9
68.5694,313.4
68.5698,338.1
68.5804,113.7
68.5963,133.9
68.6173,664.9
68.6289,19.6
68.6353,17.7
68.6474,171.1
68.6605,241.3
68.661,504.2
68.6727,133.4
68.6903,139.6
68.7674,22.1
68.7699,251
68.7715,133.3
68.7811,207.4
68.7836,20
68.7841,567
68.7868,712.8
68.7919,186
68.7929,703.1
68.8164,597.4
68.8171,211.9
68.839,142.5
68.8452,145.6
68.8757,559.8
68.9071,252.1
68.9127,203.9
68.9253,175.6
68.9682,352.5
69.0042,358.9
69.0283,99
69.0307,118.8
69.032,394.2
69.0348,301.3
69.062,77.5
69.0966,18
69.1079,16.7
69.112,17.5
69.1291,132.9
69.1324,237.3
69.1434,18.3
69.1659,161.1
69.1693,469.5
69.1835,158.8
69.1926,51.6
69.201,210.7
69.2457,244
69.2779,218.6
69.2839,17.8
69.2953,158.3
69.3058,341.9
69.3091,259.1
69.3102,114.8
69.3187,319.9
69.3296,201.3
69.3448,441.1
69.353,286
69.3543,333.6
69.3715,477.5
69.3717,466.9
69.3872,90.8
69.4364,340.6
69.4586,618.4
69.4895,159
69.4959,202.5
69.5181,256
69.5276,237.5
69.5364,820.4
69.5496,122.2
69.5536,460.6
69.5721,18
69.5803,191.2
69.5823,143.2
69.5887,482.7
69.5983,17.8
69.6249,159.9
69.6591,490.6
69.6649,186.8
69.6841,539.3
69.6972,52.3
69.7055,142.4
69.7065,146.7
69.7132,186
69.7257,20.4
69.7442,172.6
69.7513,103.3
69.8096,284.8
69.8181,444.7
69.8609,586.2
69.8751,354.4
69.897,547
69.9434,19.6
69.9518,473.3
69.9557,402.7
69.9583,308
69.9645,52
69.9665,520.7
69.9867,16.4
70.023,349.4
70.0269,569.9
70.0293,78.2
70.0362,366.7
70.0367,359.5
70.0528,43.2
70.0611,447.8
70.0885,122.8
70.0895,173.9
70.1113,475.7
70.1229,574.1
70.1348,492.9
70.169,246.6
70.1707,154.2
70.1889,82.8
70.2133,395
70.2363,19.2
70.2891,156.5
70.2969,138.3
70.2987,109.5
70.3018,90.2
70.3068,268.2
70.3096,44.1
70.312,419.7
70.3161,550.5
70.3456,540.5
70.3508,440.7
70.3595,281.2
70.3658,97.3
70.373,363.3
70.4069,720.8
70.418,163
70.4349,408.7
70.4516,278.7
70.4555,425.4
70.4611,111
70.4664,906.9
70.468,298.7
70.4715,127.3
70.492,16.4
70.5122,19.4
70.5355,683.5
70.5391,39.3
70.5668,103.4
70.5837,107.7
70.6119,299
70.6524,485.4
70.6653,136.5
70.668,181.2
70.6733,166.1
70.6778,220.7
70.6842,532
70.6956,17.5
70.6969,484.1
70.7187,179.4
70.7224,82.8
70.7344,244.4
70.7376,330
70.7399,291.2
70.7413,617.1
70.7448,105.3
70.7652,478
70.8032,168.8
70.8167,258.4
70.8195,854.1
70.8253,687.8
70.8326,375.2
70.8422,16.2
70.8632,385
70.8787,728.9
70.883,328.6
70.8898,364.7
70.9033,131.8
70.9138,794
70.9211,116.7
70.9216,120.5
70.9352,102.6
70.9567,421.2
70.9733,322.5
70.979,489.7
70.991,365.3
71.012,20.9
71.0373,18.5
71.0586,486.3
71.0697,174.4
71.0946,145.6
71.0982,134
71.1249,235.7
71.1333,400
71.1579,195.2
71.169,107
71.1801,21
71.1852,238.9
71.2267,452.9
71.2333,101.7
71.2512,544.3
71.2568,96.1
71.2666,98.7
71.2713,386.1
71.3031,18.2
71.3039,257.1
71.3096,177.5
71.3168,127.2
71.351,18.1
71.3523,41.8
71.3828,279.9
71.4049,731.4
71.4056,219.9
71.4088,230.6
71.4357,46
71.4395,138.3
71.4882,18.5
71.5009,16.9
71.513,233.7
71.5227,260.7
71.5236,20.3
71.5263,106.4
71.5322,135.1
71.5583,118.7
71.5882,17
71.6227,143.7
71.6266,415.9
71.6297,234.8
71.6369,196
71.6569,148.1
71.6682,296.7
71.6724,301.3
71.6947,372.5
71.6971,477.3
71.7241,381.6
71.7662,109.1
71.7685,189.9
71.7853,196.6
71.7867,813.7
71.7886,552.4
71.7898,331.7
71.8221,533.4
71.828,418.9
71.8281,407.9
71.8329,118.8
71.8403,19.7
71.848,178.9
71.8567,101.4
71.8574,164.1
71.858,79.7
71.8791,134.6
71.9071,40.1
71.9269,168
71.9305,16
71.9341,101.2
71.9364,323.6
71.9485,371.8
71.972,201
71.9831,159.8
71.9839,247.9
71.9857,245.6
72.0025,136.8
72.0384,244.5
72.0521,674.5
72.0564,427.5
72.0606,304.8
72.0659,96.5
72.0805,523.2
72.0834,119.1
72.0916,20.4
72.0937,278.5
72.1053,194.5
72.123,134.9
72.1261,204.9
72.1607,259.4
72.1726,47.4
72.1917,114
72.1978,18
72.2015,390.7
72.2084,172.3
72.2132,140.5
72.2176,266.6
72.2183,112.6
72.2205,163.6
72.2214,81.7
72.222,321.9
72.2228,169.4
72.2234,492.9
72.224,558.4
72.225,842.7
72.2257,852
72.2268,1114.4
72.2272,1098.5
72.2282,1023.6
72.2294,1105.8
72.2301,1234.7
72.2305,786.2
72.2309,595.7
72.2317,639.6
72.2326,2198.1
72.2331,2515.7
72.2341,2150.3
72.2346,2776.2
72.2353,3008.4
72.236,3371.1
72.2365,3704.3
72.2374,1981.9
72.2382,1701.1
72.2385,1986
72.2396,1977.8
72.2409,2658
72.2414,4476
72.2421,2499.1
72.2427,3378.1
72.2438,944.8
72.2444,2224.7
72.2451,1192.2
72.2463,267.3
72.247,421.2
72.2479,675.9
72.2511,1526.9
72.2527,418.3
72.2644,252.3
72.2783,239.4
72.2954,172.3
72.3331,203.5
72.3413,18.7
72.3621,138.2
72.3847,18.4
72.3923,360
72.4032,148.4
72.4392,273.5
72.4555,281
72.4617,350.7
72.4934,294.6
72.4954,578.4
72.5014,299
72.5071,592
72.5246,181.2
72.5288,435.9
72.5295,103.8
72.5299,86.1
72.5405,144
72.5536,87.4
72.5866,414.8
72.5994,341.9
72.6022,77.8
72.6462,37.4
72.6518,19.2
72.6525,115.8
72.658,358.3
72.6628,491.9
72.6686,16.5
72.6943,129.1
72.6964,291.9
72.6978,248.2
72.7021,406.9
72.7036,665.7
72.7149,88.5
72.7269,495.1
72.7292,210.5
72.7561,123.9
72.8091,44.7
72.8235,472.5
72.8309,19
72.8331,175.2
72.8429,38.8
72.8464,41.5
72.8517,134.8
72.8542,247.9
72.8667,363.9
72.875,563
72.9217,41.8
72.9249,267.5
72.9256,151.9
72.9409,205
72.9431,176.6
72.9508,343.7
72.964,112.6
72.9856,247.9
73.012,309.5
73.013,154.9
73.0248,142.8
73.0356,135.8
73.0422,164.1
73.0546,90.7
73.1006,551.5
73.1354,20
73.207,326.9
73.2126,42.1
73.2298,268.6
73.3402,178.8
73.3504,447.9
73.3622,81.6
73.3646,105.6
73.3804,148.9
73.3911,98.7
73.4079,17.5
73.4095,98.7
73.4166,254.9
73.4428,261.7
73.4721,19.1
73.4978,244.6
73.5067,18.7
73.5164,114.6
73.5178,716.9
73.5319,739.6
73.5542,151.5
73.5669,108.1
73.5688,18.4
73.5713,341.2
73.5804,22.1
73.5945,493
73.6065,192.8
73.6123,149.7
73.6148,300.4
73.6711,167.8
73.6966,121.2
73.7134,142
73.7146,282.8
73.7296,146.6
73.7457,128
73.7492,260.3
73.7594,17.3
73.7653,220.1
73.7792,501.9
73.7936,503.8
73.8088,617.1
73.8134,102.4
73.8182,668.5
73.8355,262.2
73.8426,245.8
73.8445,643.2
73.8537,175.7
73.8863,686
73.8997,376.2
73.9189,563.8
73.9243,739.5
73.9289,17.6
73.931,38.1
73.946,162.7
73.9567,360.6
74.0465,370.4
74.0553,437.4
74.0598,2152.5
74.069,539.8
74.0762,471.1
74.079,411.3
74.0981,18.8
74.1119,128.9
74.1136,231.6
74.1419,513.6
74.1556,41.9
74.1578,367.6
74.162,19
74.1632,177
74.1821,369.6
74.2062,41.6
74.2113,395.2
74.2484,876.8
74.2544,252.9
74.2558,578.1
74.2708,487.6
74.2713,483.7
74.2739,712
74.2911,150.8
74.2923,244.4
74.2996,367.7
74.305,153.7
74.3132,791.5
74.3213,398.2
74.3261,307.6
74.3379,301.5
74.3823,223.5
74.4132,243.3
74.4169,78.4
74.4244,22.5
74.4525,194.9
74.4705,524.2
74.4767,683.9
74.4903,132.5
74.5111,277.1
74.5117,710.6
74.5202,135.2
74.5238,143.4
74.5413,85.6
74.5908,155.6
74.615,493.4
74.6158,174.7
74.6185,164.2
74.6196,690
74.6267,15.9
74.6302,158.5
74.6494,139.4
74.6962,184.5
74.7504,306.8
74.7549,258.9
74.7588,17.4
74.7684,136.9
74.7841,157.5
74.7895,414.8
74.8285,346.9
74.8951,237.1
74.9133,238.6
74.9208,192.9
74.9641,85.9
74.9679,87.8
74.9685,41.6
74.9747,146.1
74.9816,288.2
74.983,80.5
74.9881,110.6
74.9913,173.2
75.0023,329.5
75.0122,295
75.0128,174.7
75.0217,518.3
75.0227,21.6
75.0693,92.3
75.0818,19.9
75.1109,365.7
75.1139,307.7
75.1225,18.3
75.1292,95.4
75.1343,524.1
75.137,430.2
75.1584,301.1
75.172,608.9
75.1735,244.4
75.1941,145.4
75.2143,147.4
75.2429,140.9
75.2454,322.9
75.2506,660.1
75.258,323.3
75.2797,163.9
75.2928,248.8
75.3023,142.9
75.3079,102
75.3211,283.9
75.3249,555.6
75.3381,82.7
75.3591,417.5
75.3994,145.5
75.4119,353.2
75.4838,139.7
75.523,189.2
75.528,236.3
75.5293,191.1
75.5349,134.2
75.5574,106
75.5588,334.7
75.5657,248.4
75.5855,138.9
75.5937,96.6
75.5975,138.3
75.6254,19.4
75.6574,215.2
75.6735,153.7
75.6768,18.8
75.6783,387.2
75.6791,248.1
75.69,396.6
75.7179,17.2
75.7824,254.8
75.8143,116.7
75.8402,421.8
75.8472,161
75.8533,25.7
75.8539,259.2
75.8656,110.8
75.8685,112.9
75.8711,354.9
75.8733,366.4
75.9146,104.8
75.9456,16.4
75.9704,156
75.982,586.1
75.9858,700.6
76.0181,263.8
76.0306,18.3
76.0401,266.9
76.0472,500.8
76.0641,269.3
76.0855,17.4
76.0917,228.9
76.1069,313.1
76.1433,208.4
76.1601,453.8
76.1626,192.4
76.1656,347.7
76.1717,423.9
76.1741,96.8
76.1925,310.7
76.1945,25.6
76.2104,328.1
76.2213,146.7
76.2266,17.8
76.2347,147.3
76.2377,305.8
76.2742,418.1
76.2748,20.6
76.2801,19.5
76.2851,166.8
76.2951,183.4
76.2998,337.4
76.3137,160.8
76.3221,129.1
76.3305,190
76.3377,573.9
76.3715,635
76.3804,605.3
76.3849,623.5
76.3862,161.4
76.3965,17.8
76.4016,157.6
76.4023,218.1
76.4072,79
76.4088,197.8
76.4179,188.7
76.4538,328.5
76.4869,242.9
76.5217,16.6
76.524,41.2
76.5344,144.1
76.555,89.4
76.5569,184.1
76.5701,174.9
76.5969,99.7
76.6071,179.7
76.615,95.6
76.618,104.4
76.6493,97.7
76.6636,19.7
76.6691,294.9
76.6927,242.6
76.6979,150.4
76.7168,231
76.737,116.4
76.7495,309.1
76.7543,17.9
76.7682,170.9
76.7812,167.2
76.7986,127.4
76.8043,132.1
76.8049,344.8
76.8093,17.3
76.8171,224.9
76.8462,149.1
76.8501,109.1
76.8841,368
76.8969,92.4
76.9062,206.4
76.9075,181.7
76.9397,40.8
76.9526,365.5
76.9609,438.7
76.9712,209.3
77.0229,123.8
77.0325,111.1
77.0345,358.6
77.0351,237.7
77.0372,497.3
77.0383,109968
77.0394,18.1
77.0688,246.7
77.0745,715.9
77.0904,147.9
77.1136,126.7
77.1165,155.8
77.1293,622.6
77.1408,18.1
77.1469,414.5
77.1503,115
77.1509,150.2
77.1599,282.9
77.1689,318.9
77.1738,228.3
77.1952,257.7
77.2068,433.5
77.21,139
77.2148,350.4
77.2206,723.6
77.2447,16.5
77.2455,145
77.2466,607.7
77.251,106.7
77.2525,186.4
77.2542,250.4
77.2671,535.2
77.2893,425.6
77.2978,319.5
77.2997,19
77.3019,949.4
77.323,103.6
77.3239,307.6
77.3297,157.5
77.3409,184.7
77.3543,251.4
77.3705,218.4
77.3719,538.5
77.391,15
77.42,17.2
77.4265,306.3
77.4346,547.6
77.4767,251
77.4882,160.8
77.5251,197.3
77.5332,328.6
77.534,183.7
77.5365,513.4
77.5423,308.1
77.587,485.5
77.6294,775.1
77.6377,451.8
77.6476,19
77.6511,87.9
77.6627,244
77.6712,83
77.6795,144.6
77.696,90.4
77.6987,374.3
77.7175,286.8
77.7252,127
77.7288,202.1
77.7802,337.7
77.8039,124.7
77.8552,594.7
77.8574,124.8
77.8803,400.6
77.9023,46.7
77.9061,196.4
77.9507,252.6
77.9824,219.3
78.0142,345.1
78.0388,104
78.0417,3883
78.0429,54.9
78.0594,87.2
78.1025,121.7
78.1062,17.8
78.1183,78
78.1589,194.8
78.1834,172
78.188,103.9
78.228,457.2
78.241,283.2
78.2552,94.3
78.2583,519
78.2878,163.7
78.2965,144.9
78.2992,561.7
78.3299,86.2
78.3323,243.3
78.3503,469.4
78.3606,159.2
78.3627,323.3
78.3705,335.4
78.3736,17.6
78.3938,111
78.4252,187.4
78.4591,511.2
78.4823,85.1
78.4871,276.5
78.5591,20.7
78.5853,181
78.6356,18.9
78.6685,43.9
78.68,253.1
78.6852,369.8
78.6928,322.2
78.6976,89.8
78.7245,19.8
78.734,258.9
78.7496,246.3
78.7995,199
78.8033,43.1
78.8039,213.9
78.8236,297.9
78.8327,16.7
78.8525,158
78.8591,16.8
78.8788,144.7
78.9067,390
78.9164,87.8
78.9179,300.1
78.921,17.3
78.9357,132.4
78.9968,239.7
79.0053,303.9
79.0514,121.9
79.0539,1797.6
79.0658,78
79.0661,79.1
79.0893,265
79.097,40.8
79.1051,407.5
79.1082,43.5
79.1439,18.3
79.1519,408.7
79.1592,154.7
79.1847,129.7
79.2154,409.8
79.2167,436
79.228,410.8
79.2514,608
79.2526,150.5
79.2605,17.3
79.2789,17.7
79.2827,337.6
79.2915,756.7
79.3349,75.7
79.3404,172.8
79.3729,180.4
79.3813,154.9
79.3933,225.8
79.3963,344.3
79.4254,16.4
79.4308,159.9
79.4325,196.7
79.4376,712.5
79.4403,188.6
79.442,162
79.4546,518.6
79.4748,132.6
79.4825,444.9
79.4886,353.3
79.4959,180.3
79.5131,262.8
79.5281,89.8
79.5483,391.5
79.5498,179.4
79.6124,19
79.6253,250.3
79.6434,214.7
79.6934,16.2
79.7124,96.8
79.7306,165.4
79.7355,339.3
79.7451,355.9
79.7576,603.4
79.7606,136.9
79.7766,121
79.7945,18.4
79.8671,79.3
79.8722,240.7
79.89,123.3
79.8928,403.8
79.9169,637.4
79.9196,254.4
79.9223,521.7
79.9264,171.7
79.9275,236.6
79.9652,146.5
79.9798,243
79.9821,17.3
79.9975,129.1
79.9991,400.3
80.0091,188.6
80.0194,123.5
80.0344,169.8
80.0413,153.6
80.0576,43.7
80.0581,42.8
80.0595,20.4
80.0685,781.4
80.0768,402.4
80.0796,673.2
80.1259,239.7
80.1551,148.3
80.1725,668
80.187,386.1
80.1891,20.3
80.232,95.3
80.2335,296.7
80.2361,252.4
80.2379,142.2
80.2432,174.9
80.2638,93.4
80.2725,153.8
80.3022,158.5
80.3094,100
80.3609,603.5
80.4379,90.3
80.4426,278.8
80.4468,481.1
80.4516,100.6
80.4533,239.6
80.4628,218.2
80.5127,171.9
80.5212,163.8
80.5385,230.4
80.5692,531.8
80.6266,352.5
80.64,97.6
80.6497,620.2
80.6833,361.6
80.6926,203.6
80.7228,19.9
80.739,505
80.7577,178.1
80.8197,396.6
80.8325,93.5
80.8458,234.6
80.8468,291
80.8699,372.7
80.8729,250.1
80.874,193
80.8936,475.1
80.9163,315.2
80.9326,18
80.9476,59232.7
80.9562,929.9
80.9676,322.8
80.9707,194.9
81.0078,177.4
81.0197,322.7
81.026,103.3
81.0277,23.4
81.0301,91.1
81.0355,141.8
81.041,151.4
81.0437,96.9
81.0474,789.5
81.0696,1032.8
81.0939,433.4
81.0958,325.5
81.0985,239.9
81.1065,240.7
81.119,223.7
81.1345,20.8
81.1403,461.6
81.1442,582.2
81.1457,873
81.147,458.9
81.148,389
81.1514,167.4
81.1521,138.5
81.153,157.1
81.1747,254.9
81.1782,362.4
81.1797,358.8
81.1984,106
81.2166,52.1
81.2174,300.4
81.2347,312.8
81.244,16.4
81.25,507.3
81.2806,143.1
81.2847,16.9
81.3071,242.7
81.3147,259.2
81.3442,622
81.3484,267.1
81.3561,300.6
81.3689,277.4
81.376,77
81.4109,213.7
81.4232,16.9
81.4286,83.6
81.4621,99.5
81.5353,333.6
81.5364,162.2
81.5407,817.4
81.5434,16.1
81.5528,105.4
81.5538,178.4
81.5779,159.6
81.5886,178.8
81.5911,40.8
81.6103,249.4
81.6142,236.5
81.6652,253.9
81.6816,691.9
81.6912,433.9
81.7147,16.3
81.7166,235.4
81.7515,17.6
81.7543,183
81.7703,107.3
81.7722,181.2
81.8431,182.7
81.867,457.3
81.8773,21.5
81.915,281.1
81.9236,276.9
81.9584,19
81.9672,497.5
81.983,205.8
81.9911,17
82.0034,276.1
82.0075,17.3
82.0481,180.8
82.073,17.9
82.0739,101.3
82.0794,97.4
82.0813,19.4
82.149,349.4
82.1527,186
82.1643,22.5
82.1658,19.3
82.1905,301.8
82.2217,152.7
82.2255,297
82.2629,118
82.2675,246.6
82.2851,137.3
82.2866,41.4
82.295,184.5
82.3079,17.2
82.3132,276.3
82.323,164
82.3263,17.1
82.3305,18
82.339,283.1
82.3458,189.5
82.3566,376.1
82.3589,368.6
82.3747,16.3
82.3886,279.1
82.403,305.6
82.4055,166.3
82.4092,257.3
82.4257,372.1
82.4279,188.9
82.429,18.5
82.4481,17.8
82.4568,266.1
82.4607,224.7
82.4786,583.1
82.5116,202
82.5858,302.8
82.5916,302.7
82.6027,373
82.6225,420.4
82.6425,507.4
82.6446,245.4
82.6688,17.6
82.6913,190.2
82.6984,182.5
82.7061,16.7
82.7262,167.1
82.7363,346.1
82.7562,327.4
82.7855,19.9
82.7902,618.6
82.8092,271.3
82.8136,474.5
82.8452,105.3
82.8521,467.3
82.8586,413.5
82.872,293.7
82.8845,75.2
82.9013,283
82.9208,115.6
82.9332,242.5
82.9447,15882.1
82.975,180.7
82.9838,396
82.9855,369.3
82.9944,17.9
83.0186,198.6
83.0604,174.1
83.069,501.7
83.0757,19.5
83.0823,91.1
83.0836,155.8
83.0853,28.3
83.1021,41.9
83.1059,290.3
83.1245,282.4
83.1285,190.3
83.1457,227
83.1533,121.8
83.184,288.4
83.2183,208.8
83.2771,95.1
83.2899,216
83.3048,238.8
83.3422,107.1
83.3492,570.2
83.3543,312.8
83.3554,131.7
83.3722,346.8
83.3901,726.9
83.3945,401.8
83.417,43.8
83.4253,210.9
83.426,75.8
83.4277,585.8
83.4362,252.7
83.4566,108.4
83.4664,623.8
83.4747,17
83.4885,129.9
83.4914,18.3
83.5187,17
83.5195,258
83.5457,86.8
83.5692,349.2
83.5711,171.4
83.5884,16.9
83.5898,338.8
83.5989,44.5
83.6185,16.6
83.6277,533.8
83.648,268.8
83.6565,371.2
83.6571,645.5
83.6664,158.3
83.6684,18.1
83.7373,131.1
83.7543,204.2
83.7627,578.8
83.8289,200.5
83.8326,286.6
83.8877,92.4
83.8927,112.1
83.9156,281
83.9297,509
83.9417,294
83.9619,184.4
83.9777,240.6
84.0441,333
84.0679,438.4
84.0855,623.2
84.0913,174
84.1069,17.7
84.1218,500.3
84.1311,418.1
84.1601,605.1
84.1883,196.3
84.1963,228.1
84.2311,604
84.2494,20.1
84.284,18
84.3189,164.2
84.3258,18
84.3272,103.2
84.3457,563
84.356,334.8
84.376,148.1
84.3934,269
84.4195,768.5
84.4309,545.2
84.456,16.8
84.4828,128
84.4886,705.6
84.5048,158.4
84.5381,340.5
84.5584,100.2
84.5717,360.8
84.7026,259.4
84.7119,279.3
84.7536,165.1
84.7665,320.8
84.771,151.6
84.7826,634.6
84.7885,148.4
84.8273,191.2
84.8292,297.9
84.8309,15.7
84.8416,566
84.8467,198.2
84.8769,569.6
84.8836,377.9
84.896,471.5
84.9311,410.9
84.9424,409
84.9544,17.3
84.9595,15355
84.9817,735.4
84.9847,86.4
85.0228,154
85.0241,475.4
85.0257,265.4
85.0282,984.4
85.0292,162.2
85.0454,20.4
85.0795,357.6
85.1097,151.5
85.1362,305
85.1493,142.4
85.1589,289
85.1663,205.6
85.1835,21
85.185,19.4
85.1903,21.4
85.2128,133.7
85.2305,379.4
85.2384,368.1
85.2483,80.8
85.2765,800.8
85.2778,19.6
85.3045,298.4
85.3388,409.4
85.3674,131.9
85.3735,303.5
85.42,111.3
85.4338,92.1
85.4373,136.1
85.4695,133.3
85.4701,142.6
85.4772,351
85.5014,45.2
85.5289,185
85.5332,88.5
85.5473,267.4
85.5488,100.2
85.5692,15.9
85.5728,534.7
85.6049,19.1
85.6261,172.7
85.7033,135.8
85.712,313.2
85.7214,41.6
85.7276,123
85.7574,262.8
85.7752,455.6
85.7903,220.7
85.8178,105.7
85.8192,19.1
85.8688,207.6
85.8733,102.2
85.8981,433.5
85.9188,523.8
85.9468,156.1
85.9485,373.5
85.9524,641.7
85.961,101.8
85.9763,139.7
85.9801,438.7
85.9821,158
86.0063,458
86.0163,304.8
86.0598,26210.3
86.0634,170.8
86.0962,150782.9
86.1091,438
86.1119,306.3
86.1288,240.7
86.1295,223
86.131,142.9
86.1325,163
86.1714,678.1
86.1766,559
86.1826,480
86.2064,760.9
86.2336,538.8
86.24,268.5
86.2592,548.4
86.2747,218.4
86.309,378.2
86.3209,311
86.3365,139.7
86.366,544.9
86.3722,345.9
86.3856,18.8
86.4003,215.1
86.4338,423.6
86.4347,232.4
86.4552,106.4
86.468,436.6
86.4834,168.6
86.5143,377.3
86.5485,800.2
86.5536,391.7
86.563,679.5
86.5919,321.5
86.5947,711.6
86.6513,373.1
86.6695,292.2
86.6782,545.8
86.7817,146.4
86.7947,156.9
86.8153,294.3
86.8439,376.9
86.8745,48.5
86.9131,371.3
86.9139,99.3
86.9392,325.4
86.9419,263.9
86.9838,144.4
86.9943,176.7
86.9998,281.9
87.0389,175.1
87.0446,162.7
87.0459,15.5
87.0536,17.1
87.0723,144.4
87.0995,1190.8
87.1027,358
87.1107,246.5
87.119,196.3
87.1203,216.2
87.1276,100
87.1349,345.6
87.1378,119.3
87.1583,146.7
87.1936,24.6
87.2044,672
87.2089,602.7
87.2267,489.1
87.2301,46.5
87.2431,17.5
87.2639,49.4
87.2738,16.6
87.2862,318.6
87.3064,79.1
87.308,180.5
87.3248,187.5
87.338,197.1
87.3535,239.5
87.388,180.3
87.3903,735.4
87.409,17.5
87.4609,464.7
87.4624,444.5
87.5219,171.4
87.5271,409.6
87.5358,221.5
87.5453,362.3
87.5638,688.3
87.5786,107.3
87.6104,251
87.6111,581.7
87.6424,413.7
87.6695,388.1
87.6705,189.6
87.7029,275.2
87.7347,22
87.7895,82
87.7944,156.9
87.7967,533.9
87.8218,101.2
87.8271,80.9
87.872,17
87.8843,390.3
87.9296,210.1
87.9325,187.3
87.9338,137.5
87.9377,85.2
87.9569,95.2
87.992,47.3
88.0046,116.5
88.0113,21.1
88.0317,444.2
88.0346,24.5
88.0391,6850.1
88.0952,141.6
88.098,104.8
88.1003,185.2
88.1262,748.9
88.1488,171.4
88.1681,179.1
88.1787,431.4
88.182,315.1
88.209,131.7
88.2219,550.5
88.2257,486.9
88.2302,561.4
88.2319,142.4
88.2451,89.4
88.2568,303.5
88.2587,16.7
88.2651,159.8
88.2758,355.3
88.3083,252.6
88.3268,423.4
88.3665,232.9
88.4172,97.3
88.4302,374.8
88.4583,184.9
88.4596,108.8
88.4866,174.6
88.4883,232.9
88.4899,334
88.5166,100.5
88.5217,365.1
88.5459,18.9
88.5837,307.9
88.6291,161.6
88.63,18.3
88.6456,398.1
88.6678,375
88.6724,352.8
88.6897,21.4
88.6952,392.5
88.7082,354.4
88.7218,17.9
88.7632,17.6
88.7642,73.9
88.7841,712.4
88.8032,155.7
88.9375,891.9
88.9436,401.7
88.9454,108.8
88.9643,289.5
88.9691,163.1
88.9739,143.3
88.995,21.6
89.0109,302.3
89.0469,91
89.0482,494.6
89.0596,23
89.0633,153.9
89.0703,20.3
89.1339,496.7
89.1896,370.2
89.1967,17.8
89.2106,157.3
89.2172,266.6
89.2254,354.9
89.2309,107.6
89.2387,17.4
89.2408,91.9
89.2601,659.2
89.2745,151.3
89.2876,23.8
89.3007,325.3
89.3175,607.1
89.3206,139.2
89.3258,19
89.3399,16.6
89.355,167.3
89.4093,17.5
89.4149,15.7
89.4205,18.9
89.471,17.3
89.4751,196.1
89.4972,247.6
89.516,348.2
89.6417,41
89.6642,154.5
89.6859,148.7
89.6913,20.8
89.6972,148
89.7692,169.5
89.7827,187.1
89.7966,20
89.8231,19.8
89.8277,20.1
89.8527,244.8
89.8843,516.2
89.9046,20.9
89.9087,648.6
89.9981,333.3
90.0016,220.4
90.0055,236.7
90.0476,414.3
90.0615,134.7
90.0627,280.3
90.1042,17.3
90.1347,160.8
90.1443,387.6
90.1638,373.6
90.1876,560.9
90.2392,348.2
90.3027,667.3
90.3053,319.7
90.3114,341.5
90.3335,399
90.3783,49.6
90.3859,358.3
90.4014,85.1
90.4242,415.6
90.4458,507.4
90.5056,39.2
90.5075,201.8
90.5329,372.7
90.568,169.7
90.5728,131.4
90.577,341.5
90.6152,103.3
90.6362,571.9
90.6627,80.8
90.718,543.4
90.731,126.6
90.7358,40.8
90.7375,18.9
90.7599,452.7
90.7621,434.9
90.7814,113.8
90.7849,96.2
90.7877,155.7
90.7973,101.1
90.7993,51.4
90.8027,20.6
90.8259,104.7
90.8469,128.4
90.8635,249.8
90.8798,413.5
90.8953,502.9
90.9092,105.4
90.9106,78.3
90.9237,309.4
90.9475,123.7
90.9632,446.8
90.9765,8360.5
90.9795,408.1
90.9891,102.9
91.0048,198.8
91.054,2145.3
91.0553,204.5
91.0683,259.8
91.0724,649.7
91.101,508
91.1158,194.8
91.1229,85.1
91.1384,131.1
91.148,313.2
91.1518,159.8
91.1885,97.7
91.2474,426
91.2516,420.4
91.2817,408.4
91.2986,331.9
91.3036,123.7
91.3225,260
91.3339,42.3
91.3744,115.8
91.3797,299.6
91.4007,75.1
91.4196,420
91.4397,208
91.4613,667.6
91.4672,281.7
91.4803,177
91.515,139.2
91.5155,151
91.5195,139
91.5449,108
91.558,208.6
91.642,149.3
91.6472,139.6
91.6564,17.8
91.6684,107
91.6925,207
91.7122,18.5
91.717,257.4
91.7331,204.5
91.7537,273.7
91.8017,183.8
91.813,155.6
91.8212,263.3
91.8465,325.5
91.9015,119.4
91.9811,118.6
91.9974,333.1
92.0031,270.9
92.0244,246.2
92.0493,20.4
92.0904,640.3
92.1122,282.8
92.1232,18.7
92.1307,187.2
92.162,344.6
92.199,49.8
92.2019,786.6
92.211,85.5
92.2148,360.5
92.2176,802.2
92.2256,203.3
92.2697,215.9
92.2972,285.8
92.307,186
92.3723,17.2
92.3813,308.4
92.3904,121.7
92.4184,20.5
92.4487,1112.2
92.453,17.4
92.4575,338.2
92.4889,124.8
92.5205,121.7
92.526,106.2
92.5429,20.9
92.5531,209.7
92.6374,145.5
92.6839,344
92.726,530.5
92.7933,181.1
92.8357,101.4
92.8669,106.8
92.8892,318.1
92.909,357.5
92.9504,504.9
92.9629,934.1
92.9684,318.3
92.9779,162.4
92.9864,302.5
92.9913,548.7
92.9926,239.8
92.9931,243.1
93.0125,560.9
93.0492,311.8
93.0698,423.4
93.0827,289
93.1381,721.7
93.1416,779.4
93.2016,49.4
93.2265,57.7
93.2297,180.8
93.2563,282.6
93.2817,168.6
93.331,19.9
93.3366,165.2
93.3542,666.6
93.3652,391.2
93.3734,168.5
93.3764,585.9
93.3859,346
93.3926,107.6
93.4016,211.9
93.4074,20.8
93.433,319.2
93.4544,325.1
93.475,18.9
93.4824,425.7
93.5209,450.5
93.5259,20.7
93.6241,419.9
93.6266,417.8
93.6456,151
93.6479,137.8
93.6671,112.8
93.6705,365.4
93.7087,496.5
93.7157,175.6
93.7375,236.8
93.7436,167.2
93.7771,350.5
93.9,81.3
93.9165,318.7
93.9701,211.9
94.0247,133.7
94.0346,836.1
94.0367,239.3
94.0412,51372.9
94.049,318.6
94.0683,337.2
94.0766,172.6
94.0812,114.9
94.0916,297.5
94.1112,230.8
94.1541,148.5
94.1782,95.7
94.2084,125.6
94.2175,16.6
94.2394,492.8
94.2544,704.8
94.258,58
94.3035,391.2
94.3966,278.6
94.3996,327.7
94.4384,20.2
94.4638,21.6
94.4721,771
94.4813,186
94.5056,168.7
94.5065,725.6
94.535,106.3
94.5546,282.1
94.5619,326.6
94.5821,457.7
94.5852,199.9
94.6235,288.9
94.6332,320.8
94.6411,100.1
94.6488,409.8
94.6671,149.9
94.6745,112.5
94.6796,317.6
94.6877,158.1
94.7091,340.3
94.7418,20.4
94.7587,392
94.7607,770.5
94.7774,134.3
94.8408,173.3
94.8457,539.8
94.8506,283.3
94.8566,21.3
94.8588,690.6
94.8968,266.3
94.9125,175.1
94.9192,108
94.9246,114.5
94.9655,543
94.9706,775.3
94.9817,21.3
95.0086,17.2
95.0355,21.3
95.0445,919.9
95.0455,28.1
95.047,117.6
95.0474,116.9
95.049,401380.5
95.0501,367.8
95.0517,57.1
95.0523,22.9
95.0548,198.3
95.0624,76.7
95.0727,382.4
95.0838,82.9
95.0854,448
95.0893,48.8
95.1095,243.8
95.1121,222
95.1493,193.7
95.1728,384.7
95.2012,522.3
95.2272,143.5
95.2498,482
95.2597,470.8
95.2686,219.2
95.2782,19.1
95.3129,183.5
95.3245,242.6
95.3273,20.2
95.3462,167.5
95.3478,340.6
95.3876,509.9
95.3985,21.3
95.402,158.1
95.4047,564.7
95.4245,221.3
95.428,169.2
95.5333,113.8
95.5941,181.7
95.6203,603.3
95.6245,19.2
95.631,238.9
95.6344,193.9
95.6645,742.8
95.6936,101.6
95.7242,312.2
95.7885,21.1
95.807,431
95.8167,559.7
95.899,154.6
95.905,20.4
95.938,184.1
95.9617,18.6
95.9681,179.8
95.9711,977.5
95.9838,304.9
95.9944,218.6
95.9985,154.5
96.0029,348
96.0523,19148.9
96.0803,15.9
96.1092,728.7
96.123,21.1
96.2391,19.1
96.2672,149.4
96.2766,46.9
96.2775,824.4
96.2783,209.2
96.3681,238.4
96.3924,144.9
96.4459,545.9
96.4516,578.4
96.4698,348.3
96.494,753.9
96.5122,97.3
96.539,495.6
96.5476,211.4
96.6115,187.9
96.6419,22.3
96.6434,1004.8
96.6483,99.4
96.6611,24.6
96.686,19.1
96.7057,200.2
96.7165,328.8
96.7249,184.6
96.7708,102.1
96.7873,333.8
96.8119,18.9
96.823,874.5
96.8385,182.4
96.8523,88.8
96.9216,184883
96.9309,204.3
96.9569,775.4
97.0074,207.7
97.0262,188
97.0531,100.7
97.0556,48.8
97.0886,46.2
97.0899,581
97.1009,195.9
97.1326,103.4
97.1338,16.8
97.1482,97.3
97.1578,276
97.1981,408.1
97.2514,22.5
97.2904,128.3
97.3101,105.9
97.3349,154.9
97.3467,19.7
97.4236,118.7
97.472,299.8
97.481,307.2
97.5413,149.4
97.6057,19.5
97.6348,537.4
97.6539,1040.2
97.6818,17.5
97.6982,283.4
97.7148,129.1
97.7242,155.5
97.7575,98.2
97.7696,171.4
97.8113,595.1
97.8181,18.4
97.8296,176.6
97.834,617.7
97.8794,360.2
97.8856,299
97.9163,46.1
97.9238,20.6
97.9562,123.8
97.9902,17.7
98.0141,81.6
98.0362,151
98.0446,438.7
98.0702,107.4
98.1365,21
98.1625,268.9
98.2211,880
98.2383,167.2
98.2499,175.3
98.3359,102.7
98.381,211.8
98.4002,776.5
98.4083,134.9
98.4378,200
98.4417,158.5
98.465,19.4
98.4703,20.8
98.4713,19.7
98.4828,403.9
98.4848,439.7
98.5309,357.9
98.5496,81.2
98.5618,150.6
98.6419,178
98.648,136.1
98.6606,252
98.6905,90.2
98.707,444.1
98.7133,168.9
98.7637,408.4
98.7784,190.8
98.8128,334.5
98.8206,25
98.8248,168
98.8305,551
98.8377,83.3
98.8459,166.7
98.8908,19
98.9187,56650
98.9197,7614.9
98.9752,12129
98.9828,57.8
98.984,153.5
98.9863,241.2
99.0107,19.4
99.0248,805.9
99.0354,391
99.1204,255
99.1399,438.8
99.1562,93.1
99.1895,21.3
99.2413,503.9
99.3119,289.5
99.3158,18.4
99.3176,425.2
99.3187,383.5
99.3239,283.5
99.3804,264.2
99.3814,16.3
99.3941,514
99.4186,363.4
99.4417,19.4
99.4557,507.6
99.465,201.8
99.4661,198.5
99.4886,262.4
99.5041,181.9
99.5063,344.8
99.5208,278.8
99.5317,336.3
99.5492,21.7
99.5509,175.1
99.6098,735.8
99.6276,447.4
99.6828,17.8
99.6896,159.5
99.7215,88.7
99.7225,995.4
99.7756,529.1
99.7792,84
99.8108,401.7
99.8477,303.4
99.9105,169.8
99.9282,92.9
99.9376,107.5
99.9614,285.3
99.9659,46
99.9716,115.8
99.9969,217.9
100.0021,155.4
100.0057,118
100.0524,107.3
100.0749,313.7
100.0823,167.1
100.0852,386.6
100.1182,131.2
100.159,281.2
100.185,280.5
100.2006,279.5
100.2475,309
100.2563,251.4
100.2606,17.5
100.3996,83.5
100.4004,84.5
100.4169,93.9
100.4344,137
100.4751,273
100.4911,421.8
100.5233,318.2
100.5652,426.5
100.5943,106.4
100.6086,94.7
100.6185,743.7
100.6328,181.9
100.6343,315.5
100.6443,296.7
100.6454,180.2
100.6535,281.1
100.679,125.8
100.7233,293.7
100.7241,655.3
100.7877,346.2
100.8011,193.1
100.8248,214.3
100.8415,255
100.8529,93
100.8816,441.4
100.8998,161
100.9167,446.7
100.9186,569.5
100.9331,729.8
100.9566,103.1
100.9644,355
100.966,301.2
100.9669,19.9
100.9866,77.3
100.9992,149
101.047,1352.8
101.0498,92.9
101.0535,286.2
101.0709,2068.5
101.0746,671.9
101.0942,170.6
101.1051,392.8
101.1296,41.4
101.1448,280.9
101.1761,372.9
101.1846,21.2
101.1936,356.7
101.2137,229
101.234,301
101.2665,269.8
101.2807,634.7
101.3065,211.6
101.3087,521.6
101.3158,334.9
101.3187,172.8
101.3321,103.8
101.3485,19.2
101.3725,273.1
101.3835,44.1
101.4505,348.9
101.4534,425.8
101.4635,99
101.5207,298.1
101.5262,18.8
101.5481,210.5
101.6176,550.1
101.6356,17.1
101.6499,243.5
101.6581,20.2
101.6661,128.7
101.7511,198.6
101.778,273.1
101.7824,189.4
101.7844,162.9
101.7873,365.9
101.7913,162.2
101.7967,50
101.8156,18
101.8201,665.5
101.8218,221.8
101.8321,343.2
101.8346,357.3
101.8371,779.4
101.8447,311.6
101.8494,193.4
101.8737,395.7
101.8838,401.6
101.965,495.6
101.9663,272.9
101.9806,310
102.0548,3208.6
102.0869,143.3
102.0897,263.5
102.099,974
102.1146,422
102.1294,909.1
102.1341,142.8
102.1362,17
102.1586,18.7
102.193,714.3
102.1941,453
102.2001,814.8
102.2086,497.4
102.2258,936.5
102.2403,568.8
102.2796,136.4
102.2958,229.6
102.3142,212.6
102.3185,466.5
102.3336,160
102.3811,43.7
102.3831,171.9
102.3976,211.4
102.4235,703.9
102.451,695.1
102.4835,157.1
102.4905,505.2
102.5033,383.7
102.5189,324.5
102.5287,229.4
102.5726,242.9
102.5907,308.7
102.6006,392.7
102.6046,416.7
102.6201,19.2
102.6376,469.3
102.6435,326.4
102.6681,288.3
102.7162,105.6
102.7261,333.2
102.75,327.1
102.7538,281.6
102.7707,129.9
102.776,583.6
102.7881,618.1
102.8134,246.2
102.8261,649.6
102.8581,697.1
102.8809,342.7
102.9701,542.2
102.9778,436.1
102.9847,325.8
102.9918,100.8
102.9977,145.7
103.0278,507
103.0584,107.9
103.0771,176.3
103.0835,259.3
103.0986,138.8
103.1377,705.8
103.174,100.6
103.1764,341.9
103.2084,180.8
103.225,740.7
103.2375,103.5
103.251,46.2
103.2519,518.7
103.2767,251.5
103.2866,93.4
103.3014,417.1
103.3818,243
103.3829,558.5
103.4031,322.7
103.4228,147
103.4261,265.3
103.4465,325.8
103.5132,110.5
103.5211,480.6
103.5464,199.6
103.618,166.4
103.685,79.4
103.6916,137.5
103.7062,389.5
103.7245,187.3
103.769,377.4
103.7795,271
103.8387,222.5
103.8416,349.5
103.8502,91.2
103.96,533.2
103.9642,18.2
103.9843,250.5
103.9891,99.3
104.0069,109.5
104.018,178.2
104.0225,82.8
104.0438,101.5
104.0738,682.5
104.079,147.8
104.1068,765021.6
104.1084,778
104.1087,844.4
104.1158,100.9
104.1177,260.1
104.2535,392.4
104.2665,85
104.2838,514.6
104.3414,143.8
104.3741,106.4
104.4493,19.8
104.4707,115.3
104.476,527.5
104.5143,402.7
104.5189,187
104.5221,683.7
104.5948,144.6
104.5992,110.5
104.6122,262.2
104.6484,112.9
104.6812,50.3
104.7197,95.7
104.7817,319
104.7839,188.9
104.7866,103.7
104.8429,158.8
104.8771,18
104.9077,54.9
104.9192,15.2
104.9427,588.6
104.9526,20
104.9632,154.2
104.978,18.5
104.9814,42.3
104.9922,1421
105.0032,29.4
105.0226,224.8
105.0256,237.5
105.0446,37892.2
105.0557,42.8
105.0575,303.5
105.0723,488.3
105.0767,415.7
105.0956,811.9
105.1102,30638.7
105.1291,369.4
105.1382,18.2
105.1449,43.3
105.1507,23.8
105.1716,787.4
105.2389,104.9
105.2428,90.1
105.2461,123.1
105.2491,229.1
105.2601,164.9
105.2621,146.6
105.2682,19.2
105.2791,18.1
105.2907,126.8
105.3386,79.9
105.3434,168.7
105.377,632.8
105.378,535.3
105.4079,271.9
105.4371,692.5
105.4389,120.4
105.4484,411.2
105.4499,140.2
105.4665,325.8
105.4749,248.3
105.478,306.5
105.507,188.6
105.5163,199.6
105.5357,156.6
105.5897,409.1
105.5909,267.6
105.728,89.9
105.7766,544.8
105.8182,385.3
105.8214,114.3
105.8794,20.6
105.89,381.9
105.9036,374.4
105.9048,473
105.9225,519.9
105.9429,23.4
105.9463,114.2
105.9585,15.1
105.964,20.1
106.0439,639.9
106.0467,394.2
106.0479,768.9
106.1233,344.3
106.144,308.2
106.1706,542.1
106.1771,270.3
106.1968,18.2
106.2819,610.2
106.2956,144
106.3178,106.4
106.342,308.1
106.4188,112
106.4635,308.8
106.4768,221.3
106.4851,218.7
106.4929,778.1
106.5065,116
106.5086,20.6
106.5124,105.5
106.5637,373.1
106.5667,138.7
106.582,333.3
106.5932,103.3
106.6094,275.8
106.6114,346.5
106.6853,247
106.6905,201.6
106.7067,227.9
106.7357,191.7
106.7479,545.3
106.7802,181.8
106.7871,535.8
106.79,198.5
106.7976,183.4
106.8089,291.9
106.8522,43.9
106.8763,251.2
106.9071,292
106.9109,403.5
106.9504,4589.8
106.9725,179
106.9782,149.5
106.9857,759.7
106.9956,19.1
107.0281,56.5
107.049,460.1
107.0853,52.4
107.0976,193
107.1202,47.4
107.1465,209.5
107.1732,178
107.1956,20.5
107.2074,363.1
107.2435,119.6
107.2763,140
107.2833,681.2
107.2848,103.5
107.2988,175.4
107.3121,558.4
107.316,39.7
107.3352,259.5
107.3381,169.9
107.3839,156.8
107.3968,19.4
107.405,664
107.4112,351.9
107.4126,363.3
107.4236,79.5
107.4659,224.9
107.481,121.5
107.5569,244.8
107.59,228
107.5984,259.4
107.6138,348.8
107.6248,665.7
107.6619,335.6
107.6833,432.6
107.6946,48.3
107.7078,141.6
107.7234,339.4
107.729,181.7
107.7345,242.5
107.7366,668
107.7597,16.7
107.7671,863.1
107.7686,529.1
107.7976,457.7
107.813,212.8
107.8331,385.3
107.8418,386.5
107.8573,167.7
107.8958,276.4
107.901,19.2
107.9904,18.8
107.996,399.9
108.0047,231.8
108.0271,91.6
108.0524,22.9
108.0571,18.5
108.0713,315.2
108.0749,140.5
108.1014,97
108.1617,402.4
108.17,80.2
108.1859,80.9
108.2432,161.6
108.2484,502
108.2685,20
108.2701,127.6
108.2922,18.6
108.3426,223.9
108.3985,109.6
108.4105,385.4
108.4194,317.9
108.4208,424.5
108.4349,184.6
108.4672,321.9
108.4868,79.4
108.4882,219.5
108.5126,435.5
108.5142,36.7
108.5217,341.7
108.5278,190.6
108.5476,237.8
108.5546,146.2
108.5876,730.6
108.5914,90.9
108.5971,292.1
108.6039,672.6
108.6513,100.2
108.6524,19.3
108.6784,148.2
108.6924,20
108.7157,204
108.7544,340.7
108.8036,89.1
108.8481,17.9
108.8727,139.8
108.892,135.2
109.0068,102
109.0192,191.6
109.0233,103.5
109.0647,55164.5
109.086,149.2
109.1011,607.5
109.1512,16.8
109.1558,400.3
109.1614,244.9
109.2098,111.5
109.2279,18.6
109.2315,219.8
109.2369,139.3
109.2777,165.9
109.321,319.8
109.3391,92.3
109.3843,270.8
109.4265,424.6
109.4459,518.1
109.4998,195
109.5222,19.7
109.5594,112.1
109.5609,410.1
109.5642,297.5
109.6023,390.5
109.6049,325.6
109.6233,250.6
109.6301,380.3
109.6316,150.8
109.6351,317
109.6598,164.2
109.6662,191.1
109.6696,481.6
109.7338,390.1
109.7396,876
109.7628,167.2
109.7668,187.4
109.7699,336.2
109.7864,97.1
109.844,259.5
109.9152,188.7
110.0253,98.3
110.0355,19.7
110.0413,463.2
110.0507,537.5
110.0621,38.5
110.068,1532.4
110.0793,191.6
110.1295,331.3
110.2605,162.3
110.2628,254.1
110.2899,450.2
110.3183,146.9
110.3214,260.1
110.3482,801.6
110.3572,18.4
110.3855,303.2
110.3903,305.8
110.3907,360.8
110.4258,113.2
110.4469,321.2
110.5052,138.8
110.5605,584.8
110.583,265.1
110.593,446
110.6273,149.4
110.6925,231.1
110.7317,781.2
110.7365,452.9
110.7535,96.2
110.7561,390.5
110.764,565.1
110.769,614.7
110.7709,112.1
110.7791,830.1
110.7852,378.1
110.8142,18.8
110.8416,348
110.8494,146.9
110.8816,140.6
110.9014,525.8
110.9385,375.3
111.0231,284.6
111.0314,100.8
111.0433,629.7
111.0605,51
111.0654,149.9
111.1229,461.4
111.1286,183.9
111.1373,117.5
111.1463,175.1
111.15,43.3
111.1579,125.1
111.1613,199.3
111.1787,504.8
111.2781,325.1
111.3044,356.2
111.3101,112.6
111.3232,105.1
111.3616,594.2
111.4115,767.4
111.4249,805.5
111.4936,240.7
111.4989,16.7
111.5322,473.7
111.5735,162.1
111.5926,140.2
111.6068,371.4
111.6105,169
111.6672,311.6
111.6838,139
111.6948,143.5
111.7512,260
111.7547,17.6
111.7612,109.5
111.8436,324.5
111.8524,343.3
111.8643,587.7
111.8725,92.7
111.878,138
111.9319,360.4
112.0021,362.5
112.0046,259
112.0216,776.3
112.0262,87.4
112.0275,187.9
112.0431,85.8
112.0625,242
112.1273,179.1
112.1426,323
112.1608,171
112.1648,392.8
112.174,15.2
112.1899,104.8
112.205,265.6
112.2115,139.5
112.2631,233.1
112.2674,250
112.2735,478.7
112.277,165.5
112.2802,154
112.283,22.1
112.2851,249.2
112.3802,45.9
112.3961,406.9
112.4087,276.6
112.4195,302.2
112.4309,19.5
112.4596,171.1
112.4982,158.5
112.5262,340.3
112.5356,17.4
112.5552,236.4
112.6417,179.6
112.6824,478.1
112.6836,598.4
112.6993,320.9
112.7043,325
112.7456,455.7
112.75,266.3
112.801,17.5
112.8209,17.7
112.831,40.7
112.8712,18
112.8956,491358.1
112.9008,19.3
112.9067,100.6
112.9144,346.3
112.9187,45.1
112.999,393.1
113.0237,166
113.0513,763
113.0725,189.6
113.0935,97.5
113.1072,20.9
113.1373,429
113.1462,39.9
113.1476,134.2
113.1644,78.3
113.1667,141.7
113.1757,195.9
113.1833,223.6
113.1913,83.2
113.1991,490.5
113.25,527.8
113.2622,387.2
113.267,169.5
113.2873,260
113.3318,388.7
113.3745,321.9
113.3998,17.7
113.4126,260.8
113.5175,268.8
113.5392,287.3
113.5712,18.3
113.5831,752.5
113.5918,254
113.6094,109.2
113.6261,159.3
113.6494,923.6
113.7195,615.9
113.7257,521.1
113.7539,651
113.794,111.7
113.8024,346.4
113.841,86.8
113.8494,310.4
113.8917,425
113.9293,327.3
113.9625,190.8
113.9681,20.2
113.9773,93.3
113.9918,337.8
113.9946,404.6
114.0239,289.1
114.0298,280.7
114.0497,170.4
114.0549,39216.1
114.0611,141.7
114.066,638.7
114.0744,136.6
114.0912,24.9
114.1404,332.1
114.1551,524.2
114.1915,16.6
114.1995,122
114.2016,215.9
114.227,711.3
114.2928,470.5
114.2974,367.2
114.3146,612.7
114.3816,409.5
114.419,150
114.447,826.9
114.479,732.1
114.537,238.7
114.5838,19.5
114.608,517.5
114.6154,418.2
114.6864,409.9
114.691,251
114.7009,141.7
114.7039,101
114.7059,95
114.7112,470.4
114.7217,267
114.7434,43.5
114.8432,140.4
114.8437,155.2
114.8522,199.2
114.8927,155071
114.9014,216.3
114.917,261.9
114.9312,137.3
114.9481,19.5
114.965,591.9
115.0582,871
115.1366,372.1
115.1401,165.5
115.1491,198
115.1633,195.4
115.1995,167
115.2139,533.8
115.2899,92.6
115.2985,774.2
115.3355,238.7
115.3517,738.5
115.3625,595.1
115.3763,157.8
115.3914,385.6
115.4043,144.5
115.4346,281.3
115.4396,402.4
115.482,273.4
115.4982,204.1
115.5039,16.1
115.5151,18.9
115.5383,319.3
115.5794,392.7
115.601,627.5
115.6199,498.8
115.6233,17.2
115.6958,96.2
115.7025,104.7
115.7088,175.1
115.712,161.8
115.7441,113.8
115.7631,156.2
115.7803,235.4
115.7825,415.6
115.8184,136.1
115.8534,453.1
115.8565,170
115.8588,492.7
115.8937,18.6
115.9411,709.5
115.9705,248.1
115.9792,56.4
115.9957,119.3
116.0033,130.8
116.0491,300.1
116.0594,371.8
116.067,40.2
116.0705,4131.3
116.0833,499.7
116.1114,248.9
116.2134,20.5
116.2169,479
116.2301,19.1
116.236,90
116.2484,314.1
116.3382,105.2
116.3402,487.5
116.4728,136.6
116.4793,217.1
116.4812,141.4
116.4834,99.7
116.5982,15
116.6065,47.9
116.6126,240.3
116.661,118.7
116.667,271.8
116.6829,124.1
116.7005,350.7
116.7734,177.1
116.7968,85
116.841,20.2
116.8631,643.1
116.8908,16578.8
116.9024,175.2
116.9251,216.7
116.9549,86.4
116.9652,302.9
116.9858,305.8
117.0178,667.6
117.0312,43.9
117.0616,155.8
117.1142,201.9
117.1932,87.8
117.2115,45.2
117.2571,389.1
117.3529,346.5
117.4292,82.1
117.4412,109
117.5034,109.9
117.524,210.6
117.5267,19.2
117.5283,268.7
117.5524,775.8
117.5781,521.9
117.5965,84.3
117.6344,16.7
117.6619,20.8
117.697,146.9
117.7034,103.1
117.8041,38.6
117.8278,703.3
117.8661,96.8
117.8895,16.5
117.9622,21.4
118.0152,119.3
118.0302,131.3
118.0332,178.3
118.045,360.3
118.0598,178.5
118.065,341.2
118.0781,237.9
118.0862,136.6
118.1036,305.5
118.1125,588.2
118.1229,423.6
118.162,18.8
118.174,149.7
118.192,382.4
118.2174,389.8
118.2278,47.8
118.2344,114.2
118.2514,441
118.2572,299.3
118.2607,169.4
118.2906,402.5
118.3352,450
118.4109,772
118.4266,178.9
118.4919,396.7
118.5314,404.9
118.5727,152.7
118.5963,141.6
118.6074,669.9
118.6144,846.3
118.6317,321
118.6396,150.4
118.6429,252.6
118.7008,304.6
118.7104,172.4
118.7235,17.1
118.7564,277
118.7677,294.3
118.7918,142.4
118.8197,236.1
118.9008,356.9
118.9693,143.5
119.0189,30.3
119.0551,16.5
119.0694,98.6
119.075,341.9
119.0801,252.6
119.0918,737.4
119.1116,165.2
119.1216,338.3
119.1385,619.4
119.1838,21.1
119.1923,40.7
119.1945,430.4
119.2079,207.2
119.2135,281.1
119.224,394.4
119.2266,161.2
119.2718,111.8
119.2759,261.2
119.2818,361.2
119.2991,255.5
119.305,231.9
119.3083,153.3
119.3323,93.2
119.3518,451.6
119.3866,316.1
119.3885,140.5
119.3899,88.6
119.4134,17.7
119.4161,328.6
119.5294,93.3
119.581,437.4
119.5943,433.6
119.7226,98.8
119.7323,488.7
119.7328,471.3
119.74,193.3
119.75,688
119.7659,380.6
119.8223,209
119.8308,157.4
119.838,221.7
119.8674,510.6
119.8856,161
119.8945,205.4
119.9123,215.9
119.9158,168.2
119.9309,78.8
119.9662,203.7
119.9738,587.2
120.0031,7449.7
120.0602,17.8
120.072,133.1
120.0807,8183.5
120.1033,23.2
120.1272,840.2
120.1426,362.9
120.1451,745.9
120.1759,151.6
120.2259,76.2
120.2615,679.8
120.2781,93
120.4197,179
120.4222,44.7
120.4263,330.8
120.4427,158.9
120.4637,364.2
120.4829,20
120.5142,282.9
120.519,764
120.6143,369
120.638,333.9
120.6778,606.8
120.6886,217.8
120.6901,314.9
120.6933,404.1
120.7385,318.4
120.8378,361.2
120.8396,292.8
120.86,214.7
120.8613,406.1
120.8671,80.6
120.9245,785
120.9393,271.3
120.9612,22.3
120.9805,258.2
121.0044,484.1
121.0075,381.2
121.0283,328.9
121.0395,75.7
121.0429,370.4
121.1011,25.9
121.1608,271.1
121.166,383.6
121.2252,129.3
121.2869,18.2
121.3296,64.5
121.3705,120.2
121.3842,201.2
121.3932,314.8
121.4068,17.4
121.4283,123
121.4318,122.1
121.4819,766.6
121.5197,716.9
121.5334,160.3
121.5444,517
121.6241,203.7
121.656,342.3
121.6585,386.9
121.6598,446.9
121.6994,359.8
121.7896,676
121.8133,126.6
121.8525,211.6
121.91,256.1
121.9431,178.3
121.9606,400.2
121.9735,107.9
122.0293,359.8
122.0558,81.2
122.0793,730.5
122.1058,252.9
122.1084,405.5
122.1231,180
122.1378,309.5
122.1427,889.7
122.1713,699.3
122.2205,16.4
122.2316,696.8
122.2455,94.8
122.2753,115.3
122.3015,363.4
122.3431,354.5
122.3486,129.8
122.3679,493.1
122.3951,89.1
122.4007,539.3
122.4075,171.4
122.4095,140
122.4316,137.3
122.6226,118.9
122.6542,472.4
122.6572,142.7
122.6666,121.7
122.6772,611.5
122.685,701.6
122.7023,822.4
122.712,162.8
122.7755,247.1
122.8115,164.3
122.8567,275
122.8768,214.8
122.8784,648.2
122.9244,20497.5
122.9274,234.9
122.9365,354.2
122.9689,268.3
122.97,88.2
123.0426,22.5
123.0493,104.7
123.0711,118.3
123.0803,21.4
123.145,821.8
123.2156,525.9
123.2954,20.7
123.3191,17.1
123.3276,494
123.3407,834.5
123.3423,213.7
123.3515,22.7
123.4003,599.5
123.435,266.3
123.5249,136.4
123.5298,150
123.6013,228.8
123.6063,406.5
123.6236,584.1
123.6472,343.8
123.7198,628.3
123.7304,258.7
123.7901,367.3
123.8016,248.8
123.8075,268.9
123.8878,176.1
123.9092,174.8
123.9367,270.5
123.9412,236.2
123.9621,84.5
123.974,19.6
124.0074,380.6
124.0189,137.2
124.0371,337
124.204,104.7
124.2546,621.6
124.2709,497.9
124.2825,270.9
124.2965,348.1
124.3012,270.1
124.3758,387.6
124.3899,51.3
124.406,749
124.459,284.6
124.4756,629.1
124.4839,459.1
124.4909,111.5
124.5104,156
124.5242,209.4
124.6305,243.7
124.7022,282.3
124.7707,773.5
124.7842,129.4
124.8081,342.7
124.8129,199.4
124.8631,376
124.9108,94.3
124.9226,1134.6
124.9688,148.7
124.9997,11487.7
125.0055,315.4
125.0389,194.4
125.0467,18.5
125.0596,24.5
125.0668,769.1
125.1213,116.9
125.1455,155.6
125.1563,376.6
125.209,18.3
125.2852,363.7
125.3152,402.4
125.3923,107.2
125.3951,306.6
125.4023,99.8
125.4339,185.2
125.4847,568.9
125.584,94.8
125.6125,241.6
125.6818,201.7
125.7524,154.8
125.7605,299.1
125.7992,114.1
125.8111,20.7
125.8173,156.4
125.8344,244.2
125.8727,430.4
125.9202,96
125.9251,282.3
125.9388,92.1
125.9603,667.5
125.9869,699.8
125.9901,678.2
125.9931,93.6
126.0154,350.1
126.0404,196
126.0889,374.3
126.1313,17.5
126.1744,177.2
126.1776,98.6
126.1869,436.9
126.1919,147.6
126.1947,335
126.2153,95.6
126.2914,412.3
126.3469,346.2
126.4153,111.5
126.43,365.5
126.5041,295.6
126.5385,44.3
126.5412,42.6
126.6698,335.2
126.7182,19.9
126.748,307.6
126.784,713.3
126.8186,148
126.8218,378.3
126.9025,328.5
126.9484,230.6
127.0229,313.7
127.0267,108.6
127.0478,143.2
127.101,714
127.1315,339
127.1527,165.5
127.1827,388.4
127.2024,439.6
127.2076,340.2
127.2104,228.2
127.2156,695.7
127.2653,670.6
127.2788,96.1
127.2924,181.5
127.3026,250.7
127.3827,107.5
127.4282,585.9
127.4501,318
127.4622,213.7
127.4966,18.5
127.5425,686.6
127.5827,217.5
127.6227,251.3
127.6261,344.6
127.7318,229
127.7553,202.5
127.8146,421.4
127.8162,106.9
127.8419,351.6
127.9264,206.2
127.9304,18.9
127.9789,20.7
128.0647,240.5
128.1309,103.8
128.2161,413.9
128.2397,100
128.2439,434.8
128.2989,489.9
128.3206,85.2
128.3269,347.3
128.3401,264.5
128.3658,329.4
128.3717,368.6
128.4044,337.6
128.4306,409.1
128.4635,382.1
128.5364,149.1
128.5888,250.8
128.7587,93.1
128.7668,336.2
128.7926,355.6
128.7986,17.6
128.8655,346.1
128.9539,361.6
128.9893,269
129.0051,132
129.0715,430.3
129.1021,772.7
129.1582,106.6
129.1601,180.1
129.1652,482.9
129.1953,404.2
129.2148,493.3
129.2892,490.9
129.3711,473.1
129.4203,17.6
129.4449,513.5
129.4634,126.2
129.4845,338.9
129.4871,17.9
129.5021,172.4
129.524,890.9
129.5463,17.8
129.5514,17.3
129.5607,19.1
129.5731,156.6
129.6009,106.9
129.6081,185.9
129.6581,191.1
129.6669,183.9
129.7272,45.6
129.7677,349
129.769,119.6
129.8672,776.3
129.8692,17.8
129.8842,243.6
129.8969,319.4
129.8987,302.5
129.902,39.8
129.935,19.8
129.9407,396.5
129.9462,287.9
129.9473,212.2
129.9758,363.6
130.0294,366
130.0326,162.6
130.0395,610.7
130.0498,4678.3
130.1268,369.8
130.1282,240
130.1461,396.4
130.1478,383.5
130.1544,893.9
130.1815,94.9
130.1983,194.7
130.2753,278.3
130.2768,298.5
130.3034,95.6
130.315,238.8
130.4524,461.8
130.4592,569.8
130.49,290
130.4956,92.7
130.5224,252.8
130.5243,318.4
130.5278,146.2
130.5654,151.1
130.6853,215.7
130.7239,98.5
130.7282,362.3
130.7629,98.6
130.7655,22.1
130.7763,268.9
130.8468,141.3
130.8676,467.5
130.8718,219
130.8858,125.6
130.9268,653.7
130.9632,312.4
130.981,335.5
130.9844,20.2
131.0015,43.3
131.0055,250.2
131.0097,276.3
131.0384,362.5
131.0991,735.8
131.1616,243.3
131.171,146.6
131.1787,831.3
131.2115,134.9
131.2307,399.4
131.2322,205.7
131.2399,520.4
131.2511,20.3
131.2695,21.3
131.2939,51.6
131.3324,271.5
131.4024,147
131.4083,312.7
131.4137,447.7
131.4278,168.2
131.4322,368.2
131.4728,478.6
131.4759,493.7
131.4893,352.7
131.4916,427.2
131.4946,94.7
131.5414,19
131.5638,78.4
131.5872,187
131.606,479.1
131.6517,481.7
131.7314,44.4
131.7504,392
131.7616,150.2
131.8029,130.9
131.8979,211.7
131.9563,343.6
131.9655,313.3
131.9754,193.9
132.0032,29945.2
132.0453,19.9
132.0559,122.6
132.0655,63951.5
132.0727,226.6
132.0767,4126.5
132.1014,951.7
132.1301,561.9
132.1349,458.7
132.1465,109
132.2042,20.2
132.2115,178.7
132.2522,320.9
132.2613,467.2
132.2867,428.2
132.3369,129.9
132.3524,234.6
132.3593,133.6
132.3659,146
132.3796,519.3
132.5532,110.3
132.6001,261.6
132.6577,367.9
132.6667,608.4
132.6721,415.3
132.6978,722.5
132.8092,115.9
132.8217,20.4
132.8375,419.6
132.9027,17.3
132.9062,848.5
132.9156,178.6
132.9227,584
132.9317,18.4
132.9583,55.9
132.9613,412.6
132.9693,41.8
132.9741,428.2
132.9846,187.6
132.9872,5138.7
132.9996,265
133.0312,315.5
133.033,151.1
133.0688,1116.8
133.0725,310.5
133.0778,16.8
133.0858,57
133.0971,16566.4
133.1043,258
133.1844,194
133.2204,139
133.2242,18.2
133.2343,17
133.3252,103.4
133.3334,157.7
133.3402,451.7
133.4081,233.2
133.4209,49.3
133.4573,81.9
133.4594,1085.5
133.4885,203.2
133.4966,398.2
133.5387,20.4
133.5473,168.5
133.5883,312.2
133.6578,648.2
133.6766,119.1
133.6888,20.1
133.697,20.8
133.7079,346.5
133.7623,78.7
133.8026,155.5
133.8346,18.8
133.8477,20.3
133.8705,19.5
133.9352,747.6
133.9371,250.4
133.9574,543.5
133.9951,500.6
134.0044,161.9
134.0188,18648.5
134.1153,42.3
134.2009,474.5
134.2776,348.8
134.2975,18.1
134.3423,206.5
134.3443,344
134.378,91.4
134.3998,408.7
134.46,135.2
134.5539,294.8
134.5926,189.5
134.609,725.6
134.6702,349.3
134.6769,390.1
134.706,661.5
134.7723,379
134.8758,411.7
134.8878,112.5
134.9002,669.8
134.9108,17.6
134.9377,20.3
134.9616,145.9
134.9782,274.8
134.9965,23.9
135.0028,114374.4
135.0186,403.5
135.0688,164.5
135.1046,17.2
135.1169,50.6
135.1287,351.9
135.1424,137.1
135.1886,109.5
135.2002,562.5
135.2264,19.4
135.2508,155.7
135.2526,276.8
135.2779,250.8
135.3779,238
135.4091,182.5
135.4455,309.2
135.4493,222.4
135.4782,193.4
135.4827,99.6
135.5306,147.9
135.535,258.1
135.5438,556.8
135.6374,188.9
135.6543,268.5
135.6692,20.4
135.7071,167.6
135.7086,640.9
135.7387,155.8
135.7614,208.5
135.8248,19
135.8309,110.7
135.8368,584.6
135.8705,293.6
135.8951,136.8
135.9724,472.3
135.9771,6006.4
136.0062,514.8
136.0409,572.1
136.0481,7381.9
136.0617,56.9
136.0727,510
136.0757,7124.6
136.099,380.6
136.1021,409.5
136.1061,342.1
136.1512,593.3
136.1671,20.4
136.2225,24.4
136.2488,788.5
136.2551,145.9
136.3136,289.2
136.3455,521.5
136.3899,405.4
136.4968,423.8
136.532,650.3
136.5371,670.2
136.561,252.2
136.5645,91.5
136.5691,18.2
136.583,110.6
136.601,600.7
136.6023,363.9
136.62,108.2
136.6224,118.2
136.6346,19
136.7274,193.3
136.7779,613.1
136.8673,450.2
136.9051,264.9
136.9278,102.5
136.9311,1798.5
136.9594,394.2
137.0031,19.4
137.0447,500.2
137.0595,23.7
137.0886,18.5
137.0971,41.9
137.1622,201.7
137.2087,335
137.2457,178.6
137.2709,50.8
137.3454,122
137.375,184.5
137.3818,500.7
137.3947,653.4
137.4251,313.1
137.43,319.3
137.4372,114.4
137.4955,387.6
137.5152,214.7
137.584,325.8
137.5856,124.9
137.6211,19.4
137.6249,94
137.6419,16.4
137.6968,440.8
137.7191,281.5
137.7214,800.4
137.7509,245.2
137.7624,238.5
137.7972,119.4
137.8557,344
137.8961,130.4
137.9338,806.7
137.9875,156.1
138.0525,5607.1
138.066,31.9
138.0946,240.5
138.1306,271.5
138.1701,264.6
138.2074,82
138.2216,16.9
138.2496,151.8
138.2503,150.4
138.2586,300.8
138.2852,103.6
138.2875,387.6
138.3207,264.3
138.337,239.2
138.3468,43.7
138.3528,101.7
138.3724,419.5
138.3883,227.1
138.4781,468.1
138.4927,19
138.5096,287
138.5159,137
138.5428,21.8
138.5625,261
138.7049,116.6
138.7233,104.2
138.7412,264
138.7631,181.6
138.7679,19.4
138.8224,566.3
138.8667,19.2
138.8724,257.7
138.8801,20.2
138.8836,402.8
138.9065,3857.1
138.9315,280.9
138.9988,554
139.0182,23.1
139.0288,155.5
139.0406,39.3
139.0544,161.2
139.0549,157.2
139.0557,114.5
139.1122,578.9
139.1502,642.6
139.1618,112.3
139.1798,243.1
139.2089,309.6
139.282,283.3
139.2959,299.8
139.3118,151.5
139.3526,112.7
139.4366,160.6
139.4774,151.5
139.4947,704.8
139.5342,83.1
139.5396,141.8
139.5956,572.3
139.6305,279.2
139.6553,623.5
139.7118,200.3
139.7578,758.3
139.7953,138.6
139.8323,688.4
139.8429,259.4
139.9068,371.9
139.9294,118.3
139.9928,245.4
139.9969,348.9
140.0164,1273.3
140.0311,290.7
140.0599,20.9
140.0681,1117.9
140.073,924.4
140.1374,179.6
140.1639,517.6
140.1796,19
140.2584,348.4
140.2895,151.1
140.3131,178.5
140.4554,179.2
140.473,117.2
140.479,193.4
140.5076,188.7
140.5124,372.2
140.5504,245.1
140.5816,305
140.7582,242.4
140.8024,158.7
140.8362,210.6
140.842,368.1
140.8577,96.8
140.9035,1901.6
140.9123,712.9
140.9524,18.5
140.9549,180.2
140.9688,120.6
140.9741,44.2
140.9841,353.7
141.0005,15115.3
141.0123,110.4
141.0334,201.8
141.0396,609.8
141.1076,212.9
141.2378,521.8
141.2646,110.4
141.2776,171.3
141.2819,393.7
141.3593,166.5
141.3599,168.2
141.3605,121.8
141.3651,294.8
141.3961,144.9
141.4526,18.6
141.4603,364.2
141.4622,102.5
141.4679,521
141.4817,361
141.5095,209
141.5403,17
141.6349,20.4
141.6446,551.9
141.6803,210.3
141.6839,214.5
141.6887,391.9
141.7287,546
141.7515,547.6
141.7625,294.3
141.7705,829.2
141.7786,533.5
141.8429,241
141.8584,24.9
141.9084,16.8
141.9106,521.1
141.9163,135
141.9553,286.5
141.9747,675.6
141.9996,23.9
142.0038,376.5
142.0108,201.6
142.0231,324.8
142.0737,86.8
142.1057,542.2
142.1438,146.1
142.1835,130.8
142.204,319.3
142.2203,146.6
142.2245,219.7
142.245,167
142.2732,119.6
142.2752,82.6
142.2928,496.4
142.3037,151
142.3142,53.1
142.32,667.1
142.3238,201.5
142.3425,661.4
142.4088,162.3
142.4871,154
142.5016,521.4
142.5315,229.1
142.5476,551.9
142.5707,313
142.5898,792.9
142.5952,233.4
142.6103,161.1
142.6337,248.9
142.7112,392.6
142.7663,24.4
142.8179,158.9
142.8894,832.4
142.9143,127.2
142.9282,363.4
142.9804,417.2
142.983,532.9
142.9963,245.1
143.019,1769.3
143.0815,451.8
143.1127,190.6
143.1183,92.5
143.1244,168.9
143.1515,130.4
143.1845,604.5
143.1964,19.7
143.265,17.7
143.2676,107.9
143.2988,455.9
143.3241,235.9
143.3639,123.3
143.3926,108.7
143.438,321.3
143.4445,408
143.4615,340.8
143.4861,236.2
143.5352,371.2
143.5519,446.6
143.561,607.9
143.6056,102.5
143.6257,166.6
143.6582,107.3
143.7126,101.7
143.7257,350.8
143.7518,113.1
143.7829,124
143.7842,341.2
143.8206,390.9
143.8803,174.7
143.8932,302.9
143.9591,676.5
143.9717,272.6
144.0155,331.1
144.0198,549.5
144.0511,150.8
144.0808,171
144.1485,490.6
144.1588,187.6
144.1605,131.3
144.1658,181.1
144.2149,296.5
144.3023,385.4
144.3081,85.3
144.3107,17.3
144.3138,118.7
144.3343,92.5
144.3605,431.7
144.5433,575.5
144.5755,244.6
144.6313,19.9
144.6633,45
144.7565,746.7
144.7688,246.7
144.8614,372.3
144.8941,194.1
144.9642,100
144.9656,19.8
144.9771,755.4
144.9809,1053.1
144.9954,557.9
145.0064,165.9
145.0506,21.8
145.0781,302.7
145.1009,617.6
145.1418,128.4
145.164,494.5
145.1867,87.3
145.2399,833
145.3198,565.1
145.3679,529.2
145.4531,112.9
145.4938,18.2
145.5086,176.8
145.5146,85.9
145.5719,186.6
145.6,81.3
145.6119,421.7
145.6259,37.3
145.6815,180
145.7005,438
145.7219,20.5
145.7295,57.4
145.7532,316.1
145.8309,490.4
145.8645,359.8
145.8698,374.8
145.9561,544.7
145.9641,122.2
145.9665,170.5
145.9717,491.4
145.9835,493.3
146.0125,3108.2
146.0188,19785.6
146.0879,145.2
146.1225,104.9
146.1583,374.2
146.1642,261.3
146.1732,206.8
146.1761,254.9
146.2325,118.4
146.2725,46.7
146.278,762
146.3494,115.8
146.3793,316.5
146.3981,718.8
146.5083,189.1
146.602,93.9
146.6407,352.4
146.6677,115.9
146.6873,165
146.7155,358.4
146.7437,140.7
146.7551,160.8
146.7891,116.7
146.7991,23.2
146.8106,398
146.8197,208.1
146.8856,17.8
146.8902,396.8
146.9063,326.7
146.9109,433.5
146.926,117.9
146.9315,250.5
146.9471,215.5
146.9551,18.6
146.9795,179.8
146.9818,173605.2
146.9954,195.9
147.0022,268.8
147.0228,19.8
147.0382,260.2
147.0485,435.9
147.0764,42845.3
147.1128,26492.5
147.1169,52.1
147.1351,316.3
147.1413,16.3
147.1632,748.4
147.2231,26.8
147.2296,411.1
147.2414,436.9
147.2556,17.2
147.2864,128.1
147.3008,164.5
147.3333,107.6
147.3996,189.8
147.405,744.1
147.439,414.4
147.5032,253.5
147.5073,18.8
147.5118,251.3
147.5148,225.2
147.5523,751
147.5932,219.5
147.6002,409.7
147.6048,715.9
147.6252,120.1
147.6912,179.4
147.7349,246
147.7721,105.1
147.7964,254.2
147.8029,205
147.8383,21.1
147.8736,178.5
147.9851,1178.1
147.9926,146.2
148.002,146.7
148.0167,89
148.0398,102.7
148.0439,134.6
148.0848,445.1
148.1123,18
148.1767,150.1
148.1937,17.3
148.2107,350.8
148.2639,339.4
148.2935,188.3
148.4283,102.5
148.4966,93.3
148.5116,17.8
148.5321,2887.1
148.5763,103
148.5831,542.9
148.5989,397.8
148.6145,736.3
148.6358,17.1
148.704,314.1
148.7057,335.9
148.7348,15.9
148.7358,19.8
148.7546,715.5
148.7566,117.6
148.8053,17.3
148.8729,668.3
148.9612,1379.3
148.9654,196.7
148.9701,327.1
148.985,328.5
148.9912,250.9
149.0025,76.6
149.0185,2636.6
149.0233,4580
149.0339,428.5
149.0437,747.6
149.1329,328.2
149.1613,619.3
149.169,335.2
149.2316,325.4
149.2863,415.1
149.4249,150.9
149.4493,596.9
149.477,475.8
149.5252,21.5
149.5452,628.8
149.5764,112.5
149.5853,583.3
149.5943,394.1
149.6796,183.4
149.699,162.1
149.703,573.9
149.7095,268.4
149.7732,732.1
149.7883,655.7
149.7963,432.2
149.8317,111.7
149.9543,305.4
149.9804,17.2
149.9928,10549.2
150.0137,9834.3
150.0241,409.8
150.0266,69.3
150.0548,377.2
150.0646,99.1
150.0704,392.5
150.101,182.8
150.198,180.7
150.2125,420.7
150.2769,158.1
150.3964,136.8
150.434,82.4
150.4449,153.8
150.4842,569.9
150.5037,21.8
150.5478,233.1
150.5485,223.3
150.551,151.6
150.5639,436.8
150.5689,196.8
150.5705,321.8
150.6003,120.8
150.6271,101.4
150.7606,95.3
150.7615,97.3
150.7843,232.9
150.8192,328.4
150.8358,369.2
150.9261,184.3
150.9677,332.4
150.9768,68960.5
150.9841,359.4
151.0108,45.5
151.0293,115.4
151.0478,4170
151.0795,100.4
151.0877,694.5
151.0962,361.2
151.1332,1062.4
151.2361,184.6
151.2446,205.8
151.2514,189.1
151.2713,274.6
151.3277,163.4
151.3446,20.5
151.3599,90.5
151.4085,420.5
151.4248,213
151.4519,134.5
151.5382,433.7
151.5615,102
151.6021,154.7
151.6839,22.8
151.7186,201.7
151.7317,18.4
151.7982,163.9
151.8187,252.8
151.9441,253.5
151.9511,942
151.9801,314.9
151.9968,513.2
152,291.3
152.0221,7587.6
152.0318,4357.4
152.0417,745.2
152.0594,641.6
152.0907,128.4
152.1114,106
152.1292,366.1
152.2621,165.7
152.3374,254.6
152.4199,412.8
152.5074,27.2
152.5384,437.4
152.5897,709.8
152.5976,20.7
152.6286,45
152.6571,550.2
152.6795,17.5
152.7234,162.1
152.7697,119.7
152.7861,109.4
152.8063,19.1
152.9207,19.6
152.9749,2415
152.979,514.7
153.0509,200.1
153.1234,190.1
153.2155,268.3
153.2287,20.2
153.2309,407.8
153.2459,207.7
153.2546,153
153.273,236.4
153.2836,244.4
153.3272,204.5
153.3436,266.1
153.4249,581.2
153.5,424.7
153.8248,109.1
153.8449,246.4
153.8763,21
153.9335,356.1
153.9548,263.7
153.9635,401.9
154.011,211.5
154.0248,575.4
154.0264,408.6
154.0541,198.4
154.0587,3423.5
154.0899,564.8
154.117,168.9
154.2404,102.6
154.2479,608.4
154.2734,229
154.3357,228.6
154.3436,147.7
154.389,288.8
154.4201,17.8
154.4267,18.7
154.431,111.6
154.4563,692.4
154.5561,89.7
154.5699,165.4
154.576,157.8
154.6349,313.2
154.641,310.6
154.6648,47.3
154.7082,55.1
154.7354,137
154.7576,184.3
154.8009,384.8
154.8071,295.7
154.8166,145.7
154.8695,213.9
154.8804,946
154.9075,131.6
154.937,18.8
154.9417,99.4
154.9454,359.9
154.9877,101.5
154.9968,125.5
155.0106,339.5
155.0241,18.3
155.0427,3588.9
155.0491,141
155.054,6727.2
155.0614,161.4
155.067,658
155.0791,795.5
155.177,263
155.186,642.6
155.205,151.8
155.2304,135.9
155.2555,250.6
155.2602,783.6
155.2695,104.7
155.282,200.3
155.286,188.8
155.3153,17.8
155.3547,218.5
155.3571,155.2
155.3876,772.9
155.5218,19.4
155.5232,234.1
155.5329,744
155.5744,18.8
155.592,229.9
155.7148,104.9
155.7232,19.9
155.7524,158.6
155.8206,158.2
155.8286,509.1
155.8334,164.9
155.8536,226.6
155.8827,127.9
155.9146,98.5
155.9332,18.9
155.9439,352.7
156.0136,19.5
156.0331,153
156.0423,1022.5
156.0573,114.7
156.0768,43722.3
156.1708,563.4
156.1874,59
156.208,188.3
156.2185,143.2
156.2239,261.1
156.3589,172.2
156.3648,113.9
156.3855,507.7
156.3903,94.2
156.3995,151.2
156.4124,232.6
156.4471,44.3
156.472,335.2
156.5252,580.8
156.5412,109.6
156.5829,155.6
156.6769,270.4
156.8072,119.3
156.8226,280.8
156.9059,109.6
156.9096,20.3
156.9458,265.4
156.9484,327.2
156.9745,59.8
156.9801,813.1
156.9973,127.2
157.043,244.1
157.0529,107.1
157.0647,427.1
157.08,730
157.0972,333.9
157.1137,221.9
157.1396,170.6
157.1664,275.9
157.2617,317.7
157.3666,17.2
157.3677,59.6
157.3722,19.9
157.3786,763
157.4472,105.1
157.5044,602.4
157.5231,170.2
157.5504,159.8
157.5996,209
157.6515,176.9
157.6774,43.7
157.6904,95.1
157.7402,660.4
157.847,122
157.9482,410.8
157.9622,898.4
157.9646,335.1
157.9867,332
158.0125,207.6
158.0271,3337
158.0922,378.1
158.094,231.2
158.1877,113.5
158.1902,210.1
158.2054,246.9
158.2208,158.5
158.3083,433.4
158.363,916.8
158.4138,87.6
158.4473,371.7
158.461,189.4
158.4729,19.5
158.4967,106.6
158.4989,423.4
158.5363,18.4
158.5991,235.4
158.6076,109.4
158.6174,120.7
158.6486,194.9
158.657,415.9
158.6596,48.3
158.6641,157.3
158.6732,95.5
158.7079,235.7
158.7577,18
158.7607,697.3
158.765,18.7
158.8552,553.8
158.9194,761.1
158.928,696
158.9339,92.5
158.9641,12078.8
158.9965,6371.1
159.0112,26.2
159.0243,457.3
159.0304,90.4
159.1836,160.5
159.1898,416.1
159.1999,623.4
159.2049,252
159.2177,111.6
159.2653,113.9
159.3103,105.4
159.5155,222.8
159.576,198.3
159.5778,237.3
159.6115,293.9
159.6132,201.5
159.6445,94.9
159.6529,804.5
159.6762,370.2
159.6906,18.5
159.7219,374.7
159.7699,298.2
159.785,201.2
159.8159,210.6
159.8617,21.8
159.9351,17.8
159.9556,309.6
159.9999,17.3
160.0207,785.7
160.0231,66.1
160.0346,20461
160.0605,65442.7
160.1333,130.1
160.141,118.2
160.1627,109.4
160.1745,615.3
160.1939,126.6
160.2396,171.3
160.2734,378
160.3193,307.4
160.3219,362.5
160.3308,175.4
160.3482,666.6
160.3726,311.3
160.4303,140.9
160.487,290.5
160.5203,960.9
160.5412,506.3
160.5744,109.4
160.6087,150.4
160.6175,593.5
160.6419,21.4
160.7389,81.4
160.7542,257.7
160.8799,254.6
160.9549,642.8
160.9644,348.3
160.972,920.4
160.9806,245.1
160.9942,266.4
161.0048,377.8
161.0224,396.3
161.0296,228
161.0327,140.6
161.0504,468.9
161.0639,2220.4
161.0699,21.7
161.0882,23
161.0938,525.3
161.1327,396.6
161.1514,522.2
161.1871,161.7
161.2008,20.4
161.2287,575
161.2904,205.5
161.2976,446.4
161.3538,45.3
161.4104,160.6
161.4451,263.8
161.4709,423.7
161.4882,193.3
161.5202,538.6
161.535,199.9
161.5504,175.5
161.5696,143.8
161.5921,99.5
161.6263,756.4
161.7943,190.9
161.8373,592.9
161.8492,217.8
161.9185,601
161.9285,406.3
162.0363,133.7
162.0502,15876.9
162.0628,43.5
162.0648,103.9
162.0937,89.9
162.1127,112.6
162.1907,17.7
162.2997,17.4
162.3014,18.9
162.3413,178.7
162.3956,345.8
162.4519,378.5
162.5595,208.8
162.5834,311.3
162.6008,360.5
162.661,221.4
162.665,371.4
162.6679,315.4
162.6843,18.3
162.7546,196.5
162.7625,271.2
162.7726,106.6
162.7825,439.3
162.8118,261.2
162.8144,579.5
162.832,163.5
162.9558,5866.1
162.9774,303.2
162.9979,355.3
163.0156,2921.3
163.0655,266.9
163.0726,403.8
163.0768,744.6
163.1059,385.3
163.1167,500.1
163.1529,298.7
163.1584,85.4
163.4335,19
163.4578,137
163.5028,154.4
163.5176,654.3
163.5388,124.2
163.5394,130.5
163.5768,264.4
163.6327,276.8
163.6427,150.9
163.6453,877.5
163.6502,104.3
163.662,129.1
163.683,135
163.825,200.2
163.8322,361.4
163.8437,16.1
163.8524,826.7
163.8616,617.4
163.8975,271.8
163.9392,218.8
164.0188,107.5
164.0232,117
164.0295,16857
164.0415,149.9
164.0891,267.5
164.1348,82.2
164.2266,452.5
164.2533,177.6
164.2634,152
164.2926,458.2
164.3534,153.8
164.3643,83.1
164.4063,19.3
164.4186,112.6
164.4315,608.8
164.4345,262
164.4417,205.6
164.4904,107
164.4931,614.1
164.7172,132.4
164.8416,274.1
164.8616,114
164.9107,301.4
164.9206,11179.8
164.9301,22623.3
164.9352,1906.4
164.9925,864.8
164.9997,18.4
165.0013,421.9
165.0197,93.9
165.043,148.3
165.0911,327
165.205,108.8
165.2769,230.2
165.3177,589.8
165.3448,228.1
165.424,369.8
165.5018,134.8
165.5157,19.3
165.5185,104.9
165.5284,137.2
165.6317,175.3
165.7071,169.6
165.7313,618.7
165.7927,298.9
165.8404,20.4
165.851,90
165.8808,303.6
165.9061,193.4
165.9116,197.8
165.9668,2509.9
165.9749,170.2
165.9788,498
165.9878,5945.7
165.9951,23.7
166.0763,16.4
166.0839,2551
166.1156,143
166.2155,660.3
166.2615,230.3
166.2656,168.3
166.27,454.7
166.2907,21.4
166.3522,423.2
166.4069,127.4
166.5647,96.1
166.6358,174.7
166.9008,572.8
166.9123,361
166.9508,25582.8
166.9561,20
166.9769,219.6
166.9884,497.9
167.0077,163.6
167.0218,7719.3
167.0691,302
167.134,140.8
167.2534,137.8
167.2791,364.8
167.332,19
167.4601,18.1
167.4649,18
167.5052,163.5
167.5154,436
167.5258,18.6
167.5694,120.2
167.5912,115.1
167.6025,21.5
167.8492,440.1
167.8707,842.1
167.8782,18.5
167.9634,21.3
167.965,373.8
167.9748,114.8
167.9946,1674.4
168.0058,551.4
168.0117,773.4
168.0244,157.2
168.153,17.4
168.1671,84.6
168.3944,376
168.4676,241.6
168.5504,269.2
168.6137,106.2
168.6445,58.5
168.6788,18.7
168.7454,386.6
168.8708,936.2
168.8969,143.8
168.9488,1928.5
168.9798,333.6
169.0357,27.8
169.055,19
169.0584,63474.8
169.065,192.9
169.0848,43.5
169.0948,3948
169.1155,759
169.2005,20.5
169.2296,141.8
169.2948,999.5
169.3053,18
169.4056,156.6
169.435,441
169.5217,264.1
169.5586,263.5
169.5649,736.1
169.5938,151.3
169.6304,155.6
169.6859,342.5
169.722,110.1
169.8582,451.2
169.8757,584.7
169.8929,20.6
169.9801,151.8
169.9858,5351
170.0328,5896.4
170.0618,1255.7
170.0646,650.6
170.0925,37085
170.096,19
170.1025,320.8
170.2282,114.5
170.2465,626.2
170.255,392.7
170.2856,19.1
170.3335,105.1
170.3979,619
170.4863,129.7
170.5478,161.5
170.5794,258.7
170.6189,487.9
170.6286,728
170.6564,251.5
170.6836,243.8
170.7165,403.6
170.8067,78.6
170.8072,78.9
170.8545,3548.1
170.9459,114.4
171.0062,158.3
171.0169,1664.3
171.0227,545.7
171.028,699.3
171.0534,334.8
171.0688,364.2
171.084,303.4
171.0923,155.6
171.1025,464.3
171.1998,17.4
171.2338,19.2
171.2433,628.9
171.2734,165.3
171.3424,16.6
171.3463,128.7
171.3844,17.1
171.3999,474.5
171.4125,233.8
171.4441,744.1
171.4692,508
171.5,251.7
171.5075,181.9
171.5951,42.1
171.6338,48.7
171.6732,347
171.7765,235.5
171.8135,417.9
171.8493,17.8
171.912,328.4
171.9423,290.8
171.9518,156.9
171.9793,444.3
172.0212,217.1
172.0284,643.3
172.0323,606
172.1662,134.3
172.1803,344
172.1836,136.2
172.2392,151.9
172.2535,924.1
172.3867,18.5
172.4014,777.3
172.424,96.3
172.4665,84.1
172.4769,108.3
172.5601,141.3
172.5628,141.4
172.6257,247.2
172.7288,76.4
172.7395,146.9
172.7413,397.4
172.7475,154.4
172.8049,219
172.8515,2814.6
172.8597,469.9
172.8777,261.1
172.9206,430.3
172.926,164.4
172.9419,148.2
172.9543,116.9
172.9673,830
172.9798,1006.3
173.0268,321.5
173.03,672.7
173.0341,17.2
173.0426,458
173.0964,177.3
173.1476,133.1
173.2174,150.2
173.231,18.7
173.2591,531.8
173.2679,607.8
173.3094,145.6
173.3344,78.9
173.3417,18.8
173.3567,346.8
173.36,700.6
173.3904,610.5
173.497,149.2
173.5169,110.8
173.528,259.3
173.6973,734.4
173.7088,194.1
173.7275,102.1
173.7373,214.6
173.787,263.2
173.7994,34.5
173.9354,42.2
173.9495,563.1
173.9975,183.3
174.0762,18
174.0814,18.5
174.1093,187.1
174.1306,399.4
174.1417,294.7
174.1532,46.4
174.1653,265.5
174.263,707.5
174.2919,17.5
174.4271,98.8
174.5229,388.7
174.5708,160.5
174.5836,355
174.6453,507
174.6532,209.1
174.6866,132.4
174.7398,17.7
174.7487,19
174.8487,410.5
174.8629,155.3
174.8669,98.8
174.9124,147.1
174.938,3927.4
175.0194,467.3
175.0343,6572.9
175.0377,731.4
175.0407,18.1
175.0455,2962.6
175.0576,884.5
175.1191,75162.1
175.1406,269.5
175.2172,771.6
175.3408,284.8
175.3459,19.2
175.4034,18.2
175.5441,247.1
175.567,531
175.5857,19.4
175.6429,187.8
175.6702,117.8
175.7592,165.2
175.7768,700.5
175.8405,273.6
175.8706,300.7
175.8738,343.9
175.8973,295.3
175.9662,107
176.0085,7248.6
176.0406,444.7
176.0446,20.6
176.0659,21576.4
176.103,305.6
176.1127,274.6
176.1224,1748.2
176.1337,341.4
176.1739,17.7
176.211,44.2
176.2764,414.2
176.3468,464.1
176.3582,20
176.3641,40.1
176.4064,412.2
176.4429,351.4
176.4742,139.4
176.4966,235.7
176.564,306
176.6466,515
176.7192,424.5
176.7566,19.9
176.7853,269.9
176.8153,259.3
176.833,213.4
176.9087,162.8
176.9925,1689.9
177.0247,4815.9
177.0582,16.8
177.0611,7031.8
177.0693,444
177.0741,160.1
177.0749,168
177.0762,116.9
177.0783,47.1
177.087,1703.1
177.1702,376.4
177.2108,143.5
177.4013,19.2
177.4151,315.3
177.4245,19.7
177.4449,326.3
177.5076,170.9
177.6442,100.9
177.65,131.1
177.7713,267
177.8161,177.9
177.8536,517.4
177.9253,225.3
177.9275,125.4
177.9387,618.1
177.9881,170.1
177.9947,154.6
178.0038,17.9
178.0088,12201.5
178.0242,6197
178.0402,292
178.0588,3786.3
178.097,228.5
178.1665,435.3
178.2463,18.2
178.4774,180.4
178.5577,92.8
178.6565,169.1
178.6647,19.6
178.7108,440.7
178.7184,594.5
178.724,320.8
178.7573,16.1
178.8015,94.4
178.8205,814.8
178.831,217.2
178.9262,49.3
178.9535,322.6
178.9605,100.3
179.0104,293.5
179.0493,200
179.0636,41.5
179.076,273.1
179.1219,43.8
179.1366,547.8
179.1609,345.6
179.2184,17.7
179.2859,747.5
179.2895,347.3
179.297,334.4
179.3304,664.7
179.3358,40.7
179.4199,130
179.4528,17.9
179.5053,46.1
179.6101,109.7
179.625,182
179.6694,158.1
179.6823,133.9
179.6929,44.7
179.7013,329
179.9079,421.4
179.9436,443.7
179.9879,17.4
180.0034,9638.2
180.0094,455.8
180.0148,17.4
180.0532,86.6
180.0792,426.6
180.2383,532.5
180.3037,402
180.4274,190.9
180.529,343.4
180.5735,257.9
180.5792,305.5
180.5827,339.1
180.6557,20.4
180.7255,140.8
180.7441,320.1
180.7528,389.5
180.8225,361.3
180.8611,410.4
180.8761,454.2
180.8885,17.9
180.8946,7257.1
180.904,10218.9
180.9576,1451.7
180.9856,816.7
181.0135,660.1
181.0253,699.6
181.0555,167.5
181.0649,5872
181.1349,16.4
181.1452,278.6
181.1502,768.2
181.2125,164.3
181.2897,20.6
181.3433,166.2
181.3481,230
181.3622,676.7
181.3723,347.3
181.5225,629.8
181.6066,862.1
181.6235,177
181.6566,187.4
181.6632,175.4
181.71,265.6
181.7688,546.8
181.771,17.1
181.8086,403.4
181.9208,575.5
181.9417,99.1
181.9617,942.7
181.9724,281.1
181.9897,205.6
182.0127,187.2
182.0156,35
182.0426,30042.7
182.1009,355.2
182.1517,17.5
182.172,257.6
182.1917,325.7
182.2202,364.5
182.2666,327.5
182.3406,123.1
182.3569,199.1
182.3685,160.5
182.441,131
182.4812,160.8
182.4879,553.5
182.7019,19.5
182.7623,20.3
182.7994,163.9
182.8514,184.9
182.8801,179.6
182.9027,18.7
182.9331,358.1
182.9387,383.6
182.962,248
182.9731,87.7
182.9976,482.3
183.0397,778.6
183.0452,591.3
183.0523,188.2
183.0665,57.8
183.138,354.6
183.2572,757.6
183.3846,122.3
183.3954,170.2
183.4124,462.2
183.4574,94.3
183.6112,412.6
183.6436,120.3
183.6875,244.4
183.6944,19.6
183.698,410.9
183.73,103.8
183.7505,17.4
183.7622,749.7
183.7778,102.9
183.7901,375.4
183.8079,711.2
183.9416,19.4
183.9647,944.1
184.0373,1329
184.0532,339.3
184.0669,1193.4
184.0677,1475.8
184.0735,4993915.5
184.0815,1302.1
184.1005,150.9
184.1096,1462.3
184.1538,390.7
184.1679,108.1
184.1699,20.7
184.1822,1590.8
184.2602,732.6
184.2921,242
184.3004,480.6
184.3151,92.3
184.3771,344.6
184.3908,306.7
184.4428,412.1
184.4652,438.7
184.5081,222.1
184.5266,289
184.5661,373.6
184.5827,387.1
184.664,384.3
184.6984,16.9
184.7489,126.9
184.7511,90.1
184.7896,17.8
184.8044,190
184.8172,138.1
184.8306,113.9
184.8494,17.4
184.8808,48.4
184.9593,830.9
185.0324,70237
185.0704,11559.4
185.0768,234725.6
185.1092,114.2
185.132,843.6
185.1866,195.2
185.1878,175.6
185.4309,145.8
185.4596,815.4
185.5074,99.4
185.5496,116
185.622,583.8
185.6834,559.7
185.6936,20.4
185.7089,361.9
185.8678,326.8
185.893,169.9
185.9205,135.9
185.9598,2431.6
186.0257,151.1
186.0358,2437.6
186.0645,107.2
186.0777,30461.4
186.13,391.7
186.3193,351.6
186.3754,106
186.4114,162.1
186.4979,397.8
186.5966,186.6
186.6673,19
186.676,208.9
186.6945,18.2
186.7008,428.9
186.7918,881.8
186.8243,47.8
186.9121,5397.1
186.932,17
186.9616,102.4
186.9825,470.1
186.9971,202.7
187.0306,3218
187.0578,5469.7
187.0715,1598.8
187.1077,2803.6
187.1617,20.1
187.187,742.6
187.1935,15.7
187.3525,343.2
187.3575,937.2
187.4228,194.5
187.4283,448.3
187.4639,686.8
187.4847,297.3
187.4892,143.2
187.5177,227.7
187.6394,396.8
187.6424,17
187.6615,115.9
187.6658,324.5
187.7289,361.3
187.7829,107.3
187.829,17.1
187.8431,252.9
187.9047,325.2
187.9419,18.4
187.9951,633.5
188.0493,359.7
188.0707,255.5
188.0797,122.4
188.0826,257.9
188.1602,260.8
188.1659,18.2
188.1712,160
188.2119,18.3
188.3644,667.7
188.3981,310.6
188.5379,358.1
188.6086,18.8
188.6344,315.4
188.6374,18.5
188.6414,299.6
188.7878,169.7
188.8535,332.1
188.8916,183.5
189.025,138.7
189.0612,2493.8
189.0871,9461.2
189.0907,117.2
189.1953,406.7
189.3253,49.3
189.332,187
189.3646,135.3
189.3995,374.5
189.446,226.2
189.572,136.3
189.5875,352.5
189.6005,262.8
189.6534,86.4
189.6621,589.8
189.6657,147.4
189.6849,22
189.7736,432
189.8144,197.6
189.8693,95.4
189.9955,195.7
190.0875,442.3
190.09,215.5
190.184,345.7
190.2807,269.5
190.3218,106
190.3532,829.5
190.4468,153.5
190.5535,484.1
190.7819,92.1
190.8012,184.8
190.8242,337.9
190.8538,363.3
190.9121,1282.4
190.927,323.2
190.9277,324.3
190.9305,432.2
190.9422,17.1
190.9446,44.4
190.9932,18.8
191.001,98
191.0083,3838.1
191.0284,19.4
191.0404,133271.7
191.0443,149.1
191.0505,542.4
191.0588,181.4
191.062,122.2
191.0672,208.2
191.0768,24103.8
191.1031,129.1
191.1057,334.3
191.144,765.9
191.204,155
191.2278,558.7
191.3097,23.9
191.3343,240
191.3393,226.2
191.3641,276.6
191.5332,324.9
191.6675,371.1
191.6825,161.2
191.7406,167.1
191.7692,217.3
191.7872,229.1
191.9554,16.6
191.9824,669.1
192.0363,169.3
192.0399,10027.2
192.0438,4486.8
192.0801,473.9
192.1392,260.1
192.1549,17.8
192.2019,327.9
192.2708,94.3
192.3115,263.8
192.3179,491.5
192.3379,244.6
192.4087,338.1
192.4324,101.5
192.4384,778.9
192.4699,242.4
192.4881,431.5
192.4935,103.9
192.5136,103.5
192.5395,623.6
192.5482,257
192.598,178.1
192.6239,265.4
192.66,161.6
192.7447,459.9
192.7538,120.7
192.7744,169.7
192.8212,423.2
192.8671,203.3
192.9112,26.6
192.9616,688.6
192.9988,5237.9
193.0351,1051.5
193.0826,20.1
193.0948,676.4
193.2196,234
193.2616,17.9
193.3748,79.9
193.4596,143.2
193.5823,17.6
193.6355,132.9
193.7341,694.9
193.8434,363
193.8853,625.8
193.9,375
193.9651,242.7
193.9983,1587.6
194.0101,147.1
194.0225,630.6
194.0327,3384.4
194.0455,781.9
194.0902,351.7
194.0965,19.8
194.1541,44.6
194.2315,101.9
194.2381,215.5
194.2482,20.2
194.2608,455.2
194.2872,393.3
194.365,114.8
194.4555,260.9
194.5341,103.8
194.5977,241.4
194.7414,430.9
194.8216,19.7
194.8934,104.9
194.9059,163.8
194.9196,192.6
194.9811,240
195.0069,107.1
195.0094,154.4
195.0448,147.4
195.0577,936.1
195.1508,322.3
195.1575,235.4
195.1745,146
195.182,168
195.1891,426.1
195.2155,627.9
195.218,259.4
195.259,129.1
195.2659,17.8
195.2842,261.3
195.2998,238.1
195.3233,91.7
195.3597,85.3
195.4492,164
195.4889,536.3
195.5711,423.2
195.6033,330.4
195.7112,167.9
195.8304,684.5
195.9777,1139.3
196.032,201.9
196.0629,392.7
196.0792,56.6
196.1698,324.5
196.1824,144.9
196.2086,528.5
196.29,126.1
196.3602,89.5
196.408,119.9
196.4716,166.7
196.5415,675.1
196.5477,875.8
196.5524,142.1
196.6683,169.5
196.6996,18.2
196.743,410.6
196.7706,135.8
196.8388,107.9
196.8547,517.3
196.8653,5984.9
196.8686,1567.1
196.8781,1177.5
196.9135,17.2
196.9299,608.7
196.9879,732.1
196.9914,466.8
197.0233,408.5
197.0451,171.4
197.0605,156.3
197.0839,788.3
197.1007,393
197.1263,312
197.1736,278
197.2686,44
197.3042,142.9
197.3484,275.6
197.4427,118.4
197.4672,346.1
197.4951,179.1
197.5394,162.3
197.6097,19.4
197.6844,350.6
197.7136,327.1
197.7712,107.8
197.7771,44.5
197.8695,688.4
197.9166,129.3
197.9744,119
197.9785,115.4
198.008,250.2
198.0246,478.8
198.0291,102.2
198.0343,407.8
198.071,181.8
198.0851,5601.4
198.0948,785.5
198.159,121.5
198.1695,591.8
198.1854,4065.4
198.2117,192.5
198.2328,377.2
198.2516,249.6
198.273,96.5
198.2915,573.3
198.3312,19.4
198.5451,422.4
198.6199,90.5
198.6725,17.4
198.7462,285.4
198.7616,246.1
198.7824,598.5
198.8624,6427.1
198.8854,448.8
198.895,205.7
198.9738,23.5
198.9806,850.7
199.0166,25.4
199.022,134.8
199.0691,1531.7
199.0756,700.3
199.0804,108.8
199.134,470.4
199.1754,18.7
199.1858,379.6
199.1887,274.7
199.2203,117.7
199.3063,22
199.3697,211.9
199.3849,261.7
199.4355,163.2
199.4676,149.7
199.4816,170.1
199.5235,152.5
199.5388,136.1
199.5971,215.5
199.6592,249.2
199.6633,495.9
199.6944,181.5
199.7537,291.6
199.8388,86.8
199.8811,18.4
199.8891,695.6
199.9003,603.2
199.9103,617.3
199.9231,16.8
199.9908,35753.9
200.005,313.6
200.0103,325.4
200.0281,361.9
200.0408,12738.9
200.0571,154.4
200.0625,336.7
200.095,532.7
200.1096,11344.3
200.1229,352.3
200.1617,20
200.1963,159.2
200.2036,517.9
200.2094,228.8
200.2209,19.6
200.248,379.1
200.2571,541.5
200.2671,321.1
200.2726,631.5
200.3171,274.1
200.4262,19.2
200.4705,19.9
200.4768,232.5
200.4885,599.9
200.5012,20.7
200.5089,133.1
200.5653,132.5
200.687,285.7
200.7127,321.2
200.7595,164.9
200.8061,47.8
200.8594,1211.7
200.987,340.3
200.9944,125.2
201.0166,18.7
201.0549,113.6
201.0583,785.4
201.0872,970.7
201.1177,288.2
201.1619,18.6
201.2377,102.4
201.3505,364.3
201.3696,167.3
201.4132,19.8
201.4356,19.6
201.4544,87.7
201.4666,108
201.5537,93.4
201.5693,686.8
201.5897,17.3
201.6157,303.1
201.634,496.8
201.6607,18.6
201.8644,22.4
201.8694,345.4
201.9967,21.9
202.0884,18.4
202.3286,287.5
202.473,279.2
202.4838,19135.3
202.4925,201.1
202.5873,366.5
202.6699,104.1
202.6989,672.8
202.7082,375.8
202.7366,399.8
202.8232,43.6
202.8863,1450.7
203.0092,385.7
203.0258,323.9
203.0319,1911
203.0528,1435773.1
203.0769,8324.7
203.1785,117.1
203.206,427.1
203.2517,807.9
203.2663,516.2
203.3669,363.2
203.3914,588.2
203.403,99.6
203.6478,120.7
203.6582,80.5
203.7108,130.4
203.7281,335.7
203.7533,105.1
203.7639,518.3
203.8164,658.4
203.8235,141
203.8801,729.9
203.9459,337.6
203.9568,129.8
203.9812,92.2
203.9902,490.3
204.0065,652.5
204.0245,45322.5
204.0519,410.9
204.0561,73610.2
204.0601,508.2
204.0623,469.1
204.1117,166.9
204.1129,195.1
204.1139,183
204.1549,256.9
204.1932,115.5
204.2653,296.4
204.2819,170.5
204.3037,117.8
204.3543,185
204.3832,193.1
204.4346,331.4
204.6538,21.9
204.6696,17.7
204.744,620.8
204.8422,252.9
204.8571,48.4
204.8892,598.7
204.9966,17.9
205.0278,949.2
205.057,9824
205.0836,167.8
205.1069,448
205.1153,297.4
205.2016,675.3
205.2447,105.3
205.2831,151.4
205.3033,168.4
205.3282,134.8
205.4078,484.7
205.4506,21
205.4534,432.6
205.4975,823.2
205.5496,516.8
205.5532,91.4
205.653,117.6
205.6669,344.8
205.7288,287.3
205.8032,19.2
205.8293,187.3
205.8467,214.9
205.8802,712
205.9958,18.6
206.0552,2597.3
206.1939,393.7
206.259,124.8
206.3435,112.4
206.3937,145.4
206.4421,874.6
206.4716,94.4
206.5187,746.6
206.5809,261.6
206.6083,91.3
206.6372,119.8
206.6959,762.7
206.7046,20.2
206.7313,227.5
206.7651,163.1
206.7773,330.7
206.861,17.9
206.8829,97.6
206.8941,21071
206.9217,939
206.9302,366.8
206.9495,230.6
206.9822,1098.8
206.9993,18.7
207.0106,21.2
207.0144,88953.8
207.0443,1704
207.0508,12478.6
207.0599,187.3
207.0953,456.5
207.1117,20.2
207.2109,821.2
207.2173,339.1
207.2362,579.2
207.2965,291.1
207.3328,100.2
207.484,214
207.5909,539.4
207.6564,178.9
207.7282,96.2
207.7389,143.6
207.7539,259.1
207.7828,187
207.7878,437.5
207.8606,175.5
207.9628,116.9
208.0076,161.7
208.0137,1976.6
208.0177,2857.1
208.0616,148.2
208.0819,207.6
208.1364,146.1
208.2797,17.6
208.3553,86
208.5033,198.6
208.5568,296.1
208.5685,571.6
208.7486,390.8
208.8088,47.6
208.8227,551.8
208.8788,18.9
208.8835,32.7
208.8912,10813.4
208.9044,17.9
208.9181,187.9
208.9217,342.5
208.9467,161.5
208.9548,37.2
208.9826,135
208.9877,127.7
209.0126,1253.3
209.1099,139.8
209.23,962.6
209.2594,19
209.2708,626.6
209.2874,20.8
209.306,930
209.3283,19.1
209.3683,17.9
209.4033,333.4
209.5088,428.4
209.5374,563
209.5531,17.5
209.7645,18.6
210.7085,421.9
210.7763,563.6
210.8651,923.6
210.9589,154.4
210.9617,328.9
210.9993,20.7
211.0166,183.8
211.0566,407.9
211.0692,1916
211.109,109.2
211.168,358.9
211.1872,333.9
211.2024,29658.1
211.205,30905.9
211.2087,31419.6
211.2188,2135.8
211.2225,429.2
211.233,379.6
211.2723,151
211.3142,312.6
211.3354,426.4
211.4086,83.6
211.5226,407.5
211.5437,210.1
211.563,18.6
211.5685,120.3
211.6156,398.2
211.6313,595.4
211.6596,293.4
211.6718,117.1
211.7077,156.6
211.7825,823.2
211.9347,198.4
212.0314,235.4
212.0414,20.9
212.0702,445
212.0742,120.4
212.1045,248.4
212.1398,198.2
212.156,17.6
212.212,507.8
212.249,122.3
212.4228,164.3
212.4549,362.3
212.5276,379.9
212.5834,443.3
212.7014,17.8
212.7276,647.1
212.7313,90.9
212.7933,335.5
212.813,298.2
212.8392,2903.8
212.8732,157.2
212.938,566.5
212.9422,721.9
212.9659,79.2
213.0551,306.1
213.075,502.7
213.0869,195.8
213.1098,106.6
213.1543,108
213.1594,180.6
213.2148,366.6
213.2176,130.4
213.23,347.5
213.2459,700.6
213.2904,575.8
213.3894,89
213.4567,543.9
213.4635,176.6
213.5899,310.7
213.7278,199.8
213.7664,196.6
213.8628,425.3
213.8847,344.3
213.9096,17.6
213.9622,75.9
213.969,178.6
213.9814,164.4
213.9848,413.6
214.0069,1184.4
214.0591,5542.2
214.0898,909.2
214.1113,335.8
214.1432,599.9
214.2154,400.3
214.2485,155.6
214.3413,112.6
214.3644,279.1
214.4944,158
214.58,212.7
214.5989,479
214.636,153.5
214.8362,2488.4
214.8919,277.8
214.9182,787.4
214.9495,157.7
214.9552,104.2
215.0341,116.4
215.0428,184.6
215.0662,420.6
215.0822,656.9
215.093,42.6
215.1457,823.3
215.1768,468.3
215.2395,572.6
215.2543,133
215.3283,107.9
215.5751,310.2
215.7126,127.3
215.7172,103.9
215.7442,260.9
215.7644,195.8
215.9029,409.4
216.0147,7638
216.1113,19.5
216.2063,19.2
216.3787,89.7
216.4076,108.6
216.4105,258.2
216.5818,165.4
216.5945,17.1
216.6591,346.2
216.791,18.6
216.8587,688.4
216.9163,207.5
216.9229,54160.9
216.9846,66.9
217.0208,19.7
217.0271,72.7
217.1017,507.5
217.1436,374.1
217.3199,81.1
217.479,464.1
217.6228,275.2
217.6539,138.8
217.7137,343.1
217.8071,157.2
217.811,63.3
217.913,163.7
217.9498,354.9
217.9553,135
218.0062,50
218.0148,20.4
218.1496,186.2
218.1656,213.9
218.1708,355
218.1821,266.3
218.2184,24.1
218.2276,746.4
218.2449,363.1
218.3399,109.8
218.3928,18.2
218.4,172.9
218.4318,197
218.5599,280.8
218.5782,133
218.6223,181
218.6674,113.9
218.7918,187.7
218.7969,144
218.9199,14330.1
218.926,1255.4
218.9399,19.9
219.0047,18.4
219.0178,1329.9
219.0267,1645257.6
219.0475,110.3
219.0728,165.8
219.083,6600.2
219.0939,281.1
219.1081,265.9
219.1973,325.4
219.2428,128
219.3573,212.2
219.4036,188.2
219.5628,18.7
219.602,744.5
219.6413,16.9
219.685,232.6
219.7717,137.2
219.7888,319.9
219.8612,19.9
219.8828,539.6
219.9415,169.1
220.03,85715.8
220.0373,1045.2
220.067,5572.4
220.0915,457.4
220.098,254.7
220.1674,388
220.1752,136.7
220.4444,142.5
220.4569,271.5
220.5075,19.3
220.5215,314.9
220.5962,254.5
220.6901,20.7
220.7594,258.3
220.8184,21.2
221.0123,94.3
221.0248,98431.9
221.0311,13428.8
221.051,2377.7
221.0845,249.6
221.0877,338.7
221.3708,871.6
221.4341,349.6
221.4373,370.3
221.4628,19.8
221.5535,160.4
221.5905,395.8
221.7298,313.8
221.7925,20.5
221.803,20
221.8579,240.4
221.9445,281.4
221.9563,138.2
221.96,164.8
221.9695,323.8
221.9837,926.6
222.0223,122.7
222.0279,1597.2
222.0895,323.9
222.1259,106.5
222.1345,350.9
222.2921,153.3
222.3242,155
222.3378,172.3
222.4223,307.6
222.4486,297.7
222.6106,191.7
222.6893,146.1
222.732,187.9
222.868,15545.5
222.8792,2018.5
222.8887,475.8
222.9883,11847
223.0249,1921.7
223.0392,216.5
223.1331,173.4
223.1843,493
223.3472,16.9
223.474,441.3
223.5769,152.4
223.5984,175.8
223.6443,298.9
223.6616,429.1
223.741,528.4
223.8547,53.4
223.8904,196.6
223.9048,125.6
223.9531,23.5
223.9952,190.1
224.0018,203.7
224.0295,3171.2
224.2633,104.5
224.2789,191.8
224.2891,308.2
224.3015,800.8
224.3645,19.1
224.5125,87.5
224.5785,91.8
224.6004,158.7
224.6916,295.1
224.719,357.7
224.7382,624.3
224.7454,439.3
224.7683,111.4
224.8651,7770.5
224.941,335.9
224.9866,413.3
225.0122,219.4
225.0549,20675.7
225.0644,173.1
225.0842,943.7
225.1309,23.4
225.1403,255.5
225.2997,858.7
225.312,122.7
225.3434,23.7
225.5152,19
225.5368,48
225.5994,84.1
225.6526,17.7
225.6748,354.2
225.7212,124.9
225.7782,426.8
225.8766,126.4
225.9911,512.6
226.002,102.8
226.0064,2766.5
226.0243,5666.6
226.0452,8806.5
226.1688,21.5
226.2177,225.4
226.3563,450.6
226.3597,272.1
226.4408,19.4
226.5046,184.5
226.5193,18
226.628,325.7
226.7231,285.8
226.7445,362.1
226.8178,403.4
226.8435,324.7
226.8614,17.2
226.9124,349.1
226.9516,42752.8
226.9627,126.8
227.0216,18.7
227.0273,333.5
227.0343,671.2
227.0794,2140.4
227.0865,281.1
227.1579,188.7
227.171,156.7
227.1863,18.9
227.4889,358.9
227.5026,196.7
227.5108,425.7
227.6533,365.2
227.7013,546.7
227.7424,18.2
227.7649,111.9
227.7922,180.9
227.8863,16.6
227.9194,19.9
227.9542,691.7
227.9683,16.8
227.9845,81.9
228.0005,377.5
228.0223,1068
228.0828,972.7
228.0892,163.7
228.1976,202.9
228.3377,17.3
228.3493,186.4
228.3811,477.3
228.6071,343.4
228.8134,430.7
228.9011,45.7
228.9041,182.6
228.9869,108
228.9918,638.2
229.0156,542.8
229.102,309.2
229.2022,17.6
229.2292,115.6
229.2443,115.2
229.2535,304.2
229.2702,145.7
229.377,404.7
229.4431,479
229.5079,638.1
229.8024,186.3
229.8438,131.8
229.9571,389.3
230.0258,149.3
230.0334,152
230.0465,20.6
230.0604,20
230.086,666.5
230.0966,89.1
230.1146,442.9
230.1408,207.9
230.2002,173.9
230.2262,352.3
230.3062,251.9
230.341,21.6
230.5255,93.1
230.5718,111.6
230.6708,321
230.6895,104.8
230.7826,285.1
230.939,534.8
230.9438,397.1
230.9904,72.6
231.0209,338.7
231.0552,137.6
231.0847,1208.5
231.0949,145.8
231.1493,170.3
231.1552,112.3
231.449,315.8
231.5205,424.5
231.5219,419.6
231.5266,377.8
231.5751,317.3
231.6007,17.6
231.6236,205.3
231.6793,105
231.7675,300.9
231.8182,378.1
231.9953,385.8
232.0065,773.5
232.0217,21
232.2777,19.3
232.3177,158.7
232.3664,101.7
232.4844,121.4
232.5094,19.8
232.5853,209
232.6553,386.4
232.7147,23.7
232.7213,173.6
232.7764,158.3
232.8113,279.5
232.8322,20
232.8968,41979
232.983,246.7
233.0512,9123.8
233.1137,273.9
233.1444,24.4
233.1787,158.2
233.2635,241.4
233.2977,644.7
233.3368,162.7
233.4025,20.7
233.46,86.6
233.5157,229.8
233.5577,142
233.6682,163.3
233.888,414.4
234.0365,498.6
234.0551,167.6
234.0631,50.5
234.1482,302.8
234.1732,182.5
234.1799,277.8
234.2346,325.5
234.3154,213.1
234.3502,396.7
234.3983,108.8
234.5054,470.7
234.5312,18.3
234.5472,387.3
234.6159,188.5
234.6323,107.9
234.8374,336.7
234.8938,8822
234.9261,287.9
234.9818,1841.2
235.0501,163.7
235.0571,3227.3
235.0669,1423.6
235.0928,14680.2
235.1033,133
235.1525,94.6
235.2336,237.5
235.2358,239
235.246,383.3
235.328,528.3
235.3428,103.6
235.384,215.4
235.4357,631.9
235.4512,213.1
235.4698,465.8
235.5352,44
235.6065,417.2
235.7472,122.6
235.7678,86.5
235.7885,151.9
235.797,140.5
235.9449,301
236.016,29.7
236.0411,1793.4
236.0718,45615.6
236.0961,262.5
236.1279,121.5
236.2447,774.3
236.2591,20.8
236.288,178.2
236.4821,16.9
236.586,744.3
236.6818,259.3
236.769,573.3
236.7888,368.5
236.8992,291.4
236.9643,234.1
237.033,529.9
237.0432,810.4
237.0524,865.6
237.069,16.4
237.0751,1538.4
237.2275,120.8
237.3348,206.8
237.4588,350
237.4808,251.9
237.5846,694.8
237.6172,17.2
237.6322,227.3
237.6448,251.7
237.6506,121.2
237.6781,133.5
237.7709,93.8
237.8564,125.3
237.9685,165.3
238.0527,127.9
238.0675,504.7
238.0782,45.9
238.0951,88.2
238.2416,166.6
238.281,208.1
238.3029,361.4
238.4905,19.8
238.5222,423
238.596,417.1
238.6992,448.9
238.805,256.6
238.842,5813
238.8533,1941
238.8629,807.6
238.8846,19
238.9453,48.8
238.95,17.9
239.0385,162.3
239.0484,402.1
239.0527,163.5
239.0639,786.5
239.0694,293.4
239.1089,419.7
239.1132,351.7
239.1896,560.5
239.2173,158.1
239.2365,328.6
239.3109,18.3
239.4495,219.7
239.5992,424.8
239.7382,84.7
239.8616,91.9
239.8792,278
239.9012,17.1
240.0034,1007.9
240.0555,18.4
240.0994,1132.5
240.1809,767.6
240.2265,403.2
240.2319,168.7
240.2877,986.8
240.3893,113.3
240.4086,446.3
240.4375,336.3
240.4726,141.5
240.4991,19.2
240.5064,675
240.5164,139.8
240.5419,437.3
240.6131,129.7
240.6829,103.1
240.7736,21.6
240.8167,81.1
240.8392,1802.2
240.8582,386.1
240.9547,1473.4
240.9641,721.8
240.967,861
241.0286,19.2
241.1171,441.9
241.1472,19.6
241.1513,785.9
241.1637,18.4
241.1854,114.1
241.2778,394.3
241.2945,334
241.6787,369.8
241.7875,243.2
241.8008,17.9
241.8268,275.7
241.9113,397
241.9532,23.2
241.9797,123.2
241.9983,1325.3
242.0139,213.1
242.0193,3100.6
242.0492,678.4
242.2726,379.5
242.3151,165.5
242.3979,48.7
242.4642,171.7
242.4705,611.6
242.571,101.4
242.5813,151.6
242.6285,505.6
242.6326,623.5
242.7993,417.5
242.9256,22695.7
243.0067,38.5
243.017,108.2
243.0336,685.3
243.0533,8944.7
243.0656,6946.4
243.164,18
243.2247,17.7
243.383,197.8
243.4806,106.2
243.5445,138.2
243.5645,745.7
243.7849,894.9
243.8149,444.8
243.8404,414
243.8491,260.8
243.9287,705.3
243.9728,256.1
244.0126,313.4
244.0254,378
244.058,434.8
244.209,327
244.2121,21
244.3953,643.6
244.6615,23
244.7287,340.1
244.7335,473.7
244.7461,474.8
244.804,47.1
244.8709,8749.3
244.9057,773.3
244.9237,1693.5
244.9484,19.9
245.0827,18
245.1044,227.2
245.1654,30.1
245.2154,260.5
245.234,158.9
245.4855,232.5
245.4888,99
245.5388,17.3
245.5524,503.2
245.6172,45.3
245.6275,208.6
245.6873,925.8
245.7349,252.2
245.7513,17.3
245.7574,114.6
245.8676,608
245.9718,22.6
246.0013,214
246.0059,152.5
246.0366,181
246.0876,799.6
246.2136,21.4
246.3173,740.2
246.3426,46.2
246.491,156.8
246.5992,44.9
246.6444,634
246.7312,184.2
246.7522,19.8
246.8537,141.6
246.8679,1542.9
246.8926,627.6
246.9263,528.2
246.9663,216.1
247.027,435.9
247.0367,1712.2
247.0496,144.8
247.0578,844.3
247.0669,1941.1
247.0856,173
247.0928,4648.3
247.2272,310.2
247.3277,225.9
247.368,190.4
247.3741,207.1
247.3811,491.1
247.4481,173.8
247.4564,130.4
247.4922,541.6
247.5376,178
247.5423,131.9
247.5975,292.6
247.7061,354.4
247.7583,202.8
247.8229,337
247.834,727.2
247.8505,167.5
247.9107,180.5
248.0961,102.1
248.1243,11118.6
248.1533,23.2
248.1783,418.8
248.1884,137.5
248.2649,232.8
248.2879,131.9
248.4314,539.5
248.4435,182
248.4634,202.7
248.542,646.6
248.8409,128.5
248.8565,324.1
248.8708,11086.1
248.9292,780.4
248.9518,20.9
248.9991,286.3
249.0161,1510.8
249.0614,16863.7
249.1012,280.6
249.2143,745.4
249.2441,149.9
249.3563,19.6
249.3799,150.9
249.3981,281.9
249.4987,116
249.513,18.8
249.6003,18.9
249.6202,145.9
249.9313,703.5
249.9365,437.1
250.0401,104.8
250.0646,394.5
250.1501,409.4
250.1947,564.9
250.2244,571
250.2403,15.7
250.2957,674.4
250.3114,144.6
250.4587,18.6
250.6634,257.6
250.7322,158.9
250.7542,452.9
250.7892,819.6
250.8227,158.6
250.8678,2002.2
250.8953,118.9
250.9205,3814.6
250.9348,340.4
251.0005,59.6
251.0049,617
251.0211,123.6
251.0341,353.3
251.1414,156
251.2386,189.1
251.4955,904.1
251.5536,21.7
251.5806,469.2
251.7631,342.2
251.798,423.1
251.8105,341.3
251.8582,500.5
251.9239,307.8
252.0291,27.1
252.0364,328.4
252.0458,110958.9
252.0741,152.6
252.1363,300.7
252.2346,497.9
252.5222,18.1
252.7372,143.3
252.8035,203.8
252.8248,118.5
252.8883,376.7
252.9173,1569.9
252.9282,123
252.9846,635.2
252.9884,20.3
252.9977,60.2
253.0493,5424.6
253.0677,748.1
253.2182,346.9
253.2872,275.6
253.2896,288.5
253.3334,447
253.4389,657.3
253.4727,97.6
253.5001,163.5
253.566,20.8
253.6074,20.8
253.691,21.5
253.695,400
253.7294,254.3
253.7375,161.4
253.7441,157.8
253.8816,217.6
253.892,492.8
254.0327,18.5
254.0441,3036.5
254.0704,19.1
254.1605,550.3
254.1734,549.2
254.4743,146.9
254.4838,21
254.5111,229.7
254.6256,104.3
254.7081,120.5
254.799,435
254.816,827.4
254.824,6360
254.9104,19.3
254.9235,633.3
254.9378,327.6
255.0331,30194.2
255.0382,702.3
255.0466,495.3
255.0598,221.9
255.1195,117.5
255.154,164.9
255.1983,741.5
255.2908,115.5
255.3144,383.7
255.3946,375.1
255.4462,245.3
255.527,262.4
255.5915,113.3
255.6261,300.2
255.6568,431.7
255.6767,209
255.6932,293.3
255.7772,323.9
255.8196,102.5
255.8984,223.9
255.9782,2603.4
255.9859,273.3
255.9923,164.5
255.9983,114.6
256.0068,19.1
256.0364,708.2
256.0583,68.8
256.171,230.5
256.2508,159.3
256.2661,595.9
256.305,419.2
256.3109,579.2
256.4762,452.5
256.4853,168.7
256.5012,54.2
256.5598,143.3
256.6884,97
256.6927,391.4
256.6979,486.9
256.7378,161.1
256.821,11774.4
256.9295,544
257.0489,7242.3
257.065,788.9
257.0747,61404.4
257.2387,722.5
257.2786,551.3
257.2876,179.4
257.301,19.6
257.544,77.9
257.6084,91
257.7223,132.7
257.8328,445.5
257.9727,832.9
257.9928,434.2
258.0302,89.8
258.0516,162.1
258.0781,3220.9
258.1104,25858.5
258.1638,352.6
258.2793,95.9
258.3978,183.3
258.4335,21.6
258.4527,402.9
258.5004,20.6
258.7235,141.3
258.8181,5173.5
258.8706,321.5
258.8997,4326.7
258.9549,17.9
259.0198,20.5
259.0359,153.1
259.0447,137.8
259.0762,19.1
259.1346,249.8
259.1641,102.6
259.27,654.3
259.4112,406.4
259.458,172.2
259.4988,419.9
259.5763,362.7
259.6456,407.7
259.9127,215.7
259.9929,336
260.0169,68.6
260.0583,189.1
260.1269,343
260.1455,133.3
260.1599,422
260.3669,17.7
260.4491,306.2
260.4697,127
260.6311,137.4
260.776,185.8
260.8152,793.6
260.8298,489.9
260.8447,3678.1
260.9325,245
260.9492,9304.8
261.0058,165.7
261.0234,258.6
261.0414,82.4
261.0464,143
261.0536,373.2
261.0976,519.6
261.1611,313.1
261.1914,931.5
261.2892,85.7
261.3595,469.3
261.53,425.7
261.6159,310.8
261.8299,197.8
261.9652,132.1
262.0697,155.9
262.0817,3681.5
262.3065,129.1
262.4359,184
262.4428,23.6
262.5588,307.3
262.59,212.3
262.7167,355.9
262.7365,250.4
262.7763,120
262.8415,569.6
262.946,1048.4
262.9608,160.8
263.0133,231.4
263.0324,168
263.0852,1560.6
263.1319,21.7
263.1481,449.4
263.1811,243.6
263.3106,117.3
263.36,263.8
263.4801,139
263.5331,214.9
263.5813,123.5
263.8535,332.9
264.0934,385.6
264.11,298.4
264.1283,444.8
264.3514,151.8
264.3611,19.3
264.3976,18.2
264.4757,181.9
264.5149,306.4
264.525,19.9
264.5586,405.9
264.5706,154.4
264.6477,820.7
264.6933,166
264.8116,21.6
264.8448,1281.1
264.853,6161.5
264.8699,111.9
264.9508,190.5
264.9595,142
264.9734,338.3
264.9887,66.5
264.9953,18.9
265.0165,291.6
265.0353,9787.4
265.0478,2203.9
265.0651,173.9
265.138,159.6
265.2439,639.3
265.2833,608.9
265.3793,407.7
265.4494,710.2
265.47,120.8
265.5409,452.5
265.5905,21.3
265.6653,287
265.6695,18.9
265.6752,113.9
265.692,179.6
265.7299,329.2
265.7423,538.7
266.0313,250.9
266.0508,365.2
266.1913,302.4
266.2482,400
266.2915,113.7
266.5415,472.5
266.5478,124.6
266.6984,22.6
266.7288,480.3
266.753,290.6
266.8329,119
266.8342,119
266.8501,5863.5
266.8656,99.8
266.8945,2773.8
266.9188,176.4
266.9249,17.2
266.9611,107
267.0131,109.2
267.0337,105.6
267.219,775.8
267.2323,579.1
267.3532,809.8
267.3842,130.2
267.3922,575
267.4055,142.6
267.6476,1710
267.6544,98
267.6818,264.9
267.7925,261
267.8318,436
267.8477,19
267.8806,708.3
267.8882,143.2
267.9321,21.1
267.9397,141.2
267.9656,711.4
267.9849,596.3
268.0319,239.2
268.6687,240.1
268.8014,148.2
268.8221,590.3
268.8855,162.2
268.8915,1878.2
268.9759,515.2
268.9984,554.2
269.0309,158.9
269.0345,525.9
269.0488,47761.9
269.0838,271.1
269.1247,360.1
269.1564,467.8
269.1797,610.2
269.2597,271.3
269.274,19.7
269.3169,54.2
269.3222,233.8
269.4443,273
269.4644,268.5
269.4905,158.6
269.5166,399.2
269.6055,132
269.6389,90.6
269.658,326.4
269.7534,20.5
269.7595,131.6
269.773,343.3
269.9436,334.3
269.9551,139.6
269.994,2275.3
270.0249,822.4
270.0358,86.8
270.0475,23786.2
270.052,455.7
270.145,1188.4
270.3275,150.1
270.3977,186.5
270.6305,108.7
270.735,255.3
270.7981,2860.1
270.8044,335.3
270.8728,876.5
270.9544,529.3
270.9581,367.4
270.978,19975.2
270.9977,20.1
271.0032,279.6
271.007,208
271.025,152.8
271.0509,383.4
271.0782,402.1
271.0904,1367.8
271.1138,413.4
271.2054,393
271.3587,583.9
271.3662,632.6
271.4334,186
271.456,422
271.6016,151.8
271.8012,269.9
271.8862,289.7
271.8931,469.6
271.952,789
271.9648,474.2
272.033,462.5
272.0435,123.9
272.0477,62.8
272.0806,327.8
272.2337,419.6
272.3978,20.1
272.4148,383.2
272.5585,145.7
272.5727,21.2
272.6553,609.4
272.7415,156.3
272.7949,5076.5
272.8034,358
272.8302,365.4
272.8901,587.4
272.9444,652.1
272.9643,598.4
273.0488,5851
273.2291,101.8
273.2461,436.3
273.2654,413.2
273.3249,193.6
273.4016,57.7
273.4067,115.7
273.469,107.1
273.5999,366.4
273.6314,153.5
273.7074,867.3
273.7765,168.9
273.8533,453.2
273.9194,324.9
273.9628,1047.1
273.9738,203.1
274.0018,335.8
274.0482,24.2
274.0562,269.7
274.0691,163.2
274.0826,215.5
274.0845,126
274.0925,2072.1
274.2339,156.8
274.4192,505.5
274.4678,20
274.5482,304.2
274.7921,1482
274.9391,155.6
274.9447,172.5
275.0608,118.8
275.0959,51.8
275.1581,20.1
275.2214,870.4
275.2254,102.3
275.314,44.5
275.3564,978.9
275.3934,474.4
275.6379,114.1
275.7337,115.2
275.7736,459.7
275.8558,160.4
275.9392,372.7
276.0033,55.5
276.0845,127.4
276.1647,243.8
276.261,199.3
276.4126,99
276.4251,736.2
276.4364,411.4
276.5783,120.4
276.7302,379.5
276.7404,753.5
276.8778,1113.1
276.9232,8092
276.9551,531
277.0287,183.2
277.0437,176.4
277.2742,284.7
277.3072,463.4
277.3403,19.9
277.366,97.6
277.3775,815.6
277.6779,217.2
277.7672,149.8
277.7846,269.7
277.7919,400.7
277.8013,133.6
277.9149,122.9
277.9506,353.9
278.0194,440.7
278.0231,493.3
278.0492,105.1
278.1549,727.8
278.2008,419.6
278.2059,425.1
278.2571,167.4
278.2795,143.8
278.4383,359.9
278.5184,225.9
278.5529,21.5
278.6068,900.5
278.6364,102.7
278.719,82.7
278.7619,22.9
278.7784,104.8
278.9875,1203.3
279.049,108.1
279.0568,39928.9
279.108,317.1
279.279,218.6
279.494,177.6
279.5974,448.1
279.6024,354.3
279.6149,366.7
279.6168,486.1
279.6181,512.1
279.6249,118
279.7624,298.9
279.8242,849
279.8265,266.2
279.8325,626.7
279.8388,130.6
279.8483,21.9
279.8546,19.9
279.862,130.9
279.9096,519.8
279.9868,151.9
280.0161,295
280.0602,1824.5
280.0922,390.2
280.2045,187.1
280.2499,255.6
280.3718,20.9
280.4623,159.3
280.7373,321.2
280.796,233.7
280.8105,93.3
280.8267,1097.2
280.8384,1782.9
280.86,21.6
280.9622,498
280.9835,163.6
280.9883,376.7
281.0091,855.1
281.0514,243.5
281.2839,18
281.3791,436.8
281.3896,352.8
281.4333,17.8
281.4492,43.2
281.6891,160
281.752,242.2
281.8335,125.5
282.0148,159.3
282.0648,402
282.0848,271
282.1801,181.4
282.5034,298.7
282.6397,641.9
282.7586,116.4
282.8049,223
282.824,2301
282.8507,297
282.9056,46
282.9324,48.2
282.9377,21.1
283.0279,757.8
283.0666,19.9
283.1198,167.4
283.1914,356.5
283.265,21
283.2764,79.3
283.4758,86.7
283.4932,239.7
283.5062,690.2
283.6114,18.7
283.7014,134.2
283.9028,463.3
283.9219,20
283.9529,164.4
284.0519,27
284.063,162.2
284.0798,358.7
284.1449,169
284.1881,324.3
284.2583,706
284.4244,310.3
284.4338,702
284.5236,145.8
284.5598,295.1
284.5957,235.8
284.6713,304.1
284.7875,164.2
284.8211,454.7
284.8659,382.1
284.9929,855.5
285.0002,22.5
285.0161,21.7
285.0468,417.3
285.0547,25
285.1235,1303.5
285.1636,194.9
285.2268,321.9
285.3226,402.2
285.5487,31.4
285.6015,391.4
285.7662,221.5
285.9681,1139.3
285.9774,130
285.9816,175.7
285.9892,873.4
286.0199,328.6
286.0421,44.5
286.0965,95.6
286.2095,119.8
286.2897,746.3
286.33,913.8
286.3832,485.6
286.7046,135.2
286.7243,87.2
286.743,223.3
286.7496,475.3
286.7722,2421.3
286.7815,337.5
286.8363,99.7
286.8964,51.9
286.9174,21.7
286.9519,7985.9
286.9983,90.8
287.0061,205
287.0404,19.8
287.0555,29487.1
287.2169,145.6
287.3,16.8
287.4796,272.1
287.5267,18
287.6943,149.3
287.8697,21
287.9017,19.3
287.9092,428.1
287.9977,132.3
288.0044,155.6
288.0141,23.1
288.059,1167
288.0707,294.2
288.0848,111.4
288.1557,21424.5
288.1766,396.3
288.2764,17.8
288.2853,391.1
288.3986,105.2
288.4088,692.4
288.4465,465.5
288.4742,51.9
288.4972,363.6
288.5281,48.9
288.5542,259.2
288.7297,324.3
288.7691,3535.7
288.8507,540.1
288.8605,493.2
288.8654,553.8
288.873,1919.6
288.8782,2767.5
288.8828,1996.5
288.8883,2321.6
288.8917,3220.7
288.8975,4971.5
288.9021,5770.6
288.9127,12299
288.9239,14032.8
288.933,15530.2
288.9365,16811.3
288.9442,18418.1
288.9482,18108.1
288.9528,17650.4
288.957,16261.1
288.9639,20590.4
288.9731,13253.1
288.9767,15180.8
288.9818,12076.7
288.9876,3377.8
288.9925,5761.5
288.9974,3848.5
289.0028,1825.2
289.0072,1341.9
289.0173,1735.9
289.046,853.9
289.0612,166.9
289.0731,741.1
289.1077,84.8
289.1593,1563.2
289.2059,179.9
289.2214,787.1
289.2317,266.3
289.28,21
289.4789,598.3
289.6334,223
289.7817,362.8
289.8256,144.1
289.8592,323.8
289.9405,557.2
290.0353,381.8
290.0803,34.4
290.1014,39.9
290.4064,164.2
290.4936,105.9
290.5153,386
290.5208,434.4
290.7662,2020
290.8396,659.5
290.8666,510.8
290.9913,369.2
291.0268,2581.3
291.0486,17.9
291.1028,148.3
291.2372,232
291.3227,159.6
291.3351,133.9
291.397,465.4
291.5568,314.5
291.7644,211.4
291.8532,486.3
291.9731,369.5
291.9835,531.6
292.0228,53.8
292.0798,232.6
292.1029,491.9
292.144,236.6
292.2855,409.3
292.2929,88.2
292.299,105.7
292.3476,258.6
292.379,453.4
292.4178,360.2
292.4593,113.7
292.5511,474.4
292.5909,274.5
292.6035,98.1
292.7067,166.7
292.712,172.7
292.7189,535.3
292.7939,169.2
292.8241,313.4
292.8967,1144.7
293.0727,2419
293.0877,193.7
293.0984,203383.7
293.1115,372.8
293.1192,23
293.1538,328.7
293.1791,1383.5
293.2939,272.5
293.3196,93.8
293.364,167.3
293.3985,234.1
293.5674,95.1
293.5795,132.4
293.6206,20.9
293.7319,319.6
293.7374,427.8
293.7862,17.1
293.9811,239.1
294.0104,864.6
294.0579,744.6
294.078,815.7
294.0955,362.8
294.1018,16880.2
294.3371,385.5
294.3657,373.3
294.4067,169.6
294.4269,99.2
294.6305,886
294.6346,728.2
294.7812,414.9
294.8671,466.8
294.8936,629.3
294.9398,703.7
294.9907,595.6
295.0309,2453.7
295.0648,675.5
295.1023,816.2
295.1948,26601.4
295.4081,17.5
295.4159,356.6
295.4825,155.1
295.5591,133.8
295.7259,404.6
295.7784,572.7
295.7933,277.1
295.7986,218.4
295.839,17.5
295.8757,762.3
295.9505,471.6
295.9855,172.2
296.0094,770.1
296.0572,559.4
296.1983,884.3
296.2522,297.4
296.3779,621.3
296.6279,18
296.6938,155
296.8011,548.7
296.8121,487.5
296.86,364.8
296.9876,513.2
297.0225,101.5
297.0991,17.7
297.1241,345.9
297.1528,593.1
297.3553,1268.2
297.3906,823.8
297.419,383.8
297.4979,478.5
297.5431,383.9
297.6506,488.1
297.7613,150.4
297.9581,173.8
297.9738,407.2
298.0093,390.5
298.0249,1507.4
298.0425,14330.7
298.2729,120.1
298.437,941.8
298.5028,460.8
298.5739,153.7
298.8588,160.1
298.861,359.6
298.8626,360.2
298.951,104.2
298.9865,202.2
299.0231,1037
299.0458,520.6
299.0619,20.7
299.1394,3792.4
299.1962,860.9
299.2232,320.2
299.3869,165.5
299.4464,503.8
299.4927,135.6
299.5125,21.1
299.6181,217.2
299.7209,457.8
299.7358,398.3
300.0049,728.4
300.0209,17.4
300.0384,179.8
300.0488,60.7
300.0755,615
300.1964,47
300.3381,214.9
300.3655,198.9
300.462,99.2
300.4763,170.8
300.6863,265.5
300.6924,18.7
300.7664,430.3
300.8227,406.5
300.8301,230.3
300.848,192.4
300.9122,202.8
300.9523,357.1
301.0387,24137.5
301.0459,224.4
301.1015,191.8
301.1238,663.5
301.1357,230.6
301.1414,267
301.1912,22.3
301.212,3521.1
301.2189,130.6
301.2889,25.8
301.3871,301.8
301.3944,311
301.4283,136
301.5961,296
301.6169,181.2
301.7208,264.5
301.7336,223.6
301.8277,458.4
301.8395,452.3
301.9567,306.5
302.0201,155.9
302.0346,28.4
302.0508,23.4
302.0641,5009
302.095,52
302.1776,417.8
302.2748,200.9
302.354,384.2
302.3998,246.4
302.4754,293.3
302.5516,198.3
302.6736,204.4
302.6916,1213.3
302.7369,90.3
302.8294,3491
302.92,360.5
302.9467,103.9
303.0675,497.1
303.2173,1367.9
303.2549,358.6
303.4207,19.6
303.4931,343.5
303.5635,113.1
303.6488,206.3
303.6878,412.9
303.7299,18.9
303.7994,337.9
303.9866,24.2
304.0599,191.2
304.284,439.2
304.3154,82.2
304.5905,638.5
304.6611,445.2
304.77,45.8
304.791,164.4
304.8269,1716.9
304.8342,352.9
304.8959,695.3
304.9028,256.2
304.9552,18.6
304.9755,994.1
305.0334,818.1
305.3644,167.1
305.4471,160.1
305.5591,373.8
305.7992,120.9
305.8223,357.3
306.0002,214.9
306.0498,108.7
306.0578,485.7
306.0907,212.6
306.0952,97.6
306.1008,385.4
306.2507,61.8
306.3181,19.9
306.3382,420.2
306.4659,435.7
306.638,78.2
306.682,670.6
306.7395,412.8
306.9578,542.2
306.9774,2753.3
307.2667,347.7
307.3353,46.7
307.3769,304.9
307.4549,21.9
307.5907,277.7
307.7074,99.5
307.7119,19.5
307.8952,403.1
307.9798,19
308.1226,20.5
308.1751,20.6
308.281,376.6
308.4222,19.2
308.5296,418
308.5431,705.5
308.6434,544.1
308.6914,190.4
308.7464,904
308.8793,3994.1
308.8993,639.4
308.9165,127.3
308.9918,806
309.0064,406.3
309.0377,2063.3
309.0642,139.3
309.0796,836.9
309.1097,17.3
309.132,194.8
309.1734,166.4
309.2412,20.2
309.3482,400.4
309.4218,166.8
309.6041,290.9
309.7695,147.1
309.8754,229.7
309.9191,557.3
309.9251,136.6
309.9739,506.5
310.1541,540.9
310.2592,184.3
310.2691,276.7
310.3156,149
310.3509,438.6
310.3756,638.1
310.4953,186.1
310.5313,115.4
310.5378,576.3
310.5808,409.5
310.7019,196.9
310.7163,146.3
310.8761,2728.5
310.9272,1001.4
310.9774,409.7
311.0034,166.8
311.0731,461.4
311.1629,22
311.2652,533.9
311.3052,572.6
311.4545,159.8
311.5428,200.6
311.5972,391.7
311.6484,110.9
311.7158,17.8
311.7746,121.8
311.9438,113.6
311.9991,146.7
312.0407,1089.1
312.1591,248.4
312.1821,182.7
312.3529,111.9
312.589,112.8
312.7252,20.2
312.7462,197.9
312.7858,470.7
312.8731,879
312.927,480.7
312.9697,429.5
313.002,74.4
313.0191,668.3
313.0391,102
313.1457,21.4
313.2592,20
313.2741,68472.7
313.505,315.3
313.6457,173.9
313.7599,125.7
313.7842,46.9
313.7994,127.1
313.8666,378
313.9993,1000.6
314.0148,265.1
314.0576,400.5
314.0915,93.2
314.1125,23.1
314.2774,9941.9
314.3925,358.1
314.5206,424.6
314.557,289.2
314.5651,256.6
314.6324,17.8
314.6746,131.9
314.7803,1148
314.8014,192.6
314.8371,2711.4
314.9555,170.9
314.9584,189.7
314.9992,5756.3
315.0041,1919.5
315.0367,212.8
315.0432,523.3
315.0449,536.7
315.0554,11680.9
315.0599,2756.9
315.0619,3545.6
315.0641,5112.1
315.0665,15292.6
315.0699,19947.2
315.0734,16580
315.0804,6265937.5
315.0872,20020.8
315.09,12107.3
315.0922,8035.7
315.0944,5585.5
315.0966,3241.4
315.0988,2737.7
315.1008,3063.7
315.1028,1497.4
315.1073,1732.7
315.1092,1389.3
315.1198,154.5
315.124,141.3
315.1616,5963.1
315.2608,286
315.2642,193.8
315.3238,3231.3
315.4341,214.5
315.486,574.7
315.5696,97
315.7852,103.4
315.8419,118
315.8616,407.6
315.9792,970.6
315.9982,125.7
316.0313,175.3
316.0526,55.5
316.0694,947.7
316.0777,34096.9
316.0837,650510.3
316.1708,20.2
316.1767,169.6
316.2469,389.7
316.2545,18.5
316.3436,403
316.7626,331.8
316.8447,20.2
316.9252,802.6
316.9873,1545.3
317.0037,358.8
317.0566,231.8
317.0653,1042.4
317.0714,163.5
317.0842,74522.2
317.0882,13290.5
317.1912,467.9
317.2015,786.8
317.3327,142.2
317.5724,430.9
317.5914,211.1
317.6722,23
317.771,152.8
317.7981,1087.7
317.8127,432.4
317.8883,256.3
318.0017,181.7
318.021,142.8
318.0878,6776.3
318.1016,839.9
318.1925,103.6
318.3635,26.5
318.4493,256.2
318.5136,305.8
318.7189,316.2
318.8035,2963
318.8363,422.7
318.8505,111.5
318.8891,693.4
318.9074,895.2
318.9595,18
319.0156,415
319.0887,180.3
319.1774,91.4
319.1948,38789.2
319.349,335.4
319.5743,18.4
319.6995,552.3
319.74,400.4
320.0753,421.7
320.198,4376.5
320.2592,2295.3
320.2789,501.3
320.344,130
320.4578,150.8
320.4847,107.9
320.5293,357.2
320.606,414.1
320.6243,304.8
320.6938,20.6
320.8004,1105
320.8587,18.3
320.9023,21.1
321.0055,30.1
321.077,183.2
321.0941,118.6
321.1283,20.8
321.2105,55063.6
321.2623,148.3
321.3954,210.7
321.5483,736.4
321.5945,153.6
321.6271,17.8
321.6874,169.2
321.8393,387.4
321.8896,22.3
322.0091,135.2
322.0195,21.1
322.0514,133.6
322.1996,113.4
322.2136,4931.6
322.2283,478.8
322.2743,385.3
322.4945,244.1
322.5069,418
322.5532,384.9
322.589,18
322.6229,20.4
322.7225,20.7
322.8117,607
322.8655,218
322.9656,289.7
323.0207,17314.3
323.0266,584.2
323.226,2896.3
323.2428,369.4
323.2965,22.4
323.4265,345.3
323.6813,204
323.7507,153.6
323.7793,19.4
323.9008,470.7
323.9355,266.3
323.9544,428.5
324.0027,267.8
324.0127,117.8
324.0741,173.7
324.1001,379.1
324.2616,197.6
324.2912,213.9
324.4703,22.2
324.575,4209.6
324.5852,4529.5
324.6145,602.3
324.8533,2779.2
324.8652,266.7
324.9203,733.3
324.9648,271.8
325.1358,126.7
325.1814,562.8
325.2031,626
325.212,3896.5
325.2605,333.3
325.5299,302.6
325.5483,152.8
325.5654,207.1
325.5681,443.7
325.5698,421.4
325.6432,527.3
325.9006,518.1
326.0044,52.5
326.1527,210.8
326.1721,19.4
326.1954,161.9
326.3181,643.2
326.3429,180
326.4443,259
326.4703,1203.2
326.5986,143.3
326.6404,24
326.7422,21.3
326.7535,195.1
326.8037,130.5
326.8244,887.2
326.8502,2677.5
326.875,19
326.9524,554.8
326.9563,593.2
326.9856,86.6
327.0154,3823.7
327.0518,1909.3
327.1406,361.5
327.2173,1128
327.2274,15891.4
327.3923,18.7
327.5531,506.3
327.696,21.6
327.8414,20.6
327.9657,319.6
328.0108,119.3
328.2308,2564.1
328.2676,649.4
328.3303,555.9
328.3896,29.6
328.4034,162.8
328.4239,624.8
328.4441,370.1
328.4556,651.3
328.4823,447.9
328.5712,186.9
328.7237,841.7
328.82,913
328.8319,484.3
328.8476,400.6
329.096,1024.5
329.1345,158.7
329.1754,179.4
329.2424,745.3
329.3444,517.9
329.3624,19.2
329.4907,290.3
329.5021,339.5
329.5143,769.4
329.5706,232.6
329.626,761.2
329.6375,315.3
329.9739,305.9
330.0591,164.7
330.084,500.5
330.0964,96.3
330.1423,610
330.2549,798.4
330.3609,136.1
330.71,563.3
330.7365,286.8
330.7636,366.1
330.8668,120.1
330.9874,23.5
331.0198,1994.6
331.0455,95298.1
331.0543,849329.3
331.3864,132.9
331.7169,131.4
331.7295,295.6
331.7572,186.4
331.795,119.5
331.8804,150.4
332.0484,6531.8
332.0577,76222.8
332.2724,90.9
332.3139,18.3
332.4055,412.7
332.4601,21.5
332.8182,439.4
332.9106,20.2
332.9484,609.1
332.9609,1948.1
333.0525,49119.7
333.058,8212.4
333.0838,24.2
333.4441,325.3
333.6137,181.5
333.663,206.6
333.8759,281.6
333.9442,575.5
333.9637,555.5
334.0056,787.9
334.0559,3936.3
334.0692,117
334.0806,20.7
334.0913,866.7
334.1227,336.4
334.1472,127.4
334.5121,365.7
334.6228,141.1
334.7661,133.2
334.7996,104.1
334.8818,424.5
334.9303,21.7
335.0232,81.7
335.0378,280.7
335.1767,22
335.3066,257.8
335.3439,139.1
335.352,294.7
335.4145,763.2
335.5638,388.5
335.5931,102
335.6096,313.8
335.7548,296
335.8509,21.4
335.9176,219.1
336.0088,214.6
336.0785,183
336.3897,18.6
336.4501,96.1
336.5309,94.8
336.5411,835.3
336.6129,53.1
336.6381,479.8
336.6533,45.9
336.8564,90.1
336.9664,250.7
336.9966,19.1
337.0364,14900.4
337.0498,18479
337.0623,577145.4
337.0964,281.4
337.1092,148.6
337.1737,835.5
337.216,490
337.2741,18023
337.2876,266
337.4609,663
337.6773,372.9
338.0057,788.6
338.0533,403.6
338.0656,51966.4
338.0907,606
338.1004,171.1
338.1324,645.8
338.2288,512.8
338.2777,1204.1
338.3087,167.1
338.5345,24.1
338.5468,216.5
338.7425,295.2
338.8382,502.9
338.9948,576.3
339.0383,1042.8
339.0472,973
339.0662,4442.6
339.1094,345.3
339.1572,118.4
339.1786,175.5
339.2511,3381
339.2897,14283.2
339.483,310.3
339.5197,144.4
339.8131,115.2
339.8896,289.9
340.0424,98.2
340.1272,620.9
340.1465,398.6
340.1941,153.8
340.2932,3022.3
340.4864,164.9
340.6093,162.2
340.676,211
340.7176,340.4
340.7684,483.8
340.7827,977.5
340.8753,618.2
341.0183,150.5
341.3056,9272.6
341.3357,174.8
341.3653,159.4
341.4157,293
341.6181,758.8
341.6648,180.5
341.77,253.1
341.7827,184.5
341.7956,766.3
341.8615,118.6
342.015,75.6
342.0514,636.5
342.2853,267.1
342.2937,18
342.3091,2350.6
342.3503,600.6
342.3793,333.3
342.7807,368.7
342.8013,339.9
342.9892,1260.8
343.0256,982.8
343.0625,268.2
343.0714,18.6
343.1122,145.4
343.1825,18
343.1949,18140.8
343.2333,171.6
343.2625,19.5
343.2793,97.1
343.4986,322.9
343.6716,313.6
343.7827,339.3
344.0011,211.3
344.0389,23.1
344.1752,596.7
344.1984,1177.1
344.2759,97.7
344.4621,97.6
344.5046,189.5
344.6715,427.6
344.8682,144.4
344.8729,697.1
344.9877,19.7
345.0862,285.1
345.1237,499.4
345.1383,389.8
345.1769,190.7
345.2107,1142.6
345.3819,86.5
345.4756,172.6
345.6217,117.2
345.8175,268.7
345.8244,148.7
345.8607,51
345.9838,10819.9
346.0089,23.6
346.0566,133.3
346.4033,454.8
346.7335,291.5
346.7577,300.6
347.2007,426.9
347.2508,573.3
347.4529,732
347.4795,99
347.6306,332.1
347.7053,304.8
347.7981,758.4
347.822,16.7
347.8934,17.4
347.9101,235.7
347.9231,277
347.9333,304
347.9509,379.9
348.0514,18.3
348.1345,456.9
348.2047,363.7
348.222,23.1
348.4137,141.8
348.4342,326.6
348.7143,98
348.7671,653.3
348.8138,715.2
348.9348,762.9
349.0849,111.5
349.2545,93.3
349.2596,124.6
349.3349,157.1
349.5443,131.6
349.8534,247.6
349.8687,198.8
350.0039,22.7
350.0143,54.6
350.1443,427.6
350.4698,441.8
350.5822,86.5
350.6983,305.7
350.8996,342.4
350.9272,190.5
351.1406,250.9
351.2178,674.7
351.2548,169.2
351.3686,274.8
351.5185,18.4
351.6776,206.7
351.7861,412.3
351.8835,122.1
351.9384,394.1
352.0493,194.9
352.0904,26.1
352.2181,591.4
352.8577,154.5
352.898,903.6
353.0274,119583.3
353.0363,190474.8
353.1305,655.4
353.4099,174.1
353.6123,259.5
353.8371,179.5
354.0306,9473
354.0396,17056.9
354.2746,699.2
354.2948,20.3
354.3805,21.7
354.4333,89.5
354.4856,576.9
354.5359,105
354.6627,890.1
354.7794,687.5
354.8498,209.6
355.0029,97.9
355.0119,1715.7
355.0346,10083.5
355.0698,955.7
355.1859,131.5
355.2147,174.3
355.3399,21.6
355.3845,266.6
355.6919,19.4
355.7729,112.6
356.0149,93.4
356.0407,614.5
356.0703,86.2
356.1159,22.5
356.2256,127.9
356.2844,513.8
356.3055,379.3
356.3469,117.3
356.3949,650.8
356.43,23
356.4542,668.1
356.5791,171.8
356.672,286.2
356.7459,444.7
356.8766,545.5
356.928,351.8
357.0078,1454.9
357.0197,171.4
357.0616,216.3
357.156,272.7
357.3776,106.1
357.5746,159.3
357.5884,20.4
357.5932,260.5
357.6142,192
357.6226,546.2
357.696,504.7
357.7972,1007.9
357.8349,751.5
358.0121,50.2
358.0968,134.3
358.1963,29.1
358.3163,313.5
358.3241,353.6
358.477,571.8
358.6135,341
358.6799,430.4
358.6868,357.6
358.816,97.1
358.8734,17.3
358.9859,145.7
359.0076,486.3
359.0185,97.1
359.0318,16405.1
359.0443,382876.5
359.0661,325.6
359.1741,458.2
359.2474,24.4
359.2558,862.7
359.4399,109
359.4804,177
359.502,782.3
359.5163,224.9
359.5648,401.9
359.5766,440.9
359.5966,366.6
359.6233,564.2
359.6446,192.9
359.6604,615.7
359.6775,178.4
359.6836,226.8
359.6881,294.9
359.7269,233.1
359.7326,248.2
359.8808,21.5
360.0477,34440.1
360.2301,202.5
360.2602,20
360.2653,295.4
360.267,295.2
360.3244,1469
360.3606,129.8
360.4668,27
360.5662,318.5
360.7009,99.3
360.8735,287.9
360.926,20.6
361.0205,5612.1
361.0295,773.2
361.0481,1351.6
361.2744,1465.6
361.327,196.2
361.4087,249.7
361.4861,130.9
361.757,455.2
361.8333,21.2
361.8441,512.7
361.95,752.1
361.9584,1120.6
361.9937,17
362.0238,102.7
362.108,102.6
362.1602,19.2
362.1707,192.4
362.2936,167.5
362.3236,743.5
362.3505,717.8
362.4221,361
362.5922,670.4
362.6856,411.8
362.7098,47.3
362.8632,546.9
362.9264,986
362.9543,614.6
363.2223,844.2
363.2503,103.1
363.291,727.5
363.3378,323.2
363.4039,438.6
363.6958,560.6
363.713,86.9
363.8831,505.8
363.8952,577
363.9052,366.3
364.1169,113.9
364.4823,110.3
364.5974,423.8
364.613,167.6
364.6457,346.8
364.6616,115.2
364.8292,590.5
364.8906,186.3
364.9984,365.9
365.1059,501.5
365.2549,269.2
365.3607,162.4
365.5285,727.9
365.6722,122.8
365.8573,48.5
365.8696,488
366.0282,556.4
366.0808,89.2
366.0891,124
366.1133,159.6
366.1812,85
366.2782,19.6
366.3318,164.2
366.3797,404.8
366.5875,137.7
366.6014,202.2
366.6781,173.2
366.7926,909.9
367.0437,117.6
367.1488,585.2
367.1781,498.6
367.1945,1839.5
367.5717,142.3
367.7211,400.5
367.7314,573.5
367.9133,428.2
368.2566,288.8
368.5585,702.3
368.5816,170.5
368.6042,233.9
368.8234,169
368.8699,151.6
368.9486,19.1
368.9928,663.7
369.0013,11964.4
369.0103,7009.4
369.3521,27
369.5556,138
369.6712,96.9
369.8662,528.1
370.0052,245.4
370.0146,106.2
370.1091,346
370.1168,135.9
370.2167,773.7
370.2568,818.1
370.3494,151.7
370.3941,196.2
370.6134,550.7
370.7409,456
371.0001,172.1
371.0085,367.7
371.0423,1400
371.1009,29
371.1351,117.3
371.2134,461.7
371.2637,471.8
371.3072,181.6
371.5233,202.9
371.5499,22.5
371.695,750.1
371.8695,21.2
371.9767,462.2
371.9846,17.7
372.241,433.1
372.2456,367.1
372.3075,253.6
372.3303,161
372.6637,158
372.6887,1186.3
372.9122,20.8
373.02,467.6
373.2286,93.5
373.2793,458.6
373.5406,327
373.6339,285.2
373.8694,158.7
373.9906,423.3
374.1129,137.4
374.1717,336.9
374.2711,246
374.4323,490.4
374.5174,335.6
374.6075,202.2
374.6578,577.5
374.7651,697.2
374.7737,336.9
374.922,307
374.9493,1174.1
374.9762,311.8
375.0093,121762.6
375.0183,105364.6
375.1024,18.6
375.4399,988.3
375.5072,368.4
375.5468,21.9
375.6468,723.5
375.6922,365
375.7088,138.3
375.946,19.2
375.9962,54.1
376.0125,8698.5
376.0215,9970.4
376.0355,116.5
376.2243,232.6
376.2566,137.2
376.4216,561.7
376.4318,992.8
376.5162,363.8
376.5417,596
376.5641,795.5
376.5846,758.9
376.7513,364
376.7633,325.4
376.9058,93.9
376.9808,157.4
376.9942,1307.2
377.0064,428.7
377.0166,6860
377.2584,400.6
377.3644,212.1
377.4429,113.6
377.5263,116.5
377.5322,332.7
377.6832,18
377.7588,21
377.8041,128.9
378.0201,360.5
378.1744,297.6
378.1848,156.5
378.2146,19.1
378.25,691.3
378.2616,135.9
378.3345,461.8
378.365,307.8
378.4068,110.8
378.4414,107.9
378.7123,368
378.7293,153.8
378.7406,234
378.7829,172.2
378.7895,124
378.9004,1059.2
378.9903,38.1
379.0118,612.5
379.2073,184.1
379.2689,698.2
379.521,269.7
379.6207,89.2
379.8213,110.2
380.0422,28.8
380.268,322.7
380.3322,209.7
380.4827,868.2
380.5113,126.1
380.6902,429.8
380.7301,18.2
380.7687,410.3
380.8611,357.7
380.9214,16.1
380.9771,162.2
380.9909,33.8
381.0029,118.1
381.0138,30477.6
381.0262,246596.5
381.0979,454.1
381.1757,92.5
381.2235,137.4
381.521,415
381.5572,467.3
381.6041,155.5
381.8562,285.5
381.9969,122
382.0136,821.2
382.0296,21256.9
382.228,404.8
382.2307,379.5
382.3675,492.5
382.4099,328
382.7014,572.4
382.7675,1839.9
382.8569,888.2
382.9017,19.7
383.0114,1192.1
383.0306,734.9
383.1164,212147.3
383.1441,272.5
383.2822,165
383.4674,305.1
383.4842,400.7
383.9317,305.4
384.081,118.7
384.1016,95.4
384.1197,23441.7
384.1345,174.2
384.3392,257.2
384.5871,379.6
384.6291,485.1
384.694,18.4
384.8395,257.5
384.8918,22.1
385.0834,183.7
385.1207,881
385.3775,164.2
385.4361,284.1
385.4942,352.2
385.529,22
385.5542,387.1
385.5689,538.6
385.7389,568.6
385.831,333.5
386.1506,422.8
386.8862,460.8
387.1219,117.1
387.5754,262.4
387.8667,385.8
387.9538,86.2
387.9929,23.9
388.0467,393.9
388.0557,19
388.0899,433.1
388.4071,22.5
388.4601,519.3
388.6144,159.8
388.6698,305.5
388.7117,403.6
389.0109,113.2
389.1001,50.4
389.1632,685.5
389.2565,294
389.2712,99.6
389.3013,185.2
389.3567,179.1
389.397,104.3
389.5938,733.5
389.7194,356
389.85,291.4
389.9737,11730.3
390.0746,394.3
390.1363,251.5
390.382,23.4
390.4409,103.4
390.5821,156.4
390.7107,471.5
390.7176,100.3
390.7988,1597.6
390.8362,152.1
390.8618,101.1
390.8714,190.3
390.8931,514.3
390.9226,229.6
390.9628,422.9
390.9741,9566.7
390.9832,19813.6
390.9921,11899.4
391.1833,50.6
391.5299,81.4
391.6072,373.8
391.7384,112.2
391.8043,104.4
391.9974,205.2
392.0684,168.6
392.1909,152.4
392.2176,1057.9
392.2879,18.1
392.4385,723
392.4602,444.8
392.7808,103.2
392.7964,1442.2
392.8778,253.9
392.9104,291.6
392.9592,23.5
392.9691,428.7
392.9827,123.9
393.2256,51.6
393.2981,25.5
393.7034,809.8
393.7544,196.8
393.8082,416.4
393.8601,190.3
393.9621,125.1
394.2106,190.4
394.3451,168.5
394.5921,765.5
394.7935,566
394.8509,112.5
394.9548,18.5
394.9636,412.9
395.1117,415.8
395.1397,264.3
395.1476,17
395.1906,650.6
395.334,340.6
395.4222,437.1
395.5185,403.6
395.614,849
395.6481,19.9
395.8057,323.2
395.8488,321.9
396.0488,494.1
396.1385,413.2
396.1791,176.8
396.2151,154
396.4875,390.9
396.7443,1409.9
396.8829,172.7
396.9913,189921.3
397.0001,72181.3
397.1588,141.6
397.2214,173.1
397.2772,85.7
397.4682,129.9
397.6496,83
397.6993,530.1
397.9944,16725.9
398.0035,4292.1
398.2123,389.5
398.2417,5085.2
398.5456,89
398.6287,18.5
398.7415,1515.9
398.7574,334.8
398.9773,184.6
398.9989,989.4
399.0097,17.6
399.0623,348.3
399.0908,827
399.2645,759.9
399.462,241.3
399.7695,283.3
399.9441,915.4
399.9994,550
400.0123,258
400.2148,246.6
400.2299,754.6
400.3596,276.8
400.4011,269.9
400.4263,183.4
400.697,321.4
400.7219,105.4
400.7386,665
400.8329,628.1
400.949,452.2
400.9839,2231.2
401.034,490.6
401.6324,51.3
401.6899,344.1
401.7068,254.8
401.826,21.5
401.9894,49.1
402.0053,1083.7
402.1616,101.6
402.2634,313.9
402.3316,22.4
402.4434,332.6
402.5134,264.9
402.6004,50.7
402.6629,849.7
402.6903,106.6
402.8252,1234.3
402.9867,211.5
403.0081,306803.2
403.0912,18.7
403.3868,454.9
403.6245,328
403.9435,419.6
404.0114,27503.2
404.3221,120
404.3325,393
404.4165,457.7
404.4414,226.4
404.4448,306.4
404.4483,247.6
404.5077,128.5
404.5768,464.9
404.6875,292
404.7477,20.7
404.9384,537.3
405.0115,622.7
405.2101,376.6
405.2632,544
405.5346,17.8
405.5419,549.9
405.6791,747.5
405.7307,820.9
405.748,386.4
405.7576,803.6
405.7674,105.3
405.7796,369.2
405.792,84.2
405.8094,46.9
405.9477,5729.3
406.1056,93
406.1913,296.6
406.2231,167
406.3295,1289.8
406.3874,243.2
406.7732,2155
406.865,142
406.9924,325.2
407.0019,222.2
407.1303,294.4
407.2159,486.8
407.2856,170.5
407.333,252.7
407.4004,258.7
407.5073,582.1
407.7095,508.9
407.9445,394.9
407.9809,186.7
408.0983,103.3
408.1314,344.3
408.1435,418.4
408.1585,94.2
408.4257,212.9
408.464,206.3
408.7395,882
408.7694,1506.1
408.9852,993.1
409.0118,22.6
409.205,129.1
409.2766,157.6
409.3431,348.6
409.6679,453.8
409.8299,101
409.8865,588.6
410.1064,105.5
410.7646,720.1
410.7811,47.7
410.8834,199.1
410.9086,385.2
410.9712,177.3
411.0756,739.1
411.1058,176.4
411.1134,440
411.1257,248.4
411.2154,21.6
411.3223,147.2
411.4171,171.1
411.6426,285.3
411.7133,141.6
412.227,275.5
412.3216,1637.9
412.5731,477.1
412.7518,197.6
412.7776,594.3
412.8475,785.6
412.9004,214.9
412.9652,29654.4
412.974,11813.2
413.0694,359.8
413.2669,3394.7
413.2931,19.2
413.3247,267.6
413.5784,168.8
413.6099,236.4
413.7516,91.4
413.7604,543.4
413.8056,488.8
413.8898,668.8
413.9678,1171.9
414.2699,290.2
414.2967,86.9
414.6567,114.2
414.6957,582.5
414.7152,888.2
414.7271,783.5
414.8804,611.4
414.8945,564.4
414.9459,354.9
414.9634,501.1
414.9977,1040.6
415.0366,65.8
415.2227,1306.5
415.2471,302.4
415.9562,576.9
416.1354,12343.8
416.2144,17640.8
416.2436,46.8
416.2853,89.8
416.3085,272.7
416.4566,188.9
416.5133,19
416.5229,236.3
416.6015,135.5
416.6757,154.8
416.7304,363.6
416.8628,134.1
417.0425,400
417.1387,548.1
417.2177,2188.4
417.3204,578.4
417.4031,198.9
417.4367,663.9
417.4855,135.7
417.6676,214.9
418.0838,405.6
418.239,84.3
418.2515,198.3
418.3765,546.8
418.5438,102.3
418.9821,98943.1
419.0307,607.6
419.0446,382.3
419.0552,614.5
419.1235,597.1
419.2512,479.3
419.4408,125.5
419.64,107.9
419.9108,233.7
419.942,585.4
419.9853,5372.3
420.0779,80.2
420.2456,265.9
420.2595,45.6
420.2859,555.3
420.3262,18.5
420.7621,978.9
420.885,1124.2
420.9802,3082.3
421.1222,434.5
421.1885,201.9
421.3631,385.9
421.5387,162.5
421.575,490.3
421.632,20.7
421.839,818.9
421.9213,423.3
422.1941,735.5
422.2695,114.9
422.3033,120
422.3204,19.3
422.4744,206.7
422.5575,27.1
422.6797,324.8
422.7377,175.1
422.7469,418.5
422.8103,97.1
423.3269,711.1
423.3435,157.5
423.4914,20.8
423.628,480.9
423.8766,198.5
423.9438,124.5
424.02,179
424.0454,21.7
424.1066,578.4
424.6221,433.1
424.6601,461.8
424.7115,167.3
424.7443,909.9
424.9003,129.3
424.9776,509.6
425.0456,599.3
425.1775,522
425.2431,530
425.2638,18
425.3037,20.4
425.6106,732.6
425.6456,20.6
425.8755,19.3
425.9176,181.7
426.0453,164.3
426.1447,678.9
426.2918,187
426.5706,105.5
426.9938,114.9
427.0549,164.6
427.2194,242
427.2449,195.3
427.4417,20.1
427.6301,311.8
427.7703,337.9
427.9612,447.2
428.3197,115.4
428.8085,87.1
428.8198,1021.4
428.8472,151.1
428.8587,224.6
428.9391,1672.4
428.9518,221.3
428.971,313.9
428.9846,911.7
429.0894,274.1
429.2416,48.6
429.2602,1408.5
429.4551,206.7
429.5128,315.8
429.663,246.6
429.6846,268
429.947,757.6
429.9571,520.1
429.967,502.4
430.0276,172.9
430.1715,289.7
430.4667,107.6
430.7076,589.1
430.7097,615.6
430.9137,1158.7
431.1122,21.3
431.2172,6698.8
431.4326,162.4
431.7745,20.1
431.9836,118.6
432.1273,181.4
432.4038,423.9
432.6939,484.8
432.7094,193.1
432.7289,313.3
433.0419,162.7
433.1852,164
433.1949,132.1
433.6605,215.8
433.8408,21.6
433.9008,845.2
433.9858,175.8
434.0041,755.6
434.03,523.5
434.6503,160.5
434.6926,530.6
434.8167,19.8
434.827,295.9
434.956,14927.6
434.9666,191.1
435.1981,232
435.5775,245
436.2037,283.1
436.4924,108.7
436.5038,95.1
436.6889,204.6
436.8782,330.2
436.9513,333.7
436.9716,92.4
437.1864,800.9
437.2045,2561.8
437.4097,210.2
437.7204,174.1
437.7307,308.5
437.8036,137.8
438.0114,554.4
438.0564,19.3
438.1766,335.1
438.4633,19.3
438.5844,309.9
438.6469,19.4
438.741,182.4
438.9369,642.5
438.9725,3030.4
438.9845,2679.7
439.1332,166.4
439.222,303
439.3004,426.6
439.3524,44.5
439.4575,312.1
439.5031,439.6
439.5317,22.6
439.5378,304.6
439.6558,169.8
439.8903,529.7
439.9736,363.5
440.0988,206.3
440.1245,961.7
440.3325,555.8
440.3545,123.5
440.5725,350.3
440.5897,152.1
440.6104,778.6
440.6645,475.6
440.7249,490.3
440.8447,370.4
440.9702,584.6
441.2381,1489.5
441.2982,310.5
441.3508,373.6
441.4182,22.1
441.5884,804.4
441.7354,371.1
442.3017,26.2
442.4414,84.9
442.8045,23.1
442.8483,284.7
442.9829,644.5
443.2544,2202.5
443.3557,109.7
443.5524,192.4
443.8023,629.2
444.0899,478.1
444.149,423.6
444.2038,419
444.2287,361.8
444.2887,17.1
444.3102,389.3
444.3304,198.8
444.4479,152.1
444.4874,132.3
444.7982,110.5
445.0679,389.1
445.1179,127.1
445.2332,3468
445.2688,1443.4
445.3187,85
445.3573,20.2
445.3658,514.9
445.4098,273.1
445.5099,166
445.619,17.9
445.6871,139
445.7116,254.6
445.9259,264
446.2722,860.8
446.6761,22.8
446.7649,288.6
446.8879,774.8
446.974,102.6
446.9981,425
447.1605,715.3
447.3318,220.2
448.3369,462.6
448.3977,168.7
448.4825,163.4
448.5541,309.2
448.6481,110.2
448.6686,705.9
448.7358,19.7
448.75,184.8
448.9324,3174.4
448.9848,561.1
449.0005,855.5
449.1544,2111.1
449.2111,443
449.2368,128
449.4041,578
449.5027,21.4
449.5827,654.8
449.6501,178.7
449.6882,100.8
449.9777,592.5
450.1577,421.8
450.2181,143.1
450.5432,699.3
450.5946,19.8
450.7039,973.3
450.7541,352.9
450.8401,166.1
450.9324,502.2
450.9918,456
451.1501,140.7
451.2993,22.2
451.628,341.8
451.795,486.5
451.8949,776.2
451.9983,385.1
452.1181,418.9
452.1519,181.3
452.1977,24
452.349,23.2
452.7466,17.1
453.1315,145.1
453.4551,19.5
453.7853,373.4
454.0068,20.2
454.0789,181.1
454.1125,17
454.1473,134.4
454.2981,221
454.5438,105.2
454.5611,226.5
454.637,51.5
454.6848,356.1
454.7686,277.4
454.8315,522
454.95,45795.3
454.9779,180.6
455.3515,167.1
455.4657,18.9
455.7227,323.1
455.9455,708.1
455.9531,1381.4
455.9957,104.9
456.0424,360.6
456.3079,269.4
456.4444,103.2
456.6294,834.8
456.6458,272.9
456.6995,608.4
456.7123,383.5
456.8696,468.4
456.9469,11467.6
456.9971,702.2
457.0113,387.6
457.212,297.2
457.2329,18491.3
457.2779,460
457.3618,455.5
457.6906,124.8
457.7829,18.1
457.9299,109.8
457.9484,333.2
458.0485,378.3
458.135,625.6
458.2354,1839.2
458.2555,19.8
458.333,110.4
458.3497,117.8
458.7121,168.9
458.8614,463.7
458.8989,285.2
458.9617,2872.3
459.0653,116.7
459.1285,193.8
459.2486,655496.8
459.2836,281.9
459.3169,332.5
459.3699,18.1
459.378,561.7
459.4078,102.9
459.5782,80.5
459.7775,754.8
459.9651,772
460.049,166.7
460.1242,26.4
460.16,111.2
460.1694,273.6
460.252,135983.2
460.2829,18.8
460.4581,21.2
460.5986,224.1
460.6168,572.5
460.6707,115.6
460.7266,153.4
460.9668,89539.8
461.0521,374.2
461.0994,20
461.1812,739.4
461.2554,8915.9
461.3771,222.2
461.419,198.2
461.4753,388.7
461.9289,18.7
461.9701,6795.7
462.1267,272.3
462.1812,208.9
462.2545,80.9
462.3106,209.6
462.6174,110.9
462.6468,52.3
462.6637,208.4
462.7003,237.9
462.7556,19.7
462.8071,20.5
462.9638,23092.2
463.0171,49
463.2029,1808.9
463.2342,142.8
463.2573,184.7
463.4358,165
463.9668,580.5
464.2201,285.9
464.493,415.7
464.742,117
464.7623,204.2
464.9179,295.8
464.9789,9505.8
465.1317,20
465.3058,187.7
465.4444,763.5
465.7048,105
465.9558,132.5
465.9928,207.4
466.2174,148.9
466.2814,235.2
466.3233,457.9
466.3975,210
466.4088,297.5
466.7183,254.1
466.8353,237.2
467.3581,186.8
467.4228,184.4
467.6709,241.2
467.6954,108
467.7913,215.2
468.0204,166.2
468.1291,455.8
468.3089,1361.4
468.3683,19.1
468.8366,284.4
469.0979,191.4
469.1399,23.8
469.2999,924.2
469.3298,31.6
469.454,205.9
469.6109,19.5
469.8058,425.2
469.8176,376.1
469.8594,188
469.9512,588.2
470.5046,105.7
470.6224,119.3
470.8999,105.4
470.9238,18389.1
470.9563,43.7
470.9952,2941.2
471.285,1881.9
471.3256,183.7
471.3361,47.2
471.7133,364.6
471.7403,611.9
471.9278,369.2
472.0103,189.1
472.0281,516.8
472.1566,184.1
472.1731,18.6
472.2967,297.5
472.5378,259.4
472.8684,177.5
472.9213,6424.4
472.9363,1813.2
472.953,968.1
473.0409,20.8
473.2137,1041.9
473.2642,10332.2
473.7154,208.2
473.7415,120.1
474.0148,466.9
474.2417,771.2
474.2677,745.9
474.4656,258.8
474.5832,307.9
474.6184,109.8
474.6471,214.1
474.6726,307.1
474.9192,286.7
475.0107,112.5
475.1768,230.2
475.2226,28359.2
475.2652,298.5
475.2802,192
475.4018,282.3
475.7425,191.5
475.8796,915.1
476.0238,455.1
476.2258,4508.1
476.5878,20.4
476.9407,46668.8
477.29,49.6
477.3159,214.6
477.7087,221.5
477.8108,179.6
477.8426,19
477.9441,1870.5
477.9668,408.9
478.1855,18.3
478.2973,234.9
478.3295,48210.7
478.4622,244.5
478.6533,501.5
478.9379,13824.5
478.9704,109.6
479.0033,477
479.0575,22.9
479.3331,9148.4
479.7873,826.5
479.9414,560.3
480.1408,113.5
480.345,904.7
480.4411,152.4
480.6059,195.4
480.6851,102
480.8036,484.1
480.9525,1975.4
481.0913,119.2
481.2329,3934.3
481.4671,391.6
481.5929,383.2
481.9777,428.2
482.1098,322
482.161,19.5
482.2199,608.2
482.3243,942.5
482.3607,726.9
482.471,165.3
482.5236,519.2
482.7002,19.8
482.8357,165.9
482.9079,18.1
483.1622,103.9
483.2486,236799.9
483.6092,20.8
484.1455,120.5
484.2519,52998.8
484.7709,729
485.0113,53.9
485.1877,259.5
485.2067,255.6
485.2642,224414.9
485.6685,246.2
486.0694,420.4
486.1322,437.4
486.2675,50284.9
486.8498,562.4
486.9164,214.6
486.9694,689.4
486.9947,368.8
487.042,358.8
487.1516,21.7
487.2799,175347.5
487.3324,518.8
487.3895,796.9
487.6842,482.9
487.7084,186
487.7679,534.4
487.7765,98
487.8218,154
487.8666,247.4
487.9858,18.2
488.1434,97.4
488.2549,193.4
488.2833,36815.6
488.4208,20.9
488.4738,159.4
488.4945,116.4
488.5452,85.1
488.5855,469.3
488.7446,843.6
488.9518,586.6
489.0854,24
489.131,280.5
489.2866,3573.1
489.3329,98.7
489.3547,2203.5
489.4262,202.4
489.445,154.5
489.5409,614.5
489.5995,830
489.6378,88
489.6477,210.4
489.7935,94.1
489.9019,87
490.1108,189.8
490.1794,289.3
490.2445,334.8
490.2909,12806.8
490.532,222.4
490.5996,361.2
491.0658,176.7
491.0819,20.2
491.3159,177.4
491.3367,89.2
491.3714,749.5
492.1036,268.9
492.1748,378.8
492.5355,106.4
492.9148,5689.1
493.3134,534.4
493.439,85.6
493.6036,1039.7
493.6909,460.4
494.3247,8126
494.4602,465.6
494.6448,147.6
494.8756,349.5
494.8869,540
494.9119,1012.2
494.9667,172.1
495.0557,196.4
495.2554,365.9
495.3215,108.9
495.4752,108.2
495.6634,546.6
495.742,1147
496.3401,503187.1
496.5247,231.5
496.6575,478.4
496.8166,116.6
496.842,585.4
496.8854,458.6
496.9308,1079.7
496.964,288.4
497.3142,116.9
497.3435,120698
497.5584,256.7
497.5798,430.4
497.6292,736
497.7025,19.5
497.8943,270
497.9329,487.3
497.9594,130.3
497.9834,132.4
498.3467,9159.7
498.3951,211.5
498.6366,201.1
498.7694,390.1
498.9268,467.4
499.0174,306.3
499.1417,119.4
499.2227,9211.4
499.3668,118
499.4354,233.1
500.2239,376.7
500.2428,307.9
500.672,285.8
500.7659,666.9
501.0949,25.6
501.1167,124.6
501.2266,422.7
501.2385,8376.4
501.2958,191.8
501.634,126.8
502.0322,23.2
502.2942,2018
502.3292,20390.7
502.3888,309.1
502.6621,358
502.6792,17.9
502.9765,258.7
503.1075,851.6
503.2538,10563.7
503.2928,349.2
503.3323,3259.8
503.5076,146.7
503.523,959.9
503.5697,20.9
503.6924,23.2
504.1852,399.3
504.2587,1060.1
504.2908,24.9
504.3063,7787.9
504.3446,12356.2
504.6429,109.1
505.0314,407.2
505.2325,2747.5
505.2575,222.2
505.3099,949.7
505.3221,492.8
505.3487,53.3
505.4169,263.3
505.4352,19.5
505.5523,20.4
505.734,337
505.9011,739.7
506.0849,1009
506.2397,666.5
506.2638,3188.6
506.2791,982.7
506.3606,4927
506.6268,439.7
506.8911,1518.4
507.2485,56185.7
507.3032,413.7
507.363,83.6
507.45,109.8
507.5024,47.4
507.7368,18.5
507.7519,131.8
508.1675,114.7
508.2517,16150.7
508.3038,334
508.5806,512.7
508.6264,126.8
508.7134,382.9
508.7676,231.2
508.8021,143.9
508.8779,620.1
508.8903,255.5
508.9728,112.7
509.0047,3865.1
509.1776,657.6
509.2641,14642.4
509.3593,386.4
509.8947,386.8
510.2675,1488.5
510.3556,7742.2
510.3677,23.1
510.6268,357.3
510.9348,466.8
511.1257,242
511.1696,23.4
511.226,183
511.5745,160.3
511.7019,90.2
511.9186,19.1
512.1336,569.1
512.2494,19.4
512.3348,412.8
512.6444,1184
512.6821,19.4
512.7098,17.5
512.9085,20624.2
513.003,110
513.3435,92.8
513.7638,281.5
513.7743,133.1
513.8732,275.7
513.8925,195.1
513.9113,537.7
514.002,424.7
514.0413,283
514.1739,176
514.4429,589.5
514.4689,120.2
514.4768,95.3
514.4955,436.3
514.8419,136
514.9056,10987
514.9442,260.6
515.103,375.7
515.277,311.8
515.521,123.8
515.9255,427.3
515.9346,49.9
516.1421,330.4
516.3064,29344.1
516.7293,353.3
516.9014,610
516.922,492.5
516.9556,595.9
517.1523,516.4
517.3099,6607.7
517.7909,199.5
518.2008,49.1
518.2314,18.5
518.2597,98.8
518.3221,1035448.3
518.6028,428.3
518.6503,97.3
518.7685,149.9
518.7877,295.6
518.9253,34044.7
519.0054,104.2
519.0616,19.3
519.3255,253538.8
519.9288,1724.5
520.0901,711.7
520.2804,383.7
520.3297,25700.1
520.3401,167212.6
520.3771,494.6
520.5117,44
520.5242,368.5
520.6404,146.4
520.7685,161.9
520.8298,82.5
520.8568,464.3
520.9224,18719.3
521.0714,344.4
521.1607,390.8
521.3435,40001.2
521.8216,440
521.9253,1122.4
522.0938,152.2
522.2572,830
522.3558,181498
522.8652,408.2
522.9201,1751.2
522.9374,4906.1
522.9675,978.7
522.998,237.1
523.2217,2419.1
523.2761,954.1
523.3147,647.6
523.333,217.4
523.3591,50294.4
523.5466,18.6
523.6587,386.8
523.9539,134.1
523.9702,167.8
523.9955,395.3
524.0269,19.7
524.0549,157.2
524.0668,149.7
524.0868,517.2
524.3077,304.4
524.3714,175049.4
524.6248,213.1
524.8032,292.4
524.8172,379.4
524.9356,2259.5
524.9784,441.1
525.1451,147.4
525.3502,127.4
525.3748,50201.5
525.6232,349.3
525.8521,158.3
526.0539,360.3
526.0696,765.8
526.3298,7659
526.3776,2106.9
526.5253,544.4
526.742,391.9
526.8109,19
526.8221,19.7
526.8493,268.9
526.9506,662.9
527.0959,175.3
527.1575,157.7
527.1805,159
527.2311,255.6
527.3344,61.9
527.7712,719.3
527.9466,338.2
528.0921,103.7
528.1421,970.1
528.2621,394.3
528.3746,727
528.4267,397.5
528.4997,23.1
528.6115,416
528.6997,326
528.8494,859.8
528.8823,6835.6
528.9545,2274.7
529.1363,223.6
529.2057,562.6
529.2533,18.1
529.4697,522.9
529.8132,179.9
529.9573,245.3
530.012,142.6
530.3235,300
530.3585,3187.8
530.3789,435.9
530.5295,291
530.5898,137.9
530.8789,3041.1
531.2487,8962.6
531.664,826.4
531.7371,840.2
532.2507,890.7
532.28,3967.6
532.3377,20290.3
532.3765,998.3
532.5212,198.4
532.5348,363.3
532.6408,113.5
532.7602,100
532.8392,344.2
532.8579,113.3
532.966,2282.8
533.2833,404.6
533.3412,2330
533.4487,184
533.4828,22.5
533.6982,362.9
534.2961,259306.6
534.3154,714.4
534.3326,19.4
534.6515,457.7
534.7506,116.7
534.7789,205.3
534.8992,19067.7
534.9555,275
535.1062,175.7
535.1756,640.3
535.222,93.8
535.2994,59901.9
535.5023,87.9
535.9007,432.7
536.1081,18.2
536.295,11830.7
536.451,173.1
536.6091,439.7
536.7001,147.1
536.756,314.1
536.8646,470.5
536.8782,47.3
536.8964,13138.1
537.1343,116.5
537.2988,1507.1
537.339,323.9
537.3917,972.1
537.6266,558.3
537.64,17.7
537.6556,390.6
538.2409,242.4
538.4571,21.8
538.8947,482.5
538.9109,1353
538.9177,966
538.933,817.8
539.0647,18.8
539.2372,475.1
539.2856,442.6
539.4829,170.7
539.5704,359.7
539.9399,466.9
540.0064,162.7
540.2586,114.2
540.3067,3126.2
540.4487,435
540.4755,1100.3
540.7653,156.9
540.8012,327.3
540.8528,19.1
540.9069,339.4
541.0757,679.4
541.3161,140.5
541.4353,19.7
541.673,113.7
541.7145,18.8
542.3222,327441.7
542.4539,435.2
542.4927,863.5
542.5204,164.8
542.5619,21.1
542.6983,688.5
542.7983,332.2
543.0634,19.1
543.1334,872.6
543.1903,109.5
543.2439,21.7
543.3255,86651.2
543.4006,629.5
543.524,212.1
543.6095,194.6
543.7133,338.6
543.898,292.8
544.3379,359110.8
544.3709,129.7
544.4544,410.1
544.6418,137.1
544.6607,111.1
544.8561,386.3
544.9493,2799.6
545.2204,684.9
545.3413,95561.8
545.543,102.3
545.7447,260.4
545.8077,372.6
546.3215,111.2
546.3534,332696.5
546.526,230.1
546.854,758
546.9461,154.5
546.9916,232.5
547.2645,198.8
547.2765,974.8
547.321,578
547.3383,128.9
547.3569,82919.5
547.5098,99.2
548.2744,158.1
548.3116,2265
548.36,8893
548.3889,592.2
548.6424,188.5
548.8015,633.8
548.9032,144.7
548.9214,98.8
549.0901,805.5
549.1646,172.4
549.3304,16.8
549.3621,403.8
549.8268,855
549.8697,369.7
550.0066,329.9
550.0874,534.8
550.1677,561.4
550.2067,56.2
550.2651,131.1
550.3352,126.1
550.582,154.2
550.873,2095.7
551.3441,334.2
551.4056,104.2
551.4884,160.9
551.6366,212.4
552.2867,633.8
552.4431,17.3
552.7158,292.5
552.8695,1928.9
552.8925,145.3
553.0518,109.1
553.1546,21.8
553.2294,705.5
553.4012,375.8
554.2897,166.6
554.5928,550.1
554.9017,420.7
555.4501,383.7
555.8035,129.3
555.8881,209.9
555.9038,167.6
555.9343,129.1
556.6174,173.6
556.6952,389.5
556.928,96.2
557.0642,188
557.6311,511.2
557.7145,314.4
557.7504,19.9
558.0206,130.4
558.1969,601
558.2961,90422.7
558.581,19.7
558.6284,924.2
558.7584,425
558.8314,287.6
559.1727,139.2
559.2995,23221.6
559.32,456.1
559.6181,298.4
560.0476,118
560.2953,2388.5
560.3118,84564.7
560.6845,343.3
560.9235,769.7
561.3152,20957.4
561.392,335.4
561.4126,2491.2
561.6682,121.2
561.8538,18.7
561.8945,612.3
562.1337,959.7
562.2171,215
562.3105,3107
562.3275,68624.5
562.5139,136.7
562.7034,621.2
562.8008,633.4
563.0685,375.5
563.1045,840.2
563.19,224.5
563.311,79.9
563.3308,16472.9
563.3909,21.6
563.4282,3392
563.5626,562.9
563.7981,21.8
563.9786,294.4
564.2698,632.8
564.3072,1170.7
564.3281,2641.4
564.4317,22.7
564.8519,1183.9
564.8819,21.5
564.8937,49.6
565.1305,433.2
565.3284,919.5
565.3813,208.9
565.6851,432.1
565.6983,19.5
565.8692,153.8
566.3222,84250.5
566.693,380.4
566.7878,131.1
566.8483,445.5
566.9643,1100.6
567.1164,477
567.1405,635
567.208,186.2
567.3256,22753.7
567.5224,135.6
567.5808,303.6
567.6338,199
567.9855,55.2
568.338,26882.1
568.3783,192.9
568.4295,574
568.8902,389.6
569.1699,81.1
569.3426,5021.7
569.463,305.9
569.9576,192.1
570.2589,598.3
570.3543,3795.6
570.8673,8752.3
571.2111,18
571.5333,134.7
571.6499,321.9
572.0984,609
572.1842,96.3
572.3691,341
572.404,146.2
572.4374,240.5
572.6083,653.4
572.6371,120
572.8645,8604.3
572.9133,132.9
572.9816,917.2
573.0979,155.4
573.2628,202.1
573.403,118.5
573.7741,17
574.12,48.1
574.2556,762.4
574.2824,1360.5
574.8622,530.8
574.9621,126
574.9843,339.6
575.1281,431.4
575.2982,128.3
575.3474,125.6
575.504,9330.5
575.5979,23.1
575.6608,122.2
575.6886,217.9
575.7574,428.1
576.0366,209.2
576.281,9716.6
576.4009,827
576.8841,9325.8
576.9765,555.3
577.0726,395.9
577.2849,494.3
577.3671,152.6
577.52,701.8
577.6428,20.4
577.8863,337.4
577.9195,174.2
578.0234,196.1
578.1306,113.5
578.2779,1707.4
578.3593,304.1
578.6486,843.1
578.8812,9920.2
578.9423,568.5
578.9612,51.2
578.9797,169.6
579.0186,322.3
579.3159,366.4
579.4191,398.7
579.4661,319.6
579.4814,597.1
579.5361,220.3
580.0149,295.3
580.0652,119.6
580.1108,260.3
580.147,953.6
580.3648,79.6
580.482,49
580.6893,177.1
580.7583,19.5
580.7852,202.5
580.8275,430.3
580.8786,2231.7
580.8961,2285.3
581.0088,175.7
581.0915,258.9
581.122,479.5
581.3666,1389.7
581.6166,416
582.017,277.4
582.0271,328.1
582.0882,154.9
582.1042,216.6
582.1976,300.7
582.2963,21640.3
582.314,377.1
582.3431,207
582.361,176.6
582.3976,941.3
582.4139,425.3
582.4299,481.4
582.4472,435.3
582.4918,450.7
582.499,368.3
582.5167,709.4
582.5558,366.5
582.5725,316.7
582.5916,30.3
582.6057,19.8
582.6269,484.5
582.6475,375.5
582.6884,500.8
582.7194,118.9
582.894,780.9
583.257,1378.2
583.2999,4050
583.5129,51.1
583.553,470
583.6725,27.5
583.8366,150.3
583.8487,195.2
584.2951,690.8
584.3116,3975.1
584.7752,86.3
584.8918,544.7
584.9497,291.9
585.271,1685.2
585.3155,1237.6
585.4116,21.1
585.6479,91.8
585.8272,123.5
586.1514,55.2
586.3096,8409.3
586.4908,171.4
586.6944,243.6
586.7726,199
586.8415,3102.3
586.9134,984.7
586.996,419.5
587.1159,246.7
587.1963,22.6
587.3117,818.8
587.6725,609.3
587.9438,187.5
588.083,727.8
588.3244,141.1
588.3916,162.1
588.5317,967.9
588.6691,908.4
588.8379,2547.3
588.9079,419.9
588.9224,155.5
589.0245,206
589.2119,201.9
589.4333,433
589.7926,604.8
589.8125,117
590.0085,265.8
590.3224,14425.2
590.7602,360.8
590.8331,379
590.856,335.4
590.9246,590.8
591.0577,158.2
591.1094,718.5
591.3255,2929.6
591.4597,276.5
591.8237,48.7
591.9223,312.9
591.9436,20.1
591.9564,627.9
592.0789,273.7
592.2312,174.9
592.2552,676.9
592.3384,2188.4
592.3566,302.1
592.67,420.3
592.702,180.1
592.7437,269.4
592.858,6486.2
592.9365,100.6
593.1125,210.9
593.2616,19.6
593.4639,949.1
593.4687,925.7
593.7674,165.8
593.8627,336.7
594.2569,522.9
594.7079,184.5
594.7818,156.8
594.8555,6437.4
594.9845,334.6
595.4325,1225.3
595.7943,614.9
595.9572,534.4
596.8527,1404.2
597.2183,22.7
597.3391,446.3
597.3901,273.4
597.4492,4310.6
597.4634,1402.7
597.4859,11724.7
597.6493,102.1
597.8472,21.5
597.8624,259.6
598.42,176.6
598.454,1078.2
598.4895,3023
598.8686,390.1
599.0109,932.5
599.0699,207.1
599.2286,22.2
599.4642,2286.8
599.5032,4731.7
599.7456,103.1
600.0504,216.9
600.0872,215.4
600.2283,329.5
600.2804,2397.1
600.3424,20.4
600.3804,357.1
600.4395,168
600.4757,976.3
600.5063,322.2
601.0514,107.3
601.0736,258.3
601.1407,20.6
601.1604,496.4
601.4965,277.2
601.5192,679
601.5439,386.9
601.6231,232.7
602.0006,127.7
602.2323,660.5
602.2966,3516.7
602.3207,201.9
602.7525,193.8
602.9064,442.7
603.0027,291.8
603.2582,430.3
603.2868,476.9
603.3955,615.5
603.4862,18.7
603.5335,297.1
603.672,309.3
603.7491,233.8
603.8653,330.9
604.1267,129.8
604.2128,140.1
604.2909,372.1
604.3112,2256
604.8149,582.6
604.896,294
604.9228,893.6
605.044,86.1
605.3479,160.9
605.4128,865.6
605.4446,23.5
605.5482,23.3
605.7922,177
606.0398,412.7
606.2978,549
606.3106,158.5
606.4094,502.8
606.5669,329.3
606.7058,19.5
607.0224,210.4
607.1715,2479.6
607.2553,798
607.768,173
607.8678,136.6
607.8921,437.6
607.9838,102.1
608.2351,291.3
608.2843,147.4
608.6321,158.4
608.8334,1652.5
608.868,134.1
608.907,113.1
608.9979,547.2
609.1511,124.7
609.1792,172.6
609.301,433.9
609.6236,28.8
609.8017,133.2
610.2833,189
610.3108,2010.6
610.4482,725.5
610.4748,146.8
610.7493,197.2
610.8292,1462.1
611.0089,89.6
611.0301,180.9
611.0657,426
611.1088,17.4
611.4112,182.6
611.4981,437.4
611.5532,48.1
611.5848,161.8
611.6355,435.5
611.7101,20.2
611.8663,205.4
611.9277,20.8
611.9971,209.1
612.2267,126.6
612.3247,1371.7
612.4892,794.1
612.7412,850.8
612.8206,238.7
612.8468,844.8
613.011,100.1
613.0996,20.1
613.3135,870.3
613.3511,19.8
613.3822,145.7
613.5665,741.1
614.0209,94.4
614.0392,102
614.1465,183.5
614.3434,646.7
614.6494,174.3
614.9,113.4
615.0518,82.4
615.1151,331.4
615.3034,192.7
615.3277,161.1
615.3618,188.9
615.46,1300.3
615.5221,17.3
616.0504,17.8
616.2843,334.5
616.4237,517
616.7016,485.5
617.0335,296
617.1367,624.8
617.4476,168.3
617.4757,20435.4
618.0478,299
618.1483,20.7
618.3001,19.4
618.4793,6718.6
618.8067,622.5
618.8521,332.7
618.8748,677
619.0223,652.8
619.0829,118.5
619.2557,517.3
619.4408,600.3
619.4911,16697.1
619.8791,19.5
620.0277,23
620.1622,228.1
620.2088,287.1
620.4278,189.5
620.4956,3796.2
620.5343,18.1
620.5413,18.8
620.9006,547.9
621.047,287.1
621.1242,50.3
621.4487,2218.6
621.486,13115.7
621.5265,141.3
621.811,375.7
622.0243,310.6
622.1085,412
622.3389,779.7
622.4595,1584.3
622.4875,781.3
622.5037,291.8
622.6478,134.7
622.6956,98.5
622.8,865.2
622.9764,174.3
623.0002,301.3
623.1363,16017
623.4215,217.2
623.4656,1223
623.5028,1203.1
624.14,2645.1
624.1793,329
624.6388,286.6
624.8318,151
624.8987,341.8
625.1002,321.8
625.1469,118
625.3935,1026.6
625.4724,458
625.4824,277.4
625.5141,689.9
625.5564,234
625.625,124.6
625.6545,590.7
626.1187,216.4
626.4872,480.2
626.491,445.6
626.6418,380.3
626.922,483.5
627.5358,688.8
627.9275,18.7
628.3318,312.3
628.5391,123.8
628.8288,362.9
629.0352,220.1
629.1534,38664.8
629.2128,360.1
629.3459,49
629.3612,213.1
629.6151,433.4
629.9828,304.8
630.0722,178.8
630.1569,7538.4
630.2808,25
630.3077,525.6
630.7545,491.5
630.8317,86.7
631.0581,270.6
631.158,393.9
631.1929,186.7
631.7165,23.2
631.7785,171.1
632.4038,362.5
632.8258,133.8
633.4031,190.1
633.4237,658.4
633.4502,485.7
634.0713,133.6
634.1559,161.4
634.4537,637.5
634.4945,901.3
634.8172,107.5
634.8427,3199.2
634.8741,213.2
635.2426,147.4
635.467,249.7
635.711,117.9
635.7388,340.7
635.8789,362.4
636.2844,19.8
636.6944,1004.1
636.7393,404.5
636.8399,3267.9
636.9639,18.8
637.1701,173.4
637.9557,19.8
638.0261,201.6
638.0343,174.6
638.0423,205.5
638.1315,304.9
638.2042,155.7
638.4508,619.6
638.4849,100.8
638.5329,155.4
638.6545,21.6
638.6691,685.3
638.8372,1364
639.0253,155.5
639.3192,426.6
639.6357,19.3
639.8822,108.8
640.1167,395.9
640.1513,216.2
640.1981,279.3
640.3655,441
640.4015,163
640.5086,18.5
640.6274,371
640.6449,607.8
640.7462,99.7
640.9097,137.7
641.0862,230.1
641.0925,231.7
641.3662,421.6
641.4892,643.4
641.6345,556.1
642.004,234.8
642.3316,143.9
642.637,134.6
642.8144,145.8
642.9211,242.4
643.0341,221
643.3799,19.7
643.4909,150.1
643.626,475.3
643.6638,166.4
643.7916,52.9
643.9053,106.5
644.2024,684.6
644.6764,300.7
644.6981,222.2
644.8868,141.2
644.9669,20.3
645.1182,14350.5
645.2963,247.5
645.3176,546.2
645.4853,579.2
646.1228,2012
646.6199,21.3
646.8115,249.3
646.93,1155.4
647.0949,482.8
647.1342,21
647.3299,484.5
647.4705,501.4
647.5139,355.3
647.5465,23.8
647.9592,264.6
648.031,113.5
648.0987,123.4
648.2979,631.6
648.5968,21.4
648.7958,482.6
648.8151,199.2
649.0435,253.6
649.1024,152
649.4837,768.2
649.6832,384.9
649.8795,569.6
650.3637,327.7
650.4414,619.5
650.8162,2159.3
650.9304,406.5
651.1352,43610.8
651.3087,20.9
651.7378,421.2
652.1389,7948.5
652.6097,574.6
652.8144,2504.9
652.8967,50.5
652.9587,723.1
653.1116,873.9
653.1399,526.7
653.2393,265.8
653.5254,185.1
653.6933,1319.7
654.1699,783.9
654.407,17.6
654.4381,492.2
654.5472,515.8
654.5611,977.4
654.5832,565.2
654.608,55.3
654.9471,158.3
654.9731,45.9
655.1015,171.3
655.1158,175.6
655.6037,401.4
655.6424,142.9
655.722,47.6
655.7488,21.8
655.8352,534.1
655.8544,47.3
655.9082,116.9
656.2792,195.5
656.6448,26.7
656.7942,22.4
656.8515,741.3
656.9363,572
657.242,888
657.4671,566.8
658.4311,742.1
659.2878,979.1
659.8816,118.8
659.9366,675.3
661.0832,5751.2
661.142,811.8
661.1841,104.1
661.2621,990
661.3657,19.2
661.4686,633.7
661.9323,22.7
662.0331,216.5
662.0838,112.2
662.328,436.7
662.4585,394.6
662.6038,99.6
662.7454,203.3
662.843,319.2
662.8645,437.7
662.9892,689.3
663.3267,54.3
663.4548,541.8
663.8096,526.5
664.4687,10492.9
664.4995,305.4
664.701,22.4
665.1009,532.4
665.3734,488.5
665.4013,175.2
665.4715,2661.8
665.5377,48.5
666.4617,710.3
666.4849,10557.2
666.7917,796.8
666.9716,479.3
667.0999,21785
667.4417,989.9
667.5275,498.3
668.0355,130.3
668.1037,2778.8
668.6287,443
668.9306,326.1
669.1078,137.6
669.1301,396.8
669.3396,483.1
669.4045,53.1
669.4195,415.6
669.4937,1682.2
669.7402,649.9
670.4305,944.2
670.5579,570
670.687,199.8
670.8637,20.6
671.6713,532.3
671.7867,404.9
671.913,381.7
671.9613,312.4
672.4219,4197
672.8325,568.8
672.9465,225.7
673.1172,55579.8
673.1917,593.5
673.4296,621.5
673.5294,1359.7
673.6268,100.9
674.1209,11133.4
674.4932,206
674.5433,23.3
674.6483,93.2
675.1239,656.3
675.2716,577.3
675.328,206.8
675.4643,350.7
675.5443,16177
675.8463,590.4
675.9876,109.6
676.2193,223.8
676.3372,177
676.418,1134.4
676.5478,3471
677.0245,374.6
677.1078,148.7
677.5128,256
677.8137,777.9
678.1029,309
678.4602,165.4
678.5175,350.6
679.7206,48.8
680.6113,343.6
680.9401,115.1
681.0513,350.5
681.1505,1141.4
681.3172,20.1
682.0657,538.5
682.4296,102.6
682.487,21.7
682.5973,166.9
682.6278,21.3
682.73,339.1
682.8762,226.6
683.0648,3055.3
683.1949,567.8
683.2969,159.2
683.4518,2664.5
683.6349,682.3
683.6664,303.7
683.7265,513.8
683.8154,161.2
684.0658,219.1
684.3673,124.4
684.3823,371.5
684.708,130.5
685.276,696.8
685.3916,431.6
685.4365,10943.8
685.7929,56.9
686.4394,1033.1
686.474,347.8
686.5754,129.5
687.0407,599.7
687.1241,621.7
687.2038,288.6
687.3951,275.3
687.4388,93.1
687.6589,287.2
687.8205,185
687.8576,274.6
687.8939,182.2
688.2188,462
688.5162,179.8
688.6715,19.3
688.8564,23
689.0812,16996.8
689.0917,13628.5
689.2971,20.7
689.4613,21.3
689.5595,5156.8
689.7095,488.5
689.7994,19
690.0626,114.7
690.0951,1907.8
690.2828,139.4
690.5637,458.1
691.0883,624.4
691.1701,154.9
691.2617,21.3
691.5095,104.4
691.6273,464.1
691.778,296.2
691.9841,129.2
693.1798,345.7
693.4563,834
693.5538,150.8
693.686,571.4
693.8073,1407.2
693.9262,367
693.9332,418.2
693.9399,335.1
694.2156,414.5
694.3902,302.8
694.6388,647.7
694.7992,949.6
694.9,20.5
694.9286,465
695.0349,211.7
695.0993,40435
695.5105,7599.9
696.1028,7452.5
696.2436,374.4
696.3157,140.6
696.377,278.8
696.4692,1277.6
696.5066,639.5
696.5788,22.1
697.0777,100.2
697.3749,757.2
697.5262,31321.3
698.0386,93.1
698.5297,11716.2
698.8714,24.7
699.0289,385.3
699.1755,273.4
699.3572,728.4
699.5339,522
699.6143,458.9
700.1128,415.9
700.1531,217.6
700.5908,380.9
700.7226,186.5
701.0394,100.4
701.2256,826.5
701.4105,948.3
701.4809,995.9
701.5601,61192.9
702.2658,151.4
702.3425,1946.5
702.4963,19.6
702.5633,20920.3
703.3117,550.2
703.5759,112536.8
703.6898,659.6
703.7854,465.8
703.9267,400.4
703.9845,316.2
704.0475,321.7
704.2367,47.2
704.2734,746.1
704.4472,2691.6
704.5203,498
704.5578,282
704.5792,47651.3
704.627,245.6
704.6558,179.1
704.823,166.5
705.0031,126.8
705.0562,3808.7
705.5813,5020
705.9727,169.7
706.2877,142.8
706.5399,3659.6
706.5848,262.7
706.6313,852.4
706.8755,365.6
707.0782,351.2
707.5431,58.7
707.809,591.4
708.397,213.2
708.4526,173.6
708.5009,462.2
708.5521,496.3
708.7216,97.7
708.7703,549.7
708.7993,447.9
708.9355,309.5
708.9608,21.7
709.0142,389
709.1868,491.9
709.2242,171.7
709.4768,150.8
709.6411,225.3
710.9646,884.8
711.0631,11485.1
711.0743,14715.6
711.1937,20.7
711.37,165.5
711.4831,654
711.542,8733.7
711.7826,720.9
711.8897,342.9
712.0426,183.6
712.0784,1296.3
712.4091,135.3
712.5454,3097.4
712.6549,183.5
712.771,339.1
712.7948,186.9
712.8658,229.1
712.9473,406.3
713.2418,345.6
713.447,376.5
713.5007,1501.2
713.7895,89.3
714.4277,533.3
714.5134,166.3
714.6687,263.1
714.8511,21.1
715.2358,969.9
715.2621,640.4
715.63,20.8
716.4616,746.8
716.538,99.6
716.5593,257.8
716.6448,111.3
717.0812,22697.2
717.2362,808.2
717.4109,252.6
717.7707,418.2
718.0845,3701.9
718.5739,753.6
718.6712,18.8
719.0082,20.2
719.5783,479.7
719.6318,413.8
719.6959,147.2
719.7224,486.2
719.8258,102.8
720.0579,109
720.2173,797.8
720.2876,20.9
720.5578,830.7
720.6329,113.6
721.4787,62148.8
721.583,114.5
721.6748,95.8
721.935,327.4
722.0751,47.1
722.482,24697.7
723.0048,191.6
723.0529,516.1
723.0737,548.8
723.4361,352.9
723.4953,12004.9
723.542,74086
724.0457,592.5
724.498,1404.8
724.5453,28669.3
724.6498,253.2
724.7894,284
724.9954,311
725.1179,17.2
725.1447,21
725.3541,410.7
725.5013,213.8
725.5577,128998.8
725.6641,167
725.874,243.4
726.3069,286.2
726.5613,49588.2
726.806,605.7
727.0272,657
727.0533,162.7
727.071,477.4
727.089,24.3
727.5637,8335.7
728.231,627.4
728.3935,196.9
728.4515,274
728.521,5350
729.0158,111
729.2345,338.1
729.4823,688.8
729.5194,895.5
729.5916,19630
729.6916,125.3
729.7714,92.4
730.0748,346.1
730.5392,11902.5
730.5946,5178.8
731.1215,259.9
731.5045,364.6
731.5409,1256.5
731.6073,5508.6
731.6313,198.2
731.833,350.8
731.9502,308.3
732.0143,145.7
732.2272,222.9
732.5547,52118.2
732.6103,1656.5
732.7124,44.7
733.0438,6275.1
733.0568,8038
733.125,19.3
733.2023,302.2
733.2315,342.1
733.2827,726
733.3611,240.9
733.38,292.7
733.5207,194.3
733.5582,16885.8
733.6016,163.9
733.6389,803.6
733.6534,230.7
733.7107,298.7
733.9862,216.7
734.0493,310.1
734.5709,8405.1
734.8067,20.9
734.9395,110.9
735.0964,325
735.4612,501
735.4791,128.4
735.5744,1591.9
735.7854,48
736.1785,715.1
736.2314,268.7
736.5794,583.3
736.7291,90.6
736.8573,186.4
737.1932,1221.2
737.3273,20.1
737.453,13465.5
737.9428,21.1
738.0292,185.9
738.132,422.1
738.2748,85.4
738.3795,466.3
738.4572,2226.1
738.52,356.6
738.8989,377.2
738.9246,512.4
738.9452,888.4
738.9647,2111.2
739.001,273.5
739.0631,14254.2
739.291,214
739.326,334.7
739.397,824.2
739.5158,7656.3
739.6866,293.9
739.9569,93.9
740.0674,705.9
740.1882,387.3
740.458,144
740.5196,2667.6
740.6293,622.5
740.7525,927.2
740.809,357.3
740.8804,824.2
741.5318,16300.8
742.0066,121
742.0264,798
742.2202,211.3
742.4635,422.7
742.5353,5810.7
742.5754,12490.1
742.6625,1161.5
742.7194,49.7
742.9188,421
742.9893,934.5
743.4639,1161
743.5244,239.2
743.5784,2020.5
743.6611,18.9
744.1489,223.6
744.1795,115.6
744.2074,472.2
744.5197,95.7
744.5547,6197
744.5916,7917.8
744.9698,751.7
745.094,460.8
745.206,112
745.3443,197.3
745.4789,43088.4
745.5591,1229.7
745.5943,2779
745.6306,247
745.7481,319
745.7713,414.5
746.1019,561.3
746.2926,330.3
746.4299,19.9
746.4825,16387.5
746.5711,6546.8
746.6075,4548
746.7138,368.4
746.8423,317.3
746.8614,168.8
746.8919,427
747.069,20.3
747.1817,900.7
747.4958,8521.7
747.573,1403.8
747.6091,775.1
747.7469,710.7
747.7916,20.9
748.1493,823.2
748.4969,4633.3
748.9818,173.1
749.0196,786.9
749.131,22.7
749.2415,819.9
749.3812,213
749.3971,220.5
749.5111,3809.6
749.5577,1261.9
749.608,370.6
750.512,660.3
751.5495,350
751.5733,14975.4
752.0612,111.3
752.3139,169.1
752.4379,221.3
752.5209,17965.3
752.5747,2745.2
752.762,375.3
752.9997,293.7
753.1232,325.5
753.1559,113.7
753.2338,173.7
753.2979,138.3
753.4862,49
753.524,3305.1
753.5889,4346.2
753.6588,19.5
753.7888,661.4
753.921,17.8
754.1896,215.6
754.2731,669.5
754.3834,689.2
754.5372,51717.6
754.5987,961.2
754.6529,865.9
755.0254,5395.2
755.0391,4487.6
755.2995,138.5
755.4901,287.6
755.5402,17107.1
756.0148,703.8
756.038,648
756.1588,235
756.2292,168.8
756.3033,24
756.4138,386.8
756.5545,55884.3
756.5914,154.6
756.6489,183.3
756.703,186.2
756.9719,476.3
757.0796,403.5
757.1909,19.6
757.4102,353.9
757.5582,20408.3
757.6223,2900
757.978,359.3
758.0657,116.6
758.1408,661.5
758.3239,21.2
758.4359,479.7
758.5705,1034671.5
758.9881,461
759.5738,453345.9
759.637,1247.2
759.6744,145.7
759.72,190.9
759.9095,369.3
760.3685,586.6
760.3893,18.5
760.4293,94.6
760.5716,50900.6
760.587,366339.5
760.6403,511.1
760.6699,780.1
760.7896,678.8
760.91,813.9
761.0454,6950.1
761.4518,4660.1
761.4978,345.6
761.5898,175050.6
761.718,128.7
762.0249,186.8
762.034,196.4
762.0406,157.6
762.1374,397.8
762.4592,591.6
762.5926,38739.6
762.7694,65.3
762.8664,104
763.3037,567.7
763.3086,590.3
763.454,519.5
763.5097,713.9
763.5531,453.8
763.596,3049.4
763.7141,518.3
764.0602,369.8
764.455,109.4
764.5578,3373.7
764.596,61
765.0064,809.9
765.1291,481.7
765.4813,423.4
765.5627,159.3
765.693,23.8
765.7622,19.8
765.9753,307.1
765.9975,98.8
766.2834,174.1
766.5371,7717.6
766.5751,42204.8
766.9955,145.7
767.4433,317.4
767.5785,16905.4
767.8678,243
768.0921,432.6
768.0975,397.3
768.35,136.1
768.4343,259.2
768.4914,913.7
768.5537,8903.7
768.5915,36769.9
768.6969,168.3
769.4474,483.1
769.479,10216.4
769.5565,1688.7
769.5946,18410.8
769.9143,738
770.0489,348.8
770.2554,18.2
770.3687,287.3
770.4822,2350.6
770.5101,2955.3
770.5698,1375.7
770.6084,4745.9
770.7742,86.7
770.9919,2335.1
771.0137,116.2
771.4702,323
771.4952,423.6
771.5182,219.3
771.5765,486.9
771.6114,749.8
772.1639,524.1
772.1892,385
772.4973,151.3
772.5303,273
772.5861,17658
772.6237,619.1
772.7785,241.8
773.1434,87.4
773.1793,392.3
773.5111,1820.9
773.5891,3912.9
773.6551,81
774.6025,2120.3
774.6729,444.9
775.5357,1003.1
775.6106,197.1
775.6895,207.4
776.0132,229.6
776.2105,475.7
776.5209,4410.3
776.7831,678.2
777.0081,3769.5
777.3876,98.8
777.4949,267.9
777.5203,874.4
777.5279,1205
777.542,1854.4
777.6163,133
777.7173,19.5
778.0106,239.5
778.0449,806.1
778.1215,264.8
778.3737,353.4
778.4268,22.6
778.5367,41408.7
778.8263,190.6
779.0311,420.9
779.0521,1348.6
779.2241,19.3
779.2606,195.8
779.2726,187.2
779.3362,464.3
779.4214,120.5
779.5403,18586.8
779.5854,21
779.6126,189.8
779.6872,160.6
780.5525,762902.4
780.5983,195.5
781.481,20.8
781.5057,536.8
781.5559,338808.8
781.6366,137
782.4156,563.1
782.509,106.8
782.5702,823910.3
782.9838,90.6
783.0012,55.4
783.027,7546.6
783.253,53.5
783.537,173.7
783.5734,390226.4
783.7496,290.8
784.0319,705.9
784.1572,231.6
784.2846,89.5
784.302,320.7
784.3795,23
784.5725,47815.8
784.5873,267090.9
785.057,159.6
785.1321,256.4
785.5899,136051.3
785.6544,5985.3
785.922,940.4
786.3469,238.4
786.6024,268489
786.6598,2065.5
786.8016,888.3
786.8428,149.6
786.8475,147.8
787.0193,197.2
787.2596,225.1
787.3132,305
787.6053,131829
787.6707,850.4
788.4233,64.1
788.5576,22003.6
788.6052,19466.5
788.6209,17658.6
788.664,321.8
788.892,81.6
788.9169,20.2
788.9864,886.5
789.0035,234.2
789.0794,146.6
789.5609,7242.5
789.6225,9233.2
789.9509,767.7
790.0381,450
790.0597,53.6
790.2194,21.2
790.3764,556.8
790.5103,472.3
790.5371,1600
790.5736,21274.2
790.6262,76.5
790.7991,178.9
791.4467,228.6
791.5768,6604.7
792.2429,930.1
792.5492,1753.5
792.5912,17499.5
792.636,316.5
792.9836,360.8
793.3174,218.3
793.3304,269
793.595,3327.5
793.9141,467.5
794.106,139.9
794.399,470.3
794.4445,104.2
794.5097,3972.6
794.5685,12021.2
794.6073,43877.7
794.7474,180.4
795.5108,1167.1
795.5751,2181.6
795.6105,21780.9
796.1511,548.8
796.2477,180.8
796.5265,130881.4
796.5865,9770.6
796.6245,5113.8
796.8337,283.7
797.5298,57876
797.5905,1896.9
797.6272,2758.6
797.8288,304
798.4349,21
798.5434,35283.5
798.6346,477.9
798.7752,383
798.9492,817.8
798.9999,1318
799.1198,54.7
799.5454,17685.1
799.6703,789.3
800.2861,47.7
800.3751,347.5
800.5218,1650.4
800.5486,270.3
800.6152,118.8
800.6764,80.9
800.9646,219.4
801.2596,618.4
801.5296,968.6
801.5453,499.9
801.5808,523
802.0205,135.6
802.4923,434.6
802.5367,40120.9
802.5863,496.6
802.7298,233.9
803.0365,220.1
803.5405,16467.6
803.5707,932.9
803.5998,202.1
803.6188,253.2
803.791,115.7
803.8275,628.7
804.1767,18.2
804.4971,21
804.5524,441657.7
804.8582,272.9
805.3703,154.4
805.5559,211960.4
805.9363,149.2
806.5295,605.8
806.57,332854.4
806.6122,328.6
807.039,114
807.17,105.4
807.1796,108.1
807.3654,346.5
807.5729,165555.3
807.6364,643.3
808.1317,331.4
808.2723,21.8
808.5857,221080.3
808.6837,18.8
808.809,115.3
809.0336,334
809.5885,110534.9
809.6207,321.3
809.6521,852.7
809.7107,252.5
810.5514,239.5
810.6023,160061.3
811.0691,471.5
811.3019,172.3
811.6053,86618.8
811.6698,15071.6
811.7282,185
812.1363,200.5
812.1763,18.3
812.4886,850
812.5561,1406
812.6038,9072.8
812.6207,17700.5
812.6731,5368
812.8489,630.5
813.1532,414.7
813.2996,102.8
813.6222,9531.6
813.6863,8187.1
813.7395,262.2
814.1737,716
814.3686,517.2
814.5726,4195.2
814.6207,901.9
814.6897,1888.8
815.061,479.9
815.1931,183.8
815.2138,17.5
815.2635,414.9
815.3897,450.4
815.5613,189.1
815.5672,194.6
815.5805,111.5
815.7052,183.6
815.9395,465.5
816.0585,70.1
816.1117,18.4
816.2625,218.7
816.5893,22325.7
816.878,151.7
817.5927,9204.1
817.7543,56.8
817.8553,341.3
818.2979,113.6
818.4412,118.8
818.4934,420
818.5118,2145.7
818.569,4127.4
818.6075,4651.4
819.1265,412.1
819.2956,102.7
819.4417,20.6
819.482,568.1
819.5691,216.3
819.609,1306.9
819.6355,17.9
819.9726,20.8
820.5263,84861.2
820.5876,861.1
820.6249,899.5
820.9202,117.9
820.9697,175.1
821.1444,283.8
821.5299,36806.8
821.5846,154.2
821.6246,55.9
821.8972,185.4
822.1061,120.1
822.1674,392.6
822.4425,109.9
822.543,26357.4
822.6094,637.8
822.638,217.6
823.5452,10725.4
823.6473,56.2
823.9219,182.5
824.1066,163.6
824.275,541.7
824.558,22749.4
824.7,55.5
824.8125,315.2
825.0458,92.1
825.3299,376.5
825.3503,201.2
825.5611,8321
825.7252,20.8
825.7652,266.9
825.7929,331.7
826.0119,576.9
826.8696,166.7
827.0789,584.9
828.2862,102.1
828.3704,664.3
828.5523,125890.9
829.5557,61157.3
829.5988,20.4
829.6954,696.6
829.8182,451.2
829.9487,171.1
830.3239,401.8
830.4514,608.2
830.5692,62430.3
830.8691,247.1
831.5719,34940.5
832.0983,112.4
832.5845,83997.5
833.5875,42765.3
833.6517,2078.9
834.0086,324.9
834.1387,103.6
834.433,255.7
834.4391,265.5
834.6022,31210.7
834.9333,122.3
835.138,304.9
835.2444,265.3
835.2944,776.2
835.5325,692.8
835.605,15079.9
835.6702,577.4
835.7185,292.9
835.7535,208.4
835.9697,318.4
836.0372,388.1
836.6196,1051.3
836.6491,355.6
837.132,504.7
837.5987,667.1
837.6213,601.4
837.7135,164.8
838.2286,108.2
838.5124,2076.3
838.6342,62.8
838.9603,657.6
839.7364,294.7
839.9968,385
840.4263,175.2
840.5465,282.5
840.7307,421.9
840.7861,89.2
840.809,662.3
841.6071,66.4
841.6456,100.3
842.2524,159.7
842.8073,436.5
842.8372,70
843.0736,410.9
843.5278,227.8
843.5506,391.3
843.9256,93.1
844.0471,1300
844.1005,1512.3
844.5263,20625
844.5838,245.3
844.7588,282.8
844.8701,95.6
845.5296,8240.8
846.0753,696.7
846.2043,419
846.5431,7573.3
846.8037,174.8
846.8281,152.2
847.1271,552.8
847.149,576.9
847.5448,1083.6
847.7147,18
847.9887,502.4
848.0502,286.2
848.5574,13014.5
848.6534,458.5
848.7974,311.7
849.0223,262.2
849.2927,331.7
849.5624,1340.5
850.2049,111.5
850.5792,707.4
850.8639,369.7
851.0506,406.4
851.112,405.9
851.3747,588.4
851.4098,576.6
851.4526,178.4
851.6945,110.5
851.9415,31.2
852.0557,189.7
852.4217,169.3
852.509,189.5
852.6449,404.7
852.7531,351.4
852.7645,347.1
854.0967,444.4
854.4786,221.7
854.5692,1746.4
856.4976,616.9
856.5284,713.4
856.5835,5440.6
856.7686,20.3
856.872,146.3
857.2839,440.6
857.4817,475.6
857.5862,3104.1
857.7098,478
858.1803,95.4
858.4308,752.8
858.6945,422.1
858.9551,137.2
859.018,408.7
859.6022,229.6
859.6826,193.5
859.8829,259.4
860.287,18.3
860.6135,225.9
861.0972,321.2
862.0002,715.4
862.0648,240.5
862.1649,340.5
862.3063,313.5
862.671,296.1
862.8039,525.5
863.5152,343.1
863.865,543.5
864.0484,776.8
864.5137,602.5
864.6506,371.7
864.7298,48.1
865.3173,314.7
865.5652,816.5
865.6579,718.7
865.8502,19.8
865.8945,150.8
866.0046,105.2
866.1581,650.9
866.2026,193.3
866.4551,751.9
866.5001,136.8
866.9359,814
867.3816,510.4
867.5089,171.2
867.5606,207.6
867.9162,537.5
868.8145,162.9
868.8982,23.6
868.9842,801.3
869.4754,401
869.5867,110.3
869.683,17.4
869.7077,828.5
869.7288,524.3
869.758,491.7
869.8666,1570.8
869.9244,360.6
869.9484,1455.4
869.9772,1559.9
870.018,1572.3
870.0644,1363.7
870.1013,2269.6
870.144,3645.8
870.1871,3540.7
870.2131,3753.1
870.2795,2738.2
870.3148,1803.8
870.3641,1166.4
870.4166,229.6
870.4675,23.1
870.634,18
870.6578,86.6
870.6731,80
871.204,869.6
871.2516,338.2
871.2819,418
871.3003,322.7
871.3359,314.1
871.7913,331
871.8475,103.9
872.2186,333.7
872.9075,91.1
873.0404,221.5
873.2434,17.6
873.523,574.6
873.6899,363.5
873.8397,296.3
874.2248,160.7
874.4042,17.7
874.4932,241.3
876.0252,404.4
876.078,113.5
876.1321,184.7
876.1649,94.4
876.2137,50.7
876.3722,262.4
876.8206,107.8
877.509,266.9
877.562,122.7
877.8807,130.5
877.9276,101.6
878.2345,672.2
878.8607,776.7
879.6777,156.9
880.4111,173.2
880.4647,960
880.5145,104.8
880.6987,213.5
880.8654,327.3
880.9942,194.5
881.6684,377.5
881.9018,273.6
882.2945,506.1
883.2893,587.7
883.6342,360.7
884.3035,151
884.3623,19.2
884.5393,204.7
884.8241,518.1
884.9025,438
884.9449,385.5
885.6442,492.5
885.6716,240.6
885.7573,154.8
885.8628,1043.9
886.3855,1047.9
886.5706,17.5
886.997,381.8
887.1188,250.3
888.0129,373.4
888.4127,50.7
888.5157,210.9
888.6467,183.2
888.8007,596.6
888.8773,114.3
889.5837,682.8
890.392,788
891.0701,289.7
892.0228,414.4
892.7023,316.8
893.3875,365.6
893.433,500.8
893.528,561.8
893.822,68.2
893.9424,913.7
894.0994,142.5
894.354,117.9
894.4407,1302.7
894.5354,197
894.8228,44.4
894.848,312.6
895.1011,101.7
895.3621,52.8
895.5427,185.8
895.7,128
895.8661,22.9
895.9592,121.1
896.0211,472
896.1817,233.9
896.2166,274.4
896.5222,276.7
897.9688,425.4
898.1814,321.5
898.9545,834.4
899.0155,375.5
899.093,17.7
899.5938,725.9
899.8709,182.8
899.9527,22.3
900.0318,607.5
900.3415,246.3
900.3992,112.7
900.5754,682.8
900.5969,233.2
900.9799,18.3
901.1418,750.1
901.5217,647
901.9965,1000.5
903.2844,207.8
903.5771,456.3
903.8745,26.7
904.0402,113.3
905.2628,127.4
905.3766,144.3
905.9322,203.2
906.3854,270.4
906.5293,327.8
906.6063,169.1
906.6278,346.4
907.4259,119.6
907.8707,748
908.7446,294.9
909.1044,19.8
909.2049,381.1
910.8187,128.8
911.0262,189.1
911.5922,19.1
911.8247,546.3
912.0674,500
912.5595,19.7
913.6796,415.1
913.9085,626.5
913.9926,589.4
914.1938,501.1
915.0831,258.1
915.1672,104.4
916.1272,20.1
916.3782,328.3
916.8645,669.8
916.9547,338.7
917.6223,196.2
917.7299,571.3
918.0844,115.2
918.9753,383.7
919.211,361.7
919.6056,644.1
919.7039,223.9
919.7363,90.3
920.3633,54
920.4832,2138.2
920.7283,311.5
920.778,278.2
921.5945,484.5
921.736,509.5
921.924,517.2
922.2154,748.5
922.6291,133.5
922.7995,173
923.3602,481
924.0002,170.6
924.5098,784.2
925.1839,434.2
925.7152,154.4
925.9254,105.3
926.4043,249.6
926.5794,475.9
926.8891,771.7
926.974,430
927.7039,248.1
927.8643,111.9
928.3357,621.3
928.5702,181
928.6255,509.3
929.2848,95.4
929.711,410.6
930.1484,259.5
930.1961,286.4
930.964,213.2
931.1307,21.4
931.3909,179.9
931.634,256.5
931.6649,139.5
931.7891,171.6
931.8966,315.1
931.9255,251.1
932.283,429.5
932.3401,580.5
932.6563,609.6
932.764,139
932.8709,242
933.1009,423.9
933.1445,19.7
933.4246,350.5
933.727,158.8
933.7677,926.9
934.1443,797.9
934.7001,152.5
935.1616,168.3
935.2127,599.5
935.5493,43.5
936.1238,645.8
936.187,86.7
936.8778,112.5
936.9966,365.1
937.3998,214.5
937.5182,154
937.6148,629.7
938.6637,19.4
939.4829,132
940.2122,167.3
940.2511,19
940.9877,134.9
941.0963,464.8
941.7341,104.6
941.8598,419.2
942.2838,679.8
942.6967,53.4
943.2269,258.1
943.28,303.1
944.0818,18.5
944.2312,965.4
944.4941,502.6
944.9614,309.6
945.148,271.7
945.5568,168.3
945.6208,379.3
946.2246,580.7
946.5344,1674.9
947.5549,906.3
947.7955,103.4
947.8808,499.4
947.9695,200.1
948.1711,186
949.4319,196.9
949.5879,251.1
949.9339,641
950.0714,110.3
950.0979,811
950.19,551.7
950.2469,323.6
950.511,61.5
950.5997,136.2
950.9142,163.4
951.8755,360.2
952.0257,19.9
952.1209,103.8
952.2962,20.1
952.7012,577.2
953.3389,160.5
953.4456,241.5
953.8793,23.3
954.6015,436.1
954.6422,220.6
954.9025,117
955.052,108
955.1198,188.8
955.8204,19.8
956.3241,645.9
957.0013,244.6
957.2537,633
957.4539,104
957.806,17.4
958.1941,121
958.6132,22.6
959.0385,309
959.3647,633.2
959.6572,105
959.7775,940.7
960.027,176.8
960.5176,565.3
960.7353,599.7
960.8581,104.5
961.1379,155.2
962.2793,283.4
963.3194,18.9
963.368,21
963.5387,20.3
964.5361,365.7
965.1607,1178.1
965.2055,681.6
965.3444,326.2
965.4206,145.1
965.6313,494
965.8815,121.7
966.3846,540.5
967.6905,20.5
969.5418,392.8
969.6173,286.3
969.996,817.1
970.1313,488.9
970.3863,556.1
970.8049,160.1
971.318,97.3
971.3684,560.2
971.6965,349.2
972.0437,341.9
972.1421,311
974.0903,1035.9
974.4924,635.7
975.1599,1204.9
976.3679,161.3
976.6033,177.9
976.9265,18.1
977.2551,779.6
977.3095,168.1
977.4087,1675.4
977.561,305.6
977.7617,1096.5
977.8448,114
978.0971,620.7
978.2034,362.9
978.3484,822.6
978.7132,352.3
979.0643,111.7
979.1368,96.5
979.4523,565.6
979.5156,17.8
979.7008,213.8
979.8453,225.8
980.5017,176.7
980.8081,318.2
981.1332,297.8
981.6364,152.8
982.2088,763.5
982.6988,312.3
982.9599,197.6
983.11,497.5
983.2164,1659.4
983.5992,114.8
984.7045,20.5
984.7759,851.6
984.9189,1032.7
985.0374,1798.5
986.4226,841.4
986.8277,521.8
986.9571,23.4
987.1728,284
987.3319,367.1
987.8003,529
988.0989,137.6
988.1738,165.5
988.3037,188.6
988.8083,45.3
989.5036,417.5
989.972,105.3
990.0307,298.3
990.0604,115
990.5422,879.4
991.0909,83.8
991.2699,701.6
991.4009,1659.2
992.266,20.5
992.4342,183.6
992.892,325.2
993.7581,18.1
993.7945,596.9
993.8585,548.7
994.7093,416.4
995.496,130.8
995.5708,413.4
995.7004,204.8
995.7975,405.9
996.2897,393.7
996.3569,324.2
996.3828,1102.1
996.969,127.5
997.3544,796.7
998.2837,575.9
998.5191,947.1
998.7098,263.7
998.8655,342.3
999.4735,625.4
999.6781,247.1
999.7696,95.3
