SPECTRUM - MS,
717.RAW,
FTMS + p ESI Full ms [50.00-1000.00],
Scan #: 1-40,
RT: 0.01-1.97,
AV: 40,
m/z,Intensity

50.0072,294.4
50.0093,305
50.0102,201.9
50.025,20.4
50.026,113.8
50.0284,18.6
50.0345,202.3
50.0507,153.4
50.0592,102.8
50.0641,691
50.0733,177.4
50.0774,302.6
50.0797,333.5
50.0819,237.3
50.0859,149.5
50.0899,262.8
50.0948,444.9
50.0959,292
50.0993,190.3
50.1291,203.2
50.1435,115.9
50.1442,260.1
50.1488,143.4
50.1552,366.6
50.171,233.7
50.1762,100
50.179,520.7
50.2039,19
50.2098,229.6
50.2233,16.4
50.2395,16.7
50.2404,103.9
50.2631,101.3
50.2643,113.4
50.2679,19.4
50.2729,124.8
50.2781,45.9
50.2856,879.1
50.2893,17.9
50.2955,237.8
50.2997,127.3
50.306,447.9
50.3074,94.9
50.3244,352.4
50.3255,128.2
50.3386,143.2
50.342,107.3
50.3653,128.9
50.3655,159.9
50.3656,129.2
50.3689,330
50.4008,18.7
50.4243,394.5
50.4305,96
50.4332,129
50.4409,124.4
50.4645,318.9
50.465,366.2
50.4774,138.3
50.4892,303.6
50.5393,549.9
50.5471,243.3
50.549,123.5
50.5561,102.3
50.5852,184.4
50.5872,219.4
50.6192,119.2
50.6593,185.5
50.6606,103.2
50.6761,741.2
50.6967,144.8
50.7051,156.3
50.711,341
50.7142,170
50.7405,36.6
50.7484,21.7
50.753,219
50.7599,235
50.7643,112.9
50.774,183.2
50.8016,519.3
50.8108,579.3
50.8213,114.4
50.8248,17
50.8251,16.5
50.8334,381.7
50.8404,313.4
50.8482,107.1
50.8649,250.5
50.8778,214.6
50.8857,215.1
50.8966,102
50.905,217.1
50.9089,359.8
50.9103,215.3
50.9137,262.4
50.9316,17.8
50.9685,204.5
50.9699,404.4
50.9907,231.3
50.9932,392.1
51.009,236.2
51.0201,261.1
51.0232,142.5
51.0458,114.2
51.07,17.4
51.0903,391.4
51.1021,336.4
51.1068,190.8
51.1116,117.6
51.1141,306.1
51.1381,269.2
51.1725,18.5
51.1761,234.2
51.1765,615.5
51.1989,179.5
51.2221,108.5
51.2263,115.5
51.2579,266.2
51.2758,105.8
51.2847,335.3
51.2866,272.1
51.2974,316.6
51.2982,233.7
51.3081,249.9
51.3151,109.7
51.3162,97.6
51.3245,236.2
51.3318,654.9
51.3517,163.6
51.3759,367.9
51.3889,305.8
51.3912,542.9
51.3934,294
51.4043,324.4
51.428,107.4
51.4328,204.5
51.4373,204.2
51.4598,109.5
51.4768,20.1
51.4894,182.1
51.52,158.5
51.5284,538.1
51.5342,286.2
51.5475,17.4
51.5492,496.8
51.5532,281.2
51.5538,251.8
51.5659,325.1
51.5768,385.8
51.5838,115.4
51.5857,601.9
51.6016,270.8
51.6163,144.4
51.6846,187.2
51.6923,17.9
51.7158,166.8
51.7204,45.5
51.7273,265.2
51.7457,114.4
51.7489,376.4
51.7571,212.4
51.7645,324.1
51.7713,316
51.8132,267.5
51.8141,17.3
51.8359,169.1
51.8402,167.3
51.8505,18.8
51.8866,119.4
51.8871,162.4
51.905,126.5
51.9099,17.1
51.9179,175.7
51.9476,137.7
51.9619,96.6
51.9789,356.2
51.9922,208.5
52.0101,262.5
52.0105,141.3
52.0379,336.1
52.0432,155.3
52.0471,221.1
52.0515,132.5
52.0931,638.6
52.1138,15.1
52.1161,183.1
52.1193,278
52.1306,262.4
52.1446,782.5
52.1564,34.8
52.1642,121.6
52.1733,180.2
52.1751,48.7
52.179,328.9
52.1808,20
52.1813,41.9
52.188,167.5
52.2039,680.7
52.2338,111
52.2438,219.1
52.2532,141.9
52.2649,561
52.2913,365.6
52.3053,511.2
52.3113,303.1
52.3184,146.3
52.3268,143
52.3285,232.1
52.3329,20
52.3484,230.1
52.3558,198.5
52.3909,792.2
52.4185,126.8
52.4215,253
52.4369,150.4
52.4428,16.6
52.4451,467.8
52.4539,214.6
52.4598,121.2
52.4903,300.7
52.5001,373.9
52.5059,233.8
52.5121,167.8
52.5212,120.6
52.543,164.6
52.5437,759.2
52.5564,293.1
52.5716,136.7
52.5933,17.4
52.5965,659
52.6062,127.9
52.6102,757.5
52.6196,322.7
52.6242,149.1
52.6423,36.5
52.6448,19.6
52.6583,46.4
52.7261,17.8
52.734,110
52.7416,167.9
52.7424,312.5
52.7504,268.7
52.7646,102
52.7714,593.4
52.7722,438.1
52.7838,402.9
52.7864,621.4
52.7867,269.6
52.787,430.8
52.7876,572.5
52.7881,961.8
52.7888,1483.9
52.7891,1006.1
52.7893,1217.5
52.7898,1051
52.7902,1878.8
52.7911,260.5
52.8188,119.2
52.8243,166.5
52.8313,114.9
52.8355,356.6
52.84,424.8
52.8465,120.3
52.8818,377.9
52.8912,240.4
52.9053,19.8
52.9267,101.4
52.9409,15.1
52.9477,359.1
52.964,99.5
52.9679,233.7
52.982,582.4
53.0004,119.1
53.0094,108.5
53.0159,286.1
53.0203,319.4
53.0353,237.7
53.0614,318
53.0694,108.1
53.089,180.7
53.0949,318.9
53.1015,345
53.1079,285.8
53.1436,258
53.1643,80
53.1698,115.9
53.1815,132.4
53.182,199.9
53.198,172.2
53.2032,98.4
53.2058,299.3
53.2135,150.9
53.2758,15.7
53.2762,207.3
53.2802,190
53.3161,83
53.3172,114.3
53.3282,354.8
53.3361,125
53.337,159.8
53.345,100.5
53.3459,110.1
53.3591,97.3
53.377,492.1
53.3794,164.9
53.3813,294.2
53.3825,321.2
53.3908,397.7
53.3921,124.1
53.402,304.5
53.4125,388.9
53.4255,253.6
53.4338,83.1
53.4506,549.9
53.4696,108.1
53.4702,440.3
53.4882,273.2
53.4902,451.7
53.5068,525.6
53.5082,249.6
53.5096,17.8
53.517,499
53.5174,283
53.5217,509
53.5232,222.7
53.5306,114.9
53.5334,584.1
53.5568,37.3
53.5576,619.9
53.5766,19.3
53.5793,222.8
53.5859,20.9
53.5947,17.2
53.6207,110.5
53.6224,40.9
53.6534,230.6
53.6734,343.4
53.6779,533.8
53.6905,97.8
53.6912,497.4
53.6978,361.8
53.7186,132.4
53.734,474.8
53.7401,185.1
53.7428,218.5
53.751,190.7
53.7727,181.3
53.7914,17.9
53.8081,347.9
53.8217,327.4
53.874,269.3
53.8791,367.7
53.8819,256.2
53.8889,122
53.894,258.1
53.8971,18.6
53.9052,112.3
53.9099,124.6
53.9134,213.3
53.9282,287.7
53.9287,432.8
53.956,16.8
53.9635,294.7
53.9933,96.7
53.9941,334.1
53.9972,423.4
53.9999,123
54.0086,104.4
54.0091,16.8
54.0181,292.3
54.0195,91.6
54.0222,124
54.0378,561.8
54.0382,15.8
54.063,147.4
54.0687,20.6
54.0828,661.7
54.0831,620.4
54.0901,18.4
54.0942,253.4
54.096,238.5
54.0993,455.6
54.1212,15.7
54.1525,42.8
54.1546,242.4
54.1603,528.9
54.1732,108.2
54.1911,376.7
54.2235,595.6
54.2295,370.7
54.2327,22.9
54.2578,17
54.2626,307.3
54.2663,112
54.2865,100
54.3049,469
54.3064,123.7
54.3253,300.2
54.3414,87
54.3546,103.8
54.3572,135.8
54.3604,145.4
54.374,357.9
54.4,159.4
54.4235,15.6
54.4307,90.4
54.4608,330.8
54.4627,43.5
54.4662,241.7
54.472,377
54.4787,145.9
54.4945,207.7
54.528,182.7
54.5331,427.6
54.538,101.5
54.5414,450.2
54.5574,333.4
54.5583,321.8
54.566,169.8
54.5785,270.4
54.5827,285.3
54.5929,316.3
54.5934,224.9
54.5956,184.5
54.6243,136.7
54.6285,99.5
54.6358,694
54.6375,16.4
54.6434,103.3
54.6655,127.6
54.6775,327.4
54.6935,607.4
54.6939,105.4
54.6949,245.3
54.6965,15.1
54.7092,88.9
54.7266,180.7
54.7302,118.8
54.7324,95.6
54.7378,316.3
54.7435,344.8
54.7534,630.1
54.7644,15.8
54.7771,93.1
54.7839,308.5
54.7905,81.7
54.8027,210.7
54.8184,391.2
54.8496,210.1
54.862,115.6
54.8676,402.5
54.8747,583.4
54.8785,203.5
54.8791,140.5
54.8844,252.1
54.8899,443.8
54.9429,161.9
54.9486,125.9
54.9638,229.8
54.9694,334.4
54.9778,243.1
54.9863,233.7
54.9893,20.6
54.9999,86.1
55.0024,99.4
55.0038,195.3
55.0127,151.3
55.0335,111.9
55.06,119.3
55.1047,213.4
55.1141,736.8
55.144,157.2
55.1482,130.4
55.1511,437.9
55.1731,698.2
55.1922,128.4
55.2025,84.3
55.2075,19.1
55.2103,43
55.2372,357.6
55.2534,92.5
55.2689,353.8
55.2733,84.6
55.2866,351.9
55.2923,41.5
55.3064,141.6
55.3073,199.2
55.342,335.9
55.3944,139
55.3962,141.1
55.4087,114.4
55.4144,551.7
55.4176,100
55.4299,306.2
55.4384,415.3
55.4461,116.1
55.4466,347.3
55.4476,404.6
55.4481,311.5
55.4513,16.3
55.4664,464
55.4719,137.6
55.4757,15.5
55.4815,127.2
55.4824,113.5
55.5123,108.8
55.5323,18.1
55.5348,233.6
55.5393,318.7
55.557,116.5
55.5688,39
55.6063,266.1
55.6105,614.4
55.6162,167
55.6271,334.7
55.6356,18.2
55.6365,16.6
55.6564,141
55.6744,731.3
55.6999,242.1
55.7184,327.4
55.7195,203.4
55.7318,17.8
55.7499,120.4
55.7523,176.2
55.7833,292.6
55.7926,36.3
55.8015,144.6
55.8095,103.7
55.8182,41.9
55.823,198.9
55.8289,256.4
55.8443,505.9
55.8682,102
55.8762,109.2
55.8874,302.7
55.8957,180.2
55.9341,184.9
55.9441,367
55.9517,107.3
55.9813,202.6
55.9853,390.6
56.0008,667
56.0087,16.1
56.0278,462.4
56.0349,105.1
56.0402,216
56.0464,296.4
56.0641,319.2
56.0718,217.9
56.0766,147.5
56.0823,133.7
56.0857,190
56.0914,273.6
56.0985,289.2
56.1458,96.8
56.1521,484
56.1659,87.2
56.1741,633.2
56.1959,487
56.1995,110
56.2327,107.1
56.2406,348.4
56.2451,186.1
56.2463,341.4
56.2516,229.5
56.2551,44.9
56.2666,200
56.271,615
56.2721,273
56.2763,186.4
56.2881,17.3
56.2942,521.8
56.334,89.5
56.3354,131.6
56.3545,17.9
56.3672,161.9
56.3795,241.2
56.3862,264
56.4018,103.5
56.4363,319.8
56.4606,398.8
56.474,192.8
56.484,131.1
56.4916,44
56.5085,299.1
56.5315,233.5
56.5394,195.2
56.5593,21.6
56.565,145.2
56.5938,223.7
56.594,226.4
56.6031,210.1
56.6044,709.6
56.6704,391.9
56.6798,104.1
56.6987,118.8
56.7059,275.4
56.7202,701.3
56.7218,123.3
56.7222,243.5
56.7268,116.3
56.7274,41.8
56.7307,114.4
56.7444,88.1
56.7496,114.7
56.7692,327.1
56.7882,103.9
56.8272,395.2
56.8295,563.5
56.8407,122.7
56.8428,119
56.8446,422.9
56.8539,195.9
56.9116,100.7
56.9254,187.9
56.9354,252.8
56.9478,480.6
56.9486,276.8
56.952,107.3
56.9785,215.6
56.9817,40.6
56.9852,365.2
57,172.2
57.03,371.1
57.0368,99.8
57.0433,178.7
57.0593,269.3
57.0599,216.3
57.0816,258.2
57.0932,99
57.0957,236.7
57.1027,126.9
57.126,16.9
57.1333,788.1
57.1414,198.6
57.1462,307
57.1633,171.4
57.1643,18.1
57.1886,211.9
57.1929,195.7
57.1937,169.2
57.2168,43.5
57.2534,117.7
57.2666,429.8
57.2724,99.6
57.2836,118.5
57.2842,45
57.303,137.2
57.3267,91.2
57.3341,159.2
57.3354,124.7
57.3525,247.4
57.3666,134.9
57.4328,101.1
57.442,248.6
57.4623,437.6
57.4628,77.6
57.465,247.5
57.47,147.9
57.4917,440.3
57.4931,214.6
57.5068,210.9
57.5132,16.7
57.525,474.8
57.5337,205.5
57.5419,250.4
57.5448,280.2
57.5516,326.6
57.5726,113.4
57.5819,430.4
57.5897,117.9
57.6443,120.9
57.655,20.6
57.6694,348.3
57.682,39.7
57.6862,541
57.6913,138.5
57.701,297.1
57.7022,204.8
57.7211,170.9
57.7372,170.4
57.7638,318
57.7698,125.3
57.7903,17
57.8243,119.1
57.832,332.7
57.8633,41.1
57.8812,77.2
57.8814,77
57.9302,118
57.9483,169.7
57.9624,121.3
57.9659,46.3
57.9966,340.2
57.9978,266.6
58.0088,715
58.0178,16.3
58.0357,401.3
58.0501,254.1
58.0529,105
58.0616,36.3
58.0703,105.5
58.0778,38
58.0861,110
58.0984,525.5
58.1163,310.8
58.1274,133.6
58.1338,155.7
58.1525,213.2
58.1616,218.6
58.1693,411.1
58.1843,173.1
58.1885,18.4
58.2095,282.9
58.2108,241.8
58.2212,16.9
58.2221,201.2
58.2226,18.9
58.2557,129.5
58.26,46.4
58.2708,545.3
58.2714,240.6
58.2928,213.5
58.3034,209.6
58.313,214
58.3174,321.9
58.3242,333.4
58.3311,80.1
58.334,899.5
58.3413,274.5
58.3525,16.6
58.3709,195.4
58.3745,282.5
58.38,660.3
58.3814,532.6
58.3884,361.4
58.3976,20.2
58.4099,663.9
58.4231,211.3
58.4402,100
58.454,402.1
58.4582,212.6
58.486,206.2
58.4955,283.3
58.5029,145.3
58.5136,114.5
58.5138,129.2
58.514,115.1
58.5469,231.6
58.5574,216.3
58.5702,97.4
58.5814,353.5
58.5841,16.8
58.6114,421.2
58.6182,214.2
58.6258,99.6
58.6403,642.3
58.641,123.4
58.6683,87
58.6787,342
58.6879,127.4
58.6898,202.5
58.7341,112.9
58.7742,195.9
58.7975,113.4
58.8098,105.6
58.8157,156.8
58.8293,112.9
58.8343,619.4
58.8415,114.6
58.8842,138.7
58.8926,290.3
58.9,146.1
58.9055,131.6
58.9132,136
58.9341,115
58.9421,138.9
58.9476,105.9
58.952,274.6
58.9716,16.1
58.9737,215
58.9757,475.6
58.9815,503.3
58.9952,369.4
59.0407,228.8
59.0439,15.2
59.0441,15.7
59.0501,144.9
59.0604,85.6
59.0638,719.8
59.0715,112.6
59.0718,113.6
59.0911,417.4
59.092,17.8
59.0978,427.5
59.1029,113.7
59.1212,190.5
59.1295,264.7
59.1415,141.4
59.1527,374.1
59.1599,17.9
59.167,593
59.1674,265.2
59.1676,252.9
59.1709,706.4
59.1762,710.6
59.1848,381.4
59.1851,370.1
59.201,94.9
59.2084,35.7
59.209,111.1
59.2221,125.5
59.2277,138.5
59.2372,103.4
59.2781,343.3
59.2818,115.8
59.3121,114
59.3361,326.4
59.3512,297.5
59.3521,18.9
59.3583,17.4
59.3658,118.8
59.3775,18.3
59.3799,98.7
59.382,92
59.433,137.4
59.4451,208.9
59.4735,204.1
59.4763,46.9
59.5286,119.1
59.5295,131.5
59.5375,382.4
59.5412,89.4
59.5593,267.8
59.5653,339.8
59.6092,265.8
59.6187,423
59.6412,155.4
59.6686,193.1
59.6807,178.7
59.7158,650.2
59.7176,18.3
59.7189,128.3
59.7191,120.7
59.7449,124.6
59.746,97.5
59.7651,560.5
59.7658,345.7
59.7667,417.3
59.8186,102
59.83,243.2
59.833,245.1
59.8344,427.8
59.8531,143.1
59.8755,233.2
59.8783,199.6
59.879,127.6
59.8999,349.5
59.908,163.6
59.915,121.6
59.9311,213.3
59.9345,88.5
59.946,227.8
59.9809,350
59.9843,370.2
59.9978,16.9
60.0136,82.1
60.0298,17.8
60.0445,93.3
60.0515,438.2
60.0543,210.5
60.0767,302
60.0797,578
60.0803,115.3
60.0937,166.4
60.0987,310.2
60.1011,507.7
60.1117,309.9
60.1264,16.1
60.1316,232.7
60.1409,112.2
60.1444,108.1
60.1488,220.8
60.1545,15.3
60.1662,408.7
60.1766,109.3
60.1806,107.5
60.1852,285.8
60.1893,460.5
60.2021,199.5
60.2039,260.3
60.2051,143.2
60.2063,88.1
60.2389,115
60.2534,199.9
60.261,239.6
60.2725,630.3
60.2758,195.7
60.2897,113.9
60.2912,19.8
60.2946,266.1
60.2968,289.2
60.323,311.6
60.3284,298.5
60.3316,291.9
60.341,127.1
60.3413,108.7
60.3416,42.6
60.3601,444.3
60.3721,175.3
60.4167,251
60.4223,449.1
60.4302,139.6
60.4424,100.5
60.458,119.8
60.469,260.6
60.4719,18.1
60.4773,298.6
60.4965,110.6
60.5188,141.5
60.5318,158.1
60.5377,155.2
60.5546,145.9
60.5727,185.8
60.5729,182.7
60.5736,286.2
60.5805,108
60.5913,36.1
60.5936,127.2
60.596,93.1
60.6,39.3
60.6041,388.2
60.605,190.8
60.6056,252.8
60.6272,688.4
60.6365,450.4
60.6394,120.6
60.6515,313.2
60.6594,235.8
60.6752,329.2
60.6756,48.6
60.6796,225.5
60.688,460.8
60.7136,318.8
60.7274,18
60.7378,246.5
60.7384,84.8
60.7797,120.2
60.7917,401
60.7951,103.6
60.7977,309.7
60.8011,243.8
60.8191,397.3
60.8291,493.2
60.8438,751.4
60.8468,170.4
60.857,18.1
60.8719,19.6
60.8863,268.3
60.8926,221.4
60.8956,113
60.8979,128.8
60.9078,108.8
60.9103,209.6
60.9153,210.3
60.9227,125.7
60.9233,746.6
60.9737,709.8
60.9796,17.5
61.0066,317.2
61.0454,88.8
61.0489,264.2
61.0569,311.2
61.0608,190
61.064,117.2
61.0892,422
61.1077,130.2
61.1107,219
61.1179,122.1
61.1269,20.2
61.132,193.5
61.1424,959.2
61.1508,145.8
61.1559,249.1
61.193,176.6
61.1934,195.6
61.2005,176.5
61.2034,617.5
61.2095,107.9
61.2208,16.6
61.2352,652.5
61.2678,127.1
61.2687,133.3
61.2782,165.8
61.2986,449.8
61.3014,229.3
61.3035,189.3
61.3154,17
61.318,125.6
61.3225,229.5
61.3316,434.8
61.3518,118.1
61.367,851.1
61.3893,101.5
61.404,100
61.4151,522.9
61.4248,693.8
61.4504,141.2
61.4748,95.5
61.4907,132
61.4955,15.1
61.5102,206.1
61.5168,575.9
61.5188,16.1
61.5621,106
61.5901,247.1
61.6088,116.7
61.6178,598.4
61.6188,121.2
61.6209,141
61.6273,696.9
61.6292,253.9
61.6333,17.6
61.647,135.3
61.6554,17.3
61.6624,128.9
61.7134,221.2
61.7224,226.9
61.7248,430.6
61.7543,687.2
61.7705,130
61.7723,260.3
61.8309,86.3
61.8325,361.8
61.8475,110.4
61.8515,38.3
61.8525,142.1
61.8627,101.6
61.8649,420
61.8683,667.9
61.8734,265.9
61.8765,606.4
61.8923,329.2
61.8944,587.6
61.9187,114.4
61.9618,671.2
61.9763,108.4
61.9822,167.4
61.9967,119
62.0006,83.1
62.0022,134.2
62.0155,595.7
62.0483,94
62.0503,171.7
62.0529,174.6
62.0961,231.2
62.1117,364.4
62.1244,135.9
62.1259,129.3
62.1269,312.3
62.1418,328.3
62.1659,345.3
62.1686,242.4
62.1802,355.7
62.1843,186.2
62.228,123.7
62.2749,18.7
62.2893,115.4
62.3034,188.4
62.3111,15.9
62.3119,254.2
62.3183,15.2
62.3249,231.6
62.3376,98.7
62.3456,335.4
62.3532,16.6
62.3668,174.9
62.3736,18.3
62.3929,176.6
62.3947,19.3
62.3983,126.9
62.3996,278.8
62.404,15.7
62.4062,125.2
62.4179,409.3
62.4204,16.2
62.4226,125.9
62.4481,499.6
62.455,191.9
62.4693,17.2
62.5138,531.2
62.5261,112.3
62.5332,208.7
62.5381,484.7
62.5434,112.4
62.5549,91.6
62.5588,250.4
62.5613,208.3
62.5679,492.9
62.5758,80.8
62.6266,142.4
62.6421,520.1
62.6656,466.6
62.6807,18.2
62.7099,103
62.7265,108.9
62.7305,860.8
62.7327,137.7
62.7337,359.4
62.7578,530.7
62.7646,135.5
62.8055,652.7
62.8701,172.3
62.8854,105.2
62.898,102.6
62.9005,169.1
62.9046,201.5
62.9056,484
62.9136,19.2
62.9308,329.6
62.9565,19.2
62.9575,242.1
62.982,410.9
63.0047,101.4
63.0235,326.8
63.0248,186.7
63.0399,231.7
63.0512,192.3
63.0519,504.7
63.0554,16.7
63.057,197.9
63.0911,126.5
63.0982,102.4
63.1086,356.3
63.1293,125.8
63.1333,86.6
63.1347,552.4
63.137,207.9
63.1553,429.9
63.1881,259.2
63.2071,194.3
63.2271,366.3
63.2354,640.8
63.2547,704
63.2581,326.4
63.2747,361.3
63.2824,280
63.2836,512.7
63.2853,266.6
63.2946,349.5
63.3146,321.5
63.3178,194.6
63.3188,246.2
63.326,85.9
63.3267,17.7
63.3272,575.3
63.3315,272.3
63.3353,121.5
63.3402,381
63.3469,19
63.3624,16.2
63.3639,766.5
63.38,604.3
63.3838,15.4
63.4284,587.4
63.4304,107.7
63.4462,396.6
63.453,16.1
63.4825,93.9
63.4876,232.8
63.4928,140.9
63.5129,285.3
63.5149,231.9
63.5207,300
63.521,297.2
63.5502,18.7
63.5782,17.7
63.5818,17.1
63.6029,161.7
63.6031,113.3
63.606,17.7
63.6141,16.5
63.6275,17.5
63.6287,217.1
63.6456,508.6
63.6518,16.1
63.6698,116.9
63.6758,107.7
63.6993,471.5
63.7261,255.2
63.7685,315.9
63.7777,220.4
63.783,243.9
63.7854,594.9
63.7899,187.2
63.7954,282.5
63.8079,18.4
63.81,103.5
63.813,16.6
63.8385,122.3
63.8467,756.6
63.8503,264.5
63.8685,328.9
63.8727,95.3
63.8783,411.7
63.8871,117.4
63.9115,20.6
63.9413,289.8
63.9529,219.1
63.9885,212.3
64.0022,87.4
64.0512,472.4
64.0868,261.8
64.0955,278.6
64.1023,19.2
64.1166,606.8
64.1301,84.7
64.1413,90.4
64.1431,668.4
64.1537,493.6
64.1601,275.4
64.1709,144
64.1716,104.5
64.1765,150.1
64.1802,135.9
64.1808,18.7
64.1968,89.7
64.2025,107.9
64.2065,19.3
64.2163,754.8
64.2253,96.2
64.2311,243
64.2577,17.9
64.2747,481.6
64.3155,432.7
64.3164,81.9
64.3215,617
64.3706,86.3
64.372,734.4
64.3727,370.3
64.374,121
64.3897,171.3
64.3926,255.9
64.4005,408.8
64.404,377
64.4154,351.4
64.4322,100
64.4379,350.9
64.4567,192.9
64.4578,658.7
64.4677,660.4
64.4701,256.2
64.5028,700.2
64.5256,450.4
64.5313,586.1
64.5703,86.8
64.5936,17.1
64.6048,98.9
64.6089,137.9
64.6104,244.2
64.6171,125.5
64.6349,145.2
64.6363,119.2
64.6423,215.1
64.6703,124.9
64.69,165.9
64.7691,122.7
64.7779,283.1
64.784,266.9
64.7848,316.2
64.8024,506.7
64.8275,517.7
64.8345,469.4
64.8351,298.7
64.8543,163.4
64.8622,223.1
64.8767,124.3
64.8885,328.3
64.895,280.7
64.8988,400.5
64.9313,302.8
64.95,19.9
64.9793,712.7
64.981,703
64.9961,167.5
64.9975,20.2
65.0061,565.2
65.0198,207.5
65.0475,769
65.0876,95.1
65.1377,18.7
65.1541,275.8
65.1703,736.5
65.1791,165
65.1892,109.3
65.1955,308.9
65.2084,147.9
65.213,341.1
65.2251,320.2
65.2468,250
65.2564,175.4
65.2955,460.4
65.3073,268.6
65.3078,121.1
65.3267,276.8
65.3376,16.2
65.3616,540.8
65.3752,392.5
65.3892,20.8
65.4,114.3
65.4022,440.3
65.4158,238.7
65.4493,132.1
65.4501,752.3
65.4582,219.9
65.4626,112.8
65.4643,112.4
65.487,423.5
65.5089,100.3
65.5178,271.6
65.5257,138.1
65.5422,85.4
65.5453,61.7
65.5528,570.8
65.5589,111.6
65.5638,16.7
65.5715,347.5
65.579,234
65.5858,134.2
65.6144,21
65.6325,413.7
65.6351,852
65.6493,360
65.6572,159.1
65.6605,189.5
65.6903,112
65.717,277.5
65.7413,375
65.7439,578
65.7514,252.7
65.8001,125.8
65.8066,606
65.8157,654.7
65.8162,160.7
65.8192,323.6
65.848,144.5
65.8604,164.7
65.872,109.9
65.895,504.3
65.9061,102.2
65.9085,17.2
65.9136,117.5
65.9289,107.6
65.9296,240.2
65.9387,414.5
65.95,114.1
65.9696,205.6
65.9721,128.1
65.977,318.9
65.9995,684.7
66.0084,135.3
66.0277,305.8
66.041,125.4
66.0482,237.3
66.0629,404.5
66.075,16.2
66.0977,94.2
66.1127,225.9
66.1145,207.7
66.1364,261.4
66.1574,22.5
66.1617,461.1
66.183,21.5
66.1985,113.9
66.2202,402.5
66.2277,177
66.2297,336.6
66.2304,18.1
66.2317,161.9
66.2448,15.6
66.3026,171.4
66.3112,115.8
66.3347,270.2
66.3543,713.8
66.3691,18.1
66.3926,101.9
66.4197,256.1
66.4253,437.2
66.4614,529.1
66.4677,174.3
66.4879,18.4
66.5223,133.3
66.5333,19.5
66.5405,90.8
66.5555,290.8
66.5878,319.3
66.6002,188.4
66.6032,125.6
66.6079,108.4
66.6121,335.1
66.6131,246.7
66.6145,154.4
66.6524,264.5
66.6787,103.2
66.6924,342.3
66.7156,333.4
66.7179,598.2
66.7204,441.6
66.7472,18.5
66.7599,211.1
66.7669,108.8
66.7887,127
66.8262,619.2
66.8489,164.2
66.8567,307.7
66.8806,626.1
66.8949,262
66.973,164.1
66.9755,414.6
66.9798,20.7
66.9839,332.1
67.0038,550.9
67.0098,473.6
67.0162,558.7
67.0229,468.5
67.037,185.1
67.0406,216.1
67.048,350.9
67.0539,81.8
67.067,540.5
67.0733,412.3
67.0767,395
67.0789,214.7
67.0879,21.4
67.0909,370.2
67.0956,99.7
67.1243,145.9
67.1255,279.1
67.1363,120.6
67.1493,80.1
67.153,419.1
67.1589,197.8
67.1784,108.9
67.183,280.5
67.1936,133.9
67.195,413
67.1974,16.3
67.2058,149.8
67.2181,791.8
67.2191,19.5
67.2244,294.5
67.2307,707.5
67.2367,16.4
67.2429,601
67.2441,302.7
67.2517,237.8
67.254,369.5
67.2865,109.7
67.2872,336.4
67.2878,42.3
67.291,334.6
67.2944,139.7
67.3014,188.3
67.3038,213.3
67.3145,17.1
67.3149,108.9
67.3162,151.1
67.3385,373.4
67.3473,217.7
67.3522,15.5
67.3666,492.3
67.3919,265.6
67.3945,488.6
67.3994,337.2
67.4043,95.9
67.41,101.4
67.4466,342.4
67.4628,353.2
67.4761,152.3
67.515,17.4
67.5239,677.5
67.5405,118.5
67.5498,127.7
67.5576,94.3
67.5593,148.3
67.5687,15.3
67.5749,533.5
67.5775,112.9
67.6001,118.4
67.6027,209.7
67.6094,205.3
67.6131,96.6
67.6169,271.3
67.6238,101.3
67.6347,20.8
67.6782,217.8
67.6843,135
67.6878,440.8
67.7095,318.2
67.7098,295.7
67.7179,205.3
67.7256,505.7
67.7279,658
67.7619,210.4
67.7641,343.4
67.7662,550.5
67.7692,235.5
67.7854,406.1
67.798,235.9
67.8144,200.4
67.8216,269.2
67.8257,102.8
67.8566,517.1
67.8677,131.3
67.8727,314.4
67.8821,115.1
67.929,106.4
67.9377,262.9
67.9666,183.2
67.9709,189.3
68.0012,605.4
68.0349,152.7
68.0405,19.5
68.0422,344
68.0449,109.5
68.0524,163.6
68.0949,277
68.1146,171.1
68.1371,114.8
68.1719,219.9
68.1906,436.6
68.1935,139.6
68.2014,288.4
68.2061,337.2
68.2098,217.5
68.2293,837
68.2666,159.1
68.2742,450.1
68.2796,17.2
68.2849,355
68.2864,756
68.2949,295.7
68.3128,308.3
68.3191,108.7
68.339,153.9
68.3411,365.8
68.3504,370.5
68.3526,17.5
68.3562,18.9
68.3648,126.1
68.3839,266.1
68.4009,141.2
68.4056,310.3
68.4142,16.6
68.4187,54.5
68.428,119.1
68.4344,139.5
68.4584,569.8
68.4616,433.2
68.4947,103.9
68.5004,515.7
68.5161,328.9
68.5175,117.1
68.5523,86.5
68.5631,127.8
68.5745,20.9
68.5864,97.4
68.5947,139.3
68.6126,139.5
68.6175,17.8
68.6304,221.7
68.6614,126.1
68.6733,222.9
68.6806,420.3
68.6925,511.1
68.6976,706.5
68.6991,103.2
68.7003,345.3
68.7037,471.4
68.7101,145
68.7215,822.7
68.7318,634.8
68.7687,215.8
68.7779,96.6
68.789,219.5
68.7927,18.4
68.8026,805
68.8076,448.3
68.8173,487.2
68.8212,351.8
68.8221,247.3
68.8241,327
68.8297,192.8
68.8348,510.5
68.8559,218.7
68.86,431.7
68.8644,910.2
68.8664,17.7
68.8727,400.7
68.8867,225.9
68.8887,191.5
68.902,103.1
68.9074,381.6
68.9247,263
68.9354,254.9
68.967,133.6
68.9678,126.5
68.9794,17.9
68.9807,495
68.9988,118.8
69.0038,396.2
69.0124,433.8
69.0157,679.5
69.0297,135.9
69.0627,15.9
69.0649,208
69.0911,185.8
69.1113,17.4
69.1373,100.6
69.1447,230.5
69.1471,420.8
69.1577,98
69.1586,821.3
69.1816,141.5
69.1859,387.2
69.1879,121.4
69.2027,211.5
69.211,190.6
69.2131,144.2
69.232,729.7
69.2437,134.8
69.2618,187.8
69.2628,129.5
69.2678,528.2
69.2875,597.8
69.3006,19.2
69.3088,135.1
69.3132,510.4
69.3215,251.9
69.3219,322.3
69.3391,389.5
69.4182,668.5
69.4203,19.4
69.426,166.1
69.4364,387.1
69.4411,106.5
69.4898,698.7
69.4922,192.9
69.534,208.2
69.5474,168.5
69.5652,474.1
69.576,287.6
69.5772,17.6
69.6113,453.2
69.6185,401
69.6191,340.3
69.6329,16.6
69.6493,17.9
69.6633,524.5
69.6713,244
69.6814,122.8
69.6921,499.6
69.7011,349.4
69.7219,262.9
69.7492,243.8
69.7723,127.6
69.7874,234.6
69.7891,116.4
69.815,369.5
69.8653,161.8
69.8669,202.6
69.8754,95.5
69.9198,100.1
69.9406,433.2
69.9527,346.8
69.9591,17.7
69.9639,20.7
69.9672,200.6
69.9805,17
69.9861,315.8
69.9874,132.1
70.0004,19
70.0024,42.6
70.023,279.2
70.0448,431.9
70.0618,17.8
70.0648,1205.6
70.0759,144.5
70.0899,110.5
70.1624,16.8
70.198,123.1
70.2205,430.2
70.2282,91.1
70.2351,193.9
70.253,146
70.2654,335.2
70.3127,108
70.3219,191.8
70.3402,247.2
70.3422,110.9
70.3481,97.6
70.3535,19
70.3699,18.1
70.3742,17.4
70.3947,507.1
70.3984,450.6
70.401,16.5
70.4031,116.5
70.4057,222.2
70.4067,233.8
70.4148,22.1
70.4185,708.1
70.4249,88.2
70.4334,368.4
70.466,313.1
70.4688,256
70.4792,379.4
70.491,19.2
70.4934,363.1
70.5067,459.6
70.509,558.7
70.5093,555.5
70.5301,199.9
70.5309,114.1
70.5315,140.8
70.5363,187.4
70.5612,232.3
70.5706,736.7
70.6206,581.3
70.6247,187.3
70.6668,711
70.6711,206.6
70.6718,101.8
70.6737,16.4
70.6936,111.8
70.6963,148.2
70.7129,108.8
70.7531,128
70.7605,231.2
70.7714,216.3
70.8071,87.9
70.8323,352.7
70.8535,377.3
70.8603,666
70.8694,276.6
70.9107,152.4
70.9128,218.6
70.9156,134.4
70.9428,335
70.953,111.3
70.9557,754.2
70.9595,166.6
70.9763,314.6
70.985,632.1
70.9967,19.7
71.0191,574.3
71.0305,16.7
71.0324,115.7
71.0436,204.2
71.049,503.4
71.0683,145.1
71.0764,20
71.0861,614.6
71.0897,114.7
71.0908,353.2
71.1384,226.5
71.1495,112.8
71.1501,228.7
71.151,222.3
71.1568,544.9
71.1925,164.2
71.2023,666.3
71.21,508.2
71.2248,154.3
71.2281,628.1
71.2462,217.4
71.2532,361.8
71.2581,477.4
71.2746,728
71.2996,18.3
71.3029,177.8
71.308,370.5
71.3198,167.3
71.3205,383.6
71.3243,232.3
71.3255,326
71.3284,299.5
71.3305,96.2
71.3699,490.6
71.4214,135.3
71.4341,362.2
71.456,369.3
71.4655,148.4
71.4681,18.2
71.4802,290.3
71.5091,357.1
71.5366,241.2
71.5842,126.9
71.5886,268.9
71.603,428.2
71.6047,591.7
71.614,615.8
71.6335,315.5
71.6403,95.7
71.6413,107.9
71.6608,267.4
71.6617,388.3
71.694,187.1
71.6946,309.7
71.7004,16.4
71.7185,277.7
71.7257,22.1
71.7353,194.7
71.7446,285
71.7772,183.1
71.7938,96
71.7969,102.9
71.8027,93.7
71.8044,114.1
71.8123,53.5
71.8134,366.2
71.8535,232.8
71.8639,356.3
71.8692,15.8
71.8768,424.3
71.8796,296.7
71.8824,672.1
71.898,44.6
71.9034,136.5
71.9212,93.7
71.943,108.7
71.9566,113.4
71.9631,101.5
71.9661,154.9
71.9826,234.6
71.9899,613
71.9934,147.9
72.0123,128.5
72.016,258.7
72.0243,680.1
72.0252,282.3
72.0421,117.4
72.0641,537.7
72.0756,116.4
72.0768,310.6
72.0784,135.5
72.0804,286.3
72.0895,116.7
72.1215,206.1
72.1281,761.7
72.1429,43.9
72.1486,131.8
72.1592,41.5
72.1616,675.5
72.1625,79.9
72.1696,206.6
72.1824,17.3
72.2039,97.6
72.2127,447.2
72.2169,195.1
72.2191,352.5
72.2193,434.9
72.2213,178.3
72.2228,1201.4
72.224,1291.4
72.2249,119.9
72.2254,939.5
72.2259,929.1
72.2264,1242
72.227,1372.4
72.2275,1543.4
72.2285,1342.9
72.2292,1955.9
72.2301,1356.3
72.2315,3440.3
72.2321,2241.8
72.2329,2959.3
72.2344,2165.6
72.2353,872.1
72.2358,1437
72.2375,3560.2
72.2382,2741.4
72.239,2144.3
72.2401,1477.1
72.2405,1361.2
72.2415,4272.2
72.2426,1563.7
72.243,540
72.2444,3584.8
72.2457,1142.9
72.2464,2221.4
72.247,956
72.2483,678.2
72.2488,866.7
72.2496,930.4
72.2503,419.7
72.2514,669.3
72.252,481.5
72.2526,139.5
72.2532,110.2
72.2539,373.5
72.2546,126.1
72.2565,142
72.2633,107.2
72.2849,108.7
72.3127,87.8
72.318,288.1
72.3267,103.6
72.3352,195.3
72.344,216
72.3617,17.9
72.3852,17
72.4134,251.3
72.4153,115.2
72.4315,526.8
72.4731,178
72.4758,135
72.4767,642.9
72.4829,182.8
72.4949,17.9
72.5291,225.3
72.5316,107.3
72.5318,107
72.5843,482.7
72.5877,312.8
72.5981,147.6
72.6033,452.6
72.6087,240.4
72.6471,195.4
72.6623,628.1
72.6633,99.7
72.6668,337.6
72.6677,18.5
72.6726,92.9
72.7112,86.8
72.7275,16.5
72.759,715.8
72.7802,469.8
72.7815,183.6
72.7984,659.3
72.7999,289.9
72.8113,103.1
72.815,138.1
72.8177,180.7
72.8231,506.3
72.8572,227.7
72.8666,160.4
72.9009,699
72.9076,198.3
72.923,127.6
72.934,636.9
72.9347,353.9
72.9365,16.1
72.9558,90.6
72.9634,313.8
72.9653,251.1
72.977,16.4
72.9979,132.6
73.001,108.7
73.023,16.9
73.0493,396.3
73.0569,397.4
73.0879,186.9
73.11,362.3
73.1226,486.7
73.1343,408.1
73.1519,220.8
73.157,17.8
73.1598,114
73.163,116.4
73.1754,98.3
73.1938,164.6
73.1983,124.6
73.2095,199.8
73.2112,17.7
73.227,125.2
73.2511,462
73.2655,315.7
73.2797,358.1
73.2894,228.4
73.29,384
73.2923,377
73.2981,134.3
73.2994,384
73.3099,93.7
73.3218,447.7
73.3281,114.3
73.3301,212.2
73.3374,440.6
73.3549,240.2
73.3633,271.9
73.3661,112.9
73.3717,17.6
73.3872,128.9
73.3975,243.7
73.4111,310.1
73.4124,132.7
73.4386,402.5
73.4696,217
73.4746,411.7
73.4838,402.5
73.4879,263.8
73.496,286.5
73.5073,111.1
73.5075,133.1
73.5354,385.9
73.5423,128.3
73.5505,287.9
73.5759,82.6
73.5923,205.3
73.597,158.4
73.6155,113.8
73.6335,17.9
73.6418,260.3
73.6445,18
73.6712,136.1
73.7118,87.1
73.7172,115.6
73.7177,413.8
73.7219,327.5
73.7428,228.1
73.753,118.4
73.76,250
73.7602,277.7
73.7605,251.9
73.7793,119.3
73.78,201
73.8168,478.8
73.8174,368.7
73.8238,133.7
73.8382,234
73.8418,101.3
73.8613,323.4
73.8623,212.3
73.9014,275.6
73.9306,19.4
73.9316,105.2
73.9623,328.9
73.9796,173.7
73.9871,201.9
74.042,660.5
74.0598,3934.2
74.1357,447.7
74.1362,384.5
74.1595,119.3
74.1748,288
74.1981,195.7
74.2117,133.7
74.2521,167.5
74.3121,197
74.3227,241.8
74.3449,767.6
74.3511,518.3
74.363,483.6
74.3768,18.5
74.4158,287.3
74.4496,362.6
74.4577,129
74.4804,289
74.496,237.7
74.5035,311.9
74.518,239.9
74.5448,206.7
74.5718,168.2
74.5898,112.8
74.5913,135.3
74.6015,310.3
74.6141,733.5
74.6167,198.2
74.6235,254.2
74.6332,111.7
74.6354,212
74.6441,1155
74.6469,427.5
74.7009,365.2
74.7016,263.5
74.7128,356.6
74.7173,114.4
74.7182,349.9
74.7332,274.9
74.7432,144.1
74.7689,39.8
74.794,237.1
74.8055,175.6
74.8092,451.6
74.8105,289.3
74.8275,289.3
74.847,143.2
74.8594,16.1
74.8632,372.5
74.8982,368.9
74.9099,670
74.9154,262.9
74.9434,330.5
74.9674,45.8
74.9725,775.6
74.9814,16.4
74.9842,495.2
74.9854,561.4
74.9994,18.1
75.0143,120.1
75.05,14.7
75.0545,196
75.073,128.4
75.0861,489.4
75.1075,19
75.1104,116.9
75.1334,332.2
75.1547,422.2
75.1706,128.9
75.1809,208.3
75.1821,171.7
75.1888,486.3
75.1985,108.5
75.2141,18.1
75.2172,92.3
75.2212,94.7
75.228,15.6
75.243,155.4
75.253,253.7
75.2579,688.2
75.293,151.8
75.2942,308.1
75.3029,248.1
75.3196,135.7
75.3423,360
75.3701,165.7
75.3904,139.6
75.3975,15.5
75.4185,214
75.4336,197.6
75.4496,383.2
75.4533,346.2
75.4678,18.5
75.4771,115.5
75.5083,146.3
75.5254,121.9
75.5272,39.3
75.5336,315.8
75.5492,104.6
75.5726,21
75.5785,303.4
75.581,120.9
75.5905,221.9
75.6201,549.4
75.6384,610.2
75.6571,626.3
75.6581,130.6
75.6588,39.1
75.6702,131.8
75.7516,244.8
75.7528,580.7
75.79,390.5
75.793,137.4
75.8038,138
75.8135,166.8
75.8591,324.8
75.8674,205.1
75.9075,17.8
75.9084,118.4
75.9393,631.6
75.9509,18.7
75.9596,138.2
75.9649,204
75.973,750.5
75.9746,138.5
76.0062,17
76.0135,638.1
76.02,375.5
76.0248,130.5
76.0412,350.8
76.0466,366.9
76.0477,16.6
76.0609,112.9
76.0625,377.9
76.0641,312.6
76.086,146
76.1129,101.6
76.1485,19.3
76.1579,806.7
76.1703,249.5
76.1779,87.8
76.186,178.7
76.1928,347.2
76.2456,327.4
76.2638,103.1
76.2963,366
76.3125,18.3
76.3209,264.7
76.3247,475.9
76.3387,17.4
76.3827,776.5
76.4189,296.8
76.467,728.7
76.4728,134.5
76.4873,227.2
76.51,243.7
76.5201,130.2
76.5325,132.5
76.548,144.6
76.5601,207.1
76.5765,46.7
76.5783,521.8
76.5989,242.7
76.6278,167.6
76.6302,18.2
76.6343,354.8
76.6382,23.2
76.6406,228.5
76.655,238.7
76.6801,236.9
76.6822,543.1
76.6964,127.6
76.7144,700
76.7426,158.5
76.7654,703.1
76.7797,17.1
76.813,485.4
76.8226,465.9
76.8239,19.4
76.8251,323.7
76.827,453
76.8322,377.9
76.8343,207.7
76.8786,182.5
76.8861,111.9
76.8876,396.7
76.9365,225.4
76.9586,19.1
76.967,19.2
76.9801,288.7
76.9833,877.7
77.0003,274
77.0055,188.4
77.0121,244.2
77.015,608.6
77.0246,426.9
77.0316,21
77.0347,501.6
77.0361,25.8
77.0383,118142.6
77.0609,334.6
77.0671,251
77.1171,20.4
77.1231,401
77.1246,427.3
77.1418,162.1
77.1573,174.9
77.1758,239.1
77.1944,257.4
77.2016,19.5
77.2123,263
77.2237,290.4
77.2401,263.7
77.243,249.5
77.2507,112.1
77.2514,158.8
77.2527,246.3
77.2554,463.4
77.2705,17.3
77.2885,532.1
77.3043,329.1
77.3286,121.6
77.3481,409.7
77.384,21.7
77.3847,407.5
77.3901,468.3
77.4017,170.2
77.4328,178.7
77.4562,49.9
77.5073,129.8
77.5365,182.3
77.5489,96.3
77.5549,310.8
77.5784,182.1
77.6236,283
77.6269,152.4
77.6581,265.6
77.66,126.4
77.7166,180.8
77.7218,207.2
77.7254,702.8
77.7285,123.6
77.7432,342.8
77.7539,194.7
77.7766,96
77.7857,595.9
77.8062,179.6
77.8194,213.4
77.8543,196.3
77.855,581
77.8665,16.2
77.8723,197
77.9026,180.3
77.9184,712.4
77.9269,148.7
77.9325,117
77.9446,347.9
77.9466,250.1
77.9739,97.3
77.9892,758.4
78.0417,3393.5
78.0494,179.3
78.0596,348.8
78.0637,465.4
78.0655,199.2
78.0721,684.9
78.0894,19.2
78.1318,282.7
78.1368,384.2
78.1443,133.9
78.1468,731.5
78.1514,136.5
78.167,443.6
78.2136,233
78.2168,489.6
78.2205,203.9
78.2527,128.5
78.2755,393.4
78.2787,320.8
78.2853,129.9
78.2888,18.1
78.2947,435.8
78.3099,244.6
78.3111,98.6
78.315,126.5
78.3209,179
78.3248,186.2
78.3549,496.2
78.375,467.1
78.3781,116.2
78.3916,18.8
78.4107,219.3
78.4204,595.2
78.4236,259.8
78.4349,171.5
78.4402,138.9
78.4485,237.6
78.4545,198.5
78.4611,96.7
78.4811,271
78.4881,430.7
78.5236,19
78.5336,232.7
78.5347,104.3
78.5845,195.9
78.5863,178.2
78.5876,675.1
78.5941,549.6
78.5976,280.8
78.603,640.9
78.607,298.5
78.6383,494.9
78.6561,661.5
78.6618,203.6
78.673,607.7
78.6936,99.9
78.7336,221
78.7587,286
78.7733,704.3
78.7861,271.9
78.7917,206
78.7925,135.4
78.7935,401.1
78.8027,88
78.8322,792.6
78.8354,16.1
78.8543,120.6
78.8586,37.7
78.867,266.2
78.8678,260.3
78.9144,16.6
78.934,794.1
78.9557,105.1
78.9968,227.7
79.0284,151.1
79.0405,20.2
79.0436,197.8
79.054,1983
79.0727,337.3
79.0834,119.4
79.0866,212.4
79.095,643.5
79.1094,266.9
79.1391,155.6
79.1399,266
79.1582,257.2
79.1662,144.6
79.1727,698.5
79.1963,405.6
79.2249,339.4
79.2669,18.6
79.2939,192.2
79.3359,151.6
79.3438,85.5
79.3471,95.6
79.3718,99.6
79.3904,17.4
79.4253,244.3
79.433,17.7
79.4345,197.8
79.4397,16.6
79.4439,349.1
79.4493,331.3
79.453,214.6
79.4562,87.7
79.4642,214.3
79.4762,16.9
79.4783,436.9
79.5078,644
79.5155,110.7
79.557,340.5
79.5626,17.7
79.5658,153.8
79.5693,220.8
79.5741,349.1
79.5789,141.7
79.5874,126
79.5987,602.8
79.6079,118.5
79.609,89.7
79.6131,142.1
79.6201,122.1
79.6296,48.7
79.6418,242.4
79.6427,190.2
79.7042,121.9
79.7122,129.4
79.7604,122
79.7944,20.2
79.8089,136.7
79.8221,264.1
79.8414,652
79.8439,307.3
79.8474,477
79.855,19.3
79.8904,18.1
79.9072,548.7
79.9104,526.9
79.9155,21.8
79.9416,124.1
79.9442,471.8
79.9798,245.2
79.9926,167.8
79.9984,148.6
80.0029,689.6
80.0055,611.9
80.0127,16.9
80.0155,325.1
80.0167,264.6
80.0287,100.9
80.0295,16.7
80.044,463.4
80.056,159
80.0574,26.1
80.0674,184.8
80.0816,807.7
80.084,400.5
80.0861,16.5
80.0891,144.1
80.0971,16.9
80.1014,288.2
80.1102,210.7
80.1123,17.6
80.1894,122.8
80.2116,596.4
80.2138,755.7
80.2182,241.7
80.2515,42.6
80.2632,303.5
80.264,212.6
80.3037,218.6
80.3274,243.7
80.3374,140.1
80.3991,335.7
80.3999,18.6
80.403,204.7
80.4209,239.2
80.4329,19.1
80.444,17.8
80.4477,671.2
80.4497,16.8
80.4508,231.1
80.459,722
80.4663,348.1
80.4953,130.6
80.4965,198.5
80.5008,344.4
80.5374,307.1
80.5631,697.4
80.5797,124.1
80.5857,332.6
80.6058,117
80.616,410.7
80.6386,42.8
80.6427,330.7
80.645,133.8
80.658,393.5
80.6836,17.3
80.6866,470.6
80.6941,208.2
80.7022,494.8
80.7155,614.3
80.7273,139.5
80.7451,503.8
80.7527,119.7
80.7576,319
80.7919,725.2
80.8246,17.1
80.8475,305.3
80.864,195.3
80.8695,89
80.8796,434.6
80.8837,143.7
80.8863,243.8
80.9227,238.7
80.9348,360.4
80.9476,52345.7
80.954,195.6
80.9632,485
80.9806,270.3
81.0022,182.5
81.0125,17.4
81.0394,194.9
81.0474,686.9
81.0501,600.2
81.054,109.3
81.0566,859.8
81.0661,465.3
81.0678,392.6
81.0696,1878.4
81.1288,346.3
81.1382,691.5
81.1395,1349.1
81.1427,1347.4
81.1443,767.3
81.1451,150.4
81.1467,315.4
81.1477,420.2
81.1491,242.5
81.1894,327.5
81.1951,552.5
81.2027,151.2
81.2185,99.5
81.2326,227.9
81.2534,519.4
81.2551,295.8
81.2562,17.4
81.2698,171.3
81.3029,245.3
81.3277,263
81.3549,251.8
81.3614,304.9
81.3789,119.3
81.3913,635.5
81.4418,319.4
81.4783,670.4
81.48,195.5
81.4863,126
81.4924,19.9
81.4983,129.8
81.5184,138
81.532,278.8
81.535,456.8
81.5358,303.8
81.5559,348.9
81.558,144.2
81.5707,288.4
81.6049,674.2
81.6192,635
81.633,17
81.6339,92.1
81.6356,176
81.6481,457.4
81.6904,349.1
81.7057,129.2
81.716,374.9
81.7912,18.7
81.8029,708.9
81.8095,110.4
81.8274,361.6
81.849,609.4
81.8724,21.1
81.8912,164.9
81.893,341.7
81.912,300.8
81.9466,414.1
82.0381,140.3
82.0617,136.2
82.083,619.2
82.0926,453.2
82.1041,338.2
82.1061,517.8
82.1071,375.2
82.1281,85.2
82.1323,270.1
82.1477,258.1
82.1502,402.1
82.1709,216.7
82.1786,454.5
82.1841,222.4
82.2213,17.6
82.2328,438.6
82.2377,113.7
82.2521,132.3
82.2587,264.1
82.2662,133.3
82.2864,399.7
82.317,659.5
82.3245,183.7
82.3368,408.7
82.3386,216.2
82.3544,228.7
82.3889,137.9
82.39,19.3
82.4145,121.4
82.4228,17
82.4321,673.3
82.4488,104.9
82.4575,107.4
82.4835,730.5
82.496,332.9
82.5048,442
82.5125,578.5
82.5142,270.3
82.5275,134.8
82.531,516.7
82.5322,42.3
82.5458,317.2
82.5559,196.3
82.5623,124.6
82.5862,91.7
82.6181,287.7
82.635,694.8
82.6629,16.6
82.6657,434.7
82.6904,597.6
82.701,445.9
82.7094,123.6
82.7157,140.2
82.7196,148.3
82.7288,19.7
82.7319,360
82.7469,222.3
82.7624,645
82.7673,238.8
82.7862,19
82.8072,18.2
82.8164,123.6
82.8457,433.6
82.8738,295.2
82.8812,20.4
82.8876,99.2
82.9447,15127.8
82.9722,241.6
82.973,192.7
82.9746,220.8
82.9761,298.4
82.979,176.5
82.9814,604.8
82.985,153.2
83.0047,85.7
83.0268,409.7
83.0383,154.2
83.0747,326.2
83.0853,29.7
83.1399,17.5
83.1521,280.3
83.1586,231.3
83.1812,337.4
83.1855,268.8
83.1871,248.9
83.1881,120.3
83.2731,364.7
83.3058,120.1
83.3084,118.5
83.358,275.9
83.3741,564.3
83.3834,142.1
83.3841,107
83.3957,144.5
83.4076,185.1
83.4189,84.3
83.4531,125.5
83.4692,116.3
83.4987,104.9
83.5254,135.6
83.5262,676.3
83.5542,42.4
83.5569,95.8
83.5706,123.4
83.6031,670.7
83.6072,465.1
83.6123,373.3
83.6292,257.5
83.6376,94.3
83.6489,123.7
83.661,374.7
83.7036,647.2
83.7096,88.8
83.7418,219.2
83.8631,538.8
83.8686,263.5
83.8796,603.4
83.8884,594.3
83.911,295
83.9372,121.8
83.9655,126.2
83.9666,17.6
83.9966,185
84.0442,776.4
84.0556,129.4
84.0806,135.8
84.1052,49.5
84.1295,364.5
84.1374,196.3
84.1695,210.8
84.2096,274.7
84.2426,452.4
84.2603,140.5
84.2633,437.9
84.2745,146.4
84.2914,121.5
84.3163,148.5
84.3322,109.7
84.3381,382
84.3662,42.9
84.372,653.7
84.443,141.2
84.5017,102.8
84.5023,199.1
84.5041,384.5
84.5367,120.1
84.5604,231.3
84.5676,589
84.58,218.4
84.6177,536.4
84.6268,87.3
84.6354,675.6
84.6605,165.4
84.6654,475.4
84.6839,100
84.7134,17.5
84.7181,97.9
84.7276,163.2
84.743,303.1
84.745,343.4
84.7762,378
84.8262,751
84.8576,146.3
84.8969,452.2
84.9012,131.5
84.9206,402.3
84.9294,114
84.9469,702.3
84.9495,230.1
84.9571,162.1
84.9595,20548.4
84.9608,17.9
84.9822,56.3
84.9836,405.4
85.0098,111.9
85.0282,9439.2
85.0587,201.6
85.1015,99.3
85.1118,90.3
85.1134,286.7
85.1375,836.3
85.1497,120.8
85.1604,567.7
85.164,297.9
85.1885,246
85.207,666
85.225,251.3
85.2387,109.8
85.247,95.9
85.2794,647.8
85.3068,112
85.3313,17.4
85.3437,268.4
85.3457,89.7
85.3483,20.7
85.3559,276.5
85.3725,21.2
85.3774,235.5
85.3952,509.4
85.412,24.1
85.4704,214.2
85.4886,501.9
85.5313,135.1
85.5382,212.5
85.554,140.9
85.602,245.9
85.6076,424.8
85.6104,353.3
85.6394,425.2
85.6403,403.3
85.6665,399
85.6865,506.7
85.6872,95
85.7256,190.2
85.7385,430.7
85.7413,344.9
85.7473,123.2
85.7768,338.9
85.7825,230.3
85.7961,18.8
85.8133,216.1
85.8282,18.4
85.8323,18.8
85.8593,18.8
85.8721,346.4
85.9187,367.5
85.9207,175.8
85.9574,710.9
85.9618,19.6
85.9732,358
85.9909,107.7
85.9997,102.6
86.0269,157.9
86.0463,232.9
86.0516,122.2
86.0599,33831.6
86.0914,232.2
86.0962,114693.4
86.1112,111.4
86.1276,92.9
86.1292,529.1
86.1568,17.1
86.2038,307.2
86.209,669
86.2097,132.3
86.2219,295.9
86.2504,117.3
86.3044,96.1
86.3543,250.3
86.3615,465.6
86.3705,177.3
86.3748,335.6
86.404,433.7
86.405,309.9
86.4191,419.7
86.4278,361.8
86.4339,227.1
86.438,300.1
86.4687,179.5
86.4739,52.3
86.4756,94.1
86.4791,168.8
86.4889,21.2
86.5235,499
86.5252,42
86.5518,732.2
86.5697,134.2
86.5883,18
86.6055,174.1
86.6104,157.9
86.6381,158.4
86.6408,94.7
86.6437,379.1
86.6447,358.4
86.6989,125.7
86.7155,305.8
86.7237,362.8
86.7497,478.3
86.7597,137.4
86.7693,127.9
86.7778,199.7
86.785,501.1
86.8164,203.1
86.8638,306
86.8788,216.2
86.9008,476.7
86.9291,252.6
86.9676,93.6
86.9875,236.9
86.9884,142.7
86.9971,492.3
87.0278,335.1
87.0714,106.5
87.0906,403.4
87.0967,439.8
87.1042,168.1
87.1109,330.4
87.119,397
87.123,247.1
87.134,140
87.1544,400.1
87.1939,105
87.2346,126.7
87.2692,299.9
87.2811,102.1
87.3011,294.5
87.3126,17.6
87.3599,363.6
87.3654,176.2
87.377,600.4
87.3826,110.9
87.3956,117.2
87.4245,799.3
87.4264,49.1
87.4375,218.9
87.4476,94.3
87.4542,257.6
87.5304,16
87.5341,205.5
87.536,16.8
87.5425,151.6
87.5466,166.4
87.5478,194.4
87.5819,17.7
87.5886,238.9
87.6257,216.9
87.6416,789.5
87.6455,636.3
87.6524,443.2
87.6735,176.3
87.7057,407.2
87.739,306.2
87.7861,19.1
87.8203,98.6
87.8309,128.4
87.8758,616.9
87.8767,114.7
87.9262,449.5
87.9508,326.2
87.9591,439.6
87.9817,131.1
88.0151,92.8
88.0234,623.3
88.0354,189
88.0391,6542.6
88.0577,98.2
88.0713,105.9
88.1423,19.2
88.1702,292.6
88.1758,698.2
88.1979,691.6
88.2254,134
88.2262,201.7
88.2341,935.7
88.2424,250
88.2453,259.7
88.2464,90.3
88.2757,16.9
88.2959,420.4
88.3123,105.5
88.3718,22.6
88.3903,370.8
88.4193,134.6
88.4712,377.4
88.4927,191.5
88.4936,373.9
88.544,253.7
88.5645,150
88.5991,364.5
88.6205,18.4
88.6482,210.7
88.652,189.5
88.6724,540.5
88.6851,645.8
88.7472,97.4
88.7998,162.5
88.8148,236.6
88.8199,101.3
88.8666,18.6
88.8689,442
88.8807,137.4
88.8835,738.9
88.9177,189.1
88.9239,50.6
88.9282,269.5
88.9332,438.3
88.9521,17.6
88.9607,323.4
88.9731,222.6
89.0136,371
89.02,413.9
89.0488,221.7
89.0593,19.9
89.0964,858.1
89.0982,375.8
89.1014,278.3
89.1033,292
89.1257,274.5
89.141,120.4
89.1538,379.1
89.1597,24.4
89.1936,740.1
89.2176,661.7
89.2448,138.8
89.2495,233.7
89.31,94.8
89.3273,357.2
89.331,113.4
89.4016,17.5
89.4212,153.1
89.4435,410.2
89.4505,192
89.5121,117.7
89.5467,144
89.5863,279.2
89.5922,216
89.5988,162.7
89.6106,132.5
89.6321,88.9
89.6642,338.5
89.6647,334.4
89.6851,162.7
89.6942,131.1
89.7229,93
89.7351,93.5
89.7481,107.7
89.7867,254.4
89.866,18.6
89.8736,18.6
89.8813,385.9
89.8855,17.7
89.9117,97.9
89.9254,416.1
89.9428,125.3
89.9524,288.7
89.9599,47.4
89.9783,239.7
89.9886,145.4
90.013,479.1
90.0279,176.1
90.0292,18.4
90.0418,113.9
90.0445,414.9
90.0545,283.6
90.0795,219.5
90.1037,103.5
90.1304,367.2
90.134,355.1
90.1358,240.2
90.1373,18.3
90.1465,20.7
90.1621,291.8
90.2057,655.1
90.2261,478.9
90.2928,691.5
90.2983,159
90.3178,262.9
90.4492,87.8
90.4569,284.6
90.4598,304.7
90.4764,128.6
90.4866,125.8
90.501,638.4
90.5117,252.5
90.5147,479.4
90.5236,230.6
90.5369,297.6
90.5459,386.9
90.5782,272.8
90.6323,17.9
90.6423,207.2
90.6487,18.5
90.6544,118.2
90.682,469.5
90.6983,23.9
90.723,124.3
90.7266,223.8
90.753,95.6
90.7918,124.2
90.804,256.8
90.8518,128.8
90.8547,439.4
90.8578,44.9
90.8884,153.7
90.9062,330.1
90.9353,133.4
90.9399,145.4
90.9444,200.9
90.9476,211.4
90.9612,314.4
90.9765,12736.8
90.9959,198.2
91.0027,152.3
91.0078,203.7
91.0196,513
91.0437,105.1
91.0457,361.4
91.0541,2210.6
91.0732,214
91.0751,399.9
91.0802,113.2
91.0935,18.6
91.0968,394.7
91.1132,214.6
91.1348,125.9
91.1416,18
91.1681,93
91.187,637.8
91.2218,298.8
91.2498,138
91.2644,426.5
91.276,19.3
91.3562,221.9
91.3587,173.1
91.3594,99.8
91.3731,172
91.3829,609
91.3879,19.8
91.4068,275.4
91.4226,251.9
91.4321,240.2
91.4696,323.6
91.479,238.2
91.497,705.7
91.5137,161.6
91.5469,17.6
91.5495,545.6
91.5548,376.9
91.5616,220.1
91.5756,371.9
91.5833,463.9
91.5901,198.4
91.6083,163.2
91.6179,356.1
91.6409,422.4
91.6575,364.5
91.6762,105.6
91.6964,286.6
91.7253,18.2
91.7405,126.1
91.7429,239.1
91.7578,494.6
91.7615,213.7
91.861,125.2
91.9185,606.3
91.9217,18.5
91.9891,278.9
92.0169,228.6
92.0493,46.6
92.0574,44.2
92.0969,96.7
92.1814,255.4
92.1858,132.4
92.2087,16.9
92.2099,126.7
92.2363,342.5
92.241,404.6
92.3627,113.9
92.4163,136.1
92.4779,105.2
92.4847,17.9
92.5463,19
92.5483,132.6
92.5684,630.7
92.5784,660.1
92.5875,380.4
92.6094,689.6
92.6271,333
92.6381,168.7
92.6595,679.3
92.661,431.4
92.6779,581
92.6995,353.6
92.701,19.7
92.7274,140.8
92.7416,449.9
92.7699,161.4
92.7768,137.8
92.8026,833.7
92.8302,159.7
92.8331,1007
92.8991,188.5
92.9176,432.6
92.9317,508.3
92.9472,342.3
92.9554,246.3
92.9711,97.8
92.9789,220.5
92.9859,19.6
92.9942,19
92.9962,293.4
93.0125,621.3
93.0209,258
93.0333,26
93.0397,451.6
93.0571,31.3
93.0698,142.1
93.0729,573.4
93.0736,745.9
93.0991,266.6
93.1627,16.4
93.1795,343.8
93.1837,18.9
93.1907,17.3
93.1995,91.1
93.2338,125.9
93.267,141.7
93.2832,90.2
93.3028,232.3
93.3749,314.9
93.3814,17.5
93.4263,176.2
93.4363,705.7
93.4498,247.4
93.4842,176
93.56,563.4
93.5805,486.7
93.5975,132.5
93.6038,46.1
93.6256,351.5
93.6343,20.4
93.6725,147.9
93.6776,216.8
93.7414,120.4
93.7912,17.2
93.7976,741.2
93.8308,138.4
93.8743,17.2
93.9181,261.6
93.92,18.9
93.9301,467.2
93.9406,107.9
93.9502,616.5
93.9554,142.7
93.9572,421.7
94.0015,20.1
94.0149,538.2
94.0391,136.1
94.0412,54224.5
94.0422,68.3
94.0569,94.1
94.0889,124.1
94.0923,345.6
94.108,18.3
94.1533,432.8
94.1622,276.8
94.1804,45.2
94.1883,102
94.1945,409.8
94.1955,17.8
94.289,297.2
94.2942,606.3
94.3018,88.5
94.317,81.1
94.3412,638
94.3661,139
94.3677,97.8
94.3942,98.1
94.4226,116.9
94.443,331.4
94.5173,479.2
94.5352,270.9
94.5664,155.4
94.5671,106.4
94.6063,292.8
94.6173,557.2
94.6239,213.3
94.6272,390.5
94.6331,778.2
94.6537,566.3
94.6646,18.3
94.6676,218.2
94.6856,108.1
94.695,192.3
94.6966,113.1
94.7321,127.2
94.7495,18.6
94.7528,112.8
94.7692,515.2
94.7869,708.8
94.7995,730.1
94.8057,17.7
94.8081,359.1
94.8098,116.9
94.8386,173.2
94.84,229.1
94.8434,403.6
94.9018,197.3
94.9409,119
94.9658,509.3
95.0049,23.9
95.0086,40
95.0214,293.7
95.0283,17
95.0356,24.5
95.0446,1100
95.049,425630.8
95.0509,67.2
95.0514,46.6
95.052,52.5
95.0524,61
95.0527,66
95.0541,21
95.0545,23.3
95.0623,62.4
95.0645,702.6
95.0794,21.3
95.0853,1056.6
95.101,20.1
95.1163,20.1
95.1628,282.1
95.1799,266.1
95.1892,41.1
95.2297,112.5
95.2884,89.5
95.2969,21.7
95.2976,110.6
95.3008,46.2
95.314,285.5
95.3149,822.8
95.3198,214.7
95.3256,285.8
95.3622,391.5
95.3964,291.4
95.4135,102.9
95.4172,643.9
95.4623,118.2
95.4917,16.5
95.4968,656.3
95.5108,153.8
95.5154,19
95.5326,208.6
95.5416,205.2
95.5524,170
95.5537,364.6
95.6007,17.8
95.6466,277
95.6904,159.6
95.702,260
95.7188,162.3
95.7473,476.9
95.7742,249.3
95.8101,20.6
95.8138,415.9
95.8376,217.8
95.8422,143.2
95.8483,596.6
95.8532,459.3
95.8585,260.8
95.8683,144.4
95.9273,271.9
95.9655,129
96.0012,219.3
96.0117,319.5
96.04,18.8
96.0524,20500.2
96.0758,754.2
96.0849,227.4
96.1011,851.4
96.1305,366.8
96.202,161.3
96.2083,17.5
96.2641,401.3
96.2717,89.2
96.2854,650.4
96.2888,273.3
96.301,45.4
96.3037,280.2
96.3064,260.7
96.3069,248.2
96.3072,181
96.3231,112.4
96.3531,259.4
96.3538,447.5
96.3737,197
96.4049,299
96.428,195.1
96.4361,122.4
96.4892,491.4
96.4929,115.5
96.5471,122.6
96.5611,17.1
96.6228,129.2
96.6305,102.5
96.6359,363.1
96.6502,275.2
96.6631,207.7
96.6857,228.2
96.7122,209.4
96.798,152.4
96.8125,17.7
96.8225,119.7
96.8414,427
96.8533,211.5
96.857,20.3
96.8886,352.3
96.9048,680.3
96.9216,164632
96.9273,594.2
96.9352,95.9
96.9445,61.5
96.9535,113.5
96.9571,534.8
96.9776,620
96.9999,431.4
97.0074,184.2
97.0193,22.5
97.0532,47.6
97.0556,85.7
97.0644,19.1
97.0727,535.4
97.0768,161.1
97.101,48.7
97.1305,18.5
97.2152,18
97.2237,225.7
97.2557,222.3
97.2673,200.9
97.3181,210.7
97.33,306
97.3394,140.7
97.3499,203.1
97.3525,299.6
97.4046,639
97.4135,367
97.4592,397.7
97.5184,150.6
97.5351,119.3
97.5601,109.8
97.5733,176.4
97.6009,303.5
97.6264,411.6
97.6357,183.6
97.6396,627
97.6465,110.2
97.6887,367
97.7074,158.6
97.857,147.3
97.9132,99.3
97.9454,147.1
97.9485,491.8
97.9585,233.4
97.9637,541.7
97.9672,317.3
97.9831,53.7
98.0229,17.9
98.0846,200
98.126,112.4
98.1649,561.3
98.1896,48.9
98.2291,219.1
98.2323,320.9
98.2375,283.2
98.3011,131.7
98.3276,17.9
98.3362,216.6
98.3788,181.6
98.4181,254.1
98.4267,230.5
98.4284,417.7
98.4931,305
98.5004,148
98.5281,232.1
98.5773,866.6
98.5899,18.1
98.5954,100.6
98.608,176.3
98.6227,101.9
98.6737,681.5
98.6853,20.5
98.7119,17.8
98.7424,94.1
98.7478,240.5
98.7943,17.8
98.8191,90.4
98.827,138.1
98.8995,371.2
98.9018,228.3
98.9084,492.3
98.9187,50247.8
98.9197,4704.9
98.9238,17.6
98.9553,185.3
98.9753,16662.5
98.9771,838.8
98.9789,569.1
98.984,131.3
98.9943,18.3
99.0015,648.7
99.035,19.3
99.0589,305.8
99.0851,16.3
99.1278,433.8
99.2187,215.2
99.2313,96.8
99.2325,143.1
99.2429,295.4
99.2522,592.8
99.2904,20.3
99.2978,43.9
99.3283,140
99.3489,46.5
99.3572,105.2
99.3759,414.4
99.3819,204.2
99.3856,212.1
99.3905,114.4
99.4013,107.5
99.509,364.6
99.5376,141.8
99.5533,542.4
99.5674,749.7
99.581,257.2
99.5932,101.6
99.6253,274.8
99.6267,328.4
99.6595,147.5
99.6764,200.5
99.684,16.5
99.7103,470.7
99.7275,346.1
99.743,127.6
99.8148,456.7
99.8404,18.3
99.8721,17.9
99.9002,521.1
99.9248,156.8
99.9331,232.4
99.9353,126.2
99.9388,129.4
99.943,381.9
99.964,336.2
99.9749,191.1
99.98,369.5
100.0523,397.9
100.0754,372.2
100.1,156
100.1112,20.4
100.1248,189.9
100.1498,266
100.1634,349.9
100.2097,192.3
100.2343,43.1
100.237,385.9
100.2622,47
100.3053,119.5
100.3427,399
100.3638,697
100.3729,202.8
100.3828,123.4
100.4171,134
100.4748,17.7
100.479,317.3
100.4911,379.9
100.5556,368.2
100.5568,305.9
100.6189,130.2
100.6254,235.5
100.6418,160
100.6432,240.5
100.6468,246.8
100.6604,128.5
100.6629,351.4
100.6835,614.3
100.859,446.7
100.8604,249
100.9118,104.8
100.9168,1202.2
100.9183,134.6
100.9452,147.2
100.9878,219.2
100.9904,223.4
100.9934,91.9
101.0351,450
101.0424,316.4
101.047,2983.3
101.0576,490.1
101.0658,116.8
101.0708,362.8
101.1062,648.9
101.1277,601.9
101.1334,147.9
101.1402,763.3
101.1604,430
101.1758,18.7
101.1982,96.3
101.2011,203.7
101.2094,606.2
101.2211,380.4
101.2434,292.5
101.3003,145
101.3857,769.8
101.3964,672.1
101.414,18.7
101.4214,279.3
101.4618,287.9
101.4897,235.4
101.4963,108.2
101.503,115.2
101.5177,105.7
101.5196,495.3
101.5403,653.9
101.5891,366.7
101.6393,135.2
101.6658,313.4
101.696,442.9
101.6981,158
101.7137,90
101.7737,145.9
101.7765,126.9
101.7775,168.4
101.7787,25
101.7815,64.5
101.8123,121.1
101.8196,281.2
101.865,383
101.9293,150.4
101.9472,19
101.955,624
101.9852,255.2
102.0053,320.6
102.0549,3882.8
102.058,147.8
102.0985,505.5
102.1577,19.5
102.159,44.5
102.1762,642.1
102.1924,216.4
102.1987,100.2
102.2176,761.6
102.2232,620.5
102.2768,320.7
102.295,355.3
102.3118,112.5
102.3147,185.5
102.3521,283.2
102.3664,381.2
102.3789,475.8
102.386,529.5
102.3991,195.5
102.4112,19.8
102.4631,45.9
102.4856,127.4
102.5179,23
102.5619,113.1
102.5819,186.5
102.5856,289.6
102.5862,311.4
102.5965,512
102.6056,295.3
102.6152,295.6
102.6264,427.2
102.631,40.3
102.6665,84.6
102.6747,1000.2
102.7044,529.7
102.7795,657.5
102.8121,143
102.8191,83.3
102.8579,472.4
102.8641,148.8
102.8722,467
102.9267,443.2
102.9347,111.2
102.944,366.9
102.9458,134.9
102.9676,124.7
102.9701,626.7
102.9769,466.8
102.9785,106.3
102.9819,307.3
102.988,524.5
102.9911,119.6
102.9947,242.4
103.0063,194.2
103.0149,508.7
103.0194,141.9
103.0512,103.8
103.0543,615.2
103.0662,16.5
103.0709,722
103.1617,94.9
103.1848,588.7
103.209,109.1
103.2489,93.1
103.2844,102.3
103.3299,277.6
103.3388,106.5
103.3536,473
103.359,102.6
103.3811,18.9
103.3825,82.4
103.3834,472.9
103.3926,261.2
103.4217,234.5
103.4337,147.9
103.5195,254.2
103.5592,120.3
103.6757,820.7
103.6983,671
103.7014,801.4
103.7102,126.9
103.7219,357
103.755,290.4
103.7682,17.7
103.7769,184.1
103.7999,406
103.8638,38.7
103.8657,262.9
103.8735,746.2
103.8781,17.8
103.8828,640.5
103.8902,256.8
103.898,753.2
103.9245,771.5
103.9292,274.9
103.9517,502.3
103.9768,17.6
103.9961,128
104.0248,101.3
104.0479,141
104.0576,16.3
104.058,20.3
104.0584,17.8
104.0704,101.1
104.0834,154.9
104.1069,519819.4
104.113,697.6
104.1169,291.3
104.1424,436.2
104.1756,43.1
104.19,461.1
104.193,329.9
104.2207,130.5
104.2784,294.8
104.2816,93.7
104.3343,132.7
104.348,97.6
104.3545,85.6
104.3581,402.1
104.3639,354.5
104.3806,344.8
104.4112,121.9
104.4169,19.4
104.4489,103.8
104.4933,711
104.4952,18.4
104.5109,190.6
104.5199,122.2
104.534,224
104.5376,239.9
104.5672,128.1
104.6099,719.3
104.6118,367
104.613,251.7
104.6404,867.2
104.645,226
104.6464,278.3
104.6745,310.5
104.6817,360.2
104.7072,126.3
104.7172,264.1
104.8082,192.1
104.8339,116.4
104.8425,91.6
104.8467,471.8
104.8607,182.7
104.8627,128.8
104.8993,300.1
104.9076,32.7
104.9279,516
104.9333,105.3
104.9522,88
104.9632,215.4
104.9782,110.1
104.9922,3868.2
105.0066,180.9
105.0142,18.1
105.0446,38850.8
105.0579,286.7
105.0597,381.8
105.0647,187.1
105.0676,111.9
105.0698,213.3
105.1103,19420.4
105.146,99.3
105.1487,16.3
105.1611,728.6
105.1833,115.8
105.219,357.5
105.2513,201.4
105.2594,263.3
105.2613,130.8
105.2812,283.9
105.2857,395.6
105.3061,109.2
105.3583,217.4
105.3681,19.8
105.4219,417.5
105.4258,266
105.4504,157
105.4803,17.2
105.5144,463
105.5317,236.1
105.5341,205.7
105.5687,628
105.6105,249.9
105.6466,19.6
105.6513,235.4
105.6537,224
105.6812,379.4
105.6874,235
105.7834,317.6
105.8089,267.2
105.8106,268.5
105.8135,253.9
105.8569,278.9
105.9263,789.2
105.9368,93.8
105.9416,247.8
105.9511,105.9
105.9577,297.8
105.9834,201.4
106.0062,301.8
106.0313,181.4
106.048,574.1
106.0565,620.2
106.0585,495.2
106.0869,719.4
106.0886,335.5
106.1013,285.8
106.1453,114.6
106.1773,882.9
106.2062,249.4
106.2232,358.3
106.2331,17.4
106.2498,281.8
106.3192,132.2
106.3957,129.5
106.4159,174
106.4185,361
106.4219,789
106.4372,324
106.4468,50
106.559,319.4
106.5655,355.6
106.6062,132.1
106.6148,228.8
106.623,777.6
106.6838,184.3
106.6896,593
106.724,239.9
106.7458,180.2
106.7544,94.1
106.7598,734.8
106.7627,696.1
106.7918,146.4
106.8142,15.9
106.8662,284.5
106.9031,133
106.9323,106.7
106.9344,123.8
106.937,500.4
106.9477,394.6
106.9505,3532.2
106.9532,155.5
106.9577,268.4
106.9919,79.3
107.0071,272.6
107.0282,93.1
107.0319,274
107.049,584.3
107.0548,239
107.0654,19.5
107.0734,15.9
107.1824,263.6
107.1967,270.3
107.1983,286.5
107.2258,167.7
107.2382,113.5
107.2792,672.4
107.2889,316.7
107.3076,40.2
107.3124,16.4
107.3179,86.6
107.338,280
107.3669,173.9
107.3777,288.1
107.4149,164.6
107.4518,191.4
107.489,201.7
107.5016,100.5
107.5572,779.2
107.5747,175.1
107.5802,226.7
107.6004,334
107.6261,143
107.6353,117.2
107.6717,101.6
107.6849,503.3
107.6861,91.2
107.72,153.6
107.7588,645.2
107.8285,312.5
107.8361,285
107.8444,159.8
107.8676,115.6
107.912,100.7
107.934,210.4
107.9523,283.5
107.9683,135.9
107.9969,118.8
108.0204,471.4
108.0343,342.6
108.047,220.3
108.0572,22.9
108.0703,561.1
108.0838,192.4
108.0876,16.1
108.0987,487.5
108.1367,117.6
108.1924,397
108.196,396.8
108.2043,138.8
108.3254,699.7
108.3757,129.2
108.396,139.7
108.4003,100.5
108.4028,783.7
108.4057,119.2
108.4269,111.5
108.4296,116.8
108.4352,135.4
108.4588,216
108.484,180.7
108.4894,17.6
108.6035,229.5
108.6108,215.1
108.622,513
108.6338,415.9
108.669,20
108.6719,742.5
108.6885,135.5
108.7167,140
108.7201,132.6
108.7483,49.8
108.75,20.8
108.823,100.2
108.8315,51.3
108.8362,277.8
108.8936,130.7
108.9027,601.3
108.9075,698.3
108.9517,17.8
108.9962,222.7
109.0215,230.9
109.0647,58626.3
109.0797,191.6
109.0946,19
109.1011,17.6
109.1164,300.9
109.1551,325.5
109.1621,668.3
109.2901,101
109.3378,757.7
109.3559,382.1
109.3632,359.3
109.4293,174.4
109.4526,208.7
109.4579,703
109.4638,108.9
109.4753,90.2
109.4857,309.1
109.5584,805.1
109.5638,169.8
109.5742,265.6
109.5918,182.3
109.5984,445.4
109.6088,451.4
109.6386,117
109.7087,121.9
109.736,202.2
109.7631,223.7
109.7754,183.6
109.8253,463.8
109.8323,695
109.8721,130.3
109.9148,516.6
110.016,293.8
110.0292,126.2
110.0441,16.8
110.0546,145.2
110.068,1749.6
110.0714,574.8
110.0752,407
110.0985,19.1
110.1447,264.4
110.1913,480.8
110.2029,226.9
110.2046,238.9
110.2085,620.2
110.2223,111
110.2553,147.3
110.2603,184.3
110.2833,16.8
110.3083,240.7
110.3152,212.7
110.3293,143.2
110.3345,114.9
110.3356,17.9
110.377,281
110.4127,17.4
110.4243,16.5
110.4451,20.1
110.4627,91.5
110.4691,139.4
110.5324,103
110.5374,407.3
110.5388,340.6
110.5474,98
110.6121,236.5
110.6721,281.1
110.7069,125.9
110.7132,269
110.7258,240.1
110.7281,510.8
110.7382,659.2
110.7707,292
110.7856,18.2
110.8519,351.2
110.9043,430.7
110.9445,113
110.9922,662.6
111.0231,391.5
111.0439,517.2
111.0713,17.5
111.0914,139.6
111.199,18.4
111.219,19.8
111.2228,351.5
111.2634,460.1
111.2696,103.7
111.2783,102
111.3085,159.4
111.3129,473.6
111.3184,123.4
111.3344,295.9
111.3675,134
111.3729,107.1
111.3892,281.1
111.5105,91.9
111.5135,18
111.525,260.4
111.571,96.2
111.6812,46.4
111.7621,208
111.7724,113
111.7859,16.9
111.809,355.7
111.8311,425.1
111.8365,97.5
111.8548,211.9
111.886,17.1
111.8988,192.6
111.9072,553
111.9337,271
111.9345,473.8
111.9522,125.7
111.9956,159
112.0012,102
112.0135,357
112.0254,98.6
112.0821,20
112.0859,17.7
112.098,24.3
112.0996,19.2
112.1195,550.5
112.2437,354.5
112.3354,385.3
112.3427,123.9
112.3537,100.8
112.38,129.7
112.4521,316.5
112.4568,119.2
112.5632,444.9
112.5639,350.5
112.5877,17.2
112.599,698.9
112.6071,737.1
112.6292,347.8
112.6947,19.2
112.7201,126.9
112.7245,276.4
112.7257,104.7
112.7409,214.1
112.7574,214
112.7981,366.5
112.8213,18.2
112.8926,492.4
112.8956,494989.8
112.9057,339.5
112.9119,18.7
112.9645,354.1
113.0191,93.3
113.0309,17.9
113.0573,143.6
113.069,481.6
113.085,226.8
113.2349,659.9
113.2633,289.8
113.2771,764.4
113.2807,344.8
113.3183,223.6
113.4095,623.9
113.4486,553.6
113.4699,22.2
113.4805,510.6
113.4924,128
113.5079,149.6
113.5107,423.9
113.516,222.9
113.5292,17.5
113.5387,235.6
113.5877,443.3
113.5907,159.7
113.601,330.4
113.6418,399.6
113.6445,321.3
113.7781,666.7
113.7946,18.6
113.8257,515.5
113.8318,103.3
113.8715,212
113.8742,128.4
113.8836,239.3
113.8952,129.6
113.8967,19.3
113.9045,692.3
113.931,471.2
113.9415,655.4
113.9537,19
113.9587,488
113.9701,267.1
114.0549,47877
114.0582,281.7
114.0661,583.9
114.1047,273.3
114.1208,93.2
114.1343,134.1
114.1694,18.4
114.2091,169.4
114.2586,129.7
114.3205,318.9
114.4404,211.2
114.4729,743.2
114.487,465.6
114.4905,261.7
114.5169,411.9
114.5586,155.8
114.5608,288
114.5744,116.3
114.6816,148.6
114.7034,285.3
114.7282,261.7
114.7433,15.8
114.7934,123.1
114.803,456.8
114.8294,100.9
114.8927,152595.3
114.9001,392.5
114.9433,123.2
114.9675,18.3
115.0244,634.1
115.037,400.8
115.0582,966.7
115.0866,2002.2
115.0902,134.4
115.1105,295.5
115.1482,132.9
115.1689,16.2
115.2184,201.1
115.3191,571.1
115.4288,18.7
115.4977,210.1
115.5261,17.3
115.5284,385.2
115.531,286.2
115.5498,359
115.6042,252.5
115.6058,115
115.6226,18.7
115.6237,565.9
115.6424,18.6
115.7042,249.4
115.7344,120.6
115.7767,103.6
115.7816,264.1
115.7834,19.4
115.7939,214.2
115.8494,454.4
115.8614,274
115.8697,316.9
115.9124,88.3
115.9208,218.5
115.9556,308.6
115.9793,22.1
115.9927,15.6
116.0076,16.8
116.0448,205.8
116.0599,46.6
116.0706,4699.6
116.0881,128.5
116.0937,438.8
116.1397,138
116.167,129.4
116.1797,17.3
116.2003,298.7
116.2081,255.8
116.2198,574.2
116.2347,220.3
116.2418,186.8
116.2488,228
116.2522,329.6
116.2535,279.1
116.2635,17.3
116.2729,256.6
116.3335,164.6
116.3382,154.7
116.3568,286.7
116.364,105.8
116.3697,131.1
116.3809,235.4
116.3929,810
116.4197,287.9
116.4414,118.6
116.4792,19.9
116.4837,19.2
116.5461,373.9
116.5483,18.5
116.6905,17.3
116.698,236.5
116.7085,19
116.7347,111.3
116.8754,584
116.8836,135.1
116.8908,18522.9
116.9163,483.9
116.9196,350.9
116.9857,1425.5
117.0281,110.7
117.0696,21.3
117.0907,90.3
117.1015,89
117.1139,220.7
117.135,104.6
117.1476,364.3
117.1525,99
117.2127,192.4
117.2527,135.6
117.2547,219.2
117.257,106.8
117.2912,275.9
117.3217,469.6
117.3665,126.6
117.3708,339.3
117.374,124.2
117.3941,449.2
117.4214,322.6
117.4307,191.6
117.4345,254.4
117.4552,265.3
117.464,347.8
117.4904,92.6
117.4962,227
117.511,16.4
117.5134,117.6
117.5333,104.8
117.5692,268
117.5733,183.2
117.5777,247.9
117.6065,325.6
117.6408,328.9
117.6528,39.5
117.8192,108.7
117.8246,55.2
117.8786,593
117.9779,160.4
118.0252,189.5
118.0367,103.3
118.0452,866.2
118.0829,466.5
118.1078,228.2
118.1105,411.2
118.1217,321.5
118.1386,98.6
118.1554,508.8
118.2294,329.3
118.2803,18.3
118.3221,16.6
118.3659,178.8
118.3806,326.1
118.3955,255.2
118.4061,98.2
118.4138,265.4
118.4282,382.4
118.4761,336.4
118.5009,487.2
118.527,245.5
118.5375,334.9
118.5387,99.2
118.539,100.9
118.542,131.9
118.5689,306.1
118.5723,364.1
118.5884,274
118.6291,197
118.6603,851.4
118.6659,320.2
118.7492,369.6
118.7703,419.6
118.8187,177
118.8287,22.3
118.8302,266.4
118.8393,19.8
118.8767,343.6
118.8808,639.3
118.8889,356.5
118.8966,351.5
118.9248,117.2
118.9425,39.6
118.9558,17.6
118.9602,129.8
118.9715,39.2
118.9788,49.9
118.9874,163.5
119.0189,23.9
119.0757,335.2
119.0792,273.6
119.0825,189.7
119.0854,19.3
119.114,267.7
119.1256,339.2
119.1499,300.8
119.1517,141.3
119.1688,122.2
119.2762,244.2
119.2951,291.8
119.3037,325.1
119.3073,442.4
119.3636,311.9
119.4408,205.2
119.6077,22.3
119.6769,374.1
119.6861,277.9
119.7609,18.9
119.7941,249
119.8082,272.7
119.8115,591.2
119.8709,290.9
119.8791,544.9
119.8837,311.2
119.9213,22.6
119.9264,47.5
119.9421,756.4
119.9651,106.7
119.9723,322.6
119.9928,20
120.0031,5591.6
120.0338,20.2
120.0394,359.9
120.0483,241.2
120.0687,179.4
120.0807,11618.6
120.1703,380.8
120.1945,19.1
120.198,139.7
120.2325,249.5
120.2391,225.7
120.2627,99.5
120.2694,387.7
120.2796,677.2
120.2861,140.5
120.3009,368.6
120.3467,382.4
120.3943,20.1
120.5069,138.5
120.519,513.1
120.5253,299.2
120.5478,125.6
120.5575,477.1
120.5948,235.4
120.6228,94.1
120.6954,105.5
120.712,576.1
120.7601,282.1
120.8892,111.3
120.9462,447.7
120.9808,187.7
121.0075,376.9
121.0122,44.1
121.0136,428.9
121.0182,643.7
121.0283,329.8
121.03,528.9
121.034,753.7
121.0646,47.1
121.0981,188.6
121.1011,77.8
121.1335,504.1
121.1564,16.2
121.2257,195.2
121.2754,618.9
121.295,250.1
121.3254,598.9
121.3814,19.4
121.3909,172.7
121.4342,145.5
121.4397,287.3
121.5044,133.3
121.5147,17.4
121.5571,138
121.6563,320.2
121.6608,17
121.6748,323.4
121.676,322.9
121.7113,301.6
121.7184,216.6
121.7273,293.2
121.7334,94.1
121.7518,275.1
121.7996,16.3
121.8189,20.4
121.8385,551.6
121.8618,278.9
121.8631,440.1
121.8852,105.9
121.9084,221.6
121.9598,259.2
121.9613,125
121.9637,266.2
122.0314,261.7
122.0662,200
122.0877,90.5
122.1098,264.5
122.117,96.1
122.1998,174.1
122.2403,101.7
122.2692,151.2
122.2889,756.3
122.3142,301.9
122.341,358.3
122.3732,349.9
122.3751,21.3
122.435,16.8
122.521,553.8
122.5482,235.5
122.5623,96.2
122.6207,18.6
122.6297,146.4
122.7815,363.9
122.7941,126
122.9245,24206.8
122.9592,16.7
122.9775,19.4
123.0123,198.9
123.0299,211.9
123.0329,125.3
123.0424,19.2
123.0803,31.4
123.1014,17.4
123.1039,18.5
123.1165,643
123.1397,332.3
123.1631,139.4
123.1741,255.3
123.223,192.8
123.235,18.1
123.2857,19.7
123.3827,295
123.3949,19.6
123.422,84.6
123.4398,131.9
123.4497,402.9
123.5028,133
123.5259,104.5
123.5384,106.1
123.5405,17.4
123.5887,652.1
123.6401,122.9
123.6841,196.2
123.7146,141.2
123.7279,128.8
123.7478,179.1
123.7818,340.5
123.8045,93.5
123.8601,242.2
123.8739,838.1
123.8759,268.5
123.9136,129.9
123.915,371
123.96,108.9
123.9777,276.9
124.0096,125.6
124.0142,120.5
124.0239,122.9
124.0266,484.6
124.0368,154.8
124.0562,128.8
124.112,21.3
124.1784,344.8
124.2064,373.2
124.2116,170.6
124.2262,17.5
124.2362,423.8
124.2378,20.8
124.2461,464.6
124.2631,129.5
124.2847,227.4
124.3354,19.9
124.3695,103.2
124.4621,419.8
124.5006,101.1
124.5447,382.5
124.5539,595.8
124.6238,144.2
124.6598,474.6
124.6754,102.7
124.6824,111.9
124.7392,251.2
124.7548,43.9
124.7652,484.2
124.7757,225.7
124.8293,203.6
124.8417,138.3
124.8724,104.1
124.9025,405.6
124.9226,2055.9
124.9264,590.2
124.9681,168.9
124.9874,217.8
124.9998,5881.2
125.0054,320.3
125.0388,194
125.041,282.9
125.0597,36.8
125.0754,121.9
125.0901,242.4
125.1,884.4
125.1072,134.3
125.1185,167.8
125.1802,97.9
125.1848,515.2
125.2301,279.5
125.2745,348.9
125.2937,505
125.3072,409.9
125.3578,342.6
125.4552,443.6
125.4583,57.2
125.5124,429.8
125.5529,223.7
125.6092,131.5
125.7108,382.9
125.7119,207
125.7435,107.8
125.8913,105.3
125.9987,107.5
126.0083,17.7
126.022,97.7
126.0428,255.7
126.0883,112.2
126.2164,802.7
126.2676,18.8
126.3026,150.6
126.3818,151.7
126.4011,734.5
126.4219,272.9
126.475,129.4
126.5272,187.8
126.6012,104.7
126.7057,19.7
126.7288,88.3
126.7632,282.7
126.7742,362.1
126.8396,272.5
126.8887,156.1
126.9283,187.7
127.0018,16
127.0226,717.7
127.0477,123.7
127.1027,533.9
127.1316,360.7
127.1378,120.6
127.1816,18.6
127.1937,16.9
127.2285,390.4
127.2318,129.9
127.29,304.3
127.3032,16.7
127.3636,286.8
127.4302,131.1
127.4802,210.7
127.5675,244.1
127.5783,127.7
127.5961,787.2
127.672,97.1
127.6758,360.1
127.687,145.2
127.706,558.9
127.7089,189.3
127.7347,176.4
127.7466,514.3
127.7766,24.7
127.7824,150.4
127.7921,258.6
127.8075,224.7
127.8108,105.9
127.8766,209.3
127.8836,45.9
127.9171,110.4
127.9257,44.1
127.9435,18
127.9744,299.7
127.9984,101.1
128.0111,507.7
128.0534,273.6
128.1048,124.7
128.1227,129.4
128.1534,323
128.1685,309.1
128.1712,412.4
128.174,18.1
128.1945,328.7
128.2141,393.7
128.2808,96.1
128.3158,93.3
128.3198,491.6
128.3922,86.6
128.3936,17.7
128.4192,544.9
128.4261,440.5
128.5021,22.9
128.5361,378.6
128.5514,17.1
128.5548,17.6
128.5625,456.1
128.6032,191.1
128.7156,156.5
128.7659,241.5
128.7951,448.8
128.8214,231.4
128.8312,98
128.8512,132
128.8537,373.4
128.8934,18.3
128.938,20.8
128.9399,23
129.0032,1354.3
129.0139,18.2
129.0438,133.5
129.1022,1111.4
129.1322,113.6
129.1504,276.2
129.2164,126
129.2323,276.3
129.2608,233.3
129.2996,770.6
129.313,117.1
129.3572,382.7
129.3962,462.1
129.415,97.3
129.4235,139.1
129.4452,102.6
129.4861,393.2
129.4958,340.5
129.7046,313.6
129.8106,361.9
129.8232,182.4
129.8876,151.4
129.9318,128.3
129.9347,132.5
129.9621,178.1
129.9709,249.9
129.9792,855.1
129.9809,226.6
130.0277,357.8
130.0432,47.1
130.0499,6634.2
130.0865,365
130.091,214.3
130.1076,294.9
130.219,120
130.2354,119
130.2831,335.1
130.2943,115.2
130.3072,235.5
130.3518,388.1
130.3681,160.6
130.377,670.5
130.4388,692.2
130.4572,20.6
130.4589,131.4
130.4618,124.5
130.5635,101.2
130.6122,694.8
130.7458,18.6
130.7597,131.2
130.9328,650.2
130.9362,301.6
130.9568,475.5
130.9595,199.7
130.9993,97.6
131.0045,868.2
131.0123,18.2
131.061,250.4
131.0804,146.4
131.0852,21.6
131.1088,217.5
131.1278,287.7
131.137,358.5
131.2082,307.2
131.2124,15.5
131.2271,406.1
131.3063,451
131.3186,136.5
131.3636,190.9
131.3675,335.6
131.4089,327.6
131.4392,262.3
131.4566,709.3
131.4714,151.3
131.5175,296.4
131.5863,227.2
131.5893,408.1
131.6137,412.7
131.6468,147.9
131.6543,18.6
131.6622,19.2
131.6783,717.4
131.6963,377
131.777,447
131.7858,16.9
131.8001,114.5
131.8197,143.3
131.8245,469.5
131.8261,294.4
131.8386,20.3
131.8539,19.6
131.909,302.4
131.9165,42.6
131.9356,129.2
132.0032,25787.3
132.0561,862.4
132.0655,79006
132.0772,209.8
132.1276,19.8
132.154,18.9
132.1978,262.3
132.1999,111.2
132.2634,19
132.2966,235.5
132.3202,18.1
132.3719,138.1
132.3996,17.1
132.5036,51.8
132.5426,487
132.5898,165.3
132.7111,94.1
132.7242,179.5
132.7515,112.2
132.7605,166.8
132.7887,164.1
132.8047,243.5
132.8254,16.1
132.8681,147.1
132.8757,412.9
132.9027,51.6
132.9204,379.1
132.9292,310.8
132.9772,119.6
132.9872,1202.7
133.0063,138.1
133.0647,141.1
133.0689,1965.2
133.0857,27.2
133.0972,25519.1
133.101,26
133.2716,434.3
133.2875,132
133.3095,162
133.3261,454
133.3543,439
133.3854,100.5
133.3878,108.7
133.4384,20.2
133.5064,90.7
133.5075,97.5
133.5682,673.7
133.6464,631.6
133.6674,22
133.6821,114.5
133.7297,301.7
133.7597,225
133.8058,930.9
133.8198,119.6
133.8409,96.4
133.8906,136.9
133.8965,212.3
133.8982,42.5
133.9017,217.5
133.9374,110.4
134.0188,12079.9
134.0231,19.4
134.0464,44.1
134.0575,615.9
134.0701,18.6
134.0819,448.2
134.0889,414.8
134.101,316
134.1201,155.2
134.1206,179.5
134.1212,127.2
134.1408,135.7
134.278,18.6
134.3835,715.8
134.4091,241.8
134.4771,111.3
134.4832,390.5
134.5344,116.3
134.5628,185.8
134.5973,45
134.62,112.8
134.6498,481.5
134.665,405.4
134.7031,203.5
134.7439,263.4
134.7636,141.9
134.7755,129.6
134.7855,20.8
134.799,170.7
134.8343,103.4
134.8862,231.1
134.913,271.1
134.9274,609.6
134.9347,95.7
134.984,88.6
134.9965,25.4
134.9984,114.2
135.0029,112409.4
135.0234,26.6
135.0578,16.9
135.0692,499.7
135.0987,96.5
135.1129,413
135.1168,430.2
135.1219,47.6
135.1419,407.5
135.1481,289
135.1551,43.6
135.2189,275.4
135.245,514.8
135.256,20.4
135.2789,20
135.2987,297.7
135.305,18.7
135.3124,738.1
135.3392,277
135.344,357.4
135.3627,144.9
135.3735,366.4
135.4973,19.8
135.5198,245.8
135.5374,450.7
135.6706,349.9
135.6966,122.9
135.8113,205.8
135.8245,165.3
135.8726,91.8
135.8929,521.8
135.9056,41.3
135.9772,3839.4
135.9992,120.1
136.0061,730
136.0244,227
136.0482,11699.8
136.0594,222
136.0618,43.1
136.0757,10234.8
136.108,115.3
136.1995,700.4
136.2585,136.5
136.3615,168.5
136.3749,663.1
136.4082,389.6
136.4307,292.4
136.4726,565.8
136.4984,608.5
136.514,423.6
136.5255,233.6
136.5435,121.8
136.5675,131.7
136.6128,17.2
136.6169,260.1
136.6456,19.4
136.664,138.2
136.6705,230.6
136.6824,20.1
136.6859,136.8
136.7069,150.3
136.7332,353.5
136.7396,242.6
136.7807,17.2
136.7876,223
136.8463,164.6
136.8553,104.1
136.8734,112.7
136.8953,137.5
136.9122,262
136.9143,221.2
136.9311,2108.1
136.9407,389.9
136.983,294.8
136.9944,96.5
137.028,231.8
137.03,635.7
137.0413,16.5
137.0575,894.4
137.0601,617.1
137.0663,501.6
137.0716,249
137.0847,121.9
137.1175,154.3
137.1223,228.6
137.1241,213.2
137.2357,18.9
137.2379,238.9
137.24,135.1
137.2418,228.1
137.2699,184
137.313,429.1
137.5317,19.3
137.5553,135.9
137.5631,152.5
137.5821,439.9
137.6304,125.4
137.6462,98
137.6861,669.5
137.7017,389.3
137.7155,157.2
137.7304,18.4
137.7414,200.8
137.7544,523
137.7679,129.4
137.8963,650.8
137.9289,247.2
137.9424,285.8
137.9641,125.7
138.0355,17.9
138.0526,7043.8
138.0661,27.6
138.091,17.1
138.0964,606.2
138.1085,40.7
138.1575,362.4
138.1666,257.2
138.1721,441.5
138.1743,172.2
138.1749,139.8
138.182,269.4
138.1836,335.6
138.2041,378.5
138.2134,237.6
138.2371,110.8
138.3044,150.6
138.3799,579.4
138.4178,41.8
138.4222,51.3
138.4627,104
138.5367,578.9
138.5616,45.4
138.5646,175.4
138.5984,467.4
138.6175,259.2
138.6444,481.9
138.6476,257.1
138.686,134.4
138.691,145.6
138.7968,465.3
138.8641,830.4
138.87,126.4
138.8772,330.6
138.8787,436.8
138.9065,1430.5
138.9886,314.8
139.0227,267.7
139.0438,187.5
139.1277,16.4
139.1659,20.4
139.1713,642.1
139.1932,106.1
139.2311,19.9
139.2379,643.6
139.2405,283.1
139.2484,256.9
139.2812,19.6
139.3381,19.5
139.3422,190.9
139.3719,469.7
139.4396,727.4
139.4569,117.8
139.5649,112.8
139.7037,290.3
139.7089,256.8
139.7332,205.9
139.8267,122
139.8295,254
139.8361,439.9
139.8705,142.3
139.9073,173.7
139.9122,291
139.9364,87.7
139.956,170.9
139.9892,186.3
140.0023,264.7
140.0165,1154
140.0356,20.9
140.0682,2679.8
140.0956,653.8
140.1098,791.3
140.1219,95.3
140.1529,710.5
140.1565,296.8
140.167,17
140.1924,577
140.2913,756.3
140.3282,102.2
140.3346,125.8
140.3619,518.4
140.4466,360.7
140.5258,19
140.5434,1303.6
140.562,149.6
140.5875,17.2
140.6003,403.1
140.6906,19.7
140.7128,19.9
140.7268,231.9
140.745,239.6
140.8043,364.7
140.8128,117.2
140.8501,139.6
140.8813,308.9
140.8945,133.1
140.8984,44.8
140.9036,2141.6
140.9463,254.3
140.9594,17.7
141.0005,16852.2
141.0177,107.3
141.0197,31.3
141.0592,674.8
141.0621,18.1
141.1219,17.5
141.1798,135.2
141.2132,345.6
141.2305,528.4
141.2888,243.5
141.3365,99.7
141.343,239.8
141.3996,574
141.4725,110.8
141.4805,296.8
141.5526,400.5
141.5703,111.1
141.6003,260.7
141.6256,113.9
141.6492,568.6
141.6658,742.3
141.704,261.5
141.7097,271.4
141.7727,238
141.7794,283.2
141.8134,253.9
141.8164,143.2
141.8473,640.6
141.9055,127.8
141.9119,167
141.9715,147.3
141.9996,19.5
142.0038,576.4
142.012,27.2
142.0174,731.3
142.0325,236
142.0475,253.6
142.0613,20.2
142.0736,58.5
142.077,391.9
142.1813,189.5
142.1832,322.6
142.2047,96.1
142.2448,347
142.2598,17.7
142.2825,19.7
142.3517,205.7
142.415,156.1
142.4311,372.9
142.4703,142.7
142.4933,292.2
142.5009,43.7
142.573,177.3
142.7036,150.7
142.7049,128.8
142.7467,45.2
142.8134,132
142.8251,267.6
142.9178,644.2
142.9392,102.8
142.9434,368.6
142.9894,185.2
142.9963,268.5
143.0018,341.5
143.0189,1450.7
143.0489,147
143.0815,548.4
143.1638,230
143.1725,482.9
143.1742,315.8
143.199,281.7
143.2028,270.3
143.2921,119.2
143.2973,111.9
143.2999,154.8
143.3027,139.1
143.3123,44.5
143.3236,42.4
143.3642,17.3
143.3859,127.7
143.3901,240.7
143.4393,119.1
143.4877,321
143.4962,632.3
143.5751,109.2
143.5953,153.2
143.6282,241.5
143.6557,240.5
143.6771,121.8
143.7367,347.5
143.8243,104
143.8272,43.1
143.9021,18.1
143.979,212.9
143.9901,43
143.992,186.2
143.997,120.4
144.012,118.7
144.0196,508.9
144.1017,526.6
144.1137,268.1
144.125,154.7
144.1942,162.1
144.2218,120.1
144.2248,675.3
144.2449,371.6
144.3173,101.3
144.3364,730.4
144.3448,317.8
144.4643,360.1
144.4913,382
144.5022,327.7
144.5169,226.2
144.5499,371.6
144.5932,411.1
144.6035,276.7
144.647,19.9
144.6571,187.9
144.6603,643.7
144.7524,19.1
144.7929,129.6
144.8171,115.2
144.8619,353.7
144.8731,506.9
144.8916,18.1
144.8948,319.7
144.9682,291.8
144.9745,182
144.9809,4279.6
144.9955,229.8
144.9983,287.6
145.0039,908.4
145.018,102.1
145.0237,129.3
145.0245,171.4
145.025,180.7
145.0286,341.9
145.0411,152.8
145.0472,360.1
145.0671,490.1
145.1169,17.5
145.1451,262.8
145.176,261.8
145.193,823
145.2196,129.1
145.2265,102.6
145.2366,190.9
145.313,368.6
145.3293,137.5
145.3756,513.8
145.378,18.9
145.4096,207.9
145.5882,513
145.6076,18.7
145.6333,52.9
145.6526,23.3
145.712,607.2
145.7601,474.9
145.7642,22
145.8022,19.4
145.8789,427.6
145.9094,304.3
145.9293,410.8
145.9321,606.8
145.9519,158.9
145.9551,109.4
145.971,384.4
145.9781,40.6
145.9837,469.4
145.9918,111.8
145.9977,175.2
146.0125,4233.3
146.0189,14570.3
146.0593,824.7
146.0611,112.2
146.0686,185.1
146.1115,54.1
146.1263,425.8
146.137,116.7
146.2682,689.9
146.2951,605.9
146.3557,584.2
146.3792,381.7
146.4239,20.9
146.4462,247
146.4514,590.5
146.4646,226.2
146.4696,315.1
146.5789,411.2
146.6126,786.8
146.6484,115.7
146.7408,399.1
146.7468,17.5
146.7765,385.8
146.7783,389.2
146.8341,477.4
146.917,389.2
146.9787,86.9
146.9818,129086.1
147.0139,306.9
147.0248,355
147.038,519.3
147.0399,245.6
147.0765,48473.1
147.1129,22926.5
147.146,95.2
147.1962,265.5
147.2839,132.5
147.3206,22.2
147.391,266.8
147.4968,373.3
147.5171,89.9
147.5444,19.7
147.5581,310.9
147.6307,450.2
147.661,438.1
147.6721,127.9
147.7021,202.8
147.7075,188.8
147.7801,299.1
147.7895,17.4
147.8071,395.5
147.8371,21.3
147.8463,105.8
147.8679,788.9
147.8741,101.8
147.8842,17.7
147.9188,98.4
147.9256,180.9
147.9667,126.5
148.0249,107.1
148.031,16.2
148.0466,712.8
148.0884,134.2
148.0905,360.1
148.1031,18.8
148.1055,158.4
148.1137,21.4
148.1526,626.3
148.2288,187.7
148.2706,119.8
148.2895,275.9
148.3273,415.2
148.3657,298.5
148.4269,443.2
148.4332,18.9
148.4737,50.5
148.4775,366.7
148.5138,934.1
148.5322,7126
148.5474,381.2
148.5691,231.9
148.6502,211.6
148.6878,109.7
148.7068,230.1
148.7107,132.7
148.7149,324.6
148.7197,106
148.7854,522.9
148.7913,209.8
148.8551,230.3
148.8989,434.6
148.9612,4595.5
148.9758,438.6
149.0025,48.8
149.0068,414.8
149.0121,26.7
149.0186,4317.5
149.0234,5107.6
149.0448,27.3
149.0606,395.6
149.1323,65.3
149.1511,157.4
149.2069,715.5
149.2161,164.9
149.2752,700.8
149.298,390.2
149.3316,511.5
149.333,482.6
149.3429,621.2
149.3938,188.3
149.4971,97.2
149.5004,498.1
149.5298,132.6
149.544,369.2
149.7737,288.8
149.7967,137.1
149.8516,19.7
149.9151,382.2
149.9643,19.4
149.9928,8368
150.0053,216.9
150.0138,3206.4
150.0268,92.3
150.03,17.8
150.0959,626.8
150.1352,403.9
150.1845,172
150.2081,130.7
150.2264,682.2
150.2341,128.3
150.2495,290.5
150.2531,430.4
150.3668,105.3
150.3839,153.3
150.4995,349.8
150.5379,304.9
150.5455,107.6
150.6319,102.3
150.6523,108.3
150.6817,173.9
150.6879,288.3
150.699,155.1
150.7013,407.3
150.7089,452.2
150.7113,307.8
150.7361,200.7
150.7717,308.2
150.7785,835.1
150.7816,390.2
150.8254,18.6
150.8876,875
150.9328,176.1
150.96,19.8
150.9615,129.5
150.9768,73649.2
150.9841,270.2
151.0077,494.4
151.0479,2094.9
151.1402,719.2
151.1487,383
151.2002,170.8
151.2394,20.3
151.2982,320.7
151.3338,285.9
151.3347,269.8
151.3704,396.1
151.3765,276.1
151.4551,329.3
151.6251,108
151.663,17.1
151.6658,659.7
151.7056,17.7
151.7413,414.4
151.7733,583.6
151.8089,239.6
151.8399,125.6
151.8464,101.7
151.877,123.5
151.8926,136.5
151.9213,569
151.9379,125.7
151.9511,818.8
151.9723,44.3
151.98,349.9
152.0074,439.9
152.0221,13496.3
152.0319,2226.3
152.0622,133.4
152.0919,150.8
152.1012,296.7
152.109,793.7
152.1671,116.9
152.194,202.2
152.2877,335.9
152.3293,230.5
152.3422,521.3
152.3473,138.1
152.3613,347.1
152.3659,95.5
152.3974,385.1
152.4248,17.8
152.4464,89.3
152.5439,449.6
152.5486,357.4
152.5969,99.6
152.6347,345.8
152.6769,311.7
152.7272,94.6
152.7429,165
152.8045,526
152.8424,219.6
152.857,118.8
152.8938,394
152.9749,2981.2
153.0288,282.4
153.0334,351.4
153.0546,213.5
153.061,359.3
153.0968,107.3
153.1488,247.2
153.165,583.9
153.169,217.7
153.1844,656.1
153.1969,184
153.2516,219.7
153.2722,204.7
153.2775,248.1
153.2804,203.6
153.322,119.6
153.3508,115.2
153.3785,129
153.4245,17.8
153.4543,289
153.4759,160.8
153.5494,354.7
153.622,509.7
153.6701,487
153.6887,133.9
153.7063,23.3
153.7106,44.3
153.7698,449.2
153.8252,135.5
153.8605,497.3
153.9372,91.9
153.9687,502
153.9718,95.1
154.0046,251
154.0114,498
154.0245,164.2
154.0265,616.3
154.0322,3089.2
154.0476,308.1
154.0588,1046.8
154.0676,149.6
154.1469,90.8
154.205,98.6
154.2423,91.8
154.2462,16.7
154.3306,132
154.3469,111.2
154.3502,125
154.3737,85.7
154.4172,460.2
154.4237,759
154.4311,21.8
154.4321,22.3
154.4597,209.6
154.501,97.1
154.5437,129.1
154.553,800.4
154.6348,628.8
154.6962,329.7
154.7528,227.4
154.7667,338.8
154.8109,130.4
154.8171,326.9
154.8249,134.1
154.8308,113.1
154.8606,227.1
154.8806,330.7
154.8831,17.5
154.8894,433
154.9074,136.3
154.9418,1673.9
154.9693,759.1
154.9769,129
155.0336,397.7
155.0427,1557.9
155.0492,225.2
155.054,6085
155.0594,882.8
155.0792,1877.9
155.1003,194
155.1158,267.4
155.1613,275
155.2012,441.7
155.2654,417.8
155.2701,94
155.3131,125.3
155.4409,52.3
155.447,18.2
155.49,378.8
155.5005,47.8
155.5087,232.6
155.5261,103.7
155.6632,111.8
155.7361,113.8
155.753,121.8
155.834,227.5
155.8548,90.7
155.9131,400.9
155.9775,49.5
156.01,130.9
156.0422,1879.4
156.0509,41
156.0573,149.9
156.0769,29066.7
156.1647,795.1
156.2692,139
156.3018,40.2
156.3148,137.8
156.3738,736.9
156.3756,580.1
156.4039,501.6
156.4198,92.2
156.471,151.1
156.5241,222.1
156.5682,272.8
156.5855,435.7
156.6669,18.2
156.7165,208.1
156.7187,500
156.774,115.8
156.8106,565.2
156.8458,667.9
156.942,271.6
156.9745,51.8
156.9821,18.9
156.9988,260.7
157.0211,20.2
157.0412,120.6
157.0972,296.1
157.1051,484
157.1057,533.3
157.1557,100.4
157.2622,263.6
157.2856,213.3
157.3165,217.3
157.344,241.7
157.3504,18.7
157.3798,155.7
157.3832,112.3
157.4108,598.8
157.4132,798.2
157.4157,248.5
157.4178,432.4
157.426,370.9
157.4325,368.7
157.441,19.9
157.5053,48.1
157.5167,724.5
157.5265,18.7
157.5321,295.2
157.598,128.8
157.6755,20.2
157.7186,25
157.7353,167.9
157.7935,133.6
157.8414,21.8
157.9043,189.5
157.9354,511.1
157.9591,226.6
157.9882,272.6
158.004,657.7
158.0073,114.3
158.0125,493.4
158.0216,143.7
158.0271,3587.9
158.0336,16.5
158.0496,133.1
158.1122,835.5
158.1331,520.6
158.1492,18.7
158.1735,284.3
158.1808,17.7
158.1953,117.9
158.1991,18.1
158.2028,404.2
158.2064,137.5
158.2804,339.7
158.289,606.6
158.424,19.7
158.4533,341.7
158.4689,512.4
158.5333,18.8
158.5863,116.8
158.5874,110.5
158.6016,138
158.6212,497.4
158.6625,757.3
158.6812,21.3
158.6999,713.4
158.7242,280.7
158.8242,410.9
158.898,185.8
158.9279,3062.9
158.9369,201.3
158.9596,148
158.9642,14199.6
158.9766,514.6
158.9832,140
158.9899,189.8
158.9966,10510.4
159.011,41.6
159.0189,97.9
159.0277,319.2
159.0304,153.2
159.0638,19.2
159.2346,408.3
159.2541,443.9
159.3026,336.7
159.3277,365.1
159.4202,584.5
159.4633,380.1
159.4902,535
159.5028,230.2
159.5141,422.9
159.5476,47.7
159.5563,304.2
159.7158,628.3
159.7979,160.4
159.8098,251.6
159.8187,124.5
159.8219,20.1
159.8235,383.2
159.838,457.3
159.8443,365.1
159.8891,242.8
159.9238,85.9
160.0195,234.3
160.0229,99.5
160.0271,384.7
160.0346,22389.1
160.0579,98.8
160.0606,89191.5
160.0988,334.6
160.1399,297.7
160.216,347.3
160.2748,102.7
160.2865,175.7
160.305,18.2
160.3385,248
160.3391,237.3
160.3398,174.7
160.3715,204.1
160.3946,304.5
160.4094,311.9
160.4245,295.7
160.4444,118.1
160.4505,20.3
160.5288,261.8
160.5825,93.9
160.5983,572.9
160.6112,468.2
160.6835,113.4
160.6907,209.3
160.7184,352
160.7203,390.6
160.7552,446.1
160.7664,214.3
160.8367,322
160.876,165.1
160.8829,247.9
160.8997,45.4
160.9201,742.3
160.9347,315.3
160.9381,18.9
160.9619,138.2
160.9639,523.3
160.9733,379.6
160.9805,630.4
161.0187,696.5
161.0399,118.5
161.064,4254.2
161.0945,131.1
161.1286,4746.7
161.1327,297.7
161.1675,20.7
161.2037,377.3
161.2061,364.3
161.225,316.4
161.2304,453.4
161.2336,116
161.2505,1007.5
161.253,229.4
161.2567,102.8
161.3166,292.1
161.3671,230.5
161.5653,17.7
161.5696,156.5
161.5871,175.2
161.6046,19.1
161.6244,17.9
161.6518,346.3
161.6664,126.3
161.6981,129.9
161.7719,440.4
161.7937,708.3
161.8669,313.2
161.876,208.5
162.0407,527.2
162.0502,19997.2
162.0776,17.6
162.0834,115.3
162.097,128.8
162.1127,107.3
162.1874,511.8
162.2261,235.1
162.2442,296.8
162.303,21
162.3515,94.8
162.3548,253.1
162.3671,231.4
162.3977,226.2
162.4078,250.4
162.4234,554.7
162.4551,231.9
162.4927,245.7
162.5125,19.6
162.583,228.4
162.6041,247.6
162.6082,979.7
162.6342,104.5
162.6767,380.2
162.6796,205.6
162.7217,162.2
162.7295,269.8
162.9029,489.7
162.9558,4990.4
162.9712,351.1
162.9878,16
163.0156,2096
163.0254,124.5
163.0326,19
163.0343,980.8
163.051,504.6
163.058,355.2
163.0605,30.6
163.0915,285.8
163.1819,145.6
163.2025,359.8
163.2773,310.3
163.3135,99.2
163.3188,344.6
163.3287,280.9
163.3833,391.1
163.4362,112.9
163.5127,344
163.5254,225.4
163.5463,17.9
163.5879,130.5
163.5979,224.5
163.6053,678.5
163.6329,47.4
163.6423,426.8
163.6536,447.3
163.6545,468.5
163.6665,263.4
163.6688,146.6
163.7222,659
163.7524,500.1
163.8094,152.3
163.8652,644.9
163.8895,94.3
163.9037,209.9
163.9496,489.1
163.9582,429.3
163.9884,43.7
164.0295,19380.6
164.0672,441.4
164.1375,44.9
164.1569,770.6
164.1662,104.5
164.2822,120.1
164.2893,260.4
164.3176,216.2
164.3239,261.6
164.4138,330.2
164.4201,401.6
164.5548,101.6
164.5904,215.6
164.5944,95.4
164.5981,432.7
164.6053,164.1
164.6206,19
164.6517,219.8
164.658,198.1
164.7363,673.6
164.7643,140.2
164.7694,17.5
164.7751,664.8
164.8942,168.8
164.9206,5269.9
164.9301,16429.5
164.9351,1577.3
164.9696,323.1
164.9784,418.5
164.9925,2200.8
165.0068,19.3
165.0546,720.1
165.0881,20.5
165.0911,792.6
165.1136,753.4
165.1274,113.6
165.1431,226.1
165.1839,123.9
165.2103,19.1
165.2707,100.9
165.2722,94.3
165.2838,182.6
165.2921,191.5
165.3027,131
165.4446,274.2
165.4586,117.7
165.4738,144
165.4848,449.1
165.4983,195.4
165.5833,98.2
165.6819,468.8
165.7385,99.9
165.7592,339.5
165.7666,21
165.8298,155.4
165.8691,320.5
165.8907,225.4
165.9557,858.4
165.9667,1200.1
165.9789,955
165.9878,4630.2
165.9922,207.4
165.9951,18.7
166.0112,236.6
166.0288,785.3
166.0727,253.5
166.1099,172.1
166.1136,95
166.1426,401.8
166.1632,17.5
166.1652,333.2
166.1849,129.3
166.259,118.9
166.2664,611.1
166.2912,252.2
166.3267,266.6
166.3435,249.4
166.3479,122.1
166.3535,111.4
166.4009,192.5
166.4305,18.6
166.4566,316.9
166.505,357.8
166.5396,19.9
166.5513,243.8
166.5948,389.5
166.634,474.9
166.6618,132.1
166.7371,232.7
166.7549,563
166.8481,16.7
166.862,120.6
166.8891,19.1
166.8907,158.3
166.9332,699.5
166.9508,26848.8
166.9627,1252.7
166.9958,428.1
167.022,4982
167.0572,115
167.1052,396.2
167.1198,38.6
167.2127,17.8
167.2303,160.2
167.3175,179.9
167.3321,315.1
167.3979,238.9
167.4062,769.4
167.4297,333.3
167.5686,91.2
167.6187,17.8
167.6359,548
167.6465,223.3
167.6609,727
167.7272,329.1
167.7527,387.3
167.7729,429.5
167.8294,115.9
167.8381,131.2
167.8444,19.7
167.8554,449.8
167.8858,110.4
167.9534,808.6
167.9666,219.6
167.9736,325.9
167.9945,2882.4
168.0061,394.7
168.1114,129.3
168.1888,19.2
168.2136,24.9
168.2868,427.8
168.2928,210.2
168.3214,124
168.3245,186
168.5019,199.7
168.5108,309.3
168.5175,546.6
168.5997,257.5
168.6068,291.3
168.6125,156.4
168.6428,205.9
168.6892,458.2
168.72,680.5
168.8428,123.1
168.8578,251.5
168.86,119.3
168.9034,20.9
168.9242,134.1
168.9408,97.6
168.949,2348.3
168.9752,18.8
168.9782,165.8
169.0289,204.3
169.0318,17.3
169.0501,314.4
169.0586,47543.1
169.065,1175.1
169.0948,3039.5
169.0973,392.6
169.1379,297
169.1608,40.9
169.163,18.3
169.1688,17.3
169.1913,304.6
169.2147,19.4
169.2387,108
169.3418,484.4
169.3484,113.4
169.4371,18.9
169.5385,126
169.5742,297.4
169.6226,128.3
169.6324,18.7
169.6446,153.7
169.6521,42.9
169.7091,47.4
169.7504,172.1
169.8413,432.4
169.8675,140.3
169.9297,114.6
169.9654,19.4
169.9857,516
170.0327,5125.5
170.0622,983.4
170.0926,7869.5
170.1416,305.6
170.201,43.4
170.3932,211.6
170.5085,209.6
170.523,17.6
170.5553,208.1
170.606,406.1
170.6072,385.5
170.6142,20.2
170.667,269.2
170.6757,142.4
170.757,342.9
170.7898,404.5
170.8206,435.2
170.8545,4058.7
170.9221,287.2
170.9307,221.6
170.9432,792.3
170.9522,248.8
171.0168,465
171.028,627.5
171.0443,263
171.0494,18.4
171.0534,730.9
171.0628,345.5
171.0652,133.7
171.1002,103.3
171.1046,95.7
171.1257,322
171.1284,265.3
171.1444,358.7
171.201,38.3
171.2357,252.7
171.2859,143.4
171.2974,586.3
171.3938,399.7
171.504,18.3
171.5493,720
171.5528,99.5
171.5578,111.8
171.587,121.7
171.6149,293.3
171.6805,41
171.7743,312.1
171.8083,126.3
171.85,126.9
171.9164,140.8
172.0222,22.1
172.0283,1534.6
172.0932,109.4
172.1133,368.2
172.1674,163.7
172.189,104.3
172.2642,123.2
172.2876,167.8
172.3545,18.8
172.39,456
172.7163,208.3
172.7496,438.3
172.8369,364.3
172.8515,2616.4
172.8622,265.6
172.8683,275.9
172.9579,684.4
172.9676,541.4
172.9796,197.4
172.9838,316.2
173.0095,140.6
173.0269,304.3
173.0298,1081.3
173.0985,146.6
173.1049,231.7
173.1435,140.7
173.1886,721.1
173.253,284.1
173.3004,344.1
173.334,18.5
173.3628,136.6
173.4832,141.7
173.5109,104.7
173.5697,408.4
173.5804,238.3
173.697,123.3
173.7484,98.4
173.7915,182.1
173.7983,489.4
173.8099,153.7
173.8432,240.3
173.8546,177.8
173.8884,129.8
173.9141,107.4
174.0132,233.5
174.0236,17.6
174.086,502.1
174.1625,478.7
174.1752,18.6
174.2319,86.5
174.3139,171
174.398,385
174.437,138.6
174.5276,487.2
174.547,239.9
174.5708,355.8
174.626,291.2
174.6892,241.1
174.7407,106.8
174.7436,20.6
174.7968,551.2
174.817,22
174.8964,392
174.9009,125.6
174.9381,5035.1
174.9522,506.3
174.9581,420
175.0129,182.4
175.0343,7739.9
175.0456,3385.9
175.0577,364.7
175.0601,114.6
175.1129,368
175.1191,70713
175.1376,459.9
175.1415,17.6
175.1434,106.6
175.148,17
175.2193,142.6
175.2892,24.1
175.3705,18.8
175.3758,499
175.5303,17.9
175.6616,189.7
175.6915,214.9
175.8381,712.5
175.9327,253.6
175.9475,385.6
175.982,304.5
176.0086,10922.9
176.0409,454.9
176.0588,424.4
176.066,27734.1
176.0934,491.8
176.0985,494.2
176.103,1315.4
176.1157,244.1
176.1189,225.5
176.1226,1152.2
176.2229,554.5
176.2288,317.4
176.2545,384.3
176.278,99.2
176.3105,297
176.3319,711.4
176.3415,146.1
176.4039,279
176.4199,137.1
176.4771,121.4
176.5859,424.2
176.777,233.7
176.7934,231.6
176.9926,2431
176.9963,116.5
177.0248,5575.1
177.0293,97
177.0612,12651.7
177.0801,655.6
177.0871,1534.1
177.1998,20.4
177.2611,131.2
177.2789,432.5
177.2956,640
177.304,145.1
177.3444,684
177.3502,532.5
177.4724,120.4
177.4829,430
177.5826,390.2
177.626,125.2
177.6749,573.7
177.7484,126
177.7535,351.6
177.8044,231.6
177.8554,365.6
177.8719,250.2
178.0089,10126
178.0242,11034.8
178.0589,1569.7
178.0892,101.7
178.0967,17.3
178.235,18.2
178.2429,312
178.2547,149
178.3185,92
178.3396,157.6
178.4321,617.1
178.4679,17.1
178.6779,39.6
178.7011,58.7
178.7442,86.5
178.8435,189
178.9055,283.1
178.9186,119.9
178.9259,618.8
178.9973,151
179.0456,462.3
179.1089,442.8
179.3264,948
179.4202,473.9
179.429,425.6
179.5179,716.2
179.5946,396.7
179.6141,860
179.6455,651.1
179.6986,266.8
179.701,616.3
179.7579,240.2
179.7834,233.2
179.8235,116
179.8364,450.8
179.9686,46.7
179.9746,127.3
179.9973,415.1
180.0035,10507.9
180.0222,338.2
180.1169,213.8
180.163,226.1
180.1667,89.2
180.169,254
180.1924,266.3
180.1956,103.6
180.1976,287
180.4172,188
180.4313,305.8
180.4699,413.3
180.4873,157.5
180.5178,343.8
180.5753,492.1
180.6369,381.8
180.7783,116.8
180.8348,114.7
180.8498,23.3
180.8522,266.3
180.8802,255
180.8946,4149.5
180.9041,12988.7
180.9875,352.7
181.0264,436.1
181.0496,35.3
181.0545,194.7
181.0651,7288.5
181.1213,293.9
181.1359,391
181.1388,623.3
181.3655,153.3
181.3823,96.7
181.4056,158.9
181.4082,99.4
181.5007,696.7
181.557,130.2
181.5769,807.6
181.69,92.1
181.7419,126.6
181.7708,218.8
181.7873,387.6
181.8085,320.4
181.8243,227.1
181.8408,137
181.8544,269.3
181.8723,423
181.8924,128
181.9098,101.9
181.9616,596.3
181.9677,717.4
181.97,286.8
182.0133,165.4
182.0162,429.9
182.0426,31032.6
182.0811,383.7
182.0846,248.9
182.1412,591.3
182.1721,382.5
182.3868,427.3
182.3907,702.7
182.4341,282
182.5062,698.7
182.5396,244.4
182.559,123.4
182.6157,48.7
182.633,117.2
182.7157,309.3
182.8107,648.5
182.8261,443
182.9022,63.3
182.9454,387.6
183.0378,285.3
183.0445,1480
183.064,550.1
183.1068,120.1
183.1576,514.7
183.2682,99.2
183.2785,19.1
183.3012,19.4
183.3055,222.1
183.3709,494.1
183.3729,300.6
183.5304,20.2
183.5337,430.6
183.5672,48.2
183.5991,134.7
183.603,159
183.655,409.7
183.7763,316.9
183.8254,283.5
183.8724,290.9
183.9098,112
183.9303,97.3
183.9396,293
183.9649,1176.4
183.9888,244.8
183.9943,176.1
184.0373,1888.1
184.0599,109.3
184.0647,531.2
184.066,598.4
184.0735,4412731.5
184.0817,350.9
184.0833,509.7
184.1004,520.5
184.1098,1269.6
184.1439,322.4
184.1692,25
184.1823,1448.9
184.192,701.2
184.4322,165.8
184.4688,139.9
184.6587,114
184.6734,803.9
184.7246,325.4
184.7335,19.5
184.7453,111.4
184.791,107.6
184.7982,97.7
184.8054,220.7
184.8491,478.7
184.8637,137.3
185.0325,54977.9
185.0361,109.5
185.0546,101.3
185.0705,7918.8
185.0768,208448.9
185.0798,1970.6
185.1172,120.1
185.1324,44.6
185.1616,18.9
185.2524,412.3
185.3883,19.3
185.6296,184.6
185.6383,18.3
185.7289,765.4
185.7466,17.3
185.7824,412.2
185.7837,382
185.7852,296.2
185.8079,292.5
185.8584,201.7
185.9299,464.5
185.9599,2294.2
186.0217,311.3
186.036,807.6
186.0404,128.3
186.0778,28516.9
186.093,118.7
186.1161,18.5
186.126,321
186.2131,95.8
186.3288,90.5
186.36,273.1
186.4177,581.4
186.4269,196.4
186.4527,238.9
186.5562,269.2
186.6332,196.5
186.7156,256.5
186.7306,259.6
186.747,226
186.7703,491.2
186.7938,118.1
186.8502,262
186.877,413.6
186.8862,98.5
186.9121,5145.6
186.9251,263.8
186.961,798.3
186.9633,107.8
186.966,172.7
187.0183,117
187.0306,2405.9
187.0579,9234.2
187.0715,2374.2
187.1049,352.4
187.1078,3291.8
187.1482,237.3
187.1541,290.7
187.1871,17.2
187.2076,22.5
187.2165,144.9
187.2339,373.3
187.2918,122
187.3279,344.6
187.3622,422.8
187.4261,264.1
187.4427,212.3
187.5682,18
187.5974,158.5
187.6174,108.9
187.7022,242.1
187.7629,91.6
187.8683,532.6
187.9826,309.3
188.0724,151.6
188.0794,25.1
188.1434,365.4
188.1974,1161.6
188.2386,212.5
188.3363,356.5
188.3822,121.5
188.4817,513.7
188.542,532.6
188.6115,349.6
188.6274,129.3
188.6516,501.1
188.7046,748.4
188.717,406.8
188.7709,780.3
188.8961,127.4
188.9379,17
188.945,602
189.0039,802.3
189.0081,779.9
189.0613,3224.4
189.0839,242
189.0872,11166
189.2107,96.1
189.2549,215.3
189.2921,20.3
189.3548,113.4
189.3711,690.9
189.387,102.1
189.3904,339.8
189.4214,385.6
189.518,105.7
189.631,89.3
189.6848,164.8
189.7266,553.3
189.9432,379.7
189.9995,90.8
190.0092,111.4
190.0463,305.4
190.0526,119.3
190.0762,134.3
190.0904,182.7
190.2959,22.3
190.3968,20.2
190.4154,236.7
190.4706,453.5
190.6771,126.6
190.8417,662.4
190.9038,168.4
190.9122,1492.3
190.9194,721.8
190.9445,55.2
190.9781,119.4
190.9924,149.7
191.0006,155
191.0082,7481.7
191.0405,139245.3
191.0769,22548.9
191.1725,97
191.1769,64.7
191.1809,437.2
191.2479,87.8
191.3014,46.9
191.392,246.1
191.4292,175.3
191.5047,520.8
191.5065,558.6
191.6425,120.2
191.6664,410
191.6831,143
191.6882,414.1
191.6911,170.8
191.7531,18.8
191.8304,133.3
191.851,191.8
191.8916,383.8
191.8979,18.3
191.9134,97.8
191.9354,124.9
191.9826,1620.7
192.0047,234.9
192.0122,388.1
192.04,14850.3
192.0438,4034.1
192.0574,95.4
192.1685,122.3
192.2378,136.3
192.2596,18.2
192.2782,626.9
192.311,191.5
192.4222,17.3
192.569,50.6
192.6197,659.9
192.6903,691.1
192.6958,91
192.7937,137
192.8282,491.6
192.8974,266.1
192.9288,144.3
192.9615,419.2
192.9654,20.4
192.9988,5273.7
193.0352,6367.6
193.0444,417.2
193.0785,697.5
193.0915,98.9
193.1389,201.6
193.1449,151.1
193.1618,18.3
193.1942,458.8
193.2191,354.6
193.2659,114.2
193.2858,511.5
193.3945,399.5
193.4152,385.8
193.4268,22.9
193.4374,355.8
193.5084,91.2
193.6888,705.3
193.766,109.4
193.7865,356.9
193.9108,228.3
193.9451,482.5
193.9982,2329.3
194.0053,1658.9
194.0103,567
194.0222,420.6
194.0328,1498.7
194.0596,481.9
194.0985,136.2
194.1091,19
194.1331,625.9
194.1542,50.1
194.2532,114.9
194.2586,745.5
194.3095,236.3
194.408,107.7
194.547,258.2
194.5629,625.6
194.5839,343.1
194.588,234.1
194.6552,292
194.6654,330.5
194.7648,298.3
194.7673,602.6
194.7783,42.3
194.7916,121.9
194.8389,109.8
194.8927,680.3
194.9402,18.1
195.0104,169.1
195.1213,325.6
195.1965,878.3
195.2375,543.4
195.2427,19.2
195.2613,18.5
195.3287,116.1
195.3369,437.4
195.4706,1203.4
195.4792,205.9
195.6032,144.8
195.6695,108.6
195.7024,814.3
195.7502,519.8
195.8136,42.6
195.8582,176.9
195.9697,381
195.9731,18.4
196.0377,42.3
196.0793,176
196.0908,19.4
196.0989,92.5
196.1667,416.4
196.1698,294.9
196.2094,41.9
196.2228,164.5
196.2282,106.6
196.2588,102.1
196.2651,756.4
196.3174,17.3
196.4496,114.7
196.5055,151.1
196.5471,279
196.6627,46.6
196.7396,149.9
196.8611,139.7
196.8653,6468.7
196.8686,1399.4
196.8779,1746.6
196.9158,724.6
196.9271,165
196.9376,132.5
196.9796,485.4
197.0122,126.5
197.0822,17.7
197.1514,318.8
197.2164,21.7
197.22,586.9
197.2301,142.7
197.2389,19
197.2796,620.8
197.322,243.9
197.3357,49.7
197.4045,242
197.417,46.6
197.4253,805.3
197.532,19.8
197.5335,20.1
197.5815,244.8
197.5873,96.9
197.6763,145.4
197.7594,297.5
197.7666,274.1
197.8057,258.8
197.966,20.1
198.0071,28.8
198.0852,7871.8
198.1161,135.5
198.1855,6512.5
198.2941,463.5
198.3002,445.2
198.354,663.1
198.5013,372.2
198.5025,443.9
198.5036,383.5
198.5284,113.8
198.6714,570.9
198.6763,137
198.7554,18.6
198.7943,102.8
198.8623,6210.7
198.878,440.5
198.9468,89.7
198.9737,60.2
198.9814,103.9
199.0063,44.6
199.0168,20
199.0309,95.7
199.0691,1347.1
199.0755,930.8
199.0804,165
199.0932,234
199.1888,259.8
199.2632,106.6
199.2878,331
199.439,95.5
199.4689,144.8
199.5613,331.4
199.5747,118.4
199.5808,308
199.7618,731.9
199.7945,422.1
199.8732,515.6
199.9244,126.9
199.9765,18.7
199.9909,29885.3
199.9984,296.3
200.0151,392.1
200.0328,313.3
200.0408,12341.7
200.0502,204.5
200.0619,130.4
200.0854,129.3
200.0997,11175.9
200.1529,353.3
200.1654,146.3
200.2132,693.7
200.2176,18
200.2893,542.7
200.2994,394.4
200.379,174.3
200.3996,305.1
200.488,630.5
200.5864,118.6
200.6022,127.9
200.6334,45.4
200.7155,589.3
200.747,605.9
200.775,244.6
200.8488,542.2
200.859,490.3
200.878,25.6
200.905,355.9
200.9268,117.1
200.9487,185.2
200.9614,551
201.0064,18.8
201.0172,273
201.0549,239.1
201.0871,727
201.0938,102.5
201.317,213.4
201.3322,117.3
201.4865,266.4
201.5074,174.5
201.5532,293.1
201.731,126.7
201.7343,233.5
201.7916,438.7
201.8318,138.3
201.8879,18.6
201.9234,689.2
201.9406,113.6
202.012,17
202.0803,494.7
202.0847,126.4
202.2209,349.5
202.2917,340.5
202.3192,343.8
202.3704,196.9
202.3748,344.6
202.4432,211.5
202.4507,508.6
202.4573,361
202.4767,15040.7
202.4909,397
202.5193,121.4
202.5321,120.5
202.5805,820.7
202.6113,313.7
202.7105,99
202.734,131.8
202.781,477.5
202.7945,314.2
202.853,111.9
202.8805,473.6
202.886,1561.1
202.9695,114
202.9782,463.2
202.9904,392.1
203.0025,140.6
203.0319,1775.2
203.04,497.9
203.0405,504.9
203.0529,1433043.8
203.0689,315.3
203.0769,7482.7
203.1243,319.1
203.1706,224
203.1865,103.2
203.1896,101.6
203.2415,304.2
203.5216,393.3
203.5303,505.4
203.5523,111.9
203.6346,168.8
203.7483,145.1
203.7735,129.3
203.8375,168.4
203.8478,537.1
203.8817,112.1
203.9286,100.6
203.9312,18.9
203.9457,111.4
204.0246,40909.8
204.0562,73470.6
204.0639,304
204.0808,154.3
204.087,480.8
204.1539,190.1
204.1829,102
204.2857,200.9
204.3091,762
204.3416,469.5
204.421,185.3
204.4448,548.9
204.5387,101.5
204.5485,201.4
204.5673,405.9
204.6016,108.5
204.6302,284.3
204.8473,200.8
204.8689,145.7
204.9601,23.3
205.0177,336.6
205.028,301.9
205.0571,11326.7
205.0599,427.6
205.0684,2305.5
205.084,45
205.09,287.8
205.0925,500
205.1154,400.2
205.1481,19.2
205.1748,129.7
205.2585,16.9
205.2705,92.8
205.3073,112
205.3301,196.2
205.3428,17.5
205.4802,243.6
205.5787,443.5
205.6173,319.9
205.6847,20.1
205.7057,339.3
205.7255,137.8
205.7863,212.2
205.8238,167.3
205.8277,382.9
205.8344,295.1
205.8673,168.4
205.8824,235.5
205.9017,17.5
205.9049,97.9
205.9275,220.1
205.9486,103.5
206.0007,129.3
206.0555,1562.7
206.4074,125
206.5238,103.2
206.5399,19.2
206.5589,264.5
206.6393,112
206.7652,221.5
206.8008,230.4
206.852,253.8
206.8942,17648.9
206.9388,693.9
206.9823,3730.5
206.9924,20.5
206.9964,528.3
207.0105,23.3
207.0145,88377.7
207.0443,1358.7
207.0509,12106.2
207.2334,130.2
207.4537,127.5
207.4725,362.2
207.4943,347.7
207.5738,271.1
207.5805,293.6
207.6033,219.3
207.6292,154.8
207.6908,436.4
207.7203,42.4
207.7251,253.5
207.7533,294.9
207.8848,142.6
207.912,378.1
208.01,266.8
208.0139,2856.9
208.0178,3652.8
208.0573,45.6
208.1375,17.2
208.1859,108.8
208.2345,42.2
208.2618,127.2
208.3752,18.3
208.3985,404.2
208.4755,242.5
208.5617,457
208.5735,297.6
208.6053,633.4
208.7758,18.5
208.8253,673.9
208.836,283.1
208.8834,87.5
208.8912,9662.7
208.9357,922.7
208.9554,41.4
208.9658,21.1
209.0127,3194.5
209.0175,209.9
209.0675,203.5
209.1608,100.2
209.1775,231.8
209.5142,381.9
209.6719,17.6
210.4136,18.5
210.6324,226.9
210.6679,127.4
210.6833,123.8
210.687,252.8
210.7804,765.2
210.8016,225.8
210.8049,203.5
210.8689,259
210.8775,96.9
210.9357,647.2
210.9879,644.3
211.0272,153.4
211.0535,895
211.0572,557.8
211.0692,2363.5
211.0979,131.8
211.1232,548.3
211.1337,1241.2
211.1363,1595.2
211.1396,3735.1
211.1464,14529.8
211.1501,25999.1
211.1544,35732
211.1571,28337.5
211.1602,20731.8
211.1673,855.9
211.1941,20
211.2073,236.3
211.2168,171
211.2941,206.4
211.3507,424.1
211.53,285.8
211.6133,261
211.6215,128.1
211.6543,433.5
211.6885,376.6
211.6961,255.7
211.7185,667.1
211.8559,172.8
211.8872,18.5
211.9052,140.1
211.9493,613.2
211.9802,359
211.995,301
212.0742,138.2
212.0834,264.2
212.103,283
212.166,486.7
212.2555,126.3
212.4876,136.4
212.53,200.8
212.5413,132.2
212.55,125.7
212.5777,18.8
212.7587,210
212.7884,241.5
212.8041,355.9
212.8392,1489.2
212.8426,406.8
212.9111,234.9
212.9571,297.6
212.9787,951.5
213.0548,936
213.0749,562.6
213.1913,126.7
213.2129,698
213.5584,109.9
213.6886,144.8
213.8354,691.6
213.8454,1042.5
213.9096,354.2
213.9166,389
213.9598,138
213.9621,97.1
213.985,890.7
214.0067,1179.9
214.0326,210.2
214.044,411.3
214.0592,10023.2
214.0899,930.2
214.1051,218.9
214.1531,97.5
214.1637,345.5
214.2199,161.9
214.242,144.6
214.3023,108.5
214.3129,367.7
214.3596,221.5
214.3716,332.9
214.3842,18.1
214.5151,456.4
214.5235,694.1
214.6386,117.5
214.664,579.9
214.7336,394.2
214.7422,196.9
214.8362,1513.7
214.8607,221.7
214.9176,1300.6
214.9235,236.8
214.9361,100.6
214.9493,529.6
214.9524,20.6
214.9964,293.3
215.0517,114.2
215.0932,36.9
215.2473,275
215.2991,403.5
215.3201,242.8
215.4631,175.6
215.4954,524.8
215.5159,317
215.5384,43.8
215.5603,116.8
215.7266,144.7
215.7347,113.7
215.7479,19.6
215.9648,322
215.9788,390.7
216.0149,8019.4
216.0174,2536.6
216.027,18.2
216.0607,333.9
216.0659,664.8
216.0924,578.4
216.1518,18.9
216.2782,383.8
216.3529,19.7
216.4184,92.2
216.4604,352.6
216.6152,114.1
216.697,93.2
216.7206,114
216.8337,384
216.9145,19.3
216.923,48800.1
216.9323,101.9
216.9663,377.4
216.9877,117.5
216.9939,637
217.0271,44.3
217.0671,291.9
217.082,402.4
217.1891,774.4
217.2184,105.7
217.2226,364.6
217.3113,306.1
217.3647,19
217.3675,533.9
217.4305,329.4
217.4907,134.1
217.5057,96.4
217.5634,627.3
217.6865,18.9
217.7074,176.5
217.824,117.3
217.8586,102.5
217.9212,241.1
217.9975,771.2
218.013,418.1
218.1169,194.1
218.1516,34.6
218.1675,282.9
218.1706,218.7
218.3191,117.2
218.4086,199.9
218.427,282.8
218.4605,149
218.4729,465
218.5291,16.9
218.6028,276.9
218.7149,270.5
218.8735,118.7
218.8857,524.4
218.92,12843.7
218.9795,294.4
218.9843,156.8
218.9957,149.7
219.0179,2072.2
219.0268,1629695.1
219.0316,1137.5
219.0557,93.4
219.073,330.2
219.0831,7645.4
219.1136,121.7
219.1683,424.6
219.2247,185.2
219.4186,144.6
219.4878,354.6
219.5,327.9
219.5505,409.3
219.6003,107.4
219.7527,118.4
219.8143,283.5
219.8443,350.8
219.9097,111.7
220.0302,87066.3
220.0373,1527.9
220.067,12648.6
220.1104,152.5
220.1674,458.2
220.2462,530.6
220.2647,426.6
220.3085,129
220.3616,118
220.4404,845.1
220.4938,128.2
220.5358,134.3
220.6282,270.9
220.6894,176.5
220.7913,147.8
220.8164,188.4
220.9349,637.2
220.985,635.1
221.0249,96813.2
221.0311,13735.4
221.0425,1545.7
221.0512,1812.6
221.0846,249.8
221.088,401.1
221.2518,417.2
221.3152,252.1
221.3227,134.1
221.4024,95.7
221.477,274.2
221.4813,151.4
221.5139,106
221.6431,392.3
221.6678,158.5
221.9426,261.9
221.9565,242.3
221.9664,96.2
221.9838,1538.7
221.99,135.1
222.0281,2472
222.0518,671
222.0966,693.5
222.155,118.6
222.2251,462.6
222.402,433.8
222.409,134.2
222.6342,220.7
222.7283,140.8
222.7778,674.1
222.8011,289.7
222.83,160.2
222.8538,643.1
222.8681,15363.7
222.8794,652
222.899,21
222.9407,240.2
222.9884,9756.4
223.0241,281.2
223.0375,336
223.0808,97.4
223.1222,104.6
223.2839,147.4
223.327,97.3
223.3363,822.6
223.3384,424.1
223.3542,18.1
223.3789,224.6
223.4101,133.2
223.5564,131.3
223.5896,110.1
223.6117,20.3
223.6203,630.6
223.6406,218.4
223.6836,248.2
223.699,122.6
223.7509,219.1
223.7708,17.3
223.8288,21.5
223.9143,308.7
223.9225,404.5
223.9533,77.6
223.9696,202.2
224.01,278.6
224.0177,625.3
224.0514,208
224.0635,579.2
224.3622,344.7
224.545,132.4
224.6201,117.1
224.6545,362.5
224.6588,300.4
224.7099,467.3
224.7285,184.5
224.7913,373.2
224.7992,112.8
224.8314,690.6
224.8651,9528.4
224.9742,390.4
224.9937,43.1
225.0281,18.7
225.043,23
225.055,25185.5
225.0696,472.7
225.0851,770.2
225.281,175.6
225.3206,319.3
225.392,129.8
225.4056,139
225.4984,122.7
225.5334,387.5
225.8297,19.4
225.8385,669.9
225.8862,361.6
225.902,133.5
225.9205,396.1
225.9599,1055.7
225.9856,564.7
225.9913,579.8
226.0022,80.4
226.0067,2200.4
226.0244,14764.1
226.0295,103.4
226.0454,12358.4
226.07,16.6
226.0738,92.4
226.1048,369.7
226.1234,145.7
226.1322,343.1
226.1389,237.1
226.1742,488.4
226.1798,138.4
226.2258,396.2
226.2851,196.2
226.3354,311.1
226.354,709.9
226.4473,138.9
226.4672,127.1
226.5051,231.9
226.5392,728.3
226.5457,371.2
226.5506,142.7
226.6429,264.3
226.6535,105.8
226.6898,264.1
226.7023,18.5
226.8013,416.5
226.8621,510
226.9518,50500
227.0343,789
227.0438,644.8
227.049,372.8
227.0796,734.5
227.0865,313
227.1038,270.2
227.1207,664.4
227.2137,156.8
227.273,442.9
227.2846,132.6
227.3429,113.1
227.536,258
227.6266,416.1
227.7774,473.6
227.7825,690.3
227.924,276.3
227.9549,753.5
228.0005,344
228.0221,802
228.0547,235.7
228.0648,115.7
228.0751,20.8
228.1049,20.1
228.1196,17.4
228.3977,598.9
228.468,334.2
228.6261,118.6
228.7223,107.6
228.779,20.5
228.8016,463.6
228.8094,121.7
228.8128,353.4
228.8225,149.7
228.9013,142
228.9262,304.5
228.9383,141.3
228.9462,18.8
229.0345,432.8
229.2045,125.5
229.2791,348.4
229.2935,125.3
229.376,398
229.3843,229.2
229.4612,100.8
229.5405,281.2
229.7347,216.9
229.7549,133.9
229.8021,392.1
229.8164,226.3
229.8226,247.2
229.9393,350.6
229.9572,434.7
229.9847,138.9
230.0334,226.7
230.0574,407.6
230.1103,644.2
230.1137,407.7
230.2329,404
230.2809,150.7
230.3544,428.2
230.4409,523
230.569,708.6
230.5995,200.3
230.6088,150.9
230.6306,19.1
230.6498,385.6
230.7115,45.6
230.8019,197.5
230.8102,604.1
230.8691,304.1
230.8899,30.8
230.9378,541.1
230.9647,55
230.9905,78.8
231.0054,228.4
231.0557,17.9
231.087,165.5
231.1182,299.6
231.1216,132.8
231.1575,452.3
231.2536,667.5
231.4433,18
231.4836,783.7
231.5119,664.4
231.6508,231.6
231.749,17.3
231.8129,206.2
231.9363,437
231.9483,327.3
231.9541,125.9
231.9753,107.5
231.9859,154.1
231.9953,351.7
232.107,435.5
232.1173,105.4
232.1237,17.9
232.1364,390
232.2023,295
232.2762,18.4
232.2849,91.6
232.3186,19.2
232.335,122.5
232.4446,19.6
232.4803,147.9
232.515,179.5
232.5613,653.7
232.6503,91.9
232.7122,248.8
232.8159,349.2
232.8969,47099.5
232.9141,293.3
232.9359,345.5
232.9506,39.8
232.9858,647.3
232.9891,129.1
233.0147,635.8
233.0512,7307.3
233.1303,18
233.4113,299.8
233.4834,23.8
233.5003,287.9
233.581,133.6
233.597,114.6
233.7033,169.2
233.7785,664.5
233.8397,449.8
233.9004,574.6
233.9631,92.3
234.0025,208
234.1295,140.3
234.2934,319.8
234.3013,274.5
234.3454,494.5
234.3517,282.1
234.5509,483.8
234.6222,289
234.8049,431.9
234.8938,12184
234.9819,5706.9
234.9923,22.7
235.0426,126.3
235.0493,673.9
235.057,3165.7
235.0668,1128.7
235.0928,22108.7
235.1413,352.9
235.1517,116
235.2368,19.5
235.2494,105.3
235.3518,84.7
235.3789,147.3
235.5114,107.1
235.7716,464.1
235.833,243.2
235.8406,139.4
235.9242,108.3
236.017,20.8
236.041,8507.7
236.0719,44471
236.0878,201.5
236.0961,899.5
236.1148,756.7
236.1309,18.7
236.1399,669.2
236.1713,632.3
236.2652,107.6
236.4697,286.7
236.5216,132.3
236.5501,200.6
236.6274,257.4
236.6911,389.2
236.7018,681
236.8919,665.1
236.8988,495.2
236.9545,779.5
236.9573,383
237.0064,353.7
237.0523,135.3
237.0715,46.9
237.0752,1429.1
237.0937,468.1
237.278,256.2
237.4092,356.5
237.4126,233.4
237.4804,122.7
237.5228,460.1
237.707,112.5
237.7106,684.6
237.8607,141.8
238.0384,101.8
238.0676,518.5
238.0778,26.3
238.3161,122.5
238.3921,374
238.4493,466.3
238.5878,144.2
238.7465,443.4
238.8256,355.8
238.8421,6159.2
238.853,773.1
238.8606,16.9
238.8885,343
238.9234,304.1
239.0092,24.8
239.0212,237.3
239.0469,135.1
239.0514,354.5
239.0641,310.8
239.0681,701.8
239.0725,23
239.1111,460.1
239.1939,140.7
239.2104,791.9
239.2725,216.8
239.3242,148.7
239.4454,131.4
239.4622,20.7
239.4817,377
239.5852,20.1
239.597,216.9
239.9762,403.8
239.9878,23.4
240.0309,208.6
240.0616,191
240.1055,456.4
240.1215,48.4
240.1263,746.6
240.2144,116.3
240.2971,189.5
240.5209,674.5
240.5368,747.1
240.5798,131.4
240.5832,108.4
240.6034,393.2
240.7164,140.4
240.7276,398.3
240.7485,184.6
240.8391,3655.3
240.8498,436.6
240.9548,2615.4
240.9675,1216.5
240.9723,250.6
240.991,372.7
241.0089,377
241.0317,740.6
241.121,324.6
241.1384,340.5
241.1698,125.9
241.2816,19.6
241.287,856.2
241.2934,188.6
241.2975,21.3
241.3492,403.6
241.3952,223.5
241.5379,787.1
241.631,247.7
241.6389,99.6
241.6451,216.5
241.8113,17.9
241.8981,290.3
241.9294,394.2
241.98,47.5
241.9983,2115.4
242.0193,5314.5
242.0268,221.8
242.1128,738.9
242.1949,526.3
242.2456,18.5
242.3062,105.7
242.361,121.1
242.3918,445.3
242.6398,17.9
242.8168,402.4
242.8304,45
242.9257,27494.6
242.9842,193.4
243.0065,93.9
243.0334,313
243.0534,4654.2
243.0656,9196.1
243.0823,162.4
243.1959,42.8
243.2876,398.6
243.2966,187.1
243.3529,180.2
243.3917,19.7
243.4885,291.7
243.5054,122.6
243.5378,126
243.598,273.5
243.7777,317.4
243.8303,682.3
243.871,110
243.8965,330.7
243.9727,281.8
244.0128,322.6
244.0472,450.4
244.0699,116.3
244.0774,340.8
244.0834,678.5
244.109,473.5
244.1229,161.5
244.129,97.8
244.1945,93.2
244.2675,736
244.2735,231.6
244.324,772.9
244.3884,404.1
244.447,22
244.5985,215.2
244.7628,390.9
244.8709,9782.1
244.9239,784.1
244.9835,290.4
244.9853,279.8
245.0057,18.7
245.0282,149.7
245.0355,17.1
245.1371,297
245.5457,469.7
245.6438,379.2
245.7514,349.9
245.7831,43.4
245.8159,193.8
245.9576,160.1
245.9775,18.6
246.0015,298.6
246.011,26.2
246.0292,625.8
246.0386,18.8
246.1705,109.7
246.2315,473.7
246.323,128.4
246.3804,19.1
246.4103,727.3
246.4679,275.8
246.5375,137
246.7577,731.5
246.7839,541.2
246.868,3218.4
246.9005,121.5
246.9487,19.1
246.9757,525.3
247.0368,1619.8
247.0669,427
247.0822,18.3
247.0929,5983.1
247.1075,260.2
247.2342,303.2
247.3285,210.1
247.9474,163.6
248.0958,25
248.1244,13299.5
248.1605,434.7
248.1923,20.9
248.2198,279.8
248.2457,212.1
248.3805,127.4
248.6702,419
248.737,449.1
248.871,12226.7
248.9307,643.5
248.9433,406.9
248.9598,4589.6
249.0078,196.2
249.0164,591.1
249.0227,227.1
249.0354,541.4
249.0614,15275.6
249.1088,112.9
249.122,125.5
249.1272,297.1
249.3003,491
249.5057,18.7
249.5956,796.7
249.6873,568.6
249.8224,285.4
249.8528,127.5
249.9742,422.7
250.0013,94.9
250.0197,22.8
250.0381,19.4
250.0505,24.2
250.058,388.4
250.0648,563.9
250.2268,97.2
250.291,23.7
250.4368,163.7
250.5711,406.3
250.5775,143.7
250.5889,721.2
250.6083,322.7
250.71,44.9
250.8022,256.9
250.868,2823
250.9205,3056.5
250.9558,1774.1
251.0007,119.1
251.0345,885
251.0654,135.1
251.0952,231.1
251.1171,139.3
251.1283,17
251.1494,83.3
251.4083,404.8
251.5881,17.4
251.5935,303.7
251.7467,638.4
251.7626,209.7
251.7739,599.5
251.8586,19.4
251.8649,662.4
251.9136,738.1
252.015,1103.7
252.0374,168
252.0459,103125.3
252.0796,22.8
252.0958,350.9
252.1247,168.3
252.1536,19
252.2449,317.9
252.2503,114.9
252.3484,804
252.4031,135
252.4448,17.7
252.7156,371.1
252.7617,309.7
252.7723,422.5
252.9178,719.6
252.9386,18.6
252.9715,196
252.9922,132
253.0116,430.6
253.0493,9181.1
253.0677,138.6
253.3014,225.5
253.378,401.9
253.4004,327.5
253.526,250.7
253.6426,111.9
253.8039,16.6
254.0015,17.5
254.0337,616.5
254.0436,3276
254.0696,35.6
254.2562,361
254.5489,362.3
254.5952,568
254.6566,131.4
254.7907,284.7
254.8161,2898.4
254.8242,6280.1
254.8995,685.8
254.9647,372.3
254.9705,502.3
255.0332,23578.6
255.0383,278.1
255.0468,515.6
255.0518,209.5
255.0726,94.9
255.1725,129.7
255.1948,190.7
255.2045,103
255.2236,638
255.2553,509.5
255.3476,380.9
255.3907,717
255.4462,20.3
255.5174,532.2
255.625,269.4
255.6738,114.7
255.7161,386.7
255.7556,418
255.856,22.4
255.8863,166.8
255.9787,1200.7
256.0185,852.7
256.0584,151.3
256.1173,351
256.1224,770.4
256.1564,732.8
256.2104,207.3
256.2147,220.7
256.5222,222.6
256.6002,19.4
256.659,433.8
256.6753,502.5
256.74,20.1
256.8211,9348.6
256.8925,516
256.9326,696
257.0489,5943.7
257.0648,246.3
257.0694,135.1
257.0748,59806.8
257.0814,173.7
257.1923,145.3
257.2499,147.4
257.4217,465.5
257.497,471.9
257.6557,194.8
257.6569,273.2
257.6583,205.1
257.7866,382.6
257.8423,192.4
257.8629,220.9
257.9007,19.9
257.9694,18.5
258.0031,18.6
258.0147,231
258.0305,31.8
258.0743,229.9
258.0783,3119.5
258.1105,19302.3
258.1316,490.6
258.148,105.1
258.1996,369.1
258.2215,21.4
258.3854,676.7
258.5607,145.2
258.6325,232.5
258.8181,3611.3
258.886,367.2
258.8999,4221.9
258.9439,800.1
258.9928,18.9
259.0285,851
259.037,20.8
259.0763,106.3
259.1106,420.8
259.1565,372.3
259.1801,236.9
259.1872,819.7
259.1927,705
259.2678,559.3
259.3473,24.3
259.4456,204.1
259.483,18.8
259.5099,180.9
259.6487,325.2
259.6812,179.7
259.8582,514.9
259.8709,456.3
259.9646,559.5
260.0062,160.1
260.0107,236
260.017,59.2
260.0513,192.2
260.0617,100.6
260.2139,136
260.2544,516.5
260.2823,150
260.3287,385.6
260.4668,183
260.4968,777.7
260.815,537.9
260.8451,3597.3
260.9037,140.3
260.9493,9263.1
261.0275,138.3
261.0479,297.3
261.0669,126.7
261.1682,99.8
261.177,325.5
261.2393,384.5
261.3304,381
261.3986,17.5
261.4426,375.3
261.49,120.6
261.5403,313
261.6393,669.6
261.8437,17.9
261.8837,241.1
261.9673,248.9
262.0543,385.1
262.0699,121.8
262.0819,1544.3
262.2425,21.5
262.2526,372.1
262.2775,827.8
262.2973,136.3
262.2991,158.1
262.3006,159.3
262.3067,94.5
262.3824,313
262.554,367.7
262.7534,867.2
262.842,417.2
262.9033,138.3
262.924,266.1
262.9465,3029.9
262.9917,20.3
263.013,1015.7
263.0619,23.9
263.0852,5283.5
263.1714,22.2
263.2396,314.8
263.4022,493.4
263.4714,22.1
263.4796,164.3
263.5023,156.1
263.5275,22.8
263.5684,413.2
263.6292,609.6
263.6811,144.4
263.6907,173.5
263.796,21
263.8107,200.7
263.843,329.6
263.9469,110.5
263.9548,835.1
264.0376,115.6
264.1984,139.4
264.331,99.4
264.3839,427.1
264.4724,203.8
264.665,266.9
264.8253,325.6
264.8448,2253.8
264.853,4072
264.8694,321.2
264.9339,4379.8
264.9734,378.1
264.9885,49.7
265.0166,270.2
265.0232,747.1
265.0354,9907.2
265.0477,3288.1
265.0543,621
265.0653,357.1
265.1418,20.5
265.2229,20.2
265.2751,444.7
265.356,796.7
265.4312,317.2
265.4609,98.5
265.4862,507.6
265.5957,228.9
265.7128,22.9
265.7618,342.5
265.7797,328.3
265.996,25.4
266.0665,103.3
266.1051,643.1
266.1583,440.7
266.1872,709.8
266.2199,415.5
266.4713,182.2
266.5019,358.8
266.6731,248.4
266.7723,321
266.8428,739.4
266.8499,5170.1
266.8945,3067.3
266.9118,19.3
266.9348,680.2
267.0136,131.8
267.0334,363.6
267.1024,120.6
267.1636,935.6
267.2675,375.1
267.469,196.9
267.6473,1563.2
267.6559,298
267.7162,137.3
267.727,331.5
267.7391,247.7
267.7459,440.4
267.7657,97
267.7916,40.2
267.918,676.4
267.9939,21
268.0316,871.6
268.0516,18.8
268.0862,20.1
268.1171,18.6
268.3069,263.4
268.6177,797.2
268.6559,227.2
268.7931,397.4
268.8467,1108.2
268.8914,1966.6
269.0124,114.4
269.0325,100.3
269.0452,15763.2
269.0489,36477.8
269.0647,242.5
269.0749,204.8
269.0989,341.8
269.1387,246.3
269.2725,227.7
269.4378,456.7
269.7199,294.2
269.7828,23.3
269.8399,131.6
269.8622,149.9
269.8731,925
269.9392,265.9
269.9524,29.9
269.994,1439.5
270.025,980
270.0312,19.3
270.0476,30589.4
270.0524,339.3
270.1228,134.3
270.145,1065.1
270.1691,19.6
270.2392,23.2
270.3961,97.9
270.4485,306.2
270.6418,1417.6
270.6525,179.6
270.6576,307.7
270.7615,21.9
270.7878,107.2
270.798,3788.8
270.8401,41.8
270.9318,24.4
270.9546,213.4
270.9599,151
270.9782,22103.8
271.0281,59.2
271.0522,926.9
271.0643,357.9
271.071,131.4
271.0782,644.5
271.0906,661.6
271.2388,139.9
271.3342,102.5
271.4673,431.3
271.5577,111.1
271.6312,306.7
271.7173,19.8
271.7488,126.4
271.7714,256.7
271.7955,44.1
271.8158,149
271.8193,161.5
271.8287,625.6
271.8666,273.8
271.8925,377.3
271.9485,388.5
271.9525,796.3
271.9579,112.5
272.0433,118.2
272.0805,272.3
272.0946,252.1
272.1161,813.7
272.1375,115.7
272.1416,223.6
272.2607,248.6
272.2801,377.5
272.3714,102.4
272.4477,296.1
272.5125,133.1
272.5247,243.1
272.5913,388.1
272.6543,279.7
272.7951,4252.2
272.8552,250
272.891,19.8
272.9462,525.6
272.9497,141.2
272.954,112.3
272.9556,149.2
272.9603,675.5
273.0207,550
273.0488,6590.6
273.2076,174.7
273.2201,417.2
273.2294,477.2
273.3013,146.5
273.6605,267.6
273.6962,251.4
273.844,216.8
273.8781,260.2
273.8903,287.2
273.9614,163.7
274.0516,417.3
274.0693,285.7
274.0926,2436.1
274.2374,456.7
274.2425,664.3
274.2439,661.5
274.2461,409.2
274.3627,246.2
274.4142,18
274.4763,131.9
274.5209,318.6
274.7351,24.6
274.792,2556.9
274.9097,154.5
274.942,564.1
274.9811,115.7
274.9867,49.2
275.0022,594.8
275.0386,130.9
275.1139,18.5
275.1593,136.7
275.2573,98.2
275.2846,256.1
275.3038,18.8
275.3278,446.6
275.3405,462.4
275.3962,650.7
275.4273,62.3
275.7207,328.9
276.0027,992.7
276.0245,97.5
276.0848,84
276.0894,98.2
276.098,470.2
276.1353,291
276.1691,386.6
276.2749,21.6
276.4293,161
276.4755,20.3
276.5096,352.5
276.8195,364.5
276.8833,201.2
276.8969,688.2
276.9232,10073.6
276.9501,144.6
276.9859,376.1
277.0649,40.7
277.1126,94.8
277.2051,40.3
277.2271,179
277.2632,176.4
277.2845,525
277.3934,122.2
277.5635,47.5
277.5914,389.8
277.6486,661.1
277.7759,42.3
278.0004,52
278.0192,478.4
278.3816,141.8
278.5046,158.2
278.5177,107.7
278.6128,192.4
278.7465,247.8
278.8932,1503.7
278.9201,1153.4
278.9875,2201
279.0224,23
279.0569,34620.4
279.0699,360.3
279.188,234.8
279.2304,495.6
279.2521,20.8
279.2972,245.3
279.3198,403.1
279.5343,161.7
279.5525,226.1
279.575,282.4
279.5819,18.5
279.6411,520.7
279.6757,317
279.8208,47.3
279.824,238.3
279.8271,259.6
279.8365,1098.3
279.8429,853.8
279.8691,416.6
279.8738,20
279.978,348.2
280.0159,289.9
280.047,226.3
280.0603,1264
280.0702,174.9
280.1759,124.8
280.2195,272.7
280.3072,44.6
280.3173,159.7
280.3628,749.9
280.4578,250.9
280.5036,96.4
280.628,46.2
280.8268,2180
280.8378,352.1
280.8467,323.4
280.8754,200
280.9314,682.5
280.9626,1313.5
281.01,1543.8
281.0515,361.4
281.058,432.9
281.0692,236.7
281.395,122.6
281.4056,344
281.5593,850.1
281.6613,259.6
281.7233,403.8
281.8867,367.9
281.9137,48.4
281.9635,219.8
282.0148,211.7
282.0649,436.7
282.1198,158.6
282.1384,24
282.1871,144.3
282.2393,606
282.2605,52.3
282.3328,978.5
282.3631,185
282.4787,176.3
282.5208,128.9
282.5419,242.7
282.5948,473.4
282.6224,460
282.6281,295.1
282.6499,292.4
282.7216,352.8
282.824,1200.1
282.8474,372
282.8687,923.9
282.8932,21.4
282.9056,27.4
283.0655,30.6
283.3645,302.3
283.4376,47.1
283.6807,126.6
283.7649,231.1
284.0498,30.9
284.0539,48
284.0632,175.1
284.1749,151.9
284.228,24.5
284.3543,297.4
284.3993,110
284.4524,709
284.5438,220.5
284.6292,23.2
284.6352,21
284.6755,21.7
284.7604,216.6
284.7712,186.7
284.7808,215.3
284.8661,943.8
284.8942,23.8
284.981,530.4
285.0053,260.6
285.0383,151.5
285.0638,224.3
285.1239,5803.9
285.1671,662.7
285.3205,566.2
285.343,176.2
285.4599,188.8
285.5237,97.2
285.6495,158.4
285.6551,291.8
285.6908,468.1
285.75,352.8
285.8297,19.8
285.874,536.1
285.9682,605.7
286.0197,275.5
286.0993,344.4
286.1591,355.3
286.2293,125
286.2934,19.2
286.3485,149.5
286.3539,19.3
286.4865,99.4
286.7129,364.3
286.772,1941.2
286.8335,276.7
286.9521,10578.7
286.9743,19.2
286.9988,64
287.0556,35795.8
287.0716,153.2
287.1002,278
287.1641,48
287.2077,19.2
287.2269,122.1
287.3445,412.2
287.4954,114.5
287.6157,110.4
287.6396,124.9
287.7241,18.6
287.7404,141.7
287.8297,18.8
287.8363,443.2
287.8539,96.7
287.9111,115.4
287.9583,194.7
287.9801,257
288.0588,1564.4
288.0633,230.8
288.0841,397.7
288.0975,134.2
288.1268,323.3
288.1559,32169.1
288.2643,819.5
288.2997,139.5
288.406,230.6
288.705,488.4
288.7446,25.1
288.7524,301.2
288.7567,582.5
288.769,3419.6
288.8721,796.5
288.8742,613.6
288.8788,1372.2
288.8842,1663.5
288.8876,2087
288.898,5259.4
288.9037,7154.4
288.9102,10318.1
288.9143,6666.4
288.9186,9672.4
288.9197,9784.5
288.927,13047.1
288.9335,13256.2
288.9411,14280.8
288.9464,18453.6
288.9555,16085.2
288.9587,15183.5
288.9636,17934.3
288.9661,18668.1
288.9746,15732.3
288.9805,10885.3
288.9846,11185.3
288.9898,8979.8
288.9958,4216.5
288.9988,4126.5
289.0031,3793.6
289.0096,2113.1
289.0189,1254
289.0247,611.8
289.031,189.1
289.0364,174.8
289.0448,365.9
289.056,280.3
289.0618,20.5
289.0908,288.2
289.0922,276.3
289.0945,185.3
289.1595,1872.1
289.2311,237.1
289.2391,562.2
289.3082,248.9
289.361,295
289.4052,447.9
289.4168,360.7
289.4565,398.3
289.4696,116.3
289.6269,353
289.6336,308.9
289.6362,104.3
289.6531,312.2
289.6652,697.1
289.7056,291.8
289.8284,147.8
289.9288,248.4
290.0569,279
290.2236,188.2
290.3038,16.6
290.3276,699.3
290.3448,509.5
290.4982,214
290.5076,115.8
290.5273,438.5
290.7662,974
290.7854,466.5
290.8387,134.9
290.8559,858.3
290.8716,303.2
290.8787,19.4
290.926,138.9
290.9761,684
291.0171,102.2
291.0269,2159.4
291.0411,125.9
291.0708,789.1
291.0771,257.6
291.0903,684.9
291.1963,394.7
291.2374,45.5
291.253,268.5
291.3517,18.1
291.3988,234.7
291.4089,146
291.5831,96.8
291.7193,311.4
291.7364,103.6
291.7503,156.8
291.8042,19.8
291.8607,21.3
291.9162,156.8
291.9489,112.9
291.9851,109.9
292.0799,216.7
292.1029,1652.5
292.1224,158.9
292.1743,530.4
292.284,273.6
292.2914,364.5
292.3264,481.3
292.3724,106.6
292.5169,448.4
292.6027,137.1
292.6661,105.8
292.8976,812
292.9102,647.8
292.9414,658.2
292.9532,262
293.0066,120.1
293.0725,2906.4
293.0985,349414.8
293.1077,109.3
293.1234,115.5
293.1793,13387.1
293.2998,246
293.3391,22.7
293.38,108.5
293.517,244.2
293.5327,20
293.5437,329.9
293.6074,720.1
293.85,560.1
293.8668,397.4
293.8683,390.3
293.9126,139.1
293.9177,332
293.9895,321.6
294.0004,472.9
294.0646,270.1
294.0956,376.5
294.1019,29950.4
294.1827,203.5
294.2477,331
294.3419,128.5
294.366,145.5
294.5673,107.1
294.8954,314.9
294.9906,622.7
295.0112,470.8
295.0308,2441.8
295.1025,3002.4
295.16,271.6
295.195,40614.2
295.5823,285.4
295.606,20.6
295.6988,166.1
295.7247,215.7
295.739,543.2
295.7574,405.2
295.8246,293.8
295.8896,379.5
295.9934,49.8
296.0099,1727.1
296.0419,861.5
296.1132,196.3
296.1207,777.8
296.1287,16.6
296.1981,3433.6
296.2477,20.6
296.3575,19.6
296.4941,831.7
296.5368,124.6
296.6765,20.1
296.715,327.4
296.7228,155
296.7511,182.7
296.7808,602.3
296.7914,111.2
296.8011,443.6
296.9265,175.4
296.9364,314
296.979,18.6
296.9877,272.6
297.0774,732.4
297.0901,315.8
297.1244,1350.2
297.1411,143.5
297.1627,701
297.2278,446.4
297.276,206.5
297.2953,132.1
297.3465,519.3
297.4005,394
297.5362,411.5
297.7569,377.3
297.811,674.8
297.8498,203.8
297.8582,317
297.866,211.1
297.9463,115.1
298.0158,249.3
298.0254,1251.6
298.0426,16761.6
298.0556,130.4
298.1009,98.4
298.1587,856.5
298.1708,715.1
298.1917,173.6
298.2028,19.7
298.2108,21.8
298.3315,139.3
298.3818,97.1
298.4814,99.8
298.4899,142.4
298.5475,118.7
298.5671,404.6
298.7595,588.2
298.7982,452.7
298.9072,385
298.9863,157.5
299.023,1112.6
299.0458,691.2
299.1183,145.2
299.1395,22786.5
299.1966,1985.5
299.3996,236.8
299.437,731.3
299.4439,291.8
299.4954,931.1
299.5148,375.2
299.6981,700.6
299.8198,519.8
299.9504,410.1
300.0043,1617.5
300.013,18.2
300.0301,52.4
300.0383,241.2
300.0487,29.5
300.0755,480
300.0975,155.3
300.1425,795
300.1961,46
300.2013,279.9
300.2103,116.7
300.2356,210.8
300.2669,18.8
300.2721,152.3
300.5113,405.8
300.538,280.4
300.5632,124.7
300.5959,148.6
300.6089,132.5
300.6817,734.2
300.9622,127
300.988,719.9
301.0203,718.7
301.0389,21650.4
301.0972,150.6
301.1227,43.9
301.1415,252.6
301.2119,8904
301.2175,787.7
301.2564,301.2
301.2669,805.6
301.3313,18.5
301.3451,750.2
301.3747,297.7
301.4648,211.1
301.4963,204.5
301.5135,20.3
301.5447,285.6
301.6451,167.1
301.6732,398.3
301.8802,194.8
301.9772,334.2
302.0201,169.7
302.0351,32.1
302.0435,96
302.0642,5336.4
302.1272,153.9
302.1833,232.9
302.2855,138
302.4811,715.7
302.5144,801.8
302.6344,156.3
302.6664,438.7
302.6689,709.5
302.6765,572.4
302.6993,157.1
302.7414,538
302.7465,468.1
302.8295,4674.5
302.9147,100.1
302.9251,678.1
302.9493,179.1
302.9942,148.8
303.0473,214.2
303.0675,483.9
303.0749,1246.5
303.0868,668.2
303.2174,3091.1
303.2447,114.4
303.3021,286.7
303.3356,135.7
303.3496,117.1
303.3972,350
303.4481,161.6
303.4779,145.3
303.6307,143.5
303.653,18.8
303.9706,394.1
304.0598,199.2
304.0673,115.1
304.1765,766.6
304.1787,647.1
304.1813,572.4
304.2123,678.5
304.3011,131.8
304.3505,129.5
304.6062,120.6
304.666,117.7
304.7326,17.9
304.7529,168.7
304.8078,506.4
304.8269,1949
304.8887,46.1
304.8966,1307.4
304.9087,141.4
304.9286,340.3
304.976,516.2
305.0574,583.7
305.0836,272.8
305.2333,2548
305.3698,746.1
305.6256,17.1
305.8464,293.2
305.8635,96.2
305.9842,432.5
306.0955,151.9
306.3232,135.1
306.6814,287.6
306.7172,515.4
306.8256,139
306.915,18.5
306.9582,479.7
306.9774,7150.7
307.1723,574.3
307.2983,167
307.5404,798.2
307.5841,18.6
307.5957,385.2
307.6493,330.8
307.7156,45.6
307.7953,537.5
307.8002,135.4
307.826,275.8
307.8436,20.6
307.9981,439.6
308.0868,97.8
308.2073,271.7
308.2161,363.6
308.2567,175.8
308.2833,209.5
308.2914,19.1
308.3404,90.4
308.5554,22
308.6788,223.6
308.7886,381.6
308.8362,251.8
308.8791,3058.9
309.0063,333.8
309.0381,2098.1
309.0828,3737.5
309.1219,97.1
309.2913,176.3
309.5451,289.3
309.6725,527.6
309.683,457.7
309.6933,822.2
309.7467,575.1
309.7995,188.9
309.8105,299.1
309.82,419.6
309.8704,17.8
309.9963,618.6
310.0683,941
310.0991,183.6
310.1163,140.7
310.1432,21.2
310.3352,224.1
310.361,109.8
310.3738,125.7
310.3791,1039.8
310.4006,49.6
310.5121,282
310.6815,285.6
310.7191,318.1
310.8278,153.1
310.8763,2510.6
311.0033,191.5
311.0075,117.9
311.3441,508
311.3619,136.9
311.3732,97.2
311.4502,111.9
311.5934,125.1
311.6183,19.9
311.6921,93.4
311.7051,386
311.801,224.7
311.984,647.3
312.0415,2810.2
312.1799,422.5
312.227,225.1
312.2541,121.1
312.406,687
312.4216,257.3
312.4792,18.6
312.4997,136.5
312.5322,139
312.6619,133
312.7828,374.6
312.9263,256
313.0022,89.8
313.0363,1797.9
313.1584,346.4
313.2743,50729.7
313.5742,290.8
313.5976,22.2
313.9022,40.7
313.9445,477
313.957,23.2
313.9991,658.7
314.0149,310.9
314.0913,218.9
314.1243,116.9
314.2777,5068.2
314.3705,149
314.4639,142.3
314.502,167.3
314.6766,398.4
314.7653,16.6
314.7795,533.3
314.8096,127.9
314.8371,4915.7
314.9012,597.9
314.9784,171
314.9878,311
314.9992,6576.8
315.0182,26.8
315.0348,276.3
315.0436,503.3
315.0471,716.9
315.0555,7128.6
315.0598,3902.1
315.0619,5177.5
315.0639,5821.2
315.0668,18398.7
315.0699,23943.8
315.0735,19992.4
315.0805,7145451
315.0868,26558.4
315.09,14878.1
315.092,10917.2
315.0944,8561.5
315.0966,6018.2
315.0986,4715.1
315.1006,2280.2
315.1029,1135.2
315.1052,816.2
315.1073,1065.2
315.1088,794
315.1135,779
315.1178,868.5
315.1195,521
315.1261,267.2
315.128,150.3
315.1301,149.3
315.1409,188.7
315.1617,6531.7
315.2631,181.2
315.324,5549.8
315.5182,218.4
315.589,147.2
315.6218,145
315.7231,322.8
315.8288,141.1
315.8333,495.8
315.906,541.1
315.9476,404.5
316.0534,91.3
316.0677,2059.7
316.0777,40439.5
316.0837,744055.8
316.1111,354.2
316.2489,849.6
316.3343,111.5
316.4966,307.5
316.5158,762.9
316.6201,223.1
316.7184,20.6
316.9871,1877.1
317.0041,325.8
317.0128,392
317.0392,276.1
317.0565,236.5
317.0653,2578.6
317.0721,101.7
317.0843,84648.6
317.0881,16370.6
317.1271,695.1
317.1788,1133.9
317.1897,370.6
317.2813,142.3
317.4521,533
317.6566,158
317.7362,255.9
317.7496,22.1
317.7676,284.4
317.8454,20.6
317.9169,134.2
317.9338,113.5
317.9984,23.2
318.0879,8984.2
318.2275,568.3
318.3762,18.6
318.3951,106.1
318.4025,354.6
318.4537,45.5
318.523,20.3
318.667,115.6
318.8037,2460
318.9,17.2
318.9082,1525.3
319.0047,520.1
319.0216,19.2
319.195,49030.5
319.3806,150.8
319.4287,659
319.7242,387.4
319.753,752.8
319.8953,17
320.0751,463.9
320.1555,18.4
320.1817,99.2
320.198,3897.3
320.259,1278
320.4603,255.6
320.4805,210.2
320.5159,358.2
320.6513,272.4
320.6861,109.8
320.7896,122.8
320.8005,1563.7
321.2107,103823.5
321.2203,379.1
321.2622,96.6
321.3439,379.6
321.3962,176
321.4759,119.7
321.4912,295.9
321.4995,271.1
321.5161,19.7
321.5368,20.7
321.8179,429.4
321.8197,439.4
321.822,271.7
321.9468,252.6
322.0012,18.6
322.0091,243
322.0211,215
322.0598,421.8
322.214,16088.7
322.2847,144.1
322.3868,125.2
322.5562,184.3
322.9323,773.5
322.9516,393.7
323.0075,430.5
323.0207,10941.5
323.071,19
323.0963,622
323.187,526.3
323.2007,116.4
323.2263,6252.7
323.2334,156.5
323.4768,331.9
323.5087,19
323.5871,18.8
323.8002,334.4
323.9302,356.5
323.9693,285.2
324.0002,320.7
324.0057,138.3
324.1453,115.9
324.2352,16.9
324.4822,38.3
324.5456,756.4
324.5515,2172.8
324.5587,2165.6
324.5719,4630.4
324.578,2602.2
324.5914,2623.7
324.598,866.9
324.6308,310.4
324.8086,1114.1
324.8534,1937.6
324.9518,467.4
325.0027,715.2
325.0568,2326.8
325.1803,367
325.2118,6435
325.4794,189.4
325.5599,325.4
325.7129,19.2
325.7548,526.7
325.9086,20.7
325.9799,148.4
326.0056,27.2
326.0471,138.6
326.0531,230.4
326.2067,241.2
326.2943,111.4
326.3331,171.1
326.4491,309.7
326.498,388.9
326.6494,18.2
326.7241,534.6
326.7479,501.5
326.8501,3341.4
326.913,131.1
326.9812,624
327.0158,5867.4
327.0519,2232.8
327.2111,196.8
327.2276,24466
327.2876,111.4
327.3171,296.5
327.3387,238.5
327.5208,94
327.7784,119.7
327.783,552.3
328.0163,1408.8
328.0949,265.5
328.1237,22.9
328.1496,529.9
328.2308,2849.6
328.2486,150.8
328.3033,201.4
328.3608,179.1
328.3689,115.5
328.4066,585.6
328.438,160.5
328.5203,175
328.5965,284.7
328.6704,597.6
328.7685,20.4
328.832,655.2
328.8557,383.4
328.9247,391.3
329.0625,91.8
329.0836,516.4
329.0963,2667
329.1241,124
329.2262,216.6
329.9338,521.1
330.0378,164.1
330.0589,166.2
330.0695,23.5
330.1086,597.1
330.1908,380.2
330.3926,255.9
330.4905,631.3
330.6197,107.2
330.6805,240.6
330.7082,135.8
330.7535,962.7
330.8138,474.3
330.843,298.5
330.9016,735.4
330.96,849.6
330.9783,937.1
330.9901,41.7
331.0194,827.7
331.0456,121716.3
331.0544,1106951.5
331.0947,9880.3
331.1006,355.2
331.3177,155
331.3827,19.6
331.4463,824
331.615,257.5
331.8009,480.3
331.8025,477.4
331.8258,738
331.8543,103.9
332.0483,8391.6
332.0578,102590.6
332.0954,367.6
332.2276,467.8
332.2428,277.9
332.2478,404.7
332.2495,409.8
332.3629,290.2
332.4018,410.1
332.9116,120.7
332.9601,615.9
333.0002,340.4
333.0136,126.2
333.0525,64888.2
333.0581,10705.5
333.1104,2666.6
333.1626,311.4
333.4803,440.6
333.6264,563.1
333.9363,25.7
333.9947,315.5
334.0165,121.1
334.0558,5374.1
334.094,204.2
334.1848,705.3
334.327,884.7
334.3442,284.4
334.3967,534.4
334.4493,18.1
334.5893,763.9
334.7776,17.2
334.8066,681.8
335.014,482.1
335.0215,207.4
335.0386,653.7
335.0474,218.4
335.1426,366.9
335.2245,201.2
335.4601,260.1
335.5117,106.3
335.6201,296.1
335.8194,260.2
335.8686,21.7
335.8904,168.2
335.9081,424.9
336,46.8
336.0104,372.6
336.0632,399.6
336.3379,253.6
336.367,22.3
336.4822,469.6
336.6417,19.6
336.6722,162
336.7114,263.4
336.9777,174.1
336.9957,16.3
337.0238,22.1
337.0365,11594
337.0499,21894.5
337.0624,602912.8
337.1392,143.6
337.2073,272.4
337.2638,17.3
337.2745,6231.7
337.3321,182.4
337.4002,413.2
337.475,372.6
337.5084,153.5
337.5509,292.7
337.6833,431.9
337.8297,140
338.054,421.5
338.0658,54902.7
338.1336,21.9
338.3274,253.1
338.342,100
338.3878,18.3
338.5839,805.7
338.8625,579.9
338.8956,501.1
338.9213,2456.1
338.931,20.6
338.9473,122.8
339.0385,922.8
339.0474,1721.5
339.0662,5041.5
339.2513,1117.7
339.2899,12456
339.3123,444.9
339.3667,254.3
339.4301,198.9
339.4556,358.4
339.6003,310.2
339.8327,173
339.8792,209.1
339.9353,308.9
340.0708,140
340.2507,342.2
340.293,1396.3
340.5616,255.6
340.6539,179.4
340.7004,224.5
340.7827,1732.5
340.8228,305.1
340.8564,305.9
340.9181,332.2
340.9299,113.7
340.9372,251.3
340.9469,675.9
341.0184,139.4
341.0859,86.2
341.1703,165.7
341.194,152.4
341.2872,413.5
341.3055,5314.7
341.401,103.3
341.5583,184.3
341.7432,99.4
342.015,21.2
342.0576,299.9
342.0651,503.1
342.0885,126.1
342.2722,338.5
342.4563,441.9
342.527,398.9
342.6551,144
342.8848,124.4
342.8949,48.7
342.9897,1805.2
343.0258,554.6
343.1057,225.8
343.1659,5948.7
343.1951,20452.3
343.2013,1130.7
343.2766,340.8
343.4962,21.6
343.5878,167.9
343.6686,192.6
343.9018,377.7
343.9967,146.1
344.1472,102.4
344.1981,1400.7
344.3191,183.6
344.3231,196
344.455,112.7
344.5457,213.3
344.6206,226.5
344.8658,596.8
345.0519,107.8
345.1324,20.3
345.2107,2869.2
345.3601,113.4
345.3712,376.6
345.4178,508.5
345.4602,19.9
345.5041,399.8
345.6074,62.2
345.7638,182.9
345.9842,2823.7
346.0058,44.3
346.0247,719.7
346.0578,207.4
346.1279,120.5
346.3668,19.8
346.5502,295.4
346.7944,94.2
346.8174,19.2
346.8833,279.3
346.9812,690.5
347.054,20.1
347.069,2856.8
347.6104,132.9
347.8756,137.8
347.9263,444.7
347.985,21
348.0189,424.8
348.0284,463.4
348.0367,574.7
348.1626,786
348.3261,17.4
348.4013,784.2
348.775,122.7
348.814,511.9
348.9351,782.3
348.9691,18.7
349.0169,579.4
349.0461,477.5
349.1912,247.1
349.2237,449.7
349.2611,599.2
349.3127,483.4
349.5128,656.1
349.7117,134
349.7236,111
349.9407,352.3
350.0144,77.4
350.0886,248.7
350.3541,146.4
350.4384,361.4
350.4766,348.2
350.566,411.7
350.6369,23.5
350.8782,18.1
350.9988,269.3
351.159,259.6
351.2802,189.9
351.3302,306.5
351.4551,19.7
351.5501,114.8
351.592,244.4
351.6333,18.5
351.7558,274.6
351.8851,325
352.0205,313.8
352.1203,128.4
352.2718,658.9
352.3502,207.3
352.6626,100.9
352.7456,301.9
352.8981,1396.8
353.0275,133891.1
353.0364,204378.3
353.3051,138.9
353.3616,19.9
353.4165,371.3
353.4821,320.6
353.533,192.4
353.58,111.5
353.9101,391.5
353.9373,45
354.0001,322.5
354.0306,11721.6
354.0397,17699.8
354.2902,196.3
354.3174,134.3
354.4609,842.7
354.4921,105.6
354.5936,406.8
354.5961,394.9
354.8071,159.9
355.012,2019.8
355.0217,143
355.0347,12412
355.0704,412.3
355.1449,338.6
355.2261,141.7
355.4298,184.9
355.8608,133.2
356.0157,27.9
356.0419,1640
356.0703,78.2
356.1384,792.1
356.2427,20.6
356.2769,383.6
356.3083,340.6
356.3608,359.9
356.3961,294.9
356.5358,144.8
356.5638,377.3
356.6489,134.6
356.749,19.3
357.0088,908.7
357.0159,558.8
357.0666,18.3
357.0806,115
357.087,338
357.1111,46.5
357.1632,278.3
357.5419,231
357.5784,829.4
357.5958,399.1
357.6078,1115.6
357.6277,326.1
357.8183,308.5
357.9412,162.8
357.972,161.4
358.0101,58.5
358.041,278.8
358.309,397.9
358.4811,449.9
358.6644,148.4
358.9707,407.9
359.0076,451.2
359.0319,15952
359.0444,348775.4
359.156,126.6
359.3852,359.5
359.4724,159.4
359.4783,159.2
359.5218,21.3
359.5744,21.1
359.5804,302.9
359.5859,846.6
359.5943,304.7
359.6025,20.4
359.617,1045.3
359.6281,17.6
359.6398,19.5
359.6469,669.3
359.651,440.3
359.6663,1190.8
359.6756,1207.8
359.6826,482.6
359.6935,534.4
359.7182,239
359.7335,20.9
359.7443,243.7
359.7704,135.1
359.7884,530.5
359.8773,185.3
360.0478,31796.1
360.1857,123
360.2342,155
360.3242,525.8
360.4888,398.9
360.5157,111.2
360.5739,120.5
360.6103,296.2
360.6972,361.4
360.7977,309.9
360.8402,650.5
360.9245,170.9
361.0206,4149.7
361.0294,273.2
361.0482,916.3
361.0914,17.7
361.1264,114.3
361.132,152.7
361.179,440.5
361.1926,121.8
361.2743,2566
361.2988,387
361.3274,27.9
361.4652,43.8
361.5057,141.9
361.5079,197.7
361.6495,118.8
361.6922,305.8
361.7759,406.7
361.8265,161.2
361.9067,405.5
361.9587,123.2
362.0203,501.3
362.0728,464.8
362.0797,44.2
362.1178,395.6
362.2774,77.3
362.4362,113.2
362.5043,794.1
362.5422,130.7
362.7845,525.9
362.8342,215.4
362.8434,328
362.9274,2341.9
363.4509,289.8
363.6603,352.1
363.6865,344.2
363.7096,116.3
363.8327,122.7
364.0675,478.3
364.3502,659.6
364.5023,42.5
364.7875,479.6
364.917,309.9
364.9361,356
365.0458,175.8
365.1065,975.3
365.1351,302.1
365.7447,105.4
365.7706,102.3
365.8007,261.1
366.128,343.7
366.1389,635.4
366.256,433.1
366.5232,126.2
366.6074,216.7
366.6498,144.9
366.6814,20.4
366.705,142.9
366.7826,162.7
366.9747,20.4
367.0981,877.6
367.1217,1552.7
367.1949,667.2
367.2605,147.6
367.3485,254.5
367.4167,489
367.6277,134.7
367.8153,284.4
367.8553,226.3
367.9914,107.9
368.0829,539.5
368.215,298.4
368.5504,214.5
368.7117,19.9
368.8906,303.6
368.9927,2728.6
369.0015,15668
369.0103,7957.6
369.3518,45.8
369.5567,18.2
369.5867,467.7
369.6288,453.6
369.8607,262.3
369.9854,17.7
369.9905,390.7
370.1344,376.5
370.2281,188.9
370.2705,18.3
370.4182,139.1
370.4964,132.7
370.6462,138.7
370.8966,234.9
370.9169,175.1
370.9832,232.1
371.0416,966.8
371.1219,262.5
371.1648,20
371.1977,237.7
371.2651,696.9
371.3721,552.9
371.7941,44.8
371.8345,116.8
371.8777,761.8
371.8965,221
372.0228,202.6
372.108,195.7
372.1485,121.1
372.2156,115.8
372.4446,242.7
372.5896,392.6
372.703,50.7
372.7206,127.7
372.7389,807.8
373.1346,330.2
373.2883,313
373.3463,827.6
373.707,556.9
373.7208,90.8
373.9136,154.4
374.2565,381.4
374.3912,20.4
374.394,21.3
374.3969,19
374.5995,43
374.6445,593.2
374.736,608.6
374.8826,669.3
375.0095,128609.5
375.0184,104145.7
375.0945,345
375.4662,116.4
375.514,662.2
375.5764,199.4
375.6926,661
375.7145,129.3
375.7559,234.9
375.9416,376.3
375.9849,50.8
376.0127,10104.8
376.0217,9539.5
376.0608,18.6
376.067,190.5
376.0836,834.6
376.135,109
376.1868,369.4
376.2176,18.1
376.3025,151.3
376.3869,227.2
376.4326,254.8
376.4393,976.4
376.6464,318.7
376.6487,436.9
376.6538,287.8
376.9943,482.3
377.0167,5146.2
377.3947,18
377.4386,155.8
377.7538,279.4
378.0115,181.3
378.3347,337.5
378.4794,428.6
378.5001,555.3
378.5255,228.5
378.585,87
378.7314,682.9
378.9008,451.4
378.9703,21.5
378.991,99.7
379.0561,875.3
379.1473,654.8
379.4853,18.4
379.7921,19.6
379.8676,299.7
379.9415,257.5
379.9842,103.2
380.0396,19.5
380.1962,264.2
380.2827,773.7
380.2913,120.5
380.3254,417.1
380.3628,763.3
380.5482,512.9
380.6447,158.8
380.6725,330.7
380.7702,458.6
380.8209,940.5
380.8628,160.5
380.89,426
380.9889,50.3
381.0138,23999.9
381.0263,197567.9
381.0561,101.7
381.0813,834.4
381.144,21.5
381.2233,134.8
381.2613,110.7
381.3101,443.3
381.4241,130.6
381.5408,261.7
381.5895,159.2
381.6323,462.8
381.8084,112.4
381.9126,280.5
382.0164,427.9
382.0296,16557.3
382.2526,124.3
382.3454,767.3
382.4005,130.5
382.4855,467.1
382.4952,714.3
382.5899,350.5
382.6917,173.2
382.7674,1199.9
382.8502,41.9
382.9124,16.8
383.0114,774.9
383.0207,119.4
383.1167,208975.3
383.1272,94
383.718,655.6
383.7363,44.3
383.9197,245.7
384.12,24198.4
384.3492,395.2
384.5333,97.8
384.5576,98.4
384.653,232.5
384.9724,128
385.0205,111.6
385.1202,553.3
385.2885,691
385.6504,99
385.6671,292.9
385.9034,20.5
386.1429,323.6
386.3482,327.1
386.3891,373
386.4047,606.8
386.5171,243.4
386.6322,264.7
386.7051,103.9
386.8019,104.7
386.8422,325.4
387.0033,1146.6
387.1011,100.7
387.3754,98.8
387.4054,275.8
387.6893,160.5
387.7422,217.9
387.8348,113.1
387.8636,263.9
387.967,29.1
387.9775,440.1
387.9864,227.8
388.1935,49.5
388.2867,164.4
388.3099,129.2
388.3984,265.7
388.4138,237.2
388.4461,223.9
388.7126,544
388.788,629.1
388.7953,232.1
389.0379,549.3
389.0483,438.8
389.0734,175
389.3056,426
389.3434,133.7
389.5728,285.1
389.6932,530.4
389.8587,144.2
389.9328,124.2
389.9739,2730.6
390.0189,131.9
390.1205,124.4
390.4567,448.5
390.5129,341.5
390.695,302
390.7616,135.4
390.7991,483.5
390.832,318.5
390.9238,556.4
390.9628,116.9
390.9744,11343.1
390.9834,22711.8
390.9923,12497.3
391.0519,321.2
391.0884,404
391.3136,306.4
391.3314,406.7
391.4745,608.9
391.5181,708.3
391.7817,319.2
391.9784,453.8
391.9868,582.4
392.7601,19.5
392.7962,1734.8
392.8411,393.5
392.8704,108.4
392.9587,55.7
392.9745,266.9
392.9825,217.1
392.9906,592.9
393.0916,110.9
393.112,191.4
393.3677,144.3
393.5349,18.1
393.6409,155.9
393.9829,100.6
393.9915,154.7
394.0832,367.3
394.2856,661.7
394.3558,104.8
394.488,49.5
394.5846,130.4
394.7012,274.1
395.1251,117.2
395.2312,385.3
395.5767,479.4
395.6393,18
395.6777,233.8
395.7818,184.7
396.1449,139.1
396.2595,131.8
396.346,117.4
396.4909,16.9
396.7442,2162.2
396.8763,19.4
396.9213,21.6
396.9914,179393.4
397.0002,63334.2
397.4568,389.1
397.5584,106
397.6663,110.6
397.708,170.4
397.7181,156.6
397.7786,159.1
397.8701,227.6
397.9948,16726.3
398.0037,4071.1
398.2419,7109.5
398.4279,92.1
398.5292,381.2
398.622,53.4
398.6523,23.1
398.7412,1487.6
398.762,3904.9
398.8124,350.8
398.9661,459.6
398.9758,62.7
398.9991,1425.4
399.0779,149.3
399.1427,20.7
399.335,43.9
399.3712,126.5
399.4705,137
399.4833,634.5
399.5191,104
399.8901,356.5
399.9317,211.9
400.038,111.8
400.3393,305.5
400.3977,448
400.4221,19.6
400.4981,287.1
400.5961,17.5
400.6913,186.6
400.7388,1065.7
400.8281,802.1
400.9397,20.2
400.9831,516.1
401.1267,419.1
401.1361,114.8
401.2401,95.9
401.3545,227.9
401.407,332.6
401.735,102.6
401.8386,24.1
402.2723,130.3
402.3949,635.4
402.662,320.6
402.8256,774.5
402.9588,264.5
403.0083,255751.7
403.028,20.9
403.1533,107.7
403.4217,150.6
403.4531,356.9
403.7512,105.8
403.7807,669
403.8697,550.5
403.9771,110.6
404.0116,22230.8
404.024,104.4
404.0764,234.9
404.1603,492.8
404.2113,46.7
404.3084,120.7
404.3287,120.4
404.463,373.4
404.5004,133.4
404.6062,195.2
404.7126,137.3
404.8168,465.4
405.0124,1037.7
405.0277,183.5
405.128,277.2
405.5652,110.7
405.6623,333.4
405.7534,236.1
405.8687,134.5
405.9168,340.3
405.9481,1220.7
405.9932,287.8
406.1227,131.6
406.3295,1210.5
406.4289,128.2
406.492,754.8
406.6443,300.7
406.6835,681.3
406.7196,214
406.7732,1371.9
406.8053,290.6
406.8179,304.9
406.9093,140
406.9778,20.7
407.2718,107.3
407.3318,355
407.3664,18.9
407.3808,163.3
407.4578,18.7
407.5525,21.1
407.578,205.4
407.7492,402
407.761,140.1
408.177,256.7
408.2682,477.1
408.2991,56
408.4692,149.3
408.4861,674
408.6025,239.9
408.636,158.4
408.7697,2916.6
408.985,3201.5
409.079,127.7
409.2517,111.2
409.2612,371.4
409.3465,349.5
409.5719,41.9
409.6343,154.5
409.648,237.7
409.692,411.5
409.7401,326.6
409.9998,921.9
410.2175,103.4
410.3427,395.4
410.442,95.5
410.4545,695.7
410.4696,169.8
410.7012,960.1
410.7625,1973.5
410.8349,342
410.8567,607
410.9677,637
411.5438,660.4
411.5917,389.6
411.9272,193.1
411.9725,551.5
412.0182,255.9
412.1046,669.6
412.3218,1488
412.4241,261.3
412.5271,546.3
412.704,299.8
412.8674,166.5
412.89,519.6
412.9654,29573.9
412.9743,11770.6
413.0836,400.1
413.2669,6216.4
413.3247,229.8
413.6992,240.3
413.9689,524.7
414.0838,345.2
414.2423,254.4
414.2698,275.5
414.2939,19.5
414.3123,171.7
414.3802,326.5
414.4028,155.4
414.7147,480.1
414.8676,127.9
414.8965,407.1
414.965,448.2
414.974,167.1
414.9988,520.9
415.0376,25.6
415.1016,343.5
415.1513,164.2
415.1722,274.9
415.1835,130.9
415.2134,728.2
415.2224,1547.6
415.3819,174.2
415.4273,478.9
415.5381,255
415.8209,18.4
415.8493,724.8
415.873,18.5
415.9758,115.8
416.1355,11434.3
416.1918,528.4
416.2146,25744.3
416.6174,246.1
416.6786,277.3
416.7555,761.3
416.8012,814.4
416.8097,497
416.8474,298
416.9074,748.6
417.0079,135.7
417.0773,176.4
417.0964,164.9
417.128,898.7
417.1382,499.2
417.1463,31.7
417.2179,2602.5
417.7406,130.6
417.7615,214.5
418.0304,105.7
418.0521,407.9
418.0985,590.5
418.2758,261.2
418.3279,180.7
418.4478,462
418.7988,1264.9
418.9129,499.1
418.9209,114.7
418.9822,88030.7
419.1148,57.3
419.2112,234.8
419.2566,928.5
419.4391,428.8
419.5364,91.6
419.592,281.3
419.6222,55.3
419.6374,381.7
419.7999,425.8
419.8114,126.5
419.8948,309.9
419.9051,143.5
419.917,265.1
419.9857,4284.7
420.0741,319
420.2408,175.9
420.2493,404.8
420.2811,245.9
420.3137,205
420.3211,18.7
420.4392,314.7
420.8465,460.2
420.859,543.5
420.8854,1137.6
420.9163,168
420.9578,426.5
420.9803,2983.2
421.2283,211.6
421.2697,140.3
421.2999,213.2
421.32,114.1
421.573,131.4
421.607,17
421.6295,125.3
421.7354,50.2
421.808,190.2
422.0326,345.7
422.2645,415.3
422.3038,135.9
422.3237,636.3
422.7534,216.8
422.819,315.6
423.0009,412.8
423.0192,167.5
423.034,18.6
423.0658,329.1
423.2019,188.4
423.5601,298.4
423.6028,119.8
423.6582,627.7
423.7399,382.5
424.2893,838.7
424.3404,571.3
424.4933,245.5
424.7451,653.3
424.8363,363.3
424.9122,133.3
424.9356,46
425.0743,303.4
425.2625,114.9
425.2839,704
425.4134,281.5
425.5858,26.5
425.6221,350.9
426.1834,356.6
426.3254,277.2
426.3579,2705.6
426.5637,22.6
426.5752,19.8
426.6239,95.4
426.6425,21.8
426.85,333.4
427.0455,773.4
427.0548,694.9
427.0686,503.8
427.1583,405.9
427.2941,198.1
427.3369,42.9
427.3451,258
427.4657,110.2
427.5752,115.6
427.8219,114.3
428.2403,161.7
428.3135,630.3
428.5723,46.2
428.6507,402.2
428.6892,141
428.7732,98.1
428.9176,102.9
428.9392,3171.8
428.9513,846.5
428.9789,290.4
429.0894,350.6
429.1131,1048.6
429.1356,323
429.2399,24.6
429.2784,477.8
429.3959,274.8
429.6817,212
429.7247,479.6
429.7394,805.7
429.8682,376.4
430.0401,118.4
430.0506,20
430.0888,22.9
430.1748,19.1
430.195,143.1
430.2034,393.1
430.2235,477.7
430.2547,132.3
430.372,171.2
430.4047,298.8
430.5272,410.8
430.612,47.5
430.9143,724.8
430.966,311.1
431.044,127.6
431.0972,21
431.1774,112.3
431.2173,5502
431.4279,281.9
431.4665,157.7
431.5702,160.6
431.582,150.8
432.0377,153.5
432.3037,22.4
432.3138,98.3
432.4001,285.1
432.5615,592.3
432.6177,836.5
432.6932,372.6
432.9628,18.4
433.1182,145.4
433.4959,355.6
433.7488,43.1
433.8959,19.3
434.1239,220
434.2824,17.5
434.2867,17.8
434.424,21
434.4404,527.9
434.7804,755.7
434.8949,348.6
434.9562,15546.7
435.0427,98.1
435.152,228.6
435.3916,52.1
435.4764,21.7
435.5509,143.4
435.7535,176.4
436.5453,498.1
436.8276,434.3
436.8817,210.3
436.9071,43.9
436.9546,181.6
437.0419,236.3
437.1864,688.2
437.2046,1473.9
437.2749,23.7
437.3291,435.8
437.5067,126.4
437.5289,118.8
437.5779,117.5
437.7397,313.9
437.798,324.2
438.1296,460.6
438.1515,45.7
438.2002,208.7
438.2962,140
438.3198,393.1
438.3388,330.4
438.3491,191.9
438.4532,218.4
438.5766,127.3
438.5932,846.7
438.661,702.5
438.7649,21.1
438.939,524.2
438.9724,3344
438.9848,3358
439.122,21.2
439.2577,867.6
439.4379,41.4
439.4498,19.7
439.5627,484
439.7338,354.6
439.772,665.8
439.8895,182
439.9722,423
440.0989,274
440.4289,121.7
440.4427,183.6
440.5748,694.2
440.7625,266
440.971,644.7
440.981,359.8
441.0213,276.6
441.2981,291.7
441.3561,300
441.3697,301.1
441.4017,219
441.5076,268.4
442.008,22
442.1252,299.3
442.2338,93.3
442.487,116.8
442.5592,20.9
442.7013,209
442.7234,406.7
442.7688,482.7
442.8648,136.6
442.8826,157.6
442.9839,498.4
443.0974,45.1
443.1122,243.1
443.1664,429.1
443.2036,613.1
443.2539,2274.9
443.3367,143
443.4377,368.5
443.4622,405.3
444.0036,269.2
444.1769,288.2
444.1915,104.9
444.2034,768.2
444.3058,165.4
444.4199,404.3
444.4495,441.1
444.475,734.1
444.9473,128.9
445.0627,374.5
445.233,3051.3
445.2693,3819.1
445.3337,121.5
445.4483,225.4
445.6926,338.2
445.8685,399.4
446.7916,810.6
446.8886,775.1
447.0205,167.2
447.2632,734.3
447.5762,154.6
447.6497,41.6
447.6914,419.2
447.737,166.4
448.0528,104.1
448.1008,366.9
448.124,688.6
448.2084,276.1
448.2348,405.8
448.5037,232.2
448.5543,20.2
448.6348,126.7
448.6689,324.9
448.7405,105.4
448.7514,248
448.7785,263.5
448.8101,17.3
448.9334,4243.3
448.9435,384.5
449.0004,740.7
449.1178,245.8
449.1545,2146.3
449.2703,52.6
449.3605,19
449.4673,881.2
449.7528,485.9
450.1577,337.5
450.3912,190
450.6875,638
450.7529,327.8
450.7724,472.7
450.7888,254.1
450.9297,995.4
451.0777,352.8
451.1501,108.7
451.1584,944.1
451.169,844.7
451.2877,137.9
451.3002,486.1
451.3545,147.4
451.49,136.6
451.5994,178.5
451.6616,348.8
451.7644,149.3
451.9271,285.8
451.9692,190.8
451.9908,158.6
451.9989,269.7
452.2386,217.7
452.2821,151.8
452.3322,325.8
452.3671,143.9
452.46,372.9
452.6908,136.6
452.796,348.2
452.9443,236.6
453.0286,259.2
453.1737,1528.9
453.6036,303.8
453.6454,518.8
453.709,315.9
453.8135,698.9
453.9277,166.3
454.0719,95.1
454.1025,170.2
454.1928,126.8
454.5531,115.7
454.9376,283.6
454.9501,38276.7
454.9792,294.7
455.0659,199
455.1833,113.6
455.2016,120.4
455.4215,122.2
455.4729,183.3
455.5228,415.8
455.5834,19.2
455.8238,739.8
455.8737,414.8
455.9536,2308.1
455.9621,456.6
456.0083,450.7
456.1327,229.4
456.5145,164.8
456.5374,286.6
456.6995,876.9
456.8522,235.8
456.9474,9536.9
457.0963,107.4
457.1465,317.1
457.2332,19404.1
457.358,180.2
457.3929,133.1
457.4811,116.6
458.1379,693.7
458.1705,207.7
458.2361,2236.6
458.4477,19.7
458.5011,671.5
458.632,352.7
458.652,20.1
458.6963,583.5
458.9615,835
459.0872,109.8
459.1942,17
459.2488,486008.8
459.2702,165.1
459.3845,587
459.4205,18.8
459.4803,510.5
459.5003,440.8
459.8232,20
459.8323,330.8
459.8364,320.7
460.2521,98534
460.2675,17.9
460.2923,859
460.5466,112.2
460.5947,114
460.6298,17.9
460.6952,358.6
460.8005,348.1
460.8388,109.4
460.9669,72449.1
461.2552,7434
461.275,143.1
461.4583,556.7
461.5071,43.7
461.6209,239.4
461.8757,366
461.9703,5643.7
462.2001,202.9
462.2698,120.4
462.333,839
462.4032,20.2
462.4816,90.2
462.4941,203.7
462.5456,244.7
462.6436,171.7
462.7048,302.7
462.8255,487.6
462.9639,21315.4
463.0876,328.4
463.1697,464.5
463.2023,1933.7
463.2793,414.4
463.3459,526.3
463.3965,260.3
463.4292,317.1
463.4578,17.1
463.9102,363.1
463.9576,307.8
464.3689,116.2
464.5128,158
464.5171,160.7
464.5728,126.5
464.6905,18.9
464.7794,136.8
464.8157,111.6
464.8554,19.2
464.9475,113
464.9787,10179.7
465.1196,30.7
465.2346,1142.9
465.251,138.9
465.2728,135.2
465.356,19.7
465.5297,309.1
465.7744,258.1
465.8845,284.2
465.931,291.6
465.9804,339.6
466.0377,274.2
466.3485,227.6
466.5097,345.9
466.5315,250
466.6054,400.2
466.8754,136.2
467.0198,99.8
467.858,23.6
467.9813,282.8
468.3088,1951.1
468.441,289.2
468.485,163
468.654,20.5
468.8526,22.2
468.8975,100.4
469.1164,317.2
469.1406,50.6
469.1502,761
469.2405,455.3
469.3292,23.1
469.5635,489.8
469.6456,19.8
469.8302,338.7
469.8635,150
469.9405,19.3
470.0665,237.7
470.1174,199.6
470.2745,378.8
470.4076,109.8
470.5627,163.5
470.6504,269
470.7374,198.7
470.8584,211.1
470.8863,51.4
470.9239,18066.7
470.95,543.2
470.9952,3595.3
471.0366,402.7
471.1464,320.4
471.1606,613
471.2489,1286.3
471.2862,844.5
471.5257,147.1
471.927,1140.5
471.9741,376.4
472.0875,596.8
472.3041,10627.8
472.5281,17.6
472.8739,328.4
472.9215,5408.9
472.9428,185.4
472.9534,270.1
473.237,211.1
473.2644,6429.5
473.3068,1904.7
473.3167,136.1
473.4123,742.7
474.0647,278.2
474.1316,434.1
474.3532,158.3
474.5461,347.7
474.5677,356.9
474.6945,110
474.7569,375.8
474.7811,109
474.9638,148.4
475.2225,23805.5
475.243,750.6
475.2941,286.6
475.3389,20.3
475.6937,500.1
475.7243,21.3
475.7702,164.6
475.8899,219.8
475.8989,417.6
476.2259,3849
476.2609,22.9
476.3134,503.5
476.4939,131.9
476.6317,21
476.7575,426.7
476.8421,159.4
476.8472,339.9
476.9408,43583.6
477.0588,366.6
477.1155,127.8
477.2625,330.3
477.3142,262.3
477.7873,93.7
477.944,2695.6
477.9703,370.3
478.0559,231.9
478.3297,48265.2
478.4487,327.4
478.6956,260.8
478.9379,13219.9
479.3101,719.7
479.3328,8345.2
479.4581,171.4
479.5626,18.8
479.6025,143.3
479.9281,235.6
479.9394,52.7
480.0982,953.1
480.1166,21.2
480.1615,350.8
480.3451,2305.5
480.5459,678.1
480.7031,324.6
480.7401,276.6
480.8966,202.1
480.9529,1870.1
481.0915,155.3
481.1475,113.2
481.2342,514
481.3247,113.9
481.3466,372.8
481.4153,99.9
481.4748,139.7
481.7898,422.5
481.8652,209.4
482.1575,384.1
482.2474,20.8
482.2813,45.3
482.3241,777.2
482.3615,1132.4
482.5043,20.7
482.5355,217.7
482.7364,243.3
482.8154,119.7
482.8371,21.5
482.8905,185.9
482.9222,316.8
482.9485,21.4
483.2487,114201.7
483.4376,345
483.6263,694.8
483.7813,139.4
483.8386,120.9
484.0178,119.3
484.077,287.7
484.0985,19.6
484.2521,23758.3
484.295,392.9
484.4578,21.3
484.772,366.4
484.9348,21.6
485.0142,353.9
485.0834,851.8
485.2644,158843.5
485.2852,134.5
485.4099,908.1
485.4481,337.8
485.8527,127.6
485.8993,139.5
485.9476,170.7
486.0204,228.1
486.2677,34794.5
486.3366,706.4
486.6078,183.8
486.8408,96.9
486.898,1246.3
486.9694,515.1
487.1131,305.7
487.151,24
487.251,408.1
487.28,113695.6
487.45,231
487.473,111.6
487.9518,24.3
487.9623,170.7
487.9989,191.7
488.1429,310.3
488.2834,27075.4
488.2984,866.4
488.3167,126.2
488.4126,686.1
488.5534,130.2
488.6573,18.3
488.7451,165.4
488.7796,654.8
488.8496,326.6
488.9287,243.6
489.0857,43.5
489.2876,962.1
489.3549,480.5
489.3768,146.9
489.4244,478
489.5285,1193.4
489.8769,97
489.9326,524.9
490.0898,368.3
490.208,167.5
490.2911,7395
490.4675,148.1
490.488,397.4
490.5105,19.7
490.5595,206.4
490.6113,372
490.6528,131
491.2459,19.1
491.3257,513.7
491.3382,199.1
491.3716,1137.1
491.7834,358.1
491.8092,304.4
491.9106,110.7
492.3423,284.3
492.3522,118.1
492.4825,250.2
492.6483,234.1
492.7696,383
492.9148,9411.9
492.9425,117.5
493.0814,24.7
493.2226,119.3
493.2417,165.7
493.389,132.9
493.4005,139.9
493.6742,110.7
493.9191,346.3
494.0499,144.3
494.1828,473.3
494.2859,3699
494.3246,12275.7
494.7462,364.2
494.9119,1844
494.9628,440.6
495.0195,89.8
495.2889,815.2
495.4601,108.8
495.575,738.4
495.5841,721.6
495.8225,355.7
496.051,552.3
496.1023,492.5
496.3112,110.9
496.3403,388814.1
496.378,337.3
496.4028,18.4
496.5552,249.5
496.5817,418.1
496.6247,751.3
496.6745,461.1
496.7577,173.8
496.9338,971.1
496.9554,391.3
497.0787,838.3
497.1802,310.6
497.3436,94096.6
497.4235,123.9
497.4399,287.8
497.5575,244.1
497.8935,25.7
497.931,106.5
498.0134,384.5
498.1063,1238
498.3466,4446.8
498.6265,652.9
498.6853,563.1
498.7018,173.6
498.7801,398.3
498.9276,1835.3
498.9394,463.1
499.0107,19.5
499.0509,393
499.2221,4091.5
499.8169,104.5
499.9974,119.1
500.2505,181.5
500.2661,117.6
500.3558,285.2
500.5687,119
500.776,418.2
500.9742,20.1
501.0953,21.1
501.2035,233.6
501.2384,7502
501.2739,439.5
501.7087,140.2
501.7363,210.1
502.2352,22.5
502.2806,437.3
502.2967,714.9
502.3292,14373.5
502.3672,48.6
502.61,125.1
502.626,127.9
502.765,258.9
502.9874,757.5
503.0624,540.4
503.0667,598.2
503.0816,21
503.1082,104.3
503.1541,49.5
503.2336,434.9
503.2539,6631
503.3327,1363.3
503.3713,494.3
503.6444,135.6
503.7138,320.7
503.743,296
503.7617,19.4
503.896,98.4
504.3065,4634.7
504.3446,15244.2
504.5591,180.9
504.6486,17
504.9367,269.1
504.9636,21.5
505.2333,934.9
505.3482,2439.4
505.3737,286
505.7976,98
505.8178,428.7
505.9223,656.3
506.2659,529.3
506.3121,48.7
506.3607,5976.1
506.3794,410.6
506.4924,526.1
506.8662,106.7
506.8919,2896.3
507.2487,46359.3
507.3626,900.7
507.9834,263
508.252,7614
508.2797,22.8
508.3769,3259
508.8882,2487.5
509.0049,3356.4
509.2644,13404.1
509.3387,286.9
509.7273,20.5
509.7522,468.3
509.7651,223.6
509.7783,434.3
509.8131,221.7
509.9011,154.6
509.9333,292.3
510.0072,485.8
510.0244,226
510.0879,651.3
510.1997,114.3
510.2667,2885.9
510.2805,942.4
510.356,2922.4
510.4482,485.4
510.6157,95.5
510.8261,148.6
510.9384,1007.4
511.1246,38.9
511.3391,144.3
511.4334,412.8
511.5976,256.1
511.8801,656
511.9458,207.3
512.0937,89
512.162,300.3
512.6309,126.4
512.6575,241.8
512.7126,322.6
512.9086,16636.2
512.9842,630.2
513.3236,366.1
513.4642,20.2
513.5119,337.2
513.5811,578.3
513.8133,99.1
513.9119,421.4
514.0357,309
514.1668,54.1
514.4661,19.2
514.4967,110
514.5077,513.5
514.5773,142.7
514.7267,150.8
514.7412,720.7
514.7698,161.7
514.8909,19.6
514.9057,10114.1
514.9905,270.8
515.0215,985.2
515.4181,198.5
515.9514,249.7
515.9992,567.3
516.1264,392.8
516.3067,22042.3
516.3583,130.7
516.4408,381.7
516.449,129.4
516.5549,224.7
516.5774,505.7
516.6538,734.3
516.9027,490.4
516.9616,172.3
517.0128,490.6
517.0797,19.8
517.2134,194.3
517.2631,300.4
517.3096,4858.4
517.3763,149.6
517.7685,161.3
518.1318,227.3
518.2808,796.6
518.3042,862.2
518.3223,742462
518.4611,370.6
518.7967,222.8
518.9254,28520.3
518.9635,95.3
519.3256,178719.8
519.4772,222.8
519.7639,884.3
519.9282,1337
520.0132,259.8
520.166,128.6
520.2822,800
520.3294,20949.6
520.3403,77683.1
520.4755,175.6
520.5339,639.5
520.8933,589.7
520.9226,16385.1
521.168,20.2
521.2224,16.4
521.3436,19409.1
521.7119,19.5
521.9253,646.3
522.0511,18.1
522.16,540.2
522.2756,243.6
522.3213,475.3
522.3561,139266.8
522.6868,97.2
522.8001,792.3
522.8146,475.8
522.8645,947.3
522.892,199.8
522.92,1724.4
522.9373,4662.8
522.9689,764
523.0584,542.4
523.2223,1876.2
523.3594,37292.5
523.3839,293.9
523.4502,293.2
523.5005,326.7
523.9643,116.8
523.9814,379.5
524.0166,965.7
524.0407,156.2
524.0478,169.4
524.3442,207.5
524.3716,117285.2
524.5479,43
524.6264,145.8
524.884,107.4
524.9042,760.7
524.9338,786.6
524.9777,700.8
525.0105,674.7
525.1303,165.6
525.375,30346.8
525.7893,115.4
526.33,1964.1
526.3801,1845.5
526.4136,327.1
526.7248,217
526.738,396
527.0851,409.8
527.1542,405.1
527.2591,801.2
527.4599,303.1
527.6001,258.5
527.619,100.1
527.9197,576
527.9577,113.9
528.2917,275.1
528.3187,19.9
528.335,18.3
528.3462,332
528.358,402.6
528.4171,22.5
528.5575,20.1
528.7275,785.4
528.7548,507.4
528.8823,6502.4
528.9546,2873.1
529.0154,742.1
529.6103,163.4
529.8152,21.5
529.9185,485.4
530.1076,167.7
530.3584,4110.9
530.4137,18.7
530.6401,115.7
530.8798,5181.4
530.9457,128.7
531.03,172.6
531.0583,48.5
531.0832,355.1
531.249,3640
531.3176,1062.6
531.7756,428.2
531.8844,237.1
532.2805,5324.3
532.3153,19.3
532.3378,11365.1
532.3624,798.1
532.3718,926.5
532.5674,19.2
532.6136,414.8
532.8094,116.3
532.8276,147.4
532.8751,359.5
532.9133,222.5
532.9666,1605.2
532.9833,216.1
533.2661,801.4
533.318,236.6
533.3411,3024
533.6025,410.2
533.7878,123.5
533.9219,235.7
533.9631,442.7
534.1265,215.2
534.2963,179420.9
534.3174,313.5
534.7046,325.1
534.8995,15896
535.2442,668.2
535.2996,42958.5
535.4338,256.3
535.472,97.8
535.7314,409.7
535.7918,177.1
535.8766,236.5
535.9036,816.7
536.2028,138.7
536.2949,12035
536.4552,17.2
536.7911,17.5
536.8965,10125.5
537.0386,539.8
537.1199,111.8
537.2238,306
537.3021,114.4
537.6508,226.3
537.6839,237.1
537.8987,490.1
537.9243,860.8
538.0177,390.4
538.0557,320.9
538.2529,483.8
538.4042,129.7
538.4635,22.7
538.4907,567.2
538.5304,106.2
538.8931,873.7
538.9116,2171.4
538.9326,3573.6
539.1489,308.1
539.3765,184.3
539.6009,854.2
539.6887,640.6
539.7089,278.7
540.0752,552.5
540.0981,524.6
540.3059,1240.8
540.3853,251.2
540.606,121.9
541.1478,240.1
541.198,385.8
541.2215,172.9
541.3878,383.4
541.4732,634.3
541.4868,286.3
541.5927,259.8
541.711,109.1
542.0833,164.3
542.1084,411.1
542.3224,141720.2
542.4478,677.6
542.8113,148.4
542.9702,23.2
543.1256,243.1
543.1463,168.7
543.3258,34198.4
543.4019,857.9
543.4651,328.1
543.5057,431.6
543.5492,139.5
543.5763,218.8
543.8894,19.6
544.1529,136.6
544.2737,1049.2
544.3381,258253.8
544.5599,773.1
544.8561,976.1
544.9494,1695.8
544.9928,116.4
545.14,23.2
545.3415,65816.2
545.4132,176.7
545.8484,290.2
545.9286,148.1
546.0148,133.4
546.0763,320.3
546.1921,541.2
546.2579,857.8
546.3264,18.6
546.3536,214024.7
546.5476,183.3
546.6171,391.6
546.8534,129.3
546.9373,145.2
547.2486,178.3
547.2728,310.1
547.357,55662.7
547.4732,225.5
547.8679,377.1
548.0123,523.5
548.3114,1850.7
548.3604,5728.1
548.7808,22.6
548.8499,290.9
549.2773,155.9
549.3621,125.4
549.4671,95.9
549.4878,669
549.9849,252.4
550.0672,431.7
550.3285,471.1
550.386,118.8
550.5017,144.7
550.5798,679.6
550.7812,372.7
550.8117,316.8
550.854,142
550.8733,2018.6
551.5056,322
551.7992,354.1
551.9088,299.2
552.5298,43.6
552.6201,128
552.8705,2243.4
552.9094,391.3
552.9449,140.5
553.2826,261.5
553.3255,359.9
553.4774,119.3
553.9515,431.7
554.0215,163.1
554.7624,112.5
554.7846,335.9
554.887,89.3
554.9058,395.3
554.9657,307.8
555.0413,20.2
555.9735,18.9
556.0168,460.7
556.0693,118.9
556.665,621.5
556.9675,247.6
557.3505,500.6
557.4649,310.4
557.8522,405.9
558.0294,742.8
558.2963,35429.6
558.3667,578.8
558.5498,887.3
558.8261,904.6
559.1473,20.1
559.1907,140.3
559.2996,6676.4
559.4293,470.6
559.6676,126.3
559.7956,222
559.9488,400.8
559.9713,444.9
560.042,117.8
560.1854,151.2
560.2935,514.8
560.312,65132.9
560.4079,388.8
560.6846,138.2
560.921,712
560.9833,117.9
561.3154,12257.1
561.4133,9396.5
561.8926,170.9
562.118,122.3
562.2667,638.8
562.3115,1889.5
562.3277,45595.7
562.4164,820.2
562.4381,264.8
562.5945,113.8
562.6388,357.9
562.7173,501.8
562.8631,485.2
562.9466,699.5
563.2132,179.7
563.2348,355.3
563.3308,12530.8
563.4294,2782
563.5011,46.6
563.7037,155.2
564.0828,244.2
564.1786,386.7
564.1976,302.1
564.3068,667.8
564.3251,1076.8
564.3628,218.8
564.3892,326.5
564.5737,221.6
564.7353,111.9
564.8643,20.6
565.0221,105
565.0644,121
565.1324,116.8
565.6406,287.3
565.6604,721.5
566.3225,58077.5
566.5484,127.7
566.7539,157.6
566.8325,188.7
566.94,512.9
566.9636,1306
566.9818,432.9
567.3256,15664.2
567.3791,756.7
567.4436,883.6
567.7492,136.5
567.8618,196.1
567.9412,232.7
568.246,4312.8
568.338,25628.8
568.5532,481.4
568.9742,235.5
569.0166,161.7
569.0315,18.7
569.1282,133
569.3412,4048.2
569.4774,20.8
569.616,470.6
570.0272,304.1
570.089,104
570.2224,46.4
570.2846,530.3
570.3539,535
570.4493,290.4
570.8675,5444.3
571.0594,646.6
571.3575,870.3
571.4504,205.2
571.7499,122.5
572.1019,277
572.2652,607
572.3703,1085.8
572.7892,784.5
572.8127,142.9
572.8648,5541
572.9456,23.8
572.9809,798.7
573.2166,42.9
573.3565,455.6
573.3907,217.1
573.4214,697.9
574.116,128.6
574.2168,469.6
574.2423,694.6
574.2836,1251.5
574.5169,365.5
574.7263,328.9
574.8617,477.7
574.9155,42.8
575.0795,294.5
575.1527,95.7
575.2181,276.1
575.2539,108.5
575.2896,387.9
575.3633,681.5
575.504,5582.9
575.5693,133.4
575.6495,19.3
576.2669,250.4
576.2809,4563.4
576.4987,629.3
576.5067,400.6
576.5716,373.2
576.8843,7881.7
576.9459,243.6
577.2837,695.1
577.307,544.4
577.3729,122.6
577.5194,985.5
577.8676,54.1
578.0216,780.5
578.2199,21.4
578.279,824.9
578.4349,244.4
578.5069,19.4
578.5902,432.3
578.8814,10223.8
579.0179,332.1
579.3274,325.2
579.8858,370.5
580.0621,98.3
580.2646,154.5
580.2961,952.5
580.6201,352.6
580.7165,152.3
580.7657,158.1
580.8305,24
580.854,265.8
580.8781,1514.6
580.8964,1771
581.015,311.2
581.2939,376.6
581.3663,409.7
581.4946,123.7
581.6796,476.3
581.7324,43.1
582.0301,117.7
582.1017,257.1
582.1674,477.2
582.2965,11989.9
582.3181,123.6
582.3568,542.5
582.3742,94.6
582.3876,268.2
582.4124,20.2
582.4417,157.9
582.4575,138.4
582.4762,20.2
582.5163,1449.8
582.5688,95.1
582.585,143
582.5989,707.3
582.6212,102.4
582.6446,116.6
582.6727,39.5
582.8927,477
583.0142,176.1
583.0793,19.6
583.2561,12534.7
583.2991,4430.4
583.3925,633.7
583.4772,114.7
583.5811,142.5
583.6849,535.3
583.7663,353.6
583.8555,111.1
584.0327,677.3
584.2592,1643.1
584.3115,3828.2
584.7921,18.5
585.2717,20435.1
585.2884,657.3
585.3145,878.1
585.5626,270.3
585.6339,311.2
585.9135,113.8
586.0164,170.4
586.2747,5365.2
586.3105,4991.8
586.8409,1210.1
586.912,1095.1
586.977,906.8
587.1823,130
587.4902,469.3
587.5449,415.3
587.5577,139.4
587.6019,263
587.8024,440.5
588.8387,3160.2
589.1682,742.5
589.3001,537.9
589.3723,813
589.3869,450.7
590.0089,634.2
590.3221,3671
590.4479,339.2
590.7773,152.6
590.8726,436.6
590.9254,1018.5
591.3151,1396.1
591.3594,21
591.4596,831
591.5153,41.3
591.6571,125.5
591.6925,24
592.0872,21.7
592.1552,108.2
592.2551,1328.2
592.3384,1080
592.4687,297.4
592.7292,22.8
592.8583,6025.4
593.5063,190.6
593.5468,25.1
593.8616,353.2
593.9062,157
594.5052,143.7
594.6002,724.6
594.6614,740.3
594.6949,253.3
594.7301,130.1
594.7762,389.4
594.8553,5035.8
594.9223,711.5
595.1288,259.1
595.1727,121.2
595.4381,1250.6
595.905,367
596.4701,144.8
596.751,148.8
596.8528,1565.6
596.8695,372.9
597.0725,117.5
597.4474,1734.7
597.462,2171.1
597.4863,9663.2
597.9295,120.3
598.1224,110.2
598.2261,404.5
598.4541,874.6
598.4889,2043.5
598.7812,148.6
599.0045,153.1
599.0384,368.1
599.4676,1475.1
599.5034,5337.2
600.1214,19.6
600.1527,153.7
600.4627,303.8
600.5063,414.5
601.0643,222.7
601.196,255.4
601.3422,234.7
601.4042,212.8
601.5167,579.8
602.0838,145
602.2974,457.6
602.813,328.5
602.9059,785.2
602.9868,99.8
603.3308,138.1
603.5364,134.3
603.7057,160
604.0395,838.1
604.1936,105
604.3109,873.6
604.3646,19.4
604.5493,141.2
604.7604,286.1
604.8126,486.5
604.8845,370.4
605.0578,43
605.252,146.4
605.3953,286.1
605.5486,67.9
605.9081,417.3
605.9495,293.8
606.2961,786.1
607.0181,156.9
607.1716,5956.8
607.2516,948.5
607.3912,22.2
607.416,163.5
607.5847,272
607.6007,128.7
607.8055,151.1
607.8488,576
608.0034,259.9
608.1748,294.2
608.2577,1045.9
608.2716,720.2
608.4139,123.4
608.8314,905.4
609.2187,104
609.2345,154.9
609.3355,136.7
609.4461,109
609.6629,398.8
610.0687,189.2
610.1451,168.9
610.2508,222.7
610.647,134.3
610.8289,2106.5
611.0768,20.4
611.4235,577.1
611.4485,173.8
611.5533,121.9
611.6894,148
611.7431,598.1
611.8862,178.7
612.4319,524.3
612.7169,21.8
612.8922,425.3
612.9297,24.5
613.011,184.5
613.3982,256.6
613.4762,535.5
613.5197,548.1
613.7964,94.5
614.0027,129.4
614.1845,138
614.3323,893.6
614.3411,1332.2
614.52,146.2
614.8341,134.4
614.9726,497.6
615.0767,137.7
615.3247,370.5
615.3481,245.3
615.4622,426.1
616.0791,169.9
616.4008,511.2
616.4985,142.5
616.8328,20.1
617.1377,761.6
617.4104,714.9
617.4759,7847
617.6506,115.9
617.9248,744.5
618.1052,22.7
618.2485,116.3
619.4397,197.4
619.4922,15351.1
619.7565,253
620.0251,138.7
620.4655,728.2
620.4956,1671.6
621.1639,145.5
621.3637,163.7
621.4583,724.1
621.4659,827.3
621.4707,834.9
621.4867,6165.6
621.734,22.3
621.7877,112.8
622.0614,19.6
622.3281,462
622.4646,49.9
622.4893,1897.8
623.0942,293.6
623.1367,24755.2
623.4048,438.8
623.4622,134.2
623.5003,1713.4
623.7475,384
623.9034,242.6
624.1402,4045.5
624.1593,140.6
624.3422,125.6
624.6161,26
624.9195,305.4
625.1434,162.2
625.4626,256.9
625.4762,153.3
625.52,714.9
625.877,224.3
625.8934,110.8
626.0238,323.8
626.1867,148.8
626.2877,101.5
626.3853,105.1
626.7673,267.3
626.8413,333.1
627.3033,376.7
627.4221,19.1
627.5355,1017.5
628.0711,287
628.2488,515.5
628.4602,439.5
628.5107,265.9
628.5399,371.4
628.6141,251.5
628.6441,514.5
628.7903,117.8
628.8623,191.8
629.0449,242.9
629.1535,56108.3
629.3798,106.7
630.1569,11022.8
630.3641,19.7
630.5127,218.6
630.5354,624
630.7481,100.4
630.8261,807.8
630.931,735.4
631.0018,18.6
631.1592,842.3
631.5029,21.3
631.7581,236.7
631.8143,298.4
632.4392,314.2
632.4832,504.5
632.6092,366.7
632.6483,208.3
632.6962,125.7
632.7173,246.9
632.7636,374.9
633.2518,899.7
633.4675,702.8
633.494,153.6
633.6642,47.3
633.8378,147.1
633.8724,581.3
633.9388,135.4
634.0763,399.5
634.1082,304.5
634.2893,130.1
634.4027,67.4
634.5055,258.4
634.8433,1320.1
634.8926,192.9
635.2725,615.8
635.5585,221.7
635.8204,419
636.161,445.1
636.2831,359.8
636.3714,111.1
636.8398,3545.6
637.0763,570
637.222,417.5
637.4314,103.1
637.5043,399.1
637.748,177.7
638.0712,380.4
638.1035,210.9
638.3656,598.4
638.4134,133.4
638.4522,1331.8
638.8373,1203.1
638.9168,388.3
638.9597,121.9
639.1547,506.9
639.1777,190.4
639.2894,523.7
639.4109,44.6
639.4453,896.1
639.652,95
639.7103,147.4
639.9693,923.3
640.0266,23.7
640.1558,211.6
640.3442,260.3
640.4043,120
640.7385,131.8
640.7795,385.8
641.043,420.4
641.2347,158.3
641.3141,218.3
641.6543,785.4
641.6886,108.5
641.8458,615.1
642.467,511.1
642.4916,365
642.5509,189.1
642.6168,390.5
643.2172,18.1
643.7099,695.1
643.9574,156.6
644.2178,21.6
644.4859,158.1
644.5409,21.5
644.628,97.3
644.6758,809.9
644.7385,221.4
645.0316,168.4
645.0622,301.9
645.1187,18859.4
645.2144,417.9
645.2706,158.2
645.4141,286.4
645.7282,391.7
645.8062,209
646.0357,147.5
646.1215,4107.4
646.264,47.3
646.4258,238.6
646.4484,228.3
646.6121,239.2
646.9314,1255.6
647.0946,452.3
647.116,863.6
647.1387,181.1
647.146,110
647.1591,18
647.1844,113.8
647.4397,698.9
647.4656,863.9
647.4738,980
647.7861,218.9
647.965,568
648.3361,2064.2
648.5027,141
648.5856,395.7
648.6919,141
649.0238,221.1
649.0843,346.1
649.1059,139.1
649.2313,155.3
649.3008,512.2
649.3409,475.8
649.489,500.8
649.589,460.5
649.6692,438.1
649.9382,735
650.1658,232.3
650.2549,253.1
650.5285,21.7
650.5605,208.9
650.6785,519.5
650.694,22.2
650.8171,2101.4
650.8527,174.9
651.0575,246
651.1354,55381.6
651.2399,1675.1
651.3541,246.5
651.5357,63.3
651.773,266.1
651.7778,290.4
651.7848,211.2
651.9662,19.3
652.139,10238.7
652.6567,175.6
652.664,172.3
652.8143,2984.4
653.1111,816.7
653.1403,884.6
653.4911,177.6
653.7562,156.5
653.792,59.7
653.8134,575.5
654.1226,110
654.2017,23.8
654.2553,429.6
654.3323,115.9
654.5372,185.6
654.6394,122.8
654.8117,1651.7
654.954,1049
655.1221,127.6
655.191,803.8
655.2486,235.1
655.7403,358.1
655.9044,228.7
656.1359,19.3
656.2313,130.7
656.2748,192.7
656.3372,502
656.4432,219.9
656.635,391.2
656.8907,43.9
657.0198,108.9
657.3882,113.3
657.5539,345.4
657.789,128.7
657.8993,183.3
658.1634,259.6
658.3792,347.3
658.432,681.2
658.501,22.2
658.7174,472.2
658.8077,438.7
658.8828,48.9
658.9055,98.6
659.1031,312.1
659.283,491.8
659.437,718.9
659.654,216.7
659.9854,382.9
660.2977,305.5
660.4459,295.1
660.4828,784.5
660.5089,50.8
660.814,159.8
660.84,478.6
661.0833,9230.1
661.2108,98.7
661.2913,260.4
661.3974,161.3
661.9248,267.2
662.2987,133.7
662.3717,650.5
662.6717,325.2
662.8424,375
662.8896,330.3
662.9259,293.1
662.9848,47.2
663.2936,348
663.4545,1740.7
663.5848,19.3
664.0415,480.9
664.103,682.5
664.3029,769
664.4663,4129.5
664.9249,467
665.0621,449.5
665.1069,17.9
665.3492,145.5
665.4715,377.1
665.6669,273.6
665.8781,857.9
666.4842,9005.2
666.5426,312.5
666.9652,142.7
667.1001,26364.6
667.4883,1965.5
667.9072,432.9
668.1037,3623.2
668.2013,424.7
668.7875,333.7
669.1088,547.6
669.4976,858.2
669.6202,919.2
669.9107,54.7
670.0873,171.1
670.2249,401.7
670.6633,122.1
670.929,546
670.9847,787.7
671.2626,414.6
671.4431,513.9
671.6949,295.2
671.879,18.2
672.0272,161.3
672.6764,332.1
672.882,180.8
673.0108,144.2
673.0399,541.7
673.1174,57633.6
673.1762,18.3
674.1211,11296
674.4384,346.8
674.5898,530.4
674.6236,446.8
675.0945,296
675.1215,1227
675.4719,225.7
675.5445,13703.2
675.6527,149.4
676.5485,3040.7
677.1878,19.5
677.3073,163.9
677.3944,19.6
677.4409,1064.5
677.4538,996.6
677.6794,313.4
677.7108,160.5
677.7559,474.3
677.9116,46.9
678.2975,323
679.0015,211.2
679.1434,172
679.541,101.1
680.1426,385.9
680.4304,106.7
680.4434,817.6
680.9338,902.5
681.0876,100.4
681.2223,270.4
681.2557,234.4
682.0654,664.4
682.455,593.6
682.5765,19.7
682.6405,242.1
683.0641,4383.2
683.074,3355.4
683.1457,858.7
683.2893,194.7
683.3494,165.6
683.5128,805.3
683.6225,112.9
683.6536,147.1
683.9975,121
684.0763,374
684.1152,57.2
684.4354,21.5
684.4489,19.7
684.4723,306.5
684.8854,347.2
684.9873,349.4
685.4369,9337.1
685.5223,323.4
685.567,352.4
686.4413,3207.5
687.1194,21.5
687.2613,320.4
687.416,332.3
687.9349,23.4
688.2105,697.1
688.3951,367.8
688.4852,427.5
688.704,147
688.8929,20.3
688.9494,186.1
689.0264,448.2
689.0816,19213.1
689.0917,16938
689.4566,359.6
689.5599,3279.3
689.5845,46.6
689.7566,260.2
690.0954,2184.4
690.5694,279.8
691.1712,258.1
691.2488,249.3
691.49,19.8
691.8232,747.5
692.2895,341.5
692.3684,119.2
692.564,445.3
692.8014,366.2
692.9664,643.8
693.3609,347.9
693.5592,345.9
693.5764,21.8
693.6398,384.7
693.8678,215.4
693.8939,544.2
693.9401,133.9
694.6636,471.9
694.7505,142.4
695.0994,38070.4
695.3471,139.3
695.4613,2510
695.5118,2012.3
696.103,7353.5
696.2176,341.3
696.2753,298.1
696.3112,473.3
696.3275,118.5
696.6022,405.8
696.6583,242.5
696.7657,320.8
696.796,486.6
696.8772,476.7
697.106,256.2
697.2078,175.2
697.245,394
697.3145,348
697.4775,910.4
697.5266,24487.4
697.6656,172.7
698.0353,20.3
698.2347,27.3
698.5296,8839.5
698.7548,541.1
698.8086,122.3
699.4518,108.9
699.4802,288.1
699.8882,20.3
699.8995,147.7
701.0653,149.9
701.105,352.2
701.3948,550.6
701.4096,555
701.5604,29895.9
701.6172,216.2
702.0013,819.1
702.0566,112.1
702.1366,353.9
702.3423,2286.1
702.397,185.9
702.4071,199.7
702.5419,181.8
702.5642,10922.2
703.0303,477.8
703.4445,639.1
703.4953,100.4
703.5502,312.3
703.576,106683.5
703.7231,141.8
704.1093,45.9
704.4487,967.5
704.5088,137
704.5793,44046.5
704.6644,702.7
704.8986,114.4
705.0557,3987.9
705.5827,6326.7
705.688,110.1
705.7585,496.7
705.9733,23
706.46,161.1
706.5388,2723.6
706.6845,354.2
706.9611,276.9
706.9773,722.5
707.4723,171.1
707.5418,510.3
708.429,101.1
708.4656,800.5
708.579,134.3
708.6703,762.2
708.7853,404.3
709.2369,752.9
709.3218,241.7
709.4236,309
710.5472,22
710.5705,217.9
710.7727,436.8
710.9969,762.6
711.0631,11374.3
711.0746,13912.8
711.3357,23.6
711.542,5755.7
712.0064,120
712.0776,912.2
712.3839,880.7
712.5445,2777.3
712.7397,505.4
712.812,245.8
712.9188,255.2
713.0089,19
713.4021,105.5
713.5006,1079.3
713.9981,150.2
714.0518,462.7
714.0864,439.6
714.3693,197.4
714.7125,352.7
714.9288,410.3
715.0732,287.3
715.2889,106.7
715.4692,219.9
715.6369,112.6
716.0905,312.1
716.4334,273.6
716.5194,48.2
716.751,240
716.9303,18.9
717.0814,17583.7
717.3742,593.8
717.5559,43.5
717.6361,130.1
717.726,128.1
717.839,386.7
717.9664,395.4
718.0286,138.6
718.085,2130.6
718.1448,224.4
718.2682,507.6
718.577,1493.4
718.9293,327.8
719.0838,231.5
719.1298,152.4
719.3855,151
719.4603,561.4
719.5771,145.2
719.8556,496.5
720.3546,908.4
720.5544,395.4
720.5915,598.4
720.7507,416.3
720.7755,116.9
720.8237,445.5
721.0103,498.8
721.1957,102.5
721.3974,990.9
721.438,212.8
721.479,49733
721.5423,387.4
721.5646,280.8
721.904,747.6
722.0213,781.1
722.1668,203.4
722.4824,20223.8
723.2627,255.7
723.4954,15987.6
723.5423,38710
723.6303,97
723.8361,112.9
724.0722,357.6
724.1455,118.6
724.3245,876.2
724.4978,5194.4
724.5457,12554.7
724.6724,17.7
724.9162,285.9
725.5581,125966.5
726.0327,237.8
726.3067,272.7
726.4219,18.5
726.5613,50752.8
726.6454,20.3
726.8828,18.1
726.8909,17.7
727.0291,2603.2
727.0935,175.3
727.3607,438.6
727.4048,103.9
727.5135,224.9
727.5645,6178.9
727.933,343.2
728.2139,226.5
728.3993,338.6
728.5219,3624.4
728.5709,432.7
728.8062,231.9
729.0011,220.7
729.0097,623.8
729.0165,613.2
729.0759,287.9
729.1119,189.7
729.5269,676.6
729.5914,8719.1
729.9123,19
730.3804,141.5
730.4867,495.5
730.5391,7483
730.5962,2063.3
731.0581,188.5
731.1389,490.2
731.2436,22.5
731.3659,149.3
731.5424,1337.7
731.6079,6901.6
732.0108,412.3
732.5551,75708.9
732.6116,2267.5
732.7931,278.4
733.0556,9649.5
733.1475,536.9
733.3153,189.5
733.3765,518.9
733.4888,501.5
733.5584,33675.7
733.8846,530.5
734.0494,400.6
734.0558,416.3
734.0928,19.2
734.271,161.9
734.3754,431.3
734.5715,15925
734.6693,253.5
735.4048,322.1
735.4359,226.4
735.5732,2580.4
735.8159,448.5
735.9858,18.6
736.6353,211.5
736.9073,20
737.4074,269.9
737.4534,9749.8
737.7313,290.5
737.9054,201.3
738.4579,2207.2
738.5382,294.6
738.8567,892
738.9312,1210.8
738.9538,1469.5
738.9884,172.6
739.0635,11313.9
739.4684,2824.4
739.5165,2059.9
740.0303,150.1
740.0666,540.5
740.0998,22
740.1371,211.5
740.3497,801.2
740.5167,1524.5
740.5601,536.6
740.7913,708.9
741.1124,225.5
741.2511,252.3
741.5321,14556
741.7053,19.5
742.0557,19.9
742.1594,18.9
742.2163,378.9
742.4002,380.1
742.5356,4403.9
742.5757,8076.5
742.636,502.2
743.3848,131
743.4626,953.4
743.5094,138.2
743.5791,2421.7
743.6685,400.8
743.7323,576.2
743.8403,535.9
744.0361,145.4
744.2149,558.3
744.2534,122.7
744.5551,3425.1
744.592,10475.2
744.7976,55.3
744.8448,108.9
745.0251,420.3
745.4792,36023.7
745.5568,1110.5
745.5952,2677.8
745.914,18.2
746.3738,144.2
746.4825,16034.1
746.5709,7083.5
746.6076,6712.7
746.6591,110.1
747.3507,141.6
747.4949,12216.6
747.5743,1176.2
747.6113,1746.3
747.6481,381.9
748.4988,3756.3
749.0275,733.9
749.4844,378.1
749.5096,2569.5
749.8417,231.2
750.0248,348.6
750.4425,127.3
750.5458,875.6
750.8902,148.6
750.9137,200.4
751.3837,879.2
751.5508,242.3
751.5738,10260.7
751.6584,469.2
751.8122,329.2
752.087,714.4
752.497,183.9
752.521,13384.7
752.5778,2239.6
753.0011,854.2
753.5248,3519.8
753.5649,234.6
753.5898,3784.7
753.871,219.6
754.5373,69581.1
754.592,656.5
754.8223,224.3
755.028,5491.6
755.2262,23.3
755.5405,28315
755.7925,317.5
755.9233,696.1
756.4213,183.2
756.5548,49858.6
756.9574,366
757.0535,176.9
757.1206,327.4
757.5065,209.8
757.558,22133.4
757.5957,554
757.623,1107.3
757.677,94.8
757.9162,18.9
758.0617,401.9
758.1207,173.2
758.2129,194.4
758.3304,18.1
758.5707,892587.4
758.6551,128.9
759.093,235
759.4751,182.8
759.5741,386713.4
759.6397,306.5
759.7718,413.6
759.9203,262.2
759.94,593.8
760.2701,239.7
760.3712,813
760.5102,103.2
760.587,470129.3
760.6422,303
761.046,3942.5
761.2171,314.7
761.4224,144.5
761.4532,6242.8
761.59,214609.2
761.6452,383.8
761.9112,402
762.0256,19.8
762.0489,616
762.1129,249.6
762.4554,940.7
762.5929,50423.1
762.6263,232.7
762.8107,323.2
763.3707,243.9
763.466,189.6
763.5671,690.2
763.5953,5233.4
763.814,131.8
763.9884,107.3
764.5578,1947
765.3185,22.1
765.4044,506.4
765.4468,584.2
765.5095,22.8
766.1581,664.7
766.198,303.2
766.5383,4110.5
766.5755,32215.3
766.9208,20.2
767.2223,106.6
767.2541,20
767.4902,708.1
767.5362,670.3
767.5793,11649.6
768.0968,140.5
768.4911,824.6
768.5538,10440.8
768.5915,51138
768.966,805.8
769.1396,534.6
769.4798,2258.9
769.5554,1117.7
769.5947,23068.8
769.9475,287.7
770.1523,481.8
770.259,102.8
770.339,121.2
770.4828,1667.6
770.5106,8158.5
770.5709,1332.1
770.6082,4621.7
770.687,220.9
770.9924,4420.3
771.0736,343.6
771.4949,3757
771.5158,2127.4
771.5723,326.8
771.6124,1339.2
771.6554,20.1
771.7648,239.9
771.884,421.8
771.9332,429
772.1565,253.9
772.1808,108.2
772.1876,134.7
772.3626,278.7
772.5359,367.5
772.5607,260.3
772.5867,16106.3
772.6233,987.4
772.6484,314.6
773.0681,436.5
773.5119,4146
773.5328,257.5
773.5902,4480.5
773.6257,268
774.2424,371.3
774.2771,686.5
774.5154,236.3
774.602,3140.8
774.7066,208.4
774.8246,148.7
774.8446,129
775.1055,390.9
775.2361,144.6
775.4765,230.9
775.5165,133.7
775.6055,1572.3
776.3577,283.3
776.5246,1996.3
776.6805,19.1
776.7214,139.8
777.0089,5186.6
777.0313,797.1
777.5401,816.4
777.6152,871.8
778.3316,479.7
778.4626,204.9
778.5373,37784.6
778.9658,50.9
779.237,143.1
779.3062,111.1
779.3399,376.8
779.4797,377.4
779.5167,383.5
779.5409,15009.5
779.6064,872.2
780.5528,647935.1
780.8126,20
780.8823,166.8
781.0392,494.7
781.4254,641.3
781.4563,19
781.5563,280707.7
781.621,787.4
781.7568,558.9
781.7955,253.8
781.9969,242.9
782.4341,355.1
782.5703,826923.2
783.0276,4782.9
783.5735,383305.3
783.7036,163.7
784.0236,177
784.5873,302384.4
785.0575,507.5
785.1985,99.3
785.5901,152818.7
785.6549,3470.1
785.7254,149.4
786.3706,469
786.6028,252335.2
786.6604,359.1
786.7499,234.8
786.8198,101.6
786.8862,341.3
787.0589,144.8
787.379,402.5
787.6056,123977.5
787.672,574.6
788.1359,168.3
788.5578,14467.7
788.6051,15467.8
788.6207,21475.3
788.6709,510.4
789.2974,306.1
789.4456,19.1
789.5618,2055.7
789.6222,10552.7
789.7912,906.8
789.8193,1130
790.2746,247.6
790.4893,121.5
790.5235,226.3
790.5517,1778.5
790.5738,28520.2
790.6245,783.4
790.776,20.6
790.9416,308
791.5354,224.9
791.577,10987.5
791.769,259.5
791.9423,383.8
791.9943,320.5
792.1527,219
792.2713,352.4
792.5545,1178.4
792.5918,11930.3
792.8869,119.8
792.9541,291.8
792.985,1413.5
793.4467,19.5
793.5937,4291.9
793.815,262.9
794.5106,4362
794.5686,6587.3
794.6074,56455.4
795.2198,128.8
795.2698,285.6
795.5716,4708.5
795.6107,26661.1
795.7397,104.3
795.8081,150.5
796.0875,206.6
796.3226,251.4
796.3769,859.9
796.4558,101
796.5269,109275.9
796.5863,11181
796.6247,8259.3
797.4877,683.9
797.5301,51478.5
797.5894,3339.4
797.6269,2134
798.4495,20.2
798.5433,44680.4
798.6028,2298.7
798.7191,95.8
798.843,1674.6
799.0011,296.5
799.1593,140
799.3284,18.5
799.5457,20601.6
799.6696,112
800.5514,1124.4
800.654,335.5
800.8547,20.6
801.5267,130.6
801.6821,856.2
801.7741,159.1
801.7984,163
802.5371,29125.1
803.0563,1005.4
803.3856,155.3
803.5404,15022.5
803.6869,126.7
804.25,502.6
804.5528,386927.7
804.6147,307.1
804.6981,595.8
804.8121,441.6
804.9286,579.8
805.3883,434.9
805.5561,187149.3
805.7583,293.7
805.9974,501.9
806.3961,361.4
806.4636,293
806.57,284216.8
806.6925,355.3
807.3401,159.9
807.3978,288.7
807.5729,141414.2
807.7093,426.6
807.775,309.2
807.8406,256.2
808.4531,726.7
808.5189,325.7
808.5859,237030.1
808.6387,745.5
808.7741,173.9
808.9468,147.6
808.9965,285.9
809.2694,212.1
809.38,209.5
809.589,114459.6
809.6528,330.9
810.0018,100.6
810.1476,230.8
810.3455,21.7
810.4304,509.4
810.5441,1075.1
810.6026,179434.8
811.0146,811.4
811.1633,20.7
811.6055,90214.2
811.6697,6564.6
812.1368,289.4
812.1565,614.1
812.6038,8407.2
812.6203,28094.8
812.6738,1546.1
812.9063,107.9
813.2186,407.2
813.2532,177.8
813.3259,112.1
813.6222,16431.5
813.6861,5513.9
814.5721,384.7
814.622,551.8
814.6891,2688.1
814.9472,429.9
814.9689,230.1
815.0507,846.8
815.1375,346.7
815.5603,260.9
815.6411,269.7
816.3309,99.1
816.4734,409.5
816.5892,26523.3
816.63,233.7
816.6924,109.8
817.4353,379.8
817.5253,317.6
817.5921,14191.3
817.6984,1027
817.7216,264.3
818.5109,761.3
818.5675,2955.1
818.6069,5136.5
819.6095,627.7
819.6489,336.4
819.9849,149.6
820.0513,579.6
820.5,562.2
820.5267,70406.7
820.6236,620.3
820.6798,215.9
821.1004,565.4
821.1784,551.7
821.209,351
821.5299,31890.2
821.5878,412.1
822.5431,32061.1
822.6345,1543.2
823.1208,20
823.4064,764.3
823.433,252.7
823.4795,941.6
823.546,13236
824.2374,327.6
824.5584,24246.1
824.9341,114
824.9786,124.6
825.1945,1423.7
825.4349,121.4
825.5615,8912.8
825.6911,19.1
825.8262,660.1
826.0572,18.9
826.1737,372.1
826.5745,331.3
827.0222,20.4
827.0421,260.8
827.1311,122.7
827.303,21.9
827.8541,18.5
828.0217,150.3
828.2626,325.8
828.553,69643.5
828.6262,376.4
828.7542,385.8
828.9562,459
829.5563,33225.3
829.6088,337.5
829.8999,291.5
829.9477,426.3
830.1341,1159.1
830.1965,537.4
830.3548,279.9
830.5692,67958.3
830.812,332.5
830.9914,19.1
831.4973,158.2
831.5719,33635.8
831.8251,592
831.9971,423.1
832.1158,19
832.1893,50.6
832.5849,94976.4
833.4005,328.2
833.4276,109.6
833.5239,226.9
833.5881,50903.4
833.652,578.6
833.8879,18.8
834.6023,32494.9
835.0236,152.1
835.0653,685.1
835.4025,18.7
835.5445,19.9
835.605,15936.2
835.6729,314.8
835.7122,138.1
835.7289,508.2
835.7556,607.4
836.1284,304.2
836.6191,3709.3
836.7429,136.4
836.9452,678.4
837.2666,465.9
837.4095,283.7
837.5084,217
837.6191,1961.6
838.2119,273.6
838.2783,281.4
838.319,510.3
838.4159,768.5
838.6224,293.6
839.1171,129.9
839.2003,281
839.3895,686.9
839.6349,68.2
840.0956,100.9
840.1474,148.7
840.211,436.6
840.7034,403.2
840.7392,886.5
840.7869,411.9
841.5222,530.8
842.6976,284.5
842.7417,339
842.8477,534.8
843.5662,134.2
843.6557,143.4
844.2179,831.5
844.5267,11159.7
844.5806,131.3
844.62,227.6
844.9202,371.1
845.5301,2000.9
846.1792,94.6
846.4877,468.6
846.5426,7584.8
846.8253,93.7
847.5436,1558.1
847.579,335
847.7657,371.1
848.0377,674.4
848.1753,256.9
848.3917,698.1
848.4889,151.1
848.5571,11757.8
848.617,317.6
848.8031,258.8
849.0787,1153.6
849.3324,273.5
849.4291,131.3
849.561,1773.4
849.6211,154.9
850.0456,500.9
850.121,331.1
850.1367,419.5
850.619,21.6
850.6889,123.5
850.7733,242.1
850.8756,250.7
851.4365,97
851.5645,189.4
851.8611,147.8
851.9106,220.5
852.0776,307.4
852.1845,197.6
852.4749,396.9
852.7534,430.9
853.0089,25.7
853.2608,422.6
853.3453,332.3
853.4869,251
853.5753,160.3
853.7261,401.2
853.8823,19.8
854.028,309.3
854.0345,310.3
854.0948,106.4
854.1984,103
854.3899,293.6
854.5692,1952.1
855.0809,131.4
855.2733,274.6
855.4076,138.8
855.7289,22.1
856.1574,20.8
856.4785,174.6
856.5064,114.7
856.5847,6485.5
856.6081,21.4
856.6943,258.7
856.7446,391.6
857.3083,369.4
857.5926,742
857.8074,612.9
858.0487,511.3
858.1778,220.3
858.5182,243.3
858.6041,103.3
858.9513,55
859.0597,142.5
859.2481,776.9
859.3793,757.9
859.6697,713.9
859.7856,711.1
859.9447,114.4
861.332,431
862.5232,186.8
863.0615,466.9
863.1529,23.1
864.1015,243.6
864.1261,125.7
864.1506,153.8
864.6821,48.6
864.7286,408.4
864.9026,45.7
865.7211,130.5
866.2647,22.1
866.3152,1112.9
866.6122,117.1
866.7323,285
866.9136,273.2
867.0807,118
867.6236,482.4
867.7459,248.7
868.4442,1458.4
868.5318,128
869.7349,116.2
869.782,48.8
869.8406,1461.8
869.9219,279.5
869.9748,428.9
870.0211,193.1
870.065,2255.5
870.1356,1502.6
870.1662,1497
870.1915,2456.9
870.2326,4835.2
870.2555,4108.8
870.3219,2749.6
870.3915,788.9
871.23,497.4
871.3497,90
871.3772,349.8
871.6434,157
872.3367,22.5
873.611,151.3
874.1619,453.8
874.2142,193.9
874.351,232.3
874.4391,230.8
874.6134,496.6
874.9265,150.9
875.1291,1118.9
875.7157,23.6
875.871,2389
876.1117,262.5
876.3354,422.1
876.3913,116.3
876.4295,424.2
877.498,227.4
877.6821,279.1
877.9937,180.8
878.2746,18.7
878.4421,101.3
879.3087,414.6
880.7175,629.8
880.75,24.1
880.7767,385.3
880.8021,262.7
880.9598,21.4
881.3647,165.8
881.449,265.6
881.6795,1476.3
882.4616,47
882.5214,683.5
882.6019,1000.7
882.6952,317.9
883.6157,21.3
883.8329,286.5
883.9422,422.4
884.0033,397.5
884.378,551.1
884.4576,455.6
885.0903,136.5
885.1322,867.2
885.2109,211.3
885.4415,489.8
886.3281,638.3
886.5346,390.8
886.7134,274.6
887.1776,409.4
887.1997,549.3
887.3582,18.8
888.0578,552.3
888.1013,108.5
888.3041,333.2
888.5086,126.4
888.7006,21.1
889.0636,20.7
889.1672,121
889.2191,367.7
890.1716,244.9
890.2203,278.6
891.4724,158.1
891.508,818.2
891.615,411.1
891.7976,529.2
892.7953,155.3
892.9776,728.3
893.0264,596.3
893.4001,285.4
894.0688,851.7
894.1253,161
894.5479,517.7
894.8019,280.4
895.0792,17.5
895.191,610.6
895.8677,218.2
896.7358,98.9
896.9742,124
897.044,136.8
897.441,191.2
897.5017,387.2
897.9653,122.8
898.0554,604.5
898.1449,124.6
898.2213,332.9
898.3347,475.2
898.6774,227.4
899.4571,19.3
900.1603,683.6
900.1906,763.7
900.2307,357.3
900.5204,745.3
900.7511,390.2
900.9055,476.7
901.1327,182.8
901.2506,373.1
901.2875,477.7
901.4503,154.8
901.5327,151.4
901.9622,119.6
902.5993,129.9
902.6734,110.5
902.7225,197.7
903.1331,351.9
903.2916,223.9
903.8193,381.8
904.7053,136.8
904.795,593.2
904.9634,305.7
905.0411,168.4
905.7112,682.4
906.5888,566
907.0418,21
907.3303,521.8
908.12,47.5
908.5149,151.5
908.7636,246.2
908.8881,131.8
908.9727,268.6
909.7332,122.2
909.8431,139.3
910.1976,139.4
910.6989,265.9
911.0104,275.3
911.7322,787.2
912.8625,440.7
912.9866,212.3
913.7883,955.8
914.3502,47.6
914.8494,21.5
914.9377,389.8
915.2145,273.6
915.7423,264.9
915.7954,301.7
916.2756,126.3
916.4573,512.3
917.4427,156.2
917.5714,284.3
917.6709,722.9
918.5361,112.8
919.3803,300.1
919.7761,695.5
919.875,404.8
920.3024,148.8
920.3974,289.2
920.5548,917.9
921.1217,117.1
921.4112,648
921.5192,20.2
922.0582,198.7
922.3498,20.5
923.2392,105.2
923.7328,146.6
924.0011,21
924.5637,387.9
924.5937,279.6
924.8647,858.5
925.287,230.3
925.4733,299.7
925.7234,680
925.9049,117.7
926.0598,24.2
927.6986,50.5
927.905,1250.5
927.9459,135.1
927.9794,636.9
928.057,298.2
928.7193,1099.7
929.1278,495.1
931.2334,251.1
931.3235,292.2
931.6011,92.6
931.7261,97.6
931.9814,361.4
932.1396,235.9
933.0351,355.9
933.4947,316.8
934.1744,226.6
934.9069,125.6
935.0383,399.9
935.6718,734.6
935.7977,275.7
936.5447,539.7
936.6353,19.9
936.7829,20.7
936.9968,697.5
937.4386,121.5
938.0428,117.6
938.5361,1045.8
938.5848,366.3
939.7935,19.5
940.9176,851.7
941.0376,369.4
941.5611,885.6
941.8139,146.7
942.2127,199.7
942.3306,690.1
942.368,117.3
942.6025,559.6
942.6507,21.4
942.873,410.9
943.227,775.3
943.4377,455.3
943.5326,394
943.6193,319.5
944.0378,457.7
944.0875,141.5
944.1202,138
944.2312,269.2
944.5269,444.1
944.6389,18.3
945.0707,847.6
945.1538,298.8
945.3066,102.1
945.3785,270.6
945.7733,550.3
946.2887,199.2
946.8477,489.5
947.4978,1070.4
947.7911,332.9
948.0675,241.4
948.367,491.4
948.8821,150.2
949.502,1704.2
951.0216,357.7
951.1855,487.5
951.3672,948.5
951.9669,221.8
952.1608,121.4
952.6499,318.2
952.6946,419
952.8842,722.4
953.3684,928.3
954.0184,20.2
955.1047,115
956.1571,18.7
956.1976,339.2
957.0197,97
957.0921,297.1
957.1734,649.6
957.69,24.7
957.8098,875.1
958.0859,127.1
958.274,139.1
958.322,430.8
958.8493,309.2
958.9193,139.7
959.0497,307.6
959.1766,1060.1
959.4093,1742.2
959.4485,119.8
959.7197,170.1
959.9976,17.9
960.1505,635.3
960.5059,796.3
960.9325,498.3
961.3744,444.4
961.4412,365.8
961.9165,608.5
962.0687,325
962.1662,120.3
962.4165,146.8
962.5188,113.9
962.6219,830
962.766,22.2
963.0818,339.5
963.3084,194.3
963.4912,119.8
963.7612,106.6
963.839,576.1
963.9989,335.1
964.1532,742.9
964.5311,761.9
964.9933,420.9
965.0766,482
965.1283,1608.8
965.2098,831.9
965.2885,178.5
965.3807,22.3
965.5464,152.6
965.5736,668.9
965.6013,22.4
965.9854,206.6
966.0862,509.6
966.2115,112.7
966.5459,584.8
966.7496,104.8
966.8963,281.5
967.1747,271.4
967.4964,211.9
967.706,872.4
968.2478,461.5
968.4896,998.9
968.5185,18.7
968.7191,758.3
968.8428,293.2
968.9754,597
969.0948,905.6
969.201,19.7
969.2247,130.4
969.5503,570
970.5341,307.7
971.1535,24.1
972.0388,658.8
972.1263,119.3
973.5411,142.3
974.2613,995.8
974.3509,582.8
974.5167,22
974.7613,746.4
975.3224,291.6
975.3563,131.3
975.5975,623.8
975.7968,22.3
976.5187,331.7
976.6188,164.3
976.6592,192.4
976.8308,21.8
977.3988,237.2
977.7051,186.9
978.5223,330.1
978.6141,282.1
978.6364,120.2
978.7872,184.8
979.512,517.4
979.6845,174.4
980.1587,122.6
980.2637,612
980.4562,337.3
981.7213,613.9
981.9692,427
982.1786,153
982.4117,531.5
982.7195,788.2
982.9113,319.9
983.0208,331
983.3976,24.5
983.7282,573.6
983.8467,114
983.9838,163.4
984.7045,128.8
984.754,1636.7
985.035,478.8
985.184,278.1
985.5483,345.2
985.574,386.1
985.7122,869.4
985.7445,1071.2
986.1254,240.4
986.4116,18.7
986.7379,19.4
986.7762,428.8
986.8673,126.8
986.9689,1223.9
988.3275,804.5
988.9311,141.1
989.0353,458.5
989.1091,393.4
989.2046,101.9
989.6905,545.9
990.1862,635.5
990.2649,108.4
990.8717,544.6
990.9373,269.7
991.0665,1482.1
992.3554,245
992.7602,268.4
992.887,308.2
993.0479,629.9
993.2966,498.2
993.5089,335.7
993.9842,288.5
994.4043,18.9
995.1018,716.4
995.2149,101.3
995.2583,430.6
995.5715,412.3
995.9283,389.1
996.0168,19.1
996.5269,401.4
996.5905,157.3
997.0962,151.6
998.0616,248.6
998.6602,360.9
999.0474,508.7
999.3793,304.4
999.9886,423
