SPECTRUM - MS,
722.RAW,
FTMS + p ESI Full ms [50.00-1000.00],
Scan #: 1-40,
RT: 0.01-1.97,
AV: 40,
m/z,Intensity

50.0086,347.5
50.0134,202.9
50.0269,286.8
50.0383,142.6
50.0397,42.5
50.0403,425.3
50.0519,178.9
50.0582,126.1
50.0598,105.9
50.11,375.1
50.1366,528.3
50.1376,126.4
50.1411,440.6
50.1565,189.7
50.1702,327.4
50.1828,95.2
50.187,736.9
50.1895,156.5
50.1976,42.5
50.2054,17.6
50.2444,192.2
50.2478,365.8
50.2577,223.6
50.2588,224.9
50.272,488.8
50.2766,688.2
50.2885,134.6
50.3025,204.9
50.3104,621.9
50.3172,471.6
50.3321,541.3
50.3412,785.2
50.3556,111.7
50.3665,335.3
50.3731,18.1
50.3842,160.9
50.3875,707.3
50.4086,145.1
50.4238,665.4
50.4253,18.8
50.4365,471.2
50.4442,112.1
50.4624,200.9
50.4675,191.9
50.469,408.4
50.4762,658.2
50.4866,87.6
50.5299,149.6
50.5442,18.8
50.5595,299.8
50.5859,123.5
50.5885,18
50.5993,21.7
50.6038,82.3
50.6153,102.7
50.6184,250.2
50.6188,324.6
50.6226,192.1
50.6247,624.2
50.6464,657.5
50.6514,475.1
50.6648,292.8
50.6942,77.2
50.7006,44.9
50.7054,668.4
50.7109,138.4
50.7256,152.7
50.7436,458.4
50.7725,574.5
50.7769,248.2
50.7802,182.8
50.7847,383
50.7851,147.9
50.7904,20.6
50.7983,265.3
50.8061,475
50.856,93
50.8747,126.6
50.8946,528.9
50.9004,209.4
50.9091,88.3
50.9199,16.5
50.9356,160.3
50.9461,43.6
50.9612,189.3
50.987,365.9
50.9888,130.6
50.9934,294.3
51.0134,15.5
51.0161,187.6
51.026,312.9
51.0305,19.5
51.0317,251
51.0325,142.7
51.0335,94.6
51.0547,180.8
51.0649,649.8
51.0653,17.5
51.0717,225.2
51.089,291.5
51.1013,180.3
51.1039,16.1
51.1124,195.6
51.1278,349.2
51.1544,662.6
51.1574,109.5
51.1625,119.7
51.1839,147.5
51.1976,119.7
51.1984,113
51.1998,146.2
51.2067,18.6
51.2301,131.2
51.2338,269
51.2445,485.6
51.2465,264.9
51.2537,305.1
51.2547,153.7
51.2745,132.9
51.2748,214.6
51.2803,146.8
51.2905,465.6
51.2961,127
51.2982,124.1
51.3472,436.5
51.3516,191.6
51.358,231.5
51.3599,16.6
51.3664,163.8
51.3742,84.4
51.385,544.4
51.3867,123.6
51.3909,221.3
51.3987,144.8
51.4141,466.5
51.4162,124.3
51.4285,87.1
51.4505,93.2
51.4672,425.6
51.4871,422.5
51.4913,131.9
51.5085,109.9
51.5159,225.7
51.5693,501.5
51.5702,727.4
51.5746,40.2
51.5876,16.5
51.588,126.6
51.6049,228
51.6157,225.7
51.6241,16.2
51.6247,109.9
51.6286,253.2
51.6342,120.9
51.6376,631.8
51.644,45.2
51.6515,258.4
51.6554,168.6
51.6563,19.3
51.6695,211.4
51.6823,17.4
51.6847,471.8
51.6857,505.1
51.7,508.4
51.7056,19.3
51.7069,123.2
51.7144,126.4
51.7382,534.2
51.7393,42.7
51.7398,177.6
51.7517,154.1
51.7561,402.6
51.7661,17.5
51.7784,476.1
51.7826,253.7
51.793,124.3
51.812,266
51.8234,519.5
51.8351,17.4
51.8355,412
51.8575,733.2
51.8865,403
51.9207,152.3
51.9278,18.6
51.9923,17.5
51.9958,504.2
52.0024,19.1
52.0083,331
52.0297,184.1
52.0591,238.7
52.077,258.4
52.0852,39.2
52.0886,383.8
52.1149,15.8
52.139,480.2
52.15,143.7
52.1506,17.4
52.1649,399.4
52.1838,452.2
52.21,144.8
52.2184,18.1
52.2223,40.1
52.2231,18.7
52.2343,526.4
52.2422,462.7
52.243,101.9
52.2434,128.3
52.25,16.5
52.2843,16
52.2956,17.4
52.2961,263.6
52.3138,389.4
52.3215,126.3
52.35,17.3
52.3518,155.4
52.3625,478.9
52.3759,376.6
52.3836,122.8
52.3863,192.2
52.3994,189.3
52.3998,478.3
52.4085,53
52.4144,294.4
52.422,82.8
52.4346,83.9
52.44,153.9
52.4545,567
52.4679,134.7
52.4746,464.7
52.4757,111
52.4771,184.7
52.4775,143.9
52.48,94.4
52.4816,16.9
52.4844,254.2
52.5138,16.3
52.5142,161.9
52.5148,17.2
52.5441,679.5
52.5532,344.3
52.5709,267
52.5764,276.2
52.5932,131.4
52.5997,86.8
52.6204,17.1
52.6585,156.5
52.6779,502.8
52.6797,564.8
52.6809,167.9
52.6827,314.4
52.6916,136.6
52.6992,17.1
52.7396,119.2
52.7563,574.5
52.7716,444
52.7748,557.6
52.7877,200.7
52.7918,540.3
52.7922,1791.6
52.793,2562.7
52.7934,2048.3
52.7941,2916.6
52.7945,1898.2
52.7955,1352.4
52.7962,768.9
52.7972,446.5
52.7974,774.4
52.7977,690.2
52.8002,137.2
52.809,91.9
52.8232,85.3
52.8242,197.5
52.8248,235.6
52.8301,118.6
52.8344,185.3
52.8378,99.1
52.8435,406.9
52.8548,156.4
52.8871,175.4
52.8958,186.3
52.9156,501.5
52.9422,528.9
52.9449,423
52.9455,559.2
52.9529,691.4
53.0239,92.9
53.0292,128.4
53.0609,18.1
53.0774,16.2
53.0795,717.5
53.0857,419.7
53.1346,494.1
53.1388,266.1
53.1396,358
53.142,127.3
53.1447,262.5
53.1573,270.4
53.1839,113.8
53.1844,143.3
53.1951,121.1
53.2065,20.5
53.2191,735.8
53.2261,459.8
53.2392,154
53.2428,150.5
53.2532,160.6
53.2571,155.2
53.2629,95.4
53.2744,17.1
53.298,130
53.3005,247.8
53.3067,291.3
53.3074,438.6
53.316,185.9
53.3247,587.6
53.3319,87.9
53.3336,126
53.3409,171.9
53.3533,17.3
53.3563,923.5
53.3629,93.8
53.3976,531.6
53.3994,134
53.4335,513
53.4386,692
53.4456,601.3
53.4501,269.4
53.4505,111.3
53.469,101.8
53.4798,161.7
53.4892,17.9
53.4908,135
53.5083,233.8
53.5414,298.5
53.5449,176.2
53.5478,280.3
53.5543,210.7
53.5771,177.3
53.585,530
53.5954,215.4
53.6033,488.1
53.6132,113.2
53.6211,93.2
53.648,84.9
53.65,320.5
53.661,260.5
53.6701,147.7
53.6738,255.7
53.6879,17.7
53.7138,381.2
53.7224,246
53.7256,555.4
53.7312,197.2
53.7435,119.7
53.7651,111.3
53.7719,264.6
53.7865,488.2
53.7871,200.2
53.7971,20.5
53.8024,270.9
53.8043,343.7
53.8166,243.9
53.8373,372
53.8377,189.7
53.8415,14.3
53.8602,496.6
53.8653,500.8
53.8723,17.4
53.8733,105.1
53.876,144.9
53.8782,87.4
53.8818,391.4
53.9035,659.8
53.9267,94.3
53.9365,225.8
53.9398,159.1
53.9422,434.3
53.9813,454.2
53.9914,157.9
53.9928,165.3
54.0089,860.5
54.0166,324.1
54.0238,572.1
54.0307,121.9
54.0473,37.8
54.0491,119
54.0621,217.6
54.0918,496
54.1047,550.4
54.116,453.2
54.1348,106.6
54.1445,565.3
54.1716,238.2
54.1726,415.4
54.1874,592
54.2105,130.1
54.2206,99.7
54.2278,109.8
54.2454,591.2
54.2659,173.9
54.2667,36.8
54.2738,17.2
54.2812,151.1
54.2914,567.5
54.3014,201.7
54.3023,125.6
54.3558,409.7
54.358,208.8
54.3614,137.5
54.3747,80
54.3795,91.5
54.3814,90.7
54.4112,466.3
54.4125,673
54.421,16
54.4467,290.7
54.4482,436.2
54.4495,214.8
54.4518,103.4
54.4545,212.2
54.4572,153.4
54.4985,167.1
54.5045,323.7
54.5424,520.5
54.5442,128.5
54.5466,271.8
54.5575,159.6
54.5717,710.1
54.5721,383.7
54.5749,144.4
54.5782,767.7
54.5831,190.2
54.6016,125.8
54.6225,318.1
54.6253,587.9
54.6272,284.2
54.6322,176.4
54.6391,251.5
54.6414,15.7
54.6875,483.7
54.6995,446.7
54.703,413.8
54.7035,306.3
54.7165,219.8
54.7286,122.7
54.7494,80
54.7566,127.9
54.7748,414.3
54.7783,652.8
54.8072,87.5
54.8105,107.9
54.8368,17.5
54.8412,16.9
54.8468,167.7
54.8519,110.8
54.8571,361.2
54.8715,16.2
54.876,454.2
54.9001,102.3
54.9016,251.5
54.914,80.5
54.9224,117.5
54.9247,76.2
54.93,294.9
54.9348,16.7
54.9383,118.1
54.9391,621.6
54.9517,670.8
54.9527,114.9
54.9857,243.5
54.9952,462.4
55.0007,216.4
55.0251,17.5
55.0411,224.4
55.0488,548.7
55.0536,91.4
55.0578,150.9
55.0584,417.7
55.0784,17.8
55.0806,373.5
55.094,550.6
55.1001,490.5
55.1024,690.3
55.1205,43
55.1428,247.6
55.1689,91.2
55.1746,43.6
55.1757,100.5
55.1847,15.5
55.1964,121.3
55.2106,95
55.2118,14.8
55.2179,128
55.2192,655.9
55.2449,488.6
55.2652,669.3
55.2769,515.3
55.289,17.8
55.291,131.1
55.2959,18
55.3022,150.3
55.3146,71.6
55.3323,200.9
55.3376,165.5
55.3494,78.1
55.3699,97.5
55.3724,225.5
55.3878,166.3
55.3905,115.7
55.4122,184.9
55.4224,79.4
55.4253,78.5
55.4394,197.8
55.4464,544.8
55.4554,308.2
55.4567,491.1
55.4866,283.5
55.4879,85.7
55.4981,128.7
55.5109,267.6
55.5199,150.9
55.5431,146.8
55.5534,439.2
55.5724,283.8
55.5806,478.7
55.5815,200
55.5873,154.6
55.6033,17.4
55.6041,145.9
55.61,195.3
55.6358,617.1
55.6473,500.9
55.6592,125.9
55.68,466.2
55.7043,489.9
55.7105,431.2
55.7293,179.1
55.7454,271.6
55.7539,821.4
55.7746,370.3
55.7806,172.4
55.7949,141.4
55.7961,135.2
55.798,78
55.8096,92.8
55.8247,665.5
55.8388,228.8
55.8552,107.3
55.8632,128.2
55.8706,279.9
55.8753,141.3
55.884,461.9
55.8869,278.4
55.912,89.8
55.9153,213.3
55.9576,111.7
55.974,618.3
55.9777,103.9
56.0059,274
56.0155,347.6
56.0519,295.6
56.0546,112.6
56.0886,42.6
56.1101,187.7
56.1109,435
56.113,560.2
56.1136,202.7
56.1206,93.4
56.1348,440.4
56.1354,89.5
56.1379,127.7
56.1597,43.6
56.1847,98.5
56.1919,424.8
56.2019,353.3
56.2082,527
56.2133,294.4
56.2332,493.8
56.2334,279
56.2352,37.4
56.2356,91.7
56.2382,152
56.2504,250
56.2578,42.2
56.2598,249
56.2614,136.4
56.2654,182
56.2757,163
56.277,17.9
56.3023,118.7
56.315,135.9
56.3171,80.9
56.3198,459.4
56.3244,391.9
56.3379,166.2
56.3426,17.7
56.3858,472.6
56.3936,128.6
56.4135,139.7
56.4203,489.9
56.4651,19.5
56.4696,116.3
56.4706,16.9
56.4937,95.3
56.5269,94.5
56.5317,506.9
56.5466,469.4
56.5515,17.8
56.5822,518.3
56.5848,300.9
56.5912,150.1
56.6103,530.5
56.6219,279.1
56.6233,578.8
56.6374,298.4
56.639,729.6
56.6418,449.7
56.6558,97.6
56.6722,684.1
56.6832,354.8
56.6912,270.4
56.6963,443.4
56.721,18.3
56.7477,469.2
56.7646,257.8
56.7833,14.9
56.7857,17
56.7866,85.4
56.8027,454.1
56.8097,19.7
56.8103,489.9
56.8154,215.7
56.8242,16.4
56.8293,694.9
56.914,18.9
56.9363,281.3
56.9378,406.3
56.9462,494.6
56.9529,251.7
56.9649,745.5
56.9748,239.2
56.9862,214.8
57.0236,635.9
57.0376,88.9
57.0396,252.4
57.0404,288.4
57.0896,611.4
57.09,152.1
57.0946,265.2
57.0951,104.4
57.1055,534.4
57.1346,278.1
57.1502,569.9
57.1743,505.4
57.1897,311.9
57.2095,487.3
57.2128,84.7
57.2183,428.1
57.2217,94.2
57.2221,109.8
57.2283,77.1
57.2299,352.9
57.2385,737.5
57.2581,368.7
57.2586,178.9
57.2648,192
57.2701,145.7
57.2813,140.9
57.301,214
57.3325,430.4
57.3417,370.4
57.3494,37.5
57.3538,294.6
57.3787,140.8
57.3879,217.4
57.3951,77.8
57.4219,454.5
57.4232,663.8
57.4414,443.9
57.4688,94.3
57.4715,110.4
57.4846,16.9
57.4865,171.7
57.519,457.6
57.52,138.3
57.528,374
57.5292,298.2
57.553,479.8
57.5577,386.1
57.5617,323.2
57.5649,465.4
57.5794,156.5
57.5844,158.1
57.5863,477.5
57.5952,15.9
57.6238,576
57.6259,40.6
57.6411,145.8
57.6447,525.7
57.6835,296.9
57.7215,251.4
57.7248,199.2
57.7357,194.7
57.7428,37.8
57.7943,655.4
57.7984,171.7
57.8039,268.8
57.806,21.1
57.811,280.5
57.8667,263.9
57.8786,18.2
57.8833,177.2
57.8855,164.8
57.9019,197.5
57.9049,92.7
57.9141,17
57.9365,248
57.9438,242.2
57.96,335.8
57.9633,17.4
57.9717,509.8
57.9875,196.9
57.9913,372.2
58.0061,588.6
58.0081,611.6
58.0113,128.4
58.064,167.6
58.0647,167.4
58.0706,488.8
58.0822,189
58.0962,268.3
58.0999,174.7
58.1046,21.9
58.1402,94.1
58.1589,254
58.1613,242.6
58.1662,237.9
58.184,144.4
58.1954,82.2
58.2133,212.8
58.216,555.1
58.2196,172.8
58.2265,228.4
58.2435,596.2
58.2769,308.4
58.2864,652.3
58.2893,103.4
58.3171,218.8
58.3642,146.8
58.3666,17.6
58.3671,521.9
58.3827,450.3
58.39,16.4
58.3981,38.2
58.4018,184.3
58.4103,413
58.4173,82
58.4364,289.3
58.4431,17.3
58.4578,125.7
58.459,120.9
58.4764,313.2
58.4836,708.9
58.4951,280.4
58.5019,146
58.5195,352.9
58.5574,18.5
58.568,612
58.5712,106.9
58.5852,36.8
58.588,448.3
58.5911,203.2
58.6099,83.4
58.6182,253
58.6228,193.4
58.6292,266.9
58.6891,98.3
58.7537,145.8
58.7611,136.5
58.7677,235.1
58.792,16.3
58.813,252.3
58.8225,481.7
58.8335,15.7
58.8489,572.1
58.8597,174.3
58.8762,400.7
58.8829,160.1
58.8877,501.5
58.8974,146.4
58.9013,495.2
58.9332,849
58.9375,38.9
58.9532,20.3
58.9618,666.3
58.9673,202
58.9725,22.1
58.9785,476.2
58.9866,214.6
58.9918,15.2
58.9929,288
58.9938,161.6
59.0214,46.4
59.036,309.1
59.0691,90.3
59.0802,200.5
59.0924,134.1
59.1549,176
59.1594,76.1
59.1744,231.4
59.1957,98.8
59.214,95.4
59.2404,85.2
59.2414,692.2
59.248,292.9
59.2673,162.4
59.2785,222.3
59.2919,94.5
59.2976,790
59.3099,481.9
59.318,186
59.3295,131.9
59.3419,344.7
59.3486,440.4
59.3658,47.5
59.3677,166.5
59.4,157.2
59.4005,679.8
59.4067,673.6
59.4213,17.3
59.4229,189.1
59.4292,161.1
59.4691,20.6
59.4761,16
59.487,377.5
59.4945,145.6
59.5341,205.3
59.5515,464.1
59.5648,96.4
59.5754,613
59.5854,209.6
59.6224,144.3
59.6291,219.9
59.6379,487.3
59.6488,118.5
59.6814,16.3
59.6945,715.1
59.7015,19.1
59.7188,18.5
59.724,96.7
59.7256,183.9
59.7392,187.9
59.7467,483.4
59.7627,164
59.771,158
59.7769,202.8
59.7837,286
59.7916,82.5
59.7922,527.3
59.8017,165.2
59.8037,262.4
59.8112,177.1
59.8187,219.4
59.8381,476.3
59.843,508.1
59.8584,761.2
59.8618,161.6
59.8637,766.6
59.8826,142.5
59.8886,151.9
59.9215,685.1
59.9241,456.2
59.9416,273.2
59.951,17.5
59.9514,269.7
59.9819,19.5
59.9909,265.2
60.0332,19.9
60.0516,17.2
60.0583,263
60.0722,170.8
60.0937,38.5
60.1347,98.2
60.1525,420.2
60.1548,275.2
60.1709,95
60.1854,120.6
60.1925,507.5
60.1945,531.3
60.1988,129.6
60.2109,37.4
60.213,159.6
60.2199,483.1
60.2227,549.6
60.2242,179
60.2262,578
60.2555,291.5
60.2883,609.8
60.3046,200.3
60.3053,91.1
60.306,144.2
60.3303,118.5
60.3311,197
60.3333,79.8
60.3438,90.6
60.3448,16.6
60.3512,15.8
60.3558,119.6
60.3615,85.2
60.3786,508.1
60.3807,730.6
60.3824,214.9
60.3834,732.4
60.3935,267.5
60.3998,133
60.414,164.3
60.4204,190.7
60.4256,135.7
60.4282,374.3
60.438,17.9
60.4627,20.9
60.4962,191.5
60.5106,805.3
60.5238,302.3
60.5259,489.1
60.54,667.6
60.5423,384.8
60.5561,626.4
60.568,536.9
60.5751,564.8
60.6261,197.2
60.6275,81.5
60.6288,413.4
60.6459,17.5
60.648,171.7
60.6497,16.9
60.6771,133.5
60.6832,297.8
60.6951,447.8
60.7011,18.6
60.7075,18.8
60.7093,74.7
60.7135,480.4
60.7138,153.5
60.7609,80.6
60.7665,246.5
60.7803,196.9
60.7968,134.4
60.7974,294
60.82,116.5
60.8259,224.5
60.8709,89.4
60.8762,310.2
60.8899,258.8
60.9366,371.7
60.944,17.4
60.9624,465.2
60.9853,91.7
60.9869,298.7
61.0044,141.6
61.0069,139.9
61.0082,116.5
61.0126,275.7
61.028,575.1
61.0564,137.8
61.067,18.5
61.071,284.7
61.0859,355.4
61.0912,162.3
61.1016,186
61.1023,125
61.125,426.6
61.1277,129.5
61.1391,429.3
61.1806,16.6
61.1827,298.8
61.1832,228.9
61.1883,42.1
61.2161,185.4
61.2293,522.5
61.2334,247.5
61.2377,268.1
61.2432,15.9
61.2455,17.8
61.2536,148.2
61.2882,121.2
61.2915,212.1
61.2941,677.5
61.2992,18.3
61.3091,178.2
61.3179,610
61.319,18.9
61.32,287.8
61.3212,145.8
61.3331,233.5
61.3559,483.8
61.3669,38.5
61.3907,125.5
61.4037,194.3
61.4146,188.4
61.424,172.7
61.4254,103.2
61.4323,16.2
61.4355,254.1
61.4406,259.3
61.4587,447.5
61.4637,920.1
61.4708,203.4
61.4838,393.2
61.4853,636.8
61.4873,225.7
61.5036,705.8
61.542,82
61.5441,441.8
61.5498,106.9
61.5499,113.8
61.5501,116.4
61.5931,96.6
61.61,792.9
61.6167,131.2
61.6253,183.7
61.6266,454.9
61.637,40.7
61.6682,503.5
61.6758,278
61.6886,18.5
61.6986,107.8
61.7034,87.4
61.7487,20.9
61.7519,579.2
61.7899,403
61.799,492.7
61.8121,204.8
61.8291,127.1
61.8331,16.3
61.8432,399.2
61.8454,133.5
61.8703,255.2
61.8865,121.5
61.9042,869.7
61.9054,284.1
61.9188,270.5
61.9334,547.3
61.9528,18.1
61.9559,18.1
61.9927,170.7
62.0153,259.9
62.0325,383.3
62.0575,87.6
62.0674,414.6
62.0789,448.8
62.1053,148.8
62.1093,513.8
62.1105,16.9
62.1217,334.6
62.1306,40.3
62.147,472.2
62.1485,160.9
62.166,663.6
62.1686,100.2
62.1804,253.4
62.1923,19.9
62.1943,151.3
62.217,454.2
62.225,94.5
62.234,81.3
62.2674,520
62.273,639.2
62.3101,142.6
62.3223,150.7
62.3294,19.5
62.3305,145.7
62.3579,143.3
62.364,659
62.3793,165.9
62.4137,199.2
62.4359,115.3
62.4386,390.5
62.4451,127.2
62.4619,337.1
62.4735,168.6
62.5113,869.7
62.5245,80.1
62.5521,132.4
62.5614,230.2
62.5668,463.3
62.5781,16.3
62.5894,259.4
62.5936,114.8
62.6013,19.7
62.6098,462.1
62.6123,326.6
62.6204,16.3
62.6269,512.1
62.6322,121.3
62.6434,147.1
62.6524,257.3
62.661,424.8
62.673,137.1
62.72,505.7
62.7281,639
62.7685,40.4
62.7767,202
62.8292,438.8
62.8322,501.3
62.8399,148.5
62.8406,304.7
62.8767,123.9
62.8847,640.7
62.8961,343.6
62.9287,309.1
62.9613,351.6
62.98,234.6
62.9878,309.8
62.9905,195.7
63.0059,16.6
63.0572,136.8
63.0657,157
63.0731,103.3
63.0919,155.6
63.1055,457.8
63.1064,169.2
63.1345,508.1
63.1877,115.6
63.1936,335.4
63.2283,431.5
63.2435,143.2
63.2472,155
63.2592,382.9
63.2706,717.3
63.2897,216.6
63.3051,190.8
63.3462,20.4
63.353,16.8
63.3714,439
63.3812,21
63.3933,304.6
63.3938,98.9
63.3982,101.1
63.4157,92.5
63.4303,591.3
63.4402,468.9
63.4486,432.6
63.4505,432.4
63.4519,404.1
63.4584,173.5
63.4735,117.9
63.5196,106.9
63.5259,263.7
63.5265,125.7
63.5392,135.5
63.5475,587.1
63.5525,497.2
63.5745,334.5
63.5805,98.2
63.5815,20.2
63.5825,227
63.6024,183.9
63.6404,20.1
63.6446,89.8
63.6508,154.1
63.6567,450.1
63.6671,269.3
63.6915,135.2
63.7002,89.6
63.7221,483.6
63.7256,108.1
63.7592,131.6
63.763,666.3
63.7692,197.8
63.7812,535.3
63.7854,167.8
63.7912,128.4
63.7958,145.9
63.7992,145.6
63.8161,675.7
63.8192,156.1
63.8324,199.2
63.851,489.6
63.8587,114
63.8632,20.5
63.877,545.5
63.8775,433.8
63.8924,190.9
63.8958,99.2
63.9019,16.8
63.9127,173.6
63.9393,225.7
63.9436,127.4
63.9451,150.5
63.9484,105.2
63.997,97.1
63.9987,544.8
64.0141,83.7
64.0169,488.2
64.0275,482.4
64.0312,522.9
64.0594,39.6
64.0684,678.5
64.0735,710.4
64.093,90.8
64.1016,543.5
64.1161,152
64.1212,131
64.1317,265.9
64.1339,327.2
64.1375,139.6
64.1586,467.3
64.1783,205
64.1842,129.6
64.1881,206.1
64.1963,238
64.2159,267.6
64.2223,278.5
64.2236,156.9
64.226,136.5
64.23,138.2
64.232,428
64.2369,114.8
64.2473,149.1
64.2829,156.7
64.2861,269.9
64.2893,205.3
64.3127,707
64.3166,503.1
64.3272,135.4
64.3278,245.3
64.3286,133.7
64.3526,714.9
64.3706,570.9
64.3831,139.3
64.3851,112
64.4016,89.4
64.4026,150.8
64.4075,286
64.409,118.8
64.4175,564.4
64.4188,174.5
64.421,18.7
64.4212,17
64.426,134
64.4334,147.9
64.4346,853.9
64.4506,111.2
64.4619,215.5
64.4719,161
64.4837,91.2
64.4893,95.5
64.5045,102.9
64.5097,90.5
64.5125,113.6
64.5454,459.5
64.5612,516.8
64.568,232.7
64.5858,303.8
64.5869,638.2
64.6096,303.1
64.6146,187.1
64.6298,605.6
64.6411,396.5
64.696,153.2
64.7018,169.7
64.7306,589.5
64.7445,162.2
64.7491,17.3
64.7505,331.7
64.7575,507.7
64.7832,494.6
64.7886,103.1
64.7902,478.6
64.7932,18.4
64.8053,143.7
64.8091,111.7
64.8191,105.3
64.8304,114.9
64.8596,593.2
64.8632,42
64.8753,18.8
64.8762,167.5
64.8883,745.4
64.9219,131.9
64.9256,730.7
64.9408,425.5
64.9447,320.9
64.9459,16.3
64.9752,267.8
64.9862,484.8
64.9886,17.7
64.9923,252.1
64.9985,44.8
65.0016,82.4
65.0198,113.5
65.0205,121.9
65.0211,302.8
65.0315,40.6
65.0333,491.9
65.0532,593.6
65.0553,467.3
65.0604,288.3
65.0752,103.9
65.0947,309.3
65.095,677.3
65.0951,668.8
65.1039,17
65.1238,164.8
65.1657,110
65.1715,97.7
65.1729,96.1
65.1751,194.7
65.1972,225.3
65.1983,86.9
65.2011,734.8
65.2122,215.7
65.2146,601.1
65.2416,808.4
65.2488,171.8
65.2568,156.7
65.2784,135.2
65.2787,120.8
65.3301,642.6
65.3447,438.3
65.3552,471.5
65.3576,116.9
65.36,115.5
65.3638,107.2
65.371,195.9
65.3714,567
65.381,177.4
65.4055,140
65.4123,414
65.4134,336.9
65.4261,255.1
65.4283,180.7
65.4552,477.7
65.4722,188.3
65.475,165.2
65.4759,513.9
65.4832,236.8
65.4874,17.7
65.4917,529.3
65.4958,200.7
65.4964,21.4
65.4979,123.2
65.5166,178.4
65.5182,525.8
65.5185,686.1
65.5187,589.1
65.5293,738
65.5385,808.9
65.5471,619.8
65.553,529.4
65.571,432.2
65.5772,768.6
65.6114,232.6
65.6217,321.6
65.6484,467.1
65.659,452.2
65.6665,195.7
65.672,89.6
65.6778,200
65.6926,92.7
65.707,19
65.7113,126.8
65.7221,612.4
65.7322,263.2
65.7462,496.6
65.7605,167.1
65.773,119.3
65.793,17.4
65.8078,20.4
65.816,260.6
65.8695,143.9
65.8764,20
65.8769,533
65.8838,296.9
65.8849,147.3
65.8964,584.1
65.9022,141.1
65.9336,327.8
65.9442,206.8
65.992,524.2
66.0082,299
66.0113,129.7
66.038,125.1
66.0433,98.9
66.0609,256
66.0688,227.7
66.0707,546.1
66.0742,443.5
66.0854,292
66.0947,90.7
66.1253,138.4
66.1262,157.5
66.1373,142
66.145,576.6
66.1511,435.8
66.1679,308
66.1927,309.8
66.1939,613.2
66.2026,98.9
66.2105,19.1
66.2169,575.3
66.2288,330.3
66.244,122.4
66.2698,494.4
66.2769,166.6
66.2812,152.2
66.2821,125
66.2864,172.3
66.3004,133.2
66.3139,438.8
66.3204,151
66.3229,297.9
66.3296,127.8
66.3384,148.1
66.3542,106.4
66.3592,100.9
66.3601,219.3
66.3641,135.4
66.3747,19.9
66.3982,431.7
66.4111,127.5
66.4165,440.1
66.4231,162
66.4258,174.4
66.4842,568.9
66.49,765.5
66.5061,549.5
66.526,17.7
66.5736,176.6
66.5897,464.2
66.6104,457.9
66.6186,18.9
66.6461,660.1
66.6713,195.7
66.7206,101.3
66.7355,185.9
66.7636,150.1
66.7682,21.5
66.7709,327.8
66.775,201.3
66.7802,18.6
66.7816,121.3
66.7879,115.6
66.7906,85.6
66.7937,339
66.7957,87.7
66.8161,368
66.819,131.5
66.8339,560.6
66.8376,155.7
66.8443,15.2
66.8499,550.9
66.8666,100.2
66.8742,263.1
66.8954,124.7
66.8963,86.4
66.9287,468.6
66.9291,683.9
66.9603,208.1
66.968,149.4
67.0116,143.1
67.0163,104.1
67.0337,528.7
67.041,577.9
67.0417,16.6
67.0539,83.5
67.0616,461.5
67.0663,1018.6
67.0871,603.2
67.0968,244.5
67.1135,204.8
67.154,263.1
67.1878,131.1
67.1885,17.7
67.1914,406.8
67.2052,540
67.2322,187.7
67.2523,198.4
67.254,481.4
67.2556,571.6
67.2968,83.4
67.3086,148
67.3163,144.4
67.3427,103.4
67.4174,425.7
67.4336,16.7
67.454,781
67.4546,534.8
67.4669,176
67.4862,101.8
67.4963,599.7
67.5164,377.7
67.538,192.8
67.5422,353.2
67.5751,18.9
67.5863,448
67.5978,537.2
67.6115,347.9
67.6243,198.3
67.6316,216.5
67.6359,473.3
67.6412,670
67.6425,235.4
67.6567,153.2
67.6624,193
67.6668,762.4
67.6816,275.4
67.6843,548.2
67.735,346.8
67.7361,274.8
67.7601,224.7
67.7653,420.3
67.7723,219.3
67.7915,347.5
67.8004,21.1
67.8221,91.5
67.8315,298.9
67.867,137
67.8797,453.9
67.8994,98.8
67.9037,40.3
67.9053,19.8
67.9388,152.3
67.9499,294.7
68.024,899.2
68.0276,16.6
68.0555,628.9
68.0631,17.2
68.0881,172.5
68.0895,18.9
68.1382,242.1
68.1522,262.1
68.1624,103.5
68.1687,17.4
68.1715,216.5
68.18,91.5
68.1846,15.1
68.1922,174
68.2074,522.5
68.2465,582.2
68.2658,768.6
68.2744,20.1
68.2844,160.9
68.2858,111.8
68.2907,263.5
68.3031,112.9
68.3035,278.7
68.3098,148.9
68.317,280.8
68.365,114.6
68.3785,122.9
68.4024,315.4
68.4375,142.5
68.4659,122.7
68.4681,577
68.4931,88.3
68.4936,468.4
68.4971,41.8
68.5012,293.4
68.5128,154.3
68.5333,113.8
68.5406,334.8
68.57,118.1
68.5786,249
68.5818,322.8
68.5822,206.3
68.5877,218.7
68.5962,511.8
68.6082,765.6
68.6207,633.8
68.6222,666.1
68.6283,21
68.6326,223.6
68.6764,150
68.6833,158.1
68.6904,84
68.7004,16.6
68.7552,710.8
68.7608,84.3
68.7614,177
68.7619,674.9
68.8024,566.7
68.8224,16.7
68.8321,444.6
68.8325,490.5
68.8339,367.4
68.8472,408.4
68.8611,536.2
68.885,16.1
68.8999,17.6
68.9028,465.3
68.912,522.5
68.9309,94.3
68.9505,181.2
68.9674,157.1
68.9989,591
69.0018,551.3
69.0102,113.5
69.0174,289.5
69.0186,94.2
69.0209,170.9
69.0444,245.7
69.1066,463.9
69.1628,485.4
69.1995,119.4
69.2088,619.7
69.2103,303.6
69.2249,39.2
69.2357,250.2
69.2634,474.7
69.2713,18.6
69.2822,427.1
69.3036,19.3
69.3202,462.2
69.3273,195.4
69.3312,807.6
69.3524,273.6
69.3911,414.6
69.3985,431.1
69.4039,335.9
69.4102,585.1
69.4506,232.8
69.4657,189.5
69.4739,122.5
69.475,85.3
69.4929,136.3
69.5172,402.6
69.5285,287.9
69.5387,108.5
69.5437,229.3
69.5526,357.8
69.5535,361.7
69.5561,211.3
69.5635,431.4
69.5736,877.2
69.5758,491.5
69.5996,806.7
69.6054,96.3
69.6503,121.7
69.6626,19.6
69.674,152.9
69.6884,273.4
69.704,367.8
69.707,435.7
69.7099,213.7
69.7239,656.2
69.7344,543.1
69.7406,20
69.7462,457.1
69.7564,100.7
69.7934,400.8
69.7964,43.7
69.8003,632.3
69.8019,201.3
69.8094,126.5
69.8211,510.2
69.8473,91.3
69.8511,88.1
69.8911,98.1
69.8955,473.2
69.9194,168.6
69.9505,306.6
69.9554,21.4
69.96,323.3
69.9641,397.4
69.9661,273.6
69.9784,165.2
69.9856,163
69.9876,16.4
69.9924,362.3
69.9994,114.5
70.0043,152.7
70.0246,286.2
70.0407,140.6
70.0568,145.7
70.0579,135.8
70.0649,299.2
70.0871,41.9
70.1178,647.5
70.1239,851.6
70.1276,297
70.1313,257.7
70.1534,97.6
70.156,39.4
70.1626,527.8
70.1723,16.4
70.1861,604.4
70.1884,150.6
70.1909,277.2
70.1967,17.9
70.2113,96.5
70.212,308.1
70.2276,107.9
70.2346,627.2
70.2413,607.3
70.2706,346.8
70.2772,214.5
70.2844,502.5
70.2858,16.6
70.2921,166
70.2935,181.1
70.3118,455.6
70.3179,742.8
70.3378,565.8
70.3414,113.2
70.3556,147
70.3618,320.8
70.3809,504.8
70.4017,105.7
70.4034,136.2
70.4188,198.1
70.4292,632.1
70.449,230.5
70.4629,332.1
70.465,560.3
70.4895,16.5
70.4945,216
70.5157,255.1
70.5256,162.3
70.552,19.4
70.5773,16.5
70.5796,18.2
70.5821,547.6
70.5938,38.6
70.6125,626.4
70.6458,37.9
70.6915,315.1
70.7019,86.2
70.754,529.8
70.7825,369.6
70.7836,828.7
70.7997,297.8
70.8074,158
70.8166,95.8
70.823,17.4
70.8368,474.8
70.8621,151.3
70.8842,245.6
70.8888,95.2
70.8918,203.6
70.8964,139.4
70.9058,139.2
70.9126,152.4
70.9323,172.5
70.955,302.2
70.9825,637.6
70.9899,40.8
71.0174,95.8
71.0202,516.3
71.0214,346
71.0228,116.3
71.0279,153
71.0407,93.9
71.0414,304.5
71.0479,684.1
71.0598,312.8
71.0676,276.2
71.092,151.5
71.0944,140.1
71.1089,444
71.1122,155
71.1373,411.2
71.1568,1030.4
71.1586,134.8
71.164,85.6
71.1899,210.3
71.2314,226.9
71.2329,18.5
71.2459,19.5
71.2471,152.5
71.263,132.5
71.2638,386.6
71.2661,41.2
71.2811,178.3
71.2858,15.6
71.2975,224.3
71.3115,88.7
71.3272,17.1
71.3374,141.1
71.3421,249.7
71.3427,45.8
71.4274,650.8
71.47,154.2
71.5181,139.1
71.5288,82.1
71.5326,451.5
71.5401,463
71.5473,119.3
71.5575,438.8
71.5635,171.9
71.5737,82.9
71.5754,307.6
71.5832,84.3
71.5983,447.7
71.6108,81.7
71.6242,42.8
71.6378,216
71.6584,439.9
71.6628,510
71.7018,523.8
71.7058,311
71.7091,429.2
71.7104,406.2
71.7109,362.7
71.7137,547.8
71.7333,267.8
71.7382,83.2
71.7421,490
71.7582,363.2
71.7884,672.1
71.8228,540.4
71.8383,18.1
71.8584,64.6
71.8614,144.7
71.8621,257.2
71.8632,532.3
71.8883,181.7
71.9722,140.1
72.0303,270.9
72.0441,103.4
72.045,121.2
72.0566,207.5
72.0805,119.6
72.092,17.2
72.0999,118
72.1233,311.3
72.1309,156.5
72.1568,440.3
72.1768,16.2
72.1815,87.5
72.1831,150.7
72.1861,226.5
72.2014,113.2
72.2134,653.4
72.215,157.9
72.2156,1858.7
72.2167,1187.8
72.2174,389
72.2185,267.5
72.2197,411.8
72.221,317.8
72.2216,401.6
72.2222,162.7
72.2224,180.9
72.2236,2057.7
72.225,1332.9
72.2261,1178.5
72.2266,725.9
72.2272,1509.2
72.2276,924.2
72.228,868.6
72.2288,2655.2
72.2299,1738.5
72.2308,2247.4
72.2312,1405.4
72.232,2135.1
72.2332,4873.2
72.2338,2627.6
72.2359,2990.1
72.2368,5887.2
72.2375,4742.2
72.239,1530.2
72.24,2989.9
72.2412,539.9
72.242,415.8
72.2424,693
72.243,240.1
72.2436,851.8
72.2464,180.2
72.2568,472.7
72.2612,530.9
72.2734,356.5
72.2857,17.6
72.295,42.1
72.313,207.7
72.319,745.3
72.3299,17.4
72.3507,659.6
72.3535,189
72.3562,500.7
72.3763,93.4
72.3855,134.1
72.407,809.1
72.4294,15.7
72.4457,213.5
72.4531,18
72.4755,17.6
72.4823,106
72.4838,915.6
72.4847,320.5
72.5102,457.7
72.5306,556.9
72.5443,17.9
72.5468,102.6
72.5487,92.2
72.5568,285.3
72.5677,627.3
72.5733,116.3
72.5849,278.4
72.5875,46.3
72.6,312.2
72.6189,111.2
72.6194,217.8
72.628,464.7
72.6367,486.7
72.6839,92.6
72.6845,86.4
72.7065,135
72.7088,461.3
72.7201,204.9
72.7308,138.1
72.7453,208.1
72.7663,487.5
72.7729,44.9
72.7987,181.3
72.8004,295.4
72.8061,122
72.8145,542.9
72.8171,221.2
72.8177,406.6
72.8463,843.8
72.8577,278.3
72.8782,195.3
72.9201,127
72.9368,26.7
72.9463,272.7
72.9504,317.3
72.9605,145.9
72.9664,87.8
73.0357,133.8
73.0459,496.1
73.0496,145.6
73.0598,583.8
73.0733,599.8
73.0855,19.1
73.0861,19.7
73.0875,16.7
73.0901,134.6
73.0939,161.3
73.1087,258.8
73.1245,478.7
73.132,477.1
73.1426,712.8
73.1504,41.5
73.1983,20.2
73.2122,677
73.2287,240.6
73.2372,358.6
73.2405,16.6
73.2549,18
73.2602,17.8
73.3142,171
73.3175,196.4
73.3326,293.6
73.3332,223.3
73.356,509
73.3589,277.2
73.3626,152.9
73.369,447.3
73.3766,19.3
73.3978,451.1
73.4451,419.1
73.4543,466.8
73.5011,551.6
73.5177,139.7
73.5337,236.1
73.5361,488.2
73.5561,133.4
73.5608,112.9
73.6222,151.2
73.6292,93.8
73.6306,218
73.6324,401.3
73.659,251.4
73.6666,295.8
73.6694,130.5
73.7035,521.9
73.7265,17.5
73.7311,277.4
73.7384,16
73.7587,163.9
73.7599,289.7
73.7637,321
73.7665,238
73.7745,432.3
73.7946,19.4
73.8103,121.3
73.9044,578.7
73.9468,691.2
73.9586,472.9
73.9786,753.1
74.0142,18.7
74.0258,153.5
74.0322,162.6
74.048,146.1
74.0598,4188.4
74.0733,196.9
74.0767,281.1
74.0791,221.6
74.1147,275.9
74.1161,101.9
74.1377,563.1
74.1516,551.6
74.1544,17.7
74.1667,475.2
74.1752,440.2
74.1989,305.5
74.2036,245.3
74.2092,206.7
74.2198,450.7
74.2345,88.3
74.2457,209.4
74.2543,354.1
74.2679,694.9
74.2901,488.2
74.2924,459.1
74.3041,168.3
74.3051,155.9
74.3139,126.3
74.342,91.6
74.3474,42.9
74.3517,556.4
74.3723,341.6
74.384,291.9
74.3884,99.6
74.3898,338.4
74.4478,105.8
74.4551,492.4
74.4748,105.8
74.4796,97.8
74.4987,18.6
74.5026,277.1
74.5051,163.5
74.5073,625.7
74.5119,389.7
74.5129,17
74.5164,372.2
74.5219,581.7
74.5281,17.6
74.547,327.2
74.557,312.8
74.6171,17.2
74.6317,88.9
74.6867,95
74.69,293.8
74.7142,493
74.7177,18
74.7211,285
74.7251,205.1
74.7404,464.2
74.7713,532.2
74.7847,342.5
74.7872,278.7
74.7986,120.9
74.8374,204.1
74.8396,284.6
74.8429,273.7
74.8554,413.8
74.8771,18.5
74.8935,137.9
74.896,119.2
74.9193,96.7
74.933,16.3
74.9346,185.3
74.959,129.8
74.9644,503.4
74.9707,104.8
74.9759,153.7
74.9798,249.8
75.01,16.9
75.0226,20.2
75.0436,547.8
75.0523,82.9
75.059,280
75.1232,119.1
75.1243,366.4
75.131,21.2
75.1539,90.2
75.1574,210.8
75.1656,16.3
75.1969,19.1
75.216,23.1
75.222,449.2
75.2294,439.1
75.2414,19
75.2626,314
75.2638,91.8
75.2706,280.5
75.3023,120.4
75.3068,111.6
75.3098,98.8
75.3107,666
75.3196,40.4
75.3274,19.3
75.3432,398.7
75.3838,304.4
75.4455,715.3
75.5013,431.7
75.5062,140.1
75.5267,657.7
75.5311,98
75.5649,130
75.5872,348.7
75.6048,295.1
75.6166,135.1
75.62,38.3
75.6631,168.6
75.6774,96.5
75.6946,109.2
75.6958,603.5
75.714,161.7
75.7156,451.3
75.7198,267.4
75.7225,437.4
75.7245,95.3
75.7477,347.3
75.7551,203.8
75.7932,194.7
75.8492,19.5
75.8531,89.9
75.8796,18
75.9241,145.1
75.9558,24.4
75.9581,99.6
75.9606,19.6
75.9864,465.8
75.9975,500.2
76.0279,599.8
76.0404,274.9
76.066,18.7
76.0692,436.8
76.0898,190.7
76.1053,499
76.1066,486.2
76.1251,345.8
76.1391,114.4
76.17,475.1
76.1865,19.1
76.1962,272.2
76.2166,147.7
76.2177,538.3
76.2812,138.5
76.2906,17
76.2944,16.7
76.3017,152.8
76.381,90.8
76.3885,863.3
76.4058,933
76.4146,406.7
76.4229,89.2
76.4516,174.1
76.4679,103.5
76.4839,120.4
76.509,531.9
76.5283,291.4
76.5515,20.1
76.5777,459.5
76.6309,285.2
76.64,598.7
76.6414,18.5
76.6577,537.8
76.6772,141.7
76.6808,192.2
76.6844,108.5
76.6861,18.3
76.7221,18.2
76.7505,482.1
76.8111,574.5
76.8225,348.8
76.839,837.4
76.849,167.1
76.8637,163.3
76.8776,474.3
76.8813,668.7
76.8867,243.2
76.8931,247
76.9014,99.5
76.9072,78.2
76.9422,18.8
76.9545,273.1
76.9896,209
76.9994,330.6
77.0013,18.7
77.01,499.3
77.0354,90.9
77.036,424.7
77.0372,76.5
77.0383,119858.4
77.0481,16.5
77.0659,16.2
77.0701,40.7
77.0728,162.9
77.0851,16.9
77.0958,115.8
77.0988,17.4
77.1219,775.7
77.1308,49.2
77.2097,99.1
77.2387,17.5
77.2891,21.7
77.2899,90.7
77.3002,206.5
77.3064,384.5
77.3302,16.5
77.3329,18.4
77.3797,128.7
77.3899,688.3
77.4114,310.5
77.4189,174.1
77.4545,435
77.4785,15.8
77.5148,541.1
77.5353,192.8
77.5482,422.4
77.577,266.1
77.589,85.6
77.599,88.1
77.616,218.9
77.6206,159.4
77.6419,154
77.6495,211.5
77.6519,91.9
77.6784,137.1
77.6823,115.7
77.7202,160.9
77.7323,650.3
77.7368,493.8
77.7546,706.5
77.7587,18.6
77.7888,531.6
77.7906,680
77.8252,84.6
77.8494,16.5
77.8657,731.9
77.8759,182.8
77.8828,520.4
77.8909,231.1
77.9077,120.7
77.9097,148.5
77.9209,391.1
77.9228,220.7
77.9271,593.8
77.9287,19
77.932,140.9
77.9804,204.4
77.9946,521.4
78.0296,18.4
78.0417,4310.8
78.0512,257.3
78.082,304.9
78.0851,23.4
78.0883,95.1
78.1087,508.2
78.1222,263.3
78.125,699.2
78.138,162.2
78.2213,169.6
78.2362,118.5
78.2377,210.7
78.2477,500.6
78.2678,85.6
78.2923,653.9
78.3429,492.5
78.3484,253.3
78.3502,19.6
78.363,184.6
78.4054,196.9
78.4173,203.6
78.4185,138
78.4831,230.5
78.4965,513.1
78.5006,158.6
78.5074,41.5
78.5455,354.4
78.5557,413.4
78.557,284.1
78.5642,493.5
78.6161,532.5
78.6174,302.5
78.6323,469.3
78.6364,101.1
78.6532,274.5
78.661,19.1
78.6794,145.5
78.6825,211.2
78.6973,691.4
78.7436,115.1
78.7847,165.9
78.7851,180
78.8039,371.9
78.8164,92
78.8426,102.1
78.8506,16.6
78.8536,81.9
78.9144,333.5
78.9665,520.8
78.9799,280.4
78.9813,742.8
78.9869,131.8
78.9899,683.8
78.9935,17.7
78.9968,567
78.9972,640.5
79.0101,299.6
79.054,2308.5
79.0752,128.3
79.0987,139.8
79.1051,409.8
79.181,141.2
79.1918,19.3
79.1928,549.8
79.2136,95.1
79.2284,278.7
79.2294,322.2
79.2308,341.6
79.2814,174.9
79.315,303.5
79.3649,375.8
79.3737,127.9
79.4112,216.3
79.427,147.8
79.4355,192.7
79.4658,306.2
79.5029,634.1
79.5045,43.1
79.5065,419.9
79.5851,16.6
79.6503,510.6
79.6521,271
79.6603,508.2
79.6984,156.5
79.7016,218.7
79.714,405.8
79.7173,44.6
79.7348,338.5
79.7385,164.3
79.7561,101.7
79.7702,94.3
79.7777,516.8
79.7888,133.8
79.832,297.3
79.8462,125
79.8483,158.2
79.8528,684.8
79.8876,143.2
79.9019,89.5
79.9097,18.9
79.9273,720.3
79.9799,758.4
79.9863,202.6
79.9934,155.9
80.0037,119.1
80.0203,18.7
80.0445,709.6
80.0573,24
80.0623,327
80.0733,107.4
80.096,140.9
80.1344,755.5
80.1874,109.6
80.1915,470.2
80.1955,155.5
80.2209,578.7
80.2269,292
80.2408,149.9
80.2844,154.5
80.306,326.2
80.3101,95
80.341,389.7
80.357,24.9
80.3714,432.4
80.4048,489.5
80.406,227.3
80.4157,18.7
80.4202,589.3
80.4386,126.3
80.4418,288.2
80.4712,170.6
80.4873,102.8
80.4902,505.1
80.4921,641
80.4959,282.9
80.5135,130.2
80.5225,179.6
80.5236,304.1
80.5517,131.5
80.5864,92.5
80.5939,516.9
80.6012,367
80.6422,663.6
80.6482,131.1
80.6717,16.8
80.7036,112.2
80.7094,190.5
80.7148,517.4
80.7198,330.1
80.7226,489.7
80.7296,158.8
80.7682,151
80.7785,109.1
80.7852,211.9
80.8006,506.9
80.8237,489.9
80.8299,111.8
80.8437,417.3
80.8724,840.7
80.9141,135.4
80.9226,529.9
80.9276,98.6
80.9453,542.3
80.9476,47352.7
80.9568,19.1
80.9645,160.9
80.9841,159.2
81.001,227.6
81.0512,156.3
81.0661,19.3
81.0696,852.9
81.0732,401.9
81.1069,277.4
81.1093,288.5
81.1212,15.3
81.1226,309.5
81.1266,404
81.1431,533.4
81.144,158.3
81.1453,529.9
81.1461,1316.7
81.1471,1992.4
81.1473,1954.5
81.148,3259.9
81.1496,24.3
81.1589,497.2
81.1598,119.7
81.1822,464.7
81.2831,17
81.3163,145.5
81.3712,260.5
81.4049,48.7
81.431,295.6
81.4627,492.1
81.4678,94.6
81.4679,93.9
81.4783,38.9
81.4811,482.1
81.5306,530.5
81.543,279.9
81.565,917
81.5694,137.9
81.5717,140.8
81.5776,39.7
81.5848,791.7
81.5944,368.4
81.6122,173.4
81.6176,23.6
81.6419,19.3
81.6618,223.4
81.6685,281.3
81.7292,131.1
81.7415,45
81.7508,18.6
81.7701,434.8
81.8187,236.8
81.8735,611.9
81.8779,623
81.8965,182.8
81.9091,435.9
81.9406,23.3
81.9495,131.1
81.9695,458.7
81.9932,152.3
81.9953,242.7
82.0107,206.2
82.0563,180.2
82.0705,387.8
82.1118,133.1
82.1157,171.6
82.1334,442.8
82.1452,20.5
82.1471,159.6
82.1552,367.7
82.1601,260.7
82.1619,124.8
82.2039,440.2
82.2164,112
82.2331,303.8
82.2419,15.6
82.2792,131.8
82.3141,341.2
82.3338,653
82.3385,143.5
82.3847,145.8
82.3938,155.6
82.4031,157.1
82.4071,442.9
82.4371,466.1
82.4378,305.2
82.4619,16.6
82.495,121.9
82.5007,566.5
82.5359,15.5
82.6089,112.9
82.6109,224.9
82.6172,171.8
82.6307,192.1
82.6515,249.1
82.7067,164
82.7555,98.5
82.7838,16.5
82.7982,414.4
82.8429,18.5
82.8479,161.3
82.8645,194.4
82.8786,486.4
82.8839,579
82.9126,104.7
82.9141,450.7
82.9406,297.7
82.9446,12489.7
82.9828,275.4
82.9969,45.8
83.0339,17.7
83.0365,21.5
83.0525,292.9
83.0634,760.8
83.0853,42.3
83.0888,430.4
83.1065,167.2
83.1077,99.2
83.1254,748.5
83.1397,93.8
83.1572,182.9
83.1576,188.1
83.1579,159.3
83.205,223
83.2255,144.8
83.2959,404.6
83.2989,17.8
83.3762,154.7
83.4456,357.9
83.473,131.3
83.4826,21.3
83.496,407.4
83.4983,510.3
83.5014,18
83.5536,273.8
83.5754,492.5
83.582,537.1
83.585,280.9
83.6087,179.8
83.6281,484.8
83.6366,457.7
83.649,453.9
83.6544,16.9
83.6606,497.1
83.6922,21.1
83.6943,149.4
83.7151,275.3
83.7211,375.3
83.7321,224.5
83.7412,221
83.7926,1155.4
83.8072,298.7
83.8354,199.2
83.8664,619.5
83.8732,158.7
83.8746,131.4
83.8924,788.7
83.8933,459.2
83.9061,134.9
83.9121,117.8
83.9214,194.1
83.9323,414.4
83.9345,798.1
83.9866,92.1
84.0442,675
84.0494,18.2
84.0528,210.5
84.0583,175.6
84.0684,502.5
84.0704,147.2
84.0782,197.6
84.0959,95.1
84.0975,412.7
84.0992,512.8
84.1044,221.3
84.1307,202.8
84.1366,19.4
84.1538,667.1
84.1721,288.8
84.1951,16.4
84.246,481.5
84.2494,17.4
84.2867,75.1
84.3535,166.6
84.3561,199.4
84.3804,321
84.4096,203.3
84.432,17
84.4482,298.3
84.4523,495.4
84.4703,696.9
84.483,18.4
84.4847,506.6
84.4884,278.5
84.5425,449.1
84.5553,315
84.591,138.2
84.6252,215.3
84.635,18.8
84.6536,598
84.6616,109.6
84.677,418.2
84.7073,563.7
84.7111,138
84.7131,272.8
84.721,18.1
84.7273,237.7
84.7336,17.4
84.7457,548.2
84.7573,860
84.779,334.7
84.7902,201.8
84.7954,19.9
84.798,266.1
84.8029,290.8
84.8047,305.7
84.827,122.6
84.8307,19.3
84.8338,690
84.8505,220.9
84.8606,77.6
84.8654,18.2
84.8705,781.2
84.8821,497
84.8831,18.4
84.9273,694.2
84.9301,167.3
84.9322,130.3
84.9443,43.5
84.9595,17850.6
85.0134,83.1
85.0176,42.4
85.0282,1186
85.0331,181.3
85.0334,185.1
85.0337,155.7
85.0423,140.3
85.0502,550.6
85.0632,16.1
85.0747,202.8
85.0784,130.6
85.085,765
85.1032,17.8
85.1059,518.3
85.1162,143.2
85.1312,158.8
85.1587,320.3
85.1611,490.5
85.2182,201.9
85.2407,146.3
85.2543,270.3
85.2615,318.9
85.2851,481.9
85.3561,157.5
85.3657,246.6
85.3787,216.3
85.3893,477.5
85.445,353.9
85.4533,769.7
85.4641,547.8
85.4661,137.8
85.4838,321.4
85.4996,753.6
85.5045,464.9
85.5125,697.3
85.5203,546.8
85.5277,182.7
85.5744,150.7
85.5755,173.4
85.6352,495.4
85.6668,815.6
85.6708,98.5
85.6947,90.3
85.7009,288.8
85.7063,442.4
85.7167,202.5
85.7288,159.1
85.7505,353.3
85.7738,680.3
85.8141,172.8
85.8617,186.6
85.8681,80.2
85.8703,94.4
85.8744,17.5
85.8774,18.3
85.8957,258.5
85.9016,751.8
85.9041,126.1
85.9624,666.3
85.982,217.6
86.0316,193.1
86.0346,801.7
86.0455,582.5
86.0598,37813.7
86.0689,129.9
86.0729,122.5
86.0753,710.3
86.0844,133.1
86.0962,118729.6
86.1,18.3
86.1012,191.9
86.1016,343
86.1018,285.1
86.1417,368.2
86.1582,242.2
86.1696,100.2
86.2204,293.8
86.2521,18.1
86.2612,154.8
86.3136,160.8
86.3196,277.3
86.3327,535.5
86.3507,345.6
86.3592,503
86.3853,315.8
86.4634,211.4
86.4859,16.9
86.4942,102.7
86.5114,20.5
86.5314,291.9
86.5427,329.7
86.5463,322.2
86.5498,540.8
86.5682,261.8
86.5697,456.8
86.584,149.7
86.6244,235.7
86.6582,541.2
86.6745,512.9
86.683,523
86.6954,34.3
86.7179,127.2
86.7599,153.7
86.7669,783.1
86.7738,485.2
86.7849,107
86.7873,139.9
86.7881,17.9
86.8465,455.2
86.8695,17.7
86.8829,226.9
86.8977,316.5
86.9034,629.1
86.9144,304.4
86.9779,260.9
86.9831,42.6
86.9955,177.1
87.003,532.1
87.0403,20.4
87.0605,156.8
87.0819,391.2
87.0996,546.2
87.1242,207
87.2056,428.3
87.2123,322.7
87.2365,202.9
87.2393,715.4
87.2612,537.8
87.2721,292.4
87.2761,16.2
87.3093,81
87.3284,143.3
87.3405,262.8
87.3551,537.6
87.3722,1318.3
87.3886,16.7
87.3963,285.7
87.4221,315.4
87.4253,96.7
87.4706,168.1
87.4753,358.8
87.4843,476.4
87.4897,133.4
87.4956,284.7
87.5041,133.3
87.57,491
87.5717,124.7
87.5763,98.4
87.5811,654.6
87.595,247.1
87.5975,499.5
87.6009,16.7
87.6044,481.6
87.6304,182.4
87.6486,254.1
87.6506,87.8
87.6686,134.6
87.7893,498.2
87.8259,220.7
87.8365,833
87.8659,315.2
87.873,94.9
87.8848,359.2
87.8984,363.4
87.9206,566.3
87.943,115.3
87.9451,193.4
87.9528,274.1
87.9612,261.2
87.9941,419.6
88.0332,597.8
88.0341,152.1
88.0391,7460.6
88.0449,21.2
88.0723,274.8
88.1238,295.8
88.13,494.6
88.1604,395.3
88.1606,392.7
88.1698,161.6
88.1712,88.3
88.214,18.1
88.251,541.9
88.2666,466.7
88.3331,262.1
88.3373,191.7
88.3386,164.8
88.3555,79.4
88.3663,95.1
88.4006,542.5
88.407,619.5
88.4273,134.7
88.4436,204.4
88.4591,590.5
88.4964,16.4
88.4974,341.2
88.5187,345.1
88.5583,294.6
88.5746,298.7
88.5776,417.4
88.5837,15.9
88.5887,226.6
88.6086,473.8
88.6454,17.6
88.6495,179.4
88.6691,259.3
88.6752,109
88.6894,426.5
88.7213,18.9
88.7283,550.5
88.7846,103.5
88.7865,145.8
88.7957,144.2
88.8065,596.6
88.8137,158.4
88.826,385.8
88.8437,466.2
88.848,299.5
88.872,154.2
88.8935,158.8
88.8956,548.2
88.9239,115.8
88.9302,566.2
88.9338,19.8
88.9569,335.3
88.9611,697.1
88.9852,377
88.9867,214.5
88.9906,333.8
88.9927,18.9
88.999,290.1
89.0461,18.2
89.0866,101.9
89.106,134.5
89.1068,782.1
89.1295,600
89.1638,443.4
89.1943,118.3
89.2851,319.5
89.2966,151.8
89.372,23
89.387,325.1
89.4362,280.6
89.4393,101.9
89.4831,135.2
89.5116,119.6
89.5261,151.6
89.5354,150.1
89.5499,145.3
89.5537,393.7
89.5588,188.4
89.5615,286.9
89.6318,448.3
89.6652,410.3
89.6914,158.8
89.7086,136
89.7681,223.6
89.7715,16.5
89.7987,133.6
89.8368,114.2
89.8814,570.3
89.8867,618.6
89.892,132.6
89.9043,22.5
89.9177,159.3
89.9441,157.5
89.9663,461.6
90.0141,600.5
90.0497,99.6
90.0716,122.5
90.0934,391
90.1067,316.5
90.1077,540.4
90.1246,413.6
90.1546,880.7
90.2443,151.8
90.2711,270.1
90.3271,454.6
90.3343,146.8
90.3346,158.3
90.3351,88.5
90.3423,17.4
90.3482,17.5
90.3891,16.5
90.4396,197.3
90.4582,173.2
90.4653,118.6
90.4741,131.2
90.4777,137.2
90.5452,105.7
90.5821,269.5
90.5995,737.1
90.6108,157.2
90.6112,150.8
90.6516,101.7
90.6958,296.4
90.7093,180.5
90.7419,133.6
90.784,87.5
90.8114,233.7
90.8432,497.5
90.8517,252.3
90.8676,18.1
90.8786,263.2
90.8926,386.1
90.9001,21.2
90.9082,15.8
90.9178,20.3
90.9475,149
90.9636,199.7
90.9643,16.5
90.9764,10104.3
90.9961,719.7
91.0043,671.5
91.0113,463.6
91.0272,123.7
91.0311,169.1
91.0476,254.3
91.0512,595.9
91.0541,2834
91.0679,21.3
91.0778,404
91.085,533.3
91.0944,258.1
91.098,141.5
91.1058,136.2
91.1067,17.7
91.1252,307.7
91.1416,25.5
91.1555,107.8
91.1715,17.6
91.1981,346.9
91.2025,167.3
91.2276,312.5
91.2422,523.3
91.2846,287.1
91.2857,120.1
91.3103,238.2
91.3375,467.1
91.3502,25.7
91.3726,372.2
91.3901,289.1
91.3989,213.7
91.4358,17.8
91.4473,122.3
91.4613,323.9
91.4707,355.1
91.4738,41.1
91.4791,574
91.4928,144.4
91.5095,722.6
91.5415,193.2
91.5885,152
91.605,356.2
91.6063,294.1
91.6449,291.5
91.6591,469.5
91.677,156.5
91.6871,147.6
91.6933,297.3
91.7104,516.3
91.7698,803.2
91.7902,474.6
91.8362,87.1
91.846,290
91.8614,180.9
91.8615,182.8
91.8654,478.1
91.9088,140.6
91.9135,439.3
91.9143,98.1
91.9271,17.7
91.9348,783
91.948,97.4
91.9643,535
91.9661,196.9
92.0105,391.9
92.0389,107.2
92.0493,57.6
92.0576,20.9
92.0976,215.5
92.1337,22.1
92.1427,194.1
92.1506,167.6
92.156,122.6
92.1569,624.9
92.2243,220.9
92.3096,589.2
92.314,324.4
92.3171,133.6
92.3382,210.4
92.3433,207.3
92.3644,238.5
92.386,467.5
92.4002,199.7
92.4175,176.8
92.4188,279.1
92.4635,135.3
92.4924,155.1
92.5142,348.6
92.5281,20.9
92.5655,178.6
92.596,546
92.5968,295.7
92.6182,293.6
92.631,217.7
92.6552,301.2
92.6623,147.7
92.7007,147.6
92.721,252.9
92.7245,514.9
92.7249,522.4
92.7389,392.7
92.7422,19.2
92.7448,18.8
92.7457,252.1
92.7794,351.1
92.8129,248.4
92.8224,18.5
92.8404,140.9
92.8709,129.7
92.8866,685.8
92.8999,148
92.9395,91.4
92.9458,18.3
92.9469,477.4
93,81.1
93.0125,737.4
93.0195,584.5
93.0586,841.4
93.0697,92.8
93.0705,163.2
93.0923,145.9
93.098,18.4
93.1473,261.4
93.1581,148.2
93.1593,471.8
93.1723,347
93.1933,520.5
93.2197,157.7
93.2822,306.8
93.3022,629.9
93.31,635.9
93.343,576.6
93.3622,942.7
93.4089,229.1
93.4338,874.9
93.435,310
93.4399,19.9
93.4539,279.6
93.4554,93.9
93.4635,233.5
93.4653,334.4
93.4691,81.2
93.5277,22.5
93.5298,374.1
93.5343,20.8
93.5386,109.3
93.5794,611.8
93.5939,440.5
93.6548,15.9
93.6783,103.6
93.6839,215.5
93.6921,886.1
93.6969,23.4
93.7156,373.9
93.7302,332.4
93.7305,580.7
93.7309,543.6
93.7322,44.7
93.7357,18.7
93.7611,284
93.7708,188.4
93.7723,298.8
93.8032,326.3
93.8171,42.5
93.8768,44.2
93.8925,526.8
93.9094,19.4
93.926,764
93.9686,212.7
94.0239,623.4
94.0396,32.6
94.0401,39.3
94.0412,56052.1
94.1309,474.8
94.1335,20.9
94.1907,126.6
94.2073,429.7
94.2294,151.3
94.2414,151.4
94.2518,370.3
94.262,249.2
94.2651,768.4
94.2999,559.1
94.3028,17.5
94.3266,368.6
94.3462,256.4
94.3727,112.9
94.3861,159.7
94.3864,161.8
94.4117,309.7
94.4126,96.2
94.4353,736.7
94.4363,474.2
94.5476,504.8
94.5655,218
94.5908,313.5
94.611,20.7
94.6188,97.5
94.6203,78.5
94.6213,18.6
94.6311,201.4
94.6484,231.8
94.6571,643.1
94.6828,255.1
94.6886,230.2
94.7116,88.7
94.7215,102.5
94.7427,267.2
94.7713,157.9
94.786,248.3
94.8358,432.9
94.8613,443.7
94.9178,653.9
94.9183,698.5
94.9669,291.8
94.9737,245.2
94.9815,15.7
95.0143,422.6
95.0193,19.1
95.0331,390.4
95.0445,1151.7
95.0473,193.7
95.049,417268.9
95.0503,327.3
95.0624,28
95.0853,248.9
95.1354,204.8
95.145,211.7
95.1559,219.5
95.167,520
95.2483,272.5
95.2922,21.2
95.3006,18.9
95.3242,351.9
95.3287,502.5
95.3801,294.6
95.3826,327.5
95.3874,705.1
95.3956,39.3
95.4026,88.4
95.4051,122.9
95.4222,17.6
95.4383,112.6
95.4419,184.7
95.446,830.1
95.4471,227.4
95.4647,307.4
95.5339,732.5
95.5542,465
95.6242,173.8
95.6284,281
95.6542,195.4
95.6707,101.1
95.689,277.3
95.6933,229.1
95.7042,136.2
95.7406,563.5
95.7555,120.1
95.765,491.2
95.8045,92.3
95.8186,17.9
95.8437,118.7
95.8477,157.9
95.9263,152
95.9478,186.5
95.9498,512.8
95.9518,352.7
95.977,185.4
95.982,530.5
96.0207,153.3
96.0431,259.5
96.0441,21.5
96.0523,19621.1
96.0638,1254.1
96.0772,20.6
96.1115,579.2
96.1359,161.6
96.15,273.5
96.1736,450.4
96.1753,237
96.1919,139.3
96.1963,83.8
96.2049,392.6
96.2147,217
96.2326,297.6
96.2413,253.4
96.2557,352.5
96.274,126.1
96.288,727.3
96.3036,133
96.3199,530.8
96.3362,246
96.3667,116.7
96.3951,137.9
96.4168,90.9
96.4183,268.5
96.4498,123.3
96.4691,128.7
96.4888,744.7
96.5072,16.8
96.513,153.4
96.6362,570.4
96.6384,17.4
96.6441,20.8
96.656,157.9
96.6704,307.7
96.691,115
96.7055,18.9
96.7252,260.3
96.744,117.7
96.7942,19.5
96.8186,588.8
96.8356,201.9
96.8359,423.3
96.8361,369.1
96.8834,19.8
96.891,590.2
96.9006,578
96.9195,107.2
96.9216,148143.3
96.9594,21.8
96.9706,608
96.9868,598.4
96.9984,590.8
97.0074,180.9
97.0207,365.8
97.022,658.9
97.0262,901.3
97.0303,186.7
97.042,753.2
97.0445,130.2
97.0532,83
97.0557,76
97.0601,107.9
97.0641,83.2
97.0657,116.6
97.0755,159.9
97.1011,256.5
97.1763,303.5
97.2853,243.7
97.4179,387.7
97.4519,127.9
97.485,133.1
97.4882,490
97.4913,440.9
97.4917,403.7
97.5404,221.6
97.5894,289.9
97.6019,185.4
97.6244,605.6
97.6597,210.9
97.679,125.5
97.7126,211.5
97.7234,18.6
97.7278,18.8
97.7515,246.6
97.7562,145.6
97.758,17.9
97.7634,167.7
97.7774,446.8
97.7837,197.3
97.7854,275.2
97.7876,170.4
97.7912,116.9
97.8046,186.1
97.8128,613.6
97.8443,214.5
97.86,19.8
97.898,393.9
97.9017,532.6
97.9156,174.1
97.9249,648.8
97.9473,20
97.9558,665.7
97.9719,123.5
97.9895,95
98.0041,758.8
98.0264,220.7
98.0353,764.8
98.0836,26.2
98.113,209.3
98.1507,487.5
98.1514,569.2
98.1765,122
98.2685,645.8
98.2888,458.8
98.2931,146.4
98.3142,186
98.3193,17
98.3992,287.7
98.4446,19.5
98.4489,104.5
98.49,129.7
98.5028,255.1
98.5061,96
98.5225,589
98.5303,360.6
98.5319,98
98.5818,189.2
98.5905,133.5
98.5986,740.7
98.6032,207.5
98.6446,317.1
98.6585,615
98.6609,307.9
98.6751,207.3
98.693,188.4
98.6989,827.6
98.7194,17.5
98.7319,151.4
98.7808,17.3
98.7881,117.2
98.7925,161.8
98.7946,439.1
98.8184,234
98.8325,496
98.8702,224.7
98.8861,292.2
98.888,112.2
98.8941,346.7
98.9059,139.4
98.9148,278
98.9187,43625.8
98.9197,6934.3
98.9575,118.7
98.9658,125.1
98.9729,403.4
98.9752,15023.4
98.9778,728.4
98.984,110.6
98.9873,18.2
98.9953,745.1
99.0075,305.3
99.013,375.6
99.0735,16.5
99.1214,520
99.1371,639.9
99.1719,450.8
99.1752,347.9
99.1804,131.4
99.1826,165.7
99.2081,110.8
99.2224,468.8
99.2636,147.1
99.2932,165.3
99.3032,108.5
99.371,161.8
99.3793,88
99.4022,313.7
99.415,123.4
99.4203,139.8
99.4232,318
99.4502,212.4
99.4749,505.3
99.5235,202.9
99.5758,156.8
99.5848,46.6
99.6332,19.1
99.6451,513.5
99.6479,122.4
99.6609,451.2
99.6765,192
99.72,394.1
99.7333,122.3
99.7703,476.3
99.7721,51.3
99.7882,18.1
99.811,309.7
99.8676,134.1
99.8691,200.4
99.8713,448.8
99.8745,141.8
99.9483,172.4
100.0061,128.1
100.0659,164.6
100.0757,21.4
100.1244,419.3
100.1439,412.3
100.1915,420.4
100.198,411
100.2415,169.1
100.2441,20.4
100.2714,691
100.2791,500.2
100.2957,125.1
100.3087,18.7
100.3324,651.8
100.3645,269
100.4226,225.5
100.4354,21.6
100.4564,106.2
100.5027,131.8
100.5316,555.2
100.5369,20.8
100.5628,304.8
100.5781,346.6
100.5867,41.5
100.6063,110.8
100.6496,538.1
100.6839,216.4
100.7054,182.8
100.724,230.9
100.7277,304.3
100.7348,625.9
100.7445,20.6
100.8234,292.3
100.8345,223.5
100.8611,469.1
100.9085,207.9
100.9168,1352.2
100.9795,107.8
100.9933,16.3
100.9974,273.9
101.0126,143.1
101.0295,479
101.0372,123.3
101.047,1717
101.055,262.2
101.0634,679.1
101.0708,1059.5
101.1091,313
101.1106,738.6
101.1209,152.8
101.1308,391.9
101.1317,133
101.1387,191.9
101.154,376.2
101.1619,160.7
101.1826,590.7
101.1986,388.2
101.2299,136.3
101.2617,18.5
101.2751,99.2
101.2786,498.9
101.3,628.3
101.3058,147.9
101.3375,259.9
101.4039,186.7
101.406,20.1
101.4071,155.7
101.4138,697.8
101.4788,130.7
101.5052,137
101.5235,434.4
101.5293,467.3
101.5363,85.7
101.5425,365
101.5477,212
101.5528,318.2
101.5737,544.1
101.6327,696
101.6433,236.5
101.7055,463.6
101.7531,137.2
101.7667,42.5
101.8139,321.7
101.8423,204.4
101.9356,729.6
101.9377,228.3
101.9836,232.2
101.9906,587.3
102.0001,15.8
102.0272,84.9
102.0548,6089.4
102.075,517.6
102.0924,373.3
102.1475,230.7
102.156,200.4
102.1628,16.7
102.1832,495.1
102.1959,96.3
102.2736,349
102.3126,477.5
102.332,241.2
102.3558,365.6
102.3596,195.3
102.4087,92.7
102.41,108.5
102.4573,324
102.4592,256.6
102.5191,189.9
102.5415,175.4
102.5689,237.9
102.5738,720.8
102.5852,303.1
102.5987,517.8
102.6134,459.8
102.6238,129.6
102.6392,84.1
102.656,18.4
102.6795,19.4
102.6845,16.4
102.699,565.8
102.7086,164.7
102.7248,272.7
102.7396,585.9
102.7974,288.5
102.8011,197.5
102.8228,223.1
102.8391,536.7
102.8858,111.4
102.8974,160.9
102.938,364.1
102.9504,170.1
102.9685,523.7
102.9703,827.9
103.0269,16.8
103.0314,45.3
103.0542,624
103.0793,341.6
103.113,724.9
103.1805,20.2
103.2423,96.2
103.2566,447.7
103.2623,99
103.272,504.3
103.3215,128.6
103.3388,564.9
103.341,153.5
103.3576,516.8
103.3676,386.6
103.3706,244.2
103.3808,18.4
103.4212,476.2
103.4339,605.4
103.4636,218.1
103.4699,18.7
103.5953,528.1
103.6947,294.9
103.7034,18.4
103.7045,550.2
103.7168,265.3
103.7289,340.3
103.7499,17.7
103.7648,118.4
103.7728,324.1
103.7811,566.5
103.7924,539.1
103.814,41.7
103.8177,475.6
103.8539,18.6
103.8604,41
103.9703,706.6
104.0219,197.2
104.0234,428.2
104.0482,160.6
104.0494,458.4
104.064,108.4
104.1069,521745.8
104.1336,230.1
104.1438,690.7
104.1651,516.6
104.1674,17.2
104.1973,150.9
104.246,396.9
104.2515,564.1
104.2695,96.1
104.275,601.4
104.2923,329.3
104.3828,99.5
104.4054,120.4
104.4945,345.2
104.5049,242.9
104.5124,571.9
104.5371,280
104.5509,587.1
104.5597,19.2
104.5655,142.7
104.6476,99.6
104.6885,224.6
104.7307,371.4
104.7495,180.1
104.7898,581.4
104.8194,88.3
104.8242,214.5
104.9078,22.5
104.9121,437.4
104.9175,235.5
104.9316,19.5
104.9407,213.7
104.9495,208.4
104.9632,222
104.9922,1924.2
105.0148,147.1
105.0196,140.6
105.0241,299.8
105.0305,20.1
105.0446,39208.8
105.0607,168.8
105.1102,21376.6
105.1249,218.3
105.1875,625
105.1935,302.6
105.2178,493.4
105.259,235
105.3078,607.8
105.3262,500.7
105.3445,298.4
105.3503,16.6
105.3696,191.5
105.4241,282
105.4542,106.4
105.5094,23.6
105.5134,103.2
105.5192,96.6
105.5291,500.7
105.5393,893.8
105.5406,368
105.544,328.3
105.5472,17.5
105.6136,529
105.6276,19.4
105.6597,394.5
105.697,146.3
105.7134,21.5
105.7545,586.2
105.7684,364.9
105.8188,16.7
105.8608,307.2
105.8989,340.1
105.9134,186.6
105.9259,227
105.9539,16.9
106.0479,698.6
106.0737,284.9
106.0896,93.3
106.1078,641.2
106.1293,779.3
106.1479,285.9
106.1808,109.8
106.2064,129.6
106.2097,701.5
106.2131,707.5
106.2306,135.1
106.3237,134.2
106.3775,439.2
106.3867,326.2
106.4163,352.3
106.4678,371.8
106.4873,288.5
106.5832,147.5
106.6037,462.3
106.6204,217
106.7091,511
106.7221,450.8
106.7777,134.5
106.7879,259.8
106.8204,320.5
106.8277,186.4
106.8492,125.8
106.8696,404.3
106.8784,164.7
106.9114,299.4
106.9476,17.7
106.9492,311.8
106.9504,3703.9
106.9573,458.2
106.9806,19.5
106.9919,339.1
107.0282,108.7
107.0362,250.1
107.049,597.5
107.0561,466
107.0782,462.2
107.0853,24.9
107.0947,542.7
107.1249,18.5
107.1459,131.7
107.1539,566
107.2139,757.3
107.2365,290.4
107.2447,740.6
107.2461,118.4
107.2619,584.8
107.3179,15.7
107.3307,471.2
107.3485,329.7
107.3775,114.9
107.4809,176.7
107.6498,166.3
107.6552,103.5
107.6599,153.1
107.6783,729.1
107.6865,127.7
107.7397,145.1
107.768,645.1
107.7814,589.3
107.8189,20.9
107.8434,193.9
107.847,116
107.8669,18.5
107.8926,480.2
108.0039,87.6
108.0206,151.1
108.0506,19.7
108.0887,96.4
108.094,42.9
108.1142,522.6
108.1466,481.6
108.1487,452.5
108.1817,244.8
108.2005,41.2
108.2105,22
108.2354,480
108.2641,323.6
108.278,170.7
108.3054,172.9
108.315,18.4
108.3557,21.3
108.38,19.3
108.4398,519.1
108.4428,156.7
108.4595,674.8
108.4682,254.4
108.4778,16.4
108.5072,18.1
108.5326,16.7
108.5368,388
108.5938,204.6
108.6136,118.2
108.6394,17.6
108.6878,132.1
108.7362,438
108.7468,314.9
108.7594,258
108.7613,233.5
108.785,17.6
108.79,102.9
108.8087,673.8
108.8351,257.9
108.8359,535.2
108.8406,737.7
108.9214,117.7
108.95,366.1
108.9521,88.1
108.9961,569.8
109.0579,246.2
109.0647,59844.9
109.0751,224.2
109.0809,127.6
109.101,176.6
109.1217,158.4
109.1456,214.7
109.1494,151.5
109.1835,257.8
109.1947,547.1
109.2275,144.2
109.2436,770.3
109.2624,17.7
109.2944,99.6
109.338,171.3
109.3925,18.9
109.3997,426.4
109.4196,356.2
109.456,89.8
109.4604,19.8
109.5081,274.4
109.5402,122.8
109.5568,96.4
109.5885,163.8
109.5946,217.4
109.6042,162.6
109.6103,120.2
109.6135,123.1
109.6312,898.8
109.6332,259.4
109.6366,121
109.685,616.3
109.7159,196.2
109.7367,530.1
109.7982,134.5
109.8042,679.3
109.8099,185.2
109.85,18.7
109.8542,528.8
109.8871,23.5
109.9062,410.6
109.9314,20.2
109.9639,488.2
109.9717,16.5
109.9804,266.6
109.9839,457.3
110.0172,174.9
110.068,2132.3
110.0711,1797.2
110.1062,298.8
110.162,182.3
110.1994,318.4
110.3215,365
110.3309,19
110.3321,212.4
110.4039,122.5
110.4111,613.7
110.4171,18.3
110.4232,17.1
110.4467,504.8
110.4546,133.7
110.5157,20.4
110.5206,19.9
110.5521,242
110.571,683.5
110.5932,669.1
110.6336,285.8
110.6662,597.8
110.6698,198.6
110.6956,112.9
110.7148,16.2
110.738,566
110.7986,455.9
110.8482,544.7
110.924,231.4
110.9554,17.4
110.9615,267.9
110.9935,114
110.9985,21.8
111.0231,349.2
111.0346,141.8
111.0439,244.7
111.0706,43.4
111.0742,681.6
111.0939,346.8
111.1776,117.4
111.2022,403.1
111.2149,267.5
111.2514,132.8
111.2565,106.2
111.264,116.7
111.3132,241.1
111.3255,124.3
111.3451,171.3
111.3581,141.7
111.4115,18.3
111.4554,354
111.4645,107.5
111.4724,17.8
111.4914,165.7
111.5757,274.2
111.5905,334.2
111.6094,791.4
111.6227,168.4
111.6889,365.2
111.7222,426.8
111.7369,134.7
111.8175,488.8
111.8769,473.6
111.9303,362.8
111.952,18.3
111.9815,19.2
111.9934,142.6
112.0091,135.6
112.0127,18
112.0207,678.8
112.0428,574.2
112.0516,464.2
112.0764,543.1
112.0993,17.2
112.1072,401.4
112.1264,141.4
112.1391,381.7
112.1605,118.3
112.183,753.7
112.2002,176.9
112.2229,166.7
112.2592,100.3
112.2818,750.8
112.286,98
112.3037,103.6
112.3151,265.5
112.3198,233.7
112.3264,290.3
112.3514,153.3
112.3602,17.1
112.3947,129.3
112.4095,76.5
112.4155,252.7
112.4173,545.4
112.4293,355.4
112.4341,415.4
112.4842,187.5
112.4927,388.9
112.508,204
112.5144,18
112.5617,47.8
112.5739,997.4
112.5771,155.7
112.6229,340.7
112.7174,44.9
112.7609,564
112.7697,109.9
112.7964,730.4
112.8027,384.9
112.8459,319.9
112.8956,442925
112.9281,43.9
112.9481,591.6
112.9633,259.4
112.9707,41.9
112.9855,99.4
112.9912,146.4
113,46.2
113.0012,51.3
113.0085,83.4
113.0431,123.1
113.0924,607.4
113.1041,270.7
113.1262,217.8
113.2463,274.2
113.2496,142
113.2889,200.7
113.3182,423.3
113.3475,110.8
113.5037,17.6
113.5121,566
113.5305,646.6
113.5731,16.6
113.5801,116.3
113.6145,121.7
113.661,44.9
113.7356,19.2
113.7584,213.1
113.7775,104.6
113.7826,774.7
113.8492,130.6
113.8517,632.2
113.852,636.5
113.8683,151
113.8715,303
113.9035,163.4
113.9134,106.9
113.9165,168.9
113.9193,44.2
113.9304,258.5
113.9541,569.8
113.9638,95.2
114.0324,23
114.0549,54494.4
114.0661,1247.5
114.0781,103.7
114.0915,21.1
114.1712,136.5
114.1796,568.1
114.1827,97.5
114.2117,255.5
114.2273,157.4
114.2639,17.6
114.2727,40.6
114.2823,187.8
114.2914,106.6
114.3006,16.5
114.3198,768.2
114.3653,397.6
114.3925,271.9
114.4046,332.9
114.4392,371.7
114.443,172.6
114.4639,298.1
114.4752,17.5
114.5265,260.5
114.5673,180
114.5787,82.7
114.6278,480.8
114.6548,370.2
114.6869,207.9
114.7221,342.8
114.7333,130.9
114.7456,876.3
114.75,272.7
114.8056,114.5
114.8248,673.1
114.8898,18.1
114.8927,140349.7
114.9757,179.2
114.9799,18.6
115.0124,359.3
115.0582,779.6
115.0864,1640.5
115.1204,179.8
115.1341,318.4
115.2035,151.9
115.2196,21.2
115.2383,318.8
115.2579,181
115.265,313.4
115.2709,300
115.2821,631
115.2896,17.9
115.3023,219.1
115.3631,144.1
115.3942,221.6
115.4355,402.9
115.4371,146.4
115.4884,292.6
115.5005,476.3
115.5179,22.5
115.5451,682.1
115.5745,17.8
115.5898,239.4
115.6397,344.4
115.6632,18.3
115.6671,276.1
115.6823,208.6
115.7586,18
115.8009,266.3
115.8368,142.7
115.8431,19.5
115.8539,724.9
115.8556,516.5
115.8699,470.7
115.8752,455.2
115.8777,15.9
115.8951,88.1
115.915,91.9
115.9227,129.5
116.0289,345
116.0705,3729.5
116.074,687.7
116.081,434.8
116.0959,332.3
116.1877,19
116.1977,181.3
116.2196,189.9
116.2225,296.1
116.2248,569.3
116.3087,466.6
116.3241,360.9
116.3604,508.1
116.4124,517.8
116.4396,213.5
116.4464,287.1
116.4506,22.2
116.5696,488.9
116.5722,413.9
116.5842,17
116.6304,703.2
116.7076,448.8
116.7114,878.9
116.7632,245.5
116.7656,18.3
116.795,126.9
116.8872,549.6
116.8908,14074.2
116.9171,148.6
116.9524,547.8
116.9858,332.2
116.9919,152.2
117.0111,119.5
117.0391,460.9
117.0754,21.8
117.0861,143.6
117.0948,114.8
117.12,503
117.1809,579.7
117.3591,147.9
117.3661,116
117.3781,196.3
117.3968,136.2
117.4347,528.2
117.4418,148.2
117.5021,93
117.5567,697.5
117.5579,665.8
117.5626,342.7
117.5846,204.5
117.5976,139.8
117.6097,112.8
117.6165,18
117.6228,598.5
117.6624,488.2
117.6651,102.2
117.7126,311.3
117.7179,17.2
117.7973,24
117.8501,210.4
117.8644,498.7
117.889,98.6
117.9309,536.2
117.9671,137.8
117.9756,115.4
118.0074,636.5
118.0227,207.4
118.0651,211.4
118.0681,126.6
118.1011,458.4
118.1672,287.9
118.1729,174
118.1811,357.8
118.2252,140
118.2305,163.6
118.2342,453.3
118.2409,203.1
118.2588,105.3
118.2775,97.9
118.3287,16.1
118.3434,19.3
118.3465,36.4
118.3777,124.7
118.3955,87.5
118.4038,429.2
118.419,261.5
118.4866,154.1
118.4927,428
118.5159,555.5
118.5266,253.5
118.5451,291.9
118.5866,148.5
118.5949,16.7
118.6162,376.1
118.6428,128.1
118.6982,86.3
118.7239,416
118.7513,158.8
118.7562,266.5
118.7621,824
118.8566,58.2
118.9372,92.2
118.9385,369.1
118.9397,118.9
118.9824,132.6
119.0578,286.2
119.0855,18.7
119.1468,44
119.1494,285.3
119.1611,82.3
119.1925,471.7
119.2065,728.4
119.2171,208.8
119.2181,189.2
119.2946,429.1
119.3325,553.3
119.3424,372.1
119.379,129
119.3818,490
119.4299,752.4
119.4519,19
119.511,586.3
119.5181,544.5
119.5492,618.2
119.6161,50.8
119.6589,170.6
119.6608,586.2
119.7287,255.8
119.7521,18
119.7561,300.9
119.7637,626.5
119.7966,317.2
119.8131,184.7
119.8372,702.5
119.8467,90.4
119.8704,152.2
119.8784,17.3
119.8882,215.8
119.903,100
119.9178,201.6
119.9349,480.5
119.9427,19.4
120.0031,5596.1
120.0074,155.1
120.0509,308
120.0658,152.8
120.0807,22544.7
120.1303,17.4
120.1938,456.4
120.2229,584
120.3151,18.5
120.3609,299.9
120.365,711.8
120.4046,166.7
120.475,256.9
120.4908,181.7
120.4953,18.6
120.5189,769.1
120.5422,150
120.6019,254.1
120.6077,331.2
120.6681,295.4
120.6738,334.7
120.6754,233.9
120.6843,94.5
120.7064,42.3
120.733,146.4
120.743,18.7
120.7671,111.8
120.79,728.3
120.8428,531.6
120.8501,925.5
120.8681,195.4
120.8809,636.4
120.9105,135.6
120.9245,198.6
120.9335,527.3
120.9597,297.2
120.9639,743.9
120.973,18.8
120.9807,149.2
121.0075,322.6
121.0184,20
121.0283,501.9
121.0351,660.3
121.0396,36.9
121.0427,155.1
121.0978,16.2
121.1011,23.3
121.2187,154.3
121.253,782
121.2942,308.6
121.3014,354.6
121.3099,146.5
121.3112,17.6
121.3191,17.2
121.3248,253.6
121.3586,147.3
121.3915,296
121.395,712.2
121.4132,86
121.484,224.5
121.4868,167.8
121.5489,420.9
121.5843,302.8
121.6024,163.6
121.6339,252.1
121.6378,312
121.7227,159.7
121.8067,319.7
121.8222,158.1
121.8301,139.8
121.8389,907.5
121.8545,154.7
121.8628,157.4
121.8817,471
121.8831,385.7
121.8961,159
121.9419,21.2
121.9484,393.3
121.9765,18.1
121.9827,83.8
121.9874,242.8
121.9898,166.3
122.0139,153.2
122.02,106.1
122.0606,16.6
122.147,134.8
122.1809,485.9
122.2434,634.9
122.257,116.5
122.2895,16.4
122.3203,18.7
122.3571,100.3
122.3649,571.8
122.3752,358.2
122.3884,747
122.4003,102.8
122.4623,277.9
122.4742,484.2
122.4859,126.1
122.4941,566.7
122.518,333.8
122.5437,22.1
122.5572,200.9
122.5784,91
122.6118,20.3
122.6374,178.6
122.6519,668.4
122.6608,157.5
122.6881,370
122.7087,104.3
122.7215,287.6
122.7454,587
122.7686,235.7
122.7733,556
122.8179,457.6
122.8294,469.4
122.8428,561.8
122.9162,17.6
122.9244,21069.2
122.964,84.2
122.9676,750.1
122.9751,471
122.9877,19.7
123.0804,36.2
123.1014,321.1
123.1143,125.2
123.1171,147.8
123.1197,138
123.1609,92.3
123.1791,193.5
123.2294,107.4
123.2394,48.1
123.2657,507.2
123.3465,18.9
123.354,82.6
123.3576,463.6
123.3726,433
123.4003,435.4
123.4327,244.9
123.4405,21.3
123.5306,194.3
123.5806,87
123.5926,322.8
123.6085,129.5
123.6481,16.8
123.654,105.4
123.6744,132.4
123.6768,548.4
123.6803,439.8
123.6907,652.1
123.6957,144
123.7006,200.8
123.7318,136.8
123.7612,631.3
123.7733,559.2
123.7846,152.1
123.7934,131
123.848,143.8
123.8523,107.2
123.8696,240.7
123.8728,649.4
123.8852,564.5
123.9189,325
124.0367,141.1
124.0551,370
124.076,266.4
124.0989,304.9
124.1643,97.4
124.1867,138.6
124.1901,333
124.2843,104.1
124.3088,456
124.335,109.3
124.3462,558
124.3618,204.2
124.395,136.6
124.4114,18.2
124.5402,534.3
124.5849,150.4
124.6081,670.3
124.6782,20.2
124.6951,341.7
124.7766,133.3
124.7976,560
124.8726,819.7
124.879,461.8
124.9169,145.8
124.9226,977.1
124.9254,91.3
124.9464,163.5
124.9849,314.5
124.9935,366.1
124.9963,151.1
124.9998,5480.3
125.0055,409.4
125.0131,136.6
125.0388,228.8
125.0558,126.9
125.0596,60.5
125.0705,159
125.0832,696
125.0864,181.8
125.1072,250.7
125.1703,503.8
125.255,744.4
125.2659,17.1
125.346,45
125.355,200.8
125.3691,136
125.4092,701.4
125.5676,132.7
125.631,810.1
125.6468,91.5
125.7451,17.8
125.7461,159.9
125.7493,290.2
125.7574,141.7
125.8358,598.6
125.8797,17.5
125.9045,128.6
125.9197,162.5
125.9214,422.3
125.9354,179.8
125.9379,399.6
125.9548,432.4
125.9832,80.8
126.0094,81.9
126.0227,458.8
126.0449,501.9
126.087,154.8
126.0944,120.6
126.1126,280.3
126.1179,112.7
126.1872,483.9
126.218,187.6
126.3016,96.4
126.3131,312.1
126.3377,231.1
126.3638,90.1
126.3798,23.9
126.3836,148.4
126.415,18.9
126.4234,110.4
126.4291,466.3
126.4725,205.9
126.5036,148.6
126.5141,136.7
126.6203,18.1
126.6725,482.9
126.7746,225.4
126.7878,96.8
126.7959,129.6
126.8313,44.4
126.8531,429.5
126.8985,717.7
126.9164,252.4
127.0093,120
127.0477,121.1
127.0706,17.1
127.1408,160
127.2086,154.8
127.3243,531.8
127.3276,482.9
127.3384,269.2
127.3585,491.6
127.3975,186
127.4541,642.7
127.4752,355.6
127.5305,16.7
127.6077,163.7
127.6717,268.4
127.6868,129.9
127.6991,212.7
127.7348,126.9
127.7529,140.4
127.7815,488.9
127.802,644.9
127.8127,17
127.8572,17.1
127.8622,22.3
127.9421,915.2
127.9457,154
127.9473,199.2
127.9593,162.5
127.971,891.2
128.0008,185
128.0238,98.3
128.0931,725.4
128.1071,48.5
128.1364,95.5
128.168,87.5
128.2494,575.5
128.3243,368.4
128.3266,20.9
128.4926,106
128.5809,17.9
128.6029,246.2
128.6213,753.3
128.6703,597.7
128.7105,587.8
128.7222,274.2
128.7636,142.5
128.7732,260.7
128.8577,120.9
128.9161,244
128.9283,43.7
128.9448,353.8
128.9559,298.4
128.9824,587.9
129.0226,395.3
129.0818,93.6
129.0847,773.1
129.1022,2920
129.1284,301.9
129.156,112.9
129.24,18.3
129.2638,160.5
129.3224,297.9
129.33,18.2
129.346,19.1
129.3894,866.3
129.4072,224.8
129.452,296
129.455,273
129.5229,239.7
129.5401,352.6
129.5467,107.5
129.568,201.8
129.5958,168.6
129.6681,148
129.693,140.9
129.713,365.8
129.7319,443.7
129.7724,481
129.7757,16.1
129.7937,488.3
129.798,200.1
129.8481,224
129.8772,391.2
129.8892,382.3
129.9585,16.9
129.961,353.1
129.9681,116.8
129.9864,449.3
129.9983,663.7
130.0026,43
130.0234,328.1
130.0498,4517.9
130.1143,341.7
130.1326,543.2
130.1394,211.8
130.2258,313.8
130.2963,719.6
130.3509,614.2
130.3552,162.3
130.3872,291.6
130.3879,369.6
130.3884,255.5
130.3984,151.6
130.4947,153.4
130.6026,452.7
130.6198,46.4
130.6222,193.6
130.6522,366.4
130.6795,130.9
130.7123,605.7
130.8237,316.5
130.8397,144
130.8493,142.6
130.877,369.6
130.9366,118
130.9656,322
130.974,298.7
130.9796,18.9
131.0026,17.6
131.004,663.2
131.0887,452
131.1175,179.7
131.1249,136.3
131.2303,328.6
131.272,41.5
131.2942,406.8
131.3123,109.9
131.3442,366.9
131.3496,41.3
131.3698,354.9
131.4167,362.2
131.4276,20.9
131.4933,146.1
131.4978,759.7
131.5963,368.6
131.6244,748.4
131.685,282
131.6923,19
131.705,301.8
131.724,287.6
131.7764,269.7
131.805,88.3
131.8076,456.2
131.8484,501.2
131.883,18
131.901,161.6
131.9064,333.1
131.9139,198.8
131.9566,158.1
131.9879,674
132.0032,24200.8
132.0576,101.2
132.0655,89390.3
132.0767,3027.5
132.0838,331.8
132.1144,17.5
132.1221,81.1
132.1369,267.3
132.2468,21.6
132.2725,90.9
132.2766,19.5
132.2784,124.3
132.3255,16.5
132.4422,392.8
132.5035,263.8
132.5157,554.2
132.5294,321.9
132.5316,309.4
132.5349,209.4
132.6041,399
132.6492,386.9
132.66,791.7
132.6647,508.8
132.6956,158
132.7882,213.7
132.9282,226.9
132.9873,3107.3
133.0065,536.8
133.0148,183.6
133.0224,180.3
133.0689,2403.4
133.083,740.6
133.0859,25.6
133.0971,22785.8
133.1899,352.8
133.259,115.9
133.2607,552.9
133.2863,670.2
133.2898,205.6
133.329,455.3
133.3388,602.2
133.4573,784.7
133.4805,804.4
133.5128,103.4
133.537,23.3
133.5392,428.1
133.5715,207.6
133.6244,19.9
133.6684,334.1
133.6858,379.8
133.7109,181.8
133.7697,161.8
133.7808,18.5
133.7999,93.2
133.8336,91
133.8742,641.4
133.9167,210.2
133.9562,42.3
133.9593,92.3
133.9795,525.3
134.0188,13231.1
134.0444,99.2
134.0571,146.5
134.1005,469.4
134.1417,162.8
134.2019,142.3
134.2199,431.8
134.2204,435.8
134.2958,119.4
134.4332,44.8
134.4558,792.5
134.5775,19.9
134.6102,526.6
134.6214,683.9
134.6734,167.7
134.6787,374.6
134.7042,131.5
134.7197,17.4
134.7598,235.9
134.7852,619.8
134.8151,114.8
134.8344,108.9
134.847,715.7
134.8619,19.6
134.8958,692.9
134.9692,105.7
134.9965,31.3
135.0028,107415
135.0234,21.9
135.0558,160.8
135.0949,92.9
135.1148,105.2
135.1167,24.1
135.1229,293.1
135.1905,392.3
135.1928,261.5
135.2419,117.9
135.3086,21.3
135.3103,594.9
135.3147,19.3
135.3425,225.9
135.4045,466.4
135.5157,741
135.5321,208
135.6304,1195.3
135.6451,365.2
135.6811,307.7
135.7126,220.6
135.7278,169.1
135.7391,19.5
135.7636,504.7
135.7965,709.1
135.7995,298.5
135.8651,460.3
135.8793,152.4
135.911,18.9
135.9364,467.3
135.9684,297.3
135.9771,2481.1
135.9847,102.9
135.9927,121.4
136.0271,464.6
136.0481,9166.1
136.0617,24.3
136.0652,164
136.0756,15078.3
136.1064,197.5
136.1152,18.1
136.1261,159
136.2604,506.9
136.2633,328.2
136.2886,296.5
136.2923,17.6
136.3286,709.8
136.3536,595.7
136.3695,296.8
136.4153,232
136.4321,21.5
136.4716,18.5
136.4769,127.8
136.4799,160.7
136.5423,240.9
136.6146,18.4
136.6226,228.6
136.6251,417.9
136.7376,509.4
136.8305,145.4
136.8348,460.8
136.8447,296.9
136.8733,359
136.931,1056.5
137.0211,514.2
137.0309,104.9
137.0485,153.8
137.0723,659.3
137.0787,381.1
137.1081,138
137.1314,214.2
137.1677,45.1
137.2282,18.4
137.3299,139
137.3433,439.6
137.3985,284.6
137.4032,153.7
137.4375,134.9
137.5065,515.1
137.538,183.2
137.6349,16.2
137.7773,98.6
137.8478,517.9
137.9122,358.5
137.9202,19.3
137.9218,46.2
137.974,19.7
138.0059,134.3
138.0221,79.7
138.0525,5056.1
138.0662,91.8
138.073,539.2
138.0734,574.2
138.083,284.2
138.1052,158.9
138.1141,696.8
138.1306,887.6
138.1721,428.1
138.1752,472
138.1832,613.7
138.2084,129.2
138.2413,518.8
138.2434,210
138.2822,474.6
138.294,388.4
138.3019,691.7
138.3041,135.2
138.3066,525.7
138.3151,176.9
138.3284,176.6
138.4176,219.8
138.4251,121.2
138.4618,454
138.4934,128.3
138.5125,134.3
138.5714,17.1
138.5858,35.3
138.5882,192.1
138.6178,145.6
138.671,328.4
138.6832,314.1
138.7118,303.6
138.7443,186.8
138.7501,47.2
138.7713,510.5
138.7926,167
138.8345,158.8
138.899,151.6
138.9064,3464.2
138.9238,208.7
138.9485,358.8
138.951,300.2
139.0889,749.9
139.1129,452.1
139.178,157.8
139.1958,173.3
139.2089,22.5
139.2924,808.9
139.3472,343.5
139.3599,143.5
139.3788,272.6
139.4152,19.2
139.438,678.5
139.4472,299.7
139.45,39.6
139.4768,639.6
139.547,17
139.5708,18.7
139.6048,302.1
139.6052,263.5
139.629,503
139.6448,272
139.6899,127.3
139.7303,300.5
139.7317,101.6
139.7846,18.4
139.823,222.6
139.8693,189.8
139.883,315.5
139.9884,604.5
139.9981,669.7
140.0009,758.3
140.0164,1308.7
140.0682,4962.2
140.1323,320.3
140.1342,763.6
140.1422,136.3
140.1605,464.7
140.2015,17.5
140.219,694.7
140.3923,94.6
140.4251,373.1
140.4271,87.9
140.4376,121
140.4651,19.8
140.5758,283.7
140.5799,195.5
140.6039,509
140.6304,709.1
140.6479,116.1
140.7712,497.1
140.7724,157.4
140.8513,46.4
140.8622,21.7
140.9034,1162.8
140.9404,172.1
140.965,40.2
140.9847,776.4
140.9985,346.4
141.0005,15121
141.0037,730.7
141.019,619.4
141.0261,297.8
141.0421,159.9
141.0528,540.3
141.0599,136.7
141.1591,648.6
141.1691,322.1
141.1981,189.1
141.2113,531.8
141.2341,231.1
141.2517,138.2
141.2761,782.8
141.2889,18.6
141.3097,22.6
141.3203,18.1
141.3434,215.3
141.397,168.9
141.4104,20.4
141.4877,140.9
141.6565,332.9
141.6725,376.4
141.7375,235.8
141.7729,227.7
141.8448,735.6
141.8821,103
141.9032,239.8
141.9246,468.7
141.9364,465.1
141.9637,409.6
141.9689,281.3
141.9997,37.1
142.0038,503.6
142.0138,336.7
142.0175,1044.8
142.0712,556.5
142.0735,72.8
142.0869,649.3
142.0984,124.3
142.1414,100.5
142.2417,488.4
142.2532,369.9
142.2729,196.7
142.3415,697.2
142.3573,115.8
142.3675,197.2
142.4041,20.5
142.4644,154.5
142.5,484.8
142.513,208
142.5935,527.8
142.6413,40.1
142.8253,553.9
142.8381,81.3
142.8527,269.1
142.8673,256.7
142.871,523.2
142.9387,378
142.9962,300.6
143.0189,1433.8
143.0313,1062.1
143.0539,21
143.0706,422.5
143.0732,19.1
143.0754,417.9
143.0814,521
143.0861,167.9
143.0931,22.8
143.0993,607.2
143.1566,21.3
143.1808,253.2
143.1843,228.8
143.256,330.8
143.2794,166.5
143.3736,378.1
143.3941,366.7
143.4486,628
143.4595,849.2
143.5903,341.2
143.6046,19.1
143.6209,468.3
143.6491,330.6
143.6582,18.5
143.7248,122.7
143.7561,114.7
143.8519,367.6
143.8533,147.3
143.8828,573.8
143.8935,20.1
143.9226,20
143.9741,1005.9
144.0324,83.6
144.0803,346.7
144.1207,122.3
144.1728,114.3
144.1805,152.5
144.2302,114.7
144.2599,563
144.2986,327.3
144.3021,159.5
144.316,519.1
144.3248,270.6
144.3296,126.7
144.3394,761.9
144.3461,17.2
144.3786,862
144.3948,443.5
144.6109,497.1
144.6509,285.1
144.6545,542
144.7112,694.8
144.7121,468.9
144.7481,207
144.7592,372
144.7613,551.4
144.7849,748.6
144.8182,93.2
144.8215,126.7
144.8285,577.4
144.8556,42
144.8596,99.9
144.8786,159.6
144.8842,141.3
144.9094,103.6
144.9808,1369.5
145.0947,168.5
145.1822,40
145.2351,498.6
145.2827,21
145.4136,250.2
145.4159,138.5
145.4596,46.2
145.4907,416.9
145.4942,640.1
145.5214,336.6
145.5835,606.6
145.6235,99.6
145.6338,346.6
145.6407,136.3
145.6639,536.2
145.7023,20.1
145.8481,613.2
145.8497,619.8
145.8762,343.8
145.9335,19
145.9351,120.4
145.9518,779.5
145.9661,593.9
145.9678,314.5
145.9784,492.8
146.0125,4064.9
146.0189,14001.9
146.036,94.7
146.082,19.4
146.1521,229.3
146.1575,191.7
146.1703,279.7
146.2432,432.2
146.2796,319.8
146.2836,136.3
146.3138,19.7
146.3848,371.2
146.3994,20.6
146.4568,20.1
146.5126,319.5
146.5201,490.4
146.5321,455.6
146.5603,119.7
146.6212,97.4
146.6514,22.8
146.6571,346.9
146.7042,311.1
146.7722,226.7
146.781,433.5
146.7985,120.8
146.8093,874.4
146.8357,324.9
146.9058,338
146.9171,469.3
146.9534,20.8
146.9584,44.5
146.9818,122856.5
147.0066,340.5
147.0764,50007.1
147.1128,29560.4
147.1168,717.4
147.147,20.7
147.1763,312.9
147.1906,268.7
147.2566,398.3
147.2682,123.1
147.3532,427.4
147.358,196
147.378,19.5
147.3793,492.5
147.4011,17.4
147.4401,654.2
147.4572,140
147.5316,699.3
147.5457,179.3
147.5777,369.6
147.6033,134.6
147.6328,499.7
147.6843,18.9
147.7345,136.3
147.7956,102.4
147.8023,488.6
147.8733,236.7
147.985,1165.6
147.9912,386.8
148.0343,477.8
148.0487,479.2
148.1162,1436.6
148.1501,506.2
148.1515,235.7
148.1721,94.8
148.1907,175.8
148.2099,339.1
148.2144,155.5
148.2699,269.8
148.3142,794.9
148.3467,107.8
148.3825,20
148.3843,293.3
148.4136,661.6
148.5145,445.8
148.5322,3912
148.5591,740.3
148.589,461.4
148.6557,173.5
148.6605,296.1
148.7014,90.9
148.7986,94.3
148.837,125.5
148.8516,193.3
148.8711,309.9
148.8801,576
148.9353,328.4
148.9532,19.2
148.9612,1518.4
148.97,404.4
148.9885,20.4
149.0024,31
149.0133,250.5
149.0185,1813
149.0233,4639.4
149.0447,292.6
149.0826,569.2
149.0987,582.9
149.117,296.2
149.1325,24.6
149.1739,176
149.1957,106
149.2704,490.9
149.284,195.6
149.3283,446.3
149.3356,454.9
149.3385,812
149.3579,146.4
149.4438,128.9
149.4627,276.9
149.4804,137.2
149.5004,207
149.5031,233.7
149.5384,363
149.5436,89.5
149.5495,21.7
149.6248,113.5
149.6334,91.7
149.6463,164.3
149.6592,193.6
149.7659,43.8
149.7806,688.4
149.826,450.6
149.8398,103.7
149.9546,421.7
149.9928,9776.5
150.0043,358.2
150.0075,301.3
150.0138,6529.4
150.0269,31.9
150.03,347
150.0524,440.7
150.1819,406.5
150.1842,134.7
150.1905,146.2
150.3577,117.3
150.3939,108.6
150.4058,732.3
150.5399,488
150.6623,19.8
150.6974,165.1
150.704,191.2
150.7512,294.2
150.8352,157.3
150.8535,357.9
150.8603,733.9
150.8924,415.7
150.9356,144.7
150.9768,71079.3
150.9841,282.2
151.0477,2724.4
151.0631,878.7
151.0815,17.2
151.0875,315.5
151.1206,756.2
151.203,39.6
151.2048,512.3
151.2223,142.1
151.2657,602.8
151.2684,690.3
151.2768,184.7
151.3123,368.5
151.3309,103.6
151.3773,243.2
151.5642,171.7
151.6985,124.9
151.7357,718.1
151.7628,18.4
151.8433,308
151.8607,337.8
151.8687,330.2
151.9173,170.3
151.9801,417
152.001,554.8
152.0143,494.3
152.0221,13637.8
152.0293,196.9
152.0317,1164.1
152.0459,133
152.0551,122.8
152.0788,110.8
152.1005,518.7
152.1939,733.1
152.2028,139.8
152.2111,303.5
152.2267,94.6
152.2312,656.9
152.4278,130.7
152.4322,97.1
152.4933,117.1
152.526,213.2
152.5961,195
152.673,288.3
152.6799,225
152.7858,539.4
152.8459,176.6
152.916,119.8
152.9749,2127.6
152.9826,1086.6
153.085,44.6
153.2588,298.8
153.3516,286.7
153.3748,714.2
153.3845,503.9
153.3949,292.6
153.4527,588.1
153.4736,205.2
153.5587,140.3
153.6266,849.1
153.6583,121.9
153.7332,317.9
153.8107,118.5
153.9192,18
153.9574,535
153.975,302.3
154.011,227.7
154.0264,457.9
154.0587,6706.2
154.0733,98.2
154.0808,120.3
154.1013,190
154.2184,191.3
154.2314,126.5
154.2613,328.7
154.2794,632.3
154.2828,313.2
154.2998,89.4
154.3481,180.1
154.4274,170.6
154.4288,613.5
154.4331,240.3
154.6168,170.3
154.6262,659.3
154.7406,42.9
154.7777,339.9
154.8805,419.5
154.8864,18.1
154.8915,87.6
154.9074,68.1
154.9415,55.2
154.9526,19.1
154.9962,326.2
154.9981,222.1
155.0087,555.9
155.0306,464.9
155.0427,1302.3
155.049,417.1
155.054,6294.8
155.1661,442.4
155.2065,432.4
155.2467,129.6
155.3858,87.9
155.5084,312.4
155.5631,20.1
155.6239,512.5
155.6657,178.9
155.6764,398.2
155.7457,640
155.7575,20.3
155.8127,112.4
155.8683,17.9
155.9214,233.7
156.0422,4898.9
156.0466,658.8
156.0573,71.7
156.0768,46148.2
156.1059,638.6
156.1234,286.1
156.1553,269.1
156.1921,641
156.2572,428.8
156.2962,124.8
156.4372,384.8
156.5467,165.1
156.5625,199.5
156.5922,17.9
156.5962,91.4
156.6696,445.3
156.6992,811.7
156.7146,663.9
156.7255,19.9
156.7549,269.9
156.7695,127.5
156.778,296.7
156.8184,341.4
156.8608,18.2
156.9745,41.6
157.0456,131.1
157.0471,199.4
157.065,470.6
157.0697,276.2
157.0972,341.3
157.1028,277.7
157.1494,331.2
157.1734,250.7
157.2145,520.8
157.2496,202.7
157.2636,301.6
157.3491,98.4
157.3623,757.7
157.3667,150.3
157.3763,22
157.4665,665.7
157.4723,553.9
157.4921,216.7
157.5047,46.9
157.5382,21.2
157.6392,135.5
157.6615,441
157.6957,215.4
157.7062,151.9
157.7414,476.3
157.7514,496.9
157.8156,172.4
158.0122,148.9
158.0271,3480.3
158.0446,291.2
158.0927,609
158.1273,336.6
158.1367,150.5
158.1564,483.3
158.1733,18.6
158.195,16.8
158.2017,330.3
158.215,82.2
158.2155,83.3
158.2622,163.6
158.3214,619
158.483,266.5
158.5195,111.9
158.5488,121.5
158.6401,765.8
158.7548,97.8
158.7762,167
158.9189,137
158.9277,877.2
158.9521,153
158.9641,9671.8
158.976,296.7
158.9965,7334.6
159.0036,93.2
159.0114,321.2
159.0203,18.3
159.0305,153.7
159.076,39.6
159.0918,72.5
159.1646,433.2
159.2013,89.6
159.27,18.4
159.328,23.2
159.3702,329.5
159.4855,230.9
159.4881,648.3
159.608,451
159.6263,604.2
159.6594,298
159.6626,84.1
159.6813,332.3
159.8264,332.5
159.8298,125.5
159.9198,141.1
159.9489,88.3
160.0229,57
160.0345,12982.6
160.0452,19.1
160.0605,115888
160.0935,260.9
160.1152,105.6
160.1401,628.3
160.1661,182.7
160.1867,144.8
160.2258,179.7
160.2278,556.5
160.2738,20.7
160.278,17.4
160.3124,21.5
160.4028,437.1
160.528,19.2
160.5453,157.6
160.5899,207.2
160.6133,597.8
160.6482,91.7
160.6539,220.8
160.6766,474.3
160.7498,138.7
160.8225,125.2
160.826,325.3
160.8804,234
160.8862,125.1
161.0149,94.3
161.0186,1004.9
161.0639,4774.5
161.1223,22
161.1327,25.1
161.1559,90.4
161.1636,262.4
161.1667,670.5
161.2147,267.5
161.2451,19.3
161.3367,210.3
161.3507,760.7
161.3639,153.1
161.417,495.2
161.4361,25.2
161.4905,740.5
161.5237,18.4
161.5703,19.7
161.575,304.2
161.6252,758.4
161.6901,240.1
161.7422,847.1
161.77,195.9
161.7975,329.5
161.8151,318.7
161.8227,207
161.8664,19
161.8904,88.9
162.043,670.8
162.0502,22796.1
162.0749,471.4
162.0796,118.6
162.1031,776.1
162.1214,499
162.1303,211.5
162.2101,96
162.2153,527.5
162.3171,420.3
162.4395,47.5
162.4473,502.5
162.4674,239.1
162.5022,557.6
162.5693,95.6
162.6311,290.4
162.6801,319.4
162.6898,19.6
162.6981,43.5
162.7177,18.4
162.7889,712.1
162.8174,101.8
162.8235,159.9
162.8609,421.6
162.9558,4600.5
162.9976,403.9
163.004,167.5
163.0155,2921.4
163.0343,404.9
163.0383,17.8
163.0497,282.2
163.0596,278.1
163.071,17.6
163.0844,204.9
163.1434,287
163.189,141.3
163.2269,155.7
163.2342,309.1
163.2555,131.6
163.3102,21.5
163.375,45
163.3971,532.8
163.5084,149.4
163.5155,269.5
163.5205,373.1
163.5784,381.8
163.6245,111.8
163.6272,218.6
163.6402,982
163.6444,1188.8
163.6494,489.2
163.6717,489.6
163.6877,304.1
163.7182,298.3
163.7206,304.4
163.7571,267
163.759,328.9
163.7762,189
163.9363,478.8
163.9542,473.3
163.9581,728.3
163.9789,179.5
163.9981,243.5
164.0295,27352.2
164.0597,154.7
164.0617,89.1
164.0688,17.6
164.0958,245.2
164.1097,127.8
164.1426,19.5
164.1701,681.1
164.2398,124.6
164.2858,628
164.3705,406.2
164.4302,18.7
164.4354,650.1
164.4648,519.5
164.5936,94.5
164.6778,247.1
164.7575,161.7
164.8142,84.7
164.8741,92.9
164.9205,5977
164.9301,13464.1
164.9351,2830.2
164.9925,2307.5
165.0133,281.1
165.0662,279.9
165.0911,416.8
165.103,142.4
165.1343,190.2
165.153,708.6
165.1973,172
165.2685,246.5
165.3302,236.5
165.4532,291.5
165.4661,879.1
165.469,334.7
165.4953,348.1
165.5498,597.9
165.571,130
165.6118,116.3
165.6398,146.4
165.65,208.1
165.8438,79.9
165.8616,780.7
165.9668,2481.5
165.9787,2564.3
165.9878,3612.6
165.9913,542.6
165.9951,51.3
165.9999,207.7
166.0161,19
166.0245,169.1
166.0607,163
166.1184,206.1
166.2119,138.3
166.2649,198
166.2886,131.1
166.3167,18.4
166.3637,298.5
166.4371,132.1
166.4797,149.1
166.5022,503.3
166.612,277.9
166.6488,229.8
166.6639,151.7
166.6719,157.4
166.7348,20.2
166.7672,298.5
166.8582,292.5
166.8814,82.3
166.9508,27399.9
166.9627,1278
166.9978,17.7
167.0218,2075.3
167.1072,198.3
167.1145,109.1
167.1426,662.2
167.2164,111.8
167.3072,342.7
167.3207,17.6
167.3358,132.4
167.3854,126
167.4556,19.5
167.4632,336.8
167.585,246.2
167.6326,191.1
167.7064,542.2
167.7307,403
167.7576,292.6
167.8208,156.4
167.8931,421.9
167.9543,327.2
167.9603,463.4
167.9862,103.3
167.9945,726.2
168.0099,197.3
168.0584,807
168.0723,142.5
168.1061,18.6
168.133,104.6
168.1937,99.4
168.2033,576.1
168.2608,294.9
168.3261,197.6
168.3627,199.9
168.4247,123.8
168.4399,233.3
168.5383,138.1
168.5599,463
168.6162,458.8
168.6807,274.7
168.7291,89.4
168.7758,529
168.8926,130.6
168.9423,786.1
168.9488,1896.1
168.9982,573.6
169.0171,22.3
169.0584,43765.4
169.0648,1263.3
169.0699,580.3
169.0706,643.9
169.0717,524.6
169.091,47.6
169.0948,3306.4
169.0971,741.3
169.1679,19.3
169.1775,396.5
169.2195,177.6
169.2213,17.8
169.3395,247.7
169.3483,187.9
169.4413,721.3
169.4973,161.4
169.5704,151.2
169.6145,408.5
169.7143,257.8
169.7454,616.2
169.7991,382.6
169.8538,444.2
169.8645,197.4
169.9332,540.6
169.9535,304.7
169.9859,3529
169.9926,463
170.0143,293
170.0327,10583.4
170.0527,743
170.0925,47089.6
170.1407,614.9
170.1459,19.1
170.156,91.2
170.1648,163.7
170.184,144.6
170.2118,129.2
170.2309,547.6
170.2589,19.2
170.3124,194.9
170.434,87.1
170.4464,526.9
170.496,17
170.5474,528.9
170.5638,136
170.582,591.3
170.695,308.5
170.7103,104.5
170.7751,284.9
170.8079,132.3
170.8151,192.9
170.8545,4635.4
170.8665,725.1
170.9451,104.3
170.9802,196.8
170.9956,153.7
170.9981,103.3
171.0043,698.8
171.0166,1051.8
171.028,550.8
171.0421,46.9
171.0531,1830.2
171.08,18.1
171.0957,1158.8
171.1322,219.6
171.2275,142.9
171.2404,436.7
171.2511,292.4
171.2847,247.2
171.2965,549.9
171.3429,124.6
171.3791,529.2
171.427,533.8
171.4804,291.4
171.5394,18.1
171.5845,614.2
171.624,557.1
171.6508,560.2
171.7281,39.6
171.7485,520.5
171.828,313.9
171.8458,19.7
171.8887,242.3
171.973,236.9
172.0284,320.2
172.0308,424.1
172.0408,150
172.0428,173.5
172.1003,935.4
172.2101,514.4
172.2533,206.6
172.3284,173.3
172.3676,92.9
172.4437,245.7
172.5334,336.9
172.5695,466.7
172.6929,511.9
172.7339,98.5
172.7507,114.6
172.8107,41.9
172.8172,552.4
172.8216,288.4
172.8515,2177.4
172.9678,97.1
172.9819,357.8
173.0007,137
173.0268,316.1
173.0489,100.8
173.1035,115.3
173.1226,340.5
173.1708,104.9
173.2323,201.8
173.2966,320.5
173.3624,153.3
173.5221,676.7
173.5302,181.8
173.5592,21.2
173.5743,200.5
173.6173,325.9
173.6354,545.5
173.6404,168.9
173.6455,558.2
173.6713,533.3
173.7068,105.2
173.71,168.3
173.7195,279.7
173.7587,161.7
173.814,214.7
173.8203,44
173.8588,315.5
173.8646,441.6
173.9077,329.5
173.9279,161.8
173.9412,504.3
174.0467,227.4
174.0905,95.6
174.1112,126.4
174.1292,316.6
174.1771,109.1
174.2059,469.9
174.4476,97.8
174.4898,721.7
174.5301,286.7
174.5533,795
174.5885,261.5
174.6562,234.7
174.6868,328.9
174.707,205
174.7622,487.3
174.8215,229.8
174.9382,4453.3
174.9446,177.1
174.9508,212.6
174.9761,512.8
174.9874,479.7
174.9963,196.7
175.0313,417.4
175.0343,8695.6
175.0455,2773.6
175.0895,620
175.1149,594.9
175.119,69205.2
175.1392,334.6
175.1416,348.5
175.2163,117.7
175.2624,140.2
175.4663,206.3
175.5124,20.3
175.5158,746.5
175.5422,53.4
175.5452,643.5
175.5859,180.7
175.5994,525.7
175.6313,776.1
175.6589,129.6
175.6846,480.4
175.6886,551.5
175.7188,397.1
175.7502,191.4
175.8614,17.1
175.9248,17.4
175.9381,642
175.9578,117.6
175.9949,16.7
176.0086,6477
176.0406,1486.3
176.0659,31880.9
176.0951,103.6
176.1029,460.3
176.1436,146
176.1739,389.8
176.1885,449.1
176.2227,195.3
176.261,679
176.3074,270.7
176.3154,109.8
176.462,460.7
176.628,160.3
176.6998,618.4
176.7411,534.3
176.7659,318.6
176.7874,558.5
176.8192,458.5
176.847,128.8
176.8564,140.9
176.8864,130.2
176.902,142.8
176.9359,101
176.97,195.8
176.9923,1494.7
177.0069,216.4
177.0248,5698
177.0611,12138.4
177.0694,353.6
177.0806,171.4
177.0871,1569.3
177.1828,477.5
177.2139,555.9
177.2295,156.3
177.2546,145.3
177.2765,283.5
177.3035,19.1
177.3425,619.8
177.4485,92
177.5156,216.8
177.5378,458.5
177.5686,198.8
177.609,531.5
177.7306,396.9
177.7342,277.3
177.7526,457.9
177.8805,540.2
177.8904,269.5
177.8937,725.1
177.9082,252.5
177.9912,350
177.9957,182.2
178.0088,10109.9
178.0242,10393.2
178.0588,3907.9
178.0791,168.8
178.0833,358.5
178.1821,19.2
178.2195,644.2
178.2545,173
178.2984,41.2
178.3122,866.9
178.394,125.2
178.4092,179.4
178.6164,18
178.6702,341
178.7225,875.1
178.8496,370.9
178.8657,210.9
178.8769,19
178.8918,83.8
178.8929,148.8
178.8938,143.1
178.9768,97
179.0493,349.1
179.0904,168.8
179.1549,504.4
179.1827,22.8
179.1976,504.9
179.2228,293.9
179.2389,659
179.28,545.8
179.3072,260.8
179.3104,130.9
179.3607,188.4
179.3748,590.4
179.4026,131.3
179.5141,509.2
179.5378,223.1
179.5767,281.8
179.5793,21.4
179.5871,304.1
179.594,206.6
179.6461,17.1
179.7341,765.8
179.7452,705.6
179.771,89.8
179.8604,283.7
179.8771,145.1
179.8819,385.9
179.952,489.3
179.9599,404.6
180.0035,19282.2
180.0555,205.3
180.1082,115.6
180.1322,17.6
180.166,768.1
180.1942,146.5
180.2046,304.7
180.2216,284.6
180.3321,147.5
180.3344,101.7
180.3553,430.1
180.3784,211.3
180.4337,277.5
180.4461,18.2
180.4477,273.6
180.4631,585.8
180.5341,334.2
180.5446,280.2
180.6369,592.6
180.6568,98.3
180.7821,145.9
180.8041,515.2
180.8306,19.6
180.8371,297.8
180.8946,3139.9
180.9041,7843.8
180.9454,225.4
180.9573,597.4
180.9851,103
181.0263,665.3
181.037,267.1
181.065,7930.7
181.0793,622.9
181.1808,296.8
181.1997,492.2
181.2348,133.2
181.2837,20.1
181.2936,106.5
181.3492,159.7
181.3559,228.8
181.4097,430.1
181.4664,183.5
181.4917,177.9
181.6438,18.6
181.698,496.2
181.7276,617.8
181.7482,140
181.7644,249.6
181.781,608
181.7891,300.9
181.804,257
181.833,201.7
181.845,596.1
181.9466,17.1
181.9582,99.8
181.9751,19.3
181.9823,273.9
182.0156,23.1
182.0426,34699.3
182.146,137.6
182.1647,137.4
182.2098,251.9
182.3035,325.7
182.3574,92
182.3733,346.8
182.4794,19.9
182.5956,151.2
182.6352,282.3
182.6509,369.2
182.6636,214.6
182.7089,145.7
182.7396,220.1
182.743,134.1
182.7734,260.7
182.8691,668.3
182.9024,59.3
182.927,19.9
182.9325,731.6
182.9505,114.5
183.0164,259.9
183.0292,415.2
183.0392,323.2
183.0444,1522.6
183.0952,88
183.1059,87.5
183.1701,307.7
183.3396,20.2
183.4281,96.4
183.4678,330
183.5481,17.5
183.6388,193.2
183.6635,151.1
183.7071,43.1
183.7372,44.5
183.765,262.7
183.7989,143.4
183.8464,248.1
183.8544,815.8
183.8949,622.1
183.9649,2145.2
183.9704,155.2
184.0372,1184.4
184.0734,5428788
184.0783,5078.5
184.0844,18
184.1097,2271.8
184.1373,219.3
184.1822,4317.4
184.2593,165.2
184.3932,522.1
184.4757,487.9
184.4842,622.2
184.6355,233.3
184.6545,499
184.663,548
184.701,135.5
184.7097,322.9
184.7227,274.4
184.7364,59.2
184.7461,267.8
184.7537,771
184.7866,298.5
184.9042,168.4
184.949,400.2
184.9576,198.2
185.0324,45549.7
185.0704,10650.9
185.0768,259761.5
185.0794,4193.5
185.1585,111.1
185.1667,602.3
185.2131,17.5
185.2237,142.6
185.2493,157.7
185.3029,474.2
185.3605,563
185.4388,17.4
185.4864,33.4
185.5407,197.6
185.651,359
185.8117,232.8
185.9603,837.8
185.974,19.9
185.9909,471.5
186.0036,778.9
186.0429,110.8
186.0577,140.3
186.0777,31059.1
186.3222,564.1
186.3334,612.2
186.3679,242.7
186.4255,417
186.4278,175.8
186.43,453.6
186.4553,170
186.5789,444.1
186.6124,207.5
186.6297,592.9
186.7287,491.9
186.7553,294.7
186.8285,368
186.8906,87.4
186.9121,2467.5
186.9533,581.9
187.0117,320.2
187.0305,769.1
187.0578,5898.7
187.0629,214.6
187.0715,1783.1
187.1077,3020.2
187.117,654.5
187.1387,303.9
187.148,19.8
187.2498,509.5
187.3012,117.3
187.3057,844.7
187.4053,242.6
187.426,524.2
187.4424,19.2
187.4917,323.4
187.5517,310.6
187.5546,133
187.6297,305.4
187.6381,438
187.6417,44.7
187.6473,512.9
187.7737,19.7
187.7789,246
187.8008,173.3
187.8495,271
187.8995,130.5
187.9038,127
188.029,181.6
188.0349,88.7
188.0685,306.4
188.0793,117
188.2424,299
188.3192,738.6
188.3258,17.2
188.3523,154.1
188.4071,178.9
188.4623,501.1
188.5987,547.3
188.6499,159.8
188.6691,745.8
188.7146,243.8
188.7535,565.2
188.8634,421
188.8701,16.5
188.9377,808.5
188.9447,1270.4
188.9942,327.4
189.0366,561
189.0408,240.5
189.061,976.7
189.0871,11103.1
189.141,135.8
189.173,435.3
189.2101,425.3
189.2479,329.4
189.2982,149.4
189.3853,542.2
189.3873,301.5
189.5668,185.9
189.572,154.2
189.577,173.8
189.6875,277.1
189.7218,179.7
189.8275,557.1
189.9476,21.9
189.9653,291.1
190.0024,124.1
190.0327,123.5
190.0547,187.5
190.09,294.5
190.1614,125.8
190.2038,745.9
190.255,20.1
190.3597,306
190.4787,101.9
190.509,808.1
190.5575,157.4
190.5664,148.8
190.5688,141.9
190.5794,100.4
190.6112,131.1
190.7748,154.9
190.7907,888.9
190.7963,18.2
190.8728,18.4
190.9122,764.1
190.9446,66.4
190.9475,318
190.964,514.4
191.0083,7339
191.0405,129986.6
191.0769,27027.5
191.0846,456.5
191.1339,96.1
191.1555,172.3
191.1853,18.3
191.1876,142.7
191.2127,23.1
191.2888,129.1
191.2929,347.6
191.4028,132.4
191.4173,48.7
191.4348,113.3
191.4698,166.2
191.5073,687.7
191.5167,16.8
191.5313,345.3
191.5334,215.8
191.5357,517.9
191.5783,784.1
191.5874,219
191.596,481.3
191.6226,161.8
191.6867,531.5
191.7732,148.4
191.7758,276.8
191.9534,288.1
191.9824,871.2
191.985,183.9
192.0148,1056.4
192.0399,16652.5
192.0437,3762.1
192.0504,593.1
192.0804,514.5
192.0854,291.7
192.1132,175
192.1307,17.2
192.2419,151.6
192.2985,18
192.4124,186.6
192.49,117.3
192.6185,193.4
192.6514,21.1
192.6575,272.9
192.6814,724.9
192.6938,501
192.7039,17.1
192.7463,161.4
192.7844,389.5
192.8193,548.2
192.8281,789.9
192.8734,790.9
192.9479,190.9
192.9615,944.3
192.9749,366.9
192.9757,404.6
192.9987,5508.7
193.0057,127.1
193.0198,551.3
193.0352,5158.6
193.0382,423.3
193.0432,429.4
193.0781,257.2
193.0936,207.9
193.1007,182.3
193.1106,102.1
193.1212,217.9
193.158,133.3
193.3511,152.5
193.354,390.8
193.4476,589.6
193.5287,142.1
193.6522,19.3
193.6632,495.2
193.6972,117.8
193.7807,609.1
193.8081,216.4
193.8158,176
193.857,458.2
193.9014,228.7
193.9982,1894.6
194.005,607.8
194.0226,434.4
194.0328,1813.5
194.1166,552.6
194.135,221.8
194.1538,263.2
194.263,337.9
194.3218,186.4
194.3554,20
194.4409,18
194.4876,1154.3
194.4926,19.8
194.5034,597.7
194.7176,362.1
194.7844,290.4
194.8559,42.7
194.8895,250.4
194.9307,18.4
194.9524,131.5
194.9616,889
195.0277,231.5
195.0397,714.9
195.0438,953.2
195.1701,403.1
195.1859,586.2
195.2089,929
195.224,94.4
195.2431,464.5
195.2452,19.2
195.2792,172.7
195.2878,234.8
195.3016,167.8
195.3062,221.6
195.3381,100.2
195.36,101.9
195.373,213.3
195.386,18.6
195.3981,115.2
195.5345,95.5
195.5564,360
195.5645,257.4
195.6718,178.4
195.7226,163
195.7297,124
195.7856,43.3
195.8062,406.3
195.8394,475.3
195.8416,194.7
195.8506,164.4
195.885,270.8
195.905,130.5
195.9159,26.2
195.9238,17.7
195.9675,22.4
195.9775,1231.7
195.9846,154
196.0289,271.6
196.0454,387.6
196.06,317.4
196.0721,102.4
196.0794,78.3
196.105,573.6
196.1192,152.7
196.1293,244.9
196.1697,286.8
196.2077,286
196.2187,440.7
196.2337,465.8
196.3351,129.9
196.3872,178.1
196.4255,213.6
196.5083,146.2
196.5468,135.6
196.5735,306.6
196.58,257.2
196.6099,327.3
196.6189,185.9
196.6236,108.5
196.6287,21
196.6784,560.8
196.7787,118.7
196.855,116.7
196.8652,4503.2
196.8685,839.6
196.8781,1016.6
196.935,257.8
196.9409,20.7
197.0149,130
197.0602,187.5
197.0774,523.2
197.0854,519.7
197.1013,1005.2
197.2033,107.6
197.3048,582.2
197.3706,409.9
197.4122,156.4
197.4803,214
197.5118,21.7
197.5284,25.5
197.5315,178.8
197.5443,51.5
197.5892,808.7
197.67,138.4
197.6847,149.3
197.8392,481.6
197.8549,295.2
197.9668,540.6
198.0485,170.5
198.085,7882.1
198.0881,712.2
198.0901,127.7
198.0925,91.3
198.146,452
198.1495,216.3
198.1855,4100
198.4085,172
198.4268,750.3
198.4324,330.5
198.4424,254
198.4558,22.4
198.5009,18.2
198.5053,18.8
198.5783,280
198.6732,240.5
198.68,741
198.69,137.4
198.698,780.6
198.742,1675.8
198.7484,356
198.7832,625.5
198.8623,5641.6
198.9102,679
198.916,425.3
198.9675,317.1
198.9737,79.5
199.0038,22.8
199.0165,25.1
199.0395,123.4
199.0691,648.3
199.0756,1990.2
199.0803,91.4
199.1481,247.1
199.1887,241
199.3012,302.8
199.5805,262.2
199.5941,91.1
199.5986,485.7
199.6138,314.3
199.6391,147.4
199.6526,600.6
199.6793,157.9
199.6896,19.4
199.8967,317.4
199.9008,265.9
199.9102,534
199.9412,16.8
199.9453,363.2
199.9908,27840.9
200.0012,118.6
200.0156,164
200.0408,18705.1
200.0454,671.2
200.058,111.6
200.0874,163
200.0956,11938.2
200.117,46.6
200.1236,705.3
200.1393,311.5
200.1464,91.7
200.1928,869.9
200.1961,16.5
200.2492,312.4
200.2729,492.3
200.3197,425.1
200.3724,672.7
200.4018,312.2
200.5011,166.2
200.5227,215.4
200.6206,318
200.6467,406.9
200.6644,419.9
200.7113,17.7
200.7209,286
200.7317,241
200.8084,284.4
200.8165,805.2
200.8595,1744.7
200.8682,547.1
200.9147,141.1
200.9407,18.4
201.0047,587
201.01,222.2
201.0128,17.6
201.029,21
201.0439,312.7
201.0546,267
201.0723,238.4
201.0751,315.2
201.0871,446.3
201.1015,401.1
201.1236,821.6
201.3015,18.6
201.4075,326.9
201.4121,17.9
201.5504,355.6
201.5815,411.8
201.5897,18.6
201.6228,141
201.7079,773.6
201.7282,445.1
201.7385,16.6
201.7451,752.1
201.8273,672.4
201.848,207.6
201.9333,320.6
201.9409,294.6
202.0292,20.1
202.1731,417.1
202.2832,756.7
202.3013,336.5
202.3192,147.2
202.3568,490.8
202.3725,223.2
202.4086,105.7
202.4752,16309.6
202.5578,839.7
202.5623,370.6
202.7289,241.1
202.7517,230.3
202.8378,54.6
202.9025,456.4
202.9281,267.8
202.9652,123.1
202.9722,519.1
202.9912,283.4
202.9924,293.3
203.0321,4861.3
203.0528,1288720.8
203.0769,5289.7
203.1213,17.4
203.152,625.9
203.1903,152.3
203.3319,121.4
203.3411,395.4
203.4638,108.8
203.5914,607.4
203.6549,143.3
203.6741,158.1
203.7544,124.1
203.7967,19.2
203.8504,133.4
203.8573,220.9
203.8716,116.9
203.9256,474.6
203.9578,146.4
203.9854,906.3
204.0245,40044.8
204.0422,518.1
204.0561,67606.6
204.0637,1035.6
204.0869,1619.8
204.0954,386.7
204.1236,506.6
204.1754,526
204.2072,179.7
204.3674,18.5
204.4654,624.1
204.5563,490.8
204.6391,278.7
204.6501,535.5
204.6734,195.1
204.7134,130.9
204.8675,86.6
204.8895,1039.9
204.9031,165.3
204.9345,468.4
205.0011,142.8
205.0044,444.3
205.028,172
205.057,9457.3
205.0704,178.9
205.0835,257.7
205.0971,1507.1
205.1072,250.4
205.169,19.1
205.1816,163.9
205.1899,145.3
205.2452,145.7
205.3103,160.7
205.3892,22.7
205.4592,18.6
205.4713,43.4
205.4775,18.2
205.5059,20.4
205.5302,289.1
205.6615,104
205.6754,162.7
205.7017,229
205.7565,688.9
205.8627,109.5
205.8746,845.8
205.971,897.2
205.9917,157
206.0263,19.6
206.0454,137.3
206.1002,387.9
206.1106,136.3
206.1468,169.7
206.2911,674.9
206.3977,337.4
206.5029,95.7
206.615,438.9
206.6425,17.7
206.6496,725
206.8941,19067.8
206.9058,265.2
206.9823,3534.1
207.0144,87439
207.0187,113
207.0443,2669
207.0508,12759.1
207.0918,10079.5
207.1631,18.2
207.1953,544.4
207.1986,19.1
207.2036,505.4
207.3088,147.3
207.3832,92.4
207.4227,17.3
207.5287,150.6
207.5344,575.6
207.6136,22.2
207.6423,17.4
207.6986,127.9
207.731,275.5
207.8635,515.6
207.8661,123.6
207.9732,567.7
208.0139,3918.2
208.0178,1437.2
208.222,171.7
208.2423,298.2
208.4087,109.7
208.6331,430.3
208.6494,446.6
208.7344,344.9
208.8073,283
208.8248,20.7
208.8832,55.1
208.8911,10365.1
208.9356,812.1
208.9383,527.7
208.9552,850.1
208.9594,143.6
208.973,998.7
209.0125,3302.1
209.0178,166.9
209.1546,95.9
209.2977,230.3
209.4964,693.5
209.5057,442
209.6166,271.8
210.0743,18
210.727,267
210.7376,19.4
210.7409,104.5
210.8263,634.4
210.8383,353.2
210.8882,392.7
210.9329,498.8
211.0145,19.6
211.0481,133.7
211.0691,1259
211.1579,132.4
211.1692,31750.1
211.1722,27781.9
211.1748,28687.5
211.1781,21722.3
211.1806,19544.5
211.1839,10967.4
211.1883,1901.2
211.1919,1204.9
211.2013,86.9
211.3349,523.9
211.3722,700.1
211.4477,123.1
211.4821,140.8
211.502,556.8
211.5358,222.5
211.5907,158.8
211.915,281.5
211.9222,149.7
211.9761,566.8
212.0254,645.3
212.0742,161.5
212.1167,517.4
212.1384,156.9
212.2591,129.5
212.2621,208.2
212.2907,244.8
212.5362,621.2
212.5477,828.2
212.5738,139
212.6043,301.7
212.6152,778.8
212.6634,387.3
212.6661,312.2
212.7051,148.3
212.7087,557.7
212.8279,118.2
212.8393,2227.4
212.9396,858
212.9599,208.1
212.9641,463.2
212.9999,813
213.0546,779
213.0752,703.8
213.0897,109.7
213.1743,308.6
213.1878,622.8
213.1945,108.8
213.2694,102.7
213.3214,97.3
213.3788,325.8
213.4384,187.9
213.4436,17.8
213.4788,330.9
213.7712,494.7
213.8336,569.5
213.8954,152.3
213.9358,483.4
213.9511,94.8
213.962,61.7
213.9713,296.1
213.9847,543.8
214.0065,406.5
214.0205,152.6
214.052,821.8
214.0589,8217.6
214.0898,888.9
214.3549,117.9
214.4771,20.3
214.4867,910.2
214.5608,18.3
214.6766,152.1
214.735,232.2
214.7773,604.2
214.8056,654.6
214.8364,2756.7
214.9021,328.6
214.9175,938.1
214.966,203
214.997,17.4
215.093,56.8
215.0984,132.4
215.1961,397.7
215.3769,218.9
215.4193,385.8
215.5063,19.4
215.6719,611.3
215.7263,203.4
215.7353,600.9
215.7897,203.6
215.8034,502.4
215.8789,307.8
215.8861,93.5
215.9406,146.6
215.9785,20.7
215.9798,16.5
215.9983,592.7
216.0148,9257.4
216.0736,103
216.0855,22.9
216.1478,248.1
216.2407,456.1
216.3208,307.4
216.433,148
216.4868,290.2
216.5716,493.5
216.6542,94.6
216.6667,156.2
216.8934,91
216.9229,52064.2
216.9592,574.3
217.0001,384.4
217.0192,52
217.0363,181.9
217.0563,385.9
217.082,1156.3
217.2595,280.9
217.2793,144.5
217.4192,18.6
217.5021,100.7
217.5243,354.6
217.5644,500.9
217.5907,300.4
217.7716,340.2
217.9813,299.3
218.0153,70.3
218.034,285.3
218.0568,690.2
218.1521,59.8
218.1561,358.1
218.2271,462.5
218.2308,168.1
218.2829,156.9
218.4606,539
218.5293,276.8
218.5326,413.1
218.6832,906.6
218.809,132.2
218.8157,622.3
218.8287,166.6
218.8994,318
218.92,12133.3
218.9703,441.8
218.9764,559.4
218.9883,383.2
218.9933,18.7
219.0267,1372175.9
219.0478,24.3
219.0579,419.4
219.083,9080.2
219.1058,160.3
219.1584,729.5
219.193,235.8
219.3061,18.6
219.3917,619.8
219.4482,115.8
219.6014,224.6
219.6243,101.1
219.6307,736.4
219.7059,735.2
219.7123,297.9
219.7252,496.3
219.7492,559.8
219.7551,719.1
219.8539,838
219.9009,520.2
219.9088,136.3
219.9397,17.4
220.0087,18.8
220.0262,163
220.0301,72929.2
220.0372,2585.4
220.0555,299.8
220.0671,10550
220.1674,349.5
220.3264,416.2
220.4468,491.5
220.5136,456.8
220.5298,319.5
220.5455,477.3
220.5897,319.1
220.6647,203.4
220.7135,131.1
220.7209,372.8
220.8067,334.8
220.8516,774.9
220.8657,310.2
220.9022,210
220.9099,407.8
220.9349,43.2
221.0207,848.7
221.0248,84085.5
221.031,10686.1
221.0425,609.3
221.0512,1033
221.0845,274.8
221.0929,393.9
221.1974,157
221.2623,277.4
221.2706,504
221.3016,198.4
221.4441,18.7
221.4489,119
221.5449,487.5
221.5596,305.8
221.568,256
221.5994,97
221.6867,24.4
221.8275,617.5
221.9008,19.4
221.9359,388.2
221.9563,186.9
221.9704,433.1
221.9839,3732.5
222.0285,391
222.0338,671.6
222.044,479
222.1786,339.8
222.2171,570.9
222.2234,127.5
222.2428,323.2
222.2657,153.2
222.3342,98.9
222.3373,563.3
222.386,616.7
222.4281,108.3
222.5232,17.9
222.5419,432.7
222.5507,387.2
222.5704,294.7
222.5804,144.7
222.7412,21.9
222.7678,294.7
222.7727,412.1
222.8252,626.3
222.868,15103.8
222.8795,536
222.8902,124.4
222.8989,25.4
222.9538,90.9
222.9612,20.8
222.9884,8294.4
223.025,361.6
223.038,422.5
223.0636,25.2
223.0846,242.9
223.1772,585.9
223.2783,542.5
223.319,583.3
223.3999,752.6
223.477,144.7
223.4884,615
223.5092,155
223.5601,87.7
223.5918,337.7
223.669,135.4
223.713,20.7
223.8713,138.7
223.8928,46.6
223.9531,86.5
224.0295,995
224.1049,280.8
224.1156,157
224.2155,50.2
224.5055,150.7
224.5083,299.5
224.5292,328.4
224.5445,460.7
224.7283,147.5
224.779,228.1
224.8172,291.1
224.865,8173.9
224.8758,524.3
224.8837,320
224.9057,80.7
224.9306,475.9
224.9873,199.3
225.0549,28078.7
225.0851,165.4
225.0912,356.1
225.1371,167.8
225.3237,43.3
225.3297,323.2
225.4059,448.7
225.4605,18.6
225.5843,558.5
225.715,323.9
225.7238,96
225.9089,377.8
225.9262,532.5
225.9421,526.4
225.9519,21.2
225.9741,400.6
225.9912,696.8
226.0024,22.7
226.0065,2132.5
226.0243,16117.4
226.0453,10547.3
226.0582,113.1
226.1457,314.5
226.2016,95.2
226.2668,292.1
226.2987,424.4
226.3391,153.8
226.3433,142.6
226.3531,126.1
226.4216,111.4
226.4924,778.8
226.5237,87.8
226.5973,19.7
226.6473,880.9
226.6588,228.4
226.808,344.6
226.9517,38398.9
226.9938,155.1
226.9983,514.3
227.0033,21.6
227.0276,537.3
227.0341,1649.4
227.048,152.9
227.0793,1695.9
227.0865,433.3
227.1287,413.5
227.1979,367.5
227.3237,127.9
227.3658,472.9
227.484,585.1
227.5328,783.2
227.5606,201.1
227.6396,149.8
227.7058,518.4
227.7379,458.7
227.7798,299.4
227.8526,941.7
227.8577,197.3
227.9245,19.3
227.9439,94.6
227.9551,877.1
227.9874,316.9
227.9962,178.5
228.0003,842.3
228.0065,361.8
228.0224,1649.8
228.0269,19.3
228.0599,226.2
228.074,110.9
228.2494,22.1
228.3717,516.6
228.3892,588.6
228.5672,321.9
228.6697,18.3
228.8077,100.7
228.8877,117.1
228.9045,112.5
228.9992,16.4
229.011,97.8
229.0589,269.3
229.0672,106.1
229.1627,151.9
229.1896,135.8
229.2021,610.9
229.259,224
229.2993,819.5
229.3254,21.1
229.3396,162.2
229.3432,118.3
229.3616,139.1
229.4892,579.6
229.6606,411.5
229.7704,128.9
229.8558,283.6
229.9571,492.7
230.0334,282.6
230.2278,836.2
230.2679,358.2
230.3218,512.6
230.502,667
230.5391,578.7
230.5966,201.3
230.6268,531.6
230.8058,52.5
230.8104,446.5
230.8476,101.5
230.8782,848.3
230.9904,80.8
231.0325,475.5
231.0379,326.2
231.191,160
231.2654,150.9
231.28,360.3
231.4703,173.5
231.5032,96.2
231.5901,291
231.6206,17.9
231.8059,358.4
231.9509,316.8
231.981,193.4
231.9953,293.1
232.0106,98.7
232.137,147
232.1451,261.6
232.1728,19.5
232.2222,784.9
232.4621,169.7
232.5959,140
232.6029,204.5
232.7706,91
232.8203,672
232.8661,114
232.8968,39352.7
232.912,17.7
232.9155,17.7
232.9587,492.3
232.967,359.8
232.985,282.9
233.0105,386.8
233.0424,21.9
233.0511,7275.3
233.0891,108.4
233.0932,508.7
233.1136,234.4
233.1193,142.1
233.2223,20.7
233.4659,446.6
233.5163,181.4
233.5434,477.6
233.5981,807.6
233.6899,104.9
233.8659,555.5
234.0148,46.6
234.0471,549.8
234.2305,616.5
234.2332,337.8
234.3055,278.2
234.3251,265.4
234.5225,845.9
234.5541,101.6
234.576,110.5
234.6222,20
234.6987,338.6
234.7314,20.1
234.7556,163.5
234.8046,219.9
234.8436,239.4
234.8557,388.3
234.8937,11343.9
234.944,1486.7
234.9817,9451.5
234.989,17.5
235.0569,3454.5
235.0668,744.3
235.0927,26387
235.1198,592.2
235.1463,215.3
235.1624,351.8
235.1916,880.2
235.253,20.5
235.3068,361.8
235.3417,20.1
235.3587,220.5
235.5864,165.1
235.6996,119.9
235.7143,337.7
235.7266,640.5
235.8947,506.9
235.9866,296.2
236.0411,5124.3
236.0718,41322.4
236.0804,119.2
236.0962,954.3
236.2358,605.3
236.2798,151.7
236.3012,642.6
236.3128,147.3
236.3565,582.6
236.4985,155.3
236.5273,121.9
236.5715,267.8
236.6753,142.5
236.7606,417.3
236.7873,94.5
236.8209,793.2
236.8823,194.2
236.9101,175
237.0163,96.9
237.0751,1421.1
237.2158,191.9
237.2232,647.5
237.2497,200.6
237.3939,99.5
237.4975,226.6
237.6674,298.5
237.6976,162.7
237.8631,203.9
238.0675,477
238.0784,28.8
238.1033,365.8
238.1341,321.7
238.5104,142
238.6957,89.8
238.7463,20.4
238.7995,138.3
238.8152,551.5
238.842,6677.2
238.8533,500.7
238.9035,593.2
238.943,730.5
239.0524,98.5
239.064,241.2
239.068,607.5
239.1174,327
239.1405,38.2
239.1564,671.4
239.2474,267.3
239.2719,138.9
239.5325,289.3
239.5768,91.2
239.6223,129.3
239.8166,235.6
239.8536,351.8
239.877,40.7
239.9364,45.6
240.0892,147.3
240.1001,1369.6
240.1479,229.1
240.169,258.3
240.2247,814.2
240.353,126.1
240.3815,505.8
240.4153,204.6
240.4892,47.4
240.5918,20.6
240.6025,116.2
240.7118,135.5
240.7542,225.4
240.839,2372
240.8503,332.9
240.9283,353.5
240.9548,1796.2
240.9678,1916.4
241.0717,641
241.0862,91.6
241.1803,555.8
241.283,144.3
241.2879,159.5
241.3061,162.5
241.3473,131.6
241.3681,638.7
241.4269,18.3
241.4381,268.1
241.4446,18.5
241.5133,158.9
241.5202,547.9
241.6182,108.8
241.9646,281.4
241.9796,116.6
241.9983,2944
242.0193,6221.9
242.0326,831.2
242.1304,736.9
242.1661,136.2
242.1767,247.5
242.2264,380.6
242.2313,325.8
242.3223,43.7
242.4614,449.6
242.7325,722.8
242.8376,326.4
242.9039,237
242.9257,24291.2
242.9356,622.2
242.9597,437.7
242.9856,443.6
243.0184,409.3
243.0338,402.1
243.0451,146.2
243.0533,5054.3
243.0654,11960.9
243.1166,349.3
243.143,113.9
243.2967,21.2
243.3124,504.1
243.3548,317.2
243.5403,286.1
243.5818,219
243.6112,44.1
243.6592,264.4
243.9415,154
243.9729,262.9
244.0127,714.9
244.0511,274
244.0746,22.2
244.1464,360.8
244.2734,20.8
244.3314,283.4
244.3601,242.7
244.4017,18.1
244.4332,128.4
244.5963,231.7
244.6729,95.9
244.6962,606.9
244.8241,311.4
244.8709,5922.5
244.9948,18.7
245.086,158.5
245.1855,601.9
245.2382,181.8
245.3016,545.7
245.3311,176.6
245.3907,419.3
245.3977,507.7
245.4153,441.5
245.442,176
245.4471,20
245.4568,380.2
245.5235,18.4
245.5858,356.2
245.6579,658
245.7366,318.7
245.8276,240.4
245.8369,268.5
245.8508,208.8
245.8921,136.4
245.9215,298.1
246.0013,194.3
246.0108,44.5
246.0927,321.4
246.2216,122.9
246.2613,106.8
246.2983,17.6
246.5765,415.3
246.6014,199.1
246.6183,114.1
246.7186,194
246.7403,197.3
246.8531,424.4
246.8677,1687.6
246.9336,18.5
247.0043,22
247.0269,189.4
247.0371,1302.3
247.0672,889.2
247.0928,6664.4
247.1513,44.6
247.1863,146.5
247.2234,231.7
247.3285,873.1
247.3536,607
247.4283,149.9
247.4423,117.8
247.4653,609.5
247.4805,196.3
247.5272,115.9
247.5895,391
247.608,122.3
247.6157,222.3
247.6935,793.3
247.7382,215
247.769,656.1
247.934,246.9
248.0866,441.1
248.0975,392.5
248.1092,512.1
248.1243,22499.3
248.1665,18.3
248.1762,803.2
248.2306,513.5
248.2516,118.7
248.264,19
248.2963,126.5
248.3355,558.6
248.3435,468.2
248.3799,584.3
248.3911,178.9
248.4108,149.2
248.4649,18.5
248.5359,193.6
248.5915,49
248.6192,277.3
248.6422,529.4
248.7859,677.7
248.8709,11211.1
248.8976,53.4
248.9474,780.1
248.9597,1234.1
248.9849,28.5
248.9994,449.1
249.0166,1352
249.0613,18016.4
249.07,141.9
249.1284,1214.8
249.2028,414.3
249.2194,278.2
249.2596,18
249.298,147.6
249.3229,165.7
249.3949,44.7
249.4958,43.2
249.5575,20.1
249.6643,508.8
249.7242,97.5
249.9364,538.1
250.0641,637.8
250.0814,138.5
250.1253,189.3
250.1584,144.8
250.2306,107.1
250.3246,244.1
250.3309,162.1
250.3624,723.4
250.3947,338
250.4391,165.6
250.5102,218
250.5633,799.3
250.6137,91.1
250.6411,488.7
250.7418,153.3
250.7516,192.8
250.8177,332.1
250.8792,20.2
250.9199,3338.6
250.9558,2333.6
251.0009,123.6
251.0307,786.5
251.0347,339.6
251.0421,534.1
251.1335,339.1
251.153,117.2
251.2357,636.7
251.4488,169.1
251.6234,264
251.6304,151.7
251.663,263.9
251.7405,539.9
251.7658,238.8
251.8763,18.3
251.9135,237.9
252.0303,212.8
252.037,821.2
252.0458,88152.4
252.1292,118.7
252.1855,460.3
252.2373,440.7
252.3318,117.7
252.3632,132.4
252.7377,166.8
252.9076,710.7
252.9177,753.3
252.9976,26.3
253.0231,483.2
253.0492,5816.4
253.4048,312.6
253.4483,42.7
253.5205,360.8
253.5499,855.8
253.587,611.8
253.6671,244.7
254.0437,2514.7
254.0698,50.7
254.0935,20.1
254.193,560.8
254.3229,152.1
254.33,21.7
254.3964,560.2
254.4214,186
254.4924,173.6
254.5342,126.3
254.784,585.7
254.816,1065.6
254.824,9165
254.9556,145.7
255.0331,21366.3
255.0465,623.4
255.1436,248.7
255.1814,142.4
255.1913,466.4
255.3003,499.1
255.319,188.1
255.4207,485.8
255.5781,931.7
255.6091,453.1
255.6474,121.5
255.6775,326.3
255.7542,324.2
255.9779,1190.7
256.0585,143.3
256.1389,18.6
256.2405,159.2
256.3538,123.2
256.4108,468.8
256.5168,19.5
256.664,203.7
256.8132,418.9
256.821,10296
256.9182,18.6
256.9848,728.9
257.0488,5644.7
257.0649,708.1
257.0747,58956.8
257.1326,163.4
257.3076,693.5
257.381,579.6
257.3929,324.9
257.3994,184.5
257.489,100.6
257.5056,98.7
257.592,183.6
257.7484,419.2
257.9208,746.6
257.9321,322.7
257.9503,360.5
257.9629,93.4
257.9879,459.1
258.003,303.5
258.0298,69.4
258.0609,157.7
258.0716,233.3
258.0781,3167.4
258.1104,22882.2
258.1185,220.8
258.333,595.8
258.4984,22.7
258.6057,16.7
258.6209,47.6
258.6432,186
258.734,310.1
258.818,5156.4
258.8998,3408.3
258.988,493.7
259.0279,788.3
259.0642,571.2
259.24,385
259.2836,910.7
259.3091,541.3
259.4542,333.4
259.4933,249.6
259.5535,139.8
259.7811,579.3
259.8347,153.6
259.8993,323.2
259.9657,326.2
260.017,59.9
260.178,201.3
260.1862,130
260.2595,285.8
260.2733,24.2
260.3321,161.9
260.3455,401.2
260.355,121.9
260.4153,140.8
260.7449,165
260.8158,872.7
260.8446,3327.6
260.876,439.7
260.9493,11602.3
261.0459,178.8
261.0762,265.6
261.1182,245.6
261.1237,339.1
261.1416,102.8
261.2768,175.4
261.308,198.6
261.3442,159.5
261.3658,155.6
261.4184,166.5
261.4451,474.8
261.4929,492.6
261.5503,738.2
261.81,697.6
261.8383,118.9
261.9625,742.2
262.031,112.7
262.0821,944.4
262.0999,464.6
262.1418,215.6
262.3037,697
262.4014,89.3
262.4812,361
262.5177,263.4
262.7796,137.5
262.7843,92.4
262.7874,107.3
262.8412,206.5
262.8772,316.1
262.9031,122.8
262.9465,1716.9
263.001,643.6
263.0795,89.9
263.0854,3843.3
263.1614,20.6
263.1777,449.7
263.2383,282.8
263.2736,135.2
263.2889,756.9
263.369,234.4
263.5871,19
263.7131,350
263.8878,522.7
264.0384,189.5
264.1238,112.4
264.1812,209.7
264.2681,543.6
264.2792,122.3
264.285,17.9
264.6414,296.9
264.7569,189.3
264.7713,812.1
264.8398,103.3
264.8451,1336.3
264.8529,4859.4
264.885,93.5
264.9088,161.9
264.9337,1540.5
264.9614,900.1
264.9887,209.3
265.0165,240.1
265.0232,777.6
265.0352,11075.8
265.0473,4566.6
265.2497,93.9
265.2604,171.4
265.2679,163.6
265.4126,646.8
265.5248,521.3
265.5452,103.2
265.875,262
265.9932,21.9
266.0385,693.3
266.0538,230.7
266.1631,498
266.1894,692.6
266.2024,457.3
266.2239,162.1
266.2378,166.7
266.301,193.9
266.4074,827.7
266.5835,137.7
266.6008,600.1
266.7703,19.7
266.7758,338
266.8316,250.6
266.8501,4781.4
266.8712,570.8
266.8943,3406.6
267.0135,149.7
267.0343,362.6
267.1144,155.5
267.1416,408.1
267.1629,608
267.1927,221.1
267.2191,393.2
267.3543,485
267.5575,816.4
267.5843,309.6
267.6476,960.6
267.6567,644.6
267.6928,47.8
267.7279,467.1
267.7299,445.2
267.8489,192
267.904,205
267.9936,20.1
268.0317,179
268.0418,256.8
268.1878,231.5
268.3526,151.2
268.4634,17.8
268.4682,275.8
268.4814,92.2
268.4977,740.6
268.5335,152
268.55,214.4
268.6235,564.2
268.6724,281.5
268.7697,100.5
268.8467,688
268.8915,1237.1
268.9073,20.2
269.0007,20.8
269.014,434.4
269.0358,395.1
269.0449,19232
269.0488,35260.2
269.1788,618.5
269.1964,334.8
269.2521,392
269.3307,281.8
269.8948,22.8
269.9457,245
269.9939,2710
270.0249,1030.5
270.0475,26021.3
270.0527,616.4
270.0643,24.1
270.1453,1968.6
270.1841,196.5
270.1916,157.4
270.2194,335.1
270.2267,351.2
270.2404,722.2
270.2483,20.5
270.3493,150
270.4498,20.4
270.7366,45.5
270.7981,3481.1
270.8293,124.3
270.9781,21256.1
271.0237,186
271.0284,63.1
271.0509,540.2
271.0577,121.6
271.064,98.4
271.0777,418.4
271.174,22.1
271.231,904.9
271.2517,180.4
271.3549,105.5
271.3915,579.9
271.4268,541.4
271.4526,23.7
271.5051,662.8
271.5406,49.4
271.6339,43.8
271.6775,425.6
271.818,647
271.8243,18.5
271.8603,201.5
272.0433,163.5
272.0808,460.1
272.1798,185.7
272.213,251.3
272.2546,828.9
272.314,542
272.3858,469.3
272.41,140.6
272.5287,276.3
272.5304,277.7
272.6614,20.5
272.7494,49.2
272.781,368.1
272.7949,5469.7
272.8646,603.7
272.9447,748.5
272.9651,263.5
273.0247,802.3
273.0486,5124.5
273.3274,98.8
273.6847,20.1
273.7,317.8
273.852,560.6
273.8615,19.2
273.9366,21.7
273.9411,471.7
273.9623,1023.7
274.0145,225.1
274.0319,336.6
274.0405,22.2
274.0691,186.5
274.0924,5124
274.2762,156.7
274.399,362.1
274.5071,166.2
274.792,1278.6
274.8893,521.5
274.9954,801.2
275.0837,556.3
275.1033,269
275.234,324.7
275.2452,19.1
275.397,18.6
275.4099,545.3
275.4533,18
275.7009,228.7
276.0038,86
276.0083,250.3
276.0847,136.1
276.0986,497.7
276.1609,130
276.1673,130.5
276.3082,895.7
276.439,322.8
276.5169,167.9
276.5796,277.9
276.6369,98.7
276.703,508.7
276.8413,176.1
276.8604,841.5
276.8754,469.6
276.8885,459.9
276.911,17.5
276.9233,8877.7
277.0903,272.6
277.1654,215.6
277.2132,521.8
277.2504,195.4
277.2634,333.5
277.4264,357.7
277.4591,132.8
277.4987,138.6
277.612,329.5
277.8198,500.7
277.8687,19.7
277.9379,200.1
277.942,248.4
278.0004,49.3
278.0191,513.8
278.1183,533.2
278.1479,150.2
278.1715,479.5
278.1785,245
278.2093,18.6
278.4875,251.4
278.6024,268.7
278.6414,260.6
278.7147,182.7
278.7841,503.7
278.8939,923.9
278.9199,1288.2
278.9466,138.6
278.9874,838.8
279.0254,730.9
279.0368,21.4
279.0567,35285
279.2339,320.7
279.2521,183.8
279.3288,579.5
279.381,561.7
279.4257,19.7
279.4833,214.4
279.4892,366.1
279.5475,370.3
279.6343,20
279.681,105.2
279.772,305.7
279.8344,311
279.839,319.5
279.8479,713.1
279.8594,1136.4
279.8816,45.4
279.9309,226
279.9779,439.2
279.9993,22.8
280.0161,215.3
280.0603,923.5
280.076,1079
280.0921,685.5
280.225,210.7
280.311,44.5
280.368,700.5
280.4588,342.4
280.599,307
280.6682,141.3
280.7333,231.9
280.827,3903.1
280.8383,489.5
280.8471,532
280.9695,303.2
281.0097,3490.6
281.0424,910.6
281.0515,656.6
281.0629,300
281.0674,94.1
281.0777,375.4
281.094,280.8
281.3349,315.6
281.3701,713
281.389,124.5
281.4521,125.9
281.6135,155.1
281.8193,125.2
281.8903,557.2
281.9869,450.3
282.0148,177.7
282.0445,396.5
282.0648,491.3
282.0773,121.6
282.1293,454.4
282.1377,26
282.1878,52.8
282.3413,118.4
282.4471,778.8
282.6697,762.1
282.6738,275.3
282.7037,21.2
282.7106,228.5
282.7627,219.1
282.8238,2370.5
282.878,166.2
282.9053,29.9
283.0285,417.7
283.1379,617.3
283.3015,128.8
283.3257,618.4
283.3482,18.5
283.3986,290.8
283.4779,485.7
283.5268,337.1
283.8657,670.6
284.0127,18
284.0195,1047.7
284.0242,21.4
284.0633,157.1
284.1224,191.9
284.1245,357.7
284.126,294.5
284.2609,549.5
284.2787,499.9
284.4413,514.8
284.4897,861.2
284.5417,210.7
284.5848,102.6
284.625,234.2
284.8003,20.4
285.0404,312.8
285.084,436.7
285.0997,106.6
285.1126,588
285.1612,366
285.2317,141.1
285.3579,629.3
285.4385,666.8
285.5523,209.7
285.652,303.5
285.7839,18.4
285.9509,902.5
285.9682,1070.7
286.0133,605
286.0199,351.2
286.043,23.1
286.0965,34.9
286.1304,326.4
286.2579,44.3
286.3095,110.8
286.3661,524.7
286.5358,18.4
286.5799,556.3
286.7103,467.3
286.7401,608.3
286.7719,2308.4
286.9521,8985.8
286.9998,208.5
287.0175,497.9
287.0555,37939.2
287.0997,363
287.255,179.1
287.3022,480.8
287.3273,19.3
287.4061,144.1
287.5968,539.5
287.8074,436.1
288.0132,27
288.0537,643.9
288.0588,1064.3
288.0734,611.8
288.0849,158.4
288.1558,28059.8
288.2867,171.5
288.3637,23.5
288.3708,421.4
288.5793,561.8
288.6339,125.3
288.769,1776.3
288.8366,24.4
288.8401,144.3
288.8451,184.3
288.8527,730.3
288.8646,5962.3
288.8703,5832.9
288.8739,5677
288.8784,3848.2
288.8876,7453.5
288.8937,7437.6
288.898,9743.2
288.9043,12621.1
288.9075,13267.2
288.9129,16085.8
288.9164,16586.6
288.9225,22464.9
288.9261,16862.9
288.9313,22135.8
288.9372,22841.7
288.9421,23041.2
288.9542,20409.6
288.9634,10799.8
288.9652,10083.6
288.9784,3783.9
288.9839,1715
288.9902,437.9
288.9943,410.4
288.9965,1070.1
288.9986,1197.6
289.0413,392
289.062,102.4
289.1589,1733.8
289.2615,134.3
289.2779,248.4
289.298,801.3
289.3566,24
289.51,763.3
289.6007,147.8
289.6053,134.5
289.7758,108.4
289.9759,712.1
289.9928,178.7
290.026,21.5
290.078,226.4
290.1002,45.8
290.1814,194.3
290.2024,241.5
290.3246,355.2
290.4759,472.7
290.6204,693.5
290.7662,1233.4
290.8139,791.6
290.9951,21.7
291.0272,1551
291.0607,94.5
291.105,419.7
291.1752,512.3
291.2175,293.2
291.2487,329.9
291.2571,21.8
291.2623,249.2
291.4124,532.2
291.4956,713
291.5456,110.7
291.6598,327
291.6664,802.8
291.7072,755.6
291.7358,57.1
291.7984,373
291.9133,313.5
291.9352,676.1
291.9395,45.3
291.949,217.3
291.984,313.7
292.0797,150.2
292.1027,94.1
292.129,143.5
292.1967,580.7
292.3878,466
292.4516,242.9
292.5237,211.8
292.531,424.7
292.8706,18.2
292.8859,518.7
292.8972,2123.3
292.9462,21
293.0639,364.3
293.0681,532.8
293.0725,2048.6
293.0891,320.6
293.0984,520117.6
293.1319,303.8
293.2892,133
293.4373,95.6
293.4657,212.2
293.4859,286.2
293.7001,530.7
293.8357,21.5
293.9409,47.6
293.958,178.5
294.0638,290.3
294.0894,269.8
294.0954,879.2
294.1017,49323.2
294.5603,179.8
294.6988,159.8
294.8221,839.2
294.9906,602.6
295.0255,515.5
295.0307,1061.8
295.1025,3993.6
295.1677,153.4
295.1948,23422.7
295.2363,474.6
295.341,98.2
295.3612,218.1
295.5173,96.1
295.613,519.6
295.6383,121.8
295.674,136.2
295.8488,593.9
295.8733,46.3
295.9062,526
295.9214,290.8
295.9629,169.4
295.9713,412.2
295.9984,596.5
296.0105,620.9
296.1982,1815.2
296.2708,386.3
296.281,172.6
296.3124,142.6
296.3337,160.2
296.3581,175.4
296.5367,20.9
296.5703,572.1
296.5761,200.1
296.6301,189.7
296.6391,710.3
296.9876,237.3
297.0435,395.3
297.057,92.4
297.2111,151.1
297.2195,339.1
297.2591,328.2
297.3621,95
297.4333,711.7
297.5209,277.4
297.5631,106
297.6418,788.8
297.8445,142.6
297.8898,171.5
297.9098,794.8
297.9886,19.8
298.0255,1058.3
298.0424,17048.5
298.1468,319.3
298.2484,399.4
298.353,205.2
298.3595,256.4
298.4721,820.7
298.5423,552.1
298.5756,143
298.7114,43.7
298.7978,609.1
298.8248,143
298.8407,192.5
298.9609,216
298.9863,174
299.023,1435.1
299.0458,621.3
299.0615,29.1
299.1393,1018
299.1887,344
299.3479,21.2
299.5702,134.3
299.5834,368.8
299.6424,591.2
299.7289,591.1
299.7735,451.9
299.7973,18
299.8711,551.3
300.0045,1212.7
300.0384,198.7
300.0488,55
300.0755,591.1
300.0891,622.6
300.3514,515.5
300.4516,525.9
300.4767,283.3
300.575,198.6
300.7793,576.4
300.8255,750.8
301.0387,22046.2
301.0765,24.1
301.0781,20.8
301.0808,22.9
301.0996,358.3
301.1417,242.7
301.1641,448.9
301.2124,2043
301.2774,225.8
301.4644,354.2
301.5437,331.8
301.6475,62.7
301.8632,158.9
301.9676,688.5
302.0003,18.2
302.0121,1620.3
302.0202,208.4
302.0353,71
302.0641,5304.2
302.0743,20.3
302.1319,173.9
302.1445,26.4
302.245,129.9
302.2528,21.4
302.3417,18.3
302.3566,94.5
302.3642,95.8
302.4108,575.9
302.4257,382.7
302.6469,495.3
302.6683,766.4
302.6734,486.3
302.6768,896.3
302.6809,178.3
302.6856,391.4
302.7179,17.9
302.7457,916.2
302.7725,159.2
302.8296,2647.4
302.8466,469.6
303.0553,346.2
303.0674,531.3
303.0749,336.7
303.2047,750.7
303.2171,1302
303.4872,582.5
303.6697,252.8
303.7577,191.7
303.7979,19.7
303.8498,21.5
303.9478,247.5
304.0118,651.1
304.0449,158.4
304.0596,203.5
304.2552,115
304.3406,666.1
304.3836,188.6
304.4017,823.4
304.4324,132.2
304.4903,94
304.5149,648
304.5562,234.3
304.6494,471.8
304.6594,460.3
304.6915,117.3
304.7142,178.4
304.7196,266
304.7427,381.8
304.8267,639.6
304.975,693.4
305.1439,18.1
305.3556,171.2
305.3617,221.5
305.4378,302.8
305.633,687.8
305.7186,131.7
305.8115,658.7
305.9132,243.6
306.0259,114.3
306.0955,99.6
306.1038,866.1
306.1254,23.1
306.2017,1002.1
306.3068,465
306.4783,832.4
306.5701,706.7
306.6398,768.6
306.6944,296.5
306.9579,1419.8
306.9774,3628.2
307.0523,374.3
307.1497,317
307.4122,497.4
307.5757,241.2
307.9571,384.1
308.0409,592.8
308.0465,618
308.0811,327
308.2359,555.1
308.2973,265.1
308.3923,530.8
308.4351,234.5
308.5447,20.7
308.6752,213.3
308.7384,319.9
308.7651,602
308.8422,482.3
308.8704,112.1
308.8791,2945.7
308.9392,41.2
309.0062,447.9
309.0376,2483.5
309.0827,3220.4
309.1235,22.2
309.1522,558.6
309.1919,448.5
309.2675,111.2
309.3337,278.8
309.4342,286.3
309.679,151.3
309.6904,977.2
309.7345,222.3
309.8066,521.4
309.8921,818.7
309.9135,302.7
309.928,621.5
310.1248,97
310.1819,270.5
310.2832,18.7
310.2969,108.3
310.3341,301.1
310.4352,546.3
310.5731,133.4
310.8408,897.2
310.8762,3594.2
311.0032,176
311.0166,328.3
311.0231,24
311.1258,355.8
311.3087,128.5
311.3296,17.2
311.4958,166.3
311.5802,329.7
311.9661,343.1
312.0195,30.3
312.0412,2612.6
312.0946,137.6
312.154,703.4
312.2641,581.1
312.3733,118.1
312.4126,425.3
312.4623,19.9
312.5627,318.9
312.5717,183.7
312.609,129.3
312.6181,270.1
312.6624,181.4
312.8585,904.1
312.8726,373.6
312.8825,635.3
313.0016,124.3
313.0362,1483.4
313.1286,296
313.2742,43151
313.5143,576.8
313.5484,113.7
313.8257,577.2
313.9998,1105.7
314.0084,301.6
314.0111,289.1
314.0147,355.8
314.0423,150.9
314.0912,151.2
314.2774,4571.6
314.3777,532.5
314.4651,138.8
314.5058,177
314.6224,220.4
314.7002,157.6
314.7799,738.1
314.8371,5684
314.9002,271.3
314.9993,5607.8
315.0044,4219.3
315.0323,19.3
315.0493,1425.9
315.0555,9811.2
315.0597,3215.2
315.0619,4432.1
315.064,5862.5
315.0667,17090
315.0698,25881.2
315.0735,19466.5
315.0804,7817137
315.087,25514.2
315.0922,9532.4
315.0944,6946.5
315.0967,5090.2
315.0987,5745.3
315.1008,4348.2
315.1029,2896.5
315.1049,2611.8
315.1068,1491.8
315.1119,440.6
315.1134,747.8
315.1165,184.3
315.1198,268.1
315.1246,137.3
315.126,191.4
315.1615,5917.6
315.1844,145.9
315.2601,572.5
315.3071,241.2
315.3239,7039.1
315.3905,139.4
315.4298,1016.5
315.4864,789.6
315.5813,24.2
315.6377,42.2
315.6507,385.2
315.803,259.5
315.9024,121.1
315.9399,668.1
315.9534,277.3
315.9902,665.2
316.0528,49.8
316.0677,1443.4
316.0776,44460.4
316.0836,802796.4
316.112,406.7
316.1169,155.9
316.2505,201.9
316.2995,143.6
316.3402,19.1
316.3698,583.2
316.6452,229.9
316.6606,254.5
316.7768,574.6
316.8553,210.3
316.8637,369.6
316.8804,218.4
316.8935,96
316.9018,249.6
316.9289,580.2
316.9864,1713.3
317.0249,495.5
317.0577,750.9
317.0653,1948.4
317.0842,91356.4
317.0881,17701.7
317.1729,275.4
317.3464,436.6
317.4256,157.9
317.5891,552.2
317.649,508.7
317.9118,652.1
317.9372,585.8
317.9858,600.3
318.0183,490.1
318.0877,8951.3
318.6553,358.4
318.7646,185.8
318.8038,1869.5
318.9022,114
318.9078,339.2
318.9464,206.6
318.9697,172.3
319.0591,635.7
319.1474,168.9
319.1948,49359.3
319.2998,194.2
319.3154,469
319.6208,304.6
319.632,259.5
319.673,610
320.0745,217.9
320.1981,7297.2
320.2203,509.4
320.2589,1341.5
320.3092,344.9
320.4486,204.1
320.5833,340.4
320.6087,228.5
320.8364,1052
320.8662,565.1
320.8972,655.8
320.9051,619
320.9497,357
321.0508,375.1
321.0966,165.2
321.1157,146.8
321.1332,235.3
321.1401,535.6
321.2105,38206.5
321.2622,105
321.3475,292.7
321.3942,589.3
321.4402,626.9
321.669,342
321.7359,303.6
321.7608,803.8
321.8025,559.9
322.0088,157.4
322.0992,600.7
322.2137,5349.3
322.2567,165
322.3107,128.4
322.4021,122.9
322.4983,19.6
322.7948,262.7
322.8122,489.4
322.9142,22.2
322.9865,99.1
323.0205,11190
323.0798,206.1
323.1751,594.5
323.2261,2968.4
323.298,18.9
323.4552,310.3
323.5077,139.8
323.5795,179.2
323.6078,167.6
323.6997,90.5
323.705,491.3
323.8487,216.1
323.8601,385.3
323.8716,18.8
324.005,95.8
324.1361,334.1
324.1518,355.6
324.5298,538.5
324.5511,96.6
324.5804,3182.2
324.59,8080.9
324.6141,548.8
324.7752,186.7
324.8086,459.2
324.8532,3569.6
324.8776,163
324.9021,749.9
324.9212,151.5
324.9735,257.7
324.9947,98.8
325.0026,1613.3
325.0564,1533.5
325.2119,2243.1
325.2522,273.7
325.2535,270.1
325.2983,117.6
325.4461,79.9
325.6046,426.6
325.6848,270.5
325.7229,726.1
325.7518,194.2
325.966,309.7
326.0048,25.6
326.1153,230.3
326.154,430.8
326.4221,629.6
326.5057,376.8
326.6204,741
326.8503,3134.2
326.8974,92.6
327.0159,4831.4
327.0521,2749.5
327.0969,754.3
327.1528,122.9
327.2276,7203.2
327.2989,124.5
327.441,157.4
327.4977,139.7
327.511,205
327.5165,580
327.7473,250.1
328.0158,1349.1
328.0646,515.4
328.1073,139.7
328.1213,172.3
328.1636,235.8
328.1779,314.1
328.1993,358.8
328.2308,719.9
328.415,718.5
328.4404,705.6
328.7566,232.4
328.8982,536.8
328.9123,118.3
329.0403,323.1
329.0686,588.4
329.0877,638.1
329.0961,1939.6
329.1339,705.1
329.1388,977.1
329.1636,108.2
329.7992,567
329.9279,450.8
329.9438,497.6
330.0592,171.1
330.0685,27.9
330.0943,168
330.3547,17.7
330.4198,114.7
330.563,22.3
330.6532,187.2
330.7112,304.5
330.754,415.4
330.9145,19.2
330.9916,495.2
331.0195,1119.7
331.0455,134077.2
331.0543,1143542.8
331.0607,2172.5
331.1047,121.6
331.142,196.8
331.4062,139
331.8821,670.2
332.0482,8843.1
332.0576,101617.9
332.0835,243.5
332.1567,642.6
332.1642,300
332.4125,678.7
332.4877,334.2
332.514,199.2
332.5908,571.8
332.6349,48.4
332.6892,389.6
332.9712,21.9
333.0366,717.4
333.0435,108.8
333.0525,67313.9
333.058,11618.8
333.0802,549
333.0971,18.7
333.1613,24
333.2698,314.2
333.4829,293.7
333.5307,21.6
333.6137,19.9
333.8629,438.2
333.8983,389.5
333.9245,659.9
334.0558,5763.5
334.0755,451.3
334.0906,56.2
334.1652,377.5
334.2636,241.2
334.6268,120.8
334.6668,812.9
334.8368,594
335.0022,728.8
335.0204,359.4
335.0382,696.6
335.0701,621.1
335.2543,713.5
335.289,375.2
335.3069,673.8
335.3983,146.4
335.4249,22.5
335.9284,39.6
335.9456,388.6
335.9733,602.6
336.0158,711.1
336.0428,796.7
336.2373,314.4
336.2843,362.6
336.5591,210.3
336.6149,314.4
336.6793,140.5
336.9872,408.9
337.0364,10638.1
337.0499,19996.6
337.0623,632713.8
337.1047,111.8
337.2546,590.8
337.2739,11807.7
337.4261,201.5
337.5828,496.3
337.6234,438.7
337.6424,40
337.6681,41.4
337.7264,21.2
337.7682,206.9
337.8076,330
337.8694,798.2
337.9378,837.6
338.0489,354.8
338.0656,55593.9
338.0751,20.5
338.1818,23.1
338.3419,33.8
338.358,500.6
338.9202,628.9
338.984,314.1
338.9947,558.1
339.0387,1308.5
339.0471,783
339.0547,143
339.0663,4865.7
339.2473,536.3
339.2896,6036.1
339.3617,156.8
339.4254,256.6
339.4341,828.9
339.4558,554.4
339.5423,208.9
339.5515,375
339.5883,127.4
339.6831,385.7
339.7976,781.4
339.8061,313.4
339.9975,173
340.0686,566.7
340.0993,516.7
340.2166,100.3
340.3373,23.3
340.4762,286.7
340.5291,909.3
340.783,151.5
340.8273,377
340.8456,368.9
341.0183,73.4
341.0808,253.6
341.1356,49.3
341.296,604.4
341.3056,4049.2
341.3703,181.3
341.7089,327.9
341.7267,563.2
342.0152,28.5
342.1733,881.3
342.281,121.6
342.353,452.7
342.4286,172.9
342.4937,271.7
342.7503,152.7
342.8217,18.1
342.876,678.8
342.9451,18.5
342.9967,198.2
343.1155,595.2
343.1601,179
343.1947,12990.6
343.2003,957
343.4277,397.9
343.451,173.4
343.7621,1010.2
343.7638,946.8
343.7846,521.8
344.1028,109
344.1974,1398.9
344.2178,196.9
344.3698,310.1
344.4745,254.4
344.6127,740.5
344.8029,516.4
344.8638,630.3
344.9678,261
344.9929,580.7
345.2105,2442.2
345.3485,242.2
345.3759,315.7
345.6242,184.5
345.6388,162.6
345.7735,93.6
345.8688,121.5
345.9033,216
345.9841,2523.8
346.0081,20.7
346.0252,1476.7
346.0574,52.2
346.1076,780.4
346.1405,391.9
346.2438,343.7
346.3926,240.6
346.3974,308.2
346.4444,19.9
346.7105,644.7
346.9248,109
346.9799,143.5
347.0432,17.8
347.0518,242.9
347.0986,102.5
347.1519,224.2
347.1952,430.1
347.2976,682.1
347.4881,251.2
347.6954,762.2
347.7028,169.9
347.738,179.6
347.8748,21.3
347.8948,901.4
347.9861,139.9
347.9929,97.7
348.107,790.8
348.1279,452.2
348.1471,44.7
348.4281,494.4
348.6121,704.5
348.8384,228.3
348.9338,901.1
349.0275,226.5
349.0301,226.6
349.0735,237.8
349.1415,193.4
349.2527,186.8
349.3188,415.2
349.6767,222.6
349.6871,860.3
349.8698,23.3
349.942,418.3
349.9635,746.3
350.0138,104.4
350.1891,160.4
350.2968,501.3
350.3657,132.9
350.6328,319.3
350.8988,569.6
350.9159,567
350.9962,231.9
351.4379,20.1
351.464,127.6
351.5986,494.8
351.6348,370
351.6623,288.4
351.7319,21.6
351.9485,264.8
351.9625,726.2
352.0593,711.3
352.2127,222.2
352.4201,147.8
352.6085,489
352.8191,115.3
352.8274,104.7
352.848,107.4
352.92,689.5
353.0117,324
353.0273,138604.8
353.0363,197960.1
353.0793,122.2
353.1014,141
353.1347,574.4
353.1732,261.4
353.2436,514.8
353.3048,231.9
353.4469,485.3
353.6657,20.6
353.7505,381.6
354.0305,10251.3
354.0396,18031.1
354.143,246.9
354.3167,116.1
354.606,349.1
354.7122,110.6
354.9639,1008.3
355.012,1951.3
355.0345,11568.2
355.0704,526.2
355.3996,325.5
355.4613,131.2
355.4678,196.6
355.511,21.7
355.5272,603.2
355.5416,179.8
355.5739,19.3
355.6074,235.7
355.6502,588.5
355.7275,128.3
355.9605,98.9
355.995,47.9
356.0154,104.8
356.0368,198.6
356.0421,1147.6
356.0678,437.8
356.1143,510.9
356.2246,356.9
356.5049,49.2
356.612,144.7
356.6955,22.2
356.7966,486.3
357.0093,1154.4
357.0281,541.4
357.0723,314.8
357.1556,591.9
357.2826,352.1
357.5654,770.2
357.5765,628.8
357.5926,690.6
357.6014,181.9
357.6087,238.1
357.8821,199.1
357.915,198.9
357.9411,162.9
358.009,57.5
358.0149,166.1
358.1327,459.1
358.2632,567.2
358.3253,642.1
358.5448,330.1
358.8424,662.6
359.0077,551.3
359.0318,11169.3
359.0443,341804.1
359.14,538.8
359.1992,176.6
359.2189,278.4
359.2317,189.4
359.402,806.5
359.5195,400.6
359.5754,177.1
359.5835,304.2
359.5904,1355.9
359.6004,1120.3
359.6154,251.3
359.6231,165.9
359.6382,690.7
359.6443,23.6
359.6709,22.5
359.6831,1000.9
359.692,129.8
359.7131,179.8
359.7311,20.5
359.8127,524.3
360.0295,115.7
360.0476,32114.9
360.0998,24.9
360.2821,291.3
360.3242,415.6
360.5556,663.9
360.6035,792.4
360.7011,158
360.7437,459.4
360.8679,177.7
360.9478,795
361.0205,3189.9
361.0299,373.6
361.0483,574.1
361.1462,126.7
361.239,21.7
361.2742,1124.5
361.4835,291.4
361.513,138.2
361.5197,236.8
361.5752,283.8
361.6506,145.5
361.9119,146.7
361.9589,346.1
362.0242,153.9
362.154,103.5
362.2205,46
362.2599,935.1
362.3764,213.5
362.7437,284.9
362.7858,478.4
362.9272,1820.1
363.0209,185.2
363.0339,134.7
363.1359,265.4
363.3137,88.9
363.3397,301.7
363.4044,92.5
363.5091,507.4
363.6876,151.7
363.7232,186.4
363.8738,699.8
363.9435,19.8
363.9486,642.9
363.9746,330.5
364.0099,799.6
364.4406,159
364.518,99.4
364.6076,476.7
364.6682,812.5
364.787,158.8
364.8114,602
364.8672,481.3
364.9128,473.4
364.9145,448.8
364.9371,574.9
365.0009,183.9
365.1061,384.4
365.3279,374.3
365.6297,317.1
365.7356,123.1
365.8015,89.7
365.8068,157
365.8279,99.7
365.9846,180.3
366.0305,19
366.1081,21.6
366.14,471.8
366.4415,145.2
366.6512,21.1
366.8585,445.5
366.9125,161.7
367.0505,321.3
367.0678,424.5
367.1216,2387.2
367.146,197.5
367.1742,137.6
367.195,3238.1
367.2301,189.8
367.2529,247.3
367.4163,114
367.4387,144.4
367.602,190.5
367.737,20.6
367.827,520.2
367.9574,557.7
368.0634,613.7
368.0985,160.1
368.1217,744.3
368.1641,363.9
368.3465,229.3
368.7277,314.4
368.9925,3867.9
369.0013,17828.3
369.0101,8108.8
369.054,304.8
369.0854,18.5
369.1628,23.1
369.1815,257.4
369.3544,169.6
370.005,350
370.0457,107.1
370.1234,25.7
370.2333,1013
370.3228,295
370.3456,487.3
370.3698,282.4
370.6327,99.5
370.6461,460.8
370.711,510.5
370.7527,526.2
370.808,341.3
370.8673,985.2
370.9563,307.8
370.9977,124.6
371.0101,550.7
371.0179,320.5
371.041,527.7
371.0787,1059.1
371.3285,21.9
371.466,293.2
371.5686,103.2
371.6542,139
371.8093,590
371.9293,255
372.0998,236.5
372.2709,394.7
372.4199,17.8
372.5023,616.5
372.6536,577.8
372.7385,932.9
372.798,210.4
373.1254,573.4
373.2045,206.5
373.3895,370
373.4551,341.3
373.6967,18
373.7299,162
373.739,54.8
373.9076,735.9
373.9146,207.9
374.4077,164.2
374.5033,812.7
374.5285,451.2
374.7907,414.7
375.0093,135526.9
375.0182,104023.9
375.1367,40.9
375.1673,618.6
375.185,232.9
375.2377,511.7
375.2538,459.1
375.3869,390.8
375.5527,96
375.596,243.9
375.6544,152.1
375.7156,490.1
375.7476,190.9
375.7628,156.2
375.8129,182.8
375.847,507.4
375.8801,450.7
375.9488,561
376.0125,12578.4
376.0216,8263.3
376.1569,211.6
376.1767,228.1
376.2629,446.4
376.3987,154.4
376.428,93
376.4436,214.2
376.4852,505.7
376.5659,423.4
376.7065,818
376.7843,19.3
376.7939,258.4
376.91,18.7
376.9443,297.4
376.9856,477.7
376.9939,629.7
377.0166,3872.8
377.077,111.4
377.2481,333.6
377.5432,154.5
377.8486,207.1
378.0522,179.5
378.1747,471.1
378.1871,356.2
378.3346,348.5
378.5379,168.5
378.6856,1319.3
378.8803,126.3
378.9011,824.8
378.9903,61
379.0301,260.5
379.1685,217.8
379.3383,20.4
379.6259,781.5
379.8773,696
379.915,608.3
380.1049,676.9
380.1445,17.6
380.156,42.3
380.2719,448
380.3003,391.6
380.406,548.1
380.5342,390
380.6825,293.1
380.7819,321.4
380.8017,335
380.9801,479.2
381.0137,20660.4
381.0262,203139
381.1233,622.6
381.1924,546.2
381.2566,52.5
381.3385,308.6
381.3746,222.7
381.3962,130.5
381.5521,357.8
381.6243,19.8
381.8079,390.1
381.8897,567.4
381.9158,187.4
381.9704,617.2
382.0295,17616.9
382.1566,110
382.241,826
382.3773,21.6
382.6449,172.9
382.6744,553.2
382.7672,1886.8
382.8912,44.1
382.9136,21
383.0108,731.8
383.0296,323.1
383.1165,188414.2
383.15,137.8
383.1737,18.9
383.2965,232.4
383.3246,582.7
383.6022,158.6
383.6274,102.3
383.7104,156.5
383.7981,808.5
384.0707,187.1
384.0934,141.9
384.1198,20487.1
384.1495,314.1
384.3109,485.7
384.4754,798
384.7856,280
385.2744,225.5
385.5133,455.3
385.5468,558.4
385.6749,341.3
385.7067,543.2
385.7394,357.3
385.7721,286.1
385.7739,285.9
385.8885,207.3
386.0611,300.5
386.1205,18.4
386.2603,20.7
386.422,502.9
386.6236,20.1
386.6854,167.7
386.7241,856.7
386.7552,140.8
386.7856,311.2
386.8356,133
386.8482,112.5
386.9391,19.8
386.9858,146.9
387.003,1441.9
387.0958,42.5
387.1051,243
387.1832,20.8
387.3234,129
387.4515,17.9
387.4919,283.7
387.5297,264.6
387.878,606
387.9172,148.7
388.3397,301
388.4695,219.6
388.5874,18.7
388.7131,664.4
388.7514,298.5
388.8594,309.8
388.9897,300.6
389.1539,563.4
389.3957,116.3
389.5663,472.4
389.6035,17.6
389.7555,222.7
389.8182,175.5
389.9738,1643.3
390.0527,355.9
390.1995,43.5
390.3188,414.5
390.4043,214.5
390.6931,18.4
390.7093,716.1
390.7985,1579.9
390.8291,18.4
390.8369,747.4
390.8563,703.7
390.9228,830.3
390.9741,12730.2
390.9831,22517.8
390.9922,12609
391.1032,21.3
391.5,805.4
391.5241,129.2
391.6412,20.8
391.6748,630.3
391.7306,569.2
391.8078,766.9
391.8179,366.5
391.8587,266.9
392.1071,144.4
392.2489,569.5
392.2597,22.1
392.6009,670.6
392.6241,111
392.6689,143.1
392.7069,683
392.7967,1337.1
392.945,517.1
392.953,55.6
392.9812,455.5
392.99,165.2
393.0408,102.5
393.08,126.8
393.2233,121
393.3753,21
393.5097,342.5
393.546,611.6
393.5964,514.2
393.6267,141.8
393.8026,751.1
393.8228,784.3
393.8619,86.7
394.2922,562.1
394.3047,469.6
394.5679,19.2
394.62,472.3
394.7613,126
394.8274,47.3
394.9384,311.2
394.9575,611.5
395.0556,217.3
395.1722,266.3
395.4242,277.7
395.5086,22.6
395.5484,284.1
395.9291,226.1
396.0929,596.1
396.1183,105.6
396.3807,194.2
396.6173,414.2
396.7427,330.2
396.8379,523.3
396.9179,183.2
396.9912,179405.2
397.0001,58593.5
397.0137,110.9
397.1545,38.2
397.174,138.7
397.2652,536.5
397.6659,18.9
397.7797,491.1
397.8566,56.9
397.9946,13703.5
398.0032,668.2
398.026,183.1
398.0407,188.6
398.0829,114
398.2419,7165.8
398.2679,380.3
398.3392,460.5
398.3415,497.8
398.3456,309.3
398.6644,624.9
398.7413,2054.1
398.88,46.5
398.9762,22.9
398.9977,682.6
399.0669,234.1
399.2097,612.5
399.2235,163.7
399.3851,601.7
399.4495,18.6
399.4745,142.5
399.4952,143
399.549,146.9
399.5684,464
399.587,254.5
399.6009,578.4
399.6665,378.5
400.1698,118.6
400.1951,167.6
400.2194,635.7
400.4483,327.8
400.7386,1099.2
400.7763,483.1
400.8279,1477.1
400.896,94.2
400.9722,27.2
400.984,518.5
400.9977,705.8
401.0579,143.8
401.0688,449.7
401.3996,150.8
401.4706,476.6
401.576,407
401.7629,86.2
401.8104,345.8
401.9102,18.7
401.9922,266.6
401.9962,244.7
402.0264,1329.4
402.4904,110.4
402.5554,480.9
402.7363,224.8
402.7761,571.3
402.8245,1747.8
403.0081,253788.3
403.132,388.7
403.3919,220.1
403.4188,21.1
403.4979,148.7
403.6038,223.6
403.7459,20.7
403.8009,271.3
403.8988,141.3
404.0114,19780.8
404.4021,50.3
404.5956,838.7
404.7321,137.1
404.7892,932.1
404.9134,299.4
405.011,518.3
405.08,486.7
405.2814,145.6
405.4168,523.3
405.5416,482
405.7273,24
405.7968,156.4
405.8497,324.9
405.948,715.9
406.0001,485.5
406.3296,1434.7
406.4047,339.8
406.6026,136.8
406.6163,333.8
406.7734,2156.2
406.9156,173.2
407.0031,163.5
407.0775,252.2
407.0962,773.8
407.1627,637.7
407.2979,307.4
407.3329,294.2
407.39,487.6
407.4905,307.1
407.6458,528.4
407.8907,184.7
407.9211,98.9
407.9972,16.6
408.0244,18.9
408.1623,426.1
408.1721,161.3
408.2244,21.2
408.2424,120.8
408.2891,591.2
408.3055,317.9
408.3913,218.4
408.4552,402.4
408.4628,113.7
408.6424,112.8
408.6655,184.4
408.6881,171
408.6955,233.9
408.7406,199
408.7705,2058.6
408.893,172.5
408.9849,2710.5
409.1612,689
409.2117,161.3
409.7413,195.6
409.9619,111.7
409.9833,489.3
410.0456,1257.3
410.3152,231.8
410.3761,199.8
410.5647,695.6
410.7668,1075.2
410.8258,863.7
410.8845,59.8
410.9683,39.4
411.0002,96.7
411.2354,106.6
411.4156,120.5
411.4754,145.7
411.778,272.4
412.1871,19.1
412.3219,2585.9
412.5023,129.7
412.5148,51.4
412.617,139
412.6263,121.8
412.7028,414.5
412.7567,159.1
412.8235,601.8
412.8539,652.8
412.8913,317
412.9241,20.1
412.9652,29634.6
412.9741,9739.5
413.0172,578.6
413.0338,19.6
413.2243,129.6
413.2667,3103.5
413.3249,222.1
413.3873,172.4
413.553,644.5
413.6916,602.9
413.8121,165.9
413.8246,129.6
413.9235,563.9
413.9689,656.1
414.1093,17.8
414.2699,404.8
414.5518,86.5
414.7156,769.8
414.9642,353.9
414.9969,702.8
415.0367,18.4
415.284,788.5
415.297,103.2
415.4575,51.3
415.6378,148.1
415.779,86.3
415.9158,457.6
416.0111,559
416.1352,9218.4
416.2144,37641.1
416.2591,157.9
416.3071,149.8
416.3522,18.3
416.6431,335.5
416.7117,403.5
416.7625,1132.5
416.8014,539.4
416.9573,121.2
417.1366,117.7
417.2173,3976.9
417.3553,18.4
417.4433,812.6
417.7918,153.2
418.1183,214.8
418.1825,146.9
418.3866,250.9
418.5634,224.1
418.6579,185.1
418.7325,141.5
418.7741,90.9
418.7986,730.5
418.8401,322.7
418.9821,86164.6
419.2555,1221
419.2926,297.7
419.5564,88.7
419.5855,810.5
419.6978,162.7
419.7871,117.9
419.9853,6374.3
420.2596,431.8
420.3123,370.6
420.3297,216
420.3779,274.4
420.4384,367.7
420.5785,205.8
420.716,163.8
420.8851,1087.2
420.9328,176.1
420.9567,1601.5
420.9805,2472.4
421.0495,1162.8
421.1407,24.1
421.7307,364.5
421.7772,784.2
421.9193,431.4
421.9213,421.1
422.072,160.7
422.1632,147.5
422.2434,132.5
422.3043,45.2
422.3185,814.4
422.386,734.5
422.5627,289.6
422.851,184.7
422.9553,1151.6
423.0002,892.6
423.7022,514.3
423.9879,194.9
424.2825,1646.3
424.3149,215.2
424.7664,549.4
424.8288,18.2
424.8901,19.1
424.9572,123.5
425.0121,268.4
425.0813,690.1
425.3873,163.3
425.4293,402.1
425.5099,19.4
425.5561,296.6
425.9538,1046.7
426.0629,590.2
426.1089,175.9
426.2396,732.2
426.313,137.2
426.5221,191.8
426.5365,439.6
426.8174,335.6
426.8318,652.7
426.9371,232
426.9477,160.2
427.0213,434.6
427.4426,309.9
427.4621,136.3
427.481,58.4
427.8666,19.6
428.659,374.8
428.7781,94.4
428.8941,154.4
428.9389,3065.8
428.9604,387.7
428.9709,970.5
428.9848,592.7
429.0146,265
429.0684,600.7
429.089,384.7
429.1673,115.2
429.2386,20
429.4258,118.1
430.3012,168.2
430.9137,1608.7
430.9646,209.6
431.0354,838.9
431.074,829.4
431.0851,27.2
431.2176,2595.9
431.4221,404.4
431.8232,316.8
432.6946,19.6
432.7351,41.1
432.7415,46.3
432.9017,244.6
432.956,503.5
433.2338,199.2
433.2877,178.4
433.316,298.8
433.3392,119
433.3908,345.1
433.402,17.6
433.5533,145.4
433.6999,421
433.782,721.7
433.951,185.5
434.175,18.9
434.2825,91.3
434.441,188.4
434.956,11509.1
435.0183,218.9
435.2465,18.3
435.2774,232.9
436.0261,260.6
436.4388,409.5
436.4973,433.4
436.663,17.1
436.7909,492.5
436.8919,543.2
436.9419,393.6
436.9549,1002.1
437.0662,234.8
437.3782,484.4
437.5373,545.6
437.9197,687.5
438.026,782.1
438.0856,210.9
438.3093,85.7
438.6584,299.1
438.8953,206.1
438.9372,123.9
438.9722,2698.3
438.9851,2533.9
439.014,23.2
439.2049,271.8
439.4455,376.5
439.5923,21.3
439.6515,163.3
439.7085,668.6
439.8245,286.9
440.0598,487.7
440.0801,133.4
440.0939,24.7
440.4233,492.9
440.7259,608.8
440.8816,18.1
440.9702,536.4
440.998,226.9
441.1635,261.4
441.2395,651.7
441.2978,295.1
441.3437,582.7
441.7371,181.3
441.8132,397.3
441.9431,554
441.9687,493.7
442.1444,105
442.1725,157.3
442.23,254.2
442.3019,18.8
442.4954,203
442.5526,297.5
442.6015,548.6
442.6473,334.9
442.7634,24
442.8649,209.6
442.9566,17.4
443.1294,610.3
443.2282,145.2
443.2448,659.4
443.2533,2572.9
443.5711,173.2
443.6111,431.9
443.6434,19.1
443.7177,424.2
444.087,786.8
444.3946,929.6
444.4609,460
444.5512,110
444.5799,40.1
444.7151,129.4
444.9307,665.1
444.9716,20.7
445.1521,347.6
445.2006,318.8
445.2313,3337.8
445.269,738.3
445.3335,23.5
445.3514,567.1
445.6142,131.4
445.9715,910.7
446.0657,225.9
446.3593,165.2
446.5144,20.3
446.5665,489.5
446.6712,401.7
446.8373,541.1
446.8661,491.1
447.2418,599
447.4101,715.4
447.5174,336.5
447.5799,799.4
447.741,103.9
447.7833,155.6
447.8514,19.8
447.9325,400.1
447.9669,104.8
448.0626,149.1
448.2046,595.3
448.2369,602.1
448.3214,294.9
448.6543,461.9
448.6682,435.7
448.6903,156.6
448.7217,587.9
448.8284,357
448.9327,5779.2
449.0007,681.5
449.1543,2074.7
449.9227,97.6
450.0302,406.4
450.0488,237.2
450.1581,351.9
450.2104,465.3
450.2223,487.7
450.2361,330.1
450.2544,704.9
450.6674,478.8
450.7306,911.4
450.7507,442.3
450.8193,17.4
450.9287,117.9
451.1219,359.3
451.1499,52.1
451.4017,456.1
451.4907,470
451.6554,343.2
451.7205,55.3
451.9188,157.3
452.04,164.4
452.111,123.6
452.2779,369.2
452.3884,589.7
452.5591,708
453.0687,474
453.1456,458.1
453.1671,435
453.4373,18
453.6138,579.1
453.6888,410.5
453.9559,19.5
454.0307,282.2
454.1315,361.1
454.2034,772.6
454.2577,254.8
454.3538,464.1
454.7379,495.8
454.7774,580.7
454.8625,430.4
454.9132,19
454.9499,39546.8
455.1299,527.6
455.209,96.4
455.2257,424.3
455.2471,214.7
455.3131,769
455.3937,175.5
455.4271,20.5
455.5401,640.5
455.5963,47.1
455.9474,677.6
455.9527,578.6
456.3899,19.1
456.4334,30.4
456.5705,197.9
456.6055,594.5
456.7002,467.8
456.947,9857.7
457.0298,99.9
457.2331,10252.7
457.4285,309.5
457.5061,120
457.8219,166.7
457.969,20.9
458.2364,1137.5
458.3294,206.7
458.6252,1040.3
458.6946,306.2
458.8245,134.9
458.8489,565.3
458.9615,4608.4
459.2487,424071.3
459.9547,525.1
460.0678,170.7
460.252,89092.4
460.3842,734.2
460.4639,303.2
460.499,586.1
460.6396,147.8
460.798,111.2
460.9668,73153.2
461.1157,531.8
461.1291,289.7
461.1744,94.4
461.2111,680.3
461.2555,4557.5
461.41,136.6
461.7054,671.3
461.8194,165.8
461.8829,638.7
461.9703,4477.8
462.0086,163.2
462.019,496.5
462.1937,328.4
462.5106,127.1
462.637,190.7
462.8616,97.4
462.8758,140.9
462.9206,187.4
462.9638,20154.2
463.0509,20.5
463.1697,144.4
463.2003,545
463.2478,19.2
463.264,631
463.4034,18.2
464.1139,503
464.7316,486.9
464.7663,859.5
464.8006,453.4
464.8874,18
464.9498,17.9
464.9787,8848.1
465.1177,754.5
465.1497,359.2
465.2247,765
465.7267,22.6
465.7811,829.2
466.2556,47.6
466.7278,473.1
466.9669,440.1
467.0965,527.4
467.2283,181.4
467.3083,18.8
467.3725,654.8
467.469,19.5
467.6481,97.1
467.7357,18.6
467.884,667.7
468.298,193.7
468.3095,1427.2
468.4378,182.4
468.4797,604.2
468.625,202.1
469.1452,526.7
469.2503,289
469.3652,21.2
469.6099,19.3
469.6538,21.6
469.7954,156.6
469.8652,154.4
470.0821,196.6
470.1228,225.5
470.1554,253
470.1815,499.1
470.1874,526
470.4732,99.2
470.6084,155.8
470.924,16343.3
470.9579,421.4
470.9955,3151
471.058,455.3
471.2338,858.6
471.3063,225.1
471.5528,161.4
471.7719,140.4
471.9267,474.1
472.4198,443
472.5275,401.1
472.5949,99.6
472.8271,18.4
472.8491,597.5
472.8866,156.6
472.9028,479.7
472.9211,5890.3
472.9396,210.9
473.0561,114.4
473.1497,116.5
473.2644,5399.6
473.498,168.8
473.5577,255.9
473.7431,19.2
473.8756,224.7
474.2395,92.6
474.2947,766.3
474.4797,320.4
474.5654,277.4
474.7706,715
475.1488,22.2
475.2226,20294.7
475.6159,673.4
475.6632,366.8
475.7196,586.6
475.734,564.9
475.7542,304
475.8627,837.6
476.2257,2673.1
476.3134,798.2
476.8205,635.3
476.873,149.3
476.9006,161.1
476.9407,41215.7
477.1538,151.8
477.4112,276.3
477.4666,193.5
477.944,3238.2
478.2489,19.2
478.2698,21.3
478.3294,53087.5
478.7063,242.1
478.8824,492
478.9381,11040.6
478.9626,628.2
479.1155,467.6
479.1692,105
479.3328,6890.9
479.3565,120.6
479.3706,104.8
479.6151,570.3
479.8433,307.2
480.0576,367.1
480.6054,19.2
480.7432,18
480.953,2406.7
481.0374,17.8
481.0917,170.7
481.1438,19.3
481.2326,617.8
481.2811,126.5
481.292,293.3
481.6099,533.2
481.6294,475.2
481.8348,343.6
481.9593,363.1
482.2398,427.2
482.2524,176.3
482.3249,781.7
482.5398,150.3
482.5532,314.2
482.6581,672.9
482.6735,132.7
482.7007,561.5
482.8051,18.8
482.9601,137.9
483.0265,20.1
483.2486,143919.9
483.4243,222.9
483.4644,704.9
483.5925,176
484.0154,17.6
484.0481,138.9
484.2374,593.7
484.2519,30284.2
484.8006,637.8
484.913,20.4
485.0432,407.6
485.1336,20.6
485.1457,933
485.1737,177
485.2642,104266.3
485.8317,142
486.138,160.8
486.1677,747.4
486.2673,21581.6
486.3455,47.1
486.4545,437.4
486.74,303.1
486.8968,490.7
486.9696,904.6
487.0423,221.1
487.2312,156.7
487.2799,96741.9
487.7338,178.7
487.7629,98.3
487.9376,518.2
488.0203,288.2
488.2645,46.1
488.2832,21604.6
488.339,362.6
488.4929,866.1
488.6166,741.1
488.8142,136.3
488.906,123.4
489.0013,260.6
489.0822,284.5
489.1347,119.2
489.2294,409.8
489.2868,1946.4
489.3784,331.9
489.403,372.8
489.4439,704.7
489.5218,785.2
489.5493,26
489.5636,207.3
489.5745,421.1
489.59,419.7
489.6114,291.8
489.6402,17.8
489.9347,239.3
490.0961,137.8
490.1594,144.3
490.1771,23.9
490.277,113.2
490.2908,7904
490.3115,190.5
490.3358,130.5
490.9231,114
491.085,21.2
491.2946,584.6
491.3402,350.8
491.4824,374.1
491.5167,267.1
491.5933,18.8
491.6734,154.7
491.7228,324.1
491.8107,129.6
491.8741,579.1
491.9204,314.6
491.961,610.9
492.2462,647.6
492.6502,577.9
492.6924,41.8
492.9145,8955.9
493.1049,359.3
493.3724,18
493.7576,18.4
494.3244,6169.2
494.3916,304.9
494.5152,20
494.7717,234
494.9114,2774.7
495.0296,342.4
495.1189,563.4
495.3664,298.8
495.755,19.9
495.8896,18.2
496.0905,330.6
496.1926,165.1
496.2157,593.2
496.3401,472248.1
496.7086,153.2
496.7389,19.3
496.9321,1015.1
497.1254,21.3
497.2387,822.9
497.3435,118270.8
497.4861,351
497.5491,150.8
497.7262,172
497.7465,850.8
497.8557,96.6
497.8962,294.5
497.9185,18.8
497.9662,229.4
498.2367,140.8
498.2555,544.8
498.3466,9712.2
498.3889,170.9
498.5864,454.7
498.6833,321.7
498.9276,609.4
499.0956,143.8
499.2223,5218.1
499.5916,90.3
499.7359,319.7
499.99,701.8
500.0596,181.5
500.1375,539.4
500.4443,194.2
500.8307,302.1
500.8685,593.8
500.9828,457.1
501.0023,247.1
501.0936,21
501.2382,4901.8
501.2562,415
501.3622,109.1
501.3716,54.7
501.6799,89.5
501.7656,352.7
501.792,329.4
501.9269,167.5
502.0203,490.7
502.2413,798.8
502.3294,24170.4
502.4962,334.7
502.6281,298.6
502.9902,499.5
503.0495,85.6
503.1075,64.3
503.2538,3740.7
503.3323,1495.7
503.4995,18.6
504.3061,4740.2
504.3444,7481.9
504.5195,430.5
504.9206,440.9
504.9344,233.2
505.1584,222.7
505.2335,1078.9
505.2789,165.9
505.3087,550.9
505.3714,474.7
505.4014,460.4
505.4931,253.7
505.8495,106.1
505.955,17.9
505.9796,54.1
506.04,795.8
506.095,147.4
506.1282,320.6
506.1958,190.9
506.2649,899.9
506.3086,812.1
506.3608,5358.3
506.7404,300.2
506.8412,225.6
506.8913,6128.4
506.9287,307.8
507.1071,156.4
507.2485,28607.9
507.4355,343
507.7304,19.3
507.743,341.3
508.1325,360
508.1671,292.6
508.1914,691.8
508.2519,4474.9
508.3747,489.5
508.5082,249.8
508.7654,407.3
508.8877,3133.9
509.0046,3865.7
509.0732,238.1
509.2642,11375.7
509.3097,631.6
509.3714,59.8
509.3847,193.2
509.7435,262.6
510.0152,664.7
510.2676,1872.9
510.3558,4836.6
510.7589,168.6
510.8789,232.8
510.9043,826
510.9402,919.2
511.0889,114.4
511.1256,386.9
511.1459,331.4
511.583,142.9
511.697,182.1
511.7351,175.8
511.8255,338.6
512.5212,18.6
512.7024,223.3
512.8594,370.2
512.8826,19.2
512.9083,15044.4
513.0184,117.2
513.1912,129
513.296,569
513.476,137.5
513.8275,18.5
513.8536,297.1
514.0116,172.7
514.2045,524.6
514.4583,313.3
514.5806,24
514.9057,10524.1
515.0227,2273.5
515.2421,18.4
515.5997,339.6
515.6798,470.5
516.1044,128
516.3066,15910.8
516.3352,149
516.3564,627.8
516.4305,188.5
516.6543,340.2
516.6641,194.1
516.7536,328.4
516.8383,411.7
516.9203,922.7
517.1756,627.9
517.3096,3321.1
517.5133,222.9
517.6957,272.7
517.764,134.6
518.3221,721626.3
518.6225,100.7
518.6352,532.1
518.7336,163.9
518.8612,293.5
518.9253,29209.8
518.9616,661.2
519.232,863.7
519.3255,166605.2
519.3785,623.5
519.5142,592.8
519.7593,129.8
519.7903,209.2
519.9286,1960.7
520.2817,441.5
520.3297,20496.9
520.3401,151771.4
520.4561,19.9
520.4938,508.1
520.5396,667.9
520.8017,490.7
520.8216,224.2
520.9227,18435.4
520.9425,17.7
521.1707,290.2
521.2205,44.7
521.2295,254.9
521.3435,41860.1
521.6564,679.1
521.7465,349
521.9245,337.1
522.0085,216.3
522.0622,87.5
522.1595,20.1
522.238,167.2
522.3107,769.8
522.3558,128387.9
522.4219,19.4
522.6617,18.1
522.7124,359.4
522.8401,159.7
522.9198,1044.1
522.9372,5711.1
523.0931,85.9
523.2636,622
523.359,34434.3
523.5598,242.3
523.7019,164
523.7448,664
523.866,323.5
523.9394,1117.9
524.0126,21.3
524.0252,1539.7
524.328,524.4
524.3714,147795
524.4875,522.1
524.5249,141.4
524.6902,390.3
524.9332,833.6
524.9789,444.9
525.0188,139.9
525.3459,600
525.3747,35222.1
525.4968,104
526.1487,140.1
526.33,1939.9
526.3781,1632.9
526.4018,532.7
526.8496,618.5
526.9901,215.6
527.0242,318.2
527.0305,362.2
527.0346,287.6
527.1602,627.2
527.2013,20.1
527.2199,589.3
527.4645,123.3
527.5791,387.3
527.6706,130.2
527.9199,560.8
527.9375,162.6
528.1275,190.3
528.2288,376.3
528.5122,341.6
528.5325,344.6
528.8826,5755
528.9114,202.7
528.954,1960.1
529.0261,553.9
529.3377,130.9
529.6883,468
529.8835,748.9
530.3084,618.6
530.3578,2328
530.55,119
530.5706,107.3
530.8796,4985.3
530.9427,143.9
530.9816,166.2
531.088,120
531.2488,5681.2
531.3523,169.5
531.9105,303.2
532.0079,681.1
532.2376,216.9
532.2805,2111
532.3378,9142.5
532.3757,622.3
532.5396,454.3
532.57,210.9
532.6636,413.8
532.8434,47.1
532.9114,587.2
532.9664,1228.6
533.0009,775.2
533.0431,338.7
533.1251,110.7
533.144,169.2
533.3408,1957.5
533.3918,533.9
533.5438,545.6
533.6547,21
533.7605,913.9
533.8636,285.3
534.181,655.2
534.2961,186694
534.3638,18.7
534.4646,189.4
534.8138,343.3
534.8776,128.6
534.8995,17954.1
535.2604,762
535.284,19.7
535.2995,41560.3
535.5897,320
535.624,133.9
535.7909,679.5
535.9035,1414.4
536.0282,176.5
536.2949,9107.6
536.412,19.2
536.5046,234.7
536.831,686.7
536.8966,12336.9
537.0282,19.3
537.255,114.6
537.2991,344.6
537.3422,243
537.4893,163.1
537.7483,133
537.9006,384.8
538.0193,94.5
538.1972,20.1
538.3905,187.6
538.4198,486.3
538.7072,125.9
538.8935,1233
538.9102,1611.6
538.9321,892.3
538.9625,192
538.9832,955.2
539.1773,23.1
539.2565,138
539.6921,323.6
540.0324,191.2
540.0819,232.1
540.1131,590.5
540.2925,588.9
540.3064,616.6
540.3206,750.5
540.4413,1042.8
540.5709,147.1
540.7582,19.8
541.0168,1011.3
541.3965,50.2
541.6185,108.5
542.0282,519.5
542.3222,225939.5
542.6945,45.2
542.7083,480.7
543.0286,501.5
543.1216,323.2
543.1311,210.9
543.1629,22.4
543.2064,227.3
543.3255,59385.8
543.8311,175.3
543.99,1071.7
544.0178,860.4
544.268,1110
544.3379,192268.4
544.6346,163.1
544.858,518.8
544.9309,452.4
544.9489,948.3
545.0209,164.5
545.1786,166.8
545.3414,50369.5
546.1289,284.6
546.1738,169.4
546.2951,744.9
546.3535,204397.9
546.386,118.7
546.4982,647.3
546.8036,199.1
547.0458,118.2
547.3569,54764.4
547.412,806
547.4724,581.9
547.6619,17.6
547.8415,402.7
548.1157,150.7
548.1402,482.8
548.3097,1082.6
548.3604,4329.8
548.5959,624.5
548.7384,216.4
548.9051,20.8
548.9169,18.7
548.9419,555.1
549.4031,508.4
549.8103,286
549.9264,249.2
549.9412,18.5
550.0365,190.3
550.068,352.2
550.4238,135.3
550.5183,259.2
550.5948,17.2
550.6115,140.7
550.8262,305.1
550.873,3100.3
551.0143,621
551.0451,233.7
551.4132,621.3
551.5491,143.2
551.586,440.2
551.7562,180.5
552.5839,707.8
552.8706,2613.2
552.8924,18.1
553.0206,20.9
553.977,100.8
554.2536,408.3
555.0916,109.6
555.6184,488.1
555.6787,166.1
555.776,596.5
556.0732,212.4
556.1097,202.1
556.6311,231.7
556.7572,169.2
556.7749,942.5
556.8652,137.4
556.8982,314.7
557.2058,599.3
557.7451,93.5
557.801,348.2
558.208,307.2
558.2359,90.2
558.2962,59064.7
558.54,103.7
558.5972,336.2
558.8461,151.3
558.8934,443.1
559.1837,168.1
559.2994,12449.8
559.4063,322.5
559.6524,49.8
560.1091,17.9
560.2615,343.1
560.2952,477.6
560.3117,45624.6
560.4286,647.1
560.4506,491.4
560.7876,189.1
560.8309,295.4
560.9189,1913.2
561.0743,20.3
561.1548,23.4
561.2721,837.5
561.3153,9391.9
561.3328,384.2
561.4132,3347.9
561.4369,127.9
561.6226,726
561.899,19.1
562.1218,273.6
562.2521,161
562.3274,45098.7
562.4502,103.9
562.5268,108.4
562.5623,406
562.6881,21.1
562.8294,675.9
562.9557,43.5
563.2611,651.3
563.3308,9046.9
563.7663,534.3
563.9187,1265.2
563.9702,20.9
564.3074,1419.8
564.3251,1417.5
564.4326,1627.3
564.5043,585.7
564.5778,203.5
564.6505,151.8
564.8511,438.7
564.8919,25
565.1262,553.6
565.1705,134.1
565.5734,104.1
565.7349,102.6
566.2216,395
566.3222,39590
566.9638,839.9
567.3254,7590.2
567.391,500.5
567.4042,353
567.5942,136.9
567.7854,118.8
568.1024,172.8
568.3381,23062.4
568.4128,312.8
568.4332,312.6
568.4562,229.9
568.5373,94
568.575,448.2
569.3403,2359.6
569.4424,710.7
570.0568,308.2
570.3528,1397.4
570.5035,282.2
570.8088,19.1
570.8671,4778.6
571.0346,393.1
571.0591,938.3
571.4684,866.5
571.4953,315.5
572.1353,282.2
572.155,483
572.3703,1011.4
572.5831,19.5
572.5927,17
572.8184,98.3
572.8637,4895.5
572.9811,455.8
573.0594,360.1
573.09,184.4
573.5626,329.4
573.7665,343.2
573.7982,255.3
573.8576,172
573.8649,154.4
573.9956,19.9
574.177,18.7
574.2834,860.8
574.3213,238.4
574.6996,714.8
574.8298,165.6
574.8621,926.9
574.8759,1184.5
574.8867,19.5
574.9857,18.3
575.0632,108.8
575.2303,185.8
575.504,6910.7
576.2637,371.1
576.2811,7550.4
576.3286,240.5
576.4311,335.5
576.4536,370.1
576.506,532.8
576.884,9248.7
576.9369,224.9
576.9588,745.1
577.2017,274.1
577.2843,1004.7
577.5187,710.2
577.5956,153.5
578.0568,19.9
578.2133,333.2
578.2777,935.1
578.4643,204.4
578.6478,137.4
578.6715,166.7
578.8812,7841.5
579.0175,536.8
579.0868,159.1
579.6713,561.6
579.8537,99.3
579.884,995.1
579.939,106.1
580.2811,640.2
580.5718,814.8
580.6042,313.8
580.8361,167.3
580.8783,2441
580.8961,1540.5
580.9128,18.6
580.982,765.4
581.0886,334.1
581.1252,487.6
581.6795,214.1
581.908,496.6
582.0952,97
582.1336,736.3
582.2673,30.2
582.2961,8833.2
582.3211,213.2
582.3546,222.6
582.4299,21.7
582.4544,622.5
582.4741,566.1
582.4906,18.7
582.5164,783.3
582.5413,581.2
582.5715,110.2
582.6399,17.6
582.6637,284.5
582.6924,23.4
582.7111,424.9
582.8923,443.9
582.9383,414.8
583.2782,133.5
583.2963,826.1
583.4722,131.2
583.5442,20.9
583.5846,212.8
583.7374,265.3
583.8285,1193.5
583.8594,1015.7
584.3109,1459.7
584.7161,235.3
584.7745,173.4
584.8518,742.6
584.8807,611.5
585.1889,114.4
585.2962,184.6
586.3102,6702.7
586.388,576.2
586.5438,214.5
586.8412,3135.4
586.9142,987.2
587.0003,274
587.2519,354.7
587.9003,23
588.0471,121.5
588.1185,18
588.1709,96.3
588.2724,731.3
588.3075,127.3
588.3722,106.1
588.8011,462
588.8381,2064.2
588.9096,771.4
588.9738,104.3
589.0592,555.3
589.6133,161
589.7413,19.6
590.0496,367.3
590.081,781
590.3227,7092.3
590.3993,143.8
590.404,95.1
590.4882,482.1
590.5654,143.2
590.678,17.7
590.7506,163
590.8379,375.9
590.8843,203.2
590.9949,691.9
591.069,96.7
591.141,277.7
591.2212,409.1
591.3014,342.8
591.326,1154.6
591.5738,100.2
591.6822,452.7
591.8134,371.6
591.9655,352.4
592.0524,535.9
592.113,811.4
592.2258,808
592.3387,539
592.3895,193.8
592.4928,233.4
592.8585,7125.9
592.906,50
592.9459,437.6
592.9812,608.4
593.4037,207.3
593.5706,18.9
593.86,520.4
594.0948,411.2
594.1089,330.5
594.2548,843.9
594.5671,664
594.6519,120
594.8557,5783.2
595.1998,577.9
595.5274,269.7
595.6968,19.5
595.9756,21.3
596.1068,128.5
596.1859,309.1
596.2377,167.1
596.5085,308.1
596.6513,710.9
596.8522,1863.2
596.8691,420.8
597.4511,5576.1
597.4862,11294.8
597.5857,57.1
597.6209,212.5
597.6914,139.9
598.218,845.2
598.4009,398.9
598.4521,2711.2
598.4909,896.3
598.9125,526.9
599.0183,760.6
599.133,159.6
599.3564,102.1
599.4649,1111.4
599.5033,2380.7
599.7732,267.3
599.8151,387.2
600.2797,1035.5
600.4748,856.5
600.5061,21
600.6088,92.1
600.8374,237.9
601.058,18.3
601.2852,332.5
601.5207,464.9
601.546,1146.9
601.7787,425.5
601.8925,327.3
602.2952,748.4
602.4417,20.1
602.885,875.4
602.9476,19.5
603.0084,548.1
603.1633,141.8
603.5351,81.8
603.6085,483.1
603.9321,96.8
604.2555,157.6
604.3119,1223.8
604.4523,206.2
604.5383,62.6
604.5499,102.8
604.6617,124.1
604.849,195.4
604.8864,903.2
604.8928,905.2
605.0823,366.2
605.1544,413.9
605.4027,721
605.8795,530
606.2869,661.8
606.2907,691.2
606.2959,598.7
606.4376,331.4
606.5621,335.1
606.7403,219.4
606.9024,364.3
607.0376,363.3
607.0865,390.6
607.1439,575.6
607.1714,9404.6
607.3554,161.7
607.3936,616.6
607.4095,372.1
607.5924,471.9
608.1745,1037.6
608.2803,106.8
608.8308,1378.7
609.1071,154.1
609.2589,700.4
609.3158,275.5
609.5315,418.4
610.2404,873.4
610.311,450.5
610.6587,113.4
610.8305,876.9
610.9853,430
611.3163,600.8
611.3652,332.4
611.5013,21.6
611.831,205.2
611.9474,20.8
612.1479,331.2
612.2691,630
612.3229,1057.3
612.5647,243.1
612.6629,21.8
612.7752,307.5
612.8322,500.8
612.9467,19.6
613.002,200.9
613.4244,580.1
613.4567,95.7
614.072,17.9
614.3142,627.3
614.6047,528.6
614.6605,178.8
614.961,21.6
615.4361,138.5
616.2961,548.2
616.3761,635.2
616.9825,847.5
617.1377,17.9
617.4758,13809.8
618.3806,626.1
618.4072,146.7
618.4786,2874.9
619.0384,780
619.1514,174
619.4913,7053
619.5959,49
620.3084,519.1
620.4946,474.5
620.9391,803.6
621.1779,121.5
621.4332,169.1
621.4573,1510.2
621.4864,5327.4
621.6549,17.3
621.8492,20.7
621.8546,29.3
621.8597,22.8
621.9361,126.2
622.4888,552.8
622.6577,317.2
622.8304,184.1
622.8949,199
623.1364,31186.9
623.2198,432.8
623.458,586.2
623.4655,874.9
623.4699,705.3
623.5023,2460.8
623.7585,172.6
623.9447,296.5
624.1397,5903.2
624.2281,137.6
624.407,362.6
624.4505,333.4
624.4761,862.2
624.5032,169.3
624.5916,56.5
625.0509,23
625.1421,144.5
625.3535,809
625.4477,281.6
625.5627,69.8
625.6429,122.5
625.7396,203
625.9969,525.6
626.1317,310.8
626.2032,660.3
626.262,830
626.9182,375.7
627.422,187.4
627.5348,266.5
628.2205,557
628.539,36
628.7201,1221
628.8762,418.5
629.065,158.3
629.1243,181.8
629.1534,70221.1
629.2752,340.8
629.9094,138.7
630.1571,13771.5
630.2247,260.7
630.8193,402.8
630.8357,197.9
630.8765,252.5
631.0446,185.6
631.1319,472.1
631.1584,1659.3
631.3552,410.3
631.4384,379.5
631.4592,147.3
631.6817,18.6
631.822,277.5
631.9451,307.6
632.3205,21.5
632.3833,413.8
632.3987,560.9
632.5249,139.4
632.8482,166.2
633.1286,126
633.4151,125.5
634.4221,98.9
634.6662,491.7
634.751,341
634.8142,589.3
634.8423,3094.9
635.381,171.3
635.763,160.9
636.0238,107
636.0693,229.7
636.1905,621.7
636.2176,25.1
636.7036,464.9
636.8399,5296.8
636.9692,182.5
637.4534,903.4
638.1153,236.8
638.4547,1883.9
638.5175,336.7
638.6857,616.3
638.698,198
638.8372,1326.9
639.2096,744.3
639.2787,684.4
639.4328,417.1
639.5711,167.2
640.1579,311.3
640.3406,486.1
640.3922,194.1
640.4545,351.1
640.7761,180.8
641.2137,319.1
641.4837,404.1
641.6852,582.8
642.3784,791.6
642.4392,68.7
642.5184,19.4
642.9006,206.5
643.4274,511
643.7523,70.8
643.8144,451.5
643.9053,171.2
644.4394,339.1
644.6483,165.6
644.7905,103.3
645.1183,24509.4
645.3272,642.1
645.4761,945.9
645.5004,466.6
645.6809,191.4
645.9786,400.5
646.0228,333.4
646.1224,3873.4
646.1949,668.3
646.4313,878.6
646.4643,173.2
647.0935,1003.9
647.1225,381.5
647.1712,897.7
647.2987,1067.8
647.3428,17.6
647.4669,587.7
647.6556,147.2
648.0338,339.3
648.2064,16.6
648.2104,16.8
648.2863,569.8
648.3851,851.5
648.4234,24.6
648.4739,314.7
648.517,20.7
648.5975,514.1
648.7861,18.3
649.0045,120.1
649.2022,103.9
649.3815,20.1
649.5215,207.4
649.579,737
649.6447,828.4
649.9756,17.7
650.0568,101
650.1489,792.7
650.4389,2970.4
650.5874,146.5
650.8165,2014.6
650.9749,97.8
651.1352,64185.4
651.4343,263.9
651.4737,299.5
651.8679,605.1
652.1389,11856
652.4154,271.9
652.4863,18.6
652.5977,544
652.6656,838.4
652.7337,144
652.8138,3470.7
653.1121,1259.6
653.1405,1411.6
653.4033,330.7
653.9488,740.2
654.2168,532.8
654.5596,144.8
654.5979,990.3
654.6498,462.5
654.8108,431.9
655.0522,166
655.851,366
656.1777,84.9
656.2352,612.2
656.3256,727.2
656.4662,101
656.6052,394.6
656.784,635.2
657.1006,566.7
657.3461,592.1
657.5543,425.9
657.6505,25
658.2389,18
658.4074,530.2
658.4537,614.6
658.4807,176.4
658.9289,616.3
659.2354,49.1
659.494,335.8
660.6571,456.9
660.8484,759.8
661.0833,11013.3
661.2041,622.4
661.4691,2750.3
661.5395,207.2
661.7103,187.8
661.8433,163
661.872,391
661.9983,655.8
662.0868,1043.1
662.1649,232.6
662.4427,153
662.484,464.1
662.4899,519.2
662.4972,203.2
662.6209,166.9
663.4123,378.1
663.4542,778
664.1419,697.8
664.4678,3258.2
664.5246,46.7
664.7528,168.5
664.8301,572.5
665.4633,710.2
665.8391,245.4
666.0584,539.9
666.0901,182.7
666.1668,146.6
666.245,570.7
666.3096,119
666.4838,10286
666.5259,712.4
666.5663,21
666.6258,592.3
666.7927,755.4
666.9708,112.1
667.1,29495.7
667.2206,154.4
667.2958,711.6
667.4872,754.5
667.7041,468.9
667.9189,625.5
667.9697,24.2
668.1036,4157.2
668.3572,429.7
668.4161,226.1
668.4519,26.3
668.5117,59.1
668.6678,666.2
668.7817,727.7
669.0758,144.5
669.089,119.8
669.0964,218
669.1019,198.8
669.3792,481
669.4878,18.7
669.7258,182.2
669.7334,178.3
670.2575,198.6
670.3027,385.9
670.3303,137.8
671.1792,534.3
671.5903,539.4
671.7368,21.1
671.8418,404.7
672.422,1985.3
672.5783,133.9
672.9153,490.3
673.0496,999.1
673.1172,61229.8
673.423,949.6
673.5302,735.5
673.7076,429.5
673.9712,300.7
674.0538,139.5
674.1208,11129.4
674.2463,281.2
674.416,321.5
675.123,389.3
675.3165,133.6
675.376,804.3
675.5439,22404.1
675.714,113.2
676.101,760.1
676.228,649.4
676.5478,5235.8
676.6388,309.7
676.7656,162.3
676.9146,292.7
677.0809,684.9
677.4851,291
677.5508,572.1
677.6136,823.7
678.8947,343.5
679.1489,132
679.9831,92.5
680.0707,604.9
680.1431,476.8
680.3063,403.1
680.5007,238.3
680.7761,97.2
680.9033,216.1
681.2259,123.2
681.302,96.3
681.3562,110.5
681.5461,49.5
681.6781,338.4
682.064,498.2
682.2949,483.5
682.4411,109
682.5267,144.6
682.7898,563.7
683.0434,170.3
683.0646,8113.6
683.2542,456.4
683.3521,22.2
683.4498,980.1
683.5668,210.2
683.6761,97.5
683.7667,93.3
683.8139,18.1
684.079,135.4
684.2845,327.8
684.6947,234.1
684.7749,599
684.8014,375.6
684.9533,501.5
685.0353,327.2
685.0761,126.3
685.1164,388.1
685.2175,23.8
685.2926,18.3
685.398,21.4
685.4367,5243.8
685.4996,198.1
685.6601,280.9
685.9399,19.9
686.1224,230
686.3541,179.6
686.4386,150
686.6256,632.3
686.7712,357.8
686.8122,340
686.8429,472.9
686.8738,1021.4
686.9493,905.6
686.9758,550.9
687.2006,192.3
687.4748,214.5
687.9768,564
687.9951,330.2
688.054,286.4
688.2079,324.6
688.2467,236
688.2555,276.5
688.3483,18.8
688.4158,875.8
688.5527,117.8
688.6624,290.3
688.7327,256
689.0508,160
689.0817,21037
689.0911,18137.7
689.1975,262
689.2417,632.5
689.2629,214.5
689.3869,314
689.5043,233.8
689.5598,7561.9
690.0849,2744.2
690.4736,203.2
690.5052,21.6
690.5644,1446
690.72,157.3
690.8991,519.9
691.0849,112.8
692.0538,174.9
692.1518,20.2
692.2587,409.2
692.4013,90.2
692.5026,538.1
692.789,413.6
692.7958,504.1
692.8032,541.3
692.871,52.2
693.7151,19.8
693.9535,164.1
693.9812,601.3
694.1889,695.7
694.2587,44.6
694.4234,346.2
694.4778,40.3
694.7993,569.4
694.852,171.3
694.8988,432.3
695.0992,37241.1
695.2203,740.8
695.2288,804.4
695.2361,589.2
695.5102,3788.3
695.8254,381.1
696.1029,6160.7
696.3954,46.9
696.4104,109.2
696.6819,142.5
696.7966,372
696.9951,116.6
697.0191,446.9
697.2478,585.6
697.2937,215.4
697.3827,696.9
697.4748,102.3
697.5263,22717.6
697.6358,832.5
698.0098,207.2
698.1503,507
698.296,18.3
698.437,975.4
698.5295,8980.4
698.6489,228.2
699.1369,45.2
699.3324,209.2
699.4432,194.9
699.5003,155.7
699.6651,443.6
700.2938,535
700.3432,21.2
700.4232,287.4
700.6225,285
700.8783,563.5
701.2953,175.9
701.3036,235.3
701.3104,261.9
701.4095,521.3
701.56,52215.7
701.6206,499.4
701.9337,185.4
702.0667,171.3
702.3416,4628.1
702.4175,174.2
702.5633,16597.7
702.6198,315.4
702.657,87.3
702.9362,493.9
703.253,329.6
703.2704,117.7
703.3063,521.3
703.3192,352
703.3442,505.5
703.5078,115.3
703.5758,137869.6
703.7502,268.1
703.9974,1062.3
704.4476,3994
704.579,52317.3
704.6418,606.8
704.7361,233.8
704.7628,486.5
704.87,153.8
704.9608,293.7
705.0233,69.4
705.0554,4010.1
705.1089,258.2
705.5815,8245.2
705.9533,100.7
706.0446,270.6
706.0632,153.9
706.2632,60.3
706.2941,20.2
706.5382,5615.6
706.8733,20.4
706.8906,372.8
707.5291,471.3
708.5348,239.4
708.6167,655.4
708.7736,497.6
709.0276,223.6
709.3817,229.2
709.4416,19
709.7443,705.6
710.0374,547.6
710.2522,218.2
710.4093,277
710.5959,249.3
710.773,642.4
711.0225,101
711.0629,14450.9
711.0741,14428
711.1497,414.5
711.1653,849
711.3078,126.9
711.3253,199.2
711.4969,837.5
711.5421,5384.1
711.771,658.3
711.9069,411.1
712.0783,1495.8
712.3558,327.9
712.4447,623.1
712.4913,569.8
712.5554,188.7
712.6526,914.2
712.8481,20.7
713.0128,61.6
713.0689,396.5
713.2079,111.5
713.4989,2829.8
714.3494,265.7
714.5021,1061.7
714.5277,538.2
714.6194,58.6
715.0121,536.1
715.7998,149.1
715.8875,59.8
716.0766,521
716.2077,392.3
716.2918,19.2
716.3138,52.7
716.378,508.9
716.4622,264
716.7039,24
717.0811,18531
717.5905,389.7
717.796,530.4
717.9488,94.6
718.0133,2347.7
718.085,2307.5
718.5766,588.6
718.6555,835.4
718.7329,868.5
718.7706,135.3
719.1455,411.2
719.1675,553.6
719.3526,20.5
719.3782,573.2
719.4648,1244.1
719.8493,790.9
719.8904,294.4
720.0512,103
720.4404,697.8
720.463,805.2
720.5251,505.7
720.5647,24
720.5889,49.9
720.8583,610.3
721.0224,637.5
721.1537,176.1
721.2291,326.7
721.4786,64631.1
721.5756,189
721.9796,394.8
722.3303,170.9
722.4818,22473.6
722.6111,184.6
722.7342,215.3
722.9743,414.6
723.0002,19.7
723.0719,416
723.0936,20.5
723.1553,224
723.2521,532.7
723.4946,7804.8
723.5421,39613.6
723.5905,664.8
723.9187,174.6
724.1854,844.5
724.4499,710.8
724.545,13723.1
724.6738,687.4
724.688,725.2
725.2158,422.5
725.2429,360
725.5067,975.3
725.5578,103441.9
725.8192,548.3
725.9657,762.7
726.0008,513.8
726.099,182.5
726.1399,237.5
726.183,59.1
726.2334,150.8
726.2705,48.2
726.2833,719.1
726.4039,20.6
726.5022,1089.6
726.5612,40707.8
726.6196,638.5
726.7841,132
726.8623,19.2
727.0377,2063.6
727.2551,566.2
727.5642,4205.2
728.2947,354
728.5207,3927
728.5662,739.9
728.6533,141.1
728.7818,166.9
728.8151,17.4
729.5228,905.9
729.5914,18475.7
729.6794,1486.2
730.5383,9867.5
730.5952,3368.1
731.1861,689.3
731.2092,284.1
731.5152,776.1
731.5406,3239.5
731.6075,10438.5
732.4425,584.3
732.4889,322.2
732.5548,50419.8
732.6113,2477.9
732.9124,378.7
732.9655,214.3
733.0454,7244
733.0565,7697.6
733.1468,463.1
733.5255,104.5
733.5583,19209.1
733.6245,18.5
734.0447,162.1
734.4883,127.8
734.5436,167.3
734.5709,13793.6
734.6846,157.8
734.7733,84.6
734.849,53.1
735.0463,213.1
735.574,3613.5
735.6148,633.2
735.6365,18
736.3,22.9
736.486,896.1
736.5524,164.1
736.5818,162.4
736.7479,98.4
736.8475,142.5
737.0133,19.9
737.0438,406.9
737.3798,386.1
737.4525,10516
737.5475,178.8
737.7339,711.1
738.1342,273.1
738.1617,21.9
738.1878,216
738.4561,2030.4
738.5031,354.3
738.9577,815.5
738.9635,791.2
739.0631,9538.1
739.326,299.4
739.3996,144.5
739.4363,153.7
739.47,957.4
739.495,1135.5
739.5151,4512.6
739.749,118.3
739.9238,766.2
740.1612,574
740.2183,23.5
740.28,1856.6
740.4703,572.4
740.5202,1389.7
740.5544,107.6
741.5318,12010
741.7388,127.8
742.2573,22.9
742.5351,5988.6
742.5754,21574.8
742.6254,288.2
742.8079,137.8
742.8775,805
743.1744,21.9
743.2315,363.4
743.2745,889.8
743.4644,1316
743.5169,136.5
743.5788,7531
743.7692,329.1
743.8566,20.8
743.9175,349.6
743.9417,114.6
744.1177,138.5
744.2252,633
744.2782,590.5
744.4632,520.9
744.5548,9268.2
744.5914,16100.1
744.8728,278.5
745.2841,532.6
745.3838,168.8
745.4788,25681.8
745.5592,2730.3
745.5951,5992.9
745.737,20
745.8433,515.2
746.1215,178.7
746.1664,351.7
746.2826,933.7
746.3574,1346.4
746.482,9976.2
746.571,7554.5
746.6066,3303.1
746.6685,896.1
747.0449,901.4
747.4954,8523.1
747.5741,1289.8
747.7907,365.2
747.8829,337.8
748.0613,374.9
748.1274,19.2
748.3965,22.6
748.4956,3094.9
748.6053,231.9
748.8657,590.7
748.9007,553.5
749.0138,2533.7
749.2562,1319.5
749.31,1331.1
749.342,154.9
749.5105,4604.5
749.8302,304
750.0115,540.8
750.2518,1984.2
750.277,161.2
750.3715,351.3
750.4077,268
750.5486,301
750.8266,368.2
751.0248,162.3
751.3868,603
751.4536,821.4
751.5142,310.9
751.5734,7096.4
751.8962,199.4
752.0592,21.6
752.1138,129.7
752.2433,599.2
752.4593,541
752.4747,107.5
752.5211,13895.7
752.642,552
753.0496,532.6
753.5253,4579.3
753.5903,5256.7
753.8405,20
754.1758,800.8
754.2077,832.4
754.5371,31669.2
754.5848,856.1
754.8467,1419.4
755.0269,3082.6
755.0393,2769.6
755.0745,615.3
755.209,299.4
755.3312,99
755.5408,14310.6
755.8818,376.6
756.0487,182.1
756.1984,348.5
756.2415,86.7
756.2914,667.8
756.3009,566.3
756.5546,58973
757.068,142.5
757.239,249.1
757.5573,25062.1
757.6224,1427.3
757.7161,1162.2
758.0926,19.6
758.1494,327.9
758.1734,982.6
758.4201,712.3
758.5704,1481531.8
758.6627,59.6
758.7798,131.7
758.8058,142.7
758.8568,320.2
758.9182,602
759.1248,164.7
759.2134,809.8
759.5738,652824.4
759.6384,1505.8
759.8007,375
759.8465,1130.4
759.8962,563.2
759.9249,378.9
760.5717,74333.6
760.5872,398382.6
760.8707,54.9
761.0064,623
761.0447,2509.3
761.4519,3362.6
761.5898,193830.1
761.7724,245.7
761.9869,904.3
762.4246,506
762.5927,47190.4
762.7439,21.5
762.8288,383.8
762.9531,535
762.9774,550.9
763.0448,69.9
763.464,1441.5
763.5385,1111.5
763.5952,4822.6
763.6998,800.5
764.1725,130.6
764.4562,135.8
764.5199,364.2
764.5578,5843.9
764.612,613.6
764.7362,23.2
764.8738,278.1
765.0426,438.5
765.451,201.8
765.5615,751.9
765.8349,121.8
766.1187,482.9
766.2669,336.9
766.3493,385
766.5368,6969.8
766.5752,47365.2
766.837,60.7
767.0522,344.5
767.5119,597.5
767.5784,19787.2
767.7867,20.2
767.8689,23.8
767.8964,331.5
767.9549,330.1
768.1112,147
768.2986,761.1
768.4779,19.8
768.5542,6459.9
768.5916,48448.2
768.6847,20.8
768.7795,21
768.9528,393.4
768.9927,563
769.4014,1051.9
769.4786,5807
769.5615,516.6
769.5948,19971.2
769.8076,620.7
769.9231,239.5
770.0891,808.7
770.2281,269.1
770.3275,352.7
770.4787,216.2
770.511,3547.6
770.5694,640.9
770.6084,9364.6
770.634,239
770.818,712.6
770.9934,4184.6
771.1143,356
771.4931,1091.3
771.5115,564.3
771.5782,493.8
771.6099,2626.8
771.6328,600.1
771.6724,906.4
772.1392,368
772.2248,580.4
772.4019,617.7
772.5461,73.3
772.5862,22025
772.6157,587.8
772.7343,583.4
772.8102,287.4
772.9416,202.6
773.3883,522.6
773.5099,797.5
773.5899,8344.1
773.6534,494.3
774.2414,144.2
774.3316,710.4
774.4521,974.2
774.5249,124.4
774.6028,1419.1
775.1855,335
775.366,63.8
775.4614,295.6
775.6052,789.7
775.9474,127.5
776.1222,699.6
776.1968,429.1
776.2191,376.1
776.3865,295.8
776.5812,147.6
776.6683,360.3
777.0086,5087.7
777.1361,156.7
777.5465,795.2
778.0477,655.5
778.1002,620.9
778.4707,552.4
778.5367,33848.6
778.5789,620.9
778.6867,569.7
778.7886,527.8
778.9385,131.9
779.0195,231.3
779.5401,14878.4
779.6733,94.4
779.9,43.1
779.9622,1350.8
780.0528,159.6
780.2031,702.4
780.2487,286.8
780.369,713.7
780.4497,20.5
780.5525,806828.4
781.1951,567
781.3152,396.6
781.556,353109.2
781.6585,189.5
781.7557,718.1
781.8346,501.5
782.1209,129.9
782.4246,318
782.5703,738685.2
782.7441,471.4
783.0268,3820
783.5085,155.7
783.5735,352191.2
783.6392,1677.6
783.9575,242.2
784.173,137.6
784.5868,417327.1
784.7377,348.9
784.8015,439.8
784.843,113.4
785.0062,471.1
785.4506,238.2
785.5898,198138.8
785.655,3733.9
785.8848,265.8
786.1301,380.9
786.1566,460.7
786.267,262.9
786.3437,20.9
786.4529,674.5
786.6024,376325.6
786.6591,861.5
786.912,157.3
786.9643,492.8
787.1867,464.7
787.4171,582.8
787.4529,150
787.5511,311.5
787.6054,187926.8
787.6701,1139.3
787.7802,96.6
787.9133,118.5
788.1288,766.1
788.3646,641.6
788.4847,725.4
788.5183,1691.6
788.5582,14559.3
788.6055,30650.1
788.6214,18329.7
788.674,372.2
789.3541,20.3
789.56,3344.2
789.6225,9004.9
789.8602,394.8
790.2636,173.5
790.2906,601.8
790.5353,606.9
790.5739,22575.1
790.621,773.8
790.6585,109.3
790.9754,208.8
791.3217,634.6
791.5772,8934.5
792.0049,156.6
792.0635,583.3
792.2362,563.8
792.3921,370.9
792.5137,702.2
792.5572,1239.5
792.591,21456.1
792.7347,796.2
793.2232,570.5
793.3193,736.4
793.5446,129.1
793.5944,7323.3
793.7092,418.1
793.806,224.8
794.1349,169.2
794.511,2616.7
794.5681,8052.3
794.6072,42087.4
794.7464,169.4
795.5767,853.4
795.6104,21626.5
795.7523,594.8
795.9305,251.5
796.5264,142265.8
796.5598,1105.9
796.5866,3455.4
796.6241,6071.5
796.6739,1064.8
797.0126,96.8
797.4336,19.4
797.5298,60429.3
797.5876,1094
797.627,1522.8
797.691,502.5
797.8827,105.5
798.4144,306.4
798.5234,752.9
798.5437,26207.7
798.5866,114.1
798.6025,810.7
798.6376,61.8
798.8039,509.6
798.8324,149.3
798.8656,287.3
799.0028,496
799.1364,360.3
799.1745,667.9
799.5074,181.3
799.5462,11635.7
799.6247,311.6
799.6669,567.9
799.906,251.2
799.9369,1211.2
800.3692,376.1
800.5286,1985
800.5459,1281.2
801.4023,647.8
801.5482,1691.5
801.6842,96.1
801.7354,106.4
801.7548,272
801.8789,608.3
802.0754,165.6
802.1578,137
802.3216,621.9
802.4084,1115.2
802.5365,40093.6
802.7248,78.4
803.0365,385.5
803.2405,180.9
803.5397,15434.3
803.8036,20
803.956,181.5
804.0611,935.7
804.1157,19.3
804.2157,18.6
804.5524,317931.9
804.6233,831.5
804.6516,118.8
804.8965,440.9
805.1611,665.3
805.2528,654.5
805.5559,146860.1
805.6219,330.3
805.7004,196
805.7551,58.5
805.831,1160.8
805.9419,126.2
806.0442,60.6
806.5698,387549.6
806.6124,398.6
807.1332,2268.9
807.5729,202511.6
807.6415,159
807.7287,643.2
808.0654,353.1
808.2407,272.1
808.3075,309.8
808.5859,230945.7
808.6389,100.3
808.8649,166.2
808.986,992.2
809.0216,696.1
809.1821,555.7
809.204,720
809.2608,219.5
809.3498,139.2
809.418,791.8
809.5887,119980.9
809.6515,616.1
809.6813,1039.4
809.9112,782.9
810.2748,633.5
810.4432,365.7
810.4818,808.4
810.5153,1566.7
810.5448,251.3
810.6025,141895.2
810.7057,640.8
810.7169,690.4
811.2642,329.9
811.3071,1554
811.3603,853.8
811.4244,60.3
811.4538,19.7
811.6055,69367.7
811.6697,9046.2
811.7427,104.6
812.0012,60.8
812.091,1217.6
812.2167,1321.1
812.3393,514
812.4514,126.8
812.5567,867.5
812.6195,31555.1
812.6736,2433.3
812.6946,231.2
812.9123,1388.7
813.035,450
813.0767,369.9
813.2689,534.5
813.4726,116.8
813.4958,1128.6
813.6213,17478
813.6862,6872.8
813.7585,1224.3
813.8881,18.4
814.0054,536.5
814.0723,747.9
814.2615,626.4
814.379,528.4
814.4006,575.6
814.4213,481.8
814.5749,3051.6
814.6239,850.4
814.6893,961
814.8597,407.6
814.9498,133.2
815.5163,939.7
815.5729,1259.4
815.6645,330.1
815.7423,401.6
815.9132,19.3
816.385,19.5
816.4178,708.8
816.5439,55.3
816.5895,15128.5
816.6775,622.4
816.7926,804
816.9926,816.7
817.0629,317.2
817.093,1395.6
817.2167,650.6
817.2749,18.7
817.3921,611.8
817.5929,1659.3
817.6562,1287.5
817.7912,699.5
817.8221,175.1
818.2582,679.3
818.3742,512.2
818.5108,2857.3
818.5477,797.4
818.566,575.5
818.6058,5745.7
818.6293,315.9
818.8329,67.7
818.8524,73.6
818.958,586.3
819.1035,148.6
819.3023,79.3
819.5121,395.9
819.6107,127.6
820.2638,118.7
820.5263,56698.3
820.5832,1149.1
820.6229,873.3
820.778,1562.2
820.8344,727.9
821.0211,583
821.1087,540.2
821.1799,573.3
821.5297,27460.2
821.6238,262.4
821.6513,113.8
821.6771,21.4
821.9049,19
821.9843,681
822.0338,1151.1
822.5427,34298
822.6336,1110.9
822.6581,591
822.7831,904.8
822.9888,1180.5
823.1426,844.6
823.5459,14284.8
823.6436,53.6
823.7848,98.3
823.9265,658.8
824.0354,445.4
824.1928,18.8
824.5261,687.7
824.558,23899.3
824.7813,22.1
824.8618,724.6
824.8998,526.6
824.9394,467
825.0306,176.7
825.0667,1390.9
825.253,18.9
825.3318,1083
825.5616,9505.2
825.6736,381
825.9368,481.7
826.4972,444.6
826.5335,2195.5
826.7252,217.8
826.7807,103.8
826.9342,640.8
826.9898,177.3
827.1531,431.3
827.5663,482.8
828.2992,647.4
828.3608,60.5
828.5524,112580.8
828.9451,759.4
829.0722,101.3
829.3212,539.4
829.5043,1315.2
829.5558,56640.5
829.7775,762.7
829.8195,770.9
829.8808,1071.1
829.9498,959.1
830.0173,633
830.5694,48511.5
830.826,524
830.9383,344.4
831.2876,175.4
831.3816,243.4
831.5719,23566.2
831.6961,745.4
831.7546,200.2
831.8311,481.7
831.8522,616.1
831.9048,704.3
832.2608,1144.6
832.3339,100.6
832.3643,175.7
832.5848,59145.2
832.6546,91.3
832.8391,246.9
832.9553,42.4
833.2929,56
833.5884,27642.1
833.6496,1292.3
833.673,218.9
834.0721,787.6
834.4613,671.5
834.6023,36318.2
834.6549,138.5
835.0194,121.2
835.2468,522.8
835.2934,310.1
835.462,548.3
835.6049,17707.3
835.7342,868.7
835.7503,578.7
835.8448,52.8
835.9467,331.2
835.9877,76.4
836.5551,179.2
836.603,768.4
836.6195,1164.8
836.7033,125.9
836.7462,287.1
837.0185,100.1
837.1426,124
837.4769,232.2
837.5787,540.7
837.6225,600.1
837.7561,327.3
838.3378,626.1
838.3684,130.3
838.5109,2267.5
838.5486,20.1
838.5892,2114.9
838.8029,1071.7
839.0517,420.8
839.3298,22.2
839.5125,112.1
839.8261,107.6
839.9808,19.5
840.1919,237.9
840.5055,548.8
840.7296,473
840.7774,2105.5
841.5112,864.2
841.7314,1118.1
841.8705,1173.5
841.9446,763.4
842.0179,333
842.1311,168.1
842.2564,1000
842.4057,860.2
842.6531,490.9
842.7414,22.3
842.9531,673.6
843.251,60.3
843.4345,578.6
843.8808,133.8
844.0189,694.8
844.1187,1883.1
844.5264,18502.3
844.579,585.6
844.844,1243.4
845.0874,1376.7
845.322,1308.9
845.3913,589.9
845.4298,42.4
845.5301,7160.9
845.6178,99.1
845.6802,362.5
845.8347,507
845.8669,454.2
845.8813,480
846.0697,1634.6
846.2268,18.6
846.2776,51.6
846.4054,220.3
846.5422,3491.8
846.6604,734.7
846.7128,1015.2
846.7436,59.8
846.7811,71.7
846.7987,57.1
846.8229,51
846.8492,651.7
846.9517,784.2
847.1604,228.6
847.1838,554.5
847.3514,520.8
847.5444,1863.1
847.8861,511.3
848.3879,105.5
848.4953,1779.5
848.5136,1126.8
848.5536,3533.3
848.5875,151.9
848.7047,227.1
848.7339,62.8
848.7919,81.1
848.8088,66.6
848.9206,841.9
849.1437,574.6
849.1744,672.6
849.5665,2791.8
849.6286,607.3
849.9963,336.4
850.1861,299.3
850.7399,21.7
850.9469,430.5
851.0752,479.6
851.1757,519.2
851.3941,629.2
851.4983,797.3
851.5586,324.9
851.6779,1100.8
851.899,903.3
851.9913,619.2
852.0646,1286
852.1384,221.1
852.228,22.3
852.562,991.2
852.752,1313.1
852.8742,548
852.8855,671.9
852.9443,969.8
853.0655,998.9
853.1248,104.5
853.2237,538.9
853.6529,54.4
853.8153,310.2
854.0521,960.1
854.5071,381.5
854.565,1036.6
854.6227,127.8
854.6442,240.2
854.7678,778.4
854.8208,137.4
854.9989,123.7
855.3487,147.7
855.7081,334.8
855.9798,773.2
856.1097,810.4
856.174,330.5
856.5846,6567.6
856.6456,437.8
856.801,19.3
856.8861,547.9
856.9327,1422
857.1122,789.9
857.1615,256.3
857.5861,1073.5
857.6692,370.4
857.7052,244.8
858.0377,135.4
858.2874,997.1
858.5064,21
858.5403,935.4
858.6127,645.7
858.7042,20.1
858.9048,134.5
859.2389,1035.7
859.6189,1823.4
859.7442,713.2
859.9696,129.4
860.0534,203.9
860.9455,49.1
860.9874,355.7
861.4956,2202.6
861.7842,496.6
861.9185,507.7
862.1119,1165.9
862.2584,498.4
862.4337,61.4
862.4485,52.6
862.5295,239
862.9477,604.7
863.0409,553.5
863.0634,430.6
863.1197,409.6
863.155,1177.5
863.2546,1287.3
863.463,353.5
863.8294,428.9
864.611,475.3
864.6312,700.8
864.7309,17.3
864.9294,22.3
864.9959,680.4
865.2617,375.7
865.5365,924.7
865.7214,457.5
865.855,1238.8
866.0386,2065.5
866.0894,282.5
866.139,168.1
866.3726,21.7
866.5059,193.7
866.711,411.2
867.2097,1834.6
867.8304,1067.4
867.9377,1013.1
867.989,134.3
868.1184,458.1
868.3913,874
868.5595,746.4
868.6087,533.4
868.6994,689.3
868.8322,319.1
868.9305,20.4
869.1799,609.3
869.2481,607.4
869.2753,659.2
869.4339,766.5
869.5242,152.8
869.5634,20.6
869.6383,240.9
869.7412,873.5
869.7705,21.1
869.8292,1176.1
869.8777,293
869.9111,1675.8
869.966,1533.8
870.0148,1779.2
870.0488,598
870.0944,788.7
870.1344,2035.7
870.1524,1847.7
870.164,1695.9
870.1908,2558.5
870.2341,5341.2
870.2611,3727.7
870.3044,1958.4
870.3526,2295.5
870.3695,1894.9
870.4096,888.4
870.4392,606.7
870.4614,1074.1
870.4851,675.5
870.6482,506.6
871.1035,556.5
871.4405,712.6
871.6564,724.8
872.3068,1014.5
872.3739,451.9
872.4209,789.3
872.5138,20.2
872.5406,1713.7
872.7551,374.6
873.0691,594.9
873.532,20.9
873.7518,418.3
874.1579,1311.6
874.3112,688.7
874.7752,342.7
875.0317,861
875.1495,741.9
875.2092,48.2
875.2694,17.5
875.3953,677.1
875.5694,515.8
875.6665,1027.6
876.1947,328
876.4485,909.9
876.734,328.6
876.9551,1075.8
876.9991,899
877.0304,78.7
877.2352,393.3
877.3853,554.9
877.4113,150.2
877.6953,46.8
877.9407,2233.7
878.2342,1490.3
878.3417,567.8
878.6106,393.1
878.6446,612.5
878.8747,664.8
878.9124,528.6
878.964,361.7
879.213,59.8
879.3341,1346.8
879.5494,49
879.5843,280.7
880.4272,610.3
880.7092,191.8
880.9426,1256.2
881.2686,1077.2
881.5244,428.7
881.8402,471.4
881.9583,110.2
882.1666,3884.8
882.401,232.7
882.5523,579.2
882.5806,230.1
882.7936,688.2
882.8302,899.8
882.8937,566.3
882.9639,540.3
883.1694,107.3
883.2825,593.9
883.3351,346.8
883.711,149.5
884.3213,745.5
884.4975,699.9
884.646,791.9
885.5442,203.7
885.9054,1267.6
885.9564,986.2
885.9747,1610.9
886.0167,883.3
886.6425,22.5
887.077,640.3
887.2487,1160.7
887.4191,531.4
887.7637,746.5
888.0731,283.6
888.1616,1550.9
888.3289,790.7
888.4512,621.6
888.6888,431.8
888.8107,511.2
888.8661,21.1
888.9865,606.5
888.9936,615.6
889.1026,297.5
889.3347,139
889.9855,157.4
890.0508,776.2
890.0996,197.7
890.6767,194
890.722,294.1
890.8261,19.1
890.9095,635.9
890.998,17.7
891.022,304.8
891.2378,106
891.9584,366.9
892.2412,1498
892.3915,164.8
892.6273,52.4
892.838,878.3
893.0044,494.7
893.1014,269.3
893.4733,815.3
894.1726,20.4
894.2783,1214.2
894.3383,1055.8
894.383,903
894.5442,170.6
894.6742,1465.7
894.8016,597
895.2465,230.8
895.2754,102.8
895.2922,196.9
895.3267,63.2
895.3878,52
895.4448,371.5
895.6708,756.6
895.9949,160.3
896.0301,317.7
896.1982,311.1
896.4616,662.2
896.8394,699.5
896.9453,1452.6
897.1103,767.1
897.4254,1199.8
897.8838,350.4
898.0453,301.4
898.4779,145.1
899.0999,172.7
899.8255,1005.9
899.9703,20.5
900.0629,148.1
900.2882,63
900.3344,690.8
900.7159,574.8
901.0807,22.3
901.1685,335.2
901.4716,53.5
902.0008,623.1
902.1997,507.6
902.8262,1261.1
902.9432,147.4
903.3093,784.9
903.3592,123.5
903.5068,1341
903.5797,1202.8
903.7442,105.8
904.4118,112.3
904.5952,593.8
904.6272,719.9
904.7334,1725.6
904.8579,429.9
904.9472,749.6
905.0951,183.3
905.2025,65.1
905.5688,360
906.174,415.3
906.2569,853.4
906.6503,1283.9
906.7721,196.9
906.8252,454.1
906.8634,1777.1
906.9483,598.1
907.2728,185.7
907.3339,178.6
907.3906,130.1
907.5554,844.8
907.7266,167.7
908.0809,896.6
908.2614,1055.7
908.6348,1375
908.8021,575
909.0158,799.7
909.377,409
909.412,331.8
909.7001,638.7
909.7582,1056.9
910.299,378
910.4695,493.3
910.7756,978.9
911.0596,20.9
911.1969,17.9
911.2488,459.6
911.2994,538.7
911.4363,853.5
911.5795,776.1
911.7045,20.5
911.8687,1482.7
912.133,1533.9
912.2629,135.2
912.5447,769.9
912.8446,107.2
913.1724,852.4
913.2232,179.8
913.3827,358.3
913.7256,625.5
913.7476,591.2
913.8618,580.6
913.909,388.6
913.9409,390.9
914.2595,1568
914.4019,95.8
914.5928,787
914.6835,868.4
914.7822,541.3
915.0243,657.8
915.1472,1679.9
915.3479,1104.6
915.5222,18.4
915.5692,156.7
915.7092,1013.8
916.014,126.4
916.0667,85
916.4961,103.4
916.6704,921.8
916.8599,2479.4
917.1865,1446.7
917.2307,465.3
917.3079,132.3
917.3601,476.2
917.5639,368.2
917.8324,615
918.1346,20
918.2765,527
918.8489,59
918.9068,173.1
919.012,18.2
919.2526,164.1
919.4263,24.6
919.681,695.4
920.2234,19.9
920.5284,1488.2
920.7327,164.5
920.8803,633.7
920.982,231.4
921.2898,540.5
921.5358,1268
921.5941,355.8
921.7862,22.8
921.9331,98.3
922.2847,806.3
922.325,592.8
922.3613,142.3
922.6015,351.2
922.6711,766.8
923.0378,428.1
923.3343,598.7
923.3655,147.3
923.5897,95.1
923.8252,417.7
924.018,605.7
924.7089,1009
924.9416,166
925.0705,707.4
925.6327,1545.3
925.6774,226.5
925.9625,329.3
926.2027,229
926.8151,321.1
926.8495,27
926.9751,118.9
927.1718,544.6
927.7213,352.9
927.9072,219.4
928.2126,324.1
928.2698,685.3
928.2882,797.7
928.3031,582.2
928.3456,163
928.5232,21.9
928.5489,160.7
928.6676,514.4
928.7888,484.4
928.9752,108
929.0034,242.3
929.0538,204.1
929.1327,506.4
929.2251,1496
929.3005,278.3
929.5651,1789.3
929.6278,1042
929.7373,570.3
930.2888,1048.3
930.5822,220.7
930.6707,2081
930.8017,173.9
930.8977,128.7
930.9319,166.1
931.071,414
931.437,222.7
931.5058,544.4
931.703,168.6
931.8192,704.1
932.1977,359.3
932.7708,722.3
933.1351,398.5
933.2021,2179.8
933.5312,1298.9
933.5692,592.1
934.1319,1941.2
934.2477,670
934.3218,546.1
934.3423,480
934.3984,249.8
934.7091,165.5
934.7425,412.3
934.9874,390.7
935.056,1000.2
935.6463,573
935.7212,882.2
935.9229,1362.9
935.9508,2386.3
935.9875,634.8
936.1381,19.4
936.4288,899.8
936.6755,376.6
936.9273,1770.5
937.1148,84.1
937.3611,1329.9
937.4974,679.5
937.6301,1313.1
938.1712,372.4
938.3654,148.1
938.5462,611.7
938.6607,897.5
939.1544,294.7
939.5654,561.1
940.1077,653.4
940.2646,589.1
940.4094,1299.5
940.8238,104.2
941.2133,969.3
941.6539,365.3
941.891,214.1
942.2838,195.5
942.5265,46.9
942.5538,242.8
942.6181,587.1
942.7217,3201.7
942.9638,356.8
943.0356,737.8
943.2265,1086.7
943.4836,428.1
943.8588,426.2
943.9676,1646.8
944.2166,19.4
944.2658,751.8
944.3133,259.5
944.3874,362
944.7908,419.2
944.9899,632.5
945.3307,315.5
945.4412,354.9
945.5202,56.9
945.6791,127.9
945.7279,22.7
946.1602,1423
946.1963,772.7
946.3598,520.6
946.9107,102.3
947.294,1410.7
947.7909,171.6
947.8752,1134.2
948.0485,460.4
948.0813,581.8
948.1673,111.8
948.2065,1054.4
948.5491,722.7
948.6547,105.6
948.7423,849.8
948.9564,720.3
948.9911,1731.7
949.2976,917
949.4835,54.4
950.1406,1840.1
950.2158,313.2
951.3021,19.2
951.3774,99.3
951.6061,1538.6
951.6312,174.9
952.0567,136.2
952.2529,156.1
952.4215,371.3
952.6055,686.6
952.91,300.1
952.986,921.6
953.0556,741
953.5225,960
953.6544,416.1
953.6904,295
953.914,885.2
954.0992,1366.2
954.4175,760.6
954.4681,101.8
954.494,60.6
954.6787,684.2
955.3107,473.8
955.6325,294.7
955.7001,2071.4
955.9393,48.2
956.5189,467.7
956.6947,628
956.9928,1346.5
957.1671,189
957.2645,20.7
957.3099,344.7
957.5463,1072.1
957.9357,19.5
958.1477,326.1
958.4636,693.5
958.6508,471.5
958.7597,48.1
959.1345,562.4
959.2018,98.8
959.339,747.1
959.4048,212.4
959.6014,555.9
959.7066,624.7
959.7968,621.5
960.1661,508.7
960.671,1702.7
960.7646,550.7
960.9835,91.8
961.0144,1135.6
961.3034,1292.8
961.6429,1222.2
961.985,914.2
962.1308,2059
962.4594,850.5
962.4954,1328.3
962.7522,526.6
962.8384,414.9
962.8875,1791.5
962.9142,703.4
962.9679,618.2
963.6009,2396.3
963.7483,735.7
963.8963,625.3
963.9525,565.3
964.2192,342.8
964.6097,690.9
964.7125,363.7
964.7361,359
964.9651,616.1
965.0948,122.3
965.168,987.2
965.21,1081.3
965.5455,812.3
965.6071,24.1
966.1002,221.1
966.2761,632.8
966.4698,746.5
966.6388,733.2
966.8303,533.6
967.2118,286.7
967.4618,1150.3
967.4982,918
967.8566,795.6
967.9964,99.6
968.0938,438.1
968.2123,572.6
968.3141,589.9
968.3473,362.7
968.6106,651.3
968.883,21.3
969.0916,969
969.1198,1347.2
969.2015,157.9
969.3379,1727
969.5103,683.2
969.7929,708.8
970.1019,562.3
970.3643,142.8
970.7404,319.1
970.8049,825.1
970.8809,101.4
971.0498,359.9
971.3005,3258.5
971.5245,626.1
971.6563,584.4
971.6831,809.3
971.7188,675.9
971.8801,328.4
971.9747,1990.2
972.3236,304
972.4081,24.7
972.6457,67.2
973.054,530.4
973.1273,2186.7
973.208,62.7
973.4876,243.4
973.5839,552.4
974.0232,794.5
974.5723,47.1
974.9137,572.4
975.0076,96.5
975.2667,1187.4
975.3502,772
975.3943,233
975.6936,20.1
975.7693,1678.9
975.8588,653.9
976.2371,999.5
976.7557,691.5
976.8056,866
977.2874,499
977.3696,3049.8
977.5266,110.7
977.7126,167.2
978.324,136.8
978.4325,115
979.1293,99.9
979.1591,474.8
979.2473,254
979.3304,559.5
979.369,1149.4
979.5838,841.9
979.6218,1044.6
979.6947,315.6
979.7984,435.6
980.0363,44.7
980.0919,634.6
980.4904,313.5
980.6744,623.9
980.7774,473.3
980.9461,837.4
981.4903,441.4
981.6684,906.6
981.9214,237.9
981.9844,132.6
982.1024,1400.4
982.4526,138.7
982.6421,420.1
982.9206,21.1
983.2112,464.3
983.3075,1323.4
983.4628,147.5
983.5634,291.7
983.6058,478.7
983.9377,630.3
983.9673,347.4
984.0859,1929.6
984.1571,599.9
984.3977,207
984.6887,690.4
985.0106,494.9
985.3849,1076
985.5264,450.5
985.6698,218.8
985.715,811.7
986.4562,557.3
986.572,863.5
986.8754,288
986.902,1045.1
987.1146,134.4
987.1926,404.5
987.448,739.7
987.7718,822.9
987.8245,854.3
988.0389,21.6
988.0709,920.2
988.3747,429
988.4027,1368.9
988.4831,2477.2
988.5217,660.7
988.5649,569.5
989.2301,547.7
989.424,21.7
989.5115,1207.1
989.7883,329
990.8846,730.1
991.075,422.5
991.2622,3280
992.1613,1190.9
992.4169,1337.4
992.8005,737.9
993.0074,1925.1
993.1693,972.8
993.3037,215.5
993.3621,2002.2
993.3994,542.5
993.5875,137.7
993.703,1155
993.7437,782.5
993.8103,995.3
993.9945,541.2
994.076,285.1
994.115,19.1
994.214,171.6
994.2971,19.1
994.7491,1223.1
995.076,550.4
995.1771,2068.2
995.4384,585.5
995.6252,558.5
995.6735,1277.4
996.0183,836.4
996.1312,1480.2
996.2405,146.3
996.4408,650.1
996.4907,353.9
996.6819,19.1
996.7486,176.3
996.8112,400.2
996.9376,722
997.2493,1947
997.5187,210.8
997.6983,187.8
997.8486,57.6
997.9526,402.1
998.315,689
998.7591,899.8
998.9729,2700.9
999.1257,90.7
999.1665,531
999.6212,854.7
999.6715,303.2
999.7254,1372.7
999.8263,136.7
999.8738,426.4
999.9002,449.9
999.9771,1509.4
