SPECTRUM - MS,
737.RAW,
FTMS + p ESI Full ms [50.00-1000.00],
Scan #: 1-40,
RT: 0.01-1.97,
AV: 40,
m/z,Intensity

50.0027,75.8
50.0069,328.6
50.0074,38.6
50.0122,258.9
50.0194,602.1
50.0265,19.2
50.0408,104.9
50.0477,107
50.0485,109.1
50.0513,144.8
50.0645,318.9
50.0923,343.5
50.0977,273.2
50.1083,46.8
50.1132,229.1
50.1204,322.1
50.1242,197.9
50.1416,97.1
50.1484,117.8
50.1609,243.6
50.1747,92.5
50.2002,547.1
50.2199,108.9
50.2207,230.6
50.226,417.4
50.229,182.9
50.2457,87.8
50.2676,170
50.2738,121.3
50.2791,82.4
50.2962,83.4
50.2989,164.1
50.3345,18
50.3354,84
50.3399,385.3
50.3412,187.2
50.3548,107.4
50.3705,352.7
50.3723,87.4
50.3729,18
50.3903,114.6
50.3942,121.1
50.4033,124
50.4037,171.6
50.4064,299.5
50.4088,98.7
50.4452,409
50.4574,84.1
50.4656,100.3
50.4737,200.1
50.4813,118.7
50.4832,144.7
50.5021,301.5
50.5109,20.6
50.5297,120.5
50.5331,21.9
50.5441,154
50.5452,17.4
50.5523,17
50.5891,87.9
50.6094,100.6
50.6113,97.5
50.6203,414.8
50.6338,147.1
50.6552,45.3
50.6612,78.6
50.6797,89.4
50.6986,87.5
50.7107,100.3
50.7114,44.3
50.7357,472.2
50.7369,568.4
50.7395,296.2
50.7412,407.5
50.7534,16.8
50.7926,530.6
50.8018,18.2
50.8105,215.1
50.8137,418.5
50.816,415
50.8166,82.7
50.82,151.2
50.8259,162.9
50.832,17.6
50.8527,17.3
50.8911,511.9
50.8929,92
50.9217,112
50.9276,114.2
50.9281,86.2
50.9366,289.9
50.9648,435.9
50.981,268.9
50.9966,695.7
51.0135,542.4
51.0279,86.7
51.0559,15.8
51.0604,91.4
51.0692,161.6
51.1071,127.2
51.1084,419.2
51.1245,438.7
51.126,254.1
51.131,86.2
51.1337,99.9
51.1546,18.7
51.1606,108.1
51.1628,196.9
51.1845,90.3
51.1955,83.9
51.2043,434.7
51.2377,193.3
51.2515,104.9
51.2555,73
51.265,397.2
51.2651,402.5
51.2652,238.5
51.2675,76.3
51.2874,404.6
51.2972,475.9
51.3293,260.6
51.3578,469.1
51.3643,158.2
51.3818,257.6
51.3937,426.4
51.408,259.2
51.4106,72.9
51.4156,240.9
51.4235,229.4
51.4371,16.9
51.4619,152.4
51.4841,835
51.4915,382.2
51.4997,80.8
51.5018,566.2
51.5021,620.4
51.5141,18.5
51.5193,109
51.5199,182.5
51.5264,112.6
51.5307,123.1
51.5409,344.7
51.558,137.3
51.5611,17.5
51.5736,472.7
51.5882,455.6
51.5999,88.5
51.6008,75.8
51.602,112
51.6034,267.7
51.6046,131.2
51.6233,153.4
51.6365,273.7
51.6524,516.6
51.6563,439.3
51.6607,18.6
51.6744,290.4
51.6796,46.7
51.6873,95.2
51.6888,144.6
51.6912,136.5
51.6967,94.3
51.7062,158
51.7235,92.6
51.7284,218
51.7357,16.6
51.7498,19.8
51.7511,485.5
51.7553,106.6
51.7573,456.3
51.7737,90
51.8045,79.7
51.8104,421.7
51.8244,76.3
51.8262,17.3
51.8266,88.8
51.8358,273.3
51.8417,110.7
51.8599,279.7
51.8768,16.4
51.8777,82
51.8794,45
51.8878,18
51.9011,429.6
51.9329,296.9
51.9503,252.3
51.9513,374.7
51.9559,107.5
51.987,417.6
51.9929,467.4
51.9948,127.5
52.0129,16
52.015,574.1
52.0272,123.2
52.0308,118
52.0412,233.3
52.0612,247
52.0616,138.7
52.0657,21.7
52.0698,388.8
52.071,18.1
52.1141,654.2
52.1172,122.4
52.1324,85.1
52.1437,499.5
52.1451,90.1
52.153,16.5
52.1781,497
52.1788,482
52.1933,84.5
52.1951,17.1
52.2184,232.4
52.2317,159.5
52.2322,83.7
52.2351,201.5
52.2414,104.9
52.2623,142.3
52.2733,190.9
52.2854,85.8
52.2907,473.3
52.2945,512.7
52.3221,89.7
52.3233,264
52.3371,93.5
52.3553,509.9
52.3912,143.7
52.3971,408.1
52.4132,232.6
52.431,353.7
52.461,21.9
52.477,147.5
52.4788,305.1
52.479,204
52.4981,79.3
52.5215,83.3
52.5364,158.1
52.5419,114.8
52.5429,359
52.5494,592.4
52.5677,713.9
52.5825,423.4
52.5882,81.9
52.6021,523.1
52.6194,107.5
52.6244,72.6
52.6273,19.2
52.6288,17.4
52.6503,170.3
52.6577,89.4
52.6905,19.9
52.7193,459.9
52.7214,536.5
52.7306,134
52.737,170.7
52.7563,20.8
52.7595,84.7
52.7892,516.4
52.7898,674.4
52.7903,738.1
52.7918,939
52.7924,2095.8
52.7928,2401.6
52.7931,3178.7
52.7938,1509.1
52.7943,700.7
52.7948,110.8
52.7954,502
52.7963,685
52.7969,191.8
52.8261,80.7
52.8324,295.2
52.8474,90.1
52.8481,123.7
52.8515,289.1
52.8563,466.5
52.8708,484
52.8764,138.1
52.8861,109
52.8945,136
52.8975,116.8
52.9122,337.6
52.919,256.5
52.9238,90.4
52.925,404.9
52.9292,201.4
52.9366,16.2
52.9422,92.4
52.9692,248.8
52.9836,91
52.9973,15.7
53.0164,398.5
53.0175,434.5
53.0344,293.2
53.0418,143
53.0471,81
53.0479,16
53.0603,955.5
53.0646,256.9
53.0737,84.5
53.0777,139.3
53.0843,102
53.0868,222.2
53.1037,334.3
53.1092,240.7
53.1129,16.1
53.1221,73.8
53.1317,535.4
53.1383,354.3
53.1457,122.5
53.1601,353.7
53.1743,175.7
53.1778,369.1
53.1835,196.9
53.1911,15.9
53.1965,468.4
53.1972,96
53.2093,616
53.2235,467.5
53.2494,18.4
53.259,253.1
53.2661,92.1
53.2793,88.5
53.2818,233.2
53.2961,133.3
53.3034,44.8
53.3077,16
53.3086,161
53.3102,234.3
53.3203,91.7
53.3235,42
53.3351,84.5
53.3503,18
53.3681,107.7
53.3687,209.5
53.3752,543.8
53.3937,116.1
53.4272,40
53.4368,253.7
53.4546,20
53.4864,18.4
53.4951,354.8
53.5014,15.4
53.5212,91.2
53.539,117.7
53.5412,117.3
53.5624,361.2
53.5746,531.1
53.5781,98.2
53.6288,138
53.63,441.4
53.6342,16.1
53.637,184.7
53.6468,417.4
53.6526,456.4
53.6633,271.9
53.6826,154.7
53.7072,85.4
53.7075,98.2
53.7162,86.5
53.7259,93.4
53.7331,268.3
53.7334,119
53.736,78.3
53.7367,105.9
53.747,132.6
53.756,317.1
53.766,330.9
53.7762,564.4
53.7772,76.8
53.7789,109.5
53.781,119.2
53.8061,341
53.8093,467.4
53.8255,114.5
53.8289,137.6
53.8537,139.8
53.8581,209.5
53.8741,482.9
53.8766,390.9
53.8873,247.6
53.8916,487.8
53.8922,662.6
53.9072,93.9
53.9119,75.4
53.913,193
53.9158,73.1
53.9271,480.2
53.9342,91.1
53.9497,16.6
53.9717,15.4
53.977,99
54.0204,20.5
54.0512,118.1
54.0518,486.8
54.0584,177
54.0849,69.3
54.0927,233.3
54.0947,83.6
54.1054,178
54.1085,181.3
54.1112,229.2
54.1445,108.8
54.1646,637.3
54.1744,79.3
54.178,336.9
54.1842,437.2
54.1866,151.6
54.193,94.8
54.1939,79.2
54.195,17.5
54.1984,18.2
54.2091,326.5
54.2356,323
54.2418,83.5
54.2556,17.3
54.2711,732.2
54.2826,211.5
54.2904,390.7
54.2912,136.9
54.3057,411.6
54.3073,233.8
54.3138,46.3
54.3259,99.2
54.3275,147.9
54.332,615.6
54.3331,534.1
54.3362,268.2
54.3384,484.8
54.3426,84
54.343,122
54.3447,285.6
54.351,81.3
54.354,359.8
54.3676,121.5
54.4019,84
54.4127,116.9
54.4144,146.3
54.4194,81.6
54.4224,763.6
54.4441,125.9
54.4508,120.2
54.4553,82.7
54.4556,90.6
54.4596,282.5
54.4662,127.7
54.4709,193.7
54.4778,232.4
54.4882,400.3
54.5075,391.3
54.5156,347.7
54.5213,77.6
54.5275,265.8
54.5557,368.3
54.5589,124.9
54.5801,151.3
54.5858,306.8
54.6058,81.5
54.6094,416.8
54.614,173.4
54.6284,138
54.6335,84.4
54.6338,17.6
54.6415,20.6
54.6447,116.8
54.6524,341
54.6727,461
54.676,78.2
54.6865,328.1
54.7005,115.7
54.7008,297.2
54.7139,151.4
54.7166,202.6
54.7241,96
54.7379,235.6
54.7402,38.9
54.781,125.3
54.7896,16.5
54.8076,435.4
54.8105,195
54.8133,405.1
54.8256,78.5
54.8288,151.8
54.8332,100.3
54.8404,108.6
54.8432,80
54.8643,16.3
54.867,358.7
54.877,272.4
54.8855,114.8
54.8862,248.4
54.8923,14.3
54.8934,405
54.8995,102.6
54.933,166.7
54.9505,322.3
54.9581,435
54.9597,264.3
54.9683,149.9
54.9894,80.1
54.99,69.3
54.9972,95.9
55.0185,99.4
55.0216,173.4
55.0464,86.7
55.0641,84.1
55.0748,308.1
55.0821,100.8
55.0877,250.3
55.0939,17.3
55.0979,94
55.0986,453.7
55.1013,105.3
55.1064,272.8
55.1288,432.2
55.1304,115.6
55.1461,311
55.1583,142.7
55.1612,237.4
55.1757,697.5
55.1792,431.6
55.1798,552.1
55.2467,16.7
55.251,494.1
55.2569,20.7
55.3001,476.6
55.3026,183.5
55.3028,188.9
55.303,90.8
55.3184,71.8
55.3475,17.3
55.3497,95.6
55.3507,327.9
55.3568,131.1
55.3633,164.7
55.3793,175.6
55.3982,384.6
55.4035,15
55.4137,436.7
55.4408,390.3
55.4563,462.8
55.4806,576.3
55.5047,17
55.5164,167.5
55.5232,139.3
55.551,169.6
55.5516,250.5
55.5603,535.6
55.5663,86.5
55.5823,99
55.5873,243.3
55.6059,230.2
55.6213,147.6
55.6316,479.5
55.6396,641.6
55.6438,423.9
55.6506,79.5
55.664,374.5
55.6682,16.2
55.6786,434.6
55.6935,115.8
55.6996,86.6
55.744,85.5
55.7455,328.9
55.7606,498.7
55.7657,353.6
55.7752,249.4
55.7816,246.5
55.7872,102.1
55.8193,103.9
55.8662,76.6
55.868,142.2
55.8738,163.5
55.8755,142.5
55.8934,440.4
55.9061,512.1
55.9138,344.3
55.9218,333
55.9604,89.4
55.9687,155.4
55.9882,157.7
55.9904,467.8
56.008,178.5
56.0178,99.9
56.0195,268.9
56.0221,285
56.0244,142.9
56.0248,125.8
56.043,366.7
56.0491,627.6
56.0584,98.4
56.0617,643.8
56.0648,194.7
56.0707,186.2
56.0786,123.5
56.0821,406.6
56.0832,460.1
56.0873,674.6
56.0949,346.4
56.1063,301.9
56.1146,92.1
56.1312,111.8
56.1449,112
56.1459,162.7
56.1523,161
56.1752,477.7
56.1847,117.6
56.1945,152.3
56.1985,305.1
56.227,603.1
56.2318,363.7
56.2322,69.4
56.237,80.7
56.2672,130.6
56.2873,16.9
56.2989,435.2
56.3026,107.5
56.3161,247.8
56.3451,17.9
56.3628,376.2
56.3667,125.7
56.368,508.7
56.3733,133
56.3801,18.3
56.405,227.2
56.4083,17.9
56.4226,278.7
56.4236,148.2
56.43,91.6
56.4412,19.4
56.4535,463.3
56.463,105.6
56.4732,16.9
56.4979,512
56.5032,100.7
56.5055,217.6
56.5068,395.8
56.5075,101.4
56.5121,455.4
56.5138,336.8
56.5846,72.9
56.5881,316.8
56.5949,18.9
56.6027,75.3
56.6157,276.9
56.6246,250.4
56.6448,78.3
56.6683,159.9
56.6812,84.9
56.6855,469.7
56.6873,203.3
56.6883,234.9
56.6934,157.6
56.6951,349.1
56.696,493.6
56.7009,160.6
56.7118,666.6
56.7348,19
56.7469,155.7
56.7496,17.5
56.767,50.1
56.781,438.3
56.8028,154.6
56.8244,41.8
56.8265,87.8
56.8299,335.7
56.8394,430.8
56.8457,259.6
56.8516,75.8
56.8577,24.9
56.8715,527.9
56.8772,221.5
56.8972,192.9
56.9035,334.3
56.9047,148.3
56.919,373.9
56.9218,86.9
56.9316,595.7
56.9403,426.7
56.9625,15.1
56.9847,144.6
57.0046,107.7
57.0135,111.1
57.0148,79
57.0163,321.1
57.0194,170.9
57.0222,122.2
57.0251,362.5
57.0483,329.8
57.0631,330.6
57.0819,564.1
57.088,255.7
57.1566,296
57.1623,112.7
57.1638,121.9
57.1704,589.4
57.1714,418.1
57.1907,17
57.1953,122.5
57.2016,107
57.2125,139.2
57.2576,79.8
57.2594,83.1
57.2874,657.4
57.2896,500.3
57.2923,234.4
57.3123,201.9
57.3411,614.8
57.35,508.7
57.3537,107.5
57.3841,129.1
57.3868,520.9
57.3962,89.4
57.3981,118.4
57.399,461.8
57.4233,232.4
57.4275,15.4
57.4544,16.3
57.4569,15.2
57.4644,505.1
57.4657,662.1
57.4779,114.6
57.4817,376.3
57.4857,120.4
57.4893,86.2
57.4933,161
57.501,462.8
57.5301,89.2
57.5343,19.3
57.5394,383.4
57.5475,43
57.5586,94.4
57.5729,18.1
57.5809,17.8
57.5825,340.9
57.5963,551.4
57.6016,388.6
57.6151,341
57.6197,116.1
57.6211,607.9
57.6612,296.5
57.6637,111.8
57.6669,466
57.6737,50.4
57.6854,350.1
57.6862,126.5
57.6978,18.4
57.7076,100.3
57.7192,120.9
57.7216,173.2
57.7743,402.1
57.7846,91.1
57.7854,260.3
57.7875,90
57.8111,15.7
57.8208,460.5
57.8238,89.1
57.8269,199
57.8445,85.6
57.8544,195.7
57.8572,104.8
57.861,460.9
57.8756,219.4
57.8899,113.6
57.8961,16.1
57.9094,393.6
57.9155,422.1
57.9343,16.2
57.9369,636.8
57.9393,314.6
57.9616,276.4
57.9622,93.9
57.9635,205.7
57.9644,258.5
57.9672,580.6
58.019,570.9
58.0207,110.6
58.031,476.4
58.0406,127.1
58.0715,519.9
58.0768,265.5
58.0932,515.9
58.0955,618.3
58.1171,130.4
58.1254,81.5
58.127,145.2
58.1358,145.6
58.1554,95
58.1609,151.5
58.1857,75.7
58.2063,154.5
58.214,154.3
58.223,459.3
58.2249,103.9
58.2268,133.4
58.2279,86.2
58.2312,144.6
58.2353,318.2
58.2534,241.6
58.2588,21.1
58.2613,426.6
58.2618,114.6
58.2826,232.6
58.2838,17.7
58.3085,46.8
58.3196,335.4
58.3292,206
58.3303,97.1
58.3324,399.4
58.3343,316.4
58.341,147.1
58.365,82.4
58.378,77.2
58.4143,110.6
58.4159,127.1
58.4337,597.1
58.4415,162.8
58.4453,332.8
58.452,203.7
58.4584,155.3
58.4612,18.1
58.4787,351.9
58.4809,19.8
58.4894,352.9
58.4911,561.8
58.5042,393.6
58.5087,236.7
58.5279,316.1
58.5297,93.1
58.5367,333.9
58.5411,108.8
58.5496,94.3
58.5523,498.4
58.5745,17.6
58.5855,322.9
58.6236,439.1
58.6244,257.2
58.6659,98
58.6678,41.2
58.6684,85.9
58.6736,209.7
58.6888,517.4
58.7055,101.8
58.7213,19.4
58.7299,77.5
58.7542,106.6
58.7786,108.7
58.791,378.6
58.7924,18.9
58.7957,348.2
58.8186,134.6
58.8239,336.6
58.8302,478.2
58.8403,148.8
58.8475,210.1
58.8648,16.2
58.8858,279.9
58.8972,128.8
58.9081,122.8
58.9274,20.3
58.9704,181.5
58.9753,337
58.9845,435.7
58.9852,146.1
59.0151,242.6
59.0159,78.1
59.0235,714.6
59.033,15.9
59.0339,100
59.0424,188.4
59.0452,175
59.0478,224.4
59.0516,15.9
59.0684,280
59.102,171.9
59.1049,430.4
59.1082,82.7
59.1282,736.2
59.1707,38.3
59.1722,477.8
59.1992,110
59.202,71.7
59.2042,629.9
59.2121,90.9
59.2185,103.5
59.2301,448.7
59.2441,98
59.2772,574
59.2873,185.7
59.2934,81.3
59.3095,103.5
59.3135,131.6
59.3198,516.2
59.3235,180.2
59.3519,545.8
59.3546,88
59.3673,21.1
59.3756,17.3
59.3784,17
59.3797,383.1
59.3816,123.2
59.4057,121.4
59.4103,89
59.4132,86.1
59.4137,127.6
59.4142,714.5
59.4274,91.9
59.4315,456.6
59.4477,639.6
59.4504,47.2
59.4657,87.9
59.467,96
59.4768,371.3
59.4888,112.2
59.4923,661.4
59.4961,128.8
59.5001,99.1
59.5095,92.2
59.5109,70.9
59.5296,144.4
59.5454,478.9
59.5466,198.8
59.5485,680.8
59.5561,99.5
59.5634,172.4
59.5663,558
59.5708,90.9
59.5931,454.3
59.6146,595.8
59.6545,247.8
59.6596,248.6
59.6606,186
59.6657,101.3
59.6669,313.6
59.672,748
59.6806,75.6
59.6981,247.9
59.7005,287.1
59.7068,123
59.716,280.6
59.7177,104.2
59.7181,14.8
59.7201,89.5
59.7231,110.2
59.7494,294.1
59.777,237.1
59.78,231.3
59.8048,323.8
59.8053,88.7
59.8123,717.7
59.8226,22.7
59.8367,92.5
59.8448,333.9
59.8503,81.2
59.8555,100.4
59.8614,118.4
59.8815,118.9
59.8966,16.5
59.9007,383.3
59.9149,157.8
59.9214,16
59.9244,76.5
59.9259,215.9
59.9275,97.4
59.9291,19
59.9358,153.5
59.9496,335.3
59.9699,71.7
59.9704,147.8
59.9814,79.9
60.0209,156.6
60.0248,220.7
60.0311,85.3
60.0426,104.5
60.0645,114.9
60.068,518.7
60.0764,186.9
60.0794,78
60.0816,332.5
60.0839,399
60.0888,84.4
60.0973,18
60.1068,506.8
60.1101,219.3
60.1228,113.4
60.1279,120.4
60.1369,201.7
60.1432,262.7
60.1628,88.9
60.1901,18.2
60.2129,298.1
60.2363,99.3
60.2534,126.7
60.2539,97.7
60.2543,16.9
60.2561,16.9
60.2639,92.8
60.2706,21.6
60.2717,82.3
60.2733,115.1
60.276,347.9
60.2783,545.5
60.2997,38.1
60.303,84.9
60.3067,16.5
60.3295,129.1
60.334,446
60.3445,15.3
60.3537,209.5
60.3561,21.2
60.3682,204.1
60.3908,646
60.3984,72.1
60.4324,139.2
60.4349,15.2
60.4492,100.5
60.4512,252
60.4528,17.9
60.4572,420
60.4753,247.7
60.4852,259.1
60.488,115.6
60.4937,186.6
60.5134,38.6
60.5339,18.6
60.5376,548.2
60.5412,213.4
60.5511,15.8
60.5529,177.9
60.5589,19.1
60.5639,22.3
60.5695,769.8
60.5883,139.4
60.6047,89
60.6232,119.1
60.6259,210.2
60.6951,95.1
60.699,385.1
60.708,384
60.7184,105.4
60.7193,533.4
60.736,556.9
60.7506,107.1
60.7611,41.5
60.7641,36.7
60.7709,186.5
60.773,146.4
60.7783,222.7
60.7831,371.4
60.7969,436.4
60.8031,607.7
60.8178,38.2
60.8238,115.7
60.847,19.9
60.8627,109.2
60.8631,309.2
60.8744,19.5
60.8841,447.7
60.8877,229.8
60.8999,253.4
60.9036,82.3
60.9068,17.8
60.9107,90.1
60.9321,486.1
60.9339,528.5
60.942,81.2
60.9661,331.2
60.9716,80.7
60.9777,450.6
60.9809,240.1
60.9852,502.4
61.0202,41.8
61.0824,498.4
61.1273,541.5
61.1295,83.6
61.1637,678.8
61.1733,144.1
61.1926,468.3
61.2106,510.1
61.2173,17.6
61.2315,426.5
61.2458,216.5
61.2488,485.8
61.2495,98.1
61.2579,98.4
61.2758,163.5
61.2772,154.7
61.2775,153.8
61.2895,436.2
61.2921,518.7
61.295,104.1
61.3414,197.8
61.3423,146.8
61.3469,216.5
61.3597,497.4
61.3656,220.3
61.3704,138.6
61.3767,229.4
61.3793,114.7
61.382,72.6
61.3971,92
61.4045,139.7
61.4292,17.2
61.4298,83.7
61.4368,625.6
61.4391,47
61.4483,92.3
61.4657,134.9
61.4828,470.7
61.4857,245.7
61.4879,128.9
61.4893,453.1
61.5028,17
61.5492,101.1
61.5667,108
61.5722,136.9
61.5769,544.4
61.5881,296.3
61.593,137.3
61.5958,15.6
61.596,15.8
61.6213,91.3
61.6243,87.8
61.6291,251.2
61.6422,127.5
61.6611,180.1
61.6778,127.1
61.6845,110.3
61.6882,145.7
61.6889,40
61.7086,577.4
61.7186,105.1
61.7191,160.7
61.7226,54.8
61.7329,225.5
61.7376,242.9
61.7424,489.9
61.7463,88.1
61.7551,84
61.7676,89.2
61.7884,78.1
61.808,18.4
61.8098,104.3
61.8247,20.6
61.8303,49
61.8337,334.6
61.8645,352.4
61.8789,147.8
61.8889,123.4
61.9061,17.2
61.9165,250.4
61.9198,656.2
61.935,255.4
61.9495,127.6
61.9519,75.4
61.9633,290.8
61.9661,439.7
61.9873,86.9
61.9953,184.6
62.0084,24.1
62.0247,645.4
62.0306,452.4
62.0365,532.5
62.0444,337.8
62.047,324.7
62.0488,391.2
62.0716,17
62.0763,92.8
62.0806,295.8
62.0851,105.7
62.1072,41.2
62.1094,185.9
62.1162,136
62.1661,478.8
62.1723,239.8
62.182,16.9
62.2215,559.1
62.2875,91.5
62.2989,496.7
62.3577,97.6
62.3581,686.7
62.369,120.4
62.3711,104.4
62.3724,261
62.3735,16.3
62.3809,499.7
62.3831,381.3
62.3902,305
62.3917,458.9
62.4108,341
62.4165,120.7
62.4192,134.3
62.4279,532.9
62.4326,419.5
62.4375,155.9
62.4654,18.5
62.4839,94.4
62.4853,88.9
62.5091,236.1
62.5211,261.7
62.5254,273.3
62.5331,102.5
62.5341,248.1
62.5379,115.9
62.5702,352.8
62.5847,202.2
62.5956,634.5
62.6054,689.7
62.6308,465.1
62.6568,318.4
62.6631,545
62.6744,309
62.6804,91.4
62.6836,357.1
62.6844,448.7
62.6939,105.2
62.6999,17.4
62.7472,240
62.749,363.4
62.7569,482.7
62.7624,567.5
62.7818,432.9
62.79,314
62.7996,459.5
62.8174,414.7
62.8185,589.7
62.8195,189.4
62.8292,359.3
62.8324,306.5
62.8358,217.7
62.841,375.4
62.8539,344
62.8607,325.2
62.8725,450.5
62.8777,232.2
62.8887,16.7
62.893,576.1
62.8996,88.4
62.9265,75.8
62.9929,575.1
63.0151,77.1
63.0202,495.6
63.0214,327.1
63.0275,288
63.0304,21.3
63.0335,667.2
63.044,90.9
63.0449,205.7
63.0456,100.8
63.0582,214.1
63.0746,68.7
63.0876,101.6
63.0975,327
63.0984,16.4
63.1008,465.2
63.1115,20
63.1208,108.8
63.1542,15.5
63.1634,119.7
63.1735,367.4
63.1755,218.3
63.188,446.6
63.2016,19.7
63.2085,221.7
63.2128,382.7
63.2194,339.5
63.2316,538.2
63.2373,87.3
63.2566,245.2
63.2608,204.1
63.2701,333.6
63.3011,18.8
63.3102,149.3
63.3208,18
63.3479,346.3
63.3504,17.6
63.3592,82.9
63.3815,356.8
63.4009,498.8
63.4056,166.9
63.4077,91.8
63.423,105.9
63.4376,44.3
63.4477,473.2
63.4508,195.4
63.4583,119.7
63.5506,260.8
63.5544,330.8
63.5619,499.6
63.563,286.3
63.5792,103.5
63.5817,541.4
63.6033,304.2
63.6052,105.9
63.6169,372.2
63.7027,265.4
63.7209,339.5
63.7288,600.8
63.7348,80.8
63.7409,196.7
63.7433,586.4
63.7469,216.4
63.7489,549.6
63.7556,122.5
63.7678,134.1
63.7825,279.2
63.7874,89.6
63.8098,152.3
63.8114,335.5
63.816,174.4
63.828,41.6
63.8295,114.3
63.8661,212
63.8875,308.4
63.8898,166.5
63.9165,492
63.9234,354
63.9309,112
63.9365,83.4
63.9603,118.4
63.9718,226.8
63.9826,91.3
63.9898,114.9
64.0366,102.5
64.0401,265.2
64.0619,115
64.0803,190.9
64.0889,721.8
64.1056,493.4
64.1255,579.6
64.1364,85.6
64.1391,17.5
64.1621,325.8
64.1864,20
64.1878,459.9
64.2015,325.1
64.2519,111.7
64.2551,650.4
64.2717,102.3
64.2743,292.1
64.2848,242.1
64.2888,197.6
64.2995,16.4
64.3039,196.9
64.3351,488
64.3409,292.9
64.3542,148.8
64.3551,391.1
64.3636,601.7
64.372,230.5
64.3783,291.2
64.3894,134.9
64.4164,391.4
64.458,120
64.4938,692.4
64.4982,120.7
64.4994,383.9
64.5173,215.2
64.5224,625
64.5336,414.9
64.5584,135.4
64.5926,482
64.6273,487
64.6341,681.7
64.6539,231.5
64.6571,472.5
64.7144,18.5
64.7309,293
64.7345,252.9
64.7524,508.1
64.786,253.7
64.7886,103.1
64.8251,95.7
64.8439,346.2
64.85,662.1
64.8509,104.7
64.8513,190.3
64.867,403.4
64.87,231.3
64.8717,104.7
64.8791,138.4
64.9215,192.6
64.9236,110.9
64.9429,240.5
64.9536,133.4
64.9694,19.1
64.9708,117.8
65.0126,317.8
65.0306,447.2
65.0338,315.6
65.0469,175.8
65.0497,95.1
65.0555,88.9
65.0604,97.6
65.0688,115.6
65.0694,43.9
65.0974,243.7
65.1089,238.4
65.1099,144.3
65.1381,400.6
65.1638,105.3
65.192,209.5
65.2034,318.8
65.206,92.6
65.2167,898.1
65.2202,338
65.2211,93.1
65.2926,477.9
65.2964,108.5
65.3007,498.9
65.3236,604.3
65.3303,102.7
65.3485,619.3
65.3622,115.9
65.3668,472.4
65.3909,145.7
65.4255,273.4
65.4274,98.7
65.4344,82.3
65.4421,475
65.4445,602.7
65.4526,18
65.4809,299.6
65.5085,663.2
65.5385,105.4
65.5414,45.7
65.5506,423.8
65.5513,226.2
65.5609,271.3
65.569,337.4
65.5708,491.9
65.5768,18
65.5894,159
65.5953,89
65.5974,21.5
65.608,89.2
65.6125,242.6
65.6233,479.5
65.6308,256.9
65.6443,105.5
65.6594,16.5
65.6768,83.4
65.6916,589.5
65.6969,20.4
65.7073,223.7
65.7235,279.3
65.7329,117.9
65.738,103.2
65.7444,406.6
65.7989,444.2
65.8166,821.9
65.8306,398.1
65.8489,94.4
65.8499,119.8
65.8529,388.5
65.8613,394.5
65.8625,51.8
65.8882,777
65.9043,487.4
65.9073,97.6
65.9247,102.3
65.9388,509.3
65.9405,96
65.9793,85.4
66.0005,136.2
66.0173,130.7
66.0199,127.3
66.0228,509.8
66.0264,93.8
66.0403,119.4
66.0642,311.7
66.1132,280.9
66.1166,217.3
66.128,256.6
66.1295,94.5
66.1477,76.7
66.2224,361.9
66.2236,107
66.2289,113
66.2301,90.6
66.2693,286.6
66.2762,364.9
66.2834,204.1
66.2882,606.3
66.2935,259.6
66.3136,122.1
66.3194,71.5
66.3255,306.1
66.3286,123.1
66.3605,17.5
66.3658,383.1
66.3787,530.1
66.421,457.9
66.4386,160.3
66.4599,77.4
66.4631,21.9
66.4816,86.8
66.4908,222.1
66.496,86.4
66.514,19.5
66.528,93.3
66.5437,288.7
66.5498,17
66.5501,17
66.5892,469.1
66.5903,230.2
66.5936,124.6
66.6027,129.6
66.6043,16.6
66.6112,169.3
66.6208,133.7
66.6351,312.6
66.6648,850.1
66.6682,572.7
66.67,194.7
66.72,143.5
66.7323,16.5
66.7429,111.9
66.7483,287.8
66.7681,46.8
66.8154,267.5
66.8177,19
66.8365,248.8
66.8487,473.2
66.8671,147.8
66.877,85.1
66.8877,17
66.891,454.6
66.8997,220.9
66.9124,467
66.92,170.1
66.9239,124.3
66.9441,451.2
66.9841,16.7
66.9976,120.1
67.0061,413.9
67.0137,19.3
67.0174,92.4
67.0288,224.5
67.0437,77.4
67.0539,122.6
67.0563,355.4
67.099,82.8
67.1134,72.9
67.115,438.9
67.1232,87.5
67.1365,111.9
67.1606,663.2
67.1649,307.9
67.1841,254.1
67.204,251.9
67.2646,112.6
67.2746,197.2
67.2764,210.2
67.278,93.5
67.2915,20.6
67.324,73.8
67.3283,481.1
67.3368,239.4
67.3531,18.1
67.3583,722.2
67.3896,249.8
67.3946,130.4
67.4053,39.1
67.4208,242.8
67.4346,83.1
67.4414,84.4
67.454,123.7
67.455,475.3
67.4602,270.3
67.4618,18.7
67.4771,127.5
67.4814,134.7
67.4841,280.2
67.5555,96.1
67.5713,304.8
67.5823,19.3
67.5866,312
67.6017,523.1
67.6097,19.1
67.6288,701
67.6402,389.2
67.6457,158.3
67.6532,133.7
67.6673,16.8
67.6685,322.8
67.673,108.2
67.6783,89.8
67.6793,608.7
67.6988,584.2
67.7145,20.6
67.7205,78.8
67.7344,17.3
67.7429,18.1
67.7444,148
67.7503,16.3
67.7601,500.7
67.761,122.1
67.7624,101.3
67.8093,39.4
67.8101,281.6
67.8167,474.3
67.8202,579.3
67.833,89.8
67.8416,92
67.8691,105.2
67.8702,424
67.8769,99.9
67.8786,651.4
67.8812,129.9
67.8824,276
67.8841,131.2
67.8982,231.4
67.9004,104
67.9064,161.5
68.0102,94.2
68.0163,104
68.021,95.7
68.0329,210
68.041,354.3
68.0503,17.8
68.0545,270
68.0585,579.3
68.0653,528.9
68.0671,229.2
68.0691,167.9
68.0696,215.2
68.0754,17.2
68.0883,126.5
68.0914,485.2
68.0938,305.1
68.0955,236.4
68.1373,99.3
68.1481,137.4
68.1648,199.1
68.168,212.1
68.1793,687.6
68.1836,252.4
68.2192,211.3
68.225,367.7
68.2259,49
68.229,115.1
68.2297,168.9
68.2387,527.7
68.2716,16.8
68.2819,1034.3
68.2934,473.4
68.2984,384.6
68.3123,95.5
68.3233,19.1
68.332,93.5
68.3491,101.6
68.3831,107.1
68.3922,111.1
68.3979,257.3
68.4118,474.5
68.4448,18.1
68.4591,299.2
68.4719,100
68.4826,103.2
68.5122,283.1
68.5202,169.8
68.5363,207.5
68.5403,310.2
68.5492,110.8
68.5757,424.3
68.5855,586.9
68.6294,277.6
68.6349,550.3
68.6539,16.9
68.6775,50.1
68.6854,451.9
68.7306,586.3
68.7339,326.8
68.7365,75.4
68.7807,506.9
68.7818,44.6
68.7875,16.4
68.8008,672.1
68.8051,104.3
68.806,155.3
68.8163,291.7
68.8348,19.6
68.8384,123.5
68.8393,530.1
68.8642,99.5
68.9037,440.2
68.9095,500.9
68.9664,230.3
69.0051,86.8
69.014,84.4
69.0515,237.6
69.0642,99.4
69.0696,19.9
69.0707,448.3
69.0749,448.7
69.0966,17.2
69.0996,341.4
69.1157,436.9
69.136,474.7
69.138,51.8
69.1547,147.4
69.1646,107
69.1804,94.4
69.1824,221.4
69.2024,77.2
69.209,95.3
69.2194,16.6
69.225,733
69.2265,169.8
69.2414,491.5
69.2555,174.8
69.2689,252.3
69.2791,326.2
69.2969,510.2
69.3076,704.5
69.3343,198.6
69.3801,382.2
69.4025,170.1
69.4043,482.5
69.411,205.2
69.4213,138.5
69.433,114.6
69.4362,22.7
69.4687,264.7
69.4703,19.9
69.4715,444.4
69.4884,118.9
69.5606,216
69.5645,506.9
69.575,105.8
69.5761,584.9
69.5964,316.6
69.5987,340.4
69.6036,133.9
69.6104,98.8
69.616,527.2
69.6299,293.7
69.6309,262.1
69.6381,103.6
69.6756,39.5
69.7157,98.4
69.7299,95.9
69.7375,105.6
69.7408,76.7
69.751,470
69.7692,53.8
69.7707,465.5
69.7743,18.6
69.7959,650.9
69.7985,114.9
69.8045,337.5
69.8294,17.4
69.8453,351
69.8466,169.7
69.8546,144.7
69.8838,662.5
69.9585,80.1
69.9612,110.8
69.9787,527
69.9846,248.2
69.9902,73.5
70.0103,111.1
70.0244,386.1
70.0509,310.2
70.0538,17
70.0606,396.6
70.0648,223.8
70.0854,18.1
70.122,184.4
70.1283,113.7
70.1334,98.7
70.1596,258
70.1791,94.7
70.1833,117.2
70.2361,392.4
70.271,106.6
70.2784,444.9
70.279,339.3
70.2965,21.4
70.2979,413.3
70.3017,149.6
70.315,17.4
70.3316,739.8
70.3323,168.3
70.3543,117.5
70.3623,16
70.3714,462.2
70.3811,77.7
70.3982,89
70.4347,112.3
70.4435,659.7
70.4628,285
70.4732,22.1
70.4742,85.6
70.5344,119.6
70.5463,437.1
70.5496,181.5
70.5573,289.3
70.5596,531
70.5691,300.9
70.5725,173
70.5779,367.5
70.5856,523.2
70.5886,265.5
70.5895,88.8
70.6021,411.5
70.6032,167.6
70.6378,111.9
70.6397,213.5
70.6407,507.3
70.6655,494.4
70.682,231.1
70.7041,16.5
70.7189,81.6
70.7311,457.5
70.7465,282.5
70.7484,79.9
70.7507,122.7
70.7772,17.1
70.7952,107.5
70.7984,23.1
70.8205,461.6
70.8361,81.7
70.8601,412.3
70.8741,75.2
70.8785,236.4
70.8803,131
70.8947,48.5
70.9308,101.8
70.9354,18.3
70.9528,41.4
70.9598,229.5
70.9712,123.7
70.9768,102.3
71.0094,549
71.0107,107.9
71.0159,107.5
71.0403,20
71.0439,76.3
71.0737,98.8
71.0848,450.4
71.0861,242.9
71.094,137.7
71.1002,81.4
71.1321,119
71.1397,166.9
71.157,171.3
71.1642,469.8
71.1702,167.8
71.1785,303.9
71.184,16.9
71.1846,299.5
71.211,450.6
71.2373,80.2
71.2396,529.3
71.2845,327.1
71.2907,480.3
71.2925,162.3
71.3044,122.3
71.3319,207.5
71.3332,16.6
71.3383,384
71.3546,17.4
71.3913,82.9
71.4004,279.7
71.4092,72.6
71.4209,311
71.4284,101.9
71.439,573.8
71.4402,874.8
71.4526,42.9
71.4562,151.2
71.4588,105.9
71.4758,16.3
71.4789,18.4
71.516,180
71.5171,109.2
71.5269,18.5
71.5285,101.4
71.5488,17.5
71.5822,17.6
71.5938,255.9
71.6444,369.5
71.6468,288.5
71.7146,16.9
71.7249,79.2
71.7339,205
71.7435,689.8
71.7547,118
71.7775,16.7
71.7905,262.6
71.7945,264.2
71.8004,17.8
71.8056,153.4
71.8127,399.7
71.8338,368.5
71.8693,113.2
71.8748,443.2
71.8973,88.2
71.9071,101
71.9099,522
71.9331,201.4
71.9639,513.5
71.976,140.7
71.9767,73.4
72.0023,109.9
72.0037,269.7
72.0232,124.2
72.0246,108.5
72.0677,281
72.0805,1874.5
72.125,304.5
72.139,89.2
72.147,16.9
72.1585,15.8
72.1686,20.8
72.1729,121.6
72.1878,232.9
72.2128,152.9
72.2141,191.5
72.2158,280.6
72.2168,326.9
72.2172,404.9
72.2182,623.6
72.219,1447.8
72.2195,758.7
72.2204,1905.2
72.2213,1535
72.2216,2235
72.2225,1720.3
72.2239,3479.6
72.2246,3296
72.2261,2038
72.2265,2434.1
72.227,3570.5
72.2276,3407.3
72.2287,3764.7
72.2295,1584.5
72.2297,1640.6
72.2316,2610.9
72.2327,2824.9
72.2333,2880.6
72.2336,2125.6
72.2342,1820.5
72.2359,1726.6
72.2367,1265.4
72.2373,1839.2
72.2379,1049.1
72.2387,444.7
72.2393,1263.2
72.2401,2035.8
72.2409,1007
72.242,780.3
72.2434,2075.3
72.2448,789.2
72.2472,504.2
72.2482,469.6
72.2568,42.7
72.2681,102.1
72.2783,70.3
72.2972,211
72.3033,363.8
72.3258,481.8
72.3295,614.5
72.3386,92.6
72.3435,436.2
72.3624,98.8
72.4053,86.5
72.4222,395.8
72.4382,301
72.4411,432.6
72.4556,507.7
72.4846,265.2
72.4977,103.5
72.532,392.5
72.5702,107.6
72.582,16.6
72.5976,109.8
72.6062,344.9
72.6225,243.2
72.6447,93.4
72.6546,113.6
72.6631,162.5
72.7155,144.1
72.7458,487.4
72.7495,418.5
72.7545,345.9
72.782,472.6
72.7862,603.8
72.7899,133
72.7935,253
72.7984,18.1
72.7991,108.3
72.8227,225.9
72.8236,304.3
72.8284,166.8
72.8314,20.2
72.8322,102.5
72.8575,18.6
72.8707,452.7
72.8777,88
72.8921,483
72.9163,92.5
72.9352,125.7
72.9704,717.5
72.9972,105.3
73.0217,69.5
73.0225,458.4
73.0259,221.2
73.0321,361.9
73.0454,184.4
73.0551,119.3
73.0912,179.5
73.0989,500.2
73.1039,719.2
73.1104,361.7
73.1117,91.8
73.1215,16.3
73.1223,21.5
73.1269,477.3
73.1278,482.9
73.1406,166.4
73.1594,85.6
73.1647,631.2
73.1733,677.9
73.1762,204.5
73.2013,173.5
73.2105,329.8
73.2127,304.8
73.2217,104.9
73.2372,84.5
73.2447,93.1
73.2549,801.5
73.2667,470
73.28,394.3
73.2816,225.6
73.2984,232.7
73.3016,16.3
73.3078,192.3
73.3127,181.2
73.3138,349
73.3242,19.5
73.3563,134.5
73.3595,15.6
73.4097,420.4
73.4254,392.3
73.4387,481.4
73.4663,125.7
73.4729,17.3
73.504,406.7
73.5216,41.5
73.5656,300.7
73.574,208.9
73.5789,223.7
73.5798,75.3
73.5912,344
73.6152,253.5
73.6488,75.5
73.6643,153.7
73.6727,169.2
73.704,111.5
73.7088,547.7
73.7094,355.4
73.7176,21.2
73.7336,16.2
73.7352,147.8
73.7438,138.5
73.7449,440.1
73.7702,116.1
73.7951,115.2
73.8341,16.1
73.8359,233.7
73.8504,120.6
73.8582,18.8
73.8825,17.9
73.8912,102.8
73.9088,43.5
73.9228,512.7
73.9328,454.1
73.9452,87.2
73.9509,286.3
73.9581,247.7
73.9609,123.6
73.9628,423.8
73.9671,556.6
73.9758,385.1
74.0259,434.7
74.0315,131.9
74.0352,321.2
74.0472,701.5
74.0582,316.6
74.0598,5160.9
74.0764,404.6
74.0993,18.7
74.107,140.7
74.136,272.4
74.1381,16.2
74.1495,18.2
74.1553,302.3
74.1843,14.8
74.1852,492
74.2013,253.6
74.2227,502.8
74.2384,131.2
74.2736,456.7
74.28,85.1
74.2974,403
74.3178,104.1
74.3209,452.5
74.3314,108.5
74.3394,94.4
74.3418,102.6
74.3478,489
74.3483,90.8
74.351,143
74.3534,154.1
74.3649,105.4
74.3724,306.6
74.3825,411.5
74.3895,124
74.4297,101.2
74.4352,157.8
74.4739,324.4
74.4753,424
74.4899,41.5
74.4995,276.3
74.5054,97.4
74.5088,383.1
74.5526,19.7
74.5562,435.8
74.5606,21.4
74.5693,340.6
74.5855,16.4
74.6039,273.6
74.6055,92.5
74.61,199.2
74.6381,588
74.659,17.6
74.7029,114.3
74.725,210.5
74.7351,19.5
74.7444,646
74.7447,629
74.7908,581.2
74.7994,466.2
74.8067,190.8
74.8181,87.4
74.8238,95.7
74.8247,227
74.8388,550
74.8427,112.7
74.8535,105.8
74.857,89.3
74.859,170.9
74.87,467.3
74.8747,97.7
74.8866,675.9
74.9072,192.4
74.9291,188.7
74.9317,76.5
74.9456,533.6
74.964,97.3
74.9688,364.5
74.9699,76.9
75.0085,392.7
75.0336,491.9
75.0493,448.3
75.0499,97.1
75.0692,191
75.0716,18.8
75.0824,625.3
75.0927,51.8
75.1001,235
75.1102,152.7
75.1186,728.5
75.1359,468.2
75.1533,100
75.1592,43.6
75.1642,17.2
75.2749,464.7
75.2872,273.2
75.3141,134
75.3229,98.1
75.328,84.2
75.3293,127.3
75.3518,79.2
75.3659,199.1
75.401,210.9
75.4087,464.6
75.4226,288.8
75.4679,90.8
75.4841,98.8
75.5231,76.4
75.5404,463.8
75.6168,89.9
75.6297,113.9
75.6301,18.6
75.6318,208
75.6452,494.9
75.6468,81.7
75.652,19.2
75.6612,448
75.6638,128
75.684,19.4
75.6856,212.6
75.6934,242.1
75.6981,106.8
75.7309,16.9
75.7488,18.7
75.7528,86.4
75.7652,270
75.8089,432.7
75.8328,300.6
75.8438,87.6
75.8587,100.6
75.8612,114
75.8701,507.9
75.9277,96.3
75.9414,471.2
75.9442,537.3
75.9533,373.1
75.9577,223.1
75.9623,282.7
75.9628,109.1
75.9673,17.8
76.0022,486.7
76.0156,733.8
76.0211,92.7
76.057,450.7
76.0596,209.7
76.0736,107
76.0804,16.1
76.091,522.8
76.1125,440.5
76.1289,350.5
76.1484,143.6
76.1565,421.4
76.1612,388.5
76.1843,268.8
76.2158,100
76.2308,110.9
76.2325,412.7
76.2447,104.2
76.2543,121.9
76.2556,334.9
76.2999,429.9
76.3025,145.3
76.3155,18.8
76.3178,102.2
76.3189,91.3
76.3395,509.8
76.3545,15.9
76.3642,16.6
76.3823,18.9
76.3829,122.5
76.4014,268.2
76.4084,668.8
76.4545,20.1
76.4999,492.8
76.5112,259.2
76.5325,588.7
76.5382,354.2
76.5442,168.5
76.5725,19.6
76.5758,521.6
76.5872,622.9
76.6055,121.4
76.6143,17
76.63,476.8
76.6669,243.3
76.6887,259.4
76.7212,107.4
76.7562,19.6
76.7601,422.2
76.7939,198.8
76.7958,419.1
76.8049,431.4
76.8183,86.8
76.8204,1045.8
76.8396,433.8
76.8535,191.4
76.8586,201.9
76.8613,17.4
76.8755,444.7
76.8798,175
76.8881,138
76.891,101.9
76.894,145.7
76.9788,136.1
76.9867,172.5
76.9991,17.6
77.0082,406.7
77.0121,147.1
77.0144,427.8
77.0293,75.6
77.0343,707.6
77.035,31.3
77.0383,120189
77.0447,634.5
77.0516,202.6
77.0631,296.8
77.0653,513.3
77.0804,410.4
77.0928,83.8
77.1127,179.3
77.115,525.3
77.1244,97.5
77.1391,502
77.1431,336.1
77.1511,319.8
77.156,412.4
77.1609,247.1
77.1641,16.7
77.1923,171.1
77.2016,202
77.2054,92.1
77.2148,358.8
77.2243,239.2
77.2518,258.9
77.3193,17.5
77.3407,640.5
77.3582,265.3
77.3905,457.6
77.4108,17.1
77.4176,448.1
77.4675,163.4
77.4678,106.2
77.4754,195.9
77.4856,106.6
77.5169,206.4
77.5222,90
77.5433,641.1
77.5435,639.1
77.5549,390.6
77.5629,16.2
77.569,375.5
77.573,381.7
77.5769,18.9
77.6067,136
77.6085,552.5
77.6198,560.9
77.6367,214.1
77.6371,220.1
77.6465,428.8
77.6833,110.1
77.7139,20.7
77.7195,16
77.7341,51.6
77.7531,343.7
77.7627,715.6
77.7753,383.8
77.7773,415.3
77.8123,144.3
77.8171,165
77.8179,85.1
77.8206,17.5
77.8263,96
77.8275,105.3
77.8486,18.8
77.9041,355.4
77.9262,294.5
77.9483,45.2
77.965,124.2
77.9776,333.2
77.9886,108.5
78.0008,368
78.0096,139.2
78.0253,437.9
78.0269,163.7
78.0385,21.1
78.0417,3481.2
78.0461,19.7
78.0483,297.1
78.0525,356.3
78.1112,492.1
78.1134,17.8
78.1221,267.5
78.1635,117.5
78.1877,400.1
78.1963,93.8
78.198,17.5
78.2182,327.4
78.2276,448.8
78.2311,214.5
78.2476,267.6
78.2501,147.3
78.2706,282.8
78.2858,196.7
78.2943,102.8
78.3174,117.5
78.325,126.6
78.3301,90
78.3318,362.2
78.3337,17.2
78.3501,16
78.3754,293.4
78.3852,116
78.3987,15.4
78.4059,260.1
78.4105,461.3
78.415,85.7
78.4176,110.7
78.4416,96
78.4577,18.2
78.47,178
78.486,20.3
78.4879,465.7
78.5625,640.1
78.5652,101.2
78.5754,312.2
78.5955,259.1
78.612,655
78.6234,15.8
78.6604,605.2
78.6776,80.2
78.6906,641.1
78.6921,690.8
78.715,90.1
78.7406,369.7
78.7568,80
78.7641,624.3
78.7855,363
78.8253,271.7
78.8381,90.4
78.8458,516.6
78.8768,111.2
78.9285,15.9
78.9376,294.5
78.9663,118.3
78.97,101.7
78.9968,221.1
78.9977,16.5
79.054,1991.8
79.0567,140.4
79.069,362.9
79.0787,107.8
79.1809,207.2
79.2123,102.8
79.2162,290.1
79.2216,123.4
79.2921,16.5
79.3133,351.2
79.3159,116.9
79.3293,100.6
79.3755,333.9
79.4011,602.2
79.4052,153.3
79.4291,137.1
79.4391,17.5
79.4416,225.6
79.4671,567
79.4723,267.9
79.481,188.1
79.4841,441.6
79.4962,119.5
79.5275,99.9
79.581,402.8
79.6231,99.4
79.6311,448.8
79.6496,110.6
79.6852,118
79.7013,688.3
79.7319,108.9
79.7572,91.1
79.7648,99.2
79.7949,203.1
79.8127,410.4
79.8171,130
79.818,274.9
79.8325,286.8
79.8969,85.3
79.9022,16.4
79.9093,19.1
79.9096,17.4
79.9401,596.2
79.9581,108.8
79.9771,75.6
79.9798,317.9
79.9967,299.4
80.027,453.7
80.0302,448.7
80.0971,106
80.1007,18.2
80.11,115.9
80.1142,91.4
80.1286,115.3
80.1288,91.7
80.1459,449.6
80.178,218.2
80.1938,324.5
80.2048,278.1
80.208,513.6
80.2316,418.2
80.243,194.1
80.2635,456
80.2683,234.4
80.2741,17.2
80.2959,504.1
80.3488,368.4
80.3663,602.2
80.3926,547.6
80.3978,304.1
80.4006,396.3
80.4027,122.1
80.4144,92.1
80.4284,40.6
80.4306,437.3
80.4793,290.1
80.4945,115.2
80.5093,419.2
80.5345,109
80.567,17.2
80.571,144.6
80.5745,284.5
80.5787,105.3
80.6559,774.7
80.6684,692.2
80.6813,215.9
80.7024,143
80.7153,308.3
80.7245,463.3
80.7327,526.6
80.7394,416.7
80.7497,468.4
80.754,16.5
80.7666,46.9
80.7916,219
80.7936,19.8
80.7993,156.1
80.8069,215
80.8114,498.6
80.8609,139.2
80.8626,251.3
80.8891,418.1
80.9106,151.5
80.927,309.9
80.9476,47381.7
80.9735,42.8
80.9771,436.2
81.0083,120.3
81.0296,392
81.0585,333.6
81.0593,372.9
81.064,84.5
81.0697,731.9
81.0706,663
81.0865,773.9
81.0875,439.7
81.0954,443.8
81.1103,105.6
81.1311,473.6
81.1398,2109.5
81.144,558
81.1452,317.5
81.147,113.2
81.1478,109.6
81.1512,231.2
81.1607,139
81.174,321.1
81.1776,282.6
81.185,373.7
81.1984,105.9
81.2313,319.7
81.2449,18
81.2461,411.9
81.2485,470.3
81.2724,116.8
81.2784,92.8
81.2832,86.8
81.2866,130
81.2962,266.6
81.3089,86.9
81.3252,130.5
81.3267,139.9
81.332,116
81.3469,273.2
81.3603,113
81.3719,196.5
81.3738,576.4
81.3897,217.3
81.3918,151.3
81.4124,184.3
81.4217,171.4
81.4318,21.3
81.4496,243.1
81.4802,106.9
81.4942,104.1
81.5005,116.1
81.5188,17.6
81.531,82
81.5365,21.9
81.5419,269
81.546,93.1
81.5897,351
81.5914,89.5
81.6368,241.6
81.6539,241.5
81.6805,296.8
81.6958,20.2
81.7129,269.8
81.7319,19.3
81.734,641.7
81.7476,104.6
81.7496,86.6
81.7656,317.9
81.7716,441.4
81.7747,392.4
81.7857,201.7
81.7902,490.2
81.8118,728
81.8125,16.5
81.8183,17
81.8198,109.2
81.8244,462.5
81.8327,180.7
81.8342,79.2
81.8419,97.2
81.8427,548
81.897,108.4
81.9021,49.2
81.913,17.5
81.9217,18.1
81.933,97.7
81.944,271.7
81.9814,18.8
81.9874,16.6
81.9879,14.7
82.057,254.2
82.0599,590.6
82.0686,205.5
82.0753,228.9
82.0947,129.8
82.0994,755.1
82.1035,15.9
82.1119,670.3
82.1197,374.8
82.1544,114.8
82.1736,176.7
82.1803,149.9
82.182,405.1
82.2253,18.3
82.2403,164.8
82.2702,167.3
82.2767,215.8
82.2793,164.4
82.2854,17.3
82.2997,84.2
82.3008,16.5
82.3738,84.5
82.4526,266.2
82.4625,74.7
82.4979,17.6
82.5115,427.3
82.5233,181.6
82.5438,84.7
82.5653,219.7
82.6038,627.4
82.6398,167.7
82.6511,147.5
82.6715,224.9
82.6805,411.6
82.6807,402.5
82.6983,95.3
82.7063,267.4
82.7231,158.8
82.7449,103.4
82.7574,116.3
82.7627,374.6
82.766,348.8
82.7706,144.8
82.773,434.8
82.8011,17.5
82.8226,195.2
82.8363,150.2
82.8884,19.7
82.9212,140.3
82.9363,99.9
82.9428,429.8
82.9447,12380.3
82.9545,432.3
82.9615,388.7
82.9645,296.3
82.9937,421.1
83.0213,18.8
83.0243,15.7
83.0288,271.3
83.0933,243.8
83.1024,324.2
83.1119,98
83.1151,569.4
83.1159,526.3
83.1214,602.4
83.1495,89.9
83.1587,17.2
83.1899,23.4
83.1953,211.4
83.2274,403.2
83.2296,159.7
83.2385,16.6
83.2444,317.1
83.248,209.7
83.2958,175.4
83.2979,282.7
83.3002,112.3
83.355,18.2
83.3559,354.1
83.3571,268
83.3618,465.9
83.3646,346.8
83.3805,690.6
83.3887,99.8
83.4113,17.4
83.4153,366.6
83.4306,106.2
83.4609,585.1
83.5011,54.8
83.5157,51.8
83.5171,289
83.5864,111.4
83.5914,18.9
83.6029,639.1
83.6388,161
83.6581,500.1
83.6766,229.2
83.6948,94.9
83.7045,101.2
83.715,662.4
83.747,45
83.7577,94.6
83.7845,242.1
83.81,107.8
83.8518,195.4
83.8702,40.3
83.9027,478
83.9124,18
83.9139,694.8
83.928,141.3
83.9334,226.6
83.9427,165.4
83.9474,266.9
83.9584,89.4
83.9762,378.8
83.9782,85.8
83.9805,81.3
83.983,109.3
83.9999,110.2
84.0113,158.2
84.0226,136.1
84.0317,17.7
84.0369,124.5
84.0442,1246.5
84.0713,48.9
84.0769,656.8
84.0771,702.3
84.0774,518.3
84.091,74.4
84.1225,427.4
84.1448,80.7
84.1474,284.4
84.1538,234.8
84.1661,234.1
84.167,202.1
84.1875,250.7
84.1957,459.7
84.2023,107.6
84.2208,176
84.2579,261.6
84.2792,262.2
84.2829,16.1
84.2976,94.1
84.3064,548.3
84.313,79.5
84.3165,279.7
84.3428,222.3
84.3532,135.8
84.3567,113.2
84.3751,427.2
84.4307,172.4
84.4311,220.6
84.4313,208.1
84.4335,409.2
84.4663,272.7
84.4859,48.6
84.5004,415.5
84.5016,266.7
84.5172,44.2
84.5532,472.8
84.5686,124.8
84.5899,18.1
84.6074,105.6
84.6219,484.2
84.6249,359.8
84.6277,168.9
84.6693,374.3
84.67,104.1
84.6898,252
84.7185,349.3
84.7663,104.7
84.7676,274.2
84.773,122.6
84.7777,594.7
84.7811,517.7
84.7966,163.5
84.8006,141.4
84.8269,347.5
84.8324,471.5
84.8597,338.6
84.8675,361.6
84.8705,311.3
84.8797,104.3
84.9055,84.4
84.9213,642.7
84.9346,559.6
84.9383,74.3
84.9466,17.9
84.9595,20362.9
84.9682,256.1
84.987,132.3
84.9889,328.3
84.9961,20
85.0006,171.3
85.0183,503.3
85.045,74.3
85.0549,628.7
85.0708,169.9
85.1208,218.2
85.1333,308.4
85.1469,97.6
85.1869,102
85.1985,207.7
85.2033,91
85.2288,362
85.2445,400.7
85.2476,484.8
85.2522,137.2
85.2606,452.8
85.2712,188.6
85.2839,95.3
85.2872,264
85.2943,161.9
85.2961,252
85.3017,149.1
85.3108,20.8
85.3646,673
85.3685,134.4
85.376,331
85.3823,266.7
85.4175,231.5
85.4366,86.3
85.4435,197.7
85.4663,17.5
85.4708,92
85.5062,21.1
85.5786,338.8
85.6193,99.4
85.6238,142.4
85.6369,135.4
85.6756,314.8
85.6981,80.3
85.7269,344.5
85.7298,343.8
85.7614,18.2
85.773,687.1
85.7896,99.4
85.8009,50.3
85.8027,287.5
85.8248,161.8
85.8457,270.7
85.8578,16.2
85.8698,618.8
85.8826,346.5
85.8888,379.3
85.9452,17.4
85.9513,261.2
85.9991,174
86.0232,49.6
86.0266,354.6
86.0413,402.5
86.0599,43787.5
86.0819,238.1
86.0962,105450
86.1049,86.2
86.1114,45.5
86.1411,194.1
86.1485,259.1
86.1597,90
86.1757,127.2
86.1815,167.4
86.1872,18.4
86.1922,16.9
86.2239,414.9
86.2774,159.2
86.2874,21.4
86.3452,162.7
86.3496,552.4
86.3514,22.5
86.3538,696.1
86.3773,429.5
86.3864,156.1
86.3905,141.7
86.3986,100.2
86.4079,19.3
86.4158,550.6
86.4414,16.9
86.4606,183.4
86.4821,107.7
86.4889,179.5
86.5043,100.8
86.5052,459.5
86.5641,110
86.5655,91.7
86.5743,142.3
86.5825,163
86.5851,555.5
86.6229,134.4
86.6289,152.1
86.6475,125
86.6698,19.5
86.6777,591.3
86.7094,81.4
86.7122,130.4
86.733,324.4
86.7588,201.2
86.7668,386
86.8344,230.4
86.9053,17.1
86.9435,272.5
86.9986,294.9
87.0072,468.4
87.0191,520.4
87.0226,229.3
87.0279,334.6
87.0284,228.9
87.0294,648.7
87.0789,187.5
87.0995,1465
87.1011,80.9
87.1149,157.6
87.1281,130.1
87.1308,18.6
87.1679,92.9
87.1691,350.1
87.17,465.7
87.1759,19.5
87.2096,230
87.273,181.4
87.2799,64.3
87.3046,122.7
87.3206,296.7
87.3489,737.3
87.3792,266
87.3902,95.6
87.4366,657.9
87.4435,72.7
87.4667,19.7
87.4996,115.7
87.5016,16.9
87.5208,139.8
87.5664,381.8
87.5785,20.6
87.5829,138.7
87.5993,526
87.6041,465.8
87.6125,376.3
87.6138,18.3
87.6488,416.1
87.6506,192.4
87.699,499.1
87.7297,310.8
87.7442,476.3
87.8103,387.9
87.8478,319.8
87.8646,455.3
87.8722,573.7
87.9198,398.6
87.9218,540.6
87.9311,295.1
87.9944,244.3
87.9999,237.8
88.0238,171.4
88.0275,380.9
88.0391,10250.4
88.0468,148.7
88.0478,228.5
88.0481,226
88.0908,44.9
88.1329,173.5
88.1459,652.2
88.1499,765.1
88.1518,140.9
88.1789,514.9
88.1919,508.8
88.1938,89.9
88.2061,328.5
88.2142,385.3
88.234,242
88.2927,20.4
88.3121,685.7
88.3303,115.3
88.3751,293.1
88.4887,305.7
88.5153,676.3
88.5262,99.1
88.5411,417.7
88.5607,131.4
88.5714,338.8
88.6072,484.9
88.6259,17.8
88.6406,106.5
88.6486,96.9
88.6916,476.1
88.6937,96.4
88.7091,409
88.7198,166.5
88.7677,111.8
88.7918,88.4
88.8719,149.9
88.8758,20.7
88.891,263.2
88.8961,419.6
88.9186,80.2
88.9358,733.8
88.9401,20
88.9485,283.2
88.96,612.2
88.9719,94.7
88.9748,448
89.0195,470.7
89.0413,339.2
89.0425,113.3
89.0705,366.7
89.0728,361.4
89.0747,280.9
89.0769,20.1
89.0957,187.6
89.1076,395.9
89.1558,377.7
89.1846,794.6
89.1962,185.6
89.2432,83.1
89.2585,17
89.2633,109.3
89.2663,95.2
89.2759,252.3
89.2884,16.9
89.3056,294.2
89.3078,533
89.3153,190.8
89.336,212.1
89.3458,19.4
89.3788,504.7
89.413,303.2
89.4184,313.4
89.4454,258.9
89.47,156.7
89.4762,771
89.4874,142.2
89.516,523.3
89.5423,291.1
89.5471,99.4
89.5586,102.1
89.5715,127.8
89.5905,188
89.5974,269.4
89.6095,339.8
89.6259,433.8
89.6372,114.7
89.6807,402.8
89.7171,130.4
89.7182,166.5
89.7726,219.8
89.8282,255.7
89.8369,112
89.8418,362.4
89.8459,20.7
89.8589,232.1
89.873,229.6
89.877,446.4
89.8963,428.2
89.8984,92.1
89.9009,128.4
89.9161,815.4
89.9379,555.1
89.9762,675.8
89.9879,110.1
90.0297,18
90.0306,206.4
90.0531,555.8
90.0865,509.6
90.0891,211.6
90.1036,498.3
90.1163,393.8
90.13,16.6
90.1424,124.2
90.1798,18.3
90.1892,581.6
90.2423,234.5
90.2571,19.5
90.2604,17.7
90.3215,477.2
90.363,454.7
90.4173,144.3
90.4232,170.6
90.4476,117.2
90.4494,142.8
90.4564,17.7
90.4585,90.5
90.4699,373
90.4713,124.4
90.4756,107.6
90.4944,284.5
90.5108,22.8
90.5326,263.3
90.5578,509.2
90.5604,438.9
90.5772,85.4
90.5814,118.8
90.5854,221.1
90.6213,17.3
90.628,206.4
90.6289,564.9
90.6357,150.2
90.6361,152.1
90.6729,195
90.7335,244.1
90.7409,42.4
90.7459,416.5
90.8082,179.4
90.8255,132.2
90.8429,18.6
90.8441,152.7
90.8635,428.8
90.8795,561.9
90.8828,350.9
90.8897,94.8
90.9046,95.7
90.9344,166.2
90.9456,493.9
90.9475,172.6
90.9487,154
90.9504,18.6
90.9544,145.2
90.9664,744.3
90.9765,12035.5
90.9774,129
90.9968,174.7
91.0024,420.5
91.014,96.3
91.054,2493.3
91.0818,17.8
91.089,154.5
91.1036,18.8
91.1128,459
91.1508,84.5
91.1886,57
91.2016,22.1
91.2063,712.9
91.2185,85
91.2358,18.5
91.2378,348.8
91.2438,280.1
91.2621,420.7
91.2756,120.3
91.2853,137.9
91.2946,345
91.2987,16.6
91.3154,337.4
91.3476,131.7
91.3553,112.7
91.3827,85.2
91.4498,95.3
91.4643,297.8
91.4807,441.7
91.4883,126.7
91.4908,105.7
91.5134,170.3
91.5138,169.3
91.5197,305.8
91.5277,567.7
91.5512,707.8
91.5997,103.5
91.6076,19.3
91.6513,44.5
91.6571,84
91.6585,636.3
91.6725,217.9
91.6737,167.2
91.6954,151.7
91.7324,142.3
91.7478,118.8
91.7707,645.1
91.7776,640.7
91.785,201.9
91.8277,94.6
91.8314,635.4
91.9492,109.8
91.9826,268.7
91.9844,328.4
91.9913,291.5
91.9963,94.1
92.0097,86.8
92.0105,419.3
92.026,492.9
92.0744,17.3
92.086,95.6
92.0913,615.6
92.1029,697.3
92.1055,289.9
92.1298,178.5
92.1586,16.5
92.1846,78.5
92.217,249
92.248,547.5
92.2999,403.7
92.3008,312.8
92.3217,168.7
92.3531,16.8
92.3634,242.3
92.3654,223.1
92.3716,344.4
92.3872,107.3
92.443,93.8
92.4574,222.1
92.5522,118.7
92.565,149.9
92.5668,46.7
92.6086,74.2
92.6096,453.3
92.6257,386.7
92.6992,364.8
92.7142,512.6
92.7199,40
92.7254,336.6
92.7369,17.1
92.7554,108.4
92.7655,144.4
92.7791,73.2
92.7837,449.4
92.8121,500.8
92.8123,505
92.8228,112.9
92.8776,942.9
92.9059,519.4
92.9223,585.8
92.9236,357.9
92.9331,563.9
92.9395,497.7
92.9477,181.6
92.9504,482
92.9532,528.6
92.9584,421.4
92.9654,305.9
92.9701,471.6
92.9875,112.2
92.9974,228.3
93.0023,500.9
93.0125,619.8
93.0158,113.7
93.0331,22.1
93.0436,133.4
93.0546,539.5
93.0572,27
93.0697,28.5
93.0923,436.1
93.1058,491
93.1159,340.4
93.1429,203.2
93.1476,74
93.1989,229.8
93.1999,261.7
93.2202,49.2
93.2289,404.3
93.2364,116.6
93.2393,525.6
93.2647,200.4
93.2701,156.6
93.2723,548.7
93.2771,520.5
93.2941,461.8
93.2981,170.4
93.3238,254.6
93.3255,87.9
93.3312,467.5
93.3341,381.5
93.3605,83.3
93.368,161.1
93.384,491.6
93.3855,280.3
93.4102,414.2
93.4148,128.2
93.445,173.1
93.4601,336.2
93.4893,265.8
93.5155,789.1
93.518,149.8
93.5336,303.4
93.5464,242.5
93.5493,148.6
93.5993,129.9
93.6933,19.7
93.7488,323.3
93.7857,94.7
93.7969,373.6
93.8293,166.1
93.8383,154.6
93.8417,392.1
93.846,238.6
93.8504,465.1
93.8873,93.2
93.8973,473.4
93.9121,265.9
93.9281,508
93.9506,299.6
93.9836,257.7
93.9965,557.2
94.0352,397.6
94.0391,29.3
94.0412,56327.8
94.059,296.2
94.0705,458.1
94.1524,76.5
94.1585,69.1
94.1587,71.5
94.1611,380
94.1668,378.4
94.1709,285.4
94.1907,361.5
94.1945,81.8
94.21,152
94.2334,94.7
94.2685,211.4
94.2856,387.1
94.2909,466.7
94.3055,361
94.351,461.7
94.3673,18.2
94.3754,786.6
94.3803,117.4
94.3842,21.3
94.4152,125.6
94.4339,20.3
94.4649,334.7
94.5007,106.1
94.5263,279.4
94.5521,678.5
94.5998,18.1
94.6275,169.7
94.6291,17.4
94.647,122.1
94.6817,514.5
94.6956,286.8
94.7094,92.5
94.73,83.2
94.7565,91.1
94.769,19.4
94.7804,478.3
94.7812,105.9
94.8114,73.9
94.8252,285.2
94.8258,90
94.851,513.5
94.8524,17.8
94.885,102.2
94.8991,713.3
94.9057,213.9
94.9126,698.8
94.9525,281.7
94.9702,350.6
94.9775,210.2
94.9931,137.3
95.0066,416.2
95.0116,97.5
95.0149,487.7
95.024,95.5
95.0356,23.1
95.0446,1138.1
95.0463,60.3
95.0466,55.4
95.0474,141.5
95.049,423901.7
95.0504,229.5
95.0513,70.5
95.0606,186.8
95.0624,73.9
95.0854,268.3
95.0893,49.9
95.0969,121.8
95.1143,114.2
95.1327,98.3
95.1341,105.1
95.1757,109
95.2278,96.5
95.2664,387.9
95.2785,116.3
95.281,504.4
95.2824,477
95.2844,18.3
95.2999,132.7
95.3174,531.7
95.3351,147.2
95.3419,513.4
95.3991,102.6
95.4158,547.1
95.4416,873.5
95.4443,22.9
95.4707,81.2
95.488,184.7
95.5018,511.1
95.5157,20.7
95.543,120.9
95.5496,123
95.5746,649.2
95.5968,267.4
95.6093,18
95.6119,177.7
95.6245,213.5
95.632,480.5
95.6401,148
95.6803,709.8
95.7158,252.6
95.7192,318.2
95.7315,304
95.7661,18.4
95.7689,809.1
95.7763,165.8
95.7848,19.4
95.8155,46.9
95.8307,575.8
95.886,17.4
95.9029,46
95.9098,100.3
95.9142,18.4
95.9207,447.3
95.9306,888.1
95.9501,402
95.9689,389.2
95.9934,257.1
96.0051,650
96.0062,19.5
96.0094,452.8
96.0197,113
96.0449,149.1
96.0523,20781.1
96.0593,296.3
96.1051,288.3
96.1081,277.1
96.1123,83.1
96.144,87.2
96.1666,285.2
96.1896,301.5
96.2092,162.7
96.2149,49.6
96.2624,301.8
96.3658,133.9
96.3669,253.7
96.3748,20.4
96.3946,636.1
96.3974,45.9
96.4032,360.9
96.4171,229.3
96.438,541.1
96.4673,107.3
96.4685,120.9
96.4805,294.2
96.4968,47.1
96.5335,534.9
96.5988,202.8
96.6015,112.4
96.619,126.1
96.6342,232.7
96.6908,512.3
96.7056,48.8
96.716,392.5
96.7219,537.6
96.7572,368.8
96.7902,284
96.8202,90.3
96.8267,232.7
96.8586,104.4
96.8918,133.6
96.8974,723.6
96.9216,164453.6
96.9304,222.2
96.933,218.9
96.9572,812.7
96.9797,111.7
97.0054,17
97.0074,179.6
97.0153,298.8
97.0427,664.8
97.0532,25.2
97.076,27.8
97.0776,447.9
97.0849,567.1
97.0928,432.7
97.0936,723
97.101,21.4
97.1087,511
97.1137,237.4
97.1976,104.3
97.2253,466
97.239,415.4
97.3614,581.4
97.367,274.7
97.3933,257.4
97.3954,82.9
97.3967,464.3
97.418,260.6
97.4435,569.6
97.4477,128.5
97.4497,532.7
97.4907,107.1
97.5011,129.6
97.5139,93.7
97.535,94.9
97.5582,103.6
97.5594,215.8
97.5693,274.7
97.6291,236
97.6308,280.7
97.6641,536.6
97.6787,437.6
97.711,327.6
97.7528,494.5
97.8262,373.5
97.8391,464.5
97.846,451.4
97.8593,314.4
97.9119,89
97.9267,554.1
97.9335,19
98.0157,535
98.0289,628.2
98.066,142.8
98.0707,170
98.1081,17.3
98.1194,63.6
98.1983,202.7
98.216,118.4
98.2468,688.2
98.3027,324
98.3239,467.9
98.347,518.2
98.3668,186.9
98.3764,492
98.3823,313.9
98.4083,93.7
98.4494,92.5
98.4549,381.8
98.4638,17.4
98.4649,191.3
98.469,89.6
98.4771,155.5
98.4906,194
98.5265,84.3
98.53,352.5
98.5948,572.9
98.601,116
98.6312,114.2
98.6561,245.6
98.6697,265.2
98.6758,410.7
98.686,86
98.7066,532.1
98.7349,477
98.7547,282.5
98.7652,257.8
98.7851,583.7
98.7877,92.7
98.8167,20
98.819,735.7
98.8244,656.2
98.8559,573.9
98.8585,17.6
98.8834,140
98.8856,504.6
98.9111,121.5
98.9187,45430.2
98.9197,5913.6
98.9274,370.2
98.9408,494.2
98.9708,90.2
98.9752,13122.3
98.984,86.6
98.9923,105.5
99.06,380.8
99.0737,168.4
99.0755,89.2
99.0916,48.9
99.1504,151.8
99.1512,313.8
99.1642,130.6
99.1669,182.5
99.1935,161.2
99.2085,257.2
99.2167,465.4
99.2236,124.5
99.2572,380.7
99.2591,451.6
99.2776,394.9
99.3294,136.4
99.366,281.5
99.3736,99.7
99.4229,192.3
99.4453,187.1
99.4557,187.1
99.4628,474
99.4742,129.6
99.5158,87.1
99.5251,152.9
99.5477,23.6
99.5543,368.7
99.5616,86.6
99.5772,431.3
99.643,414.7
99.6535,171.3
99.6861,337
99.7523,108.1
99.8044,251
99.8319,323.2
99.8365,510.4
99.8906,438.7
99.9115,515.2
99.9189,49.5
99.9228,200.2
99.935,525.3
99.962,285
99.9848,102.7
99.9889,18.9
100.0127,316.1
100.0527,624.1
100.0756,58
100.0848,18.7
100.1128,19.5
100.1336,144.8
100.1354,129.1
100.1456,497.4
100.1538,104
100.1616,241.6
100.1647,17.9
100.167,321.1
100.2333,102.6
100.2388,141.5
100.2558,601.3
100.2744,485.6
100.2836,394.7
100.3123,302.4
100.3148,118.2
100.3264,156.1
100.3371,89.5
100.3562,374
100.3666,18.6
100.3784,388.9
100.3966,430.3
100.436,17.1
100.4694,483.1
100.4883,270.4
100.4979,115.4
100.5131,477.2
100.5362,516.2
100.5416,421.5
100.5613,110.9
100.569,730.8
100.5822,25.2
100.611,472.2
100.634,137
100.6403,124.2
100.6698,643.1
100.6766,496.5
100.7952,86.8
100.8281,113.3
100.8321,515.3
100.8989,457.7
100.917,444.4
100.9404,540.2
100.9777,171.5
101.0009,109.3
101.0082,24.8
101.0121,215.5
101.0167,144.2
101.0228,259
101.0332,45.2
101.047,3457.9
101.054,21.1
101.0708,2339.4
101.0788,267
101.1125,427.3
101.2134,262.7
101.2138,259.5
101.2142,277.8
101.2208,471.9
101.2272,115.2
101.2455,230.9
101.2659,85.7
101.2823,170.1
101.2859,216
101.3145,497.3
101.3543,429.3
101.3791,20.5
101.3909,376.6
101.3954,171.1
101.4578,16.8
101.5111,368.5
101.5171,421.5
101.6371,270.4
101.7506,381.7
101.7927,93
101.8011,219.4
101.8031,169.8
101.8302,20.9
101.8386,553.4
101.8401,78.1
101.856,192.8
101.9044,88.3
101.9202,344
101.9326,19.6
101.9467,113.5
101.9694,121.4
101.994,17.7
102.0144,160.2
102.0279,118.6
102.0514,91.6
102.0549,6436
102.0959,105.5
102.1023,167.7
102.1094,269.1
102.1359,368.6
102.1409,466
102.1422,106.9
102.146,17.2
102.1763,151.1
102.1826,463.1
102.3517,157.1
102.4861,185.4
102.5025,587.9
102.5164,156.4
102.5356,312.5
102.5434,194.6
102.564,449.3
102.5848,90.6
102.5923,612.7
102.6095,96.9
102.6116,110.8
102.642,167
102.6633,217.1
102.6935,402
102.717,282.9
102.7219,99.7
102.7303,133.6
102.7585,139.5
102.7662,520.3
102.7809,137.6
102.8338,308.7
102.8395,149.4
102.8468,45.6
102.91,43.1
102.9291,459
102.9353,241.8
102.9702,649.6
103.0154,264.3
103.0281,351.2
103.047,373.6
103.0498,172.2
103.0541,338.8
103.065,163
103.0668,378.5
103.1003,382.1
103.1459,799.9
103.1714,19.2
103.1834,436.8
103.2135,208.6
103.3146,117.2
103.3418,427.5
103.3479,610.7
103.3808,516
103.4426,113
103.4665,139.5
103.4677,592.1
103.4827,126.2
103.5939,149.2
103.6235,127.3
103.6492,20
103.6535,17.6
103.6673,106.4
103.6792,114.4
103.6808,205
103.7026,19.2
103.73,592.4
103.7318,256.9
103.7848,144.5
103.7957,219.9
103.8255,85.1
103.8429,504.1
103.8478,22.6
103.8666,471.1
103.9057,149.9
103.9259,17.5
103.9652,21.9
104.0845,559.7
104.0873,102.4
104.0926,182.8
104.1048,654
104.1069,541151.6
104.1498,946.4
104.1992,223.1
104.2583,125.1
104.2619,457.7
104.2739,23
104.2825,128.9
104.3174,123.1
104.355,435.9
104.39,97.5
104.4004,107.6
104.4407,147.5
104.4614,230.1
104.4806,586.6
104.5357,22.5
104.5691,503.1
104.6174,81.8
104.6765,333.7
104.6923,119.2
104.7214,433.7
104.7404,16.7
104.7823,226.5
104.7973,565.3
104.7995,508
104.8323,97.1
104.8767,487.3
104.8875,341.8
104.9045,20.8
104.9077,28.4
104.9224,488
104.9229,428.8
104.9425,398.9
104.9632,160.5
104.9703,21.9
104.9922,1615.7
105.0274,704.9
105.0446,39473.7
105.0698,44.8
105.1102,18980.2
105.1217,207.4
105.2183,141.2
105.2754,78.2
105.3208,136.9
105.3442,482.2
105.3471,118.4
105.3562,227.3
105.3701,91.6
105.4077,168.9
105.4183,152.3
105.4193,145.6
105.4241,310.5
105.4351,17.2
105.4411,251.3
105.4557,530.9
105.4651,448.8
105.478,135.4
105.5051,158.7
105.525,522.7
105.5392,165.4
105.5443,369.9
105.5595,263.6
105.5816,135
105.5923,169.4
105.6096,369.2
105.6117,106.7
105.6256,442.9
105.6551,115.2
105.668,184.2
105.7011,18
105.716,17.8
105.7194,489.4
105.7676,107.5
105.7705,17.6
105.7784,152.7
105.82,368.4
105.8375,159.9
105.8843,204.3
105.8918,82.7
105.8948,206.9
105.9014,290.2
105.9037,16.5
105.9309,129.5
105.9585,94.6
105.9686,91.6
106.0139,96.6
106.0318,143.4
106.048,814.1
106.0748,151.3
106.0781,88.6
106.1122,162.9
106.1228,209.9
106.1372,18.7
106.2355,274.4
106.2379,17.3
106.3849,104.5
106.4133,295.7
106.4162,130.8
106.4588,280.4
106.4658,89.7
106.5572,272.9
106.5618,360.9
106.5688,495.6
106.6597,117.3
106.6749,718.9
106.6775,200.6
106.6919,17.3
106.6959,187.9
106.7174,586.5
106.724,99.8
106.7259,348.3
106.7346,245.4
106.7423,91.2
106.7513,475
106.7737,103.6
106.827,141.5
106.8448,269
106.8789,786.1
106.8851,108
106.8952,371
106.9191,82.7
106.9297,331.7
106.9505,3880.3
106.9918,108.5
107.01,489.4
107.0283,66.3
107.0309,25.6
107.049,521.4
107.0537,90.4
107.0575,19.8
107.0619,136.4
107.0658,101.4
107.0862,362.1
107.0894,104.8
107.1486,148.5
107.1556,317.7
107.1742,134.5
107.1835,646.9
107.1883,275.1
107.2122,376.2
107.238,161.6
107.2508,176.2
107.2527,19.5
107.2852,761.2
107.2938,228
107.3183,297.8
107.3322,85.5
107.3442,121.4
107.3479,202.4
107.3489,47
107.3677,322.9
107.3697,298.2
107.3794,89.9
107.3881,76.5
107.4351,49
107.4369,475.7
107.5251,746.9
107.5339,169.4
107.5639,470
107.6484,83.5
107.6712,491.6
107.6803,512
107.6841,404.8
107.7097,114.8
107.7431,298.6
107.7694,95.3
107.7998,18.6
107.826,20.6
107.8328,193.7
107.8914,378.8
107.9024,103.2
107.905,772.3
107.9218,112.5
107.9491,458.2
107.9639,142.8
107.974,225.4
107.9933,191.7
108.0131,140.6
108.0414,110.9
108.0434,404.3
108.061,198.1
108.0801,257.8
108.084,124
108.1153,363.8
108.1201,88
108.1258,96.5
108.1932,18.5
108.284,281.5
108.2952,277.8
108.324,256.9
108.346,161.7
108.3785,228.1
108.3834,390.8
108.3908,16.8
108.4183,283.7
108.4599,93.3
108.4936,114
108.5123,454.1
108.5379,203
108.5978,276.6
108.6027,82.1
108.6463,234
108.7428,319.5
108.7451,315.8
108.7527,16.8
108.808,213.1
108.8378,244.6
108.8746,508.5
108.894,145.6
108.9047,110.9
108.9348,127.4
108.9422,424
108.9526,332.3
108.9631,220
108.9644,344.2
108.9692,500.3
108.971,18
108.9781,248.1
108.9935,101.4
108.999,217.2
109.0256,557.8
109.0424,467.7
109.0548,576.3
109.0623,33.6
109.0629,55.9
109.0647,57031.3
109.0996,139.4
109.1011,302.5
109.106,48.3
109.1253,314.7
109.1613,517.6
109.223,78.3
109.237,112.8
109.2686,101.1
109.2807,354.4
109.2928,20.2
109.3361,264.5
109.3375,134.2
109.3728,205
109.3891,18.7
109.4329,307.1
109.4438,238.9
109.4516,462.6
109.4568,41.3
109.4622,157.3
109.4708,205
109.5098,245.1
109.5406,105.6
109.5572,17.1
109.5623,252.5
109.5811,18.6
109.5867,433.7
109.6113,162.7
109.6217,463.1
109.6261,276.1
109.63,18.4
109.7193,335.3
109.7221,559.4
109.7389,182.2
109.7619,235
109.8666,191.2
109.8748,87.8
109.876,395.9
109.8855,234
109.9062,118.6
109.9088,109.7
109.9673,252.7
109.9726,117.1
109.9801,472.6
109.9852,119.4
109.996,187.2
110.0023,452.1
110.0223,106.3
110.056,622.1
110.068,1802.2
110.071,533
110.0832,650.6
110.0849,106.6
110.1252,157.4
110.128,17.8
110.1407,101.4
110.1464,163.1
110.2012,364.3
110.2658,213.8
110.3081,113
110.3669,20.4
110.3774,102.7
110.3802,17.3
110.4068,81.7
110.4194,111.7
110.4988,271.8
110.5017,134.5
110.5214,136.2
110.5318,446.1
110.5401,175.6
110.5488,415.6
110.5822,117.2
110.6008,126
110.6106,116.4
110.6192,635.5
110.7162,276.7
110.7211,23.5
110.7375,119.1
110.7428,126.1
110.7667,603.5
110.8152,187.3
110.8471,80.6
110.8758,103.7
110.9228,625.3
110.9343,104.8
110.9527,104.8
110.9837,101
110.9908,110.1
110.9955,137.6
111.0231,382.9
111.044,295.3
111.0474,520.8
111.0717,183.3
111.0915,21.4
111.1126,409.8
111.1141,181.6
111.1673,306.2
111.2438,114.2
111.2594,16.3
111.2888,446.9
111.3723,135.4
111.401,621.1
111.4093,545.9
111.4155,101.1
111.452,842.2
111.4723,471
111.4875,83.4
111.4918,234.3
111.4969,192.1
111.5013,181.4
111.5403,441.8
111.5422,388.9
111.5542,452.2
111.5877,83.7
111.5955,376.6
111.6342,43
111.6642,251.1
111.7102,181.7
111.7302,497.5
111.7329,184.5
111.7601,18.7
111.8211,18.1
111.8274,133.7
111.8801,118.7
111.924,20.3
111.931,134.5
111.944,18.9
111.9563,255.3
111.9587,268.7
111.9638,180.1
111.9878,16.2
112.0339,99.4
112.0523,18
112.0656,153.6
112.1014,629.8
112.1208,45.2
112.1397,89.6
112.1489,18.9
112.1551,113.9
112.211,98.7
112.2331,735.1
112.238,110.4
112.2519,83.9
112.2603,97.4
112.2636,253.6
112.3038,522.5
112.3132,116.9
112.319,393.6
112.3249,19.2
112.3481,103.2
112.3664,730.1
112.39,466.6
112.3962,484.5
112.4205,484.6
112.4327,105.5
112.4861,151.5
112.4886,106.5
112.5277,109.1
112.5311,429.8
112.5348,125.6
112.5575,73.3
112.5602,18.5
112.5829,111.8
112.6446,335.9
112.6602,463.9
112.6899,103
112.6976,89.5
112.7163,91.3
112.7304,212.4
112.7402,19.2
112.8043,315.6
112.8125,135
112.8485,198.7
112.8794,127.1
112.8808,216.1
112.8956,495677.5
112.9102,107.5
112.9429,191.1
112.9844,261.9
112.9986,80.9
113.0542,362.6
113.0724,42.4
113.0784,343.5
113.1072,20.9
113.1372,18.1
113.1393,489
113.1758,220
113.2178,18.2
113.38,18.1
113.3858,311.6
113.4395,600.8
113.4541,17.6
113.4594,664.4
113.4841,312.7
113.494,662.2
113.5701,298.5
113.5992,705.8
113.6505,164.5
113.6732,130.9
113.6787,405.7
113.7431,130.7
113.7449,556.2
113.7814,133.3
113.7911,192.9
113.796,410.9
113.8588,282.8
113.8625,287.8
113.9597,298.3
113.961,504.9
113.9838,19.7
113.9959,617.8
114.0006,21.1
114.0312,553.1
114.0549,62554.3
114.0573,266.4
114.0662,797.9
114.0887,628.9
114.0894,641.3
114.1357,124.1
114.2726,401
114.2922,133.8
114.3303,20.5
114.386,95.3
114.4366,100.2
114.4613,87.2
114.517,21.6
114.533,498.5
114.5849,467.2
114.5914,136.9
114.5977,123.3
114.6401,320.9
114.6576,271.2
114.668,363.9
114.6789,82.7
114.7417,337.6
114.8292,107.9
114.8646,164.6
114.8675,236.2
114.8849,256.4
114.8927,152474.5
114.8985,89.6
114.8995,86.5
114.9483,19.3
114.9858,18.6
114.9894,108.2
115.0367,18.5
115.0582,1383.1
115.0864,418.2
115.1233,211.5
115.1359,160.5
115.1718,588.8
115.2052,102.1
115.2208,107.1
115.2759,18.2
115.3243,104.1
115.3262,86.2
115.3381,18.1
115.379,296.8
115.3955,96.2
115.4022,547.5
115.4381,787.1
115.4427,389.3
115.4452,45.9
115.4591,178.7
115.4961,584.7
115.5082,430.7
115.5511,351.8
115.5744,20.6
115.6547,146.9
115.6653,173.4
115.7256,131.1
115.7585,146.5
115.7696,413
115.7922,114.5
115.8129,609.4
115.8327,17.6
115.8414,309.2
115.8672,18.4
115.8936,427.7
115.9116,771.2
115.9204,503.4
115.9438,470
115.9592,19.8
115.9741,493.5
116.005,131.1
116.0175,228.1
116.0241,95.4
116.0269,105.4
116.0349,93.7
116.0481,114.7
116.0705,5023.4
116.0929,48.3
116.1404,724
116.1877,436.4
116.198,81.9
116.211,169.2
116.2153,20.1
116.2366,324.5
116.3821,130.8
116.4197,185
116.4335,213.4
116.6167,273.2
116.6399,101
116.6559,117.5
116.6681,294.7
116.6776,206.3
116.6938,355.4
116.7158,110.1
116.7265,122.8
116.7284,49.5
116.7358,123.4
116.7867,114.8
116.8354,110.1
116.8509,436.5
116.8908,17748.2
116.9234,134.1
116.9504,203.3
116.9726,144.7
116.9858,2053.1
117.0738,519.7
117.0754,188.6
117.1149,426.5
117.1831,133.6
117.2632,107.7
117.2806,137.2
117.3051,44.5
117.3147,89.2
117.3575,355.8
117.3953,142.5
117.4124,18.2
117.447,224.6
117.4522,519.2
117.4813,148.9
117.4883,243.9
117.535,132.8
117.547,17.8
117.5528,365.8
117.5762,139.2
117.6003,117.5
117.6482,406.2
117.6668,709.8
117.7345,292
117.751,188.2
117.7903,356
117.8123,17.5
117.8424,99
117.8485,742.1
117.8599,138.3
117.8679,652.4
117.8944,446.4
117.8994,442.4
117.9435,181.5
117.9481,536.7
117.9582,635.8
117.9594,117
117.9859,727.1
118.0057,231.6
118.0407,93.7
118.0461,98.4
118.0497,19
118.062,155.3
118.0695,296.9
118.0979,153.8
118.1013,218.4
118.1032,444.9
118.1372,218.8
118.1633,152.2
118.2418,117.9
118.284,18.1
118.3,44.3
118.3204,44.9
118.4019,145.1
118.4237,19.5
118.4323,152.7
118.4341,89.2
118.5087,433.8
118.5543,595.6
118.5641,112.7
118.5809,104.1
118.5822,150
118.6038,105.9
118.6351,357.9
118.6531,243.8
118.6614,17.5
118.6628,409
118.7029,503.4
118.7267,186.5
118.7331,423.4
118.7515,358.7
118.7718,421.1
118.776,18.6
118.7845,94.9
118.8611,256.2
118.921,117
118.9225,281
118.9653,282.2
118.9789,39.9
118.9979,415.5
119.0492,296
119.0612,142
119.0844,144
119.0857,250.7
119.128,136.3
119.1442,112.8
119.1703,122.8
119.2905,17.7
119.333,121.2
119.3337,165.2
119.3518,126.8
119.3532,91.1
119.415,376.6
119.4182,99.3
119.4202,359.8
119.4308,128.8
119.4422,16.9
119.4463,131.5
119.4801,109.1
119.4857,341.2
119.5096,261.6
119.5322,18
119.5333,159.8
119.544,476.3
119.5684,274.8
119.5995,180.3
119.6791,391.8
119.7154,428
119.7198,350.3
119.721,130.5
119.7884,88.8
119.7936,458.9
119.8013,557.5
119.8065,420.3
119.8083,82.4
119.8137,497
119.8372,416.6
119.8667,378.1
119.8953,126.1
119.9614,283.1
119.9652,328.3
119.9731,602.1
120.0031,6223.5
120.019,106.1
120.0807,23690.9
120.1172,21.4
120.1358,99.2
120.167,18.1
120.1686,90.9
120.1917,16
120.2537,19.1
120.2776,15.6
120.29,694.4
120.2937,494.2
120.2994,622
120.3399,106
120.3678,101.8
120.4033,95.3
120.4052,315.4
120.4287,218.6
120.4354,17.8
120.4599,19
120.4922,188
120.519,776.2
120.5315,103.7
120.5958,286.7
120.6222,97.7
120.6292,90.7
120.6321,156.7
120.6929,24
120.754,93.1
120.7806,175.5
120.7874,133.7
120.8066,125.6
120.8722,18.7
120.8895,335.6
120.905,162.6
120.9545,179.3
120.9629,436.9
120.9807,151.8
121.0075,401.4
121.0117,195.9
121.0285,596.5
121.0396,70.6
121.1006,467.3
121.1321,197.6
121.1609,129
121.1675,19.8
121.1782,18.9
121.2295,477.3
121.2444,18.4
121.2673,289.1
121.2916,598.9
121.3107,565.1
121.3901,100.3
121.42,474.4
121.4356,97.3
121.4753,91
121.4807,121.6
121.4953,197.5
121.5297,275.2
121.5504,133.4
121.5563,278.6
121.5755,95.9
121.5945,133.8
121.6034,250.2
121.6145,142.4
121.6236,119.6
121.6743,163.8
121.7044,307
121.7147,103
121.7304,18.1
121.7657,378.7
121.8067,17.7
121.8409,54
121.8425,153.5
121.8579,596.3
121.8641,444.9
121.8694,103.4
121.9085,86
121.9142,515.3
121.9295,89.2
122.0317,23.4
122.0405,138.7
122.052,540.4
122.115,357.6
122.1335,618.7
122.1478,364.4
122.1499,187.2
122.2076,106.5
122.2848,185.2
122.2882,169.9
122.3067,202.3
122.3241,372.5
122.3548,191.8
122.3601,127.5
122.3761,143
122.3888,153
122.4126,382.9
122.4512,171.3
122.4534,281
122.4673,403.1
122.5368,22.2
122.5681,100.9
122.6,123.3
122.6072,95.5
122.62,147.4
122.6216,168.3
122.6528,268.6
122.7018,288.6
122.7665,16.9
122.8145,16.5
122.8495,96.3
122.8626,241.1
122.9245,29132
122.9433,54.1
122.9609,105.5
122.9877,212.9
122.9985,101.3
123.0127,156.3
123.0258,536
123.0698,123.8
123.0815,119.8
123.0971,298.2
123.2146,88.5
123.2307,129.3
123.2867,84.5
123.3103,200.8
123.3237,246.7
123.3401,535.6
123.4061,284.7
123.4098,17
123.4133,123.7
123.4415,15.6
123.464,124.7
123.5276,22.9
123.5571,84.5
123.6175,44.4
123.6349,673.6
123.6759,18
123.6928,245.8
123.7618,161
123.7899,441
123.8386,17.6
123.8544,108.4
123.8721,151.8
123.8803,404.5
123.8988,116.8
123.9795,694.3
124.0262,344.7
124.1346,99.3
124.2025,237.1
124.2378,18.5
124.2971,311.1
124.3693,330.1
124.3824,471.3
124.4,487.6
124.4197,123.2
124.4498,85
124.4511,153.4
124.4965,392.5
124.5012,89.2
124.5519,141.4
124.5776,389.6
124.6648,127.3
124.688,458.9
124.7044,18
124.7362,17
124.7475,45.9
124.7594,97
124.7706,315.4
124.8311,147.3
124.8613,202.6
124.9035,304.8
124.9226,3283.7
124.9316,175.1
124.9362,233.6
124.9544,32.9
124.9579,320.1
124.9872,250.6
124.9918,164.1
124.9998,7257.3
125.0055,331.4
125.0365,84.9
125.0388,274.7
125.0487,304.4
125.0597,50.2
125.108,436
125.1083,435.5
125.1107,414.6
125.112,118.5
125.1543,262.2
125.1564,84.3
125.1827,421.2
125.2016,16.8
125.2315,136.4
125.2346,121.3
125.2611,127.2
125.4443,461.3
125.4615,156.6
125.4684,142.8
125.5013,256.7
125.5091,101
125.5614,16.9
125.6007,540.4
125.616,16.9
125.6448,215.1
125.665,94.9
125.6808,96.3
125.7151,244.5
125.7292,288.3
125.751,423.4
125.8037,104.4
125.8684,19.1
125.9177,87.6
125.9218,474.3
125.9296,191.2
125.933,206.9
125.9602,436.5
125.9935,50.7
126.0556,303.8
126.0888,1243.5
126.1019,287.7
126.1899,157.5
126.2172,395.2
126.2451,90.8
126.2602,108.4
126.2643,17
126.3116,268
126.3443,121.1
126.3529,373.1
126.4361,175.2
126.4594,421.7
126.4709,18.3
126.4872,144.2
126.5471,482.3
126.5673,714.1
126.5824,141.7
126.616,578.5
126.6421,140.3
126.6677,365.8
126.7561,86.6
126.791,182.3
126.8389,354.7
126.8647,142.8
126.866,18.3
126.9092,546.1
126.9535,228.4
127.0274,307.6
127.0406,354.5
127.0479,113.6
127.0646,289
127.094,522
127.1193,199.3
127.1581,268.9
127.1606,15.7
127.1708,96.6
127.1772,228.2
127.2075,512.7
127.2245,156.5
127.2815,171.8
127.2941,317.5
127.3097,164
127.3249,101.8
127.4068,379.6
127.4228,188.9
127.4392,570.7
127.4721,361.1
127.4963,592.9
127.5544,313.7
127.6043,20.7
127.6614,577.3
127.683,20.6
127.6994,18.5
127.7293,19.2
127.7566,261.5
127.7929,118.7
127.819,258.7
127.9134,635.1
127.9885,185.6
127.9951,586.4
128.0016,584.4
128.0537,276.1
128.0723,112.7
128.1104,171.9
128.1354,234.8
128.1564,123
128.1781,167.5
128.2138,265.4
128.2287,547
128.3113,233.4
128.3319,587.3
128.3794,292.5
128.3912,18.6
128.4134,228.1
128.4648,133
128.4677,298.4
128.5245,138.2
128.5749,220.8
128.5867,168.5
128.6105,204.5
128.6228,852.4
128.71,218.8
128.7128,538
128.7828,218
128.8522,200.4
128.8622,138.8
128.8871,116.1
128.9233,253.8
129.0032,1036.1
129.0053,528.2
129.014,288.6
129.0203,272.3
129.0488,122.1
129.0603,236.3
129.0659,278
129.0902,21.7
129.0976,515.1
129.0984,506.2
129.099,430.3
129.1023,2478.9
129.1072,343.9
129.1336,179.9
129.1425,461.6
129.1701,149.5
129.1721,126.1
129.1894,111.3
129.2942,17.6
129.3975,80.1
129.4356,557.5
129.4442,429.7
129.4461,752.1
129.4637,90.6
129.497,82.3
129.4984,217.3
129.5161,625.3
129.5243,1050.5
129.5457,107.9
129.5514,262.5
129.5572,299.8
129.5753,314.3
129.5949,176.6
129.5985,156
129.6218,126.9
129.6478,144
129.6672,503.1
129.7052,85
129.7373,387.2
129.8122,108
129.814,228.5
129.827,112.9
129.8983,143.5
129.9292,94.9
129.933,16.8
129.953,636.9
130.0239,126.7
130.0498,7549.5
130.0559,248.1
130.0806,577.7
130.1054,314.8
130.1851,20.3
130.1967,475.4
130.2494,549
130.2619,123.6
130.2687,536.2
130.3302,79.6
130.3777,94.7
130.39,267.1
130.4227,458.8
130.4401,473.7
130.5078,288.9
130.5265,442.6
130.5342,227.7
130.5564,105.3
130.5776,121.6
130.6215,98.1
130.6351,149.4
130.6416,163.3
130.7105,919.1
130.7662,459.5
130.8349,223.7
130.8563,254.7
130.8785,383.5
130.9068,173.7
130.9083,416.7
130.9927,319.7
131.0055,217.8
131.0072,16.8
131.0206,19.6
131.0312,18.3
131.0865,223.9
131.1134,120.8
131.1561,19.4
131.1787,256.8
131.2365,150.5
131.2418,295.9
131.2633,199
131.2757,80.7
131.3164,86.2
131.3191,659.6
131.3259,231
131.4443,123.4
131.4964,290.5
131.5064,525.8
131.5114,154.9
131.5224,145.3
131.5249,373.4
131.5473,497.5
131.5795,251.5
131.6741,80.3
131.6808,237.8
131.6876,87.7
131.7322,478.6
131.7343,415.9
131.7566,482.2
131.8676,51.1
131.8736,396.3
131.9757,18.7
132.0032,23184.4
132.0146,206.5
132.0178,17.6
132.0616,102.9
132.0655,105117.5
132.0949,286.5
132.1624,810
132.2136,18.9
132.2488,118.2
132.2568,362.3
132.3066,48.4
132.3547,391.1
132.3793,128.5
132.391,44.2
132.4265,44.5
132.5721,514.8
132.5936,132.3
132.6272,398.7
132.6661,156
132.6948,104
132.7215,120.4
132.759,517.6
132.8118,229
132.8559,296.1
132.8802,242.2
132.9252,116
132.9283,265
132.9291,273.2
132.9353,105.1
132.9581,22.9
132.9871,4394.3
132.9998,450.6
133.067,354.6
133.0689,3003.5
133.0812,465.1
133.0971,19464.2
133.106,81.6
133.1692,123.7
133.185,108.2
133.2181,578.5
133.2346,100.4
133.3466,85.9
133.377,175
133.3802,47.3
133.4282,563.3
133.4713,216.8
133.4785,84.2
133.4922,206
133.4946,20.6
133.5303,298.2
133.5488,597.4
133.5616,124.4
133.6117,16.3
133.6158,368
133.6689,160.4
133.6698,153.1
133.683,406.1
133.7194,369.1
133.7389,381.6
133.7499,491.4
133.7692,159.7
133.8326,122
133.8434,131.2
133.85,112.6
133.8527,335.7
133.86,134.2
133.8717,109.3
133.8927,172.2
133.9477,126.6
133.957,177.6
133.9629,213
133.9651,375.7
133.9882,105.4
133.9954,662.3
134.0188,18329
134.0992,86
134.2847,226.5
134.3834,80.5
134.4264,415.4
134.4717,106.8
134.4876,320.3
134.5094,18.7
134.5264,146
134.5367,361.7
134.6828,212.7
134.7082,257.7
134.755,328.8
134.8731,87.9
134.8754,487.4
134.9026,344.9
134.964,130.2
134.9965,60.9
135.0028,117868.9
135.0232,29
135.042,211.9
135.0601,150.5
135.0851,513.1
135.1169,22.8
135.1792,87.7
135.1871,189.6
135.1951,148.9
135.2706,106.3
135.3351,93.3
135.3732,179.1
135.396,146.8
135.4221,121.2
135.4267,17.5
135.4802,169.6
135.4993,176.6
135.6662,365.1
135.6916,480.8
135.7071,92.4
135.724,215.1
135.7278,113.6
135.8098,19.4
135.8218,551.4
135.8469,206.6
135.8634,596.4
135.8672,844.8
135.9356,206.4
135.9532,458.3
135.9594,100.9
135.9651,18.9
135.977,2876.7
136.0062,1751.9
136.0481,4950.5
136.067,118.9
136.0757,20668.1
136.119,304.9
136.1374,545.8
136.1626,134.2
136.1917,689.7
136.2253,672.2
136.2427,504.5
136.2627,222.6
136.3233,315.6
136.4265,21.2
136.4312,518.9
136.4898,368.1
136.5154,118.6
136.533,740.5
136.5535,80.9
136.5616,392.7
136.5628,378
136.5645,264.8
136.6121,221.8
136.7417,548.7
136.801,61.9
136.8092,173.8
136.8275,165.6
136.9311,1440.1
137.0141,746.5
137.0452,156
137.0722,336.7
137.0791,345.4
137.1371,116.3
137.149,568.7
137.1745,384.6
137.2242,630.9
137.2518,547.1
137.2725,238.2
137.3699,402.4
137.3962,84.5
137.4119,115.4
137.4498,113.8
137.4656,255.1
137.4746,333.3
137.5237,215.3
137.5921,334.9
137.5976,811
137.6422,125.5
137.702,19.8
137.721,359.5
137.7258,104.7
137.7322,167.8
137.7712,174.9
137.7933,246.6
137.8283,136.1
137.8419,148.1
137.8632,703.2
137.9089,57.3
137.9228,80.8
137.94,134.1
137.9579,192.5
137.9629,150.2
137.9696,46.7
138.0408,112.8
138.0526,5708.7
138.0662,66
138.1062,86.5
138.1329,20.9
138.1836,290.5
138.1859,433.2
138.189,42.8
138.1933,44.1
138.3063,545
138.398,128.2
138.429,226.9
138.4957,20
138.5338,20.1
138.5364,86.5
138.5508,106.3
138.5668,18.5
138.5695,466.1
138.6035,99.6
138.6533,22.3
138.6661,487.9
138.6772,122.3
138.6914,515.5
138.7609,513.9
138.785,303
138.8136,498.2
138.8683,118.1
138.8984,177.5
138.9064,1502.8
138.9244,219.7
138.9363,829.2
138.9771,139.9
138.9935,93.8
139.079,19.6
139.1015,728.1
139.1316,382.1
139.1594,143.3
139.2051,270
139.2329,616.9
139.2839,654.3
139.2959,357.1
139.3662,295.3
139.446,130.6
139.4582,511.1
139.5232,20.2
139.5802,21.3
139.6113,376.6
139.6318,207.7
139.6492,248.7
139.801,129.2
139.8274,235.5
139.8347,194.5
139.8656,19
139.9024,176.8
139.907,17.7
139.9118,302.3
139.942,688.5
140.0118,373
140.0165,1302.6
140.0346,161.6
140.0682,2036.1
140.0841,339.1
140.1562,172.4
140.1995,485.1
140.2155,110.5
140.2206,224.8
140.2259,392.9
140.2404,19.5
140.3505,181.9
140.3555,463.4
140.3813,430.8
140.3877,423.3
140.4419,251.7
140.4552,505.8
140.4728,237.6
140.5435,743.2
140.5465,317.6
140.5539,249.2
140.6071,156.7
140.7002,328.8
140.7358,111.1
140.7615,514.6
140.7642,102.9
140.809,204.3
140.8425,232.9
140.8579,105.3
140.9036,1071.7
140.9296,99.7
141.0005,16263
141.0197,21.5
141.0875,187.3
141.1489,485.5
141.2504,296.5
141.3146,317.2
141.341,125.1
141.3593,402.7
141.3917,161.5
141.4141,97.1
141.4639,309.2
141.5057,531.3
141.5704,415
141.576,134.9
141.6121,46.9
141.6777,51.8
141.6815,507.8
141.7682,164.8
141.8183,139.4
141.8855,532
141.8994,175.5
141.9078,119.4
141.9184,347.2
141.9648,521.8
141.9943,480.3
142.0038,664
142.0174,171.3
142.0474,744.3
142.0637,123.1
142.0737,137.4
142.1188,677.3
142.1227,23.6
142.1243,113.5
142.1355,281.8
142.1379,279.5
142.1394,93.1
142.1555,17.6
142.1859,432.1
142.3245,301.1
142.371,402.6
142.4702,462.7
142.4799,113.8
142.5055,155.6
142.5119,111.7
142.6521,18
142.7041,150.8
142.7665,176.1
142.8411,87.6
142.9389,179.5
142.9447,638.3
142.9624,749.5
142.9963,271.5
143.0102,179.1
143.0144,127.8
143.0189,1415.9
143.0502,111.7
143.0816,581.8
143.1048,158.8
143.1064,18.8
143.108,121.5
143.1269,411.7
143.1607,215.3
143.2254,438.6
143.2397,135.7
143.2729,235.6
143.3209,227.6
143.3282,124.4
143.3681,297.6
143.4679,114.7
143.476,123.9
143.4926,201.6
143.5544,282.3
143.5584,46.6
143.5692,123.2
143.5815,323
143.631,377.2
143.6412,87.4
143.682,301.7
143.6872,191.7
143.7545,686
143.7744,174.8
143.7809,132.3
143.8203,350.4
143.8228,471.9
143.8575,464.2
143.9086,182.4
143.9266,725.3
144.0106,23.9
144.0257,126.7
144.0342,166.6
144.0394,401.6
144.0665,242.3
144.1069,134.2
144.1317,16.9
144.1677,437.7
144.2011,465.4
144.2057,276.9
144.2306,456.3
144.2416,108.4
144.2614,179.9
144.2862,198.6
144.3308,132.7
144.3956,102.1
144.4358,385.5
144.445,373.7
144.5083,19.9
144.5166,21.4
144.5425,131.6
144.6119,369.8
144.7177,274
144.7432,123
144.7569,651.7
144.7652,345.3
144.8419,17.2
144.8629,18.2
144.8922,176.2
144.9266,20
144.9753,123.5
144.9809,3783.2
145.0818,236.6
145.1016,18.8
145.1164,102.5
145.1243,103.9
145.1368,136
145.2174,590.5
145.2626,236.8
145.3773,389.4
145.4029,199.7
145.4064,101.3
145.4109,566
145.4174,211.1
145.4629,214.1
145.4669,18.7
145.5219,108.4
145.5285,18.8
145.5622,20.4
145.5829,251.6
145.6395,649.3
145.6473,80.5
145.7121,85.1
145.7438,396.3
145.7509,104.8
145.7705,747.7
145.7917,193
145.8314,167.6
145.899,20.6
145.9554,962.1
145.9567,511.1
145.9575,752.2
145.9582,538.7
145.9646,550.9
145.9731,524.2
145.9975,383.7
146.0125,3625.6
146.0188,14474.1
146.0912,146.5
146.1211,361.5
146.128,417.6
146.2027,854
146.2272,52
146.232,600.8
146.2498,115.4
146.257,269.4
146.2953,17.9
146.3159,402.2
146.3555,16.9
146.3592,20.1
146.3702,700.1
146.4307,129.4
146.4717,540
146.5248,626.2
146.5386,213.7
146.5871,713
146.669,18.9
146.7382,362.5
146.7435,90.9
146.7591,316.9
146.8193,201.4
146.8462,445.4
146.9068,124
146.9181,210.9
146.9818,116311.5
147.0121,137.9
147.0764,60667.9
147.0799,162.2
147.1128,19720
147.117,508.7
147.1202,223.4
147.1299,286.7
147.1385,498.7
147.1505,103
147.2098,155.4
147.2383,17.8
147.3135,133.5
147.3258,21
147.3538,123.4
147.3678,622.1
147.3809,85.7
147.4082,136.8
147.5598,366.6
147.5635,339.2
147.6196,262.7
147.6296,513.9
147.6935,256
147.7155,93.4
147.7624,167.2
147.8716,219.8
147.8816,93.5
147.8877,88.4
147.9331,20.6
147.9643,107.7
147.9674,19.8
147.9918,99.1
147.9975,109.8
148.0069,90.7
148.1278,631.7
148.1719,309.3
148.1986,20.2
148.2176,17.4
148.2457,175.1
148.2921,695.6
148.299,319.3
148.3034,249.4
148.3648,154.1
148.4264,266
148.452,591.4
148.5257,17.9
148.5322,2814.2
148.5608,426.8
148.607,18.7
148.6156,519.6
148.6181,344.2
148.6465,329.3
148.7231,88.8
148.7958,19.2
148.8004,127.8
148.8052,166.8
148.8115,537.2
148.8395,113.9
148.8455,18.9
148.9319,83
148.9486,153.3
148.9612,3442.3
148.9755,287.2
149.0035,139.5
149.0186,768.7
149.0234,5183.6
149.0391,620.7
149.0449,101.1
149.0833,21.4
149.0922,21.1
149.1326,105.5
149.1955,283.2
149.2017,18.1
149.2182,18.1
149.235,23.6
149.2661,391.4
149.2835,249.4
149.2904,314.9
149.3241,161.4
149.3938,294.8
149.5484,200.2
149.5622,20.8
149.5711,569.7
149.5926,730.1
149.6696,131.7
149.6931,101.1
149.7198,493.9
149.7444,301.5
149.7582,370.7
149.7657,443.2
149.7697,131
149.8527,507.9
149.8875,383.4
149.8892,415.7
149.9136,26.6
149.9928,14045.7
150.0137,3880
150.0237,17.7
150.0272,849
150.0604,115.7
150.0664,124.5
150.1205,154.6
150.1333,486.8
150.1762,101.1
150.1866,191.8
150.2107,329.4
150.2437,113.4
150.3281,103
150.3814,20.2
150.4022,218.3
150.4148,220.9
150.4529,106.7
150.4537,98.8
150.4868,324.8
150.5327,287.2
150.6712,17.9
150.6785,359.7
150.6859,90.9
150.705,496
150.7145,581.8
150.7288,91.5
150.8659,158.8
150.8823,446.4
150.912,267
150.9768,86108.9
150.9841,319.7
150.9906,248
151.0066,17.3
151.0408,604.6
151.0477,1788.8
151.0884,252.5
151.0891,599.8
151.0895,578
151.1201,584.2
151.1265,146.6
151.1547,190.4
151.1607,484.2
151.2885,560.6
151.2981,129.9
151.33,268.7
151.3746,446.5
151.4614,644.1
151.5295,181
151.5626,159.1
151.6721,130.9
151.6968,492.3
151.7038,44.6
151.7436,119.8
151.7868,120.9
151.8444,162.9
151.877,604.9
151.9084,22.3
151.9512,1021.2
151.9691,138.6
151.9802,943.8
151.9928,278.8
152.0166,115.8
152.0221,12139
152.03,290.9
152.0318,1823.2
152.0353,350.5
152.0621,18.1
152.218,263.1
152.238,22
152.2618,95.5
152.3828,103.3
152.5585,454.6
152.6269,498.8
152.6339,276.1
152.6364,117.1
152.6766,569.8
152.6954,287.8
152.7127,110.9
152.7336,206.1
152.7357,17.4
152.8297,576.9
152.886,136.2
152.9527,463
152.9749,3909.9
153.0202,244.6
153.0344,157.7
153.0502,375.5
153.1078,192.8
153.1326,447.6
153.173,81.8
153.1992,666.2
153.2012,19.2
153.2278,155.1
153.2295,552.1
153.2699,20.1
153.2767,260
153.282,115.1
153.3266,129.7
153.3402,808.2
153.3475,160.6
153.3561,270.4
153.4428,511.8
153.4658,354.8
153.5122,164.1
153.5329,687.2
153.5899,570.1
153.652,166.7
153.6742,811.2
153.699,424.1
153.7146,17.2
153.7408,484.6
153.7757,109.2
153.849,18.4
153.8643,653.3
153.8834,111.6
153.9083,174.5
153.9565,373.6
154.0111,759.3
154.0266,458.9
154.0558,82.1
154.0855,98
154.092,760.4
154.1373,205.6
154.1633,531.6
154.1758,641.4
154.2412,66.2
154.2666,497.6
154.3398,315.3
154.3994,125.2
154.41,293.6
154.4258,278.7
154.4312,144.3
154.4448,179.2
154.4531,620.1
154.5347,376.8
154.5668,20.3
154.5695,96.2
154.6185,154.9
154.6801,564.3
154.687,128.6
154.689,260.7
154.7092,18.8
154.7167,349.9
154.758,103.7
154.7607,754.3
154.8093,325.4
154.8805,335.4
154.953,529.5
154.9628,624.2
154.9693,453.3
154.9883,477.6
155.0223,16.8
155.0427,1538.2
155.0494,637.9
155.054,6515.4
155.0789,573.2
155.1101,585.5
155.1649,524.6
155.2383,219.6
155.3459,389.4
155.4375,149.5
155.4452,531.4
155.4928,17.8
155.5085,611.3
155.5865,195.1
155.6927,144
155.7098,161.3
155.7215,85.1
155.7436,287.8
155.7692,96.1
155.7711,345.9
155.7941,18.6
155.8304,426
155.8356,528.3
155.8488,113.4
156.0119,16.5
156.0269,428.1
156.0421,4018.5
156.0573,23.9
156.0653,18.2
156.0768,50830.1
156.1293,20.6
156.1516,143.8
156.1586,249.4
156.1776,249.2
156.1962,92.6
156.1979,325.1
156.2014,19.5
156.2285,518.8
156.2312,19.8
156.2925,145.8
156.3042,111.1
156.3153,256
156.3583,696.1
156.3977,83.2
156.4226,224.7
156.4382,623.6
156.4439,246.3
156.4627,570
156.4865,306.3
156.5226,120.9
156.5873,144
156.6006,17.9
156.6379,545.2
156.6635,106.2
156.6831,149
156.7532,160.6
156.763,624.5
156.8259,360.2
156.8399,435
156.8496,729.3
156.871,21.7
156.9334,565.2
156.9746,21.2
157.0211,273.9
157.0508,153.8
157.0652,266.7
157.0804,867.7
157.0906,810.7
157.0972,405.2
157.116,132.5
157.2161,17.4
157.2266,447.6
157.2949,139
157.3274,43.9
157.3298,202
157.3575,622.9
157.3753,46.2
157.5048,438.3
157.5198,434.5
157.5265,166.8
157.5473,316.3
157.6072,203.5
157.6717,185.1
157.6969,485
157.6981,414.6
157.7141,203.2
157.7802,77.2
157.7974,44.7
157.8971,19.5
157.9099,386.6
157.9358,377.1
157.9709,155.6
157.9735,150.1
158.0271,3323.3
158.1101,223.5
158.1172,202.3
158.1345,46.9
158.1747,18.6
158.1867,101.3
158.2051,239.7
158.234,248.4
158.2901,505.7
158.3936,672.9
158.4513,23.6
158.564,554.5
158.5819,373.5
158.7648,111.6
158.768,92
158.91,402.3
158.9278,2940.7
158.9642,13020.4
158.9966,4104.1
159.0112,46.3
159.0252,111.6
159.0305,128.7
159.0463,289
159.0919,1094.4
159.1822,84.5
159.1869,115.8
159.3657,482.3
159.3675,352.5
159.3745,549.6
159.3864,548.6
159.4085,229.7
159.4521,282.7
159.4731,133.4
159.4847,259.7
159.5075,189.3
159.5262,101.8
159.5547,98.6
159.5615,229.9
159.5642,111.2
159.6576,98.1
159.7467,538.5
159.7796,558.3
159.7997,356
159.8171,139.4
159.8223,178.1
159.8302,19.6
159.8397,92.8
159.8423,92.5
159.8719,239.3
159.9608,135.8
159.9642,292.6
159.9756,17.6
160.0221,506.9
160.0346,18630
160.0605,139152.3
160.0927,135.5
160.0963,297.2
160.1196,117.1
160.1374,214.5
160.2086,18.9
160.2556,86.9
160.2938,446.3
160.3151,147.4
160.3488,672.6
160.3757,517.8
160.4071,279
160.4196,521
160.4286,438.6
160.5168,379.6
160.5811,106.3
160.5981,517.3
160.6014,168.2
160.6161,18.7
160.6429,96
160.6945,423.6
160.7174,18.8
160.7417,101
160.7775,272.3
160.8446,670.6
160.8975,531.5
160.923,244.5
160.9281,297
160.9399,793
160.9937,339.6
160.9968,472.5
161.0028,256.5
161.0142,364.8
161.059,296.9
161.0639,6103
161.0867,19
161.1009,18.2
161.1322,295.7
161.1462,451.9
161.1516,534.3
161.166,45
161.2047,17.5
161.2564,149.9
161.2698,91.4
161.3154,431.8
161.3352,102.2
161.3415,97.6
161.3535,615.2
161.4315,18.4
161.5133,86
161.6051,166.2
161.6798,111.7
161.7317,140.4
161.8081,500.9
161.8846,448.6
161.9039,292
161.919,752.6
161.921,362.5
161.9467,178.3
161.9704,181.6
161.9763,163.2
162.0078,267
162.0503,19154.3
162.0618,99.2
162.0787,16.9
162.1127,86.8
162.2129,16.9
162.326,249
162.3586,147.8
162.3698,17.4
162.3878,414.6
162.3904,601.1
162.4153,688.6
162.4707,383.4
162.4836,527
162.5129,217.4
162.5291,397.2
162.5711,81.9
162.6196,390
162.6787,215.6
162.691,139.1
162.6996,22.6
162.7278,74.4
162.802,17.2
162.8366,511.2
162.8463,121.2
162.8582,112.8
162.8816,113.2
162.9434,100.2
162.9468,570
162.9557,5139.2
163.0022,388.1
163.0157,1066.6
163.0214,18.3
163.0341,503.8
163.0417,19.4
163.0569,158
163.0704,245.3
163.0732,177.3
163.0761,395.3
163.1229,490.3
163.1274,498.6
163.1483,117.2
163.2071,535
163.2188,53.2
163.2366,87.4
163.2479,105.6
163.2498,278.2
163.301,466
163.3127,90.4
163.3955,86.1
163.3994,551.8
163.4346,208.5
163.4463,518.6
163.4524,100.7
163.5345,101.2
163.5479,248.8
163.5707,18.5
163.586,94.5
163.6317,249
163.6328,169.1
163.6343,271.5
163.6438,269.4
163.6448,273
163.6557,200.8
163.6632,210.8
163.7134,451.1
163.7173,20.5
163.7498,291.4
163.7862,469.6
163.8002,225.7
163.8167,100.4
163.8535,480.1
163.8989,18.2
163.9082,488.1
163.9621,189.6
164.0085,818.7
164.0295,13896.1
164.0323,399.9
164.0966,351.8
164.19,140.5
164.2034,118.6
164.2604,566
164.2731,163.3
164.2803,113.7
164.2905,496.8
164.3131,19
164.3533,18.8
164.3807,99.4
164.4648,18
164.5601,550
164.566,170.3
164.5838,371.8
164.6792,126.7
164.7528,323.4
164.9032,680.5
164.9206,5312.5
164.9301,11815.1
164.9351,2069.9
164.9601,254.6
164.9924,381.8
165.0022,258.7
165.0055,752.1
165.0374,83.7
165.0424,96.3
165.0579,603.3
165.0634,630
165.0911,431.2
165.1596,448.5
165.2809,511.9
165.294,508.9
165.3079,17
165.3484,506.7
165.3523,523.7
165.4226,252.2
165.4277,443.1
165.4736,17.6
165.4778,97.3
165.4939,241.5
165.621,120
165.6266,469.5
165.6724,473.8
165.7268,549.6
165.7801,131.7
165.7945,331.5
165.8879,575.4
165.9281,104.7
165.9359,310
165.9377,111.2
165.9667,3537.8
165.9788,1076.9
165.9878,4458
165.995,45.3
166.0073,379.4
166.1468,172.2
166.1863,392.8
166.237,108.8
166.3296,163.1
166.334,263.9
166.3365,17.9
166.3412,149.8
166.3779,501.6
166.4005,115.1
166.4034,474.9
166.4271,293.5
166.4653,133.7
166.5309,487.6
166.5783,112.7
166.6258,18.9
166.6479,176.5
166.7181,233.5
166.7683,18.2
166.9053,577.2
166.9332,400.7
166.9508,37524
166.9592,282.2
166.9629,659.4
166.9893,472
167.0077,96.8
167.0218,4830.4
167.0763,341.2
167.1088,174.7
167.1191,127.1
167.1616,162.4
167.2286,136.1
167.2409,109.2
167.2705,194.3
167.3354,126.8
167.3498,104.5
167.5211,414.9
167.6005,121.4
167.7178,235.3
167.8121,223.3
167.8258,83.8
167.8627,460.1
167.9543,485.9
167.974,20.4
167.9945,3422.1
168.038,194
168.1639,106.9
168.1723,177.5
168.2663,89.2
168.3198,373.2
168.3619,377.3
168.3887,372.8
168.4057,441.9
168.5402,523.6
168.5741,437.1
168.6667,109.2
168.7793,536.7
168.7971,16.8
168.897,90.4
168.9135,726.9
168.9489,3843.1
168.9779,20.1
169.0584,42817
169.065,723.3
169.0695,425.3
169.0777,103.6
169.0886,18.5
169.0906,298.3
169.0974,1132.9
169.1122,171.8
169.1147,621.7
169.1194,195.2
169.362,299.1
169.5674,486.8
169.6408,303.6
169.6522,120.7
169.7581,522.7
169.7912,472.7
169.8791,386.1
169.8934,187.1
169.9148,46.1
169.9709,124.9
169.9859,2392.8
170.0221,503.1
170.0328,1129.5
170.0617,1185.4
170.0925,617.1
170.1033,208.4
170.1093,305.4
170.1254,352
170.1857,19
170.189,154.4
170.2029,261.2
170.3426,19.5
170.3512,481
170.4197,131.3
170.4709,292.8
170.5435,220.8
170.5478,375.9
170.576,457.3
170.6583,498.4
170.719,118.2
170.7427,357
170.8055,232.1
170.8465,315.5
170.8544,5469.7
170.8816,603.3
170.9164,84.9
170.9179,89.6
170.9531,112.4
170.9911,21.1
171.0167,370.2
171.0206,88.5
171.028,593.7
171.0531,550.4
171.0619,293.4
171.0783,141.6
171.1464,571.5
171.3356,49.1
171.3981,169.3
171.4209,294.3
171.4418,185
171.4453,52.3
171.5697,105.2
171.6902,98.8
171.7361,117.9
171.7803,21.3
171.8151,92.2
171.8555,374.3
171.8777,205.2
172.0008,17.8
172.0283,1946.7
172.1055,626
172.1901,42.3
172.196,92.2
172.216,430.4
172.2196,91.8
172.3762,218.7
172.4244,16
172.435,514.4
172.4885,19.4
172.4905,125.6
172.5531,48.5
172.647,115.8
172.7855,155.1
172.8514,2422.6
172.8811,518.7
172.9342,429.9
172.9545,235.8
172.9671,807.3
173.0166,660.2
173.0204,149
173.0269,278.8
173.0299,831.6
173.0962,153.4
173.2245,118.5
173.2657,162.9
173.2896,508.1
173.2999,519.5
173.4786,555.9
173.5614,507.4
173.5694,277.7
173.6015,81.5
173.7061,110.3
173.708,404.6
173.7154,103.6
173.7662,239.4
173.8733,172.6
173.8762,333
173.9258,96.8
173.9719,399.4
174.0107,108.9
174.1825,17.1
174.2612,92.2
174.3994,259.8
174.4426,169.3
174.5274,446.3
174.55,21.8
174.7896,362
174.8677,140.9
174.9071,18.3
174.9312,277.1
174.9338,314.9
174.9382,7089.5
174.9466,651.9
175.022,88.7
175.0343,8675.2
175.0457,1744.6
175.0526,17.5
175.0577,1089.2
175.1133,21.9
175.1191,61392.1
175.1523,17.9
175.2465,832.3
175.2494,134.8
175.3773,534.1
175.4165,16.3
175.4756,760.1
175.4871,106.6
175.4974,522.4
175.5108,22.2
175.6172,405.7
175.6295,530.2
175.6934,161.9
175.7035,19.4
175.7162,96.8
175.7198,21.2
175.7239,127.3
175.7957,692.9
175.8754,41.4
175.951,276.3
176.0086,12116.4
176.0517,347.3
176.0593,103.1
176.0659,29919.1
176.103,1642.3
176.1224,807.5
176.1391,131.2
176.1598,479.1
176.2213,335.6
176.2408,418.5
176.3422,286.6
176.3614,20.6
176.4155,544.3
176.5197,932.6
176.641,739.7
176.6523,130.9
176.6569,385
176.7149,420.1
176.7599,427
176.8272,177.8
176.8488,661.1
176.8572,94.8
176.9733,88.4
176.9825,312.4
176.9925,605.9
177.0137,20.5
177.018,19.6
177.0248,6876.4
177.0499,549.7
177.0612,12078.1
177.0693,1030.1
177.0872,1557.4
177.1385,18.6
177.2322,107.3
177.3869,161.8
177.4817,158.2
177.5083,187.2
177.5308,370
177.6114,368
177.7485,409
177.7775,348
177.8545,81.5
177.9232,110.2
178.0088,8217.9
178.0242,11140
178.0588,4828.6
178.126,131.3
178.1962,726.3
178.2051,470.8
178.2136,423.1
178.2982,605
178.3238,103.3
178.444,102.7
178.4476,127.4
178.5372,629.6
178.5648,18.8
178.5832,103.1
178.5859,374.3
178.6585,131.8
178.7581,210.6
178.8033,166.4
178.8218,170.8
178.8485,17
179.0351,348.3
179.0491,378.9
179.0518,106.4
179.0709,364.3
179.2152,132.4
179.3501,548.7
179.4366,783.5
179.5565,141.9
179.6322,694.9
179.6755,649.7
179.7333,204.8
179.7597,121.1
179.7755,98.7
179.7985,410.3
179.8345,182.4
179.8481,441.3
179.8701,21.7
179.9203,116.2
179.959,591.9
180.0035,12447.5
180.0821,47.2
180.1579,143.7
180.1805,81.9
180.1932,446.9
180.2425,143.5
180.3625,82
180.4621,112
180.4717,141.8
180.5018,93.8
180.5051,127.5
180.5135,472.5
180.5697,170.5
180.5742,257
180.6706,114.3
180.8432,581.2
180.888,21.6
180.8943,2619.4
180.9041,7628.6
180.9323,18.6
180.9573,606.2
181.065,8560.5
181.1632,122.1
181.2883,85.5
181.3095,16.3
181.3332,508
181.6498,102.4
181.6637,20.6
181.7234,44.8
181.7372,104.9
181.7508,113.5
181.866,213.4
181.8937,315.1
181.8984,104.9
181.9323,18.6
181.95,18.3
181.9636,198.9
181.9936,166
182.0132,111.3
182.0426,32394.3
182.099,478.8
182.1887,517.7
182.2378,476.2
182.2711,382
182.3038,401.8
182.4034,45.9
182.4433,719.2
182.456,88.4
182.495,592.2
182.4976,257.8
182.5404,590.8
182.5775,253.5
182.6003,105.5
182.6145,233.9
182.6749,116.2
182.7007,757.9
182.716,238.1
182.75,116.4
182.7986,414.6
182.8908,89.1
182.9023,375.5
183.0099,360.8
183.0157,86.7
183.026,114.6
183.0445,3170.1
183.0928,245.5
183.0957,17.3
183.0979,146.3
183.1129,23.7
183.1792,48.7
183.2792,80.6
183.2982,151.6
183.3049,278.8
183.3512,132.2
183.4628,164.8
183.4874,155.4
183.5007,234.2
183.5673,116.2
183.6175,293
183.6484,531.5
183.6559,232.5
183.6607,42.7
183.6833,285
183.8321,256.5
183.8933,566.5
183.9648,1056
184.0372,1015.9
184.0681,1548.8
184.0735,4392145
184.1057,166.9
184.1096,1201.4
184.1265,555.9
184.1538,128.9
184.1699,45.4
184.1731,155.6
184.1822,1046
184.2386,521.8
184.27,164.9
184.2941,533.9
184.347,80.3
184.3586,111
184.403,332
184.45,133
184.4873,382.9
184.5053,264.9
184.5124,16.3
184.5462,282.1
184.6307,17.8
184.6698,125.5
184.6879,18.8
184.7241,98.9
184.7692,20.1
184.8059,48.1
184.8239,122.2
184.8697,407
184.8964,194.2
184.9832,338.4
185.0324,49639
185.057,48.5
185.0603,91.2
185.0704,9011.4
185.0768,200160.7
185.1609,846.1
185.2005,254.5
185.2976,111.7
185.4433,204.2
185.5642,529.7
185.5757,322.9
185.6575,20.6
185.7438,111.2
185.7465,339.1
185.8078,222.3
185.8241,93.8
185.8361,17.7
185.8685,207.5
185.9598,2167.3
185.9958,111.8
186.0358,526.9
186.04,136.7
186.0588,329.5
186.063,130.1
186.0777,26548.9
186.12,248
186.1235,48.5
186.1581,282.8
186.1751,395.2
186.2103,730.9
186.3308,135.8
186.3693,19.9
186.4988,475.4
186.5147,527.2
186.5367,23.2
186.5564,806.8
186.5712,179
186.5778,687.5
186.6033,17.2
186.7868,46.5
186.8839,128.7
186.9123,2828.5
187.0306,1997.4
187.0516,162
187.0578,3135.7
187.0715,2073.4
187.0839,149.6
187.108,60.3
187.1306,203.2
187.1477,130.2
187.1604,231
187.1838,217.7
187.2041,441.3
187.2469,82.8
187.3176,239.5
187.3447,434.7
187.3676,764.6
187.4092,131.8
187.4856,110.7
187.5026,555.4
187.6788,424.7
187.786,321.2
187.9229,100.9
188.0709,852.5
188.0809,457.4
188.1039,239.3
188.1333,111.2
188.2314,391.3
188.3543,472.5
188.3711,484
188.5098,104.5
188.588,17.3
188.7089,278.2
188.7483,485.4
188.7746,87
188.8658,248.3
188.8785,328
188.9117,143.4
188.9332,312.8
188.9681,17.1
189.0073,619.9
189.0417,767.5
189.0612,1588.1
189.0797,315.2
189.0872,11765.3
189.13,201.3
189.1316,176.9
189.1592,123.4
189.1805,87.7
189.2054,123.2
189.3104,84.4
189.3735,518.3
189.3887,88.1
189.4242,262.8
189.5069,247.9
189.5457,127
189.5789,133.6
189.6721,736.3
189.7061,514.8
190.0587,150.7
190.0692,79.8
190.1313,159.3
190.344,473.2
190.3466,205.9
190.4397,88.6
190.4932,365.7
190.5079,338
190.5385,412.3
190.567,58.2
190.5904,121.1
190.6389,435.4
190.752,147.5
190.9122,2323.3
190.9445,74.3
190.9488,163.8
191.0011,305.4
191.0083,8206.9
191.0271,440.4
191.0405,142585.1
191.0718,350.7
191.0769,20204.5
191.1451,520.1
191.2366,371.6
191.2928,286.4
191.3072,566.1
191.4606,135
191.4871,111
191.4923,17.8
191.5813,418.9
191.7641,133.7
191.8441,554.9
191.8735,117.2
191.8958,542.7
191.9163,564.4
191.954,242.7
191.9826,3203.9
192.0134,137.9
192.0322,19.9
192.0399,17430.2
192.0439,3732.4
192.1041,165.6
192.1524,169.1
192.1548,19.3
192.2496,98.1
192.4631,111.2
192.5317,725.8
192.5403,18.4
192.5898,530.5
192.5999,385.4
192.6035,143.5
192.6315,448.9
192.6778,462.4
192.7901,347.5
192.8019,362.5
192.8681,445.7
192.8864,95.3
192.9032,198.9
192.9162,420.8
192.9249,177.1
192.9308,173.2
192.9619,314.5
192.9988,5439.5
193.0352,6485.4
193.0448,491
193.1141,117.1
193.1841,46.4
193.202,497.2
193.2158,151.8
193.3918,712.1
193.5204,501.3
193.5934,428
193.5971,195.8
193.6204,835.6
193.6687,448.5
193.8295,296.4
193.847,16.9
193.9218,452.3
193.9592,268.9
193.9982,2496.3
194.0203,167.4
194.0328,1938.6
194.0432,170
194.154,106.3
194.1628,106.1
194.1786,175.4
194.2716,21.8
194.2897,501.2
194.3563,107.3
194.4512,268.4
194.4926,129.7
194.5261,17.1
194.6141,538.1
194.645,735.8
194.7474,201.3
194.8013,367.9
194.8098,88.4
194.8291,215.6
194.8505,223
195.0089,96.2
195.0439,92.2
195.0615,293.6
195.0843,501
195.1474,95.9
195.1885,228
195.1937,122.5
195.2028,52.1
195.2282,420.5
195.2493,120.5
195.277,291.1
195.2822,105.8
195.5373,96.4
195.5448,254.2
195.6217,207.6
195.6693,87.3
195.7814,304.5
195.9327,182.9
195.9424,145.6
195.9743,19.2
195.9776,1060.9
196.036,190
196.0693,48.9
196.0791,91.3
196.157,674.3
196.1698,299.9
196.2256,19.3
196.3069,147.3
196.3246,18.8
196.331,17.3
196.3433,92.6
196.4629,618.7
196.5543,176.7
196.6346,109.9
196.6376,96.6
196.7891,843.8
196.7932,268.3
196.8369,734
196.8509,586.4
196.8653,5684.2
196.8685,959.4
196.878,1850
196.9252,643.5
196.9444,460.5
196.9709,490.3
196.9882,470.8
197.009,239.7
197.0233,269.4
197.0308,184.5
197.0437,630.4
197.054,152.7
197.1013,338.3
197.1788,139.2
197.183,431
197.3125,22.2
197.3413,19.9
197.3792,481
197.4596,534.3
197.4657,105.7
197.5425,511
197.5595,93.8
197.574,91.5
197.6842,105.9
197.9409,410.3
197.9628,133.6
198.0347,91.8
198.0428,78.8
198.0851,6982.2
198.111,19.1
198.1855,5663.5
198.2509,242
198.2766,643.7
198.3449,19.2
198.4761,237.7
198.4833,444.3
198.5431,21.9
198.5519,222.4
198.5761,318.9
198.6206,92.4
198.6761,615.1
198.6809,87.2
198.7943,295.5
198.8623,5540.8
198.9281,298.7
198.9335,83.2
198.9717,496.4
198.9739,73.3
198.9789,113.1
199.0579,583
199.0625,95.4
199.0691,1773.1
199.0756,1275.6
199.0803,130.9
199.1478,85.4
199.1887,224.3
199.2509,453.7
199.3128,470.8
199.3826,17.4
199.4246,580.6
199.5065,168.4
199.6448,103.8
199.6808,667
199.7642,189.8
199.7994,491.3
199.8036,20.7
199.8223,42.1
199.8367,79.9
199.9084,671.9
199.9114,97.6
199.9908,26772
200.0048,244.3
200.0408,22723.5
200.0537,416.2
200.1043,11151.3
200.1151,128.3
200.1559,710.5
200.2556,269.2
200.5371,436.7
200.5727,111.2
200.621,728.5
200.6252,120.7
200.7063,162.5
200.8122,388
200.8524,127.4
200.8594,397.9
200.8751,373.9
200.8843,714.6
200.9735,121.2
201.0549,239.1
201.0727,340.2
201.0789,149.1
201.0873,582.4
201.108,218.2
201.1112,583.5
201.1233,990.9
201.1558,281.5
201.3017,359.7
201.417,233.9
201.4604,865.8
201.4935,820.6
201.5151,133.2
201.5166,120.7
201.5491,465.8
201.6892,152.9
201.6914,45.4
201.7226,18
201.7413,212.6
201.8705,376
201.9094,686
201.9345,442.3
201.9807,598
202.0548,41.8
202.0825,699.2
202.0925,528.4
202.2178,504.3
202.2931,563.9
202.3167,757.2
202.3494,103.2
202.4079,310.9
202.4615,527.8
202.4792,24190.9
202.5306,240.2
202.5585,168
202.5641,504.5
202.572,161.4
202.5948,821.4
202.6238,432.9
202.703,44.4
202.806,160.6
202.8363,328.8
202.8865,528.7
202.8952,18.2
202.9401,195.7
202.9962,56.4
202.9983,51.9
203.0319,1357.1
203.0405,574.7
203.0528,1024533.4
203.0769,7088.6
203.1084,547.9
203.1814,491.2
203.2129,327.7
203.2619,329.9
203.292,172.9
203.3327,264.2
203.3388,97.1
203.3649,454.9
203.4469,167.4
203.4641,469.8
203.4867,603.8
203.5563,386.6
203.6056,592.2
203.7188,785.1
203.7329,189.8
203.7445,167.5
203.7645,577.7
203.8034,124.5
203.8476,149
203.9235,101.5
204.0245,38465.3
204.0486,471.4
204.0561,53691.5
204.0635,352.9
204.0704,20.1
204.0871,990.4
204.1035,42.4
204.2374,18.2
204.2903,376.5
204.3179,94
204.3397,662.2
204.3641,154.3
204.4023,23.1
204.4093,311.4
204.4379,230
204.4417,524.4
204.5173,372.2
204.7496,97.7
204.7642,408.4
204.8022,659.7
204.8264,84.9
204.8365,89.1
204.8665,16.7
204.8887,650.6
204.9118,246.9
204.9351,51.3
204.9744,177
205.0571,6324.4
205.0685,122574.4
205.0805,512.3
205.0838,141
205.1483,134
205.1827,126.8
205.2218,201
205.2381,119.4
205.2561,504.2
205.32,47.2
205.3278,141
205.3533,117.2
205.3569,261.6
205.5431,203.5
205.5581,462.9
205.5782,237.7
205.6093,18.2
205.6325,94.9
205.6643,591.9
205.7758,499.5
205.874,19.7
205.9436,19.9
205.9691,144.2
205.9729,94.6
206.0055,426.5
206.0444,190.5
206.0553,1194.6
206.0718,4796.8
206.0862,417.2
206.1241,101.6
206.2433,18.6
206.248,20.6
206.2721,392.5
206.3517,181.1
206.4221,490.8
206.4424,317.2
206.5847,157.9
206.61,264.3
206.6821,247.4
206.6868,98.1
206.7851,522.3
206.8941,15490.8
206.9517,16.8
206.9822,4284.6
207.0145,102750.3
207.0443,3383.7
207.0509,11515.9
207.1144,102.6
207.1244,116.6
207.2305,18.1
207.2348,271.5
207.3135,713.8
207.4137,179.4
207.4383,469.1
207.4791,468
207.5314,130.8
207.7585,359.6
207.9087,201
208.0081,471.2
208.014,3589.2
208.0177,2780.8
208.0486,17
208.0711,88.9
208.0767,385.2
208.1892,675
208.2192,688.5
208.2377,340
208.243,195.3
208.2819,305.7
208.3247,366.9
208.3431,530.9
208.4298,270.3
208.4718,212.8
208.4788,17.1
208.4992,417.9
208.5111,377.1
208.5485,371.6
208.5698,44.7
208.6151,286.6
208.6398,274.9
208.8458,127.9
208.8833,33.2
208.8912,11573.3
208.9137,372.7
208.9356,2021.8
208.9553,21.5
209.0126,4311
209.0437,17.7
209.1031,536
209.1217,378.7
209.2332,457.4
209.3923,552.3
209.4388,312.5
209.4565,92.6
209.5475,593.5
210.2051,21.1
210.5914,22.8
210.6616,20.2
210.791,161.1
210.8471,468.4
210.8882,336.3
210.9362,302.2
210.9497,538.2
210.9661,18.7
210.993,346
211.0347,17.5
211.0567,378
211.0691,969.4
211.1489,951.8
211.1551,6839.7
211.158,10499.3
211.1622,10918.1
211.166,19857
211.1684,24857.9
211.1709,27554.9
211.1822,3010.6
211.1868,2463.4
211.1942,263.1
211.2718,195.8
211.3435,515.3
211.423,86.3
211.522,209.5
211.5486,100.2
211.595,20.4
211.6054,208.9
211.6182,501.1
211.7015,475.4
211.7341,528.8
211.7782,84.5
211.8039,98.7
211.8657,165.2
211.9249,109.7
212.0323,433.8
212.0743,80.4
212.1131,254.2
212.1326,19.2
212.1421,279
212.314,17.8
212.332,86.5
212.3918,144.7
212.4034,131.6
212.4982,641.2
212.555,42.3
212.8394,1207.9
212.8437,79.2
212.876,418.3
212.9263,183
212.932,16.5
212.9781,1261.9
213.0277,50.1
213.0358,697.2
213.055,1761
213.0746,382.4
213.1664,117.1
213.2128,17.8
213.2613,134.6
213.3481,48.1
213.4211,123.8
213.4764,429.3
213.5119,555.1
213.6727,19.6
213.7305,56.1
213.7435,370.3
213.763,21
213.7933,132.1
213.8045,229.8
213.8478,132.5
213.9095,107
213.9486,495
213.9623,107.5
213.9848,516.4
214.0063,930.9
214.021,357.7
214.059,7445.6
214.0899,1287.4
214.1029,102.9
214.1182,108.1
214.292,90.4
214.3553,194.2
214.4065,477.5
214.4516,664
214.6054,108.5
214.6371,127.2
214.6968,270.5
214.7184,371.6
214.8363,2247.7
214.8485,208
214.9178,1567.9
214.9261,450.3
214.9467,313.9
214.9643,122.1
214.9893,17.6
215.01,486.2
215.0304,195.1
215.0429,292.9
215.0799,94.8
215.0933,64.3
215.1235,146.2
215.1686,499.9
215.2455,111.9
215.3719,19.6
215.4167,90.9
215.4795,255.4
215.4859,79
215.5066,231.3
215.6121,90.3
215.6739,399.9
215.6808,827.4
215.7112,779.1
215.7461,100.1
215.7671,132.7
215.8156,80.6
215.8587,672.2
215.9259,201.3
215.9447,148.7
215.9648,363.7
216.0148,13583
216.0612,18
216.0805,473.5
216.3393,124
216.3449,369
216.4824,21.5
216.5144,380.2
216.519,267.8
216.5368,261.7
216.5822,340.7
216.5845,129.8
216.6682,515.1
216.6943,166
216.8342,100.2
216.8501,406.9
216.923,47197.9
216.9846,19.8
217.0068,169.1
217.0173,111.2
217.0282,189.2
217.0618,17.7
217.0818,651.6
217.1367,258.7
217.1665,154.4
217.1992,464
217.3419,109.8
217.5179,118.1
217.5215,466
217.5306,88.9
217.5446,18
217.5602,255.2
217.7221,83.3
217.7575,545.7
217.9926,119.8
218.0063,28.6
218.0156,23.6
218.0269,265.3
218.0382,19.1
218.1047,176.9
218.1301,162.6
218.1356,92.6
218.1434,488.6
218.1522,46.6
218.1888,375.3
218.2041,450.4
218.294,229.3
218.3442,131.3
218.3514,44.1
218.4281,91.4
218.4736,115.6
218.644,140.6
218.6926,19.2
218.7839,89
218.8629,167.9
218.92,16914.1
218.9358,593.7
218.9453,420.3
219.0178,915
219.0268,1299480.8
219.05,479.1
219.0692,582.7
219.0832,8525.4
219.1,22.8
219.1033,333
219.1676,329.9
219.2135,161.6
219.2215,167.1
219.3954,20.4
219.4379,231.3
219.5315,302.1
219.669,125.1
219.9114,135.8
219.9501,19.7
219.9674,100.3
219.9987,499.5
220.0301,69200.9
220.067,10957.8
220.1674,387.6
220.2753,164.9
220.3271,120
220.3808,419.6
220.4203,350.2
220.5132,565.8
220.5323,228.3
220.5717,362.2
220.6009,154.3
220.6714,342.7
220.7635,141
220.7786,449.1
220.845,133
220.8975,721.8
220.9209,236.5
220.934,692.6
221.0024,368.3
221.0065,18.5
221.0178,505.9
221.0249,78335
221.031,9924.4
221.0424,84910.4
221.0477,636.1
221.0511,1227.6
221.0689,130.1
221.0851,957.7
221.1256,169
221.1589,183.6
221.3142,488.5
221.3346,301.9
221.365,320.1
221.4759,240.6
221.5036,562.5
221.5165,396.9
221.5331,488.9
221.6341,254.6
221.7208,20.7
221.9201,408.3
221.9444,215.5
221.9563,121.4
221.9838,2963.6
222.0116,722.2
222.0231,148.5
222.0284,2237.6
222.0457,2283.6
222.3847,306.2
222.3956,189.9
222.4418,449.3
222.4737,258.1
222.4867,20.1
222.4995,343.6
222.6744,138.2
222.868,15491.2
222.8796,478.2
222.8945,129.2
222.9318,18.1
222.9884,11809.9
223.0372,940.4
223.0405,3203.8
223.0436,17.9
223.1043,129
223.1583,252
223.1995,323.3
223.2532,115.6
223.3106,96.4
223.3731,137.8
223.3908,573.4
223.4297,19.9
223.4348,141
223.4644,522.8
223.5049,120.3
223.7375,465.6
223.7586,589.2
223.8866,174.5
223.9417,289
223.946,430.3
223.9535,28
223.9643,174.7
224.0128,457.4
224.0295,1716.5
224.0535,666.7
224.0816,463.9
224.1063,766.3
224.1501,649
224.1892,144.2
224.1999,19.1
224.3089,307.7
224.3734,573.7
224.3874,274.6
224.3901,463
224.4211,261.4
224.4225,274.5
224.484,112.4
224.5044,311.9
224.5337,87.6
224.5367,461.8
224.6462,111.5
224.8012,281.9
224.8101,99.9
224.8651,11375.6
224.891,502
224.9292,470.2
224.94,263.2
224.9433,42.5
224.9869,805.2
224.9936,724.8
225.0066,304.2
225.0419,240.8
225.0549,26570.5
225.085,237.8
225.11,128.5
225.2161,123.5
225.2355,47.3
225.2788,532.3
225.3357,44.8
225.4022,509.3
225.4404,179.5
225.5121,474.2
225.6003,17.9
225.6149,178.7
225.9522,56.8
226.0022,94.5
226.0065,2147.6
226.0115,172.6
226.0243,12276.3
226.0453,6189.7
226.0581,19.7
226.1438,456.1
226.1676,163.5
226.1839,122.6
226.185,119
226.1921,419
226.3825,20.8
226.4055,486.1
226.433,335.4
226.6147,92.9
226.6649,52.6
226.7525,104
226.7832,306.6
226.7849,283.2
226.786,274
226.8503,532
226.8856,175.7
226.8943,114.1
226.9039,222.4
226.9518,46374.9
227.0041,181.3
227.0284,93.8
227.0342,2023.8
227.0793,1030.4
227.0823,21.8
227.087,376.7
227.1016,100.9
227.1765,138.1
227.3535,149.8
227.4361,103.2
227.4814,315.9
227.693,572.2
227.6981,83.4
227.7031,154.9
227.7694,132.9
227.7832,83.7
227.9551,963
227.9837,156.5
228.0005,319.8
228.0586,247.8
228.0649,19.2
228.1718,205.6
228.2763,102.5
228.2875,19.5
228.4149,81.4
228.4772,637.6
228.5027,18
228.5438,639.9
228.5728,395.3
228.5959,174.8
228.6937,470.1
228.7198,101.7
228.8136,509.5
228.8175,443.9
228.84,515
229.0381,247.9
229.0467,200.7
229.1975,127.9
229.2118,617.7
229.222,277.8
229.3826,121.1
229.6875,111.6
229.7522,145.1
229.7658,18.3
229.9226,113.2
229.9496,172.1
229.9571,403.7
229.9842,689.5
230.0336,211.4
230.1141,350.3
230.1709,495.1
230.4332,114
230.4373,333.7
230.466,180.1
230.4747,43.7
230.4811,95.7
230.4899,167.3
230.5133,267.2
230.5179,195
230.6343,107.4
230.7325,269.9
230.81,424.1
230.8684,91.2
230.8732,108.6
230.9305,541.8
230.9457,116.2
230.9904,86.5
231.0286,19
231.039,213.8
231.0556,55.8
231.084,922.8
231.1893,135.8
231.214,515.3
231.3689,126.6
231.3844,416.4
231.4376,18.4
231.5528,377.3
231.6366,256.9
231.6897,524.6
231.7703,354.1
231.8522,443.6
231.8698,307.8
231.8862,445.2
231.9515,234.1
231.987,378.7
231.9955,379.5
232.0003,49.8
232.0793,510.8
232.1243,312.5
232.273,171.6
232.3286,152.9
232.3986,18.6
232.4418,491.9
232.5579,17
232.6978,84.4
232.7192,263.7
232.7756,127.5
232.8969,44867.5
232.9268,486.7
232.9435,588.4
232.9858,4290.7
233.0511,8334.5
233.0789,343.9
233.1828,757.3
233.2622,448.5
233.2998,109.9
233.3125,536.6
233.3474,407.2
233.3738,234.8
233.3885,50.1
233.4322,108.5
233.4571,216.1
233.4786,467.6
233.6831,528
233.695,252.1
233.7759,112.4
233.8023,308
233.8114,148.2
233.9152,105.6
233.991,26.8
234.0125,101.8
234.0631,123
234.124,296.3
234.1895,149.2
234.2114,90.7
234.2878,18.4
234.3491,658.3
234.5151,175.9
234.5259,109.7
234.6342,438.1
234.639,118.1
234.7318,138.5
234.8326,452.9
234.8938,9204.3
234.9513,473.4
234.9817,6877
235.0253,522.6
235.0529,45.2
235.0571,5747
235.0667,1676.5
235.0727,617.1
235.0928,34036.6
235.1175,183.1
235.3442,484.6
235.392,18
235.407,171.5
235.5612,18.9
235.5803,160.2
235.6854,370.6
235.7481,652.5
235.7765,447.5
235.7824,357.9
235.8286,20.4
235.8854,104.4
235.9095,351.9
235.9881,332.7
236.0411,5659.8
236.0718,38645
236.0962,1448.3
236.1796,141.4
236.2489,500.8
236.2744,107.1
236.3515,110.3
236.3623,124.8
236.3832,158
236.5577,19.3
236.5916,764
236.7556,265.2
237.0525,103.8
237.0543,117.9
237.0752,1443.9
237.1203,18.8
237.1746,596.1
237.2297,112.6
237.3511,326
237.3816,210
237.4326,481.8
237.4929,52.6
237.5109,668.8
237.5413,288.7
237.6526,735.1
237.6633,310.1
237.8023,426.9
237.8994,320.5
237.9971,19.8
238.0677,571.8
238.0783,19.7
238.1458,18.8
238.2025,165.6
238.3231,115.3
238.3794,245.2
238.45,425.2
238.5358,995.7
238.5446,515.4
238.5954,99.5
238.6272,20.5
238.6379,164.4
238.6541,995.7
238.658,174.6
238.7082,128
238.8266,438.2
238.8421,6019.3
238.8532,557.7
238.8655,21.2
238.9279,438.4
238.9713,344
239.0091,97.3
239.0443,230.4
239.0498,826.2
239.0643,451.1
239.068,1830.5
239.1334,148.3
239.1963,173.3
239.235,691.4
239.2482,22.1
239.3956,18.7
239.4824,125.6
239.4868,512.2
239.4984,82.1
239.5119,750.6
239.5594,18.8
239.7208,109.6
239.7936,577.8
239.8107,46.8
239.839,385.3
239.843,95
239.8494,240.4
239.9028,17.9
240.0825,88.5
240.1318,104.7
240.2173,85
240.324,300
240.4671,228.2
240.4789,18.8
240.5729,54.5
240.6527,647.1
240.7047,115.8
240.8239,113.1
240.8391,2131.4
240.8468,517.2
240.8678,127.4
240.9551,1117.5
240.9674,1378.9
241.0093,569.9
241.0316,617
241.1056,595
241.1367,473.6
241.1433,89.2
241.1692,144.1
241.1837,168.1
241.2706,99
241.2799,29.6
241.3992,473.9
241.436,85.9
241.4596,97.5
241.5508,311.8
241.5955,390.6
241.708,98.7
241.8156,107.6
241.8901,100.5
241.98,32.3
241.9982,2987.3
242.0195,3865.9
242.0685,27.6
242.1666,267.3
242.4318,18.3
242.4704,22.2
242.5087,455.7
242.5482,105.8
242.5565,112.6
242.5676,150.1
242.5745,642.9
242.6756,96.3
242.6893,156.3
242.8936,136.8
242.9257,28570.3
243.0038,776.8
243.0236,448.4
243.0323,258.1
243.0532,5309.4
243.0655,9028.3
243.0863,488.6
243.1996,122.8
243.2161,114
243.277,497.5
243.3055,104.7
243.3936,47.6
243.4067,103.7
243.4548,82.2
243.5101,18.8
243.5701,112.8
243.6721,242.3
243.757,20.2
243.763,339.9
243.8685,405.7
243.9215,396.8
243.9294,923.4
243.9327,329.5
243.9568,413.3
243.9714,238.7
244.0128,259.9
244.0296,516.4
244.0567,433.3
244.0867,104
244.1303,458.6
244.1694,150.1
244.18,171.9
244.2213,383.2
244.2356,134.1
244.2724,235.6
244.454,478.1
244.5791,393.6
244.5971,467.3
244.697,122.3
244.7517,83.4
244.798,18.5
244.8709,4123.1
244.9301,577.8
244.9464,396.1
244.9757,653.6
245.0041,163.9
245.0435,109.2
245.0481,647.2
245.0848,87.3
245.0877,93.4
245.1098,181.5
245.1493,125.1
245.1551,19.1
245.2,19
245.2314,121
245.2521,343.8
245.2587,90.4
245.4808,18.1
245.5121,383
245.5254,109.3
245.5724,53.7
245.6304,146.3
245.7012,152.3
245.7193,18.7
245.799,349.9
245.8315,548.6
246.0015,227.2
246.073,18.1
246.0939,94.1
246.1527,106.3
246.2456,241.2
246.5801,509.7
246.6675,386.7
246.7276,694
246.8093,285.2
246.8681,941.9
246.9553,46
247.0366,656.8
247.0476,230
247.0671,440.7
247.0689,457.7
247.07,435.8
247.0928,8375.6
247.1962,248.7
247.5232,22.9
247.9678,53.9
248.0706,503
248.0961,182.7
248.1245,31762.4
248.2468,42.7
248.2725,92.9
248.3229,106.3
248.606,19.9
248.6586,643.9
248.6981,1178.5
248.7111,194.3
248.871,13920.9
248.9217,191.7
248.9315,17.8
248.9597,7485.4
248.9895,294.9
249.007,280.5
249.016,794.9
249.0614,17481.2
249.1077,252.9
249.1227,354.9
249.1278,1282.6
249.1561,452.9
249.2446,167.4
249.258,172.5
249.3072,93.5
249.3232,94.9
249.3814,536.3
249.6455,53.7
249.6576,110.2
249.7045,456.2
249.7447,77.8
249.7917,462.5
249.8275,17.3
249.8712,438.1
249.917,44.4
249.9408,111
249.9526,18.4
250.0327,24.4
250.0634,194.7
250.2071,241.5
250.4122,16.1
250.4686,329.6
250.506,763.9
250.5175,175.2
250.5306,140.1
250.5365,203.8
250.5545,126.1
250.5759,498.8
250.577,527.4
250.6753,451.3
250.6945,218.5
250.7163,502.9
250.868,1045.3
250.9204,3480.8
250.9554,2804.9
250.9652,192.6
250.969,530
251.0006,130.3
251.034,879.5
251.057,224.2
251.1013,216.5
251.1619,456
251.1955,190.6
251.4939,443
251.5816,100.5
251.6838,23.2
251.6901,196.7
251.7923,558
251.7969,402.6
251.8154,294.5
251.8413,135
251.8664,194.6
251.9185,121.2
252.0157,388.4
252.0369,1020.8
252.0458,90273.5
252.0815,198
252.2148,535.3
252.4784,443.3
252.5169,554.5
252.5276,104.5
252.8672,113.1
252.9177,1364.5
252.9976,77.9
253.0491,4656.6
253.0986,21.9
253.1087,431.6
253.2125,184.3
253.2624,136.6
253.2725,22.5
253.3789,640
253.4991,136.9
253.5561,132.9
253.611,464.1
253.6519,261.6
253.7083,524.5
253.8061,20.5
253.8486,536.7
254.0438,3376.6
254.0698,49.1
254.1501,294.1
254.2422,730.7
254.3439,115.4
254.5405,435.1
254.6073,166.8
254.6395,548.3
254.8161,2247.9
254.8239,6579.4
254.8927,232.6
254.9566,98.2
254.9649,166.8
255.0332,21999.4
255.0384,457.1
255.0465,798
255.1514,357.1
255.1781,363.8
255.2769,20.9
255.2944,362.7
255.4131,199.3
255.4972,758.4
255.5366,292.2
255.6168,62.8
255.6261,482.6
255.748,304.2
255.8269,113.9
255.8488,253.9
255.8983,126.6
255.9081,103.3
255.9589,18.7
255.9687,770.1
255.9783,1154.2
256.0057,591.7
256.0152,18.5
256.0253,196.5
256.0586,144.5
256.0674,254.4
256.0761,503.8
256.0771,461.3
256.2014,220.6
256.2032,340.4
256.2562,141.6
256.3662,82.5
256.4847,117.4
256.494,148.8
256.641,118.4
256.7387,513.4
256.7638,622.5
256.8137,666.2
256.8211,9368.2
256.845,97.1
256.8579,559.9
256.9166,52.1
256.9289,768.8
256.941,697.9
257.0488,6343.9
257.0646,395.9
257.0747,55236.5
257.1506,167.8
257.1743,182.9
257.2076,84.8
257.2434,88.1
257.2602,408.5
257.3361,102
257.6312,232.4
257.7193,163.8
257.7946,85.6
257.8112,618.6
257.9514,138.3
257.9892,100.3
257.9933,851.9
258.0304,99
258.0368,630.1
258.0528,241.6
258.0743,228
258.0782,2372
258.1105,22949.8
258.1464,322
258.1621,329.2
258.5007,571.7
258.7527,110.2
258.7907,163.3
258.8183,3129.6
258.8998,5824.4
258.9456,167.3
259.0114,19.5
259.0602,413.8
259.2168,308.5
259.2921,101.2
259.4182,17.6
259.4505,416.3
259.4796,686.3
259.5018,156.3
259.5361,218.8
259.6081,169.3
259.762,283.8
259.8989,92.1
259.9652,888
260.017,51.8
260.0989,719.2
260.1463,120.4
260.1834,608.1
260.2061,95.8
260.2087,99.4
260.2295,163.3
260.3152,177.5
260.3812,19.2
260.4976,209.2
260.6386,471.6
260.667,135.6
260.6906,99.5
260.7629,137.2
260.8148,685.9
260.8447,1886.1
260.8497,19.2
260.8816,123
260.8983,475.5
260.9492,10978.5
261.0504,522
261.1261,321.5
261.1475,324.9
261.1641,530.8
261.1666,499.4
261.242,589.6
261.3189,740
261.5656,18.3
261.5841,292.9
261.9886,511.9
262.0495,18
262.0562,132.5
262.06,375.7
262.0819,725
262.1504,375.6
262.36,302.6
262.4968,124.5
262.5273,19.3
262.7818,286.6
262.8734,385.9
262.9175,465.3
262.9403,427.3
262.9464,2501.8
263.0217,82.2
263.0305,649.2
263.0852,3109.6
263.1155,494.5
263.1237,231.3
263.2019,295.4
263.2861,304.6
263.4311,17.8
263.6158,139.7
263.9576,19.5
263.9795,599
264.0102,178.1
264.0644,199.7
264.0755,472.5
264.2355,116.2
264.2938,500.1
264.3425,238.2
264.4365,349.1
264.5124,139.5
264.5925,53.4
264.6331,93.2
264.6893,225.8
264.7967,43.8
264.8021,129.9
264.8365,524.3
264.8452,3245.8
264.8528,5143.3
264.9338,9376.5
264.973,1758.5
264.9768,402.3
264.9887,65.6
265.0165,384.2
265.0354,11146.2
265.0475,696.7
265.0812,122.4
265.1199,103.7
265.1354,157
265.1669,352.5
265.4536,814.5
265.5092,192.5
265.6312,270.9
265.7236,16.8
265.7992,45.4
265.8933,173
265.9313,21.2
266.0146,621.4
266.1773,258
266.2404,19.6
266.284,406.1
266.4403,326.9
266.457,123.5
266.6088,463.4
266.6827,155
266.85,4199.8
266.8554,256.9
266.8944,2705.7
267.0134,178.1
267.0333,663.8
267.0895,154.5
267.338,116.5
267.5171,149.9
267.6599,425
267.8461,458.6
267.9282,647.9
267.9628,100.3
267.9942,19.5
268.032,172.4
268.2844,769.4
268.3175,23.1
268.3676,20.7
268.4193,250
268.5146,102.1
268.5537,502.8
268.6301,114.5
268.8472,1141.2
268.8912,2099.2
269.0134,544.3
269.0281,22
269.045,15044.7
269.0488,32981
269.1373,226.7
269.189,783.7
269.1989,106.5
269.2786,334.3
269.308,18.6
269.3399,339.2
269.5436,508.8
269.665,22.8
269.8444,20.1
269.8545,107.7
269.9524,30.7
269.9851,365.1
269.9941,4524.7
270.025,908.3
270.0475,30619.3
270.0525,156.3
270.0589,507.9
270.0783,718.4
270.1455,2828
270.2802,312
270.5264,23.8
270.5835,216.7
270.6007,124.7
270.7819,157.5
270.7981,3826.3
270.967,192.3
270.9721,20.4
270.9782,23861.9
271.001,18.5
271.0248,102.9
271.0261,107.1
271.028,113
271.0509,398.6
271.0647,214.2
271.0779,643.3
271.0904,880.4
271.2059,452.4
271.2157,18.2
271.2701,133.3
271.3514,253.4
271.356,502
271.4236,863.4
271.477,20.7
271.4824,147.5
271.6413,504.6
271.7498,96.4
271.754,190.1
271.8125,461.5
271.8465,126
271.9522,572.7
272.0179,100.3
272.0366,179.1
272.0435,137.5
272.0638,85.5
272.0807,302.4
272.1074,116.2
272.1141,488.9
272.614,190.1
272.6384,622.9
272.6451,19.8
272.731,20.1
272.7379,491.9
272.7596,137.1
272.7952,4358.1
272.8671,270.8
272.9448,727.1
272.9704,279.7
273.0432,17.8
273.0488,5530.5
273.1126,590.3
273.1217,117.8
273.1746,350.7
273.4242,96.4
273.4911,605.8
273.5649,126.5
273.6642,115.8
273.9631,524.6
273.9726,20.8
274.0047,23.7
274.04,30.6
274.0694,269.9
274.0925,3030.4
274.2305,169.4
274.2783,217.1
274.3011,21
274.3168,577.8
274.4098,130.7
274.5215,458.5
274.5763,177.3
274.7602,163.7
274.7921,2281.4
274.8412,216.5
274.8647,284.7
274.8911,560.7
274.9247,448.8
275.0018,554.8
275.078,100.4
275.127,51.5
275.2395,573.7
275.2773,203.5
275.32,135.1
275.3358,111.4
275.3424,227.3
275.4766,554.3
275.5611,145.7
275.723,373.9
275.7797,363.9
275.8919,271.3
275.9387,620.6
276.0032,77
276.0303,18.5
276.0849,119.7
276.1915,142.5
276.2161,140.6
276.3663,267.5
276.4511,447.9
276.4577,152.6
276.51,312.3
276.8787,675.4
276.9233,12861.6
277.0922,400.3
277.2331,851.1
277.2763,347.1
277.3239,316.7
277.5684,82.4
277.5812,510.9
277.6814,560.8
277.6947,514.5
277.755,18.6
277.76,306.9
277.7627,288.9
277.7681,563
277.8239,199.4
277.9447,673.2
278.001,21
278.0191,483.8
278.0837,224.9
278.1351,550.3
278.2303,447.3
278.261,613.3
278.2683,128.4
278.4075,428
278.4916,328
278.507,223.7
278.5227,509.6
278.531,211.7
278.5553,257.9
278.718,244.4
278.8015,127.2
278.8133,430.5
278.8549,547.1
278.9206,1072.7
278.9269,152.4
278.9427,327.5
278.9881,431.8
279.0568,30425.6
279.0848,76.9
279.2699,617.2
279.3288,367.7
279.3358,272.3
279.3538,264.6
279.4454,241.7
279.479,272.2
279.7002,18.8
279.8219,590.4
279.8239,686.9
279.827,525.2
279.9197,117.5
279.9786,679.6
280.0161,281.4
280.0602,587.1
280.0922,639.4
280.1737,120.3
280.3109,41.5
280.3252,298.3
280.3995,594
280.7456,20.1
280.7625,197.3
280.827,2913.4
280.8472,346.2
280.8514,666.6
280.9627,491.9
281.0095,1048.1
281.0326,160.7
281.0517,254.6
281.2527,102.1
281.3373,528.9
281.3942,400.9
281.5087,87
281.7044,19.7
281.7189,20.3
281.7545,364.4
281.841,19.1
281.8999,480.7
281.9404,373.4
281.9586,110.8
282.0147,136
282.0649,392.5
282.2571,479.1
282.3827,174.7
282.4299,219
282.4419,21.4
282.4753,590.2
282.4816,96
282.5809,200.8
282.6108,175.2
282.6398,300.2
282.8239,3115.5
282.8868,19.2
282.9055,23.5
283.0281,3305
283.065,22.9
283.0678,19.1
283.0691,21.3
283.1311,205.4
283.3941,430.3
283.5393,282.3
283.5561,20
283.7492,117.9
283.7887,334.9
283.8478,85.1
283.8767,18
283.9098,45.1
283.9513,137.7
284.0401,685.3
284.0526,23.3
284.064,623.1
284.1709,299.5
284.251,185.2
284.332,126.5
284.4061,275.3
284.4095,191.4
284.4442,104.4
284.5153,452.2
284.635,163.5
284.7037,19
284.7783,121.1
284.9428,435.3
284.9484,137.3
285.0041,269.8
285.0406,176.5
285.0494,485.6
285.4449,346.9
285.5475,178.4
285.5877,228.4
285.7634,109.6
285.7956,156.3
285.8677,183.3
285.9029,112.2
285.9268,130
285.9683,1046.8
286.0199,222.5
286.0776,109.7
286.1548,286.3
286.2523,21
286.2868,312.2
286.3996,632
286.5434,206.6
286.6113,162.2
286.6816,111.4
286.7432,396.6
286.7722,659.5
286.7943,261.1
286.8719,235.6
286.9245,93.9
286.9521,14754.8
286.9988,72.1
287.0555,37624.4
287.1001,393.8
287.1754,278
287.1874,350.8
287.2018,20.7
287.3123,374.4
287.406,143.5
287.5036,230.2
287.5377,820.7
287.6174,376.4
287.6252,20.1
287.6616,120.2
287.8014,22.6
287.8447,161.1
288.0275,556.6
288.0588,2020.7
288.085,147.7
288.1559,27364.8
288.2923,388.4
288.4127,246.9
288.4342,686.2
288.501,558.8
288.722,113.8
288.7689,3679
288.8319,512.7
288.84,294.9
288.8467,616.8
288.8547,1871.1
288.8606,1841
288.8668,3812.6
288.8718,4857.7
288.8775,10574
288.8813,14220.3
288.888,11525.6
288.8967,16339.7
288.9001,18214.6
288.9044,18245.9
288.9118,18385.5
288.9175,20110.5
288.9224,17053.6
288.9254,14516
288.9311,17169.3
288.9397,9265
288.9455,8827.9
288.9514,9436.2
288.9564,6216.2
288.9609,5374.4
288.9655,4408.4
288.9711,4685
288.9745,5074.6
288.9805,1940.7
288.9878,1373.8
288.9973,683.4
289.0525,360.1
289.0615,76.3
289.0905,407.9
289.1595,2422.1
289.2473,22.3
289.2962,109.2
289.3484,335.1
289.4513,18.2
289.4735,861.5
289.558,129.6
289.885,102.5
289.9769,318.9
290.0071,176.6
290.1007,56.7
290.1371,251.2
290.2169,227.9
290.3804,288.7
290.4056,607.5
290.5938,641.9
290.754,354.3
290.941,609.7
291.027,2148.3
291.0985,374.8
291.2339,20.4
291.3426,123.3
291.4887,96.8
291.5113,440.6
291.8971,156.6
291.9602,98.5
291.9699,139.7
292.0806,565.3
292.1032,538.3
292.113,535.7
292.2313,332.1
292.2407,138.8
292.4033,365.8
292.4113,307.3
292.4459,115.4
292.4741,329.3
292.5712,534.7
292.5771,607.3
292.6023,498.5
292.6208,123.5
292.8972,1939.2
292.9036,575.9
292.9561,543
292.9718,524.7
293.0724,1455
293.0834,18.9
293.0893,132.4
293.0984,634149.8
293.1039,1003.9
293.1795,1917.4
293.3049,131.9
293.4343,140.8
293.6082,178.3
293.6463,20.1
293.748,649.5
294.0027,88.9
294.0591,171
294.0956,1724.5
294.1018,59545.3
294.1167,244.5
294.175,427.6
294.1877,332.6
294.2355,367.1
294.2585,145.2
294.3411,563.8
294.5675,213.6
294.5868,348.8
294.6143,284.3
294.6248,172.7
294.6456,127.1
294.7026,292.6
294.813,108.1
294.8636,135.1
294.8681,439.2
294.8731,599.6
294.8945,927.9
294.9907,672.7
295.0216,151.1
295.0307,500.1
295.1026,4890.7
295.1248,173.3
295.1948,15412.4
295.2693,756
295.3741,950.8
295.5056,123.7
295.613,144.3
295.7452,491.4
295.7919,430.4
295.8064,431
295.8252,344.7
295.9049,230.6
296.0099,1134.4
296.0666,479.3
296.088,154.2
296.1048,23.1
296.1119,482.9
296.1793,278.2
296.1917,545.3
296.1983,1031
296.2197,20.9
296.314,216.8
296.3362,147.8
296.3942,17.6
296.5511,111.1
296.6528,360.9
296.6622,125.6
296.7045,85.1
296.7787,117.2
296.8,449.7
296.812,501.5
296.9876,356.6
297.1079,52.1
297.1326,357.7
297.1971,125.7
297.296,119.7
297.4974,174.9
297.509,221.2
297.6611,518.7
297.7589,41.5
297.9116,502.1
298.0255,2249.2
298.0425,16515.7
298.0531,114.6
298.0719,89.7
298.1447,237.7
298.2021,242.7
298.3978,489.5
298.5107,555.6
298.5456,664.7
298.6011,99.2
298.6288,162.5
298.695,234
298.7719,540.8
298.7978,437.1
298.8085,313.1
298.8186,264.3
298.9866,202.8
299.0231,3267.6
299.0457,612
299.0624,20.5
299.1183,171.9
299.1396,3973.1
299.3302,323
299.3461,217.3
299.3685,156.5
299.4114,54.4
299.4578,133.6
299.4681,257.4
299.5074,93.5
299.6392,978.8
299.7052,184.8
299.8033,438.2
299.8086,104.7
299.8258,187.7
299.9188,394.6
300.0046,1153.7
300.0291,244.8
300.0384,172.2
300.0486,86.3
300.0755,531.6
300.1553,50.6
300.1959,50.7
300.2325,21.1
300.2842,121
300.4295,619.4
300.532,162.8
300.8783,217.5
300.8932,85.5
301.0094,330.5
301.0388,21473.9
301.0439,566.4
301.1415,197.2
301.2543,544.8
301.265,267.3
301.2751,165.4
301.3885,829.6
301.4506,154.8
301.464,763.2
301.5484,19.3
301.603,721.5
301.6477,713.1
301.9772,498.7
302.0118,775.7
302.0193,315.5
302.0356,63.7
302.0642,5373.6
302.0732,43.9
302.0795,774.2
302.1161,210.7
302.2947,200.9
302.4284,412.3
302.5608,134.5
302.681,18.3
302.6944,270.7
302.707,19.1
302.7242,100.5
302.7357,100.5
302.7541,108.4
302.8293,1647.6
302.8889,527.9
302.9264,786.1
302.9778,240.8
303.0421,20.7
303.0676,485.9
303.0742,486.2
303.1186,465
303.2496,205.8
303.2852,17.8
303.4182,87.4
303.4402,597
303.499,487.6
303.5991,20.7
303.6193,289.9
303.7169,498.6
303.9109,159.7
303.9746,125.6
303.9915,800.5
304.007,465.9
304.0286,183.7
304.0546,765.2
304.0598,180.5
304.0925,1025.7
304.2057,178.5
304.2797,393
304.3143,301.8
304.4542,146.3
304.743,581.5
304.8267,1607.4
304.897,813.1
304.9438,723.5
304.958,130.3
304.9751,1169.3
305.2344,284.8
305.5279,316.1
305.6631,19.2
305.676,627.6
305.6904,554.8
305.8537,499
305.9426,152.3
305.9842,496
305.9956,199.3
306.0297,349.4
306.0952,93.5
306.3715,116.6
306.3777,322.1
306.4996,145.8
306.5219,568.5
306.764,129.7
306.8327,46.7
306.8665,219.4
306.8954,104.4
306.9576,698.6
306.9772,4537.1
306.9938,459.1
307.0234,138.2
307.0968,18.5
307.1346,102.2
307.22,92.9
307.2345,320.4
307.3664,20.2
307.8106,462.4
307.9217,309.8
308.0084,396.7
308.1227,391.8
308.1666,162.5
308.5142,284
308.6078,187.7
308.6434,601
308.6728,18.5
308.8155,545.6
308.8317,169.8
308.8533,677.6
308.8603,21.4
308.8794,2958.9
308.8841,547.7
308.9146,501.7
308.9431,527.4
309.0063,491.8
309.0159,239.8
309.0256,104.3
309.0375,3322.6
309.0822,2111.6
309.162,117.5
309.2236,113.9
309.2869,18.4
309.3362,225.3
309.4103,374.1
309.4168,309.5
309.4379,171.6
309.5931,602.1
309.6731,184.8
309.7725,326.1
309.7749,489.1
309.7769,511.4
309.892,302.9
309.9194,554.6
309.952,232.2
310.0454,93.3
310.1497,182.8
310.1785,90.3
310.2101,131.7
310.2777,19.1
310.3447,528.8
310.4613,25.6
310.4939,147.6
310.5133,174.9
310.5923,23.5
310.5992,826.3
310.6772,583.8
310.8458,50.1
310.8762,4943.1
310.9655,179.8
311.0032,191.2
311.012,128.5
311.1195,286.8
311.1908,444
311.3144,438.6
311.3575,154.1
311.3932,128.1
311.4264,19.1
311.4978,141.2
311.5943,742.2
311.739,125.5
311.8483,18.9
312.0132,144.7
312.0412,2255.9
312.0573,230.4
312.1375,717
312.3081,326.1
312.5375,187.7
312.5593,22
312.6123,413.7
312.7318,174.3
312.784,351.4
312.8586,682.6
312.8729,362.4
312.9135,110.2
313.0023,86.9
313.0368,901.3
313.068,216.5
313.085,141.8
313.2294,124.1
313.2742,38298.9
313.3256,121.4
313.4431,235.3
313.4576,503.9
313.4785,408.1
313.5704,610.4
313.594,20.9
313.6946,19
313.9996,920.4
314.0041,208.7
314.0149,309.2
314.0864,434.1
314.0914,151.7
314.1885,152.5
314.2774,3289.4
314.2967,91.9
314.4939,162.9
314.5481,542.2
314.5982,458.2
314.645,226.5
314.8373,5005.3
314.874,19.5
314.9005,227
314.9461,161.1
314.9487,227.8
314.969,579.4
314.9994,5379.5
315.004,3398.8
315.0183,29.1
315.0284,154.8
315.0402,511.4
315.0431,463.2
315.0446,454.4
315.0471,639.7
315.0554,7900.5
315.0574,5956.2
315.0594,3495.9
315.0618,5031.6
315.064,5007.9
315.0667,19559.2
315.0698,24844.3
315.0734,19984.1
315.0804,7569391
315.087,28709.9
315.09,14885.7
315.0923,11579.3
315.0944,8453.2
315.0966,5059.6
315.0987,3516.7
315.1008,3979.3
315.1029,2572.2
315.1049,1777.7
315.1095,196.2
315.1114,405.4
315.1137,290.9
315.1154,315.4
315.1242,195.4
315.126,257
315.1523,808.7
315.1613,6199.5
315.2602,113
315.3239,5408.7
315.4117,20.2
315.4603,292.6
315.4628,522.3
315.4642,489.7
315.4859,443.9
315.4952,422
315.5045,22.6
315.5229,471.3
315.6193,518.6
315.6631,146.9
315.7032,107.2
315.7377,96.6
315.8176,384.8
315.9146,143.7
315.9263,537.5
316.0687,1080.6
316.0777,40149.2
316.0837,787800.4
316.1752,557
316.3182,378.9
316.3953,114.1
316.4093,668.8
316.4741,565.7
316.9629,104.1
316.987,1334.9
317.0562,780
317.0653,2724.7
317.0842,87872.1
317.0879,16350.1
317.2492,468.5
317.4539,19.8
317.5464,272.7
317.986,1042.5
318.0268,227.5
318.0878,8801.5
318.1362,399.4
318.2304,194.1
318.241,160.8
318.2965,246.6
318.3299,210.5
318.4808,332.6
318.4963,242.8
318.5157,291.5
318.5408,125.4
318.5639,90.9
318.6327,20
318.8042,483.6
318.8648,19
318.8847,91.1
319.0108,465.5
319.028,518.7
319.0516,119.1
319.1503,206.9
319.1626,826
319.1813,21
319.1948,40940.3
319.2336,18.7
319.2963,119.9
319.5225,101.2
319.5486,821.2
319.6534,442.7
319.7894,100.8
319.9001,123.3
320.0749,252.9
320.1984,4744.7
320.2062,106.8
320.259,1099.5
320.449,722.7
320.5033,19.7
320.5468,101
320.617,127.6
320.7491,590
320.7976,22.3
320.8555,348.9
320.9051,422.9
320.9671,20.2
321.0669,567.6
321.2105,29696
321.2327,263.9
321.2339,276.7
321.2623,108.7
321.3866,472.1
321.5137,176.9
321.5188,326.8
321.7567,489.1
321.8161,257.3
321.865,136.1
321.8824,298.3
321.9698,95.9
321.9777,142.1
322.0091,143.5
322.1265,615.4
322.2137,2327.2
322.2675,159.7
322.4455,348
322.4875,500.5
322.5132,92.3
322.5977,502.8
322.6332,168.8
322.6906,111.8
322.8298,18.1
322.9635,129.9
323.0207,9366.4
323.1191,402.7
323.1665,165.1
323.2191,82.3
323.2265,2045.5
323.2508,98.6
323.261,729.4
323.7649,20.2
324.0056,87.9
324.1494,178.9
324.2688,123.5
324.3234,270.5
324.3602,117
324.4199,835
324.5596,4895.9
324.5661,3630.1
324.5741,2745.3
324.5832,2777.2
324.6048,704.8
324.7094,888.6
324.8531,4019.4
324.8831,490.5
324.9198,560.7
325.0025,2345.3
325.0566,565.1
325.1611,116.9
325.1937,321.5
325.2118,809.4
325.2986,187.6
325.3437,300
325.4022,174.4
325.4826,23.8
325.5468,48.3
325.6378,21.6
325.8139,396.2
326.0048,27.3
326.035,300.2
326.0995,146.1
326.2062,107.5
326.2184,311.3
326.4101,20.3
326.4197,447.7
326.5368,528.1
326.602,362.2
326.7567,182.7
326.8012,244.4
326.8328,178.4
326.8382,287.4
326.8503,1927.3
326.9834,302.5
327.0157,5782.7
327.0522,2472.6
327.1496,123
327.2275,4178.6
327.2467,451.3
327.3327,208.8
327.4486,653.8
327.463,480.7
327.6883,94.8
327.7082,708.9
327.7363,101.8
327.8684,134.7
327.9083,678.5
328.0152,860.8
328.0844,602.9
328.1095,109.2
328.2808,158.4
328.3393,431.3
328.3451,415.7
328.3954,131.7
328.4055,605.8
328.4207,395.3
328.4376,161.2
328.4404,305.3
328.647,138.4
328.7511,248.8
328.9923,415.6
329.0473,18.5
329.096,2278.7
329.3794,603.7
329.5213,572.9
329.5552,165.8
329.6466,735.9
329.8196,143.8
329.8263,94.9
329.8998,95.7
330.059,175.7
330.0964,19.8
330.1274,108.5
330.1572,142.1
330.2008,142.5
330.2065,464.3
330.2504,159.1
330.277,275.5
330.3436,226.3
330.3984,22.1
330.407,721.6
330.4199,251.7
330.4756,651.1
330.5362,270.7
330.6534,92.5
330.6691,22.4
330.826,189.3
330.8313,474.5
330.967,173.1
330.9779,513.3
330.9876,24.1
331.0125,21.5
331.0195,911
331.0456,142747.8
331.0543,1181624
331.1486,22.4
331.6373,450.7
331.8613,191.8
331.9639,18.8
332.0176,373.1
332.0484,10220.9
332.0577,107369.9
332.2185,635.1
332.4776,283.2
332.6102,356.3
332.8181,305.9
332.9496,636.3
332.9613,522.4
333.0525,69209.2
333.058,11249
333.1332,601.7
333.1599,487.4
333.2306,619.8
333.3217,480.1
333.3747,141.5
333.379,781.2
333.426,20.3
333.5007,325.1
333.5354,18.6
333.6807,345.5
333.8872,454.3
333.9277,120.9
333.9717,17.2
334.0559,6156.4
334.0901,59.7
334.2857,262.8
334.3835,238.1
334.425,123.5
334.477,461.8
334.5555,54.4
335.0092,662.5
335.0382,751.5
335.1666,759.7
335.3566,542.7
335.4059,399.8
335.4732,581.9
335.9,99.2
335.9266,348
336.0148,582.2
336.0485,580
336.1989,227.1
336.2833,27.1
336.4844,115.3
336.5507,221.7
336.7258,243.8
336.8781,282.3
336.9477,111.5
337.0363,10058.6
337.0499,18877.9
337.0623,594859.9
337.1519,203.5
337.2743,11868.8
337.6361,82
337.8068,52.4
337.9299,555.8
338.05,508.9
338.0657,54619.5
338.2194,396.2
338.2842,170.4
338.3101,137.7
338.3428,41
338.4594,89.3
338.7658,116.1
338.7863,399.6
338.8622,243.9
338.9236,579.8
338.9547,590.7
339.0386,1236.5
339.0473,1013.4
339.0662,4217.2
339.2545,150.1
339.2899,8011.9
339.3023,19.4
339.3811,116
339.4821,43
340.0145,261.1
340.1192,242.2
340.174,595.4
340.2921,904.4
340.3976,21.6
340.5269,296.8
340.5913,223.1
340.6088,114.6
340.7827,724.3
340.8388,512.1
340.9572,706.9
340.977,163.8
341.0181,69.2
341.0524,102.4
341.1824,480
341.2333,19.6
341.2437,581.3
341.3056,4987.9
341.3676,103.3
341.3823,131.9
341.5315,128.7
341.6218,159.3
341.6328,556.2
341.8935,181.5
341.9091,544.4
342.0147,742.5
342.289,155.5
342.5224,103.6
342.7736,150.4
342.8246,792.1
342.8495,879.1
342.8651,312.6
342.8687,566.3
342.9896,2888.2
343.0266,851.3
343.1089,396.6
343.1948,9991.2
343.2883,96.1
343.3845,237
343.501,557.6
343.5878,19.5
343.6211,666.8
343.6356,126.2
343.7548,709.2
343.7769,90.3
343.7971,259.3
344.1944,19.4
344.354,111.2
344.5797,543.1
344.6167,251.9
344.7458,44.1
344.7899,17.4
344.9879,578.5
345.0772,576.7
345.092,19.6
345.2098,610.1
345.4338,22.5
345.4613,855.1
345.6074,85.4
345.8946,491.5
345.9488,650
345.9841,2640
346.0093,36.5
346.0394,394.1
346.1428,360.9
346.1919,768
346.2109,125.6
346.2486,126.1
346.5106,112.7
346.6151,110
346.6335,84.2
346.6961,133.3
346.7821,376.2
346.8681,471.2
346.9223,106
346.9651,18.2
347.0007,485.3
347.0803,406.3
347.1299,609.3
347.2131,291.1
347.3491,110.6
347.4976,169.9
347.6853,314.1
347.6879,299
347.7104,578.1
347.7336,109.2
347.8685,618.1
347.9073,762.2
347.9234,229.3
348.0428,411.9
348.0689,182.4
348.0981,441.1
348.1911,278
348.4235,706.6
348.6692,261.2
348.6834,257.9
348.742,118.1
348.8012,20.1
348.9097,18.9
349.1161,95.6
349.1427,212.7
349.26,105
349.3298,152.2
349.6401,82.2
349.6804,569.7
349.9416,380.8
350.0143,32.3
350.2265,556.2
350.6309,121.4
350.7624,256.5
350.8075,247.6
350.8559,602.8
351.0543,247.2
351.2089,525.2
351.2611,303.8
351.4118,194.4
351.5897,107.2
351.7213,112.5
351.8818,626.7
351.9297,48.3
351.9672,44.7
352.0468,19.2
352.1482,456.9
352.2354,91.5
352.6892,539.9
352.8274,199.9
352.8978,959.2
352.9155,184.1
352.9389,18.1
353.0067,289.3
353.0089,346.7
353.0274,132946
353.0363,197390.9
353.1117,21.2
353.3501,482.2
353.3971,260.5
353.4696,19.1
353.7678,20.9
353.7967,19.6
353.9115,317
353.9744,19
354.0021,490.1
354.0307,12005.1
354.0396,18852.8
354.1235,128.1
354.3504,129.5
354.3704,279
354.4141,560.2
354.8956,787.8
354.9938,302.8
355.012,2264.2
355.0346,12648.6
355.0586,977.9
355.0704,429.7
355.1544,112.1
355.1694,389.9
355.185,140.2
355.3856,246.4
355.4112,124.2
355.4767,111.4
355.5416,20.3
355.7408,582
355.8461,361.7
355.9988,431.5
356.0155,161.9
356.0722,28.9
356.3913,95.8
356.4738,150.7
356.5688,249.2
356.5871,170.4
356.6605,688.7
356.8013,226.4
356.8631,189
356.9978,260
357.0088,1061.5
357.019,315
357.0736,85.9
357.2443,21.8
357.3013,491.6
357.3986,775
357.417,123.5
357.4581,254.7
357.5972,314.9
357.6005,332.6
357.6342,110.3
357.7102,106.6
357.7997,316.4
357.8336,149.2
358.0082,24.1
358.0137,22.3
358.0252,138.2
358.0554,551.8
358.1634,242
358.3083,18.6
358.3158,17.3
358.3675,659.7
358.4668,17.4
358.5151,125
358.8055,258.8
358.9024,244.1
358.9093,397.3
358.9254,715.7
359.0078,569.9
359.0319,11115.6
359.0443,307796.1
359.0593,221.4
359.07,316.6
359.297,58.4
359.4153,21.9
359.4978,172.3
359.5149,345.9
359.5745,697.3
359.578,874.3
359.5982,744.4
359.6087,25.5
359.6351,281.4
359.6442,185.8
359.6659,794.7
359.668,826.3
359.6766,549.5
359.6875,169
359.6935,585.6
359.7082,243.6
359.7118,414.8
359.7256,883.2
360.0326,260.7
360.0476,25269.7
360.1364,18.4
360.2918,148.8
360.3242,353.8
360.6421,428.2
360.6728,775.1
360.7884,404.8
361.0204,3287.5
361.0296,131.6
361.0478,347.7
361.1024,274.4
361.1371,19.6
361.2436,18
361.2744,120.7
361.3273,53.8
361.3656,523.4
361.4936,347.8
361.6375,18.1
362.0631,19.5
362.2659,181.7
362.3051,174.7
362.5993,86.2
362.6124,20.2
362.7525,116.2
362.7673,129.5
362.7861,355.6
362.8636,87.3
362.8872,24.2
362.9272,1799.5
363.1205,19.4
363.2489,162.4
363.3541,169.7
363.4133,193.5
363.6377,357.7
363.7199,332
363.8003,120.3
363.8027,130.2
363.9101,140.4
363.9323,349.8
363.9995,372.9
364.005,556.5
364.0496,239.2
364.1873,144.3
364.1932,52.2
364.4151,20.9
364.496,150.1
364.5997,85.5
364.6103,203.8
364.73,754.9
364.8876,757.6
364.8993,19.6
365.0789,478.7
365.1062,646.6
365.4373,102.8
365.46,118
365.5942,152.2
365.6341,99
365.8807,150.6
365.953,132.5
366.0141,597.3
366.4946,141.2
366.6475,573.1
366.6846,131
366.7308,471.9
366.7492,106.6
366.8523,100
366.8714,298.2
366.8937,457.2
366.9138,577.7
367.012,393.4
367.1212,512.7
367.1942,1224.3
367.2771,555.5
367.3512,552.3
367.6622,427.9
367.8703,560.8
367.9131,512.2
368.0331,407.7
368.1979,393.7
368.259,22.6
368.3446,272.6
368.4152,292.1
368.4264,664.4
368.4552,174.7
368.4619,19.4
368.4859,318.9
368.4992,523.1
368.7532,151.9
368.8348,393.2
368.8705,375.6
368.9747,387.7
368.9922,3394.6
369.0014,17287.3
369.0102,8492.5
369.2387,311.2
369.2793,163
369.3514,42.1
369.4692,22.4
369.4949,597.2
369.6912,134.4
369.7793,580.4
369.8875,175.5
369.9752,523.5
370.0038,347.4
370.1344,115.3
370.1443,19.7
370.4147,23.7
370.4673,114.6
370.5188,88.9
370.6977,418.8
370.8046,124.1
370.9926,462
370.9991,146.1
371.0091,112.3
371.0428,1644.6
371.245,18.6
371.322,504.9
371.4268,386.3
371.4967,116.8
371.5612,229.4
371.6291,390.9
371.7099,508.8
372.0046,106.4
372.0459,459.3
372.1027,301.9
372.1384,359.3
372.1963,315
372.2501,334.2
372.299,259.3
372.4039,17.5
372.5625,329.9
372.9126,21.7
373.0709,585.5
373.2507,120.7
373.4358,187
373.4477,45
373.503,194.7
373.8269,396.4
374.1456,265.1
374.2531,535.4
374.5145,254.4
374.6987,568.1
374.7695,118.7
374.8753,318.5
374.8844,382.8
374.9101,303.8
374.9472,445.7
374.9849,22.1
374.9972,652.4
375.0093,118799.3
375.0183,98394
375.0918,506.7
375.1161,542.4
375.2077,120.1
375.2889,99.1
375.4261,562.2
375.4833,281.4
375.5967,20.6
375.7054,107.9
375.9212,24
375.9915,437.8
376.0129,7582.7
376.0216,8443.6
376.0901,20.9
376.1873,317
376.2208,402.6
376.2513,112.7
376.3029,494.7
376.3099,18.5
376.4365,1380.9
376.5439,554.3
376.6688,17.3
376.7737,208.6
376.9944,1013.5
377.0166,4803.7
377.0414,355.8
377.1438,364.3
377.4796,20.1
377.6575,20.5
377.7556,20.4
377.8421,170
377.9693,541.5
377.996,628.8
378.0046,19.7
378.0844,110.8
378.291,150.8
378.335,329.4
378.6971,314.6
378.7709,217.5
378.8784,17.9
378.901,1293.5
378.9906,70.1
379.1483,193.3
379.2769,533.9
379.5668,261.8
379.6915,47.7
379.8293,314.8
380.0913,802.7
380.2284,18.2
380.2787,366.6
380.4101,399.5
380.5493,667.8
380.6296,615.8
380.6985,512.2
380.7564,668.6
380.7919,86.7
380.8917,318.5
380.9896,51
381.0138,19008.4
381.0262,171659.1
381.0801,423.8
381.3649,148.6
381.5877,236.2
381.6636,596.7
381.8572,168.9
381.9198,126.9
382.0175,291.9
382.0295,15248.6
382.0945,228.6
382.1087,563.4
382.4613,18.3
382.5102,615.6
382.6446,132.9
382.7672,1208.3
382.9166,518.4
383.0118,774.3
383.0301,256.7
383.0736,22
383.1165,142864
383.6312,384.9
383.6447,509.4
383.7726,120.1
383.8421,225.2
383.9277,18.8
384.1198,17397.1
384.2115,233.5
384.2428,17.8
384.4368,112.6
384.7646,856.5
384.825,20
384.9222,420.5
384.9389,216.4
385.0375,830.1
385.0655,19.5
385.1494,305
385.1792,601.3
385.2765,107.6
385.3539,115.8
385.6029,145
385.6247,187.6
385.6766,492.9
385.7188,375.4
385.9044,268.9
385.9382,507.5
386.0259,433.2
386.0699,112
386.0806,307.2
386.1631,110.8
386.1975,103.7
386.2679,324.1
386.3754,110.6
386.4492,122.9
386.6069,98.4
386.6827,91.5
386.8026,367.7
386.8461,599.9
386.8667,21.3
386.9422,421.3
387.003,2257.7
387.2127,294.6
387.2647,98.6
387.3335,45.2
387.3453,307.4
387.5686,451
387.6175,342
387.6285,117.5
387.6749,280.9
387.7237,377.5
387.7611,442.1
387.791,608
388.1217,920.2
388.2656,484.6
388.3723,554.2
388.3892,89
388.4496,19.6
388.8146,174.4
389.2238,178.5
389.4438,238.9
389.9044,144.1
389.9739,1142.5
389.9943,22.3
390.1357,170
390.1514,173.8
390.1581,130.8
390.2254,497.6
390.2626,575.7
390.4719,101.8
390.6079,118.5
390.6334,17.8
390.6553,592.4
390.7994,1193.9
390.8405,311.9
390.853,616.3
390.9547,378.5
390.9743,14728.7
390.9833,22137.7
390.9922,13128.7
391.3127,117.7
391.4056,648.8
391.5794,200
391.6624,20.8
391.6745,83.7
391.7653,111.7
391.9882,181.8
391.9952,158.9
392.0587,17.7
392.488,519.6
392.5619,270.3
392.6352,20.2
392.755,199.3
392.7966,1270.5
392.8777,19.5
392.9592,46.1
392.9782,170.4
393.0645,115
393.1223,670.6
393.1994,530.2
393.2161,236.5
393.2284,504.4
393.2984,26.1
393.751,538.9
393.8222,127.7
393.8496,595.5
393.8618,578
394.0423,131.5
394.1732,285.2
394.2423,142.6
394.3007,288.9
394.3308,281.1
394.4715,59.7
394.6852,131.8
394.9549,32.8
394.9921,105.7
395.0232,141.6
395.0523,188.5
395.1699,18.1
395.2809,21.4
395.3172,237.4
395.551,287.2
395.5619,620
395.7016,19
395.7878,307.2
395.7901,353.7
395.9047,536.8
395.9659,469
395.9884,148.6
396.0285,50.9
396.1216,95.3
396.2259,567.8
396.237,734.4
396.2975,21.9
396.3711,487.4
396.3732,500.2
396.7892,118.4
396.8364,18.6
396.9913,170189.4
397.0002,57011.2
397.1098,236.6
397.3306,258.8
397.4615,46.7
397.5603,156.5
397.5996,591.4
397.7034,604.8
397.7904,107.2
397.9326,483.2
397.9535,654.4
397.9945,11907.6
398.0036,2441.5
398.0873,47.2
398.0938,145.4
398.1639,100.1
398.2037,1807.5
398.2417,3338.4
398.7175,504.5
398.7411,2777.9
398.7873,273
398.9317,17.4
398.9757,96.2
398.999,373.4
399.245,670.7
399.3256,154.2
399.4312,86.7
399.5017,104.9
399.6192,55.1
399.6714,19.7
399.7303,122.2
399.861,305.4
400.0505,132.1
400.3419,17
400.4173,190.3
400.4932,231.7
400.5613,164.2
400.7382,1022.2
400.8269,553.6
400.8555,21.8
400.9729,43.6
401.0582,402.9
401.0662,46
401.1626,21.3
401.2158,20.5
401.3812,21.1
401.6057,284.4
401.7173,17.5
402.1706,521.4
402.3877,255.9
402.4073,185.6
402.4363,230.9
402.511,525.3
402.5633,171.7
402.5864,95.9
402.6864,518.9
402.8248,626.7
403.0081,246284.6
403.3278,22
403.4036,665
403.527,52.3
403.5876,111.7
403.7707,18.1
403.806,356.2
404.0115,22503.2
404.5095,84.6
404.6217,138.6
404.8214,403.6
404.831,471.3
404.8817,120.9
405.0125,1603.9
405.0368,107.1
405.2185,172.1
405.5883,243.6
405.6761,135.4
405.9089,109.2
405.9479,510.5
406.2607,95
406.3297,1277.5
406.5034,377.9
406.6097,182.5
406.7734,1866.1
406.8891,250.1
406.9113,483.2
407.2251,20.9
407.3331,283.3
407.5838,154.8
407.7545,362.5
407.825,174.5
408.068,240.3
408.0963,100.2
408.1309,128.1
408.2138,285.3
408.7044,146
408.7699,2057.8
408.7967,19.2
408.8761,87.2
408.9846,3738.4
409.0015,542.9
409.0954,97.6
409.1369,18.5
409.2124,153
409.345,393.2
409.3856,259.7
409.5305,20.5
409.5764,175.5
409.7019,109.3
409.7801,19.1
409.8079,571.1
409.8275,973.7
409.8617,18.4
410.062,315.1
410.0972,408
410.4404,134
410.5349,91.2
410.7665,669.6
410.7788,815.3
410.8489,100.4
410.8584,474.2
410.9599,651.4
410.969,80.8
410.9779,209.1
411.0397,278.4
411.0557,310.8
411.1966,91.6
411.6149,592.4
411.9647,538.4
412.0323,679.2
412.1274,113.2
412.1999,109.6
412.3216,1793.6
412.4763,206.3
412.5808,99.6
412.6414,103
412.7271,183.9
412.872,157.1
412.9652,30534.1
412.974,9276.8
413.094,216.5
413.2225,21.1
413.2669,3541.6
413.3249,178.2
413.334,359
413.6372,107.3
413.684,18.9
413.7088,96.1
413.9038,163.5
413.9873,122
414.0274,202.1
414.0822,93.5
414.2681,739.9
414.2912,18.9
414.3268,547.1
414.4708,132.1
414.7159,1082.2
414.823,18.2
414.8346,574.2
414.9636,518.3
414.9828,20.1
415.1259,166.2
415.1428,173.2
415.2082,117.2
415.2218,1063.7
415.2697,405.1
415.7302,95.2
416.0394,168.8
416.1354,8853.6
416.2145,65024.7
416.2332,545.6
416.2624,121.2
416.4001,684.7
416.526,498.6
416.5963,528.6
416.6522,216.2
416.7563,585.1
416.8005,541.8
416.9245,93.7
417.1296,201.6
417.1427,399.9
417.202,700.6
417.2175,7631.1
417.3405,451.6
417.5155,160.5
417.6722,575.4
417.7243,142.5
418.0033,499.3
418.1648,332.3
418.1834,297.7
418.2329,18.5
418.3391,519.3
418.6587,127.9
418.6732,19.1
418.8005,582
418.9053,302.5
418.9821,83827.9
419.083,473.9
419.1015,476.3
419.1626,331.5
419.1735,553
419.255,1014.7
419.2645,435.6
419.3483,281.9
419.4101,143
419.8108,410.1
419.9853,5697
420.3621,623.1
420.4161,82.5
420.4354,288.4
420.4539,105.9
420.757,283.4
420.8854,659.6
420.9036,157.9
420.9581,980.8
420.9806,3318.7
421.1947,129.5
421.2984,460.5
421.4178,528.3
421.4501,445.1
421.4582,257.6
421.5188,290.9
422.3041,61.5
422.3751,107.3
422.8151,44.4
422.9458,483
422.9556,947.9
423.7169,455.5
423.9565,115.6
424.0154,457.5
424.574,418
424.6587,119.2
424.7445,336.3
424.8957,20.5
424.9307,20.5
425.0656,315.8
425.1233,92.5
425.1888,1076.2
425.3174,115.6
425.4481,230.4
425.6062,165.3
425.8112,482.1
425.8671,203.8
426.1001,18.2
426.5696,186.7
426.599,398.7
426.7961,425.9
426.853,180.4
427.164,482.9
427.1985,562.6
427.3173,381.6
427.3883,157.8
427.485,526
427.6267,297.6
427.6557,99
427.7025,172.3
427.7145,96.9
428.5316,494.5
428.5451,112.9
428.6626,627.3
428.8035,715.7
428.9054,212.5
428.9387,3149
428.9657,518.6
428.9766,163.5
428.9834,145
429.0735,365.6
429.0839,564.1
429.2175,138.5
429.2409,394.1
429.4008,813
430.0372,615.1
430.0891,25.9
430.155,743.3
430.217,174.3
430.8022,503.2
430.8511,161.2
430.9144,1547.7
431.0839,19.4
431.2175,3294.8
431.3305,264.4
431.6321,132.9
431.6796,94
431.7207,128.1
431.8284,144.2
431.8858,631.6
432.0392,294.1
432.1048,51.7
432.1725,116.3
432.4256,132.8
432.4753,132.3
432.6676,169.5
432.7556,467.7
432.947,329.3
433.357,677
433.3655,156.1
433.5776,212.1
433.8623,464.7
434.0533,102.5
434.1477,106.6
434.2039,475.8
434.3697,330.1
434.5241,312.8
434.5802,320.8
434.6098,90.5
434.6639,285.3
434.758,376
434.9561,14693.5
435.1247,420.8
435.2395,16.7
435.381,290.8
435.4072,109.8
435.9587,682.5
435.9779,347.7
436.0499,315.7
436.1074,347
436.1273,95.5
436.3164,146.6
436.4636,141
436.4871,20.6
436.5542,203.8
436.6638,678.3
436.7558,270.6
436.8595,628.4
436.8664,286.8
436.9539,1058.8
437.1006,87.9
437.2051,835.1
437.2699,91
437.3326,110.9
437.7969,329.5
437.8089,475.3
437.9733,511.2
438.0698,495.7
438.1183,295.3
438.1959,3011.4
438.6799,531.9
438.7465,249.1
438.8979,405
438.9723,2744.9
438.9849,2075.4
439.2898,492.2
440.2216,135.7
440.2563,837.2
440.5316,172.4
440.6571,235.5
440.7233,26.8
440.8251,294.2
440.8531,129.8
440.9198,123.3
440.9692,1462.2
440.9809,116.1
441.2558,208.1
441.298,279
441.8028,138.6
442.1058,48.1
442.2397,260.6
442.3257,19.3
442.4872,684.8
442.7224,395.5
442.7718,18.8
442.8562,280.1
443.1079,122.3
443.1683,419.4
443.5811,54.2
443.7417,124
443.8334,533.6
443.9298,82.6
444.0001,23.6
444.0253,193.9
444.1577,144
444.4503,111.4
444.9146,367.1
445.0169,131.6
445.1392,365.2
445.2325,1268.4
445.3151,221.6
445.5238,523.9
445.5463,435
445.7652,623.8
445.8985,94
446.0765,125.5
446.1675,292
446.6787,49.6
446.735,186.7
446.8796,123.9
446.8901,610.6
446.9109,130.8
447.3084,386
447.9778,180.9
448.1423,130.1
448.4033,105.3
448.7296,103.7
448.7785,203
448.9328,5025.1
448.9539,18.2
448.9642,352.2
449.001,642.3
449.0854,92.8
449.1545,2145.8
449.2256,83
449.2353,97.2
449.5983,19
449.6432,146.5
449.8825,575.4
450.158,336.4
450.1735,340.1
450.2221,218.8
450.7053,99.8
450.7553,455.8
450.9057,18.8
451.0869,82.7
451.1009,103.1
451.1504,152.9
451.5634,54.3
451.8097,94
452.5747,647
452.7436,93.4
452.7694,162.8
452.9135,190.5
453.0405,150.5
453.1721,914.6
453.2856,486.7
453.5829,20
453.6404,91.9
453.6645,399.5
453.7098,187.2
453.7786,292.5
453.9036,102.8
453.9638,233.3
454.0122,569
454.2237,131.3
454.2643,115.1
454.343,294.3
454.5785,595
454.6428,109.5
454.7035,421.9
454.7584,635.4
454.8016,210.9
454.8231,503.4
454.8788,261.5
454.95,38584.5
455.1153,393.7
455.137,264.4
455.3634,299.5
455.388,290.4
455.4028,776.6
455.4375,576.7
455.5282,514.6
455.5843,393.3
455.6427,210.9
455.6877,80.4
455.9534,1581.7
456.0795,125.3
456.2734,526.8
456.3111,16.4
456.3957,350.2
456.5942,139.2
456.6161,403.5
456.6479,700
456.7002,871.3
456.7232,88.5
456.7864,123.4
456.8194,507.2
456.9208,493.9
456.9472,9018.9
457.1648,558.2
457.233,12331.5
457.6174,359.1
457.7198,109.8
457.7834,527
457.9495,655.6
458.1159,409.5
458.1461,102.8
458.1687,419.9
458.2617,233
458.277,467.2
458.9613,1649.7
459.1846,320
459.2487,378292.3
459.3785,189.5
459.9141,370.5
459.9645,401.4
459.9811,100.3
460.252,80025
460.321,429.1
460.5449,18.7
460.648,366
460.7853,153.8
460.9667,70209.4
461.255,3955
461.4268,286.3
461.5277,97.6
461.7448,162.3
461.8924,495
461.9703,5735
461.9995,124.7
462.3444,97.8
462.3921,273.3
462.5147,204.6
462.8328,349
462.9639,22635.7
463.0797,197.3
463.2981,403.1
463.3218,210.6
463.3421,19.4
463.3674,412.8
463.4305,367.6
463.5503,248.8
463.5707,380.9
463.735,61
463.8897,398.5
463.9677,643.7
464.1489,408.6
464.2691,265.9
464.3256,225.2
464.8475,739.7
464.8722,104.6
464.9067,531
464.9275,635.5
464.9787,10399.6
465.0072,460.4
465.1189,24.2
465.1336,590.9
465.2809,20.1
465.7436,737.2
465.8066,20.3
465.8369,299.2
465.8653,117.5
465.8795,599.8
465.981,318.2
466.2433,18.4
466.4707,229.5
466.6844,594.2
466.7812,145.7
466.8241,329.4
467.0411,483.7
467.463,55.1
467.5506,491.6
467.6433,277.4
468.2819,687.2
468.3076,2235.5
468.5238,136.9
468.9641,508.7
469.0025,532.6
469.1417,25.7
469.2541,414.2
469.3122,21.6
469.3316,329
469.3949,266.3
469.4607,212.2
469.4901,274.4
469.6928,590.6
469.8628,298.3
470.238,19
470.7669,159.2
470.8724,295.7
470.9076,25.2
470.9238,14269.7
470.9956,4263.9
471.0266,286
471.1059,249.9
471.1171,151.5
471.1197,150.3
471.3026,500.8
471.928,478
472.0219,117.3
472.2492,123.5
472.3035,2351.7
472.6059,45
472.674,465.7
472.7862,21.9
472.7991,217.2
472.9039,1692.6
472.9214,4431.5
472.9312,1164.5
472.9603,755.7
473.0138,115.5
473.1498,103.2
473.2644,1612.4
473.3722,499.2
473.8396,137.5
473.9531,564
474.1105,524.4
474.2453,752.4
474.6066,120.7
474.7214,17.4
474.8326,103.6
474.9163,348.8
475.0242,411.2
475.1704,117.7
475.2225,20338.2
475.3178,488.6
475.8456,525.3
476.0248,192.6
476.226,3592.4
476.345,501.7
476.4608,468.3
476.486,445
476.7473,579
476.7613,19.1
476.8401,317.4
476.8759,113.6
476.8799,109.6
476.9054,246.1
476.9407,42338.3
477.0888,603.9
477.1135,816.4
477.2238,89.3
477.6093,106.4
477.9439,2604.7
478.2926,703
478.3043,815.4
478.3296,39790.8
478.7098,789.3
478.7536,318.2
478.8479,288.2
478.9034,125.8
478.9377,13703.4
479.0696,467
479.2282,682.1
479.271,608.4
479.3188,522.4
479.3328,8384.8
479.4094,622.2
479.4953,118.1
479.6259,20.7
479.8751,119.1
479.9163,21.3
480.106,847.6
480.1644,19.2
480.5264,543.2
480.6312,283.6
480.7572,122.8
480.789,19.4
480.953,2004.2
481.0816,227.9
481.0916,88
481.1216,809.9
481.2357,769
481.3313,299.6
481.6997,105.9
481.9457,107
482.361,780.3
482.5535,91.1
482.7765,118.3
482.792,19.4
483.0921,722.4
483.2486,143251.6
483.3531,154.5
483.4272,114.2
483.6021,290.1
483.6786,439.5
483.7035,722.7
483.7534,707.1
484.0586,406.4
484.0725,329.5
484.1189,19.4
484.252,35069.7
484.3579,215.4
484.4652,766.3
484.6053,447.7
484.7336,20
484.9462,112.8
485.2642,122581.1
485.2823,140.2
485.3219,309.1
485.4686,298.8
485.6607,22.8
486.0047,451.7
486.0427,195.1
486.2677,27308.4
486.3567,250.4
486.3898,236.5
486.4199,256.9
486.4844,686.3
486.7113,20.4
486.7319,19.4
486.8982,1277.1
486.97,1752.3
487.1504,24
487.2298,163.2
487.2799,93383.6
487.3254,87.7
487.4983,79.1
487.6527,271.6
487.7069,94.7
487.8791,583.3
487.9233,322.2
488.2833,17400.6
488.2981,920.7
488.4652,578
488.5967,461.1
488.8957,378
489.1272,50.2
489.2158,410.7
489.287,442.2
489.3558,171.6
489.3851,514.5
489.4163,563.1
489.4389,197.2
489.5075,101
489.5417,48.7
489.5921,1014.9
489.6042,514.4
489.7771,180.7
489.8037,83.7
489.9939,18
490.2911,7007
490.4018,136.7
490.4818,459.7
490.5973,178.7
490.6263,429.7
490.9167,512.3
491.0027,639.4
491.148,179.6
491.3711,667.3
491.6603,93.9
491.6883,420.2
491.7738,118.4
491.981,359.6
492.2533,819.1
492.4078,22
492.5622,193.4
492.8046,21.7
492.819,340.7
492.8656,142.9
492.9147,8127.3
492.983,186.6
493.0823,23.3
493.1976,91.3
493.5644,705.1
494.1281,163.2
494.2845,878.7
494.3246,8285.5
494.4399,446
494.8326,309.1
494.8432,223.7
494.9121,1092.1
494.932,243.3
495.0781,154.9
495.3303,492.4
495.4958,20.5
495.8937,111
495.9296,176.9
496.1986,113.3
496.3402,468556.7
496.6514,51.3
496.8145,332.6
496.8567,138.1
496.9318,1739.2
496.9441,177.9
497.2521,798.5
497.3435,110280.6
497.5184,588.8
497.5245,378.8
497.5636,312.9
497.8533,281.7
497.9879,22.2
498.0231,19.5
498.1054,86.4
498.1318,488.9
498.3468,9421.4
498.5568,18.6
498.691,741.2
498.7159,500.9
498.7804,310.7
498.8268,180.6
498.9282,1100
499.2228,6021.5
499.2511,672.9
499.2703,287.9
499.2899,330.7
499.6018,249.1
499.7027,309.1
499.7339,99.7
499.7551,239.8
499.8355,153
499.912,330.9
499.9388,278.7
500.0126,45.1
500.083,335.8
500.1202,130.1
500.4286,22.4
500.7127,126.8
501.102,466.2
501.1462,94.9
501.2385,6387.2
501.29,126.4
501.3405,98.3
501.4677,20.6
501.6408,16.8
501.7468,46.5
501.8554,727.2
502.0604,271.9
502.1382,102.3
502.3295,20536.4
502.7844,312.2
502.9876,482.5
503.0931,22.2
503.1074,110.9
503.2534,4841.2
503.2672,221.9
503.3338,2934.9
503.4699,128.2
503.5037,191.8
503.5653,94.6
503.8258,527
504.044,320.1
504.1611,380.4
504.3072,1524.8
504.3447,8546.5
504.4689,125.4
504.5998,791.6
504.6498,19.3
504.6933,544.3
504.769,18.7
504.8055,103.7
504.9118,704.1
504.97,846.4
504.9828,19.4
505.1119,131.4
505.1937,116.8
505.234,1459.4
505.2816,290.1
505.3207,379.8
505.3472,1722
505.3691,27.3
505.5086,449.7
505.6765,18.1
505.8146,702.4
505.8531,163.2
506.1,452.4
506.2653,887
506.3605,5060.5
506.6714,124.3
506.8916,4866.6
506.9327,20.6
507.0952,19.2
507.2487,16311.2
507.2938,130.5
507.5373,464
507.6096,155.8
507.6413,523.8
507.7993,94.2
507.8433,20.6
507.8599,493.8
508.2521,2475.2
508.3312,298.8
508.3766,1578.3
508.5664,351.8
508.6129,147.7
508.6863,349.6
508.7233,313.1
508.888,2209.9
508.9733,115.3
509.0053,6422.1
509.2475,48.5
509.2642,11625.8
509.4154,132.8
509.4309,312.9
509.5264,636.7
510.0482,556.2
510.0783,543.1
510.267,2164.2
510.2802,1095.7
510.2938,19.2
510.3095,200.4
510.3553,1064.4
510.9041,1241.9
510.9326,1209.6
511.0438,19.1
511.197,236.3
511.3707,107.2
511.4692,165.4
511.6573,90.8
511.7736,232.6
512.2345,440.5
512.2821,364.9
512.4537,17.4
512.6816,538.3
512.863,20.3
512.9085,13456.3
513.1229,16.9
513.197,147.2
513.2533,623
513.3048,698.8
513.3515,377.1
513.5091,406.8
513.7052,175.9
514.0956,214.1
514.3646,181.3
514.6552,820.4
514.9058,8624.1
515.0223,1539.8
515.1011,158.7
515.1712,476.1
515.1979,100.8
515.2641,217.3
515.2808,455.7
515.3415,51.2
515.3946,180.6
515.5146,442.6
515.6047,393.5
515.7357,326.1
515.7613,476.2
515.9142,150.6
516.1552,497.8
516.3066,15608.3
516.3351,364.8
516.6537,295.7
516.8515,134.1
516.9212,882.9
516.9511,324.2
516.9891,142.3
517.3101,2156.2
517.4531,154.2
517.4889,561.3
518.0136,114
518.0779,18.1
518.3222,633842.6
518.35,711
518.4006,113.5
518.894,714.1
518.9254,25315.2
519.0814,322.8
519.0992,268.2
519.2331,309
519.3009,340.9
519.3255,149865.7
519.6739,122.3
519.7838,331.7
519.8693,114.3
519.9012,189.2
519.9286,1107.3
520.1354,165.7
520.1681,162.9
520.2,811.3
520.2793,764.1
520.3402,159510.5
520.8038,167.6
520.9227,13770.2
520.9451,125.4
521.3435,42052.2
521.7694,46.4
521.926,461.9
521.9511,341.7
522.2267,249.9
522.2573,599.1
522.2735,474.7
522.3559,157392.9
522.5792,315.3
522.7435,376.8
522.772,110.2
522.9194,751.8
522.937,4503.9
522.9831,111.8
523.3593,40210.6
523.4352,21
523.774,88.7
523.9413,534.8
524.017,412.5
524.042,263.6
524.2249,138.8
524.3715,153213.4
524.4112,403.6
524.5466,199.5
524.7548,88.3
524.9343,1291
524.9788,436.3
525.0423,538.3
525.3749,43050.4
525.4552,119.2
525.4888,21.7
525.5259,92.4
525.573,47.7
526.1757,280.8
526.2249,559.2
526.3779,2617.6
526.5835,100.4
526.6836,459
527.0416,90.2
527.1828,118.2
527.2905,78.6
527.5597,182.3
527.7229,19.5
527.9957,220.5
528.0487,97.5
528.2087,481
528.3297,20.5
528.4065,146.4
528.4217,432.2
528.8826,5989.1
528.9542,2560.6
529.244,18.7
529.2618,90.4
529.2833,326.3
529.705,120.2
529.8281,140.3
530.1108,134.2
530.2874,340.1
530.3595,1318.9
530.4304,341
530.5038,531
530.5942,573.5
530.6266,128.1
530.8795,3117.5
530.9513,462.5
531.115,347.8
531.2483,6063.1
531.6564,316.2
531.6889,503
532.2805,2444.7
532.3377,6395.9
532.5748,629.8
532.9668,597
533.1878,140.8
533.3631,19.3
533.4526,18.7
533.8835,236.9
534.2962,189452.8
534.7824,23.3
534.8141,20
534.8994,15354.7
535.2125,560.4
535.2995,45404.5
535.4847,153.4
535.8679,77.9
535.9028,724.3
536.0504,346.7
536.2728,175.8
536.2947,9026.2
536.621,95.4
536.8966,10505.6
537.2856,370.5
537.297,614.5
537.345,830.9
537.3801,108.2
537.4722,286.1
537.649,173.9
537.7701,1076.6
537.937,716.5
538.1322,20.2
538.2624,553.6
538.3115,370.4
538.342,199
538.3771,760.8
538.6345,781.7
538.7145,521
538.7408,188.8
538.8934,1197.2
538.9108,1594.8
538.9812,252.8
539.0034,101.4
539.0498,201.8
539.2634,457.7
539.3501,118.4
539.6271,93.4
539.6842,106.8
539.8374,445
539.8721,411.1
539.9166,22.2
540.1481,457
540.1653,112.3
540.3064,349.6
540.3807,45.9
540.7109,286.6
540.7953,284.8
540.9082,676.8
540.9289,45.4
541.0028,277.7
541.086,129.5
541.3861,829.4
541.4303,106.6
541.6313,343.9
541.9229,445.8
542.0254,364.9
542.1131,331.6
542.3223,222649.1
542.3429,495.3
542.3811,20.2
542.6594,569.7
542.9176,582.7
542.9691,176.6
543.0122,116.9
543.1572,290.4
543.2768,109.2
543.3256,57082.7
543.402,897.5
543.6162,146.4
543.86,106.3
543.9708,511.8
544.042,179.6
544.2729,2221.9
544.3379,217174.3
544.3934,112.4
544.4155,1066.5
544.4726,164.1
544.5197,96.8
544.8021,627.7
544.8559,529.2
544.9486,976.4
545.1127,855.5
545.2674,179.8
545.3413,54622.7
545.5768,390.5
545.9527,235.1
546.3087,790.2
546.3535,184737.2
546.8515,453.4
546.9753,262.5
547.0596,361.3
547.0998,25
547.1715,404.5
547.3568,51505.5
547.7331,161.7
547.9524,358.6
548.1794,135.5
548.3239,512.3
548.3412,22.1
548.3605,5495.5
548.761,837.8
549.1518,148.1
549.3301,319.1
549.633,366.2
549.6425,61.3
550.0336,111.2
550.047,506.2
550.2197,134.9
550.3096,482.7
550.3276,46.9
550.8734,2764
551.0144,259
551.0391,99.5
551.2568,536.3
551.4184,109
551.6475,115
551.7042,338.4
551.7408,150.5
551.8096,20.7
551.9511,754.7
552.0467,481.6
552.2746,413.7
552.4075,1154.8
552.5854,544.8
552.6375,663.3
552.8712,1481.8
553.0137,349
553.315,349.2
553.3271,480.8
553.4813,109.9
553.7821,109.6
553.8221,110.4
553.8631,644.3
554.2182,42.1
554.5902,619.8
555.0159,503.9
555.1461,126.5
555.3062,112
555.5229,85.3
555.5532,458.7
555.6569,16.7
555.8067,211
555.8703,21.5
556.2739,1419.8
556.2975,116
556.3225,86.9
556.633,624.5
556.7817,141.8
557.0408,435.5
557.0838,23.4
557.2799,505.4
557.4774,203.1
557.5497,121.4
558.1161,567.6
558.2508,18.8
558.2962,69680.8
558.4758,309.4
558.6434,306.7
558.7462,691.4
558.7564,246.7
558.7914,105.9
559.1114,49.7
559.2996,15274.5
559.5505,118.3
559.6957,179.5
559.751,21.4
560.3117,60280.4
560.6722,504.9
560.7366,227.3
560.9196,557.5
561.0591,652.1
561.0786,134
561.1568,601.8
561.3155,14859.5
561.3316,551.7
561.4133,1583.4
561.4402,893
562.0355,458.8
562.2501,230.9
562.2633,22.3
562.3138,3315.1
562.3274,51137.3
562.4326,1222
562.5971,135.3
562.6346,88.8
563.0553,105
563.3309,12003
563.3942,286.2
563.5387,140.6
563.8542,97.1
564.1695,38.6
564.1956,295.3
564.3061,666.7
564.6433,26.8
564.7592,511
564.8868,18.3
564.9087,124.6
565.0425,412.4
565.0814,20
565.174,494.3
565.2496,272.5
565.7283,173
565.8184,18.4
565.9015,115.9
566.2431,18.1
566.3224,26746.6
566.3374,119.6
566.5942,407.6
566.6178,155.7
566.6684,288.7
566.8471,689.6
566.9173,20.3
566.9635,419.9
566.9734,289.5
567.039,98.5
567.0712,416.7
567.1849,758.3
567.3256,5535.9
567.4874,165.4
567.9635,197.7
568.0351,565.4
568.0805,259.7
568.3383,20352.5
568.3744,125.3
568.6651,98
568.7084,379.6
568.8016,96.7
569.0129,247.7
569.0353,18.9
569.2466,219.2
569.2785,48.5
569.3418,4122
570.1425,312.9
570.3499,529.5
570.4409,1140.6
570.4957,193.6
570.5847,605.5
570.7164,143.9
570.8671,3455.6
570.915,660.5
571.0599,551.5
571.2608,318.7
571.6477,192.8
571.7353,89.7
571.8039,530.1
571.906,260.2
572.1715,121.2
572.2493,172
572.6099,21.1
572.8648,2261
572.9804,404.7
573.0681,156.1
573.0889,91.2
573.3135,176.4
573.6452,796.9
573.9984,378.8
574.0165,397.3
574.1231,615.8
574.2842,1372.1
574.6038,318.3
574.7245,685
574.863,352
575.03,500.4
575.186,18.1
575.3579,623.5
575.504,8187.1
575.5547,371.1
575.6246,19.3
575.659,439.3
576.0357,194.3
576.0625,121.3
576.1373,787.8
576.2811,6678.8
576.405,94.1
576.4419,18.9
576.5067,1090.9
576.6783,730.1
576.8842,8623.3
577.2836,558.8
577.3768,631.4
577.5197,1081.2
577.6142,445.3
577.6414,184.3
577.8736,118.2
577.8871,731.7
577.9929,303.9
578.0258,809.4
578.2983,743.9
578.3934,18.6
578.5309,19.9
578.5407,21.8
578.6136,240.8
578.6281,830.4
578.809,404.9
578.8812,8119.8
579.0238,250.3
579.2031,18.9
579.4725,136.3
580.0207,19.8
580.2935,961.3
580.6836,273.4
580.8791,1990.2
580.8961,2756
581.1316,181.8
581.4587,185.2
581.4622,174.5
581.5512,111.8
581.8678,20.8
581.9125,524.2
582.1195,555.8
582.2787,998.3
582.2962,6604.4
582.3558,157.7
582.3892,483.1
582.4527,524.7
582.4749,688.9
582.5137,162.7
582.5447,618.3
582.5706,217.2
582.5872,183
582.6195,200.1
582.6423,128.3
582.6591,835.7
582.6706,273.9
582.6793,184.2
582.8935,1302.6
582.9652,106.4
583.1524,232.3
583.1795,20.6
583.2568,851.2
583.296,670.3
583.4624,317
583.6392,114.7
583.8323,853.9
583.8533,486.7
584.3117,3440.6
584.4552,119.3
584.7862,289.6
585.032,170.9
585.0751,19.3
585.0916,621.7
585.1898,423.6
585.2714,741.1
585.2942,755.8
585.3151,608.3
585.3736,124.3
585.5186,499.7
585.6499,159
586.0184,191.9
586.0745,454
586.0885,24.9
586.2473,394.3
586.3094,6332.7
586.3646,220.7
586.4452,242.2
586.5117,334.2
586.5897,147.7
586.6423,51.4
586.8418,2013.9
586.9126,1658.5
587.2311,218.3
587.4955,203
587.6655,116.3
587.7182,160.5
588.8385,1746.3
588.9095,342.2
588.9919,217.7
589.3384,338.1
589.4876,131.5
590.0086,780.5
590.212,117.2
590.322,8105.3
590.5099,297.6
590.7693,86.3
590.9741,442.1
591.039,576.3
591.327,910.3
591.7758,111
592.1122,120
592.5064,190.4
592.528,663.1
592.6804,211.7
592.8581,6159
593.0188,309.7
593.3735,444.9
593.4145,365.3
593.4354,134.1
593.5921,171.1
593.9334,183.1
594.0459,185.9
594.0924,112.5
594.3644,213.6
594.515,319
594.7017,157.4
594.7642,480.1
594.8278,117.7
594.8554,6552.7
594.8865,98.7
595.3872,81.9
595.4285,240.2
595.5721,177.2
595.7818,349.5
595.8595,328.5
596.4822,611.6
596.5029,338.2
596.5552,100.6
596.5929,434.1
596.7384,21.8
596.8527,1807.4
596.8701,475.6
596.9446,495.8
596.9942,491.5
597.0849,133.7
597.4642,1620.3
597.4859,9189.7
597.5883,509.9
597.6548,544.1
597.8452,396.8
597.9986,296.7
598.0128,188.6
598.2721,339.1
598.3094,414.6
598.3618,681.7
598.4511,148
598.488,1071
598.5013,336.5
598.793,23.2
599.0583,111.9
599.205,359.9
599.3799,21.7
599.3931,427.8
599.4295,94.8
599.4447,90.5
599.4653,1520.8
599.5013,2475.2
599.6254,749.8
599.8074,18.8
599.8206,450.8
599.8393,576.4
600.0622,85.6
600.2814,1561
600.4809,301.8
600.7298,266
601.221,18.4
601.4666,253.2
601.4719,295.8
601.4776,265.6
601.5178,152
601.5681,123.9
601.6247,253.1
601.7976,231
601.8468,52.7
601.8926,198.5
602.254,432.1
602.2966,1777.5
602.5221,159.5
602.7803,391.3
602.9048,436.2
602.9393,19.9
603.244,557
603.4211,93.8
603.5373,479.3
603.8811,111.9
604.0331,93.4
604.2355,19.6
604.2938,906.8
604.31,747.2
604.3442,158.1
604.4266,658
604.4993,113.1
604.6394,104.4
604.9244,144.1
605.4706,18
605.622,19.4
605.6428,127.2
605.8857,398.4
605.9834,533.2
606.2109,20.5
606.2967,1375.7
606.899,483.8
607.1404,1267.3
607.1715,12086.3
607.2981,546.9
607.6614,314.1
607.9689,110.5
608.1752,1685.2
608.2728,293
608.4578,321.5
608.564,117
608.6238,18.7
608.7595,157.7
608.8326,1124
608.8727,19.2
609.0094,309.3
609.2048,211.8
609.3294,116.5
609.5103,457
609.6334,370.7
609.6822,512.4
609.7733,180.5
609.9769,415.6
610.0855,147
610.1647,429.5
610.3123,839.1
610.339,353.3
610.3764,113.1
610.83,1212.6
610.878,96.8
610.9765,614
611.1794,17.3
611.255,21.8
611.4969,168.3
611.8349,19.7
612.1115,21.7
612.2375,20.3
612.4158,24.5
612.5373,744.6
612.6745,498.3
612.8277,415.4
612.8948,19.8
613.0812,178.3
613.2992,18.1
613.4263,616.3
613.4552,289.4
613.5497,505.2
613.8096,285.6
613.8887,198.2
614.0901,169.1
614.249,470.6
614.4483,100.8
614.8173,154.5
614.882,587.5
614.9294,19.1
614.9818,187.9
615.0554,347.6
615.0928,139.2
615.3151,228.5
615.4608,533
615.518,25.7
615.8506,180.3
615.8718,396.3
615.9785,364.3
615.998,144.5
616.2621,21.4
616.431,117.1
616.4632,128.5
616.5565,424
616.5942,322.7
616.7203,180.9
616.7477,167
616.9063,20.3
617.0201,223.7
617.4757,10970.2
618.0184,22.5
618.0481,45.3
618.4798,2826.7
618.643,23.6
618.7414,47.8
619.0002,312.1
619.2092,144.5
619.28,657
619.4048,383.7
619.4913,13363.3
619.5826,559.2
619.7315,21.5
620.0817,105.2
620.2791,759.8
620.4203,94.6
620.4935,4713.4
620.8306,505.4
620.9656,299.2
621.4583,492.6
621.4851,3151.9
621.9477,536.3
622.0329,88
622.4546,652.4
622.4708,121.5
622.6427,638.6
622.7788,96.4
622.8683,115.1
623.0774,53
623.1365,38522.2
623.4736,882.9
623.501,996
623.5533,374
623.9805,20.3
624.1401,6804.1
624.9613,484.6
625.1423,742
625.2028,21.4
625.2683,19.4
625.5196,122.7
625.8433,640.3
626.0984,253.8
626.1188,120.4
626.3725,151.4
626.5721,547.9
626.692,20.4
626.705,202.2
626.9191,335.6
627.0965,301.6
627.2176,267.6
627.5354,323
628.5394,133.1
628.6145,334.9
629.0207,419.8
629.1535,77713
629.192,148.1
630.157,14955.8
630.3077,352.4
630.3352,305.9
630.5016,158.8
630.8233,281
630.9399,521.2
631.1304,527.3
631.158,2042.6
631.2169,707
631.6385,94.8
631.7418,117.5
631.9333,155.4
632.3386,214.3
632.5313,110.6
632.6211,222.6
632.8939,581.1
632.9667,155.2
632.9802,58.8
633.1541,319
633.3952,339.1
633.4483,834.3
633.6751,62
633.7494,94.6
634.5635,912.9
634.5935,21.7
634.6302,770.9
634.8425,1929
634.9447,417.2
635.158,312.2
635.4885,786.4
635.9586,113.6
636.0714,508.5
636.1152,340.7
636.2418,422.4
636.432,682.2
636.453,85.7
636.8402,3111.1
636.8844,102
637.2073,20
637.6539,114.9
637.7237,567.3
637.8692,206.9
638.0681,19.1
638.3216,88.9
638.3294,89
638.6336,98.9
638.7026,327.3
638.8378,1002.9
638.853,425.3
638.9893,470.8
639.0083,324.1
639.215,212.4
639.2914,653.2
639.4661,344.2
639.7013,274.3
639.816,18.5
640.081,695.1
640.8146,304.6
640.8536,518.6
640.9006,126.8
640.9144,421.5
641.2709,232.5
641.414,107.2
642.7408,678.1
642.7708,473.3
643.2134,105.5
643.824,23
644.3553,154.3
644.4022,412.2
644.6554,734.4
644.6848,149.3
644.9957,261
645.1185,25296.5
645.2288,125
645.3218,2337.8
645.4891,139.8
645.9336,112.1
646.1224,4363.5
646.4298,792.3
646.444,172.2
646.4603,475.5
646.6128,18.9
646.8075,464.8
646.9853,371.7
647.0565,169.9
647.0949,755.2
647.1238,701.1
647.1627,225
647.2556,304.4
647.3975,206.4
647.4336,602.3
647.9629,940.6
647.9938,18.7
648.2652,19.4
648.7234,178.4
648.9031,132.4
649.2,428.4
649.4061,20.4
649.6669,224.4
649.9379,107.9
650.0873,142.5
650.3765,18.8
650.671,397.1
650.8159,1278.2
651.1353,62298.7
651.229,54.6
651.3704,402
651.3991,124.7
651.5397,123.6
651.7729,131.7
651.873,470.3
651.9096,18.2
651.9708,347.8
651.9821,687
652.1391,11514.4
652.2849,477.1
652.565,373.7
652.6116,127.9
652.8139,2608
652.8697,19
652.9698,950
653.1111,709.7
653.1411,1372.1
653.1849,85.3
653.3113,675.7
653.5604,85.5
653.783,273.5
653.8329,89.5
654.1374,314.3
654.1739,100.3
654.5674,490
654.5889,419.3
654.8134,442.2
654.8907,528
654.9274,375.6
655.3391,110.1
655.6248,198.6
656.0376,335.5
656.1586,242.3
656.3437,73.1
656.7167,131.6
656.8956,533.8
657.5723,282.4
657.6389,434.1
657.8052,270.9
658.0634,289.8
658.0999,117.1
658.3754,405.5
658.6016,796.1
658.6166,318.3
659.4162,24.6
659.4386,1497
659.7541,139.8
660.0785,491.1
660.1737,115.1
660.6117,617.4
660.7299,198.3
661.0151,629.4
661.0832,13586.4
661.3184,148.3
661.4689,400.1
661.5077,471.9
661.5227,184.2
662.0863,883.6
662.2467,112.2
662.3484,635.3
662.7527,580.3
662.9358,250.5
662.9701,81.5
663.0296,423.2
663.0689,269.3
663.4548,1116.5
663.6005,48.3
663.846,354.5
664.3503,319.4
664.469,3085.3
664.55,20.6
664.8608,106.7
665.1359,175.2
665.2176,65.3
665.2328,55.7
665.404,302.3
666.0573,405.5
666.1089,173
666.1366,20.3
666.351,51.2
666.4843,3579.9
666.6374,158
666.7918,610.1
667.1,30182.6
667.1811,89.2
667.2988,290.5
667.5465,302
667.5954,256.3
667.7245,132.2
667.7408,502.1
668.1034,4933.5
668.1518,139.4
668.3901,638.5
668.4402,95.8
668.7884,418.8
668.8435,321.2
669.024,507.1
669.1055,295.9
669.4255,750.5
669.4705,266.4
669.8145,658.9
670.0879,22.6
670.1632,50.8
670.2349,98
670.7518,383.2
671.146,461.9
671.217,268.9
671.3468,230.3
671.4556,843.6
671.7181,178.2
671.7442,173.1
672.1477,608.5
672.2206,656.2
672.423,1392.1
672.4646,291.7
672.5524,304.8
672.6984,23.1
672.7708,623.7
672.8233,201.5
673.1173,55219.9
673.2226,21.7
673.3609,17.6
673.3979,20.3
673.5306,277.5
673.7049,263.5
673.7357,240.1
673.7632,100.2
673.7931,114.9
674.1208,10713
674.1731,168.4
674.4085,391.7
674.438,201.1
674.6587,299.3
674.9274,711.5
674.977,465.7
675.0931,365.6
675.1225,376.6
675.4343,539.2
675.5447,12563.1
675.6597,186.2
675.7554,201.4
675.8333,285.5
675.9788,423
676.047,137.5
676.3523,110.9
676.4988,241.4
676.5475,4054.9
677.2403,309.6
677.7268,167.6
677.8705,420.8
677.9282,690.7
678.334,227.8
678.3928,324.6
678.4719,272.7
678.5044,638.7
678.7101,610.8
678.7662,23.6
678.8284,114.4
679.0651,501.6
679.0947,556.8
679.1413,20.8
679.3265,336.3
679.604,556.7
679.7009,148.8
679.7178,239.2
679.8351,313.1
680.1151,470.4
680.4386,182.4
680.5679,97.5
680.7735,171.5
680.8037,421.6
680.9185,182.3
681.0118,20.1
681.8074,418.4
682.0452,469.4
682.0644,857
682.0725,932
682.1269,91.9
682.1934,270.7
682.2592,375.1
682.457,615
682.7154,20.2
682.9844,241.4
683.0648,6938.6
683.161,364.6
683.3084,719.9
683.3524,552.5
683.4524,1673.1
683.9006,137.2
684.0641,246.8
684.1331,730.4
684.2235,458.2
684.311,591.2
684.4769,109.2
685.0082,144.6
685.0884,136
685.1263,216.1
685.4372,6973.3
685.5568,112.5
685.6691,143.2
685.7737,100
686.2251,19.5
686.3349,436.1
686.4381,821.6
686.7632,137.9
686.7857,18.2
687.1226,215
687.4885,258.8
687.9526,147.4
688.1123,581.2
688.3991,523.2
688.4193,255.3
688.4908,296.8
688.5936,228.4
688.8043,243.6
689.0814,19115.2
689.0917,17940
689.4062,304.3
689.5624,574.7
689.6361,298
689.7708,170.4
689.9194,598
690.0088,492.3
690.0859,1695.4
690.0929,1655.5
690.3027,20
690.4958,494.4
690.5473,221.6
690.5643,1028.9
691.0941,161.8
691.5225,21.9
691.5934,514.1
691.6612,573.1
692.0862,210.1
692.1071,332.6
692.4172,874.5
692.4616,22.2
692.4837,431.5
692.5112,121.4
692.5791,495
693.064,294.1
693.192,322.3
693.2115,19.1
693.2299,307.5
693.5226,668.3
693.7777,19
693.8718,238.3
693.9506,20.1
694.0698,671.8
694.5446,421.3
695.0991,34951
695.5095,2397.6
695.585,317.6
696.0363,116.5
696.0814,208.3
696.1026,5287.9
696.2867,530
696.4283,330
696.5122,760.4
696.7979,362.8
696.8381,397
697.1034,140.1
697.1341,246
697.196,22.8
697.2225,380
697.272,118
697.5263,13030.3
697.7186,817.7
697.892,22.4
698.0741,420.8
698.5296,4568.2
698.5815,409.2
698.6722,579.7
698.7635,376.1
699.0879,401.5
699.1125,493.4
699.2628,650.8
699.2965,1312.2
699.415,738
699.5835,404.7
699.6665,100.1
699.8147,474.5
700.0432,1469.2
700.2161,104.8
700.9693,128.4
701.3827,113.8
701.4246,175
701.5309,107.4
701.5602,42155.6
701.5933,544.5
701.787,89.6
702.1339,20.5
702.3425,8217.4
702.3938,595.5
702.4144,174.4
702.5638,13080.9
702.6651,185.5
702.8316,455.2
702.912,132.5
703.3472,3076.5
703.4621,610.1
703.576,72127.5
703.6692,84.8
704.108,131.8
704.1304,145.5
704.1477,327.9
704.427,658.3
704.4477,850.6
704.4803,525.5
704.5285,692.5
704.5504,215.6
704.5793,25625.6
704.6141,108.4
704.7204,356.1
704.8071,284.1
704.8252,589.6
704.8432,304.8
704.8891,235.4
704.9241,115
704.9906,686.6
705.0554,4625.6
705.4689,102.2
705.5118,191.6
705.5815,1636.3
705.6427,149.5
705.9122,372.7
706.0606,150.2
706.2264,95.7
706.3469,505.1
706.4675,110.5
706.5392,722.4
706.6451,301.2
706.6548,327
706.985,566.8
707.3344,466.8
707.5215,429.7
707.8148,440
707.8394,232.9
707.8843,246
708.0598,142.4
708.5194,153.6
709.0872,113.8
709.1084,950.2
709.273,20.4
709.3236,629.7
709.3562,164.2
709.5018,19.1
709.5276,236.5
709.5553,280.3
709.9775,421.6
710.1921,568.2
710.2448,70.6
710.5319,546.4
710.7722,518.5
710.8755,19.5
711.0622,11342.5
711.0744,12335.4
711.2239,204.2
711.5402,2367
711.6625,131.6
711.68,101.7
711.9453,190.5
712.0809,793.9
713.1704,160.6
713.3317,251.7
713.9058,253.2
714.3718,701.6
714.5078,628
714.6652,272.4
714.8899,527.8
714.9496,50.3
715.3812,19.8
715.5891,601
716.2165,1121.2
716.3093,182
716.4265,22.4
716.4646,106.3
716.5206,1210
717.0811,16026.7
717.1545,21.9
717.361,206.1
717.3706,319
717.7809,20.4
718.0823,1131.2
718.2105,112.2
718.2509,471
718.3667,159.9
718.4186,101.5
718.5733,194.1
718.6141,334.5
718.7414,162.1
718.9488,122
719.0249,22.8
719.0539,153
719.4345,22.9
719.6744,194.4
719.9296,566.3
720.085,242.4
720.1508,116.8
720.2567,156.9
720.3955,191.6
720.4676,584.8
720.9096,600.9
721.0161,256.6
721.0397,89.6
721.1323,122.9
721.2719,295.3
721.4788,52807.1
722.2061,239.2
722.4819,19717.4
723.1611,299.2
723.2628,535.4
723.4947,12085.6
723.542,35006.1
723.6233,476.8
723.6659,216.6
724.3243,1833
724.4264,121
724.4551,113.8
724.4982,2523.7
724.5455,12797.7
724.6543,733.9
724.7092,110.8
724.8719,524.7
725.43,130.2
725.5579,54449.2
725.6701,20.6
726.0332,125.9
726.2746,279.2
726.5612,24018.4
726.7461,359.8
727.028,3676.9
727.0649,317.4
727.0967,448.8
727.4771,428.7
727.5591,766
727.7321,613.9
727.7639,577.1
727.8417,99.9
727.889,536.2
728.033,216
728.1362,114.9
728.1767,19.7
728.2725,35.5
728.443,528.2
728.9853,114
729.1083,123.6
729.5916,6852.9
729.6586,21.8
729.6839,105
729.82,95.7
729.9602,48.1
730.0325,304.7
730.158,534.5
730.3775,131.1
730.4429,302.8
730.5395,10679.5
730.5896,808.3
730.7138,284.6
730.8226,192.9
731.5446,1187.1
731.607,2129
731.688,91.8
731.8721,196.6
731.9173,179.2
732.0939,324.8
732.5548,57095.9
732.6103,1189.8
733.0446,4454.5
733.0571,7085.9
733.0992,21.3
733.1284,343.6
733.504,239.5
733.5583,24129.4
733.6941,88.8
734.032,486.9
734.0558,466.2
734.3138,422
734.5711,5458.2
734.6662,115.4
735.3011,318.7
735.5742,1760.7
736.1484,47
736.1807,263.2
736.437,122.7
736.4733,554.5
736.5187,903.8
736.6585,599.1
737.0347,662.6
737.4529,11011.6
737.6193,542.1
737.7061,157.9
737.8171,246.2
738.0339,338
738.0986,1261.3
738.4568,3118.7
738.6477,106.3
738.7688,139.2
738.8801,351.9
738.8997,439.5
738.9402,114.1
739.0636,7679.3
739.1488,345.3
739.2342,20.2
739.3672,906.1
739.4481,824.8
739.4701,137.9
739.5167,2974.4
739.5571,111.2
739.5733,527.2
739.8706,418.8
740.0044,161.1
740.0449,21.5
740.1119,198.8
740.1745,563.8
740.3218,214.8
740.5159,707
740.8442,693.1
740.897,289.8
741.0527,54.9
741.1641,347.3
741.1817,141.2
741.5144,499.4
741.532,6317
741.5598,144.7
741.933,717.2
742.0831,362.1
742.0998,122.5
742.1432,483.7
742.2014,50.9
742.3104,50.2
742.4091,311
742.4579,230.3
742.4842,16.9
742.5353,1895.2
742.5759,9174.8
743.0029,274.6
743.1195,477.3
743.5407,941.5
743.5785,3042.9
743.8908,525.1
744.4678,717.1
744.5098,145.6
744.555,2591.8
744.5915,9239.2
744.6727,19.4
744.8341,210.1
745.295,708.9
745.4303,252
745.479,16699
745.5943,1802.7
745.8863,453.1
745.988,232.5
746.0344,18.8
746.3556,388.2
746.4822,6773.6
746.5717,3639.3
746.6075,5247.8
746.7776,247.1
746.8572,547.6
747.0413,124.5
747.096,279
747.4945,12887.1
747.5839,230.7
747.6093,51.9
747.697,262.8
747.7605,456
747.8783,467
747.9305,84.8
748.0282,156.7
748.4965,1780.2
748.725,341.3
748.8118,152.9
749.01,2137
749.0573,490.5
749.2416,171.2
749.3732,50.8
749.5101,2466.7
749.7396,579
749.8514,239
749.8889,186.4
750.2409,84.1
750.515,1385.3
750.6209,18.6
750.6723,17.9
750.7126,109.6
751.5729,2895.9
751.6258,505.2
751.7552,700.2
751.7642,692.9
751.7948,220
752.0254,738
752.127,17.3
752.5213,8661.2
752.5926,18.7
752.7235,18.2
752.7497,19.9
752.8672,20.9
752.9298,253.6
752.9834,20.1
753.2388,121
753.414,127.6
753.5217,1374.6
753.5897,1121.8
753.7092,21.9
753.8258,406.2
754.2223,100.1
754.4053,68.2
754.5371,35377
754.63,213.4
754.7792,98.8
754.96,413.5
755.0247,2711.2
755.0397,3826.3
755.0825,412.2
755.1437,1064.7
755.2658,328.1
755.5404,14193
755.6815,448.2
755.8387,460.1
756.0195,486.7
756.0372,318.2
756.0858,1511.8
756.1998,156.7
756.5547,54465.6
756.6827,158.4
756.7355,113.2
756.9434,591
756.9911,653
757.0358,102.6
757.5578,21663.7
757.6228,1302.9
757.7956,313.8
757.8896,627.4
757.9366,161.2
758.0061,409.5
758.0428,112.4
758.2601,22.5
758.3094,160.4
758.5706,1202298.9
759.3079,419.8
759.4076,769
759.4988,838.7
759.574,526192.3
759.6385,1740.3
759.731,21.5
759.8244,137.6
760.155,1243.8
760.2359,21.5
760.5716,60447.3
760.5872,431934.1
760.8522,686.7
760.9568,103.5
761.0447,2409.9
761.2554,225.4
761.4507,413.1
761.59,203212.3
761.6612,18.5
761.791,18.3
761.8575,908
761.9727,1064.5
761.996,133.4
762.456,495.6
762.593,44479.3
763.2888,321.7
763.4767,239.5
763.5954,3235.7
763.7287,776.1
763.7564,20.7
763.924,133.8
764.3358,446.3
764.5645,794.6
764.5907,152.1
764.7538,18.2
764.784,149.6
764.8235,96.1
765.082,381.8
765.5092,20.4
765.5183,26
765.7003,929.3
766.5353,1278.7
766.5755,19957.6
767.0073,141.7
767.172,363.2
767.4023,668.8
767.4074,713.4
767.4162,546.4
767.5427,928.3
767.5796,6330.2
768.4531,192.8
768.5536,633.9
768.5914,29401.3
768.9824,215.7
769.3799,575
769.4479,19.4
769.4784,4980.2
769.5692,21.3
769.5948,11093
769.651,632.3
770.1342,108.6
770.2573,369.2
770.4563,159.4
770.4835,931.4
770.5117,1549.7
770.5713,930.9
770.608,8077.4
770.9923,5284.1
771.0749,65.1
771.4952,1204.2
771.6101,1348.9
771.6944,354
771.9937,642.7
772.2444,21.4
772.4014,229.8
772.5866,9555.8
772.6252,506.9
772.6691,511.4
773.0193,594.2
773.0467,399.3
773.2263,102.2
773.4407,774
773.5096,800.8
773.5478,336.2
773.5904,3728.6
774.1006,136.5
774.6026,1083.6
774.631,360.7
774.7436,298.6
774.8604,47.8
775.2019,163.8
775.2679,818.7
775.4239,299.2
775.6003,134.2
775.7319,821
775.8002,731.5
776.2263,443.7
776.4072,462.2
776.586,733.4
776.9011,223.8
777.0084,5284.1
777.0668,178.8
777.2622,97.1
777.5436,644
778.3288,411.7
778.5367,31688
778.9902,1280.1
779.1232,444.3
779.3077,2049.4
779.4319,55.9
779.515,353.6
779.5405,12997.9
779.7174,234.6
779.7928,106.2
780.1996,76.3
780.5527,619390
780.6272,111.8
780.6367,243.6
780.6467,234.5
780.6961,488.5
780.8058,463.5
780.8878,752.5
781.499,412.7
781.556,273704.8
781.9141,193.1
782.1942,789.6
782.5702,563520
782.6077,94.8
782.7078,288.9
782.7485,686.3
782.7786,585.2
782.7973,160.8
783.0266,3557.3
783.0558,132.7
783.1197,435.8
783.4165,702.6
783.5171,600
783.5735,259383
783.8116,487.3
783.9814,71
784.3573,105.3
784.5869,408452.6
784.6268,22.8
784.8018,145.9
785.1026,131.1
785.5898,192118
785.6548,8132.5
785.8066,328.8
786.3044,149.3
786.6026,352098.1
786.6567,1150.1
786.8703,774.2
786.9049,20
787.1257,679.7
787.188,251.1
787.4052,124
787.6055,174841.5
787.6722,1847
787.9338,277.2
788.0879,226.9
788.1273,120.3
788.2451,21.7
788.2992,477.6
788.3578,904.2
788.5588,3825.7
788.6055,27648.5
788.6211,21635.4
788.673,775.5
788.8446,514.4
788.9289,461.4
789.1055,607.6
789.4532,88.3
789.5421,587.5
789.6225,11961.1
789.6597,702.7
789.8119,121.1
789.9238,131.6
790.0014,558.3
790.3978,112.7
790.4936,1961.5
790.5469,989.2
790.5739,7146.3
790.6067,98
790.6243,1154.4
790.7934,168.8
791.2115,121
791.5759,1153.5
791.9053,423.6
792.0138,316.3
792.0264,302.7
792.0699,218.2
792.1438,101
792.5515,899.2
792.5909,13232
792.9912,422.5
793.2417,58.1
793.5944,2836.7
794.5112,5174.4
794.5693,1295.9
794.6073,40684.3
794.8967,320.7
795.3439,764.9
795.4443,150.1
795.4739,624.7
795.5012,488.2
795.5183,481.9
795.5697,570.8
795.6105,19510.6
795.6847,131.8
795.7079,169.2
795.8089,193.1
795.9461,370.3
796.3668,122.5
796.5264,124660.6
796.5867,2069.7
796.6239,5600.1
796.9521,333.2
797.0945,137.3
797.1479,391.8
797.2771,1447.4
797.4492,92.9
797.5297,53924.5
797.6271,1479.3
797.6566,209.2
797.8044,124
798.3064,152.8
798.5434,30173.9
798.9973,401.8
799.1441,337
799.2045,371.4
799.483,745.6
799.5454,15476.9
799.6655,468.5
799.9896,1057.5
800.0494,206.8
800.4102,524.8
800.5165,582
800.5501,776.8
800.6828,298.1
800.9225,50.6
801.4482,282.4
801.5883,453.5
801.7706,440.8
802.1755,130.5
802.3664,214.2
802.4148,193.7
802.5369,27839.9
802.7393,292.7
803.007,21.3
803.4798,107.9
803.5401,8894.1
803.6649,1091.4
804.0645,697
804.1327,298.6
804.5526,208888.4
804.5863,52.5
804.7424,1106.6
805.2716,1013.6
805.556,100205.4
805.5884,618.6
805.9454,742.5
806.154,135.9
806.2701,20.5
806.3411,523.2
806.395,93.2
806.5698,346855.2
806.6994,385.7
807.1427,85.1
807.2042,144.4
807.3118,50.6
807.5731,173088.4
807.6363,697
808.2828,308.9
808.5212,344.9
808.586,194059.9
808.6285,910.9
808.9805,514.5
809.0321,18.4
809.5887,102633.5
809.7031,386.1
809.9166,611.7
810.0058,486.3
810.1428,400.8
810.6027,115829.1
810.7156,174.9
810.8936,196.4
810.9266,21.8
811.5651,93.9
811.6058,58786.7
811.6702,9331.7
811.7844,121.5
811.8084,22.3
811.8964,101.7
811.9296,290.1
812.5296,965.9
812.5544,1193.8
812.619,39375.1
812.6737,2832.6
812.7965,525.2
813.5283,563.1
813.6217,19013.7
813.6864,8061.3
813.9156,336.7
814.1297,315.6
814.1581,572.7
814.1838,919.7
814.454,181.3
814.5723,1357.7
814.6227,1576.4
814.6898,3542
814.8153,510.4
815.2528,47
815.3066,538.7
815.4271,1222.2
815.5747,804.1
815.6565,51.3
815.7027,440.7
815.9073,584.4
815.9573,494.3
816.5288,270.6
816.5891,13267.1
816.6485,90
816.7083,698.5
817.1624,880.3
817.1961,348.7
817.4272,213.3
817.5384,478
817.5619,652.1
817.5931,2574.6
817.8259,1649
818.2032,185.6
818.2314,22.1
818.2674,19.2
818.5119,4070.5
818.6075,3745.1
819.029,340.8
819.6105,626.7
820.0925,313
820.4014,637.7
820.5265,41649.9
820.5799,743.5
820.6238,831.2
820.7479,765.5
820.9247,344.5
821.1475,1041.6
821.2886,109.7
821.5299,16664.5
821.5695,1356.1
821.6522,1006.2
821.8939,716.1
821.9498,17.4
822.2732,226.1
822.2951,60.5
822.3311,570.6
822.5428,33957
822.6095,462.5
822.6396,337.6
822.7099,1215.5
822.7412,287.3
822.8291,691.2
822.8747,2078.3
823.0415,127.2
823.3574,127.8
823.4938,452.2
823.5461,12900.2
823.5848,89.4
823.6166,123.4
823.8142,167.2
823.8924,126.3
823.9742,532.6
824.5585,25383.5
824.5983,62.6
824.6224,58
824.6819,18.9
824.7872,120.1
824.9383,145.8
825.0179,290.1
825.1984,275.6
825.2933,1746
825.4771,302.7
825.562,9558.3
825.7161,338.4
825.7443,280.9
825.7801,23.3
825.9044,265.9
826.5426,834
826.5786,166
826.7054,78.4
827.1754,223.7
827.1947,432.6
827.5538,1267.9
827.6986,411.7
827.7365,233.2
827.9243,100.8
828.0065,236.3
828.0753,126.1
828.5525,89839.4
828.7678,189.9
829.4977,940.3
829.5561,41446.3
829.5884,190.7
829.6691,811.4
830.1576,609.3
830.1977,701.7
830.4542,272.8
830.4924,202.1
830.5694,40756.9
831.1462,225.1
831.3225,265.8
831.4507,492.6
831.5723,19159.6
831.6551,578.5
831.7215,184.8
831.9485,19
832.5413,587.8
832.5852,49689.7
832.6833,857.1
832.8013,413.6
833.2544,412.1
833.588,21645
833.955,23.5
833.9847,127
834.2523,358.9
834.6021,41758.7
835.0328,711.6
835.2286,279.7
835.3491,304.3
835.5214,538.3
835.6048,20056.3
835.6674,785.8
835.7508,555.4
835.786,853.5
835.867,129.2
836.3213,828
836.62,3470.9
836.923,956
837.5193,117.7
837.5781,19.8
837.6219,2682.5
837.7515,165.9
838.5118,707.1
838.6604,344.2
839.1272,328.9
839.5171,365.6
839.5773,716.2
839.6369,51.3
839.7884,364.7
840.0942,595.4
840.321,989.6
840.4434,73
840.5226,125.5
840.5595,500.9
840.6068,605.8
840.6588,439
840.6854,380.6
840.6935,549.6
840.7278,1132.7
840.7599,1134.7
840.7941,164.1
840.8307,889.3
840.9861,624
841.2329,560
841.3017,331.8
841.398,1044.2
841.5212,783
841.8496,1055.6
841.9748,120.3
842.1254,485.1
842.1455,534
842.4008,58.3
842.6084,800.3
842.7562,155.3
842.9687,895.2
843.3003,20.1
843.3282,1100.5
843.406,533.8
843.4364,553.5
843.8877,258.2
843.9696,401.4
843.9976,277.6
844.1488,590
844.4072,83.3
844.5265,15916
844.8577,460.2
845.1516,495.8
845.2047,20.5
845.4465,266.8
845.5296,4669.1
845.7831,395.3
846.0933,477.2
846.3214,570.2
846.4476,167.3
846.5433,2911.4
846.9689,301.9
847.1011,285.4
847.3598,123.7
847.544,1779.8
847.8623,409.9
847.888,394.3
848.0004,271.3
848.3242,208.9
848.5561,4430.3
848.8487,602.2
849.5455,854.9
850.1082,224.3
850.3361,238
850.3538,842
850.4436,550.3
850.5756,451.7
850.8787,932.2
850.9955,986.4
851.095,286.8
851.2401,756.2
851.4488,93.2
851.5035,673
851.6336,149.2
851.6777,342.6
851.7884,20.4
851.8684,468.2
852.1112,500
852.2588,184.8
852.4189,287.8
852.5128,557.9
853.0169,513.4
853.3678,66.2
853.6711,312.5
853.7258,1183.9
853.8625,673.7
853.9147,173.1
854.2238,152.2
854.3334,306.3
854.5367,578.7
854.5661,438.7
854.6833,18.8
854.7438,292.6
855.0711,199.5
855.2463,20.8
855.2923,617.7
855.3464,541.6
855.4506,63.5
855.6482,61.2
855.681,181.5
855.8636,171.6
855.9533,200.9
855.9779,100.3
856.464,618.2
856.5837,6419.6
857.5862,106.2
857.9439,652
858.0743,425.9
858.3706,258.7
858.4876,309.6
858.8293,80.5
859.0695,107.4
859.295,162.2
859.5066,101.4
859.9401,339.1
860.3078,119.7
860.7152,89
861.3831,185.5
861.5332,443
862.0135,664.4
862.0206,646.9
862.0361,471.6
862.5086,837.6
862.6072,78.9
862.6686,258.5
863.0627,583.5
863.2482,93.5
863.772,228.1
864.0497,619.1
864.0823,121.1
864.3058,672.4
864.5008,395.8
864.6811,410.6
864.8505,268.8
864.9686,412.7
865.2755,141.9
865.404,373.7
865.4488,130.6
865.5085,524
865.5738,459.4
865.9377,176.4
866.0461,359.8
866.1145,61.2
866.137,113
866.2032,192.4
866.3164,21.9
866.4324,137.4
866.4591,1224.5
866.5998,80.6
866.6178,81.3
866.637,76.4
866.7455,18.9
866.9535,125.2
867.4345,691.3
867.7804,787.1
868.4984,278.4
868.6355,88.2
868.6679,476.1
868.7096,557.4
868.7731,231.6
868.8431,464.8
868.9249,503.3
869.2021,1342.7
869.5507,774.4
869.6494,107.4
869.7967,575.6
869.8714,476.4
869.8903,628.8
869.9363,1027.2
869.969,21.8
869.9924,403.8
870.0111,628.3
870.0512,1742.9
870.1042,658.2
870.1112,637.3
870.1721,2011
870.2034,2334.7
870.2606,2312.5
870.3048,731.3
870.3328,1604.6
870.366,1544.3
870.3916,3119.1
870.4186,1638.6
870.4338,2414.1
870.4648,1615.7
870.5229,211
870.8808,299.6
871.0957,1513.6
871.1772,125.8
871.4197,172.9
872.0033,419
872.14,18
872.1705,366.9
872.3846,336.8
872.4241,546
872.4637,142.8
872.5582,798.8
872.6948,745.7
872.8559,288.4
873.1701,1298.6
873.7218,225.3
873.7949,63.9
874.3658,397.9
874.5578,767.9
874.7395,1471.8
875.4848,83
875.6792,491.4
875.8245,123.6
876.1046,181.3
876.3142,547.3
876.6871,308.2
876.7073,331.5
877.0655,374.3
877.1076,347.4
877.2816,52.6
877.3044,395.4
877.4082,1053.1
877.5621,669.6
877.8222,546.3
878.102,369
878.5462,55.5
879.3412,849.2
879.5017,686.3
879.7205,640.3
879.7733,478.8
879.9283,21.1
880.1798,1222.3
880.2262,555
880.2978,408.6
880.3224,477.7
880.6184,565.6
880.6454,529.9
880.7615,272
880.9539,653.3
880.9963,56
881.0591,532.1
881.1248,457.9
881.1984,239.4
881.2704,90.4
881.3571,882.4
882.3568,117
882.4228,296.2
882.4426,489.9
882.7271,117.2
882.7478,307.1
882.8579,282.7
883.0897,63
883.1492,1600.9
883.8022,20
884.0929,316.7
884.3056,102.5
884.4008,484.6
884.9213,422.9
884.9385,480.2
885.2261,140.1
885.2515,150.1
885.8119,968.2
885.8445,362.9
886.1427,1505
886.8253,147.2
887.0822,275.2
887.3886,391.1
887.4646,2523.9
887.8686,298.2
887.9977,1022.5
888.5307,569.2
888.844,396.3
888.9776,491.5
889.8015,674.3
889.8929,377.2
890.0387,169
890.0865,146
890.3748,22.1
890.4347,323
890.4803,568.9
890.7406,619.9
890.979,300
891.4603,805.2
891.4871,487.8
891.5342,548.4
891.9889,559.1
892.1033,664.3
892.5724,160.8
892.8013,43.3
892.8558,67.1
892.8789,634
892.9104,112.3
893.1583,530.3
893.1816,752.8
893.2538,353.9
893.5135,716.3
894.3083,44.7
894.5979,385
894.7482,1700.7
895.113,88
895.3382,432.2
895.3986,17.7
895.5268,696.1
895.5667,335.2
895.5915,127.8
895.6601,797.5
895.7396,1024.7
895.8286,688.1
896.5244,145.7
896.6992,599.5
896.7439,21.8
896.8902,68.9
896.9149,78.8
897.0991,724
897.1698,801.4
897.6603,107.4
897.9477,423.9
898.2975,121.6
898.6423,151.4
899.1744,411
899.3086,321.2
899.3408,591.1
899.589,619.2
899.8194,576.7
899.8553,745.9
899.913,712.4
900.2932,214.1
900.8854,55.7
901.8484,404.7
902.2558,136.5
902.5188,602.3
902.6506,213.5
902.771,117.9
903.2392,663.7
903.3769,1437.3
903.675,84
903.7415,52.9
903.9124,79.5
904.2022,129.2
904.338,51.3
904.7507,1098.1
904.8132,1013.8
904.9107,60.9
905.1604,377.4
905.1812,334.4
905.3044,487.1
905.3329,20.8
905.4757,120.9
905.5175,22.3
905.5482,108.1
905.6984,1625
906.1595,1759.4
906.3336,293.7
906.5012,125
906.5862,23.2
906.7296,481.6
906.7932,84.4
906.8708,51.5
907.021,640.5
907.1863,555.5
907.5181,664.7
907.6015,651.6
907.7152,354.9
907.7624,1117.6
907.9581,655.1
908.0185,63.2
908.1173,183.6
908.2287,489.9
908.4494,532.7
908.4615,502.9
908.6868,88.8
909.2476,223.7
909.5181,245
909.6012,776.3
909.7938,308.4
909.9291,873.4
910.2781,304
910.7969,100.2
910.8424,1712.9
911.2212,277.9
911.2821,143.6
911.4597,837.6
911.6399,369.7
911.8097,95.2
912.351,1033.2
912.4583,423.8
912.9722,1222.4
913.409,1278.6
913.6327,402.8
913.6978,117.3
914.3005,237.1
914.6657,562.8
915.0439,65.8
915.2027,68.3
915.3066,21.8
915.4508,65
915.4783,71.7
915.7343,357.6
915.7675,209.5
916.0916,19.7
916.3708,52.4
916.5294,884.4
916.8209,109.3
917.7106,109.1
917.7569,113.8
917.8661,60
917.9141,619.8
918.3888,614.5
918.5681,1037.8
918.9276,448.6
919.3319,535.5
919.3955,17.6
919.53,193.6
919.7699,469.4
919.7866,501.7
920.0151,92.1
920.0724,230.5
920.3341,188.6
920.5048,949.3
920.963,1462.1
921.6682,278.9
921.7384,815.6
922.2138,22.6
922.2377,111.7
922.3603,151.6
922.4693,671
922.5997,590.1
922.8014,58.4
923.9184,145.3
924.3209,213.2
924.567,357.8
924.7676,545
924.9714,328.9
925.1518,1100.8
925.9035,351.3
926.6159,638.7
926.7558,1166.2
927.1555,582.4
927.2421,833.9
927.4874,325.8
927.6823,320.7
927.8143,78
928.0319,157.1
928.7346,18.9
929.1891,393.6
929.2857,51
929.5571,975.5
930.0761,148.5
930.1609,880.8
930.9778,119
931.2185,542
931.375,238.2
931.4017,517.4
931.4563,277.3
931.5573,2315.4
931.7001,58.3
931.8156,302.4
931.8583,65.4
932.1613,198.3
932.2145,20.6
932.5638,367.3
932.8846,190.8
933.0843,1245.9
933.3968,548.2
933.8257,18.2
934.8011,445.4
934.9378,631.6
935.7654,304.7
935.8716,66.9
936.042,536.7
936.109,214
936.2017,705
936.2738,277.2
936.3547,623.1
936.4079,213.2
936.4734,465.1
936.6701,864.6
936.8451,624.7
937.0248,461.9
937.9953,443.8
938.0544,442.3
938.2299,1010.4
938.4258,1017.7
938.7199,724.9
939.1544,467.6
939.4788,185.2
940.2549,19.2
940.4612,19.1
940.5051,119.8
940.939,213.6
940.9731,785.6
941.0337,260.4
941.2183,732.9
941.8566,880.7
942.0438,564.3
942.3705,1151.8
942.4676,558.6
942.8106,196
942.9459,703
943.15,237
943.2278,1304.3
943.4234,339.7
943.6644,470.1
943.6991,547.6
944.1186,586.5
944.2604,129.7
944.4702,348
944.6936,1232.5
944.8672,63.5
945.3631,129.7
945.8818,646.4
946.2965,983.7
947.2579,419.7
947.4762,49.9
947.6792,1042.6
947.9728,1193.5
948.0313,513.3
948.2252,561.1
948.3378,137.8
948.8662,906.2
949.2876,759.4
949.7505,93.4
949.8338,155.5
950.1076,720
950.1414,453
950.4265,95.8
950.8148,1030.5
951.129,1146.8
951.1877,375.9
951.4925,50.2
951.7711,379.1
951.9791,819.2
952.1944,20.9
952.6492,125.5
952.8281,440.4
953.4155,20.6
953.491,817.1
954.1896,774.4
954.3223,183.4
954.601,310.5
954.7363,50.7
955.5285,1191.5
955.5879,201.7
955.7176,21.9
955.8468,608.5
956.3205,1129.9
956.6049,21.8
957.131,402.7
957.1656,307.1
957.4072,773.1
957.6438,1313.9
957.8931,252.5
958.0464,451.9
958.2222,54.6
958.2564,195.1
958.6905,122.8
959.2092,831.5
959.3295,337.2
959.6048,656.4
959.7225,522.3
960.1127,223.2
960.2874,599.1
960.4186,173.8
960.4989,772
960.5448,813.3
960.8749,720.2
960.948,1384.7
961.0192,21
961.1232,795.1
961.3496,551.5
961.8536,406.1
961.931,484.6
961.9599,1045.1
962.172,110.6
962.2265,44.3
962.7271,107.2
963.0041,51.6
963.2255,104.7
963.2823,416.5
963.3644,324.7
963.4502,1265.2
963.5354,386.1
963.5979,92
963.9488,195.5
964.071,1355.1
964.1583,450
964.2985,1576
964.4624,1541.4
964.9154,2054.4
965.0738,603.5
965.1271,1300.2
965.1507,1776.4
965.2104,728.6
965.7322,615.6
965.9345,676.5
965.978,636.4
966.0574,896.3
966.3417,462.3
966.3756,169.8
966.7777,101.1
966.8817,64.7
967.1524,22.3
967.4416,25.9
967.5123,2218.3
967.5528,537.7
967.7386,416
967.8728,120.1
968.0575,526
968.1477,120.8
968.5009,368.4
968.59,97.6
968.9029,46.5
968.9295,584.3
969.2635,292.5
969.6058,124.5
969.8267,141.7
970.2629,764.7
970.3155,717.2
970.472,1066.9
970.5366,251.4
970.6423,660.5
970.7183,525.6
971.1818,129.1
971.353,61.1
971.3875,133.9
972.3322,100.6
972.5949,18.8
973.3053,1881.8
973.4524,56.8
973.4897,214.1
973.8539,823.8
974.1346,74.6
974.235,174.6
974.3861,800.2
974.631,108.9
975.4814,832.8
975.6721,980.2
976.2826,325.3
976.339,1298.4
976.3692,736.2
977.2692,226.9
978.1377,413.6
978.2221,1159.6
978.4804,577.2
978.5219,182.8
978.6642,1194.5
978.7879,1396.9
979.0233,597.9
979.242,20.1
979.5853,85.1
979.6343,1311.3
979.8103,622.3
980.1195,2079.5
980.1623,261.7
980.1972,603.1
980.4955,558.8
980.5561,99.1
980.8383,200.6
981.4541,722.7
981.5947,1053.6
981.7287,599.7
982.3887,381.7
982.4349,377.4
982.5401,84
982.621,639.6
982.751,62.7
982.9463,498.2
982.9891,1906.9
983.3,449.2
983.3818,1242.4
983.4437,317.9
983.5568,370.7
983.6881,915.7
983.7896,1103.3
983.9969,586.5
984.1035,136.5
984.133,1731
984.4422,54.2
984.4932,1152.5
984.6076,816.3
984.6488,392.6
985.1568,246.6
985.2556,158.1
985.3075,122
985.4327,439.5
986.0318,115.3
986.1957,631.2
986.3265,367.4
986.346,578.1
986.4161,20.8
986.7232,872.5
986.7651,302.3
986.803,1173
987.0502,777.6
987.1893,639.1
987.8124,1271.2
987.9428,972.8
988.2373,190.9
988.3534,68.2
988.6308,391.4
988.9374,544.7
989.2345,321.9
989.3426,23.1
989.4435,532.6
989.7716,73
990.0092,444.9
990.1438,371.3
990.4963,544.2
990.7606,457.7
991.3245,1432.2
991.6175,117.9
991.7017,513.5
991.8683,284.5
992.0925,292
992.4516,292.9
992.6563,872.8
992.6969,674.4
992.7957,1023.9
992.8401,467.7
993.1653,1291.7
993.3649,118.5
994.195,113.7
994.2956,21.6
994.4725,711.2
994.582,191.4
994.8973,91.9
995.1426,468.7
995.3631,366.8
995.7018,363.7
996.1516,209.1
996.3558,250.3
996.4137,252.1
996.5695,488.6
997.4863,1025.4
997.5726,20.9
998.4715,331.1
998.5131,518
998.7425,109.6
999.5881,970
999.7398,253
999.9785,517.1
