SPECTRUM - MS,
767.RAW,
FTMS + p ESI Full ms [50.00-1000.00],
Scan #: 1-40,
RT: 0.01-1.97,
AV: 40,
m/z,Intensity

50.0086,350.7
50.0094,166.4
50.0123,662.7
50.024,17.6
50.0273,144.3
50.0282,384.9
50.042,131.3
50.0482,193.8
50.0499,113.3
50.0506,320.6
50.0594,102.6
50.0761,97.4
50.0795,215.2
50.0881,150.3
50.096,211.9
50.1132,17.8
50.1556,22.1
50.1655,190
50.1686,277.9
50.1692,128.3
50.1714,389.3
50.176,424
50.1801,351.5
50.2021,202.4
50.2049,147.5
50.2061,15.1
50.2076,16.6
50.2082,201.9
50.209,125.1
50.2285,919.5
50.2329,301.8
50.2493,203.1
50.2509,139
50.2532,40
50.2543,158.5
50.2645,467.2
50.2921,142.9
50.334,110.8
50.3605,146
50.3652,459.3
50.3879,29.2
50.394,128.4
50.4184,95.9
50.4205,397.7
50.4301,23
50.4387,18.2
50.4511,289.3
50.453,15.1
50.4769,253.4
50.4789,16.7
50.4885,181.2
50.495,87.9
50.533,447.5
50.5465,85.2
50.5647,18
50.5761,215.3
50.5816,306.2
50.5853,16.9
50.5887,129.9
50.6082,157.7
50.6121,265.5
50.6215,69.4
50.6228,484.9
50.6296,16.4
50.6338,123
50.6605,570.7
50.6627,109.3
50.6747,339.6
50.6872,166.3
50.7073,168.4
50.7139,92.1
50.7174,181
50.7418,310
50.7449,156.9
50.7512,199.6
50.7579,17.2
50.7672,162.9
50.7703,268.5
50.78,293.4
50.7959,171.3
50.8162,17.2
50.8243,305.8
50.8381,101.6
50.8493,338.6
50.8921,154.1
50.9306,96.1
50.9317,225.1
50.9478,421.6
50.9489,252
50.9778,572.3
50.9994,187.2
51.0046,405.6
51.0075,507.8
51.0261,110.4
51.0369,16.8
51.0498,16.7
51.052,115.8
51.062,268.5
51.068,16.7
51.0715,447.1
51.0855,155.2
51.1185,88
51.1446,104.2
51.1466,140.7
51.1544,15.9
51.1646,736.1
51.1662,282.2
51.1725,143.6
51.1844,123.3
51.1858,223.1
51.1959,118.9
51.2236,357.7
51.2299,268.8
51.2394,120.1
51.2409,493.7
51.2485,17.1
51.2627,105.4
51.2639,114
51.2662,19
51.2807,296.5
51.2854,220.4
51.2861,286.7
51.2994,333.6
51.303,133.1
51.3058,19.6
51.3076,481.2
51.31,129
51.3394,223.7
51.3493,93.9
51.3552,430.8
51.4126,228.2
51.4228,105.2
51.4693,82.9
51.4844,400.3
51.4934,237.1
51.4939,27.3
51.5028,380.3
51.5313,113.3
51.5655,17.8
51.5812,92.5
51.5919,137.4
51.5997,17.4
51.6026,140.4
51.6052,18.7
51.6192,68.7
51.6448,409.3
51.6502,33.1
51.6752,18.3
51.6983,142.3
51.6991,666.8
51.7044,422.1
51.7248,309.6
51.7371,769.3
51.7444,770.9
51.7579,139.9
51.7665,124.5
51.7715,149.7
51.775,269.1
51.7875,359.6
51.7991,149.4
51.8062,28.2
51.8197,437.6
51.8311,187.9
51.8709,264.1
51.8786,428.9
51.8926,144.1
51.9029,212.4
51.9144,19.1
51.9206,207.9
51.9256,116.9
51.929,193.8
51.936,209.8
51.9532,100.3
51.974,245.4
51.9749,153.8
51.9861,16.5
52.0026,108.6
52.0126,491.6
52.0163,15.9
52.0175,283.3
52.0206,200.8
52.0228,208.1
52.0255,882
52.0493,111.1
52.0942,370.2
52.1058,153.4
52.1065,151.5
52.1069,16.7
52.1589,88.7
52.1618,113.5
52.1643,100.3
52.1814,16.2
52.1848,254.6
52.195,640
52.2038,190.4
52.2066,173.2
52.2243,456.1
52.2287,269.4
52.2489,124.9
52.2502,736.4
52.2522,109.6
52.2541,17.5
52.2577,18.3
52.2691,196.7
52.2875,446.8
52.2884,243
52.3107,185.2
52.3283,127.7
52.3465,405.5
52.3537,189.4
52.3543,142.4
52.3547,87.3
52.3824,127.4
52.4061,119.2
52.4633,302.2
52.4832,499
52.496,178.6
52.5109,255
52.542,252.5
52.5888,253.6
52.5912,74.6
52.5955,221.1
52.6161,32.2
52.6238,108.5
52.6518,102.6
52.6551,15.9
52.6599,302.5
52.662,620.5
52.6746,342.7
52.6763,140.6
52.6768,21.7
52.6798,18.2
52.7062,207.5
52.7149,615.6
52.7567,185.2
52.78,392.3
52.7855,1791.5
52.786,2006.6
52.7863,975.8
52.7865,1029.8
52.7874,1805.3
52.7881,540.8
52.7893,2322.2
52.7899,762.2
52.7903,443.1
52.7953,100.7
52.7976,419.8
52.8052,436.8
52.831,654.5
52.8327,156.9
52.8658,219.1
52.8788,274.5
52.881,262
52.9407,114.8
52.95,118.3
52.9706,97.8
52.9716,286
52.9732,105.1
52.9735,216.1
52.9807,119.6
52.99,395.8
53.0026,744.8
53.0103,413
53.0126,121.8
53.029,129
53.0404,431.9
53.1035,299.8
53.1308,495.3
53.1417,39.3
53.1629,122.5
53.1731,466.9
53.1841,406.6
53.2022,81
53.2159,204.8
53.2165,168.1
53.2453,425.4
53.2602,111.7
53.2793,423.4
53.2972,93.5
53.3036,181.5
53.3128,298.3
53.323,89.6
53.3272,333.6
53.3386,182.3
53.3444,226.2
53.3475,630.5
53.3681,16.6
53.3804,464.4
53.3821,432.6
53.3827,110.1
53.432,744.2
53.4416,439.6
53.4461,149
53.458,17.1
53.4698,355
53.5077,19
53.5196,238.7
53.5254,15.2
53.5306,218.3
53.5463,426.3
53.5776,760.7
53.5791,90.6
53.5814,583.9
53.5853,136.1
53.591,16.7
53.5918,213.4
53.601,185.9
53.6153,133.5
53.6168,212.4
53.6398,91.8
53.6595,411.5
53.6629,175.1
53.68,330
53.6889,114.9
53.6905,111.9
53.6917,85.5
53.6961,184.1
53.7173,17
53.7407,366.9
53.7502,145.4
53.7593,396.9
53.7779,171.6
53.7805,742.4
53.7856,384
53.8012,529.9
53.813,17.4
53.8191,19.6
53.823,427
53.8292,525.6
53.8418,392.5
53.8474,26
53.8521,145.4
53.8584,310.8
53.8588,29.2
53.8662,147.3
53.8711,158.5
53.8809,86.1
53.8935,15.4
53.9051,82
53.9055,132
53.9137,120.2
53.918,305.7
53.9186,121.3
53.9192,345
53.931,448.2
53.9393,96.1
53.9512,18.4
53.9522,116.6
53.9706,20.5
53.9718,560.6
53.9793,143.2
53.9799,16.2
53.9857,102.9
53.9872,132.2
54.0042,219
54.0133,144.6
54.0141,122.9
54.0156,215.9
54.0461,103.3
54.0533,747
54.0688,17.7
54.0708,18.5
54.0796,368.2
54.0874,117.3
54.09,150.2
54.096,225.3
54.1019,712.6
54.1129,86.3
54.1165,97.7
54.1317,296.8
54.149,113.4
54.162,182.8
54.1773,506.5
54.1797,16.2
54.1862,386.2
54.2111,16.3
54.2129,177.4
54.2316,405.3
54.233,294.3
54.2521,16.2
54.271,479.1
54.2776,208.7
54.2784,93.5
54.2956,140.8
54.3058,78.4
54.3245,18.4
54.3247,82.3
54.3249,83.4
54.3399,139.4
54.3456,244.4
54.3478,139.9
54.3807,572
54.3899,473.5
54.4233,154.6
54.4464,206.6
54.4497,15.7
54.4588,472.4
54.4812,365.1
54.4828,268.8
54.4842,144.1
54.4938,712.1
54.5016,87.8
54.5113,215
54.5404,293.2
54.5519,391.9
54.557,429.1
54.5604,17.4
54.5644,482
54.5846,530.3
54.5858,217.3
54.6011,400.3
54.6092,151.5
54.6237,329.8
54.6272,124.2
54.6285,144.6
54.6435,107
54.6483,118.5
54.6746,489.9
54.6776,531.4
54.6797,93
54.7198,122.5
54.7243,16.4
54.7535,124.1
54.7557,130
54.7576,321.5
54.7654,30.2
54.772,134.4
54.7944,27.6
54.8106,17.9
54.8145,105.3
54.8294,216.3
54.8364,16.6
54.8443,245.2
54.8528,21.1
54.8683,178.8
54.8812,325
54.8918,231.3
54.9001,17.4
54.9152,122.6
54.9277,204.3
54.9373,192.7
54.9582,23.7
54.9642,127.5
54.9994,148.7
55.0013,171.1
55.005,224.8
55.0169,469.5
55.0236,272.6
55.0344,17.1
55.0394,376.3
55.0562,92
55.0598,152.6
55.0716,243.6
55.0719,112.9
55.0848,74.5
55.0881,629.6
55.0897,198.9
55.0975,17.4
55.1065,398.9
55.1174,275.8
55.1205,365.2
55.1275,291.8
55.1359,16.2
55.1405,200.5
55.1462,316.8
55.1522,137
55.1594,259.5
55.1598,75.4
55.1611,68.2
55.1826,119.8
55.1867,15.1
55.1948,137.4
55.1972,146.2
55.2067,114.6
55.2141,252.6
55.2181,208.7
55.2392,110.9
55.2467,138
55.2629,545.7
55.2794,105.8
55.2888,83.4
55.2941,15.9
55.3062,137.7
55.3361,292.7
55.3374,112.7
55.3599,121.6
55.368,308.4
55.3966,217
55.4145,15.9
55.4266,365.4
55.4478,333.6
55.4493,465.8
55.4538,113.8
55.4638,17.5
55.4714,461.5
55.4783,155.4
55.484,308.7
55.4869,95.3
55.498,413.4
55.5043,455.5
55.5077,193.1
55.5093,125.1
55.5227,16.4
55.5404,315.4
55.5492,103.3
55.5539,338.8
55.5713,100.9
55.5814,457
55.5852,16.8
55.596,137.6
55.6115,109
55.6495,16.7
55.6524,136.3
55.6625,16.6
55.6902,173.1
55.6993,530.6
55.7113,110.3
55.73,443.4
55.7394,17.1
55.7496,252.6
55.766,189.3
55.7677,97.4
55.7719,157.8
55.7768,17.2
55.7792,102.9
55.7815,90.5
55.7887,427.3
55.796,284.2
55.8101,18.3
55.8389,642.2
55.8487,239.1
55.8654,216.4
55.8866,211.8
55.8945,352.4
55.9126,30.2
55.9289,186
55.9298,104.5
55.9318,77
55.9341,277.8
55.9512,16.9
55.9673,285
55.9841,133.8
56.0076,18.2
56.0347,134.3
56.0446,28.3
56.0599,347.5
56.0642,431.9
56.065,149.4
56.066,16.4
56.0707,16.7
56.1206,121.7
56.1298,21
56.1313,21.3
56.137,106.3
56.1397,67.1
56.1463,204.6
56.1478,544.9
56.1577,118.9
56.176,259.8
56.1823,91.8
56.2086,92
56.2164,433.4
56.2566,28.5
56.2721,186.4
56.2726,213.7
56.2902,100.4
56.3074,352.5
56.3117,112.6
56.3122,327.7
56.3133,373.5
56.3386,268.6
56.339,378.4
56.3596,90.7
56.3877,615.2
56.3928,18.4
56.5026,259.9
56.507,18.3
56.5217,306.1
56.5379,109.8
56.5395,614.6
56.5504,277.8
56.5524,490.2
56.5558,738.9
56.5631,147.8
56.5646,131.2
56.5831,456.1
56.5956,17.7
56.6192,409.7
56.6224,468.7
56.6264,484.8
56.6382,16.2
56.6415,233.4
56.646,387.7
56.6626,26.2
56.6665,162.9
56.6751,160.7
56.6806,395
56.685,19.4
56.706,277.7
56.7074,70
56.7365,295.4
56.7549,93.5
56.7575,107.7
56.7616,121.9
56.7641,428.3
56.7839,19.9
56.7867,69.7
56.7935,152.7
56.8002,495.7
56.8092,68.1
56.8133,307.9
56.8313,210.9
56.8383,535.7
56.8392,100.5
56.8542,135.1
56.8564,78.1
56.8668,610.4
56.874,440.6
56.9038,275.1
56.9175,103.8
56.925,290
56.9275,17.2
56.9307,133.7
56.9358,120.3
56.9478,103.3
56.9633,156
56.9656,86.8
56.9752,388.2
56.9831,125.5
56.9854,131
57.0025,147.4
57.0032,14.8
57.0101,486.7
57.0111,258.9
57.0548,275.8
57.0751,445.2
57.1342,456.4
57.1347,311.6
57.1742,98
57.1992,225.3
57.2119,211.6
57.2408,192.1
57.2561,18.1
57.2749,90.6
57.3088,125.5
57.3149,26.2
57.3358,534.2
57.3432,448.2
57.3552,270.9
57.3597,579.2
57.3847,16.2
57.4001,414
57.4091,579.1
57.4109,95.2
57.4166,97.9
57.4215,289.1
57.4485,100.7
57.4671,137.5
57.4853,121.2
57.4899,90.7
57.4943,484.9
57.5243,118.1
57.5405,121.1
57.554,139.2
57.5787,16.1
57.5914,364.9
57.6046,81.4
57.6082,468.9
57.6092,268.5
57.6107,289.8
57.6151,600.9
57.6189,397.2
57.6231,407.3
57.6341,124
57.6513,263.9
57.6628,407.3
57.6713,479.8
57.6892,767.5
57.692,436.3
57.7184,100.3
57.7427,536.6
57.7525,387.6
57.7622,307.8
57.7746,135.5
57.7792,17.1
57.7813,24.9
57.7913,29.1
57.7957,190.1
57.7961,443.4
57.8017,117.4
57.8229,430.5
57.8256,206.5
57.8265,421.8
57.829,191.5
57.8449,87.5
57.8518,29.7
57.8581,139
57.8652,169.1
57.8886,148.1
57.9149,15.6
57.9153,209.8
57.9181,34.6
57.953,373.6
57.9579,318.1
57.9625,588.4
57.9683,667.6
57.9804,147.7
57.9892,86.6
57.9922,460
57.9934,364.6
57.9996,115.6
58.0365,275.1
58.0368,260.9
58.0626,152.7
58.0687,490.9
58.0764,120.8
58.0806,123.4
58.0868,84.3
58.0893,109
58.1009,686
58.109,197.9
58.1301,122.7
58.1477,177.2
58.1519,97.4
58.1635,417
58.171,576.7
58.1778,111.5
58.1864,17.9
58.1947,454.2
58.1976,219.6
58.2164,266.2
58.2199,404.3
58.2254,110.7
58.2364,65.2
58.2461,280.5
58.2544,481.6
58.2579,28.4
58.2589,209.8
58.2634,16.1
58.2696,91.7
58.2831,92.9
58.2888,16.7
58.2988,532.1
58.3667,291.6
58.3687,123.3
58.3781,539.3
58.3924,252.4
58.3998,88.4
58.4069,486.3
58.4391,457.2
58.4495,273.7
58.4622,385.8
58.482,466.5
58.4964,229.6
58.5097,214.4
58.5246,15.1
58.5386,88.5
58.5402,277.1
58.5488,92.7
58.56,345.4
58.5639,94.4
58.5792,458.2
58.5837,16.4
58.5873,166.2
58.595,166.2
58.6085,295.3
58.6117,203.2
58.6193,459.2
58.6316,133.7
58.6376,140.6
58.6396,243.4
58.6974,105.3
58.6992,28.1
58.7003,120.9
58.7051,140.1
58.7129,16.3
58.7254,151.5
58.7324,19.8
58.7853,162.3
58.7869,439.4
58.818,351
58.8293,16.5
58.8395,338
58.8773,16.5
58.8908,256.2
58.9015,136.2
58.9047,113.4
58.9141,194
58.9186,97.9
58.9264,162.7
58.9429,174.5
58.9599,174.4
58.9754,443.7
58.98,185.6
58.9884,221.3
58.995,232.1
59.0151,209.8
59.0216,183.6
59.0256,23.7
59.0264,227.9
59.028,218.6
59.0422,27.4
59.0627,651.5
59.0729,132.6
59.1039,78.3
59.1333,19.6
59.1411,129
59.1543,15.1
59.1774,398.5
59.2352,35.1
59.3007,250.4
59.3052,18.1
59.3123,15.9
59.3192,226.8
59.3214,283.4
59.3311,473.2
59.3415,314.5
59.3792,628.1
59.3867,185.3
59.3897,331.1
59.422,340.8
59.4318,18.6
59.4335,186.8
59.443,136.4
59.4525,459.6
59.4623,287.9
59.4704,541.7
59.4715,382.4
59.4752,17.8
59.4892,15.9
59.5322,268.1
59.5461,216.8
59.5481,18.4
59.5495,680.7
59.581,197.9
59.5936,182.2
59.607,16.9
59.6291,116.4
59.6368,422
59.6614,341.6
59.6801,90.7
59.715,78.3
59.7161,269
59.7165,110.8
59.7169,18.3
59.736,66.7
59.7368,714.6
59.7385,470.5
59.7502,259.8
59.757,140.6
59.7638,87.5
59.7744,670
59.8121,462.3
59.8141,109.9
59.819,275.2
59.8382,95.5
59.8403,196.5
59.8426,157.4
59.8431,415.7
59.8445,22
59.8606,217.2
59.8624,228.9
59.8638,28.3
59.8645,105.1
59.8664,82.4
59.8802,16.9
59.8847,759.1
59.892,440.5
59.9002,118.6
59.9045,123.2
59.9107,206.1
59.9126,94.9
59.9213,411.9
59.9344,31
59.9434,80
59.9514,16.2
59.959,30.1
59.9765,343.4
59.9802,210.4
59.9821,91.6
59.9845,16.9
59.9905,649.5
59.9936,103.8
59.9975,452
60.0039,323.9
60.0056,90
60.0113,313.1
60.0159,30.5
60.0218,453.3
60.0337,448
60.0425,152.3
60.0564,285.9
60.0615,16.4
60.1118,104.8
60.1162,390.3
60.1169,104.2
60.1312,705.4
60.135,139.2
60.1382,131.6
60.1413,17
60.1503,308.7
60.1536,108.3
60.1562,255.7
60.1686,383.6
60.1706,125.8
60.1771,392
60.1902,16.9
60.1936,91.7
60.2017,394
60.2092,722.4
60.2116,688.6
60.2287,646.2
60.2306,21
60.2524,96.9
60.2534,133.5
60.2645,33.2
60.266,296.9
60.2728,96.8
60.2741,32.9
60.2746,17.5
60.2819,331.4
60.3163,600.8
60.3205,90.4
60.3243,87.9
60.3296,139.8
60.337,17.6
60.3384,436.1
60.348,153.5
60.3492,109.7
60.3611,34.4
60.3714,192.7
60.3766,119.5
60.3878,152.9
60.3946,386.3
60.4268,337.5
60.4346,156.2
60.4467,557.2
60.4533,89.2
60.4748,18
60.4754,769.5
60.4794,128.5
60.5404,15.7
60.5518,96
60.5569,75.1
60.5585,144.3
60.5629,313.1
60.5675,202.2
60.5729,416.3
60.6053,27.3
60.619,677.8
60.6271,149.3
60.6489,201.2
60.6568,323.9
60.6654,15.6
60.7252,316.7
60.7276,148.6
60.7315,787.3
60.7327,455.7
60.7473,173.3
60.7525,28.6
60.7733,94
60.7933,290.6
60.7952,451.4
60.8019,196.1
60.8105,159.3
60.8186,115.6
60.8628,432.6
60.8863,211.1
60.8929,100.7
60.9049,195.4
60.909,182.5
60.9099,596.8
60.9221,16.6
60.9496,185.5
60.9749,374.9
60.9772,16.6
61.0087,307.2
61.0146,605.2
61.0196,129.1
61.0255,19.6
61.0746,34.6
61.0849,18.6
61.1053,222.8
61.1546,104.8
61.161,129.4
61.1668,73.3
61.1738,16.8
61.1848,97.8
61.1863,117.7
61.195,198.1
61.2093,349.3
61.2282,207.2
61.2372,30.7
61.2389,158
61.2704,597.7
61.2767,300.3
61.2799,87.6
61.2885,192.2
61.2929,432.5
61.2962,15.9
61.3052,130.7
61.3094,15
61.3212,422
61.3662,112.5
61.3681,96
61.3787,127.1
61.386,440.3
61.3911,723.7
61.3959,30.9
61.4016,290.4
61.4086,404
61.4132,285.2
61.4133,281.3
61.4352,136.4
61.4358,111.2
61.4975,761.2
61.5014,156.4
61.5269,514.9
61.5326,400.1
61.5399,137.9
61.5526,232.2
61.576,401.4
61.5829,103.3
61.5853,487.8
61.5939,73.2
61.6036,75.7
61.6069,491.9
61.6234,190.3
61.6427,17
61.6461,221.8
61.6511,229.1
61.6593,225.2
61.6682,80.9
61.6743,212.8
61.7475,67.9
61.7547,397.5
61.7565,284.2
61.7575,238
61.7594,379.9
61.7685,308.2
61.7775,19.5
61.791,257.1
61.8158,96.9
61.8345,208.6
61.8427,446.5
61.8648,453
61.8909,92.8
61.8952,358
61.8969,290.1
61.8997,111.8
61.904,425.3
61.9071,224.8
61.9217,365.9
61.9229,142.6
61.9249,218.7
61.93,186.6
61.935,107.4
61.9407,642.1
61.9489,566.1
61.9564,247.1
61.9627,521.9
61.9661,297.6
61.9809,64.4
61.9853,19.3
61.9974,125.8
62.0006,73.5
62.0183,355.5
62.0293,105.6
62.0302,18.5
62.0392,245
62.0399,317.8
62.0522,462.1
62.0661,248.7
62.0725,128.4
62.0933,408.6
62.1075,452.5
62.1322,18.6
62.1906,283.6
62.2208,80.5
62.2249,16.9
62.2317,107.5
62.2447,122.7
62.2678,442.6
62.2742,32.7
62.2775,109.4
62.2841,279.8
62.2864,346.8
62.2904,148.3
62.2968,71
62.3044,18.3
62.316,364.9
62.3289,305.9
62.3514,200.3
62.3711,122.7
62.3794,15.8
62.3979,299.2
62.4277,228.7
62.4349,15.4
62.4399,74.5
62.4436,261
62.4447,116.9
62.455,850.9
62.4624,224.4
62.4914,109.1
62.4948,140.1
62.5069,267.2
62.5113,225.3
62.5275,160.8
62.5346,17.2
62.5368,241.9
62.5387,111.8
62.5447,94.9
62.5671,467.4
62.5968,97.6
62.617,199.5
62.6604,17
62.6721,17.9
62.6731,135.7
62.6818,186.9
62.6956,515.8
62.7064,196.3
62.7401,317.3
62.7516,81.6
62.7592,209.4
62.7718,475.5
62.7874,242.5
62.8322,65.3
62.8354,22.4
62.8414,213.2
62.8517,381
62.8758,451.4
62.8982,620.1
62.9041,95.3
62.9232,174.9
62.9449,269.5
62.9629,458.2
62.9706,307.7
62.9918,304
62.9941,434
63.0095,116.6
63.0163,520.1
63.0274,278.4
63.028,182.8
63.0365,202.5
63.0431,456.7
63.094,108.3
63.0956,458.8
63.0965,90
63.1086,101.2
63.1257,68.9
63.145,110.7
63.1543,99.7
63.1555,420.9
63.1678,403
63.1886,28.2
63.1977,84.1
63.1996,16
63.2029,430.1
63.2055,161.9
63.217,450.5
63.2301,116.3
63.2526,606.9
63.2592,16.8
63.2603,276.4
63.2774,77.1
63.2917,148.3
63.3063,627.3
63.3201,464.4
63.3222,22.6
63.3722,266.2
63.3991,16.9
63.4094,391.8
63.4151,221.4
63.42,209.7
63.4236,101
63.4262,89
63.438,211.6
63.4484,635.7
63.4958,285.4
63.5292,16.7
63.5385,566.9
63.5457,399.7
63.5565,508.4
63.573,112.8
63.5862,508.5
63.5922,251.9
63.6028,17.8
63.6115,130.8
63.6223,135.5
63.6391,174.7
63.6411,119.1
63.6442,213.3
63.6467,427.9
63.6684,498.4
63.6723,141.1
63.6975,121.5
63.7011,300.3
63.7538,138.6
63.7591,511.9
63.7797,176.9
63.7821,926.8
63.7884,496.6
63.805,332.7
63.8063,85
63.8306,387.4
63.8381,261.6
63.8466,202
63.8541,444.1
63.8592,76
63.8633,263.5
63.8827,95.5
63.9037,124.6
63.9158,399.9
63.939,180
63.9445,19.2
63.9484,97
63.962,83.1
63.9664,104.9
64.0205,132.7
64.0214,18.7
64.0225,183.2
64.0271,252.2
64.0365,16.5
64.0372,475
64.0373,465.1
64.0537,273.6
64.0814,333.3
64.0821,424.2
64.0884,167.3
64.0893,197.6
64.091,229.6
64.1068,83.8
64.1189,91
64.1204,118.9
64.1213,163.2
64.1268,510
64.1389,160.3
64.1543,96.4
64.1566,16.3
64.1671,100
64.1681,22.1
64.1759,16.5
64.1944,112.8
64.1975,269.3
64.2278,16.5
64.2341,25.5
64.2443,232.7
64.249,513.6
64.2656,117.3
64.2663,312.3
64.2725,19.3
64.2811,468.2
64.2826,426.9
64.2865,534
64.3143,70.4
64.3255,513.7
64.336,16.6
64.3372,388.8
64.3421,92.1
64.3459,154.6
64.3469,91.2
64.3883,87.5
64.3937,88.9
64.4034,468.2
64.4073,142
64.44,93.1
64.4407,120.9
64.4416,141.3
64.4529,17
64.456,194.1
64.4771,246.1
64.4886,241.5
64.495,178.7
64.4977,542.8
64.5115,187.4
64.5168,513.8
64.5187,16
64.5366,512.1
64.5392,540.6
64.5397,96.6
64.5457,133
64.5793,17.8
64.6053,93.2
64.6076,164.7
64.6121,435.1
64.614,17
64.619,412.5
64.625,167.6
64.6316,109.4
64.6386,405.6
64.6728,104.2
64.6775,295.1
64.6934,632
64.7018,269.3
64.7171,92.1
64.7359,502.2
64.749,17.6
64.7544,315.7
64.7708,19.8
64.7915,404.9
64.7964,460.5
64.803,544.6
64.824,96.1
64.8275,353.9
64.837,144.3
64.8429,666.7
64.8452,105
64.8607,385
64.8624,97.9
64.8702,251.4
64.871,96.9
64.9189,263
64.923,347.7
64.9331,19.6
64.9411,116
64.9767,17.2
64.994,244.4
65.0013,200.4
65.0117,235
65.0308,102.1
65.0321,18.6
65.038,20.3
65.0412,301.5
65.0454,188
65.0535,473.2
65.0565,477.6
65.0931,266.2
65.104,104
65.1104,240.1
65.1275,120
65.1393,86.7
65.1433,599.5
65.1646,463.5
65.1815,70.2
65.1825,156.7
65.1834,16.6
65.1837,15
65.1931,18.1
65.2107,28.3
65.2118,342.7
65.2414,147.7
65.2533,198.2
65.2638,91.3
65.2796,26.3
65.2864,71.6
65.2915,182.1
65.3134,415.4
65.3175,190.8
65.3202,102.4
65.333,553.7
65.3476,214.8
65.35,151
65.3579,504.1
65.3616,406.4
65.3675,30.2
65.371,17.7
65.3726,103.5
65.3788,281.5
65.4117,16.9
65.4129,178.1
65.4286,720.9
65.4485,18.9
65.4573,30.2
65.4657,18.8
65.4759,419.1
65.4943,140.4
65.4997,727.5
65.5011,105.8
65.5174,340.2
65.5247,239.2
65.5252,158.8
65.5767,77
65.5861,65.9
65.591,160.4
65.6576,273.8
65.6603,735.6
65.6784,95.2
65.695,416.2
65.721,462.6
65.7243,114.3
65.7312,517.7
65.7343,496.9
65.7388,450.7
65.7438,416.2
65.7667,739.8
65.7741,20.3
65.7768,402.4
65.7875,69.6
65.8088,622.6
65.8179,91.4
65.829,725.6
65.8433,178.7
65.8599,239.7
65.8669,94.8
65.8677,446.3
65.8718,414.6
65.8886,507.7
65.8916,342.9
65.8988,113.6
65.9181,450.9
65.9186,153.4
65.9216,16.2
65.9388,73.2
65.9524,459.9
65.9596,527.5
65.9959,278.3
66.0013,401.5
66.0087,240.9
66.0124,257.6
66.0212,92.5
66.0394,856.3
66.053,114.3
66.0716,16.2
66.079,678.6
66.0885,391
66.1113,303.4
66.1427,350.8
66.1549,94.5
66.1657,771
66.1699,138.3
66.1797,106.1
66.2164,250.7
66.2328,373.5
66.2332,365
66.2338,473.8
66.2359,119.7
66.2408,452.7
66.2588,350.8
66.2767,308.3
66.2935,180.8
66.3077,446.8
66.3168,66.2
66.3207,478.5
66.3219,102.5
66.332,197.9
66.3439,443.1
66.3502,448.4
66.3599,15.3
66.3637,391.4
66.3751,129.2
66.3819,19.8
66.3968,480
66.4063,129.7
66.4069,191.3
66.4101,242.3
66.4241,84.6
66.4699,108
66.4878,147.8
66.5286,209.8
66.5441,171.2
66.5624,484.8
66.5884,224.9
66.5907,531.2
66.5935,18.3
66.6065,17.8
66.6219,518.2
66.6267,568.2
66.6309,108.1
66.6521,99
66.6578,727.8
66.679,505.2
66.6888,18.5
66.6902,20.8
66.6935,224.9
66.7005,33
66.7033,16.5
66.7154,74.1
66.7169,76.4
66.72,159.7
66.7404,99
66.7558,496.8
66.7691,16.2
66.7705,170.9
66.7813,394.1
66.8242,135.1
66.8326,717.3
66.8529,16.8
66.8547,152.4
66.8684,193.3
66.8773,446.2
66.8973,163
66.8988,313.9
66.911,122.2
66.914,491.4
66.9259,409.8
66.9448,452.2
66.9462,323.5
66.9488,682.3
66.9506,408.4
66.9619,15.8
66.988,93.5
67.0353,129.2
67.0411,189
67.0539,63.5
67.0588,125.2
67.081,414.4
67.1026,20.8
67.1127,259.6
67.1212,485.4
67.1387,125.9
67.1407,229.9
67.1495,145.9
67.1518,171.5
67.1621,102.7
67.1767,146.1
67.186,93.4
67.1899,178.4
67.1903,260.4
67.1908,450.8
67.1915,257.3
67.2006,87.4
67.2234,34.6
67.2352,14.9
67.2539,393.5
67.2673,144.2
67.2838,204.7
67.2882,95.4
67.292,257.8
67.2979,512.4
67.3179,92.4
67.3312,764.4
67.3353,352.2
67.3445,198.1
67.3527,766.6
67.3551,212.9
67.3566,246.6
67.3575,139.5
67.3677,138.1
67.3788,516.9
67.3826,19.4
67.3845,92.9
67.3893,470.5
67.3975,168.6
67.4016,17.8
67.4052,15.8
67.4059,359.9
67.4107,438.9
67.4336,18.1
67.4527,166.9
67.4649,169.6
67.4703,490.3
67.4759,136.8
67.4784,106
67.481,91.2
67.4826,207.1
67.5198,209.1
67.5413,91.2
67.5482,20
67.5515,267.7
67.5519,660
67.5601,473.6
67.5738,98.9
67.6007,161.4
67.6098,505.8
67.6554,346.9
67.6708,96.8
67.6986,74.6
67.7011,184.7
67.7047,296
67.7071,263.6
67.7243,783.3
67.7812,116.7
67.7885,162.9
67.7944,35.5
67.8006,296.8
67.802,103.3
67.8043,219.2
67.8092,479.3
67.8134,446.4
67.8248,303
67.8478,711.5
67.859,31.3
67.871,93.8
67.8773,19.7
67.9446,292
68.0122,30.8
68.0394,583.4
68.0508,494.3
68.0849,419.6
68.0866,84.3
68.0919,17.9
68.0968,623
68.1002,16.3
68.1006,619.8
68.1352,156.9
68.1357,102.5
68.1456,593.2
68.164,473.8
68.165,105.8
68.1682,464
68.17,16.7
68.1737,372.1
68.1989,114.4
68.2019,303.2
68.2198,283.3
68.2561,129.8
68.2662,505.2
68.2969,273
68.3035,304.5
68.3246,74.2
68.3269,17.3
68.366,671.2
68.3692,284.9
68.3709,270.7
68.3851,431
68.4057,505
68.4244,20.1
68.4396,17.6
68.4466,295.1
68.4598,17.4
68.474,16.5
68.4791,138.7
68.4863,374.1
68.4945,752.6
68.5118,117
68.5435,177.1
68.5596,119.5
68.5817,503.2
68.5864,516.9
68.6044,383.8
68.6152,415.3
68.6297,106
68.6375,219
68.6421,124.3
68.6749,84.2
68.7048,16.8
68.7076,18
68.7158,481
68.7333,277
68.7413,252.9
68.7651,19
68.8,19.8
68.823,104
68.849,1148
68.855,137.1
68.8694,17.9
68.8733,29.2
68.8741,244.2
68.8789,28.4
68.8896,108.6
68.894,35.5
68.9078,199
68.9183,151.8
68.9196,148.2
68.9414,193.3
68.945,230.8
68.9517,288.4
68.9563,506.7
68.9687,137.9
68.9696,16.7
68.9733,672.4
68.9986,504.7
69.0382,17.4
69.0469,34.9
69.0496,689.9
69.0678,257
69.0703,439.3
69.096,457.4
69.1148,317.1
69.1334,17.9
69.1568,104.6
69.1625,132.8
69.1631,34.1
69.1653,129.2
69.2338,135.6
69.258,106.7
69.2617,290.7
69.2942,168.5
69.3046,477
69.3334,91.6
69.3481,284.2
69.3568,401.9
69.3577,22.4
69.3754,463
69.376,19.1
69.3862,587.5
69.3952,560.1
69.4023,114.7
69.4287,19.7
69.4882,446.9
69.4901,217
69.5011,619.4
69.5421,201.9
69.5447,90.7
69.5648,304.1
69.5921,487.8
69.6232,508.2
69.6294,247.3
69.631,120.4
69.6354,359.4
69.6443,91.4
69.6449,18
69.6461,109.3
69.6574,337.7
69.6733,261.4
69.6795,203.2
69.6814,104.9
69.6907,521.6
69.6958,341.9
69.7269,29.9
69.7302,164.9
69.7376,266.4
69.7441,508.2
69.7662,86
69.7759,534.7
69.7859,262.8
69.788,129.7
69.8078,478.2
69.8206,401.4
69.8235,108
69.8568,107.6
69.9054,648.6
69.9432,220
69.9517,228.7
69.9594,221.9
69.9648,189.8
69.9712,130.3
70.0016,148.7
70.0193,464.4
70.0215,18.6
70.0436,168.2
70.047,694.7
70.0493,306.1
70.0501,204
70.0649,699.9
70.0759,118.1
70.0893,112.2
70.1011,109.8
70.1048,775
70.1201,99.1
70.1231,17.6
70.1476,302.2
70.1518,19.8
70.1626,122.5
70.1829,325
70.1903,15.5
70.1933,256.1
70.2542,577.5
70.2558,191.8
70.2617,101.2
70.2661,334.5
70.2885,118.8
70.2929,130.9
70.3177,305.2
70.3473,133.3
70.3716,195.9
70.3822,835.2
70.3917,463
70.4162,126.8
70.4236,109.7
70.4337,666.3
70.4457,373
70.4493,382.4
70.4507,72.4
70.4617,731.1
70.4695,68.7
70.4719,376.2
70.4794,106.8
70.4876,105.7
70.4893,501.4
70.4923,18.2
70.4982,324.7
70.5,295.8
70.5101,452.2
70.5354,18.4
70.5472,435.4
70.5603,206.9
70.5654,178.3
70.6086,92.7
70.6118,16.6
70.6217,19.7
70.6226,511.8
70.6305,472.4
70.6463,239.6
70.6471,414.4
70.6473,491.7
70.6484,645.9
70.649,671
70.6615,322
70.6736,559.2
70.7123,490.2
70.7157,123.6
70.7274,250.5
70.7552,346.4
70.7665,261.2
70.7712,777.1
70.7732,138.3
70.7775,97.6
70.7803,132.2
70.7859,525.2
70.8029,390.2
70.8168,444
70.8308,15.7
70.8366,215.1
70.8506,18
70.8536,287.7
70.8637,138.1
70.8877,454.1
70.9033,406.6
70.934,84.6
70.943,515.4
70.944,106.7
70.9537,449.6
70.9564,132.8
70.9817,174.2
70.9827,89.3
70.9838,114.3
70.9919,145.7
71.0008,245
71.0223,521.3
71.0336,316.8
71.0461,17.8
71.0583,71.3
71.0619,18.3
71.1324,88.5
71.1326,108.4
71.1328,97.9
71.1484,108.7
71.1555,330
71.1754,261.2
71.2072,122.3
71.2087,197.6
71.2107,70.9
71.2259,208.7
71.2315,18.2
71.2357,296.1
71.2766,107.2
71.2866,114.2
71.3084,442.1
71.3144,20.2
71.3403,304.2
71.3433,418.8
71.3775,94
71.3918,508.9
71.4317,86
71.436,160
71.4384,95.3
71.4478,94.6
71.4705,116
71.4948,231
71.4967,650.8
71.5121,32.1
71.5217,197.9
71.5252,114.1
71.5267,244.2
71.536,25.3
71.5405,253.2
71.5609,153.3
71.5637,85
71.5902,101
71.6395,98.5
71.6614,197.9
71.6763,328.1
71.6913,208.7
71.7154,136.6
71.7372,68.6
71.7416,262.5
71.774,91.4
71.7787,18.5
71.7809,149.4
71.7886,18.1
71.7938,18
71.7992,16.8
71.8071,398.2
71.8242,107.2
71.831,17.7
71.8336,93.8
71.8462,421.6
71.8593,16.8
71.8711,223.2
71.8722,85.1
71.9131,737
71.9147,389.3
71.9177,230.7
71.9233,214.7
71.984,293.7
71.9876,201.9
72.0383,221.5
72.0469,285.1
72.0653,176
72.0689,575.5
72.0805,165.6
72.1096,162.8
72.1249,573.6
72.129,16.1
72.1348,100.3
72.1414,334.8
72.1431,17.8
72.1444,478.4
72.1518,650.9
72.1524,17.7
72.167,429.4
72.1676,103.8
72.1686,192.3
72.195,445.1
72.2108,898.2
72.212,381
72.2133,418.5
72.2145,662.3
72.2147,810.4
72.2149,777.8
72.2152,640.9
72.2162,711.2
72.217,1423.7
72.2184,951
72.2192,1155.8
72.2198,1399.5
72.221,1961.5
72.2215,1214.3
72.2224,2701.3
72.2232,1488.2
72.2235,1805
72.2243,2646.6
72.2247,3130.8
72.2251,3310.4
72.2257,1494.3
72.2264,2407.2
72.227,1309
72.2278,2853.1
72.2296,3291.4
72.231,1138.4
72.2319,2178.6
72.2325,1545.3
72.2328,1576.1
72.2336,903.2
72.2342,2635.1
72.2351,1644.8
72.2354,1693.8
72.2364,1453.3
72.2391,1292.8
72.2401,685.6
72.2434,277.5
72.2512,160
72.272,16.8
72.273,259.4
72.2796,106
72.2975,191.5
72.2988,599.1
72.3066,16.7
72.3346,214.8
72.3409,263.2
72.3449,18.6
72.3589,133.4
72.3617,272.7
72.378,428.9
72.3787,233.1
72.3808,475.4
72.3975,126.4
72.4192,290
72.447,107.8
72.4529,265.8
72.4653,287.6
72.4668,568.6
72.5081,454.8
72.5113,21.5
72.5303,168.5
72.5523,144.5
72.5579,70.3
72.5677,191.3
72.5818,116.3
72.5866,202.6
72.5973,152
72.6104,292.4
72.6198,527.3
72.626,794.6
72.6277,129.9
72.6387,414.6
72.6401,409.6
72.6456,17.1
72.647,643.2
72.6539,473
72.659,450
72.7074,447.1
72.716,16.8
72.7255,385.6
72.7282,15.9
72.731,254.6
72.7505,532.2
72.819,445
72.8369,32.2
72.8486,102.2
72.871,495
72.877,140.4
72.8824,75.2
72.9001,96.3
72.9028,316.2
72.9167,17
72.9378,451.2
72.9654,533.4
72.9913,17
72.9952,428.6
72.9984,368.9
73.0082,19.7
73.0255,118.5
73.0479,508.6
73.0691,86.4
73.0833,425.3
73.0842,597
73.0982,383.4
73.106,259.6
73.1595,403.2
73.1711,505.6
73.1732,262.1
73.1828,420.5
73.1883,576.1
73.1916,230.1
73.2129,17.6
73.2569,318.6
73.2884,122.1
73.3166,416.3
73.3353,165.2
73.3541,255.3
73.3979,77.8
73.4081,140.1
73.4229,320.9
73.4235,260.6
73.4647,339.5
73.4706,143.8
73.4788,105.2
73.4914,89.1
73.4978,354.6
73.5357,150.4
73.5464,17.3
73.5702,303.1
73.5902,67.1
73.6212,128.7
73.627,92.9
73.6349,170.8
73.6393,18.6
73.6601,95.3
73.6808,89.1
73.7012,72
73.7317,387.5
73.7521,516.7
73.7553,140.6
73.7576,393.9
73.7813,230.5
73.7873,175.9
73.7934,107
73.794,119
73.8013,192.9
73.8115,435.2
73.8146,463.2
73.8302,126.2
73.8412,681.4
73.8634,112
73.8847,291.2
73.8942,68.9
73.896,262.8
73.9076,219.4
73.9215,294.4
73.9257,475.2
73.9351,534.2
73.9392,489.9
73.9512,138.6
73.9517,493.7
73.9587,134.4
73.9606,111
74.0254,649
74.0415,19.8
74.0598,5097.2
74.0918,130.8
74.1111,28.7
74.1299,449.2
74.1337,218.9
74.1573,471.8
74.1775,125.2
74.1837,457.2
74.1869,194.2
74.1884,483.8
74.2028,313.9
74.2157,111.1
74.2401,33.7
74.2525,277.3
74.2658,136.4
74.2709,16
74.2735,414.4
74.2763,569.6
74.3325,138.2
74.3635,161.1
74.3754,543.3
74.3852,403.2
74.394,75.2
74.4331,16.7
74.4587,411
74.4849,93.5
74.5018,98.1
74.5178,19.7
74.5341,354.8
74.5731,206.7
74.5779,150.9
74.5832,20.5
74.597,189.9
74.6064,282.4
74.6076,222.1
74.6095,524
74.6385,113.9
74.7018,611.6
74.7125,17.5
74.7226,118.2
74.7563,113.8
74.7605,324.1
74.782,30.7
74.7887,428.6
74.8186,439.5
74.8247,115.5
74.8359,284.8
74.892,254.6
74.9123,266.2
74.9161,30.3
74.9203,487.9
74.9236,380.7
74.9248,18.2
74.9374,287
74.9553,286.7
74.959,16.4
74.9683,173.2
74.987,327.7
75.0046,383.4
75.0054,154.9
75.0096,255.8
75.0624,104.5
75.0782,145.1
75.1259,367.6
75.1317,405.7
75.1353,135.7
75.1359,200.9
75.1467,963.3
75.1633,386.6
75.1736,197
75.1861,418.4
75.187,362.7
75.1891,18.1
75.2027,426.2
75.2083,345.5
75.2685,115
75.2824,403.9
75.2995,211.5
75.3005,89.7
75.3166,273.5
75.3507,349.5
75.3895,241.5
75.4067,360.5
75.4113,263.6
75.4289,74.8
75.4343,197.3
75.4446,131.2
75.4632,448.3
75.4668,596.3
75.4785,236.6
75.5006,84.3
75.5021,19.9
75.5085,139.8
75.5242,504.8
75.5251,406.9
75.5358,96.3
75.5671,167.9
75.573,712.9
75.576,80.9
75.6014,219.5
75.6052,251.2
75.6305,88.3
75.6529,241.6
75.6615,199.2
75.6628,397.8
75.6702,71.6
75.673,16.6
75.6965,148
75.7073,204.3
75.7848,193.2
75.7929,317.8
75.8155,307.4
75.8236,257.7
75.8468,348.8
75.8675,117.3
75.8871,316.7
75.8895,133
75.9772,135.4
75.9787,98.3
75.9869,98
75.9918,91.8
76.0195,196.9
76.0456,320.9
76.0827,120
76.0833,15.5
76.0921,771.6
76.1105,397.8
76.1223,90
76.1251,283.8
76.1326,606.2
76.1765,108.9
76.1835,17
76.1943,111.8
76.1976,415.1
76.2071,155.7
76.2218,118.8
76.2277,30
76.235,586
76.2384,459.5
76.2448,226.6
76.2555,758.7
76.2669,208.8
76.2746,339
76.2893,96.6
76.3125,133.7
76.3166,128.8
76.3248,88.7
76.3273,431.5
76.3343,17.8
76.3355,696.2
76.3645,298.1
76.4096,116.3
76.4247,86
76.4286,270
76.4515,204.1
76.4695,119.5
76.4702,129.7
76.4744,33.7
76.4811,18.8
76.5014,426
76.549,147.9
76.554,137.7
76.5579,290
76.586,233.1
76.6255,153.3
76.6351,273
76.712,188.7
76.7166,109.6
76.746,485
76.7533,183.4
76.787,214.1
76.7883,217.1
76.8463,262.8
76.8469,84
76.8627,226.2
76.8755,152
76.8797,282
76.8896,731.8
76.9814,86.1
77.0072,116.9
77.0094,115
77.0314,17
77.0347,516.4
77.0369,28.6
77.0383,122179.7
77.0488,473
77.0516,465.1
77.09,232.6
77.0965,243
77.0978,308.1
77.0999,498.3
77.1072,85
77.109,32.6
77.1234,115.2
77.1339,96.2
77.1435,128.9
77.1644,19.1
77.1807,72.5
77.1837,151.4
77.1867,110.4
77.1889,96.1
77.2199,72.5
77.2383,116
77.2435,194.8
77.255,431.4
77.2725,202
77.318,435.2
77.3323,126.8
77.3644,461.2
77.3671,299.7
77.3955,292
77.4096,737
77.4549,195.1
77.4626,172.3
77.4763,578.6
77.4829,641.4
77.5056,176.5
77.5073,151.8
77.5115,323.2
77.524,256.8
77.5548,110.2
77.5851,31.6
77.5928,84.2
77.6164,412.2
77.6277,197.6
77.6405,357.7
77.6524,407.7
77.6537,426.9
77.6868,18.1
77.6985,180.1
77.6998,292.5
77.7138,102.8
77.7163,121.4
77.7196,485.4
77.7345,115
77.7436,108.1
77.7613,349.8
77.7702,72.5
77.7807,514.5
77.7853,521.2
77.7915,16.8
77.8021,19.2
77.805,237
77.8264,323.4
77.8362,16
77.838,625.8
77.8783,299.8
77.8948,590.8
77.9432,19.5
77.954,136.6
77.9574,247.2
77.9589,637.2
77.9608,189.8
77.9664,291.9
77.9687,161.4
77.9765,191.8
77.9849,79.2
77.9948,30.9
78.0223,660.1
78.0244,92.8
78.0327,422.4
78.0417,4725.2
78.047,285.9
78.0553,255.5
78.0592,169.3
78.065,612
78.0757,430.8
78.0848,93.1
78.0887,20.3
78.0903,158.1
78.0915,89.5
78.1245,125.6
78.1344,74.1
78.1366,17
78.1748,102.1
78.1924,484.8
78.202,427.5
78.22,17.5
78.2294,180.3
78.2477,199.6
78.2494,22.3
78.2666,526.6
78.3,118.6
78.3449,404.3
78.35,77.6
78.3774,401.3
78.3875,172.9
78.389,16.2
78.4511,138.3
78.4596,158.7
78.4674,274.4
78.4962,742.4
78.4996,397.1
78.5094,33.3
78.5101,508.3
78.5125,395.4
78.5163,94.8
78.5284,160.2
78.5345,97.2
78.57,105.5
78.5715,332.9
78.5727,29.1
78.582,122.9
78.5956,186.7
78.6218,388.5
78.637,18.9
78.6523,313.7
78.6538,123.9
78.6619,230.9
78.663,186.5
78.678,173.1
78.687,571.4
78.7075,96.1
78.7106,750.3
78.7408,292.3
78.7418,119.6
78.786,21
78.7934,299
78.8441,19.6
78.8499,108.6
78.8506,28.8
78.8605,558.9
78.8804,139
78.8885,99.3
78.9216,114.7
78.9245,110.7
78.9631,142.5
78.9968,218.2
78.998,442.1
79.015,15.4
79.0157,165.1
79.0183,691.9
79.0478,566.1
79.054,1947.4
79.0704,111.6
79.0758,247
79.077,503.8
79.1394,122.5
79.1933,32.1
79.2072,159.7
79.2104,347.9
79.226,104.4
79.2337,19.8
79.2619,302.6
79.2692,397.8
79.2836,115.7
79.2849,534.2
79.2982,272.4
79.2999,221
79.323,105.1
79.3249,173.9
79.3635,111.6
79.3653,439.3
79.4023,18.1
79.4058,90.1
79.4694,496.4
79.4871,445.3
79.4983,626
79.5048,447.9
79.5062,75.8
79.5325,269.9
79.5898,429.3
79.5973,201.5
79.5997,331.6
79.6104,37.7
79.6175,488.1
79.6206,302.1
79.6679,295.8
79.6921,461.6
79.7252,299.5
79.7301,545.9
79.7432,103.7
79.7671,431.7
79.7702,206.2
79.7844,20.1
79.8322,461.6
79.8386,250.9
79.8483,16.9
79.8523,18.8
79.8532,327.2
79.8561,17.9
79.8604,292.4
79.8653,27
79.9386,29.8
79.944,413.7
79.9459,94.1
79.9798,341.1
80.0055,188.1
80.0194,453.7
80.0318,15.7
80.0424,197.1
80.0613,434.6
80.0894,488.9
80.1015,18.3
80.1525,318.2
80.2575,514.6
80.262,19.2
80.2756,184.3
80.2935,29.6
80.2977,550.1
80.3048,284.8
80.3242,116.6
80.3435,102.9
80.3452,146.6
80.3486,592.6
80.363,105.3
80.3815,245.3
80.4307,667.8
80.4319,318.5
80.4454,103.3
80.4565,129.4
80.4586,499.5
80.5076,18
80.5299,304.4
80.5307,322.8
80.5331,255.3
80.576,203.8
80.6098,239.2
80.6175,143.6
80.6281,626.2
80.6389,202.2
80.6473,291.7
80.6498,706.4
80.6641,17.9
80.6778,713
80.708,16.3
80.7145,256.6
80.7496,618.6
80.7529,18.2
80.7555,90.6
80.7659,107.5
80.769,143.7
80.7916,450.9
80.8352,258.7
80.8526,396.8
80.9476,44245.4
80.9951,18.5
80.998,94.4
81.0055,285.4
81.0132,30.1
81.0472,69.7
81.0539,30.2
81.059,16.4
81.0697,1007.5
81.0856,113.8
81.1191,548.4
81.1254,149.7
81.1283,119.6
81.1417,18
81.1432,1141.4
81.1445,1120.1
81.146,598.9
81.1469,147.6
81.1478,1099
81.1496,117.1
81.1509,83.5
81.1844,289.5
81.1879,16.1
81.1895,148.4
81.2327,423.1
81.2382,301.5
81.2515,128.5
81.2604,129.1
81.2837,486.2
81.2966,179.9
81.3476,678.7
81.378,268
81.3812,144.6
81.4173,142.1
81.4396,226.1
81.4719,109.8
81.4869,295.7
81.5036,17
81.5591,682.1
81.5859,450.4
81.589,432
81.5948,413.2
81.5997,28.8
81.638,427.8
81.6419,125.6
81.6571,477.7
81.6814,103.8
81.7184,98.8
81.7247,166.1
81.7428,474.1
81.7479,99.7
81.7891,219.7
81.7909,592.8
81.8046,139.5
81.8679,97.3
81.8691,19.9
81.8706,146.7
81.8786,23.8
81.9006,218.7
81.9111,71.2
81.9172,109.6
81.9193,306.2
81.928,120.3
81.9561,28.5
81.9569,150
81.9936,17.4
82.0083,498.5
82.0349,34.6
82.0754,126.2
82.0882,481.9
82.1062,207
82.1156,650.5
82.1229,308
82.1278,665.4
82.1316,93.3
82.1852,220.4
82.2302,301.6
82.2358,245.2
82.238,135.3
82.2508,17.9
82.2602,243.5
82.2742,106.6
82.277,100
82.2802,409.4
82.2921,399.3
82.2994,212.7
82.3027,143.5
82.3101,125.9
82.3277,20.5
82.331,182
82.3528,249.5
82.3615,138.1
82.377,115.6
82.4118,155.3
82.4277,528.4
82.4326,302.1
82.4556,212.5
82.4598,455.3
82.4654,27.9
82.4797,98.4
82.5327,133.4
82.6306,266.3
82.6314,100.7
82.6919,106.8
82.7203,212.1
82.7797,171.4
82.7928,95.4
82.8289,476
82.8339,32.5
82.8625,176.1
82.8775,18.4
82.8923,197.7
82.9169,250.5
82.9218,288.4
82.9303,680.8
82.9324,103.7
82.9447,11185.8
82.946,285.1
82.9507,160.7
83.0508,160.1
83.0638,253
83.0853,33
83.0943,739.9
83.0995,469.4
83.1142,441.7
83.1189,422.7
83.1261,297.8
83.129,300.2
83.1355,498.1
83.1637,255.5
83.1855,406.2
83.1872,266.7
83.2205,209.2
83.2223,88.3
83.2407,16.9
83.2534,392.2
83.2626,680.7
83.2777,91.1
83.2912,63.6
83.3081,29.2
83.3234,467.9
83.3311,85.8
83.334,469.8
83.3476,117.5
83.3572,657.7
83.3741,424
83.3756,136.4
83.4085,306
83.4374,461.3
83.4488,743.4
83.4507,222.6
83.4627,113.9
83.4778,130.1
83.4848,334.8
83.5258,362
83.5383,16.2
83.5395,295
83.552,88.7
83.567,199.3
83.5836,117
83.5904,192.6
83.6119,522.8
83.616,185.6
83.6583,333.1
83.6625,170.1
83.665,105.3
83.7199,79.5
83.7366,153.7
83.7556,620
83.7719,367.2
83.7915,449.9
83.8022,105.6
83.8079,733.5
83.8532,20.6
83.8693,139.4
83.8904,302.9
83.951,19.3
83.9555,195.2
83.9577,129.3
83.9768,284.6
83.9831,798.7
84.0085,231.3
84.0196,32.1
84.0397,118.2
84.0441,62.1
84.064,19.2
84.0805,582
84.0813,92.9
84.0827,93.6
84.0886,182.1
84.1221,144.2
84.1594,220.7
84.1846,508.6
84.2198,312.6
84.2302,260.6
84.2466,272.7
84.2501,474.2
84.257,18.3
84.2636,493.7
84.3023,28.2
84.3204,545.1
84.34,197.1
84.3412,368.9
84.3745,204
84.3813,305.9
84.3858,494.5
84.4026,115.3
84.4976,180
84.5919,279.6
84.5924,313.7
84.5975,263.2
84.6061,229.5
84.6109,298.6
84.6302,691.2
84.6338,112.5
84.636,725.6
84.6585,223.7
84.672,403.5
84.6872,105.4
84.6972,83.7
84.7015,225.5
84.7233,266.8
84.7487,639.4
84.7822,149.6
84.8524,543.7
84.8634,104.6
84.8684,721.9
84.8754,514.2
84.9083,254.9
84.9131,15.7
84.9299,159
84.9354,435.2
84.9406,90.7
84.9421,274.6
84.947,149.3
84.9522,447.3
84.9555,30
84.9595,22165.4
85.0043,132.2
85.0282,1705.8
85.0292,95.9
85.038,165.2
85.0486,20
85.0502,19.3
85.0577,159.9
85.0667,458
85.0675,108.2
85.0715,372.8
85.0862,554.8
85.125,161.4
85.126,295.8
85.1508,21.9
85.157,161.1
85.1713,118.5
85.1744,18
85.2151,68.5
85.2469,69
85.2548,512.3
85.2643,34.9
85.2731,130.2
85.2959,200.1
85.2978,254.4
85.3007,1163
85.3305,256
85.3326,517
85.3618,380.1
85.4263,281.5
85.4359,93.2
85.4811,17.9
85.5013,343.5
85.5102,233
85.5255,103.6
85.5259,111.8
85.5522,150.9
85.5806,120.1
85.5893,563.7
85.6011,99.3
85.6126,146.8
85.6322,90.1
85.6368,94.9
85.6389,17.4
85.6456,102.1
85.6526,329.9
85.6961,359.3
85.7084,117
85.7158,278.3
85.727,291.9
85.733,374.5
85.7406,744.4
85.7725,324.8
85.8201,100
85.8228,193.7
85.8236,139.6
85.8405,336.7
85.8446,479
85.8791,125
85.8858,98.2
85.8867,443.6
85.889,73
85.9109,193.3
85.9285,564.4
85.9391,133.7
85.9974,252
86.0046,423.6
86.0106,193.9
86.0129,87.3
86.0284,419.6
86.0599,45603.4
86.0926,409.1
86.0962,100510.1
86.1062,118
86.1074,143.5
86.1182,92.4
86.1411,97.1
86.1681,339.8
86.1751,16.7
86.1773,240.2
86.1801,112.9
86.1824,576.1
86.1969,470.4
86.2025,647.6
86.2314,143.9
86.2462,127.3
86.2487,547.7
86.2722,118.2
86.2726,114.8
86.2768,18.2
86.2809,16.3
86.2951,89.1
86.3549,222.5
86.3918,280.3
86.4154,412.3
86.4881,126.2
86.5216,547.7
86.5509,305.3
86.5617,20.6
86.5643,499.3
86.6089,98.5
86.6274,133.7
86.6439,98.9
86.6536,20.1
86.6655,379.3
86.6745,297.9
86.6895,122.1
86.7019,533.9
86.714,19.7
86.7182,230.9
86.7475,418.8
86.7495,680.2
86.772,154.8
86.796,445.6
86.8232,129.7
86.8433,18.1
86.8505,282.3
86.8636,119.2
86.8681,108.2
86.8996,400.3
86.9089,316.2
86.9144,156.8
86.9205,178.5
86.9343,151.4
86.9445,77.4
86.9602,101
86.9697,33.6
86.9928,838.9
87.0029,187.1
87.0083,125.7
87.0341,301
87.0519,556
87.0572,143
87.0584,451.2
87.0728,294.5
87.0933,461
87.0995,925.5
87.1209,181.4
87.1324,17.6
87.1502,694
87.1632,83.8
87.1806,301.7
87.1862,19.1
87.1882,166.9
87.2093,18.8
87.2229,224.7
87.2823,275.1
87.3504,429
87.3541,271.7
87.3801,21.1
87.3865,49.2
87.3918,116.6
87.3927,73
87.4083,18.1
87.4116,19.5
87.4128,448.1
87.4235,205.1
87.4344,124.1
87.4598,296.7
87.4651,29.5
87.4688,935.3
87.524,286.4
87.5638,242.2
87.5981,132
87.6077,300.2
87.6209,200.1
87.6606,430
87.6655,156.9
87.671,115.8
87.6808,254.4
87.6937,91.5
87.7036,479.8
87.7063,194
87.7457,20.2
87.7683,324.3
87.776,483.1
87.7881,254
87.7937,121.7
87.8067,808.8
87.8254,611.9
87.8723,426.8
87.8809,302.8
87.8854,483.8
87.8882,146.5
87.9193,252
87.9816,31.8
88.0166,494
88.0237,286.6
88.0391,10935.3
88.0488,155.8
88.0621,81.7
88.0913,369.1
88.0923,293.9
88.1275,17.3
88.1491,486.7
88.1546,329.7
88.1736,724.2
88.202,653
88.2185,333.1
88.2429,448.6
88.2452,151.6
88.2766,440.9
88.288,33.4
88.3187,276.9
88.3256,159.6
88.3437,313.1
88.3618,439.2
88.3663,99.2
88.3968,16.8
88.4053,281.9
88.4395,118.7
88.4918,20.6
88.5056,16.3
88.5455,165.2
88.5465,468.8
88.5489,19
88.551,806.4
88.5571,111.5
88.5908,669.8
88.6345,102
88.6477,371.3
88.6524,18.7
88.6664,430
88.6842,301.4
88.6986,156.1
88.7244,132.2
88.7426,20.8
88.7563,79.4
88.7852,119.8
88.7946,124.8
88.8045,182.9
88.8059,20
88.8399,36.2
88.8766,111.4
88.8779,238
88.9014,525.5
88.9107,97.1
88.9204,104.3
88.9314,441.7
88.9317,309.2
88.9337,305.5
88.9706,145.8
88.9909,71.9
89.0057,17.4
89.0114,135.2
89.0582,499
89.0595,29.9
89.0681,18.6
89.0772,210.9
89.1031,142.8
89.1495,417.8
89.1591,20.1
89.1631,167.2
89.1917,696
89.2312,34.2
89.2384,109.6
89.2427,473.6
89.2674,469.3
89.2773,205
89.2899,251.8
89.3035,276.3
89.3092,106.7
89.3131,622.9
89.3136,515.9
89.3297,222.1
89.3447,797.3
89.3596,209.9
89.3811,87.3
89.3991,18.4
89.4066,20.3
89.4088,284.8
89.4207,389
89.4544,330
89.4847,367.8
89.5587,91.2
89.5643,421.1
89.5839,19.3
89.5952,169.2
89.6141,104.8
89.6687,580.3
89.6739,157.5
89.683,33.3
89.7396,107
89.7439,101.3
89.7486,198.8
89.8068,452.8
89.8739,437.6
89.8922,110.8
89.9303,20.1
89.9675,137.3
89.9695,533.5
89.9747,197.4
89.9921,268.3
90.0771,233.8
90.1246,253.8
90.1321,154.6
90.1657,288.7
90.1763,18
90.202,197.1
90.2333,112
90.235,129.8
90.2358,198.9
90.2455,313.2
90.2589,210.8
90.287,516.8
90.3103,148.1
90.3403,440.1
90.3444,303.9
90.4401,137.1
90.4596,99.4
90.4606,702.7
90.4654,18.5
90.4782,32.4
90.5026,322.2
90.5062,182
90.5228,297.1
90.5438,162.3
90.5488,196.1
90.5544,203.9
90.5865,368.8
90.6065,215.3
90.6384,533.9
90.6469,106.8
90.6889,621.7
90.709,417.2
90.7146,17.5
90.7392,550.8
90.7451,252.3
90.7733,216.6
90.7762,376.2
90.7861,137.5
90.7942,620.4
90.7985,148.5
90.8099,82.2
90.853,101.3
90.8594,79.3
90.8803,17.7
90.8821,16.2
90.9005,477.4
90.9053,22.2
90.9207,103.5
90.9302,17.6
90.9475,117.6
90.9765,9833.3
91.016,156.2
91.0322,17.1
91.0368,16.9
91.0541,1638
91.0859,18.3
91.0929,451
91.1075,195.7
91.1175,504.7
91.1185,373.4
91.1205,208.7
91.1603,271
91.1915,117.8
91.1964,17.2
91.2143,452.4
91.2162,455.7
91.2301,482.3
91.2437,153.4
91.2597,18.4
91.2723,690.8
91.2897,183
91.3022,138.1
91.3388,478.1
91.3499,95.4
91.363,559.4
91.3665,504.7
91.4875,285.3
91.4907,19.2
91.4947,508.9
91.5243,119.2
91.5396,726.7
91.6076,141.6
91.6321,471.2
91.6695,442.2
91.6714,220.2
91.6724,77.5
91.6987,30.5
91.7152,146
91.7181,133.9
91.7528,135.5
91.7837,37.4
91.7934,171
91.8005,376.7
91.803,250.7
91.8103,112.4
91.8265,375.4
91.8356,151.1
91.8578,168.5
91.8694,78.1
91.927,388.6
91.9347,251
91.9418,227.3
92.0017,619.1
92.0389,153.8
92.0471,16.1
92.0493,44.2
92.1018,116.6
92.1263,478
92.1889,115.1
92.1905,335.4
92.1963,122.6
92.2112,443.4
92.2451,90.1
92.2569,30.5
92.2619,17.3
92.2955,472.9
92.3047,281.7
92.4065,163.2
92.4356,580.4
92.4431,481.4
92.4449,18.3
92.4509,407.8
92.4524,295.3
92.4546,30.1
92.4587,122.3
92.4677,81.4
92.4738,401.8
92.482,153
92.4924,519.1
92.5285,21.3
92.5428,18
92.5834,459.7
92.5843,403.5
92.6343,21.1
92.6428,393.6
92.6565,757.6
92.6645,190.8
92.6714,106.1
92.7217,103.2
92.7423,103.1
92.8472,245.9
92.8497,642.8
92.8631,429.1
92.9012,19.7
92.9379,132.4
92.9474,275.9
92.9517,110.1
92.968,463.3
92.9713,209.4
92.974,94.9
92.995,299.9
92.9992,20.6
93.0125,582.5
93.0494,161.2
93.0543,297.5
93.0573,23.6
93.069,95.6
93.0697,22
93.0912,309.5
93.1021,391.5
93.1047,383.4
93.1606,169.3
93.1956,91.6
93.1971,112.8
93.2732,123.6
93.2757,280.9
93.2819,436.7
93.2885,651.9
93.2917,329.9
93.3038,81.4
93.3082,17.1
93.3383,396.7
93.3397,235.9
93.3557,206.4
93.3572,333.3
93.3656,101.5
93.4049,413.1
93.4155,439.5
93.4197,91.5
93.4239,108.5
93.4921,667.5
93.4986,133.6
93.507,23.3
93.5206,432.3
93.524,97.8
93.5259,366
93.5331,229.7
93.587,393.9
93.5948,200.5
93.6086,707.9
93.6207,410.4
93.6256,904
93.6274,524.7
93.6416,158
93.6648,185.2
93.6954,222.7
93.7497,17.4
93.7521,503.6
93.7578,477
93.7657,15.8
93.766,26.2
93.7663,15.8
93.7815,541.7
93.8383,98.8
93.8385,145.8
93.8388,90.9
93.84,66.8
93.8869,708
93.8892,463.2
93.8902,473.9
93.9011,17.6
93.9062,15.9
93.9256,218.9
93.9371,130.2
93.9414,182.8
93.9506,222.8
94.0252,19
94.0277,109.4
94.038,202.5
94.0412,56250.4
94.0422,47.6
94.082,456
94.1093,364.9
94.1138,113.5
94.1558,19.1
94.1713,161.6
94.2447,123.6
94.2563,689.2
94.3176,26.7
94.3442,89.8
94.3744,275.7
94.3968,321.4
94.4382,199.1
94.4532,17.9
94.4553,218.7
94.4628,92.8
94.4813,191
94.4823,260.7
94.5015,126.5
94.5074,113.2
94.5516,154.5
94.5842,93.1
94.5973,463.8
94.5994,228
94.6165,249.9
94.6273,187.9
94.6348,106.9
94.6934,128.6
94.6987,142.7
94.7075,76.6
94.7363,239.9
94.7591,284
94.7713,133.6
94.7737,251.2
94.819,123
94.8489,512
94.8548,566.2
94.8577,19.4
94.8642,85.4
94.8782,17.7
94.8815,96.5
94.8977,133.9
94.9066,19.2
94.9931,106.6
94.9963,101
95.0086,28.6
95.0141,339.4
95.0194,20.7
95.0246,258.6
95.0356,66.5
95.0401,440.8
95.041,467.2
95.0446,1316.7
95.049,429137.2
95.0516,36
95.0531,26.2
95.0623,19
95.0704,297.2
95.0854,640.1
95.0867,521.5
95.0893,23.3
95.0986,227
95.1114,198.8
95.1205,122.8
95.2086,209.7
95.2522,142.6
95.2616,193.5
95.2873,102.9
95.3612,337.2
95.3732,804.6
95.3769,21.8
95.4026,145.2
95.4117,496.2
95.4304,103.4
95.4421,78.8
95.4615,523.1
95.4937,171.3
95.5025,257.9
95.5072,424.8
95.5447,98.7
95.5511,18.7
95.5564,19.4
95.5723,99.2
95.5744,115.3
95.632,110.6
95.6477,287.6
95.6856,174.4
95.7014,18.4
95.718,107.1
95.7428,15.8
95.7537,158.8
95.7693,450.6
95.7883,233.5
95.8095,569.9
95.8422,175.1
95.8575,300.3
95.8918,36.2
95.9313,23.9
95.9457,133.4
95.9731,101.2
96.009,31
96.0133,725.2
96.0161,142.3
96.0523,20271.8
96.0977,90.1
96.1093,81.5
96.1302,758.3
96.1539,584.1
96.1559,297
96.175,21.3
96.1973,449.5
96.2065,74.2
96.2289,86.1
96.2444,412.6
96.2619,20.5
96.2644,113.3
96.2812,17.7
96.2955,19.2
96.3201,29.8
96.3462,316.2
96.3581,744.4
96.3936,561.9
96.4364,219.2
96.4431,641.5
96.4537,163.9
96.4765,580.4
96.493,20.4
96.5296,472.3
96.5647,521.1
96.5766,553.7
96.6061,324.5
96.6195,344
96.6477,442.7
96.6532,170.8
96.6786,99.6
96.6858,28.4
96.708,311
96.7185,723.3
96.7511,294.7
96.8014,17
96.8249,225.4
96.8353,198.8
96.8713,439.4
96.8933,120.3
96.9024,378
96.9165,233.8
96.9198,114.8
96.9216,145122.6
96.9228,303.6
96.9571,700.2
96.9661,139.3
96.981,247.5
96.9949,497.9
97.0075,233.1
97.0431,793.3
97.0446,32.8
97.0533,61.9
97.0917,423.6
97.093,33.6
97.1009,125.5
97.1359,30.4
97.1673,615.1
97.17,148.1
97.183,319.2
97.1862,492.7
97.2142,20.3
97.2228,24.8
97.2378,268.1
97.2701,140.9
97.2736,18.9
97.3055,265.8
97.3093,417
97.3629,491.1
97.3928,688.9
97.4027,189.8
97.4207,459.4
97.4502,108.7
97.4774,181.2
97.4817,18
97.5722,98.6
97.5836,205.1
97.585,126.8
97.613,116.9
97.6257,448.9
97.6835,277.7
97.6946,176.9
97.7094,132.7
97.7823,250
97.7871,333
97.797,478
97.8102,751.1
97.8126,35.2
97.8197,155.4
97.8289,247.5
97.8327,114
97.8532,518.7
97.8547,207.2
97.8671,18.8
97.8687,162.8
97.8741,193.3
97.8943,311.7
97.9586,23.1
97.9677,185.8
97.9686,128.5
97.9754,475.9
97.9887,93.2
98.0027,514.7
98.0252,123.6
98.0361,149.1
98.0456,78.2
98.048,393.6
98.0519,839.6
98.0995,721.7
98.1082,364.2
98.1157,134.1
98.1302,372.6
98.1318,112.3
98.1351,249.9
98.2231,470.2
98.2301,155.2
98.2365,270.8
98.2836,292.8
98.2939,17.2
98.2985,133
98.3103,116.1
98.3151,400.2
98.3194,499.4
98.3769,99.8
98.3833,128.1
98.3948,123.3
98.3954,103.5
98.4028,316.1
98.4208,112.3
98.4266,95.9
98.4332,213
98.4398,427.4
98.4424,467.2
98.4485,330.1
98.4497,458.3
98.5099,157.4
98.5114,192.9
98.528,18.9
98.5349,138.4
98.5367,361.3
98.5375,343.4
98.5801,488.5
98.5991,168
98.6286,264.3
98.6545,92.7
98.6762,160.6
98.69,220.3
98.7087,488.1
98.7245,311
98.8157,442.3
98.8183,495.6
98.8243,120.8
98.8945,33.3
98.9125,369.2
98.9187,42893.3
98.9198,5628
98.937,427.2
98.9614,445.2
98.9752,28186.9
98.984,116.6
98.9884,227.5
99.0061,21
99.0074,237.7
99.0386,390.9
99.0622,227
99.0634,157.3
99.1739,16.6
99.1773,318.1
99.1789,74.6
99.1942,184.3
99.2335,158.5
99.2761,120.8
99.289,313.5
99.3164,17.8
99.3585,119.9
99.3604,229.9
99.387,177.7
99.3992,146.9
99.4047,313.7
99.4086,349.3
99.4169,37.4
99.4191,17.5
99.4663,568.8
99.4797,119.7
99.494,134.5
99.5207,16.4
99.5222,113.9
99.5899,277
99.6199,104.5
99.6258,101.6
99.6755,674.8
99.684,255
99.6891,17.7
99.7061,18.2
99.72,146.6
99.7228,79
99.7344,478.2
99.7629,246.9
99.7861,17.9
99.7903,440.4
99.8601,297.2
99.8629,97.5
99.8928,456.1
99.8963,34.8
99.8999,283
99.9563,117.7
99.9745,163.1
100.0001,670.2
100.0159,83
100.0191,459.2
100.0758,261.4
100.0951,19.5
100.0968,486.3
100.1187,235
100.2156,127.4
100.2198,583.4
100.2735,337.2
100.278,300.3
100.2967,111.8
100.3137,105.6
100.3181,517.3
100.3476,187.3
100.3498,571.8
100.3949,443.4
100.4063,161.6
100.4109,563.7
100.4633,445.1
100.4919,703.3
100.5206,322
100.5377,18.7
100.553,808.7
100.5651,311.2
100.6446,310.8
100.6462,33.3
100.6482,125
100.6573,122.7
100.6734,20.9
100.6914,535.9
100.6997,95.4
100.7148,121
100.7776,88.4
100.7824,238.6
100.8515,466.6
100.8534,142.9
100.8753,130.2
100.8837,94.1
100.8917,434.4
100.9169,476.8
100.9226,215.2
100.9551,18
100.975,114.4
100.9862,459.8
100.9869,529.7
101.0178,289
101.0401,18.9
101.047,3071.2
101.0538,456.9
101.0708,1695.7
101.0728,214.1
101.0796,418.1
101.0842,161.1
101.1091,18.3
101.1427,487.4
101.1553,204.6
101.1641,101.5
101.2067,19.1
101.2517,286
101.2572,91.4
101.2708,87.1
101.2859,218.4
101.33,114.9
101.3457,114.1
101.3475,239.7
101.3529,406.3
101.3636,532.3
101.3746,451.3
101.378,282
101.3878,134.7
101.3886,297.1
101.4077,591.6
101.411,94
101.4123,136.4
101.4351,294.6
101.5233,659.8
101.5444,473.6
101.5466,355.3
101.5829,190.3
101.5932,106
101.6134,18
101.6253,19.3
101.6872,188
101.7,175.9
101.7208,18.8
101.7634,273
101.7679,178.1
101.7857,94
101.8128,208.6
101.8154,347.5
101.8173,145.9
101.8258,323.2
101.9371,217.8
101.941,172.6
101.9491,474.5
101.9766,437.3
101.9982,80.3
102.0548,6208.4
102.0644,746.3
102.077,93.2
102.1057,112.9
102.1643,388.4
102.1783,536.7
102.2094,31.6
102.2291,17.4
102.3066,17.9
102.3082,110.2
102.3445,305.6
102.3588,638.6
102.3648,568.3
102.3757,208.7
102.3826,65.3
102.4132,212.2
102.4159,105.5
102.4629,18.4
102.467,191.4
102.5335,672.8
102.6101,75.2
102.6119,140.6
102.6253,493.3
102.6289,575.8
102.6573,210
102.6586,209.5
102.6775,218.1
102.7309,17.3
102.744,240.1
102.7612,146.1
102.7663,127.6
102.79,139.7
102.8674,40.2
102.8831,158
102.8868,472.9
102.9,126.8
102.9101,234.9
102.9357,454.5
102.9568,480.4
102.9702,689.3
103.0057,18.4
103.0121,531.9
103.035,445.6
103.0439,392.6
103.0542,556.7
103.0654,216.5
103.068,638.5
103.0734,477.6
103.1214,98.1
103.1352,677.2
103.1368,690.8
103.1444,251.2
103.1965,180.4
103.2133,107
103.2484,236.7
103.2493,508.2
103.2573,217.9
103.2593,122.7
103.265,147.7
103.2684,287.4
103.3241,654.1
103.3708,211.9
103.3995,111.1
103.404,136.3
103.4146,486.3
103.4364,726.6
103.4611,108.9
103.4715,413.4
103.4875,20.3
103.4919,329.7
103.5012,102.4
103.5033,138.8
103.5104,291.3
103.517,17.5
103.5181,270.8
103.5575,131.7
103.6513,297.9
103.7405,513
103.7501,142.2
103.7613,216.7
103.776,506.3
103.7955,667.7
103.8181,19.9
103.8508,208.8
103.8963,226.6
103.9,272.4
103.9186,145.9
103.9201,105.8
103.9417,323.2
103.9436,18.5
103.9706,113.4
103.972,551
103.9905,121.6
103.9985,98.6
104.0062,31.8
104.0398,529.3
104.0718,463.3
104.0891,809.1
104.1069,409863.4
104.1406,179.7
104.1507,171.7
104.1509,169.6
104.1615,621.2
104.2084,92.3
104.2094,297.6
104.2165,449.9
104.2181,18
104.2634,228.6
104.2672,265.8
104.2774,401.7
104.2917,296.9
104.3336,418.4
104.3412,247.2
104.3571,309
104.3689,18.6
104.429,475.7
104.4744,142.5
104.4755,140.2
104.4816,300.9
104.4888,70.1
104.5355,438.1
104.5405,88.9
104.5486,551.1
104.5684,324.6
104.6168,212.2
104.6239,17.1
104.7227,148
104.738,217.4
104.7587,175.3
104.7819,21.6
104.7957,21.6
104.7974,170.7
104.8222,99.6
104.8269,151.7
104.8334,17.6
104.8799,561.7
104.8911,315.3
104.9632,203.3
104.9718,327.4
104.9922,5725
104.9974,445.3
104.9998,229.4
105.0181,183.8
105.0411,19.1
105.0446,42470.4
105.0554,94.1
105.0671,681.4
105.0698,24.3
105.1043,499.5
105.1102,14894.4
105.1339,125.6
105.188,18.4
105.246,242.4
105.2667,115.9
105.2958,104.4
105.3254,23.8
105.3556,145.4
105.375,88.6
105.3868,339.7
105.3904,348.2
105.4183,549.7
105.4548,18.5
105.4911,32.6
105.5302,398.4
105.5955,550.5
105.6113,18.3
105.6211,18.9
105.6305,17.9
105.6353,17.8
105.7384,19.2
105.7637,254.6
105.8454,395.6
105.8962,354.7
105.9569,84.1
105.9937,397.8
106.0035,68.7
106.0094,460.5
106.048,1061.8
106.0523,594
106.065,222.3
106.1007,125.9
106.1011,135.2
106.1296,98.3
106.1622,123
106.2176,307.5
106.2247,346.2
106.2675,121
106.3261,129.4
106.3302,15.5
106.3472,467.1
106.3661,130.8
106.4029,91.4
106.4039,256.2
106.4151,18.6
106.4161,263.6
106.4533,203
106.5316,108.8
106.5754,563.1
106.5861,328.9
106.5948,18.2
106.6387,139.6
106.6878,484.9
106.6925,226.1
106.7077,150.9
106.7351,236.6
106.7588,118.5
106.7673,499.1
106.7711,235.2
106.8024,170
106.82,98.7
106.8849,323.4
106.8976,457.4
106.9406,635.6
106.9464,556.2
106.9505,5754.5
106.9566,112.9
106.9655,220.4
106.978,521.8
106.9918,60.1
107.0221,88.6
107.0283,92.7
107.0327,19.5
107.044,178.3
107.0468,151.7
107.049,657.1
107.0714,505.7
107.0854,44.8
107.0883,228.4
107.1024,138.1
107.1165,660.5
107.1454,475.2
107.1732,137.7
107.1812,169.2
107.1978,17.3
107.2006,428.9
107.2076,247.3
107.2149,866.3
107.2229,818.3
107.2277,115.9
107.2329,197.1
107.2784,29.6
107.3282,427.5
107.3453,171.9
107.3941,464.9
107.4856,147.6
107.5409,16.9
107.5812,248.5
107.5823,328.1
107.6198,759.7
107.6225,226.6
107.6392,120
107.6463,309.8
107.6494,222.9
107.6766,19.2
107.7695,520.3
107.7831,19.3
107.8004,123.3
107.8549,489.5
107.8626,189.5
107.8846,405
107.9026,130.9
107.9399,20.3
107.9608,454
107.9654,90
107.9906,147.8
107.9943,109
108.0036,597.7
108.0409,101.9
108.0524,30
108.0638,455.6
108.0719,426.3
108.0749,90.5
108.0877,110.8
108.0899,15.9
108.0944,478.9
108.0982,79.8
108.1058,299.8
108.1447,23.1
108.2895,102.6
108.3175,21.5
108.3459,288.2
108.4309,17.7
108.4341,311.3
108.4397,104.6
108.4699,256.7
108.5175,257.4
108.5218,123.7
108.5339,155.5
108.5533,182
108.6049,415.8
108.6078,323.3
108.6466,138.3
108.656,320.8
108.6576,20.3
108.6839,508.3
108.7058,141.9
108.72,308.9
108.7341,520.7
108.8197,18.5
108.942,283
108.9543,421.5
108.9745,120.3
109.0084,132.2
109.0285,210.9
109.032,263.2
109.0352,531.3
109.0486,18.8
109.0609,111.1
109.063,34.6
109.0647,61633.8
109.0724,130.9
109.0759,104.9
109.0825,479.9
109.0841,536.1
109.0903,172.1
109.0914,152.1
109.101,52.1
109.1786,321.3
109.1805,238.3
109.2036,476.8
109.2225,81.3
109.256,165.3
109.2606,159.8
109.2794,177.8
109.303,33.5
109.3109,19.5
109.3276,744.2
109.3494,16.9
109.3528,131.3
109.3692,84.7
109.3805,362.4
109.4154,101.9
109.4523,419
109.4913,389
109.498,172.8
109.5375,96.3
109.5718,17.4
109.5849,166.7
109.6098,916.2
109.6374,97.5
109.6463,308.2
109.6644,145.8
109.6754,317.3
109.6801,480.7
109.7101,637.6
109.7449,120.5
109.7739,137.9
109.7903,66
109.8126,671.4
109.9036,476.3
109.9081,337.3
109.9911,149.4
109.9959,641.8
109.9999,651.7
110.0223,392.9
110.0369,97.7
110.0383,536.2
110.048,27.3
110.0494,152.9
110.068,2016.2
110.0711,510.6
110.0965,31.1
110.1084,128.2
110.1447,479.6
110.1469,19.2
110.1494,155.5
110.159,535.8
110.1627,492
110.2291,493.3
110.2553,486.5
110.2622,121.1
110.2716,95.7
110.2734,204.5
110.2744,396.1
110.2808,122.1
110.2873,19.6
110.3015,499.4
110.3472,82.4
110.3535,467.2
110.3724,238
110.3951,174.9
110.4346,477.8
110.5271,288.5
110.5572,78.4
110.5703,439.2
110.576,526.1
110.6049,546.9
110.6292,410.2
110.6398,417.7
110.6811,103.3
110.7235,291.2
110.8094,111.1
110.8479,390.9
110.9481,469.7
110.9751,798.4
110.9915,83.4
111.0134,322.9
111.0232,298.8
111.0416,321.3
111.0439,234.8
111.0604,107.8
111.0916,20.6
111.1106,20.2
111.1177,114.8
111.1943,17.8
111.1953,17.2
111.2279,492.1
111.2499,323.3
111.3293,202.8
111.3396,280.8
111.3512,113.5
111.3618,86.2
111.4534,468.2
111.5396,212
111.6231,20.2
111.6515,272.4
111.6636,395.1
111.7133,117.8
111.7279,316
111.7301,282.6
111.7867,439.4
111.8582,92.6
111.9413,110.3
111.942,405.9
111.9581,19.6
112.0259,140.8
112.0272,22.2
112.0357,136.3
112.0596,176.3
112.0631,281.3
112.0815,18.8
112.0995,22.9
112.101,590
112.133,669.1
112.1599,523.5
112.1633,424.1
112.1998,232.8
112.2644,31.9
112.3142,92.9
112.3194,165
112.3318,221.2
112.3805,154.7
112.4081,17.6
112.5362,152.4
112.5543,116.2
112.5791,444.1
112.5902,203.9
112.5999,247.4
112.616,453.5
112.6357,156.5
112.7272,16.6
112.741,215.5
112.7899,23.8
112.8956,423182.7
112.9521,534.1
112.9594,593.3
113.0036,85.9
113.0069,473
113.0179,113.3
113.0197,178.5
113.0635,386.8
113.069,527.3
113.089,238.2
113.0958,94
113.1026,287.1
113.1683,102.2
113.1837,129
113.2098,96.7
113.2351,147.3
113.2636,424.1
113.2807,642
113.2982,93
113.3037,453.3
113.3622,109.4
113.3874,33
113.39,298.4
113.3976,139.8
113.4303,891
113.5784,115.2
113.5849,122.9
113.5864,19.2
113.6049,129.8
113.6523,152.9
113.658,20.5
113.6635,620.4
113.6958,298.2
113.7265,538.4
113.7541,383.6
113.7708,19.5
113.7967,704.8
113.8229,18.5
113.8483,217.9
113.8507,17.1
113.8656,228.8
113.8733,675.9
113.9045,181.5
113.909,20.2
113.9327,250.3
113.9619,379.5
114.0169,130.8
114.0549,64391.1
114.0661,244.2
114.1074,299.2
114.1407,195.2
114.1681,111.7
114.1797,152.2
114.1844,16.1
114.1871,156.2
114.1912,17.9
114.2089,143.3
114.2336,162.3
114.2404,237.1
114.2511,169.8
114.3194,18.1
114.3207,18.4
114.3389,155.2
114.4233,92.5
114.4865,219.2
114.4952,145.5
114.5458,94.5
114.5647,121.1
114.5928,429.5
114.6021,17.3
114.6266,320.7
114.6554,655.2
114.665,788.7
114.6849,20.2
114.6864,150.7
114.6978,312.4
114.7312,188.9
114.7454,285.9
114.7635,296.5
114.7864,19.2
114.8573,118.8
114.8669,294.1
114.875,743.2
114.8927,136960
114.8959,181.2
114.898,297.8
114.905,761.8
114.9297,388.3
114.9482,472.1
115.0583,1626.2
115.0905,113
115.0937,498.1
115.1803,106.1
115.185,472.1
115.1961,312.4
115.209,197.2
115.2895,321.6
115.3754,213.3
115.4,19.2
115.4066,31.4
115.4289,140.5
115.5456,172.4
115.55,129.5
115.5507,136.3
115.5869,470.2
115.5888,122.7
115.6316,116.1
115.6446,19.5
115.749,220.6
115.7646,111.8
115.7758,330.5
115.7859,87.3
115.7941,518.3
115.8713,127.1
115.9098,296
115.9206,118.8
115.9793,17.8
116.0706,2669.9
116.0752,161.3
116.1158,319.9
116.1616,100
116.1858,215.4
116.2316,150.5
116.2357,180.4
116.24,625.1
116.2643,562.9
116.2796,103
116.2972,105.4
116.3168,498.1
116.3187,381.5
116.3232,18.1
116.3333,477.9
116.3801,108.6
116.3852,210
116.4302,498.4
116.4671,15.7
116.4704,201.9
116.4785,241.4
116.5028,134.8
116.5338,317.3
116.5371,391
116.5705,98
116.5718,18.5
116.5995,488.5
116.6502,107.4
116.729,528.1
116.7427,180.4
116.7884,259.8
116.8061,163.1
116.8485,170.3
116.8787,522.7
116.8908,15602.1
116.9569,680.3
116.9858,2322.6
116.9883,33.6
117.0108,273.3
117.0698,20.9
117.0846,113.7
117.1028,214
117.1046,528.3
117.1164,629.9
117.1234,171.9
117.1256,284.5
117.1286,200.6
117.1486,344.6
117.1968,66.5
117.2066,233.7
117.2327,98.7
117.2347,257.1
117.238,364.7
117.2642,223.4
117.2703,417.2
117.2814,851
117.2922,250.3
117.3442,447
117.3459,742.7
117.4173,19.5
117.4608,223.1
117.5274,206.3
117.5296,100.3
117.5615,68.5
117.633,16.7
117.6347,160.6
117.6749,387.9
117.688,333.8
117.7285,146.3
117.9356,16.1
117.9487,404.4
117.951,16.3
118.031,225
118.0347,114.1
118.1175,488.7
118.1332,206.3
118.1927,214.1
118.1943,265.3
118.2354,286.1
118.2427,381
118.2848,29.7
118.2912,619.5
118.2979,163.7
118.3564,250.6
118.3631,108.9
118.4585,488.5
118.4973,124.8
118.5197,765
118.5322,145.2
118.5529,685.2
118.6106,164.3
118.6564,113.7
118.692,120.9
118.7344,222.6
118.7576,290.2
118.7645,18.6
118.7783,205.5
118.8197,271.4
118.8459,733.8
118.8748,143.1
118.881,502.6
118.9128,106.1
118.9789,20
118.9919,19.9
119.0207,114.9
119.0272,17.8
119.0394,156.8
119.0438,19.8
119.0647,275.2
119.1172,124.6
119.2538,99
119.2826,19.7
119.3246,163.5
119.3367,82.5
119.361,245
119.3665,276.6
119.3781,97.4
119.4493,531.6
119.4586,640.1
119.4884,447.2
119.5133,99.8
119.5221,481
119.5339,23.2
119.57,493
119.583,148.2
119.726,489.9
119.7455,133.3
119.75,165.4
119.7664,236.2
119.8167,272.1
119.8196,111.5
119.854,590.4
119.8744,311.1
119.8933,172.6
119.9121,111
119.9227,209.5
119.9299,149.9
119.9838,904.9
119.9873,18
120.0032,3170.3
120.0089,510.7
120.0277,20.4
120.0433,542.5
120.048,320.8
120.0543,17.4
120.0807,13988
120.1144,17.8
120.1294,412
120.1548,194
120.1617,273.1
120.1763,418
120.1837,451.8
120.1942,251
120.1968,179.9
120.2095,387.5
120.2273,440.2
120.2299,84.9
120.2467,99.5
120.2622,130.6
120.2642,515.5
120.3238,373.6
120.3722,547
120.4138,120.8
120.4944,497.8
120.5064,233.2
120.5187,365.9
120.5264,309.8
120.6242,400.9
120.703,469.4
120.7087,18.8
120.7219,236.1
120.736,453.3
120.7398,236.2
120.8475,415.2
120.8761,481.2
120.9324,131.5
120.9544,228.2
120.9662,1489.3
120.9683,97.4
120.9808,112.3
120.9969,303.3
121.0075,354
121.0283,401.7
121.0322,224.4
121.0396,41.4
121.0648,107.7
121.0691,17.8
121.084,42.7
121.1011,20.6
121.1028,17.6
121.1403,278
121.2193,85.6
121.2207,91.2
121.2224,241
121.2647,393.2
121.2805,110.1
121.2977,141.4
121.3221,95.2
121.3356,862.2
121.3427,429.2
121.388,212.9
121.4281,16.8
121.4712,253.7
121.4795,18.3
121.4844,18.4
121.4855,278.4
121.5028,315.4
121.5093,127.7
121.5175,583.9
121.529,349.7
121.5626,18.2
121.5727,706.8
121.5905,508.2
121.5918,116
121.6142,75.2
121.6171,293.3
121.623,480.4
121.6274,408.3
121.6376,297.8
121.6574,285
121.6871,355.1
121.7135,286.3
121.7152,289
121.7457,31.6
121.7564,320.6
121.7684,337.4
121.8007,115.7
121.8575,229.8
121.9677,121
122.0018,100.9
122.0063,314.7
122.0313,23.3
122.1241,459.7
122.1514,740.3
122.1927,331.4
122.2063,145.6
122.2256,713.4
122.2307,289.3
122.2376,301.2
122.2927,110.4
122.4056,344.7
122.4372,626.4
122.4402,18.2
122.4456,113.5
122.4475,111.1
122.4487,314.3
122.4513,515.7
122.4524,238.5
122.4688,100.9
122.5111,126.9
122.5626,34.1
122.5863,103.4
122.5933,129.3
122.62,243.1
122.6485,102.1
122.707,127.7
122.7098,230
122.7123,323
122.7609,152.4
122.7672,100.5
122.7991,124.1
122.8042,238
122.8498,141.3
122.8518,127.7
122.8618,117.2
122.872,149
122.9109,579
122.9245,22203.1
122.9334,416.4
122.9802,381.7
123.031,30.6
123.0456,92.5
123.0712,147.6
123.0805,22.3
123.0864,118.1
123.0913,342.3
123.1166,21
123.1194,292.2
123.1233,152.8
123.1338,684.8
123.1462,177.2
123.1912,20
123.2417,95.8
123.2498,216.7
123.2697,17.5
123.2831,150.9
123.2888,117.3
123.3038,285.8
123.3669,406.5
123.4162,422
123.4602,19.2
123.4645,90.3
123.4728,374.9
123.4777,120.5
123.6114,130
123.6508,89.8
123.6515,89
123.6994,625.1
123.7112,236.7
123.7449,115.4
123.7572,412.4
123.7778,18.9
123.7878,530.5
123.7968,135.5
123.8022,92.7
123.834,95.2
123.8428,289.3
123.8752,128.3
123.8835,534.8
123.9034,227.8
123.928,451.1
123.9301,130.5
123.9567,17.3
123.9741,145.4
123.9854,129.9
124.0253,106.2
124.0371,199.3
124.0753,19.1
124.1647,288
124.1666,289.8
124.168,191.4
124.1753,150.3
124.1931,113.6
124.2118,111.4
124.2435,294
124.253,22.8
124.2849,311.8
124.3215,162.2
124.373,227.1
124.3778,99.4
124.4048,595.9
124.4099,362.4
124.4338,117
124.4408,93.8
124.4438,311.3
124.4643,124.7
124.47,343.9
124.4854,411.3
124.5294,416.8
124.6801,18.5
124.6819,295.2
124.7463,118.4
124.7952,137.7
124.801,445.6
124.8046,142.4
124.8328,16.7
124.8474,430.4
124.9226,1476.6
124.9321,223.9
124.9388,398.8
124.9851,171.1
124.9998,4863.9
125.0056,383.5
125.0096,178.3
125.0388,208.2
125.048,492
125.0513,251.6
125.0574,515.6
125.0596,76.3
125.0729,164.1
125.1257,430.1
125.1299,285.7
125.1926,98.5
125.1969,124.2
125.2068,441.4
125.2219,276
125.2344,134.9
125.2728,309.3
125.2768,132.9
125.3011,161.1
125.3374,18.8
125.3636,263.1
125.377,31.2
125.3957,16.1
125.415,133.7
125.4637,17.6
125.468,404.2
125.6019,309
125.6362,407.9
125.6448,110.1
125.6585,135.4
125.714,280
125.7679,17.1
125.7842,248.2
125.8806,86.4
125.9096,111.2
125.9807,840.2
125.9832,719.2
125.9916,21.5
125.9991,176
126.0174,17.7
126.0377,285.1
126.0521,220.5
126.0586,149.7
126.0691,139.7
126.1133,447.2
126.1651,501.3
126.2254,109.2
126.2956,230.8
126.3269,750.9
126.3362,17.3
126.3589,18.1
126.4245,115.1
126.4584,113.4
126.596,222.8
126.6442,486.2
126.6712,179.3
126.6894,203.3
126.7139,18.4
126.7656,762.7
126.7717,307.9
126.7882,118.6
126.7954,230.6
126.8133,76.4
126.8277,413
126.9181,18
126.9427,87.6
126.9546,204.4
126.9786,382.4
126.9813,515.4
126.9965,109.4
126.9995,301.2
127.0477,89.2
127.0754,298.1
127.097,280.5
127.104,208.5
127.1285,19.7
127.1469,104.3
127.1606,195.1
127.1649,234.7
127.2505,259
127.2902,215.5
127.3209,110.5
127.338,99.5
127.3408,502.3
127.3449,19.1
127.4737,262.3
127.5536,459.6
127.5961,450.8
127.6195,375.8
127.7008,73.9
127.7303,282.8
127.795,348.9
127.8158,686.9
127.8257,32.7
127.8356,96.4
127.8444,20.6
127.86,194.6
127.9093,347.2
127.9134,108.1
127.9697,231.7
127.9847,282.9
128.0036,17.2
128.068,410.6
128.0716,166.9
128.1302,121.8
128.1377,18.1
128.2063,197
128.2136,130.6
128.2632,764.6
128.2668,19.6
128.3512,111.6
128.4915,739.5
128.5078,362.9
128.5112,93.4
128.5451,300.4
128.5559,254.5
128.5774,232.3
128.5933,288.6
128.5961,99.9
128.6016,290
128.6294,146.8
128.6398,216.8
128.7269,188
128.7424,287.6
128.7814,117.7
128.8097,88.5
128.8199,147.4
128.9256,122.1
128.9471,276.9
128.9507,147.6
128.9569,18
128.9859,1748.2
129.0032,1841
129.0088,514.2
129.0311,277.2
129.058,206.3
129.0625,416.3
129.1021,1745.3
129.1712,125.7
129.1872,448.9
129.2152,369.2
129.2237,701
129.268,666.7
129.3257,518.2
129.3427,108.1
129.3663,524
129.3689,580.6
129.4606,283.9
129.491,233.1
129.5075,370.3
129.5306,426.3
129.533,452.1
129.5424,516.3
129.6616,97.5
129.6803,669.8
129.6826,223.4
129.7623,257.2
129.774,171.2
129.835,147.4
129.8388,386.2
129.9175,709.4
129.9652,308.7
129.9928,494.1
129.9958,189.5
130.0009,899.7
130.0343,220.2
130.0403,19
130.0498,6114.7
130.1588,301.5
130.2007,380.5
130.2214,479.3
130.2348,252.5
130.2642,456
130.2716,218
130.2741,740.6
130.3446,20.2
130.3463,499.4
130.3749,148.8
130.3881,555.7
130.4016,445.9
130.4503,314.3
130.453,446.3
130.4906,163.5
130.5095,292.1
130.5243,189.1
130.5373,78.2
130.5578,280.7
130.6311,158.5
130.7573,162.2
130.8058,20
130.817,570.9
130.8256,287.4
130.8479,21.8
130.8628,19.1
130.886,155.8
130.9049,684.6
130.9391,97.3
131.0169,869.9
131.025,506.3
131.0546,130.1
131.1213,619.9
131.1378,18
131.1979,134.1
131.2632,111.1
131.3191,251
131.3308,319.1
131.3482,19.3
131.3965,291.5
131.4048,231.4
131.4421,183
131.4679,17.1
131.5293,519.2
131.5329,193.1
131.5919,115.8
131.657,17.5
131.7452,19.7
131.7826,104.4
131.8149,401.1
131.8303,376.1
131.8455,583.8
131.853,79.3
131.8564,103.1
131.8705,335.6
131.8807,97.5
131.908,35.1
131.9459,17.8
131.952,320.8
132.0032,21350.3
132.0655,108995.9
132.0767,483.8
132.098,107.5
132.1324,474.7
132.1587,353
132.2046,439.2
132.3095,122.5
132.3305,235.3
132.5247,199.2
132.5266,209.8
132.5286,414.3
132.57,229.4
132.5913,506.6
132.6496,30.7
132.6629,488.6
132.7327,32.7
132.7398,260
132.7578,195.6
132.7781,92.9
132.7803,96.6
132.7846,122.1
132.8344,206.4
132.8894,126.5
132.9027,45.5
132.9248,126.5
132.9547,228.1
132.9561,287.1
132.9583,295.9
132.9647,116.3
132.9872,2513.3
132.9996,119
133.0122,155.1
133.0689,3049.4
133.0727,445.8
133.0833,130.2
133.086,25.2
133.0971,14730.6
133.1545,302.6
133.1646,111.1
133.1858,236.1
133.2626,129.8
133.2682,556.9
133.3391,218.4
133.355,394.5
133.3694,658
133.3761,117.7
133.4117,309.3
133.5048,215.4
133.5187,299.5
133.5887,390
133.5901,90.4
133.6064,284.5
133.7562,418.9
133.7577,387.1
133.7742,106
133.7842,20.7
133.7954,20
133.8152,227.1
133.824,393.2
133.8372,131.2
133.9547,164.4
133.9738,111.1
134.0188,15679.7
134.1348,150.3
134.2653,675.8
134.3257,475
134.3353,17.6
134.3396,420.6
134.3627,463
134.3735,118.5
134.3791,238
134.3997,198.1
134.4609,290.1
134.5094,333
134.5979,165.2
134.6204,799.6
134.6261,435
134.6277,312.5
134.7049,31.1
134.7549,126.5
134.7752,102.2
134.7793,101.7
134.8499,592
134.8868,443.9
134.89,738.7
134.9629,18.1
134.9822,18
134.9883,564.9
134.9924,34.9
134.9965,92.8
135.0028,136889
135.1168,21.4
135.1268,954.3
135.2643,149.3
135.2806,335.9
135.285,368.9
135.2907,94.4
135.2934,41.1
135.4495,241.1
135.4966,105.4
135.5094,198.1
135.5661,230.7
135.5756,394.8
135.5868,252.4
135.5922,132
135.6543,69.4
135.7095,146.8
135.734,119.1
135.756,318.7
135.8921,17
135.9214,435.4
135.9317,470.9
135.941,343.7
135.977,2501.7
136.0015,489.2
136.0062,2647.6
136.0482,1496
136.0617,20.5
136.067,381.8
136.0703,136
136.0757,11907
136.122,155.8
136.1633,17.6
136.1955,121
136.2028,461.9
136.2179,304.4
136.2216,291.6
136.2419,119.2
136.2434,121.9
136.2453,317.2
136.2523,221.1
136.2733,380.5
136.3401,18.7
136.4251,602.5
136.4371,447.5
136.4627,128.5
136.4652,300.9
136.4712,709.6
136.4772,297.3
136.5537,172.9
136.5569,110.6
136.5676,22
136.5865,142.6
136.6466,20.2
136.7236,232.1
136.8153,110.3
136.8269,170
136.8557,102.5
136.8736,643.9
136.9227,18.9
136.9276,285
136.9311,1423.5
136.9693,126.3
137.0268,228.4
137.1011,82.4
137.2987,124.9
137.3257,17.8
137.3886,660.3
137.4062,270.2
137.4806,686.1
137.5322,17.7
137.5484,222.1
137.5703,30.7
137.6067,438.9
137.6453,110.1
137.7028,577.4
137.7234,805.5
137.7422,546.2
137.772,506.9
137.8276,285.1
137.8482,16.6
137.8616,488.1
137.8836,138.1
137.9258,155.6
137.9278,564.9
137.9321,260
137.9537,21.7
137.988,228
138.0192,16
138.0252,20.7
138.0398,314.9
138.0526,6214
138.0663,29.7
138.091,230.7
138.1118,280.1
138.1629,123.3
138.1733,115.4
138.1765,309.1
138.3613,117
138.3957,80.7
138.4231,123.8
138.4375,196.8
138.4631,314.4
138.5136,150.4
138.5241,18.3
138.5736,713.5
138.6151,713.8
138.6359,281.1
138.6408,252.6
138.698,300.1
138.7641,248.4
138.7874,733.6
138.8481,714.7
138.8533,417.4
138.8797,124
138.9003,251.5
138.9065,2082.3
138.9102,131.2
138.9908,563
139.0534,110.4
139.1641,505.3
139.1965,232.2
139.2194,547.3
139.3405,107.4
139.4775,393.2
139.4793,102.3
139.485,921.3
139.4854,966.3
139.5016,133.9
139.5265,769.6
139.5284,231.7
139.5822,363.6
139.5873,18.4
139.6242,395.1
139.6268,726.6
139.6283,453.4
139.633,527
139.7946,472
139.8099,29.1
139.8142,555.5
139.9069,489.7
139.9964,20.4
140.0164,1346.8
140.0265,230.6
140.0655,125.5
140.0682,3173.3
140.1841,19.7
140.1991,18.9
140.2127,273.5
140.2202,233.9
140.2312,831.1
140.2596,555.5
140.3028,110.8
140.3195,373.5
140.3451,177.9
140.4356,527.7
140.4381,509
140.5063,384
140.5433,1470.8
140.5817,137.6
140.6298,298.9
140.7282,128.8
140.7358,884.6
140.7484,21.4
140.7855,317.1
140.8286,290.1
140.8662,31.3
140.8851,91.7
140.9035,1350.9
140.9097,416.9
140.9144,244.5
141.0005,17531.4
141.0163,451.7
141.0285,276.8
141.0586,704.2
141.1023,175.6
141.1166,331.5
141.1378,506.2
141.1969,236.2
141.2643,126.6
141.2923,99.6
141.3369,75
141.4182,549.4
141.4235,172.9
141.461,105.7
141.5422,423.2
141.5458,85
141.5481,454.6
141.5543,510
141.6753,778.5
141.7016,430.4
141.7243,104.5
141.7387,115.8
141.7906,377.9
141.8405,22.6
141.8413,23.1
141.8419,18.2
141.8596,20.7
141.8619,422.1
141.8671,239.1
141.9312,421
141.946,152.7
142.0038,429.1
142.0176,86.2
142.0477,386.6
142.0738,77.1
142.0843,40.9
142.114,94.9
142.1169,172.4
142.1223,535.1
142.1391,314.9
142.1418,482.1
142.1713,117.1
142.2223,174.7
142.2742,19.4
142.3162,123.9
142.3354,271.5
142.3467,521.1
142.4083,114.8
142.4245,169.2
142.4496,19.3
142.4592,469
142.4859,107.4
142.5374,777.7
142.5621,241.9
142.6026,20.3
142.6053,163
142.6312,21.6
142.6528,468.9
142.6816,237.9
142.729,104.3
142.759,18.5
142.7713,105.7
142.7757,601.6
142.7812,92.6
142.8006,29.3
142.8049,244
142.8423,209.8
142.9081,20.2
142.9142,623
142.9417,469.4
142.9637,276.5
142.9863,145.8
142.9963,300.6
143.019,3995.1
143.0247,448.1
143.0667,68.4
143.0716,19.6
143.0735,663.9
143.0815,741.8
143.0978,757.6
143.1299,301.4
143.1398,117.6
143.1718,20.4
143.2831,222.4
143.2961,246.8
143.3236,500.4
143.3259,89.7
143.3465,74.3
143.365,30.6
143.4936,94.1
143.5075,534.7
143.5134,179.1
143.5296,120.6
143.535,267.5
143.5475,307
143.5605,475.6
143.6083,119.3
143.6355,123.5
143.6429,149.7
143.7802,18
143.7848,487.7
143.804,32.1
143.8066,436.2
143.814,202.8
143.8216,252.3
143.8281,200.2
143.864,313
143.9491,147.2
143.9695,142.7
143.976,765.1
143.9972,194.1
144.0033,542.3
144.0345,18.1
144.0501,275.5
144.0632,42
144.1108,361.9
144.1509,418
144.1553,861.1
144.1587,20.2
144.1634,616.5
144.1665,123.1
144.1842,371.1
144.2547,440
144.2999,412.2
144.308,97.4
144.371,472.7
144.4173,561.5
144.4238,459.2
144.4411,385.5
144.4427,603.4
144.5309,318
144.538,115.9
144.5601,831.1
144.5859,22.5
144.6837,182.1
144.7069,149.1
144.7462,118.4
144.7576,16.9
144.7627,182.4
144.7903,401.1
144.874,328
144.8858,20.3
144.9209,528.3
144.9575,25.3
144.9637,94.1
144.9809,4732
144.9931,408.7
145.0052,116.3
145.015,17.6
145.0299,159.2
145.0765,96.3
145.1033,114.2
145.1067,480.2
145.1524,108.4
145.1904,179.1
145.1928,117.5
145.2401,416.3
145.2806,21.9
145.2924,409.4
145.3031,151
145.3432,336.1
145.3646,30.2
145.3699,16.2
145.39,167
145.4271,22.9
145.4317,112.5
145.4908,214.7
145.5548,442.5
145.5769,113.6
145.5975,289.6
145.6121,355.4
145.6954,285.5
145.7433,149.9
145.7545,79.2
145.7722,19.7
145.7788,260
145.8121,194.4
145.8537,361.9
145.8582,20.9
145.9236,113.2
145.9545,573.5
145.959,444.5
145.9598,286.1
145.9716,103.6
145.9773,172.2
145.9787,179.6
146.0125,4206.3
146.0189,13221
146.0964,318.1
146.1001,510.6
146.125,21.5
146.1901,468.7
146.2014,22.5
146.2038,339
146.2328,88.7
146.2759,479.3
146.3228,385.3
146.3325,143.2
146.3833,150.9
146.3849,246.9
146.4182,124.1
146.4331,177.5
146.4478,120.5
146.4705,453.5
146.481,127.2
146.4928,119.5
146.5304,330.5
146.5511,19.9
146.6358,436.4
146.6547,176.5
146.7434,513.1
146.7498,123.4
146.8075,19.3
146.8447,546.3
146.8529,525.7
146.8944,373.3
146.9403,314.5
146.9818,109749.2
146.9904,115
146.9964,25.5
147.0764,42595.5
147.1128,21310.1
147.1167,104.1
147.1331,110.9
147.1631,95.1
147.2789,545.7
147.3461,226.7
147.366,255
147.3731,295.2
147.466,501.5
147.5367,214.7
147.6328,84.2
147.6837,128.7
147.7542,183.8
147.7986,327.2
147.8228,398.2
147.8275,500.9
147.8303,150.1
147.8672,657
147.9284,17.8
147.9342,377.3
147.9561,448.8
147.9873,530.2
147.9878,554.1
147.9888,347.5
148.0376,86.8
148.0722,307.6
148.0746,18.8
148.1556,333.9
148.27,20.5
148.3144,389.3
148.3161,35.8
148.3545,462.9
148.3583,22
148.3915,174
148.4023,151.3
148.5322,2435.5
148.5974,106.6
148.6025,237
148.6039,20.1
148.64,393.3
148.6426,287.1
148.6556,513.9
148.6609,17.8
148.6895,619.3
148.7382,155.2
148.8991,715.2
148.9205,308.5
148.9352,615.3
148.9612,5116.9
149.0025,58.1
149.0147,131.3
149.0185,2438.2
149.0234,4639.6
149.045,51.7
149.067,401.6
149.181,639.4
149.2924,114.4
149.342,112.6
149.4101,158.7
149.4774,268.1
149.4843,129
149.4892,481.1
149.5352,151.4
149.5447,411.4
149.567,626
149.5745,121.5
149.5902,174.6
149.6034,101.2
149.703,313.2
149.7196,127.6
149.7538,194.9
149.7625,171.7
149.7938,22.5
149.8985,506.1
149.9031,716.2
149.9477,110.2
149.9928,11455.3
150.0138,4989.7
150.0267,86.8
150.0784,459
150.1182,152.9
150.1635,313.4
150.1733,97.8
150.19,103.7
150.2018,103.2
150.2215,361
150.2222,345.9
150.2419,399.6
150.2733,135.8
150.343,509.3
150.3449,296.9
150.3848,115.2
150.5249,147.2
150.6684,532.8
150.689,167.4
150.7055,173.8
150.7165,264.3
150.7599,349.7
150.9369,413.6
150.9481,120.7
150.9606,170.5
150.9768,96467.5
150.9842,293.4
151.0479,765.8
151.0524,281.3
151.0632,111.3
151.0731,124.4
151.0816,212.4
151.1075,94.3
151.15,155.5
151.1764,192.7
151.241,115.3
151.2532,245.7
151.2926,19.7
151.2965,22.7
151.4249,331
151.5399,161.4
151.6072,174.7
151.624,304.3
151.7134,289.3
151.7642,704.2
151.854,500.5
151.8567,249
151.9148,105.8
151.9802,1593.2
151.9913,115.3
152.0003,245
152.008,183.8
152.0117,18.1
152.0221,5273.9
152.032,1061.8
152.0347,367.6
152.0632,110.8
152.0819,167.2
152.166,212.8
152.1902,627.9
152.2226,136.4
152.2521,494.6
152.3608,20.4
152.3895,29.5
152.492,159.9
152.5442,327.5
152.5456,76.3
152.5513,154.1
152.5887,349.9
152.6353,287.6
152.6448,136.7
152.6503,646.8
152.6738,635.9
152.7026,174.5
152.7151,466.9
152.7987,224
152.8049,206
152.8352,277.1
152.8616,252
152.9309,18.2
152.9486,595.1
152.975,4098.1
153.0274,129.3
153.0334,138.5
153.0577,125.5
153.1166,325.8
153.1679,610.5
153.2224,19.2
153.2322,75.1
153.2566,142.1
153.3136,17.8
153.3891,128
153.414,132.5
153.5204,520.2
153.5464,273.7
153.5596,464
153.5753,17.8
153.5941,294.7
153.6354,139.4
153.6425,17.6
153.6508,160.2
153.7751,99.9
153.8195,411.5
153.8343,473.2
153.881,268.6
153.9349,142.8
153.9527,301.1
153.9606,101.1
153.964,172.9
153.9751,477.9
154.0111,406.7
154.0266,390.3
154.0587,1125.4
154.0764,188.2
154.1055,349.2
154.1335,474.4
154.2113,706.5
154.2253,441.3
154.2318,21.4
154.3389,92.8
154.3602,120.4
154.4116,113.2
154.4173,133.1
154.4208,401.8
154.4748,102.7
154.5004,284.4
154.6876,535.1
154.7379,373.9
154.748,23.4
154.7976,691
154.8045,570.7
154.813,263.6
154.876,224.8
154.8806,439.9
154.9076,65.7
154.9135,211.3
154.9691,477.7
155.0035,89.5
155.0115,179.8
155.0135,114.5
155.0427,765
155.0494,198.8
155.054,6721.8
155.0563,550.6
155.0817,18.9
155.1043,229.7
155.1906,402.6
155.2938,124.5
155.3202,17.8
155.3552,416.8
155.3586,489.7
155.4016,336.5
155.4075,749.6
155.4562,174.9
155.6109,93.3
155.6268,110.2
155.6686,267.7
155.8464,524.7
155.854,482.8
155.868,411.1
155.908,252
155.9286,482.1
155.9565,367.6
156.0221,344.3
156.0273,275
156.0331,369.1
156.0382,217.3
156.0422,2600.7
156.0494,562.5
156.0578,165.7
156.0647,472.5
156.0768,33937.6
156.1057,233.2
156.2478,170.6
156.3088,161.8
156.4176,172
156.4239,107.2
156.4949,241.8
156.4993,17.2
156.5393,179.3
156.577,102.2
156.6615,686
156.6914,122.6
156.8297,251.4
156.8422,315.2
156.8526,412.3
156.8668,341.3
156.9051,166.4
156.907,112.3
156.9116,123.6
156.934,1644.4
156.9439,417.4
156.9485,135.6
156.9583,17.7
156.9631,103.8
156.9745,61.5
157.0392,514.5
157.0458,731.9
157.0606,494.3
157.0648,498.5
157.0772,158.7
157.0806,615.5
157.0973,346.2
157.1664,109
157.2788,108.4
157.2872,580.2
157.3561,218.4
157.3835,20.7
157.3923,483.9
157.3948,450.3
157.4032,460.6
157.4108,573.4
157.4133,107.3
157.4342,125.7
157.4645,316.4
157.4775,314.6
157.4962,553
157.5065,117.3
157.6442,462.5
157.6656,313.2
157.71,96.3
157.7336,160.6
157.7607,254.1
157.911,101.3
157.9206,173.1
157.9488,244
158.0126,903.9
158.0241,704.8
158.0271,4223.4
158.0378,309.9
158.0589,19.4
158.1098,138.8
158.1546,114.2
158.1649,205.6
158.1889,358.4
158.1939,553.4
158.2777,150.1
158.4478,671.9
158.464,165.8
158.5959,139.2
158.6108,299.4
158.6427,18.7
158.7001,123.9
158.7763,645.6
158.8211,121.9
158.8413,214.5
158.8682,288
158.8839,109.2
158.9147,119.6
158.9279,534.9
158.9642,12898
158.9965,20403.7
159.0112,24
159.0263,150.3
159.0304,171.1
159.0589,19.4
159.0744,474.2
159.0917,96.7
159.1161,156.5
159.1298,248.1
159.1365,156.8
159.3205,233.2
159.3244,162.3
159.3396,22.1
159.382,209.8
159.421,21.7
159.4721,660.5
159.5525,150.9
159.6163,198.3
159.6233,114.5
159.6694,158.8
159.7587,81.3
159.7745,125.6
159.803,107.1
159.8176,415.2
159.8431,123.7
159.8498,22.2
159.8573,94
159.8591,148.9
159.8816,125.4
159.9141,18.4
159.9773,132.2
159.9913,289.4
160.0346,13200.9
160.0522,110.3
160.0605,141726.9
160.0666,138.8
160.1241,218
160.1363,17.6
160.1387,118
160.158,481.2
160.2622,677.5
160.2713,98.9
160.275,112.5
160.3254,513.9
160.4008,19.1
160.4788,138.9
160.4916,150.6
160.5216,409.8
160.5276,291.6
160.5311,244.3
160.5597,17.5
160.6263,314
160.6549,431.9
160.7064,500.3
160.7426,171.7
160.7475,132.6
160.7585,138.3
160.7791,290.6
160.8561,19.1
160.886,176
160.8878,501
160.895,254.1
160.9082,74.2
160.915,498.5
160.9674,19.3
160.9938,500.6
160.9975,326.9
161.0215,107
161.0415,77.8
161.0639,6471.4
161.1285,1124.3
161.142,17.7
161.151,159.2
161.1784,330
161.2542,225.3
161.2571,274.4
161.3153,357.9
161.3208,826.6
161.3512,157.4
161.3819,118.9
161.3864,320.6
161.3933,171.5
161.4077,283.1
161.4609,118
161.4897,105.3
161.5192,501.7
161.53,534.5
161.5548,291.2
161.6084,78.2
161.6165,244
161.8108,436.6
161.8644,274.7
161.8942,21.1
161.9141,473.5
161.9405,19.6
162.0502,16622.7
162.0535,434.2
162.085,319.7
162.1128,731.7
162.2176,176.7
162.2828,255.8
162.297,159.8
162.3318,550.1
162.3366,97.9
162.3629,20.9
162.3882,75.6
162.4079,18.5
162.4193,162.1
162.4215,98.6
162.4323,175.6
162.5657,542.1
162.5707,166.1
162.5948,17.9
162.6156,252
162.6328,561.7
162.6746,503.9
162.7253,159.8
162.741,176.1
162.7462,166.3
162.7706,409.8
162.8494,288.1
162.859,130.1
162.9108,300.6
162.9162,167.2
162.9559,4535.2
162.9883,24.6
163.0041,22.6
163.0156,2804.5
163.0187,21.1
163.1442,18
163.1465,436.5
163.1487,265.7
163.1669,111.4
163.2321,242.2
163.3031,180.1
163.3243,161.8
163.3283,196.9
163.3378,168.7
163.3457,155
163.3752,113.8
163.403,468.4
163.4363,21.2
163.458,361.5
163.5553,376.4
163.6397,234.8
163.642,39.8
163.6448,290.5
163.6471,253
163.6854,449.2
163.6885,82.4
163.7143,18.5
163.8069,343.9
163.831,104.9
163.8696,796
163.8811,434.3
163.8868,730.2
163.9053,440.5
163.9115,389.7
163.9175,142
164.0066,118
164.0231,84.5
164.0295,13229.8
164.1212,131.6
164.1336,93.1
164.1478,690.2
164.212,215.2
164.2141,401.6
164.2223,331.6
164.2346,414.8
164.3144,230.7
164.3522,19.6
164.3557,519
164.3971,155.9
164.4465,238.5
164.4617,663.6
164.4747,281.2
164.4829,429.2
164.556,215.3
164.6423,151.8
164.6472,173.3
164.678,75.5
164.7215,112.9
164.7319,95.4
164.7595,93.3
164.7827,155.3
164.8301,939.5
164.9101,106.6
164.9206,3519.2
164.9301,14166.9
164.9352,3951.5
164.9679,152.4
164.9825,152.1
164.9927,1078.6
165.0066,362.9
165.0134,384.8
165.0169,20
165.0325,623.3
165.0465,419.4
165.0586,223.3
165.0912,554.4
165.1564,505.7
165.2059,123.5
165.3489,143.4
165.4034,136.8
165.4424,313.2
165.4556,143
165.5172,612
165.5453,268.9
165.5522,18.7
165.5549,86.7
165.5629,538.7
165.567,142.4
165.605,422.9
165.6894,634.5
165.7011,551.5
165.7188,97.1
165.7281,497.1
165.7411,123.3
165.7849,86
165.8411,517.2
165.849,148.5
165.8583,17.9
165.8792,101.1
165.8848,496.5
165.9372,172.9
165.9668,2690.9
165.9788,1631.9
165.9878,3750.7
165.995,121.3
166.0334,115
166.0371,170.3
166.0578,20.9
166.0803,20
166.0856,366.3
166.1139,150.7
166.1565,310.8
166.1784,283.4
166.2013,384.2
166.2022,386.5
166.3126,400.4
166.3159,706.1
166.3868,540
166.4345,783.4
166.4731,17.9
166.4776,300.9
166.5281,106.2
166.5387,20.9
166.5822,35.5
166.6159,450.2
166.6193,159.8
166.7659,381.6
166.8371,33.7
166.8443,19
166.8945,689.2
166.918,34
166.928,256.3
166.9509,39603.6
166.9628,1430.9
166.9677,228.8
166.9991,247.8
167.0218,3795
167.221,451.5
167.23,19.9
167.279,406.5
167.2836,23.4
167.2987,471.9
167.3168,192.7
167.3293,247.5
167.4044,139
167.4188,104.6
167.4886,712.9
167.5416,253.7
167.5956,134.3
167.6398,353.5
167.6422,331.3
167.6637,674.5
167.6731,177.8
167.6793,101.2
167.7006,227.4
167.7577,92.3
167.8145,16.4
167.8986,450.8
167.9541,489.2
167.9945,1133.9
168.0643,380.8
168.0694,447.7
168.1365,110
168.1933,269.6
168.207,648.6
168.2493,37.2
168.298,134.2
168.2986,133.1
168.2995,100.9
168.3578,230.3
168.4532,108.7
168.4569,583.8
168.4988,97.9
168.5384,190.3
168.572,469.8
168.5841,18.6
168.7189,235.7
168.7677,308.2
168.8168,742.3
168.8527,400.9
168.9489,3948.2
168.9575,22.8
169.0037,119.8
169.0505,525.1
169.0585,42720.9
169.065,377.4
169.0867,335.5
169.0949,1768.5
169.1168,327.9
169.1248,17
169.1344,232.2
169.1895,103.4
169.217,379.3
169.2556,501.8
169.3423,92.5
169.3838,708.6
169.4321,713
169.4363,271.4
169.463,554
169.6462,468.1
169.7242,573.6
169.7796,290.7
169.8016,126.5
169.8168,431
169.8575,318.4
169.9785,420.3
169.9835,483.7
170.0247,631.8
170.0295,16.5
170.0329,2233.6
170.0418,246.4
170.0592,306.8
170.062,1345.1
170.0717,112.2
170.0925,3141.3
170.122,254.2
170.1706,32.7
170.1853,114.8
170.1943,791.6
170.2358,108.8
170.2835,187.9
170.3027,91.3
170.308,286.8
170.3351,320.1
170.3978,113.6
170.4354,540.3
170.4507,30.2
170.5359,91.9
170.6696,34.5
170.6938,113.4
170.7186,303.8
170.7396,16.9
170.7979,123.1
170.8231,120.3
170.8327,553.4
170.8546,3606
170.8869,134.9
170.9589,16.9
171.0169,647.6
171.028,563.9
171.0807,191.6
171.1026,21.7
171.1436,179.2
171.2561,515
171.257,559.1
171.2844,20.7
171.3247,529.1
171.3322,296.2
171.3422,858.1
171.3521,97.7
171.3538,239.5
171.4548,130.1
171.5143,373.8
171.5833,221.1
171.6804,70.5
171.7531,329
171.791,255
171.8124,204.6
171.827,563.7
171.8526,112.2
171.893,330.6
171.9565,83
171.9957,257.9
172.0054,19.2
172.0221,376.7
172.0279,308.3
172.0922,165.7
172.1376,177.1
172.1497,490.5
172.1819,165.4
172.2832,489.9
172.3432,410
172.3625,234.4
172.4219,389.9
172.4431,96
172.4834,131.5
172.4945,99.8
172.4985,268.1
172.585,16.6
172.6003,293.2
172.6557,125.7
172.7278,761.1
172.7761,18.4
172.7884,225.8
172.8514,1350.7
172.9796,713.2
173.0267,400.2
173.0401,433.8
173.059,71
173.0808,17.7
173.0961,128.8
173.1882,295.4
173.193,408.4
173.2211,378.6
173.2527,107.8
173.4809,459.2
173.5481,108
173.5868,463.5
173.5994,486.1
173.6065,285.3
173.6779,181.2
173.6809,521.3
173.7051,515.7
173.7099,442.6
173.7385,482.9
173.7528,263.2
173.7631,184.8
173.8152,21.8
173.8657,137.4
173.8794,21.8
173.9653,666.8
173.9722,95.8
173.9918,107.9
174.0415,190.4
174.0819,603.5
174.2072,333.3
174.275,354.4
174.3646,130.4
174.3883,501.8
174.3983,428.8
174.4298,122.3
174.462,119.1
174.578,21.7
174.6348,94.9
174.7058,629.5
174.738,332.5
174.7434,468
174.7609,368.3
174.8311,228.8
174.8875,112.2
174.8961,357.3
174.9381,6151.7
174.971,363.1
175.0343,6690.6
175.0456,1264.6
175.0531,277.2
175.0579,568.6
175.0701,459.5
175.1041,516.7
175.1191,36214.6
175.1481,32.5
175.1825,244.7
175.1864,613.9
175.2214,108.2
175.236,17.1
175.2946,21.3
175.3057,18.1
175.3235,152.1
175.4806,18.6
175.485,312.9
175.4933,200.5
175.5307,111.9
175.5784,19.8
175.5965,243.8
175.6788,18
175.7223,392.6
175.7302,631.3
175.7801,556.9
175.7905,283
175.9755,99.1
176.0086,7822.3
176.0633,432.6
176.0659,23084.4
176.1028,432
176.1546,449.6
176.197,482.8
176.2171,176.1
176.2552,81.7
176.3873,230.3
176.414,471.7
176.446,202.6
176.487,124.1
176.5822,239.6
176.6059,296.3
176.6297,346.1
176.6635,103.1
176.7215,411.2
176.7283,140.1
176.7444,455
176.7859,190.7
176.8083,389.3
176.8842,332
176.9885,614.9
177.0248,4005.1
177.0612,6198.3
177.0693,545.4
177.0871,1400.1
177.0936,21.2
177.1309,230.6
177.1436,459.1
177.1893,506.4
177.2537,69.1
177.3589,240.4
177.3682,464.5
177.4914,99.2
177.5106,115.4
177.5579,316.9
177.5781,532.1
177.5887,608.7
177.6408,462.8
177.667,484.1
177.7013,75.2
177.7487,17
177.7686,17.5
177.8102,122.9
177.8657,108.6
177.8897,304.8
177.9522,476.9
177.9728,128.4
178.0089,8837.4
178.0203,86.5
178.0243,9480.4
178.0589,4696.4
178.1506,18.3
178.1904,94.2
178.2021,18.4
178.2347,143.4
178.2893,232.7
178.3494,119.5
178.3653,23.8
178.4058,234.4
178.5617,117.8
178.5914,510.9
178.6454,114.2
178.6516,316.5
178.654,304.8
178.7159,41
178.77,152.1
178.7935,155.9
178.9849,162.1
178.993,693.1
179.0081,373.1
179.1289,133.4
179.1372,114.4
179.2765,117.2
179.2938,114.1
179.3088,18.6
179.4341,97.2
179.4636,191
179.4779,130.9
179.4925,129.7
179.508,21.2
179.5459,166.4
179.5647,655.7
179.5725,18.2
179.5751,408.4
179.6481,226.6
179.6537,145.4
179.795,188.4
179.86,221
180.0035,11372.2
180.0244,210.6
180.0651,450.1
180.1022,301.6
180.1871,109.8
180.191,485.4
180.2305,103.5
180.2544,18.3
180.2814,198.3
180.3212,21.4
180.4226,568.6
180.4356,516
180.4834,220.6
180.4859,95.6
180.5124,20.2
180.6844,282.6
180.7218,559
180.7472,23
180.8031,233.2
180.8196,490.2
180.8592,121.5
180.8946,1540.9
180.9041,7449.2
180.9116,347.4
180.9576,533.7
180.9664,375.6
180.9781,575.8
181.065,9104.8
181.0768,337.6
181.1048,173.1
181.1119,104.3
181.1709,438.3
181.1876,435.2
181.2171,136.9
181.3152,160
181.3378,718.9
181.3564,574
181.4614,319.5
181.4998,462.8
181.5144,285.7
181.5311,290.9
181.5736,409.8
181.6119,415.3
181.6527,743
181.6956,18
181.7826,109.7
181.8079,115.7
181.8523,538.1
182.0148,499.7
182.0398,298.1
182.0426,33815.3
182.075,479.5
182.0819,435.1
182.1203,105.2
182.1623,133.2
182.3223,162.3
182.4705,392.7
182.4805,18.7
182.5391,143.2
182.6128,17.2
182.669,386
182.7253,209.9
182.7468,16.6
182.7882,121.2
182.7971,228.2
182.8285,248.7
182.8727,292.9
182.9021,155
182.9207,345.2
182.9747,736.1
183.0123,137.3
183.0245,300.2
183.0316,108.5
183.0445,2506.9
183.0517,163.8
183.0877,18.8
183.1089,444.8
183.1282,20.1
183.1378,653.1
183.2776,464.7
183.2892,174.1
183.3652,192.7
183.405,88.2
183.4648,113
183.6114,157.8
183.8126,311.7
183.8889,315.7
183.9308,164.9
183.951,674.8
183.9648,832
184.0373,1496.6
184.0633,341.4
184.0669,1181.6
184.0735,4597610.5
184.0826,294
184.0949,442.9
184.1097,668.6
184.1694,21.7
184.1824,589.8
184.2004,78.2
184.255,104.8
184.2766,100.4
184.308,330.2
184.3691,428.9
184.4184,219.5
184.5244,192.9
184.5753,210.1
184.6369,101.6
184.6583,197.2
184.6605,139.9
184.7072,501
184.7281,34.3
184.7767,307.8
184.8137,800.7
184.8611,31.6
184.9465,188.6
184.9998,299.8
185.0038,254.5
185.0325,39679.8
185.0705,10362.5
185.0768,217194.9
185.0901,131.7
185.1135,20.3
185.154,221
185.1629,163.6
185.1971,127.3
185.2165,161.7
185.2211,96.9
185.2508,322.8
185.2659,187.3
185.2926,121.1
185.3006,526.6
185.4549,471.3
185.4842,613.7
185.5201,252.5
185.5943,98.5
185.6132,36.1
185.6372,71.6
185.7246,158.3
185.8139,462.3
185.8321,698.7
185.8626,525.4
185.8764,127.1
186.036,583.7
186.0777,27835.1
186.088,23.2
186.1889,156.1
186.2334,437.7
186.3379,155.8
186.3428,20.9
186.3754,195.2
186.3787,236
186.4018,141.4
186.4406,221.7
186.4639,94.3
186.4828,216.6
186.497,426.7
186.5086,126.2
186.5168,450.3
186.5654,19.2
186.643,484.8
186.6466,92.4
186.7334,74.1
186.7604,678.5
186.7835,136
186.7848,262.1
186.8285,362.9
186.9121,3350.6
187.0305,401.4
187.058,2031.6
187.0715,2819.3
187.1078,3496.9
187.2523,482.2
187.3518,40.8
187.4301,226.1
187.4648,137.5
187.4966,656.3
187.6705,149
187.7366,230.1
187.825,219.6
187.8418,374.5
187.933,123.8
187.9538,526.5
188.0792,120.6
188.1712,463
188.1769,154.4
188.2723,17.4
188.3511,209.4
188.3674,204.4
188.3809,121.4
188.423,172.1
188.5437,485.1
188.6502,16.5
188.6586,292.9
188.8151,464.6
188.8729,204.1
188.8994,277.1
188.9164,135.5
188.9451,1203.1
188.9776,30.6
189.007,595.7
189.0247,1043.8
189.052,17.5
189.0613,1386.6
189.0872,11087.8
189.2161,285
189.2564,185.1
189.3735,525.4
189.5163,727.4
189.5389,330
189.6146,412.7
189.6185,18.5
189.674,112.3
189.6952,118.5
189.709,367.9
189.7559,547.2
189.7646,798.3
189.7692,329
189.7791,207.1
189.7909,146.5
189.8084,272.5
189.8615,611.4
189.8661,498.6
189.9169,28
189.9288,185.1
189.9358,83.5
189.9497,18.7
190.1688,444.7
190.2455,163.8
190.2704,257.9
190.2966,157.4
190.4738,141
190.488,1009
190.5315,192.7
190.5371,18.8
190.5599,17.3
190.708,183.9
190.8156,207.7
190.8332,177.7
190.912,2324.9
190.9445,124.3
190.9985,316.8
191.0083,4496.9
191.0316,475.5
191.0347,273.3
191.0364,279.8
191.0405,104796.1
191.0769,23325.5
191.1045,552.9
191.2539,342.3
191.2704,300.8
191.323,114.8
191.349,311.5
191.431,151.4
191.4645,221.5
191.4692,494.1
191.4994,20.2
191.503,806.8
191.5899,165.1
191.5973,330.7
191.6513,430
191.7013,22.7
191.7769,208.4
191.8008,21.2
191.83,601
191.8828,170.1
191.9048,114.5
191.9355,312.4
191.9374,19.6
191.9825,682
191.987,108.5
191.9906,38.7
192.0108,150.2
192.0152,436.5
192.0399,15003.7
192.0438,3525.3
192.0802,624.5
192.1529,16.9
192.248,148.7
192.3355,148.5
192.3779,633.3
192.4032,211.6
192.4182,500.1
192.5931,104.3
192.5994,21
192.892,778.3
192.9395,212.7
192.9617,499.3
192.9988,2455.2
193.0351,2397
193.0582,125
193.1186,572.4
193.1564,487
193.1743,20.3
193.1908,102.2
193.2283,577.2
193.2348,477
193.3373,18.1
193.5084,186.2
193.5358,18.2
193.7209,195.8
193.727,165.7
193.7404,454.6
193.7728,179
193.8137,124.1
193.8831,150.2
193.9516,101
193.9981,1780.5
194.0051,2074.3
194.0101,526.7
194.0328,1295.9
194.0381,412.9
194.0783,280.2
194.086,408.3
194.1541,108.4
194.201,119
194.2149,17.3
194.2308,309.2
194.2368,271.8
194.2703,164.5
194.2844,526.8
194.3427,445.4
194.3536,34.5
194.3964,180.6
194.4203,262.6
194.4629,230.6
194.4792,396.1
194.4851,432.7
194.506,103.2
194.5148,240.3
194.5217,487.9
194.5355,820.8
194.5409,312.4
194.546,113.6
194.6011,257.9
194.6316,110
194.7168,116.1
194.8922,112.3
194.9026,695.1
194.9586,19.1
194.9662,541
194.9821,193.3
195.0336,474.3
195.0703,216.8
195.0867,309.2
195.1003,437.9
195.1303,21.2
195.2137,221.5
195.2192,305.3
195.2644,384.7
195.2792,670.3
195.3278,483.1
195.3672,17.9
195.4088,536.3
195.5226,36.3
195.623,702.9
195.7309,324
195.738,451.4
195.8354,330.6
195.8762,333.8
195.945,124.1
195.9709,195
195.9774,1245.6
196.0157,110.7
196.0792,124.2
196.0916,460.1
196.1607,159.4
196.1698,348.6
196.2756,312.9
196.2863,445
196.4507,405.7
196.5304,157.2
196.6409,305.1
196.6768,665.5
196.6805,507.7
196.701,112.7
196.8653,4867
196.878,1675.7
196.9116,462.2
196.9697,461.9
196.9757,19.7
196.9776,18.9
197.0002,325.9
197.0233,82.5
197.0602,152.6
197.0648,147.3
197.1418,220.6
197.2429,290.9
197.8481,379.6
197.8796,19.5
197.893,293.6
197.9691,97
198.0073,115.7
198.04,18.6
198.0595,329
198.0852,2849.6
198.0885,720
198.0949,526.4
198.1854,5802.6
198.262,77.3
198.3404,77.7
198.3578,161
198.3753,206.8
198.4281,403.2
198.4682,224
198.4928,435.5
198.5719,18.7
198.6049,17.5
198.6259,120.3
198.6312,29.4
198.6931,146.2
198.8624,6306.6
198.9247,104.5
198.9739,538.3
199.0165,132
199.0244,614.3
199.0394,479.1
199.0565,301.7
199.0691,1602.8
199.0757,2132.5
199.0804,142.3
199.101,420.3
199.1888,236.6
199.2434,572.2
199.2846,30.9
199.3001,98
199.3403,151.8
199.4246,173.5
199.4636,478.9
199.5118,88.5
199.5719,125.4
199.6123,184.3
199.6771,153.3
199.8445,111.7
199.8996,74.6
199.9442,399.1
199.9504,126
199.9908,26363.8
199.9963,211.4
200.0044,213.4
200.0409,12666.1
200.0439,1037.8
200.0474,170.8
200.097,12440.9
200.1034,158
200.1689,284.1
200.1813,298.9
200.1991,107.9
200.3004,717.3
200.3263,21.7
200.3435,110.7
200.402,460.2
200.4387,133.9
200.6087,124.2
200.709,375.4
200.784,791.5
200.8595,1052.6
200.8945,18.7
200.9405,22.3
200.9904,528.5
201.0174,488.9
201.055,758.2
201.0871,685.6
201.0959,142.8
201.1236,544.9
201.3326,169.7
201.3798,108.5
201.4472,473.9
201.4799,514.6
201.6076,513.6
201.6575,114.7
201.7522,336.5
201.8494,307
201.9339,453.4
201.9517,30.2
202.0731,562.7
202.0845,25.2
202.2715,352.5
202.3262,301.1
202.3643,160
202.4749,16206.4
202.4832,127.6
202.4928,160
202.6208,85.2
202.6364,236.1
202.74,125.1
202.8146,19.4
202.819,19
202.8546,298.5
202.8672,518.1
202.922,382.8
202.9581,108.5
202.9647,238
202.9777,689.5
202.9955,29.4
203.0321,415.2
203.0406,468.2
203.045,132.5
203.0528,2270235
203.0581,940.5
203.0769,7392.5
203.104,414
203.1166,131.9
203.1423,120.3
203.1487,401.1
203.1789,421.4
203.1828,518.1
203.2839,208.6
203.3633,241.9
203.5494,316.8
203.5714,462.1
203.6099,427.1
203.7349,496.4
203.8391,453
203.8407,340.7
203.8545,27.5
203.8599,145.6
203.9021,126.3
203.9457,50.2
203.9907,19
204.0246,37103.3
204.0562,116970
204.0634,385.7
204.0869,477.2
204.1173,279.4
204.2439,220.4
204.2904,348.6
204.4026,152.6
204.4083,176
204.4661,16.9
204.4702,242.6
204.4965,270.6
204.5424,164.7
204.5536,509.5
204.5825,19.2
204.5901,121.5
204.7111,164.2
204.769,737.2
204.7842,134.8
204.8086,21
204.877,138.8
205.0023,766.8
205.0278,650.3
205.0571,18626
205.0683,1271.4
205.077,441.6
205.0836,129.2
205.1129,31.1
205.1366,193.3
205.1488,458.3
205.1675,200.5
205.1813,17.6
205.1868,516.3
205.2848,23.9
205.3792,108
205.3867,368.7
205.419,288.1
205.4302,18.4
205.4925,535.2
205.5195,195.4
205.5338,19.6
205.5604,24.8
205.5916,157.2
205.607,216.9
205.6326,21.7
205.641,173.7
205.644,154.9
205.7614,422.8
205.8198,17.9
205.8271,409.6
205.8561,286.4
205.9047,458.8
205.9429,27.1
205.9735,503.1
205.988,21.8
206.0555,1958.6
206.0597,20.7
206.1254,116.5
206.1769,110.1
206.2826,665.1
206.311,516.2
206.3586,132.4
206.3911,122.3
206.4132,677.2
206.5229,20.6
206.5382,23.7
206.6235,33.8
206.7116,307.1
206.7179,500.8
206.8093,17.5
206.8771,90.4
206.8941,15940.5
206.9823,3160
206.9887,161.6
207.0145,72482.6
207.0442,2269.3
207.0508,14236.4
207.1027,536.4
207.1369,20.6
207.2291,116.1
207.2339,162.6
207.3073,105.5
207.382,465.9
207.4118,316.2
207.4153,755.4
207.4285,372.8
207.4832,466.8
207.4913,163.8
207.5703,35
207.5853,140.1
207.7441,122.5
207.8174,437.3
207.8253,496.2
207.8543,700.5
207.8686,685.3
207.9036,73.5
207.9438,19.6
207.9875,303.5
208.0108,278
208.0139,2337.1
208.0179,2115
208.1263,105.1
208.1865,18.4
208.1959,318.9
208.2255,181.3
208.2735,259.4
208.3241,310.6
208.3651,91.7
208.4059,110.3
208.5093,124
208.5434,20.5
208.5686,366.4
208.5941,438.8
208.6561,235.3
208.6591,432.2
208.7757,17.4
208.8086,373.1
208.8806,267.5
208.8833,27.6
208.8912,8090.8
208.9138,210.4
208.9356,1314.4
208.9552,17.9
208.9757,510.5
208.9846,459.1
209.0126,4413.8
209.029,475.6
209.0459,218.9
209.1755,535.8
209.2086,17.5
209.4311,220.1
209.5961,477
209.9415,17.7
210.7259,242.5
210.7847,108.4
210.8183,204
210.8514,249.4
210.8814,219.1
211.0568,1048.1
211.0692,815.4
211.0717,627.8
211.0769,516.8
211.1336,753
211.1434,12054.3
211.1537,28860.1
211.1566,25439.7
211.158,25786
211.168,908.6
211.2117,341
211.2263,468.1
211.2527,156.6
211.357,238.6
211.4893,219.9
211.501,110.5
211.5371,447.6
211.6299,19.5
211.6858,19.3
211.7055,16.6
211.7235,500.7
211.8219,246.3
211.8655,115.8
211.8922,345.1
211.9579,18.3
212.0244,20.1
212.0374,124.4
212.0744,123.8
212.1339,84.7
212.2582,512.1
212.2842,174.1
212.5147,311.3
212.6555,17.9
212.6734,447.8
212.7442,18.2
212.7707,158.9
212.8393,2014.5
212.9782,1669.8
212.9961,28.4
213.0549,776.4
213.063,533.9
213.0661,160.1
213.0746,454.6
213.1196,297.4
213.1579,18.5
213.3431,137.3
213.6956,179.1
213.7231,670.6
213.886,324.4
213.9101,476.5
213.962,127.3
213.9848,531.5
214.0064,1499
214.0096,455.9
214.0307,158.1
214.059,1766.1
214.0899,886.1
214.1455,143.2
214.2136,458.4
214.2233,414.2
214.2284,328.6
214.2396,19.8
214.2649,581.2
214.3199,127.8
214.3563,224
214.3717,504.4
214.3897,365.5
214.4412,226.9
214.4443,721.4
214.6663,738.4
214.8363,1364.5
214.9179,94.1
214.933,90.4
215.0933,40.8
215.2646,385.3
215.2694,394.8
215.3695,37.5
215.5948,80.6
215.7277,497.5
215.7371,143.2
215.9649,1033
215.9804,21.4
216.0001,110.6
216.0148,7275.7
216.1355,71.9
216.2086,18.2
216.2474,239.4
216.2846,87.3
216.3419,245.8
216.413,135.8
216.4238,433.9
216.4709,172.2
216.4938,509.6
216.5538,527
216.671,457.4
216.7113,301.9
216.923,48320.5
216.97,276.4
216.9984,129.9
217.0563,297.3
217.0768,500.8
217.0824,755.6
217.2709,299.5
217.3316,574.8
217.3693,260.7
217.3934,304.4
217.4276,222.2
217.5011,129.2
217.5753,1009.3
217.7161,226.4
217.7621,93.4
217.7658,150.1
217.9127,317.1
217.9376,704.4
218.0064,28.8
218.0495,136
218.1228,260
218.1518,35.4
218.1954,568
218.2743,112.4
218.3117,87.9
218.3781,281.2
218.4292,159
218.5063,532.2
218.5551,17.5
218.5601,725.9
218.6021,257.1
218.7105,118
218.7706,20.5
218.8858,972.3
218.8966,104.2
218.92,13276.3
218.9474,558.7
219.0177,2273.6
219.0268,2187765
219.034,385.7
219.0365,100.6
219.0831,6244.2
219.168,1030.6
219.179,17.9
219.1946,308.9
219.5289,801.4
219.5334,492.2
219.5644,19.2
219.5694,275.9
219.7384,18.9
219.7557,225.7
219.8278,150.7
219.8548,322.4
219.9215,268.7
219.9988,385.6
220.0301,115611.9
220.0373,1351.6
220.0669,2996.9
220.1196,108.2
220.1674,435.1
220.1942,97.4
220.2168,110.2
220.2283,231.1
220.2406,693.4
220.2845,534.4
220.3001,578.4
220.3299,272.3
220.3775,33.1
220.4026,491.4
220.4439,81.2
220.4489,166.1
220.6791,103.3
220.7477,131
220.8702,109
220.8751,113.2
220.9097,844.9
221.0025,129.1
221.0249,137636.3
221.0311,20792.5
221.051,761.9
221.0845,251.3
221.0877,318
221.1709,25.4
221.2762,229.7
221.3353,255.5
221.3638,80.4
221.3911,273.3
221.4299,169.3
221.4969,17.5
221.508,19.5
221.5342,216.7
221.5871,101.5
221.6012,246.8
221.6265,224.8
221.7721,16.8
221.783,132.6
221.8739,196.8
221.9513,344.7
221.9565,230.5
221.9708,166.8
221.9838,3087.7
222.0013,245
222.0281,4330.2
222.0469,97.7
222.0514,297.7
222.0775,146.9
222.0892,1491.1
222.1021,19.2
222.1664,243.2
222.2052,117.4
222.2862,169.8
222.5326,130.1
222.5834,17.2
222.6391,81.9
222.6778,210.1
222.7464,122.9
222.7612,418.9
222.7735,130
222.8569,276.4
222.8681,15011.6
222.8727,474.1
222.8793,598.3
222.8891,399.6
222.8992,33.1
222.9885,8830.9
223.0104,174.4
223.018,76.3
223.0246,1155.8
223.0367,680.1
223.3364,311.5
223.3729,605.5
223.406,20.9
223.4164,107.6
223.4216,88.3
223.4246,18.6
223.4328,767.4
223.6008,22.2
223.6348,801.4
223.6418,291.2
223.7188,145.9
223.7838,129.8
223.7902,19.7
223.832,18.7
223.9249,721.5
223.9532,101.1
224.0294,391.4
224.2451,160.3
224.2786,105.5
224.3202,471.5
224.3576,124.4
224.3923,443.5
224.5007,123.8
224.6264,311.3
224.6957,17.8
224.8651,8835.7
224.9916,33.5
225.0352,1356.4
225.0435,20.8
225.0549,28957.2
225.0847,428.6
225.1112,105.6
225.1964,452.9
225.5183,805.8
225.597,19.1
225.7742,165.6
225.805,207.5
225.8069,308.1
225.808,325.5
225.9289,206.4
225.948,427.1
225.9559,99.7
226.0068,1921
226.0243,7810
226.0453,9068
226.0576,94.4
226.1531,133.6
226.3264,395.3
226.5225,518.1
226.6371,21.3
226.665,311.7
226.6912,96.5
226.8189,513.6
226.8268,111.6
226.923,17.6
226.9398,17.9
226.9518,44048.9
226.9667,104.2
226.9962,169.5
227.0041,441.9
227.0343,634.8
227.0795,1071
227.0865,420.8
227.1005,333.3
227.1231,95.4
227.1577,117.2
227.3235,103.7
227.4195,252.4
227.422,73.9
227.5444,115.5
227.6144,20.6
227.7365,99.2
227.7454,494.5
227.7791,384
227.8568,301.7
227.9847,526.3
228.0003,945.8
228.0221,694.6
228.2367,17.7
228.2871,173.5
228.502,165.2
228.5849,587.1
228.5894,103.7
228.6056,20.6
228.6931,251.3
228.7019,223.8
228.7133,565.3
228.8092,426
228.8133,788.6
228.8722,18.3
228.8933,100.3
228.9916,1297.1
229.0534,96.9
229.0727,234.3
229.0857,362.4
229.1504,140.2
229.2055,166.3
229.2547,692.1
229.2635,328.4
229.3675,491.2
229.3726,102
229.3794,114.1
229.4284,385.3
229.4451,588.1
229.4487,517.5
229.5235,248.4
229.6901,838.7
229.7549,97.3
229.92,238.1
229.9571,428.3
229.9884,395.7
230.0176,19.4
230.0334,217.8
230.112,203
230.1954,553.7
230.3955,125.4
230.4369,413.8
230.4548,20.4
230.466,233
230.6586,20.2
230.7202,20.3
230.8104,860.3
230.8247,79.5
230.837,192.8
230.8885,592.3
230.9156,439.9
230.9276,107.8
230.9488,433.4
230.9904,71.3
231.0561,23
231.0596,570.7
231.0839,929.7
231.1055,159.3
231.1318,558.9
231.2025,98.7
231.3272,414.6
231.5512,361.2
231.556,125.6
231.7204,524.4
231.757,104.9
231.9287,570.1
231.9478,273.2
231.9954,372.7
232.0037,84.1
232.0312,21.1
232.1023,126
232.2071,846.2
232.2141,138.3
232.3263,268.7
232.3439,99
232.3611,234.6
232.5098,199.6
232.5806,130.7
232.6611,239.3
232.6891,749.2
232.714,264.5
232.7683,79.3
232.8969,45094.4
232.92,818.7
232.9272,16.9
232.9431,109
232.9757,20.4
233.0019,29.3
233.0511,6835.8
233.1076,143.8
233.1671,202.1
233.2929,325.5
233.3376,233.7
233.4099,254.7
233.6661,396.6
233.6723,303.4
233.7442,287.3
233.7578,169.5
233.7743,286.7
233.8531,147.7
233.8859,21.7
233.8919,202.5
234.1314,585.2
234.1675,658.4
234.1694,640.7
234.2941,29.4
234.3333,393.2
234.3814,139.4
234.4023,272.9
234.4235,379.4
234.5135,335.4
234.6736,313.1
234.7985,426.2
234.8939,11733.2
234.978,389
234.9818,5567.2
235.0085,18.6
235.0572,1113.3
235.0668,666.1
235.0928,32583.2
235.1515,219.4
235.5186,554.9
235.5492,459.3
235.5746,32.5
235.6589,18.7
235.7065,694.8
235.7837,846.7
235.8482,132.2
235.8776,477.5
235.9309,122
235.9645,337.6
235.9841,495.1
236.0409,2506.7
236.0718,41311.9
236.0962,1127
236.34,221.2
236.3565,254.4
236.4218,748.6
236.5152,503.4
236.5554,135.9
236.5769,35.6
236.6181,87.4
236.6347,231.7
236.6616,18.6
236.6701,657.4
236.6957,284.6
236.7016,104.3
236.7283,21.8
236.8348,598.2
236.8787,302.6
237.0704,28.6
237.0752,1974.3
237.0959,220.5
237.1006,199.8
237.2643,520.1
237.3924,123.7
237.4603,158.1
237.4749,192.8
237.481,262.3
237.8627,227.5
237.9181,525.4
237.938,17.9
238.0676,603.5
238.0758,411.2
238.0785,21.9
238.1653,124.1
238.2567,162.9
238.3554,571.8
238.4104,114.8
238.5821,517.3
238.6507,125.6
238.6643,317.4
238.7393,383.6
238.8059,367.2
238.8162,400.3
238.8421,7381.2
238.8473,19.4
238.8538,502.8
238.9054,268.3
239.0092,20.6
239.0137,543.5
239.0454,199.5
239.0491,328.3
239.0647,466.3
239.0681,627.8
239.1465,472.4
239.2443,255.3
239.3026,157.2
239.3239,132.9
239.3581,230.6
239.4481,74.2
239.5699,27.4
239.5914,122.9
239.6033,127.4
239.6439,75.4
239.651,454.8
239.7156,519.4
239.7204,144.7
239.9102,125.4
239.9338,355.3
240.0048,329.7
240.0842,584.8
240.1195,147.6
240.127,22
240.2288,135.1
240.2469,235.7
240.2613,19.6
240.3507,19.5
240.4066,659.6
240.4656,238.1
240.5237,482.5
240.5501,102.2
240.5613,455.8
240.584,102.3
240.6547,21.5
240.6617,544.7
240.6801,42
240.751,19.5
240.779,318
240.8175,77.4
240.8389,2602.7
240.9548,2622.2
240.9673,2746.5
240.9953,495.6
241.009,1268.9
241.0505,275.8
241.2684,528.8
241.2763,129.9
241.2924,270.1
241.2958,156.2
241.3301,19.1
241.3831,411.8
241.7155,126.7
241.8804,186
241.9647,829.5
241.9983,1508.6
242.0192,4018.7
242.1361,123.2
242.1447,247.8
242.1503,596.6
242.2271,603.5
242.243,339.1
242.3374,273.9
242.4943,242.1
242.56,18.1
242.5643,512.9
242.5953,20.7
242.6302,22.7
242.6402,18.1
242.6442,77.6
242.679,108.8
242.7305,118
242.7735,398.2
242.7799,439.3
242.7861,261.8
242.8143,158.9
242.8316,30.2
242.9107,416.6
242.9258,27022.4
243.0069,71.5
243.0535,3075.6
243.0579,20.9
243.0656,9629
243.1366,97.1
243.3393,210.8
243.3848,383.5
243.4799,390.3
243.4992,301.5
243.5735,105.1
243.5948,20.9
243.7498,469.6
243.7697,558.3
243.775,106.5
243.903,15.9
243.9266,156.6
243.9727,177.5
244.0127,322.9
244.026,98.3
244.0786,515.9
244.0979,111.6
244.1758,452.7
244.3447,320.7
244.4419,232.7
244.455,291.5
244.691,202.7
244.7699,456
244.8054,248.3
244.8261,268.2
244.8549,313.8
244.871,4510.1
244.9074,293.9
244.9149,555.7
244.9237,1416.2
245.0146,348.1
245.0231,18.5
245.0459,105.5
245.0781,449.1
245.1515,120.7
245.1782,17.5
245.2326,219.7
245.2911,240
245.3935,94.6
245.4045,155.5
245.4554,320.6
245.5201,218.9
245.6114,389
245.6493,330
245.8127,314.5
245.9011,450.2
246.0014,331.1
246.0112,41.8
246.0475,274.5
246.1117,357.9
246.1364,127.2
246.1891,134
246.3872,226.6
246.5069,96.9
246.6556,684.6
246.8034,240.1
246.856,770.8
247.0366,109.2
247.0586,410.6
247.0669,1917.9
247.0928,7890.1
247.1879,532.8
247.3518,161.8
247.3756,312.1
247.7123,152.9
247.8188,115.1
247.8471,423.6
247.8564,128
247.8948,257.5
247.9824,90.3
248.0946,338.6
248.1244,13458.9
248.1863,308.9
248.2137,447.5
248.301,146
248.3732,393.8
248.4358,158
248.4983,241.4
248.5358,116.7
248.5425,98.7
248.5486,120.9
248.5983,21.2
248.7111,18.5
248.7927,114.4
248.8234,121.2
248.8709,14927.4
248.9596,354.4
248.9838,518.1
248.9903,395.1
248.9989,452.5
249.0161,1208.1
249.0462,471.1
249.0614,13576.5
249.0704,21.3
249.0978,400.4
249.1133,240.5
249.1228,31.3
249.1292,220
249.1581,464.8
249.19,32.8
249.2023,455.1
249.2318,400.2
249.2501,38.6
249.2551,242.6
249.4629,485
249.5503,92.7
249.6745,69.5
249.6979,232.4
249.7629,310.7
249.7648,289.7
249.9245,279
250.0327,21.3
250.1364,117.2
250.2536,249.1
250.2955,22.5
250.3487,124.2
250.5048,19.2
250.5207,73.9
250.5305,465.1
250.7231,100.9
250.7358,331
250.8678,2820.5
250.9075,120.2
250.9205,4255.9
250.9557,1941.2
250.9833,175.1
250.9928,143.4
251.001,98
251.028,143.6
251.0339,883.9
251.0785,843.5
251.3933,123.6
251.4008,556.9
251.5607,94.9
251.7297,588
251.7383,273.5
251.7912,37.2
251.8246,113.4
251.8585,531.5
252.0213,667.5
252.0262,190.3
252.0339,327.6
252.0366,200.8
252.0459,95736.2
252.0835,19.8
252.257,73.9
252.298,436.9
252.4689,98.7
252.6295,94.8
252.8078,133
252.8149,542.1
252.9174,3051
252.998,61.7
253.0493,7304.4
253.0803,117.3
253.1101,546.1
253.1195,269.9
253.1271,114.6
253.1958,233.5
253.3317,296.7
253.4947,124.5
253.5269,710.8
253.595,289.4
253.6166,115.5
253.7451,532.7
253.7955,77.8
253.9601,152.8
254.0435,3999.6
254.1116,516
254.1394,483.2
254.1686,18.7
254.1796,21.3
254.1914,99.7
254.2914,192.2
254.3,169
254.4516,493.3
254.4669,313.4
254.5414,568.7
254.6433,17.7
254.6893,404.7
254.7392,85.2
254.7968,111.5
254.8008,731.1
254.8161,1775
254.8241,7090.3
254.8475,706.7
254.8989,788.1
254.932,95.4
254.9413,481.8
254.9963,43.1
255.0006,470.3
255.0331,20825.9
255.0383,1019
255.0469,1049.3
255.1035,21.9
255.1392,244.2
255.146,125.5
255.6591,115.2
255.67,514.4
255.7261,191.8
255.758,308
255.7791,442.2
255.7818,486.6
255.9164,123.1
255.9783,1480.7
256.0586,133.1
256.1147,522.6
256.1691,18.4
256.2752,282.5
256.2962,748.1
256.3207,319.8
256.5136,308.2
256.5317,309
256.6676,19.3
256.813,363.7
256.8211,8555.9
256.8847,403.2
256.9299,1216.3
256.9417,719.4
256.9912,521.4
257.0488,4233.9
257.0654,859.8
257.0748,54525.2
257.0801,258.8
257.1372,240
257.2255,241.4
257.3654,96.1
257.397,114.2
257.6115,476.4
257.6405,329.1
257.7623,321.6
257.8477,158.2
257.8832,86.7
257.9108,17.3
257.9938,496.1
258.0304,68.7
258.0541,19
258.0742,217.5
258.0781,1486.5
258.1104,13477.4
258.1698,156.2
258.2358,645.9
258.454,251.5
258.5548,248.7
258.5927,19.4
258.6288,501.7
258.6869,488.6
258.7465,778.2
258.8183,3408.3
258.8999,4467.6
258.9143,539.3
258.925,518.1
258.949,186
259.0008,144.2
259.0558,110.2
259.0661,189.4
259.1772,864.5
259.1946,206.5
259.2551,121.1
259.3773,444.4
259.4677,20.6
259.4743,554.3
259.4934,238.8
259.5316,759.7
259.5494,35.6
259.6455,570.7
259.6991,333.9
259.7539,144.1
259.7877,158.2
259.8543,1004
259.965,764.9
260.0174,26
260.1908,404.2
260.2557,315.1
260.3229,105.8
260.3761,730.9
260.7503,633.3
260.8164,578.4
260.8452,1662.8
260.9492,15466.4
260.9666,121.3
260.9899,504.9
261.0459,404.2
261.1426,414.3
261.1826,687.8
261.287,22.1
261.4146,677.4
261.448,18.5
261.4723,327.5
261.4918,200.2
261.5172,19.3
261.5381,286.4
261.5945,378.7
261.5989,613.5
261.6391,339.1
261.7285,19.2
261.7518,18.2
261.907,291.9
261.9859,110.7
262.035,116.6
262.0816,1036.3
262.2325,233
262.3032,154.2
262.3566,290.7
262.4658,103.7
262.4816,155.9
262.5027,178.6
262.579,257
262.5837,146.3
262.5956,211.1
262.6519,446.2
262.6946,191.3
262.8419,650.8
262.854,432.5
262.9183,149
262.9465,4219.3
263.0268,246.4
263.0852,1103.7
263.2834,374.8
263.513,560.7
263.5651,407
263.5871,160.1
263.6927,166.6
263.9007,20
263.9218,24.2
263.9413,425.2
263.9954,567.4
264.0156,152.8
264.0258,291.8
264.1406,357.1
264.1568,245.7
264.1939,265.7
264.526,142
264.5882,275.8
264.6426,40.1
264.6791,518.8
264.7703,140.3
264.8303,258.3
264.845,1094.7
264.8529,5123.4
264.8986,20.9
264.9337,1620.5
264.973,589.1
264.989,115.1
265.0165,280.1
265.0235,968
265.0356,7302.5
265.0476,2359.9
265.0555,301.5
265.0672,155
265.1438,243.6
265.1903,237.9
265.3835,30.6
265.4709,128.4
265.4862,476.2
265.4979,301.8
265.5102,106
265.5788,741.4
265.6761,18.5
265.9462,25
265.9937,17.5
266.0401,104.9
266.0452,105.1
266.0496,331.7
266.085,370.7
266.2684,111.7
266.3718,535.8
266.4561,254.6
266.4899,320.5
266.5399,19.2
266.5689,384.1
266.6577,16.8
266.7405,118.9
266.85,4373.7
266.8946,4239.5
267.0042,657.4
267.0134,164.3
267.0186,252
267.0675,216.4
267.102,145.9
267.1165,315.8
267.1372,276.8
267.2242,133.3
267.2762,171.5
267.3099,554.6
267.4401,117.5
267.4562,597.3
267.4649,247.5
267.9067,529.7
267.9942,21.5
268.0035,321.2
268.0319,190.7
268.0421,189.8
268.2725,167.9
268.3667,163.3
268.3766,456.1
268.6103,348.1
268.6374,417
268.6392,413.8
268.6597,151.1
268.7765,121.9
268.7964,218
268.8471,510.9
268.8647,520.1
268.8915,2870.8
268.9587,689.8
269.0123,101.7
269.0451,17976.5
269.0488,35550.3
269.0721,289.9
269.2217,101.1
269.2869,248.7
269.3344,122.1
269.3565,103.6
269.3606,241.1
269.3741,781
269.4267,161.2
269.4351,409.7
269.4417,285.4
269.4725,231
269.482,318.1
269.5249,21.9
269.5431,17.3
269.5698,150.9
269.5836,338.5
269.7728,478.2
269.8865,666.1
269.9416,174.9
269.9601,519.9
269.9941,2484.4
270.0254,1253
270.0476,26974.8
270.0974,335.1
270.1041,270.2
270.1236,437.8
270.1452,1595.5
270.1632,98.3
270.1693,254.2
270.1995,122.8
270.428,528.8
270.5323,286.2
270.798,1577.7
270.9177,21.2
270.9403,743.9
270.9781,26998.5
271.0242,674.6
271.0285,29.6
271.0512,943.1
271.0637,338.7
271.0776,558.3
271.0903,1356.1
271.2479,18.7
271.4099,195.3
271.4503,18.5
271.5191,204
271.529,561
271.6431,231.6
271.6594,85
271.7777,440
271.8059,421.4
271.8172,747
271.8862,367.3
271.9598,395.5
272.0432,167.4
272.0474,251.6
272.0805,311.8
272.0892,23.9
272.163,528.3
272.1806,636.3
272.3155,701.7
272.3351,294.1
272.3962,195.1
272.5526,330.2
272.6481,20.4
272.6781,493.9
272.7953,4792.4
272.9458,50.1
273.0253,126.6
273.0488,5412.1
273.0606,715.1
273.0963,216.6
273.1526,171.5
273.1663,347.1
273.2616,632.2
273.318,17.3
273.3818,75.6
273.4332,100.7
273.4735,21.2
273.5646,548.8
273.5919,521.4
273.6509,219.6
273.685,182.7
273.6894,236
273.8846,555.5
274.0409,30
274.0644,279.2
274.0692,267.3
274.0926,2525.8
274.1293,136
274.1723,221.8
274.2415,277.2
274.264,427.2
274.3399,265.8
274.4597,20.1
274.4828,838.3
274.646,75.4
274.6681,546.5
274.6789,163
274.7005,536
274.7921,1925.9
275.033,651.2
275.0599,240.7
275.2186,539.3
275.2682,185.3
275.3158,466.5
275.3174,466.5
275.3194,243.8
275.3256,524.8
275.35,351
275.4404,263.5
275.4585,193.7
275.4605,147.7
275.4625,97.6
275.517,97.6
275.5272,21.3
275.5688,480.6
275.5894,657.2
275.5991,33.2
275.6353,291.3
275.707,127.8
275.8171,189.2
275.9327,112.3
275.9391,1089.3
276.0037,116.8
276.0848,141.1
276.0985,376.6
276.1112,248.2
276.139,109.4
276.1484,284.6
276.1519,73
276.2065,105.2
276.5433,160.9
276.5889,134.1
276.663,122.9
276.7657,438.5
276.9233,15531.8
276.9589,191.8
276.9949,124.2
277.1076,169
277.1385,152.4
277.2122,441.2
277.2791,398.2
277.3109,548
277.4135,126.3
277.6112,461.8
277.7012,124.7
278.0004,69.1
278.0191,507.6
278.048,89.3
278.0988,102
278.1286,455.3
278.1637,535
278.2581,783.4
278.3037,268.7
278.3768,133.2
278.5144,17.5
278.5793,523.5
278.6101,477.8
278.691,154.5
278.7119,173.9
278.7673,526.9
278.8894,206.2
278.8934,557.8
278.9203,4397.8
279.0568,33328.7
279.0697,71.7
279.1202,97.2
279.2547,457.1
279.2775,742.8
279.3278,133
279.4305,569.3
279.4921,846.7
279.5028,164.8
279.5605,31
279.6156,119.4
279.7472,19.8
279.8076,20.8
279.8159,539.7
279.8324,231.1
279.9318,222.4
279.9788,809.1
280.016,247.6
280.0599,376.6
280.0789,611.4
280.1257,297.3
280.202,166.8
280.3638,20.5
280.43,540.9
280.5565,247.7
280.6079,128
280.6265,34.5
280.6841,324.4
280.757,114.3
280.827,3494
280.8482,372.4
280.985,582.7
281.0099,1948.8
281.0514,247.5
281.0809,273.4
281.0941,345.2
281.2035,424
281.2369,150.1
281.2714,296.8
281.3468,19.2
281.3608,454.2
281.4395,421.8
281.5582,89.9
281.6616,117.9
282.0149,146.7
282.0506,18.3
282.0656,618
282.0827,663.8
282.197,390.9
282.3063,221
282.3531,32.5
282.398,293.1
282.4705,323.6
282.4793,401.5
282.492,319.8
282.6475,119.3
282.8239,3554.3
282.8688,477.1
282.9036,17.3
283.0135,18.6
283.0281,1232.9
283.2252,253.1
283.2635,580.9
283.2881,429.9
283.3013,134.1
283.387,463
283.4066,139.3
283.4293,20.2
283.4491,379.2
283.4663,132.8
283.4762,460.4
283.4921,21.2
283.5841,344.5
283.6274,678.8
283.653,652.1
283.6707,722.6
283.6932,182.3
283.743,226.7
284.0311,22.3
284.0537,25.1
284.0632,144.9
284.2357,100.6
284.4722,25.9
284.9955,471.5
285.0224,263.7
285.04,176.8
285.096,115.7
285.2037,120.8
285.3639,508.8
285.3896,321.3
285.4518,111.1
285.4972,116.3
285.5111,249.1
285.5183,100.3
285.6833,653.1
285.7735,474.6
285.9002,319.6
285.915,195.8
285.9189,148.2
285.9682,844
286.0039,549.7
286.0199,233.9
286.0966,50.3
286.2468,116
286.5436,162.4
286.5579,179.8
286.6477,113.3
286.6705,94.1
286.7003,18.1
286.713,104.5
286.736,365.9
286.7717,980.9
286.9521,14032.9
286.982,139.8
286.9983,64
287.0141,209.4
287.0555,41459.7
287.1185,535.6
287.1993,123.2
287.2183,20.1
287.3926,259.8
287.4298,414.3
287.4558,177.5
287.5349,26.6
287.5458,279.7
287.6497,287.2
287.6568,489.8
287.6611,767.6
287.8803,101.7
287.9276,89.1
288.0279,524.3
288.0585,2442.5
288.0847,361.6
288.0901,162.2
288.095,132.5
288.1558,29676.1
288.3167,153.4
288.3589,19.7
288.3922,127.2
288.4384,159.7
288.5411,18.9
288.732,282.1
288.7689,3014.9
288.8117,114.9
288.8369,1610.7
288.8482,4775.4
288.8538,2819
288.86,4070.8
288.8657,7466.4
288.8695,8856
288.8755,8422.4
288.8848,16187.4
288.8929,18932.9
288.899,18803.3
288.9028,18184.2
288.911,19189.1
288.9206,14769.3
288.9245,15704.6
288.9298,12301.7
288.9334,13285.9
288.9412,15102
288.9539,7507.3
288.9609,5666.4
288.9699,2035.6
288.9764,320.4
288.9781,287.3
288.9831,86.1
288.9876,21.1
288.9978,543.3
289.0388,811.4
289.159,470.5
289.2369,87.5
289.2635,139.1
289.3545,133
289.3723,171
289.411,372.9
289.4559,156.5
289.5152,133.7
289.5321,127.9
289.5478,37.9
289.5848,212.9
289.6507,141.2
289.7583,125.6
289.9181,111.5
289.9223,94.1
290.1006,67
290.1461,552.5
290.264,133.5
290.2816,166.1
290.3041,570.7
290.3569,216.8
290.3936,90.2
290.5438,170.6
290.5927,105
290.7612,485.3
290.7663,950.5
290.7773,351.7
290.8185,488.9
290.9956,19.4
291.0272,2158.5
291.2514,178.2
291.2578,545.1
291.3823,80.4
291.3833,79.6
291.6186,121
291.6552,86.1
291.9839,366.2
292.0798,179.1
292.1027,317.1
292.1092,781.7
292.2396,23.4
292.2488,105.5
292.3276,110.1
292.4455,24.5
292.4511,375.7
292.5094,105.7
292.5263,179
292.6218,19.4
292.6337,147.6
292.7268,514.8
292.7343,89.9
292.7635,388.4
292.8972,3598.3
292.9213,292.5
293.0045,532.1
293.0258,134.4
293.0511,20
293.0725,1874.5
293.0985,635725.6
293.1792,3022.7
293.1883,21.1
293.6471,650.6
293.655,416.2
293.6932,137.1
293.725,20.3
293.7981,140.2
293.825,536.3
293.9852,309.7
294.0955,1931.4
294.1018,57760.5
294.1244,478.2
294.1531,148.1
294.1659,510.9
294.2865,76
294.3613,164.1
294.6178,115.4
294.7124,116.8
294.7168,355.5
294.8162,151.7
294.8636,315.1
294.8949,531.8
294.9907,555.6
295.0308,1021.6
295.0953,104.3
295.1026,4995.7
295.1949,25556.6
295.2193,308.7
295.492,172.9
295.5742,505
295.6459,249.6
295.7188,475.4
295.934,345.1
295.9981,523
296.0098,1950.9
296.0618,103.6
296.0956,171.5
296.1438,156.7
296.1982,1932.6
296.3412,320.3
296.407,126.3
296.4296,520.6
296.4465,109.4
296.6707,168.8
296.8007,418.9
296.8118,118.8
296.937,998
296.9877,275.6
296.9944,471.1
297.0243,21.8
297.0381,130.2
297.0542,136.4
297.0734,338.8
297.0948,254.3
297.1479,265.2
297.1658,627.5
297.2642,332.6
297.4239,240.2
297.9262,80.9
297.9652,365.1
298.0137,177.4
298.0254,1913.1
298.0425,16697.6
298.1721,103.7
298.2023,519
298.2629,151.3
298.4066,82.4
298.5319,92.5
298.5589,158
298.6727,173.1
298.798,1240.4
298.9591,127.9
298.9674,198.1
298.9865,238.9
299.0231,1455.2
299.0455,1240.5
299.0527,144.9
299.1164,249.5
299.135,243
299.1394,3719.6
299.1628,18.9
299.3118,183.9
299.3472,119.2
299.354,301
299.3626,336.6
299.4347,481.3
299.5174,534.1
299.539,328.5
299.5947,121.7
299.6459,81
299.7112,21.8
299.763,325.6
299.8711,259.2
299.8834,273.3
299.8934,217.4
300.0053,678.9
300.0385,232.9
300.0491,40.3
300.0755,486.4
300.1106,17.2
300.1954,149.8
300.2666,215
300.2838,239.7
300.3245,191.8
300.4789,89.7
300.5752,399.6
300.6399,239.2
300.666,268.3
300.8921,429
300.921,22.5
301.0388,16392.3
301.0639,230.9
301.0792,32
301.1012,328.9
301.1072,644.1
301.1414,251.6
301.1585,308.3
301.1608,637.5
301.1631,599.9
301.212,1722.3
301.2254,781.6
301.3294,720.7
301.6683,84
301.8124,149.1
301.8936,162.7
301.9695,114.8
302.0203,242.5
302.0353,83.5
302.0426,306.1
302.0642,5725.2
302.0749,22.3
302.1023,146.6
302.1747,100.3
302.3188,287.8
302.3501,18
302.4557,105.6
302.6125,105.4
302.6213,544.6
302.6533,558.3
302.6638,602.8
302.674,270.4
302.6809,106.3
302.7305,283.3
302.8298,3153.2
302.8501,344.5
302.9261,1969.7
302.9397,482.5
303.0086,536.7
303.0174,252.2
303.0244,488.5
303.06,20.1
303.0675,525.5
303.0997,270.4
303.134,21.5
303.2178,989.6
303.2247,157.4
303.2747,572.8
303.371,102.9
303.5658,398.8
303.8543,96.8
303.9707,668.1
303.9919,888.6
304.0599,200.7
304.0918,932.5
304.1864,358.5
304.202,333.6
304.2141,621.9
304.3703,516
304.3841,368
304.4489,123.8
304.6385,177.2
304.733,642.7
304.7566,20.3
304.775,270.2
304.7819,75.2
304.827,1024.5
304.9232,159.9
304.9756,2134.1
305.0828,286.2
305.1066,333
305.1803,260.1
305.2671,277.9
305.2758,234.2
305.2914,116.1
305.3904,529.4
305.4309,19.5
305.5729,490
305.5952,281.4
305.6376,311.4
305.6732,229.5
305.84,21.8
305.8582,21.8
305.8641,176.5
305.8883,243.7
305.9551,97.7
305.9712,153.3
306.0955,129.6
306.1207,399.4
306.1288,436.4
306.2075,128.2
306.4018,117.7
306.4574,484.3
306.4791,19.9
306.664,168.4
306.7241,102
306.7743,225.2
306.8298,321.9
306.8919,126.2
306.9536,612.4
306.9733,512.2
306.9774,3189.4
307.0756,111.5
307.2512,931.9
307.5458,436.9
307.7267,330.4
307.7632,113.5
307.8417,150.3
307.9578,473.5
307.9899,331.8
308.1076,18.3
308.1625,473.9
308.2299,21.7
308.3171,128.3
308.3543,102.4
308.4775,255.4
308.4978,170.2
308.6157,96.6
308.6934,256.8
308.8368,479.1
308.8791,5695.2
308.934,100.4
308.9835,350.5
309.0065,493.4
309.0374,4103.9
309.1764,270.7
309.2623,571.5
309.279,520.8
309.3774,97.5
309.47,81.4
309.6187,599.7
309.7043,102.8
309.8439,137.4
309.8921,405.9
309.9167,323.5
309.9352,243.4
309.9894,155.1
310.0233,242.8
310.0643,410.9
310.0783,22.4
310.0981,18.3
310.1848,147.9
310.2395,18.7
310.2559,256.3
310.2683,554.2
310.4097,17.9
310.4205,512
310.5328,709.4
310.6662,128.2
310.8765,3636
310.9587,19.1
311.0033,273.4
311.0097,18.2
311.15,264.9
311.2282,101
311.2358,783.2
311.2951,1733
311.314,419.6
311.3807,365
311.5146,727.4
311.5625,126.8
311.6365,369.3
311.6464,168.7
311.7492,177.6
311.7856,18.1
311.7909,325.2
311.8644,328
311.9043,387.3
311.9676,289.2
312.0021,127.4
312.0412,1347.9
312.0727,78.8
312.1749,149.7
312.2571,19.2
312.3638,270.1
312.6785,60.6
312.7624,257.5
312.7831,245.8
312.8611,24
312.8732,949.7
312.9031,258.4
312.9533,505.7
313.0023,196.5
313.0147,417.4
313.0308,118
313.0433,129
313.0684,267.2
313.0767,29.4
313.1111,18.9
313.2743,38941.9
313.2883,18.6
313.325,124.9
313.4181,90.7
313.4996,575.9
313.608,672.2
313.7996,475.8
313.9397,295.5
313.9996,1489.1
314.0149,375.3
314.0912,142.1
314.2561,323.6
314.2775,4408.3
314.4053,470.4
314.4178,19.2
314.7205,574.4
314.78,1112.7
314.7974,401.6
314.8371,5354.7
314.8847,718.3
314.9016,89.7
314.9993,6090.6
315.0043,4286.9
315.039,159.8
315.0431,547.2
315.0495,2152.9
315.0555,10335.2
315.0598,3620.3
315.0619,5235.5
315.064,5242.9
315.0669,20771.1
315.0698,30695.6
315.0735,24337.5
315.0804,7716672.5
315.0871,25425.9
315.0898,16224.5
315.0922,11279.8
315.0945,7671.9
315.0967,7388.2
315.0986,5012.9
315.1008,3631.2
315.103,2632.6
315.1052,2367.3
315.1072,2982.8
315.1092,2066.6
315.1115,889.7
315.1132,810.4
315.1154,287.2
315.1283,305.4
315.1302,227.5
315.1394,86.1
315.141,106.2
315.1614,5810.2
315.1859,429.7
315.324,6250.2
315.3704,361.5
315.3895,286.3
315.42,472.1
315.4867,746.8
315.5068,83.6
315.6135,118.5
315.6196,632.2
315.7078,383.2
315.7629,297.3
315.8787,334.7
315.9754,262.9
315.9831,117.2
316.0293,450.9
316.053,77.3
316.0688,1980.8
316.0777,43050.8
316.0837,807501
316.1155,312.4
316.1486,19.2
316.2409,301.4
316.2529,162.8
316.3243,128
316.4056,86.6
316.422,172.7
316.4464,394
316.4718,514.8
316.5518,405.9
316.6085,19.7
316.6314,766.3
316.7006,97.6
316.7945,333.3
316.8139,171.8
316.934,241
316.957,39
316.9874,659.6
317.0565,535.5
317.0655,2990.7
317.0842,90731.7
317.0882,18197.1
317.3896,132.7
317.4844,215
317.8771,473.2
317.8784,516.1
317.9418,343.7
317.9814,296.9
318.0006,152.3
318.0877,9594.9
318.5759,346.8
318.6067,568.1
318.6199,21.5
318.8035,2724.8
318.9084,1131.7
318.9846,553.8
319.1754,216.8
319.1949,42588
319.28,19.6
319.4348,17.4
319.6617,557.4
319.8829,121.7
320.0344,291.3
320.075,238.1
320.1317,450.5
320.1981,4711.4
320.2589,1310.7
320.2832,133.6
320.3688,76
320.4768,751.3
320.6185,128.8
320.6822,131.8
320.7212,21
320.8008,387.9
320.8257,36
320.9497,330.1
321.1311,362.2
321.2106,42894.8
321.2257,226.4
321.2622,77.1
321.3795,192.7
321.6153,238.9
321.6812,285
321.7124,164.6
321.728,113.2
322.0091,225.7
322.214,5776.5
322.476,292.7
322.5299,595.6
322.7437,169
322.8451,453
322.8871,987.5
322.9052,319.8
322.9313,403.5
323.0207,7870.3
323.1804,19.8
323.2261,5315.5
323.2704,183.2
323.3549,508.1
323.5888,309.1
323.8269,130.3
323.8398,271.3
323.9432,435.3
323.9773,18.3
324.0033,181.6
324.0056,153.9
324.1579,125.3
324.23,157.9
324.2458,494
324.341,21.4
324.3965,120.2
324.4503,19
324.4681,118.5
324.569,2844.3
324.5748,3386.1
324.5898,3760.8
324.6034,662.3
324.8235,209.8
324.8534,3256.8
324.8624,171.7
324.8792,528.8
324.9202,1462.3
325.0365,681.9
325.2038,349.8
325.2125,1998.3
325.2169,667
325.2904,320.8
325.4589,693.7
325.4756,391.3
325.4845,618.7
325.5563,221.4
325.5656,159.6
325.8055,307.4
326.0045,34.2
326.0941,108.6
326.1085,99.1
326.2208,128.4
326.6051,307.6
326.7501,92
326.8502,4566.4
326.9792,284.7
326.9813,297.7
327.0159,5878.2
327.0519,2041.5
327.2176,550.2
327.2276,6197.2
327.578,19
327.6826,159.3
327.7019,223.7
327.7334,126.1
327.7708,169.8
327.7854,97.2
327.8241,493.5
327.8702,164.9
327.8772,19.7
327.9172,496.9
328.0147,666.6
328.0588,18
328.1522,335.4
328.2301,577.2
328.2654,93.5
328.2904,705.3
328.3168,267.3
328.3237,173.2
328.3852,457.7
328.4024,399
328.4187,105.3
328.4988,87.6
328.5884,429.1
328.8656,321.8
328.9508,164.4
329.0272,18.4
329.0728,547.5
329.0962,2248
329.1479,186.9
329.5488,543.1
329.6484,352.9
329.8552,236.2
329.9736,729.2
329.9904,108.3
330.0592,170.1
330.3831,236.3
330.4433,498.4
330.7533,428.9
330.7579,640.4
330.867,18.5
330.909,19.6
330.9544,323.1
330.9783,690.6
330.9886,26
331.0034,227.4
331.0199,1123.8
331.0369,237.6
331.0456,155334.9
331.0543,1238608.9
331.1194,439.5
331.2613,351
331.3156,221.9
331.3368,171.2
331.3529,123.8
331.4145,245.1
331.5324,137.8
331.74,38.9
332.0484,11134.3
332.0577,113935.1
332.083,291
332.1373,404.7
332.2887,632
332.44,167.5
332.4534,123.4
332.5302,401.5
332.562,191.6
332.6616,19.7
332.6744,113.8
332.8405,550.4
332.9591,115.2
333.0525,71960.5
333.0581,12239.5
333.0796,23
333.0866,314.9
333.1048,511.6
333.1141,19
333.2043,121.2
333.3288,20.4
333.4794,33.3
333.5467,579.5
333.5835,310.5
333.617,376.8
333.7268,21.6
333.8255,500.3
333.8702,78.7
334.0197,617.7
334.0558,5700.9
334.0904,109.7
334.295,190.8
334.4227,187.1
334.4346,20.2
334.4539,337.9
334.5001,97.8
334.7639,769.8
334.8221,630
334.8734,122.7
335.0383,915.1
335.5818,454.3
335.6035,22.2
335.6478,167.2
335.7171,118.3
335.851,322.5
335.8779,304.5
336.0234,18.1
336.043,117
336.2335,322.8
336.5707,457
336.7171,676.3
336.7226,513.7
336.7513,220.4
336.8637,272.2
336.9403,101.2
336.9794,743.3
337.0134,234
337.0365,6685.1
337.05,22969.6
337.0623,629374.4
337.1022,477.4
337.2017,124.5
337.2123,387.3
337.2743,7569
337.3456,173.9
337.5773,854.3
337.756,132.6
337.7873,161.3
337.7967,19.7
337.9545,36.8
338.0535,189.3
338.0657,60431.4
338.0773,777.8
338.1989,447.4
338.3416,34.3
338.507,20.2
338.5305,443.7
338.6263,38.5
338.6587,847.9
338.767,141.8
338.7867,351.6
338.9212,1012.4
338.9436,160.4
339.0385,2478.4
339.0476,1108.9
339.066,5746.2
339.0843,190.4
339.2506,1714.1
339.2899,4520.7
339.2981,131.8
339.7574,504.9
340.0512,343.8
340.07,128.6
340.0866,147.5
340.1467,241.3
340.2422,17.7
340.3242,294.4
340.3449,333.9
340.4858,167.4
340.5717,589.5
340.6077,17.2
340.6174,241.1
340.7825,568.3
340.8268,536.1
341.0181,88.4
341.1363,18.4
341.3054,4093.1
341.3988,258.1
341.7662,405.2
341.7885,216
341.8516,88.6
341.9482,158.7
342.0035,276.1
342.0156,27
342.0689,22
342.2277,216.1
342.3546,222.6
342.7508,249.8
342.7859,662.5
342.8687,571.4
342.9897,1966.5
343.112,122.6
343.195,12986.8
343.3222,16.7
343.3568,121.5
343.4121,18.9
343.4216,740.3
343.4602,19.3
343.7259,149.9
343.7996,19.8
343.9113,313.1
344.0823,422.4
344.1981,478.5
344.3736,303.1
344.398,492.4
344.5109,162.4
344.6401,546.6
344.6648,128.9
344.8238,102.5
344.8392,303.4
344.936,16.8
344.9383,16.9
345.054,777
345.0683,129.6
345.1791,166.9
345.2024,580.1
345.2105,3117.3
345.3297,722.7
345.635,560.1
345.8716,741.3
345.9841,1361
346.0091,40.7
346.0249,656.7
346.0471,100.2
346.085,21.7
346.2346,82.7
346.2536,106.3
346.3285,529.3
346.4657,121.7
347.0033,18.1
347.1413,39.2
347.3974,158.6
347.6059,506.1
348.0431,101.3
348.1114,664.7
348.1407,736.9
348.1747,301.9
348.5411,102.3
348.6444,119.5
348.688,163.9
349.0137,159.9
349.0982,21.1
349.1132,322.2
349.1266,19.2
349.1747,208.1
349.2897,521.9
349.3744,127.4
349.3762,127.1
349.6337,392.1
349.7394,21
349.7633,133.5
349.8379,248.8
349.8519,116.3
350.0061,18.2
350.0188,1114.2
350.0376,490.5
350.1434,143.7
350.5252,133.9
350.8865,904.1
351.1925,21.8
351.568,205.1
351.8851,147.5
351.9397,32.2
351.9969,309.6
352.01,133.9
352.0159,607.4
352.0712,102.5
352.1086,810.8
352.2236,20.7
352.3592,612
352.3811,79
352.3888,100.9
352.4511,868.7
352.5526,467.1
352.6703,23.6
352.8051,524
352.899,788.3
352.9867,225.6
352.995,448.3
353.0274,141059.3
353.0363,202418.2
353.0711,710
353.2289,263.4
353.4801,149
353.8527,110.3
353.8771,320
354.0306,12306.2
354.0396,19298.2
354.2253,100.4
354.477,170.7
354.4966,565.2
354.5289,324
354.6581,357.5
354.7305,263.6
355.012,2131.7
355.0202,78.4
355.0345,12757.2
355.0704,515.9
355.1155,21.8
355.1371,451.3
355.2154,533.5
355.3001,141.7
355.4474,144.9
356.0155,116.1
356.0237,270.9
356.0671,679
356.1722,458.5
356.3975,185.7
356.4261,283.6
356.4902,283.4
356.5219,123.4
356.7713,213
356.8549,96.6
356.9901,302
357.0089,1069.3
357.0195,180
357.0469,929.2
357.1339,341.8
357.1797,128.2
357.2988,617.8
357.315,134.1
357.5158,441.2
357.5844,430.7
357.5909,544
357.6082,506.6
357.6473,231.9
357.7091,659.8
357.8871,479.2
357.9015,592.1
357.9787,53.9
358.01,171.2
358.0821,325.6
358.2056,112.1
358.6209,352.7
358.706,110.1
358.7534,853.5
358.7725,294
358.9478,220.5
359.0066,990.9
359.0318,13031.8
359.0443,321576.5
359.1621,146.3
359.3224,25.2
359.3797,128
359.5404,220.6
359.5717,602.4
359.5736,605.1
359.5781,524.8
359.5898,1321.6
359.5939,1029.2
359.6146,1422.3
359.6332,168.2
359.6514,862.5
359.6613,1179
359.6676,21.9
359.6734,154.2
359.6915,348.4
359.6976,149.8
359.7128,639.8
359.7261,292.2
359.7325,612.7
360.0097,19.4
360.0331,158.6
360.0477,29137.4
360.1308,155.7
360.1696,19.9
360.2334,257.5
360.3243,417.8
360.5133,345.7
360.6295,136.3
360.8392,585.8
360.9077,20.2
360.9907,88
361.0203,3522.7
361.0487,792.9
361.067,201.8
361.2283,262.5
361.274,562.9
361.3237,143.5
361.6195,19.3
361.6399,173.6
361.8182,22.1
361.8725,498.9
361.9443,539.3
362.0146,21.1
362.0305,22.8
362.0534,515.8
362.2597,597.3
362.3366,355.1
362.8424,341.8
362.927,2253.1
362.9347,383.4
363.0142,37
363.0717,74.2
363.1852,601
363.3321,78.8
363.3971,103.1
363.4338,324.2
363.6297,41.6
363.7958,122.2
364.0653,104.8
364.1704,726.3
364.3539,76.4
364.8814,491.8
364.9115,136.3
364.9549,215
365.0183,499.1
365.0671,104
365.0841,112.8
365.106,1037.6
365.2026,835.9
365.3829,163.2
365.4048,552.1
365.5269,762.4
365.6022,248.8
365.6643,540.9
365.8098,692.8
365.8522,142
365.8964,222.3
366.1404,374.6
366.2818,455.8
366.3126,91
366.4166,127.6
366.4313,180.6
366.5653,745.7
366.6781,227.8
366.7253,546.1
366.8102,333.3
366.8191,83.2
366.8375,408.7
366.8729,375.5
367.1218,805.7
367.3544,92.6
367.3822,580.5
367.5853,194.7
367.6216,488.1
367.7753,20.3
367.8225,522.9
367.8534,555.3
367.8702,19.8
367.9926,21.6
368.0126,560
368.0982,157.3
368.1076,642.4
368.1575,32.2
368.2736,229.1
368.4263,22.4
368.6348,119.2
368.6713,582
368.7708,34.6
368.8729,654.2
368.9922,2700.3
369.0013,18483.5
369.0103,9247.8
369.0424,123.8
369.0638,628.6
369.0942,178.3
369.2078,512.8
369.3129,95.4
369.3522,309.4
369.5168,171.1
369.5503,461.5
369.5795,174.4
369.621,264.7
369.6642,488.4
369.6847,351.9
369.7029,146.2
369.8223,120.7
369.9082,488.3
369.999,253.5
370.0146,239.9
370.1027,172.3
370.198,103.7
370.4122,289.8
370.4897,431.3
370.5002,20.4
370.5828,165.1
370.8899,110.1
371.0004,203.2
371.0423,581.5
371.1002,19.6
371.6439,413.4
371.7178,193.4
371.7299,627.3
371.7668,222.4
372.1014,128
372.458,32.1
372.5247,169.2
372.7038,164.8
372.9135,21.1
372.958,182.6
373.2702,135.3
373.3037,685.3
373.384,93.5
373.4252,18
373.6048,569.5
373.7239,625.4
373.9391,519.9
373.9961,21.5
374.349,206.4
374.4865,535.5
374.5044,526.7
374.6201,194
374.6295,18.8
374.6574,145.6
374.687,19.9
374.7364,466.3
374.8237,254.5
374.9086,357.9
374.9461,19.1
374.9972,345.2
375.0094,118493.4
375.0183,105159.5
375.1049,139.5
375.1362,460.4
375.2592,170.8
375.3171,196.3
375.384,133
375.4137,127.2
375.6045,252.1
375.7375,637.9
375.7848,101.6
375.9567,146.2
376.0125,8306.5
376.0217,9286.8
376.0756,162.2
376.1709,523.3
376.2433,178.3
376.3578,198.7
376.3863,528.3
376.441,388.2
376.4479,2034.7
376.5688,531.4
376.6322,283.8
376.6547,574.2
376.6684,533.5
376.6891,92.6
376.8642,170.3
376.9832,108.3
376.9942,1583.1
377.0166,6513.1
377.0869,384.3
377.1069,120.3
377.1506,184.3
377.2487,20.9
377.2879,145.2
377.3816,473.6
377.4699,612
377.716,815.6
377.8147,19.9
377.8212,216
377.8363,223.5
378.0488,497.9
378.3348,341.7
378.3778,33
378.4612,328.7
378.5235,777
378.6081,462.5
378.6998,17.2
378.9005,947.7
378.9907,40.6
379.0102,528.8
379.0246,304.8
379.4708,101
379.4968,170.8
379.5235,139.4
379.5684,87.9
379.7444,160.9
379.7786,91.9
379.9003,454.9
379.9152,688.8
379.9647,309.5
380.0458,331.9
380.1633,96.8
380.2845,749
380.3634,439.4
380.4613,17.9
380.6306,18.9
380.7706,643.9
380.8915,563.9
380.9437,167
380.9897,42.2
381.0139,19247.6
381.0263,174679.5
381.0472,484.8
381.2204,547.9
381.3468,96.4
381.4846,19
381.5956,554.8
381.6265,267.2
381.7026,551.5
381.7145,331.3
381.8371,133.2
381.9004,630.3
382.0125,534.9
382.0295,16291.9
382.1822,119.8
382.2709,464.3
382.4613,122.7
382.4941,233.7
382.6579,514
382.6879,140
382.7599,331.4
382.7673,1076.4
382.8978,258.2
383.0115,534
383.1166,403582.2
383.2402,161.9
383.3517,224.5
383.413,133
383.4517,209.6
383.5215,153
383.6959,145.1
383.9127,159.5
383.9667,470
384.1199,49031
384.2086,239.4
384.2412,330.2
384.2837,124.8
384.4638,250.8
384.6416,552.3
384.7647,645.2
384.781,103.5
385.0463,92.1
385.1202,4557.3
385.2232,207.1
385.2563,21.8
385.4533,224.1
385.6837,18.8
385.7437,220.5
385.7902,148.2
385.9927,121.6
386.0087,470.9
386.1357,209.9
386.1786,138.7
386.1947,435.2
386.217,317.9
386.2715,273.3
386.3085,18.5
386.3317,20.1
386.7468,218.6
386.9908,119.4
387.0032,1364.9
387.0124,104.1
387.2885,109.8
387.3448,129.2
387.3714,240.4
387.4301,20.4
387.6217,399.6
387.6502,430
387.7288,133
387.9386,129
388.3029,149.3
388.37,718.1
388.7034,851.6
388.8261,144.6
388.8393,124.5
388.8662,24.3
388.8831,490.7
388.9304,161.7
388.9945,99.9
389.104,161.6
389.173,289.6
389.3443,569.3
389.5423,329
389.6449,149.1
389.7156,300.6
389.8053,218.4
389.834,240.6
389.9735,795
389.9945,34.9
390.1828,233
390.3751,149.6
390.5537,474.5
390.7998,1441.5
390.8318,714.6
390.8462,220.6
390.9274,779.7
390.9743,12366.8
390.9833,20478.9
390.9922,11974.5
391.1,562.2
391.138,407.1
391.5063,20.3
391.6099,18.4
391.6421,443.7
391.6628,18.5
391.6716,456.3
391.7451,557.1
391.9769,603
391.996,201.9
392.1175,79.6
392.177,22.2
392.3141,401.9
392.4001,126
392.5351,354.3
392.5694,19.8
392.6953,494.7
392.7961,2140.1
392.8319,160.5
392.908,688.3
392.9592,39.9
393.0698,192.8
393.0982,282.7
393.1764,248.2
393.317,238.9
393.5802,426.8
393.6751,264.6
393.8994,33.6
393.9708,179.8
394.1329,443
394.1555,191.6
394.3675,41.6
394.5888,129.6
394.7872,123.7
394.8145,506.9
394.8377,105.1
394.8552,245.7
394.9295,74
395.0038,1095.2
395.1304,618.8
395.5155,537.6
395.5455,95.1
395.9442,866.5
395.9526,115.9
396.2393,353.8
396.3262,955.3
396.3393,543.6
396.3812,165.7
396.7437,905.1
396.8376,102.1
396.9914,157335.5
397.0002,56350.7
397.5416,359.4
397.7992,33.5
397.8461,131.2
397.9945,12528.7
398.0031,3105.8
398.242,5637.6
398.3228,114
398.3414,278.8
398.4583,103.8
398.5842,18.4
398.7414,2205.8
398.7631,1787.1
398.8985,674.7
398.9755,24.4
398.9962,1491.5
399.2347,128.1
399.3684,204.7
399.6106,660.7
399.6276,469.5
399.8554,165.7
400.0021,503
400.0433,123
400.1271,162.7
400.319,19.6
400.6525,637.4
400.7387,1752
400.7643,19.9
400.8273,1274.5
400.89,221.2
400.9844,797.6
401.2392,362
401.6902,318.1
401.731,170.7
401.9105,123
402.0264,349.3
402.1971,128.4
402.2763,147.7
402.3045,280.1
402.6995,596.1
402.7728,293.8
403.0082,234815.9
403.0599,18.7
403.0846,22.9
403.1777,480.5
403.2823,267
403.3488,23
403.7104,395.7
404.0116,19206.3
404.2501,298.6
404.3552,104.7
404.3911,35.4
404.433,228.1
404.5153,19
404.8953,131.2
404.9196,19.9
405.0119,1325
405.1904,568.6
405.3483,439.8
405.3603,324.7
405.5915,17.7
405.7616,144.2
405.7706,478.4
405.7928,653.9
405.9403,110.8
405.9479,254.3
406.0207,998.3
406.0706,641
406.3085,435.7
406.3292,2268.2
406.38,179.2
406.7735,1252.9
406.9483,505.7
406.9647,209.2
406.999,439.9
407.1412,489.2
407.2732,703.9
407.3113,201.1
407.333,368.5
407.4487,202.8
407.4752,259.9
407.4956,17.7
407.5069,645.2
407.6522,342.9
407.9012,432.4
408.0225,398.8
408.0611,19.8
408.2591,545.3
408.3666,78.6
408.7705,3314
408.9715,466.9
408.9851,3109
409.3415,20.6
409.5986,514.5
409.6454,420.9
409.8834,400.6
409.9314,285.9
410.0656,17.8
410.1269,121.5
410.2876,198.3
410.378,359
410.5424,282.6
410.7202,362.4
410.7673,465.7
410.8567,1056.6
410.8992,83.4
410.9124,605.4
411.0599,72.3
411.0791,230.9
411.2049,288.2
411.2799,719.7
411.2961,275.4
411.3228,269.6
411.46,21.5
411.5095,275.1
411.5778,568.9
411.5893,356.5
411.7349,527.3
411.8033,162.6
411.8971,571
412.0904,106.2
412.2201,131.6
412.3212,1715.5
412.3505,545.3
412.3959,100.8
412.5379,228.2
412.5751,154.4
412.7171,394.8
412.8169,458.4
412.9266,123.5
412.9527,24.3
412.9653,27498.1
412.974,10240.1
413.0025,427.6
413.0387,18.7
413.0771,19.1
413.2292,306.8
413.2669,3043.1
413.3246,176.4
413.8867,19.5
413.921,213.1
413.9688,448.8
414.2068,120.1
414.231,135.1
414.2555,493.8
414.2699,441.1
414.3136,365.2
414.3592,278.3
414.4128,75.5
414.4559,659.1
414.6694,338.6
414.7031,177.1
414.7242,70
414.7546,786.2
414.8547,596
414.9012,437.8
414.9892,248.7
414.9978,1818.5
415.0173,34.1
415.0372,23.6
415.153,940.7
415.2086,189.1
415.2823,125.8
415.3783,108.3
415.6551,18.9
415.7341,140
416.1355,14109.4
416.2144,26993
416.7053,288.3
416.7144,384.8
416.8027,746.1
416.8353,102.8
417.1205,335
417.1501,514.6
417.2178,2181.2
417.5032,92.2
417.7126,290
417.9271,525.2
417.9402,474.6
418.0287,407.1
418.0759,111.5
418.7587,203.3
418.9194,313.2
418.9822,86038.1
419.0422,322.3
419.2269,164
419.2569,434.6
419.2981,273.1
419.3473,17.2
419.4754,21.6
419.7741,118.4
419.9853,4673.2
420.1038,217.2
420.1367,20.2
420.2739,192.7
420.4887,21.5
420.8862,1021.5
420.9574,1151.4
420.9802,4344.6
421.6858,243.8
421.8459,157.2
421.8558,128.4
422.0031,402.8
422.0912,168.6
422.1828,463.3
422.3538,258.9
422.5223,247.7
422.7976,108.3
422.8942,159.8
422.954,514.4
423.2596,23.1
423.3617,156.5
424.1335,115.9
424.3252,174.4
424.3794,115.7
424.5601,470.9
424.6556,450.6
424.7364,448.2
424.9367,74.5
424.9884,18.3
425.0061,130
425.0296,184.1
425.0478,194
425.1467,20.4
425.1882,111.4
425.3503,600.6
425.4763,29.4
425.6734,495.4
425.8923,303.5
425.9966,826.4
426.0871,158.3
426.2351,350.7
426.2692,363
426.7209,154.7
426.7415,19.9
426.8105,528.3
426.8303,823.6
427.1529,239.2
427.2564,500.9
427.6745,292.4
427.7195,116.6
427.8923,465.5
428.6916,216.6
428.8824,450.1
428.9186,542.9
428.9393,4003.6
428.9509,305.6
428.9539,311
428.9628,281
428.9725,353.7
429.016,271.3
429.0269,17.9
429.057,290.8
429.0893,318.6
429.2094,464.5
429.2221,180
429.2407,25.5
429.6043,18.7
429.9173,214.4
430.0885,72.5
430.1835,19
430.2222,758.4
430.2825,219.2
430.3701,299.7
430.638,170
430.72,297.5
430.7399,97.9
430.7708,581.3
430.875,242.7
430.9141,1822.7
431.2167,1305.4
431.2793,94
431.3171,23
431.7507,117.4
432.4149,96.9
432.8844,105
433.0581,18.5
433.132,184.7
433.2105,475.3
433.2648,21.2
433.3186,319.5
434.1648,143.3
434.2255,137.6
434.4036,253.2
434.4829,120
434.7732,337.8
434.8545,33.8
434.9562,14225.3
435.3889,232.2
435.6721,401.4
436.1257,231.2
436.2465,185.7
436.338,482.3
436.4047,578
436.4088,577.3
436.4142,478.1
436.5588,250.3
436.6857,177.3
436.9542,1027.4
437.0275,501.8
437.0742,462
437.108,449.1
437.4061,307
437.4634,487.1
437.6305,19.5
437.6766,130.4
438.058,17.6
438.2972,233.7
438.7356,22.3
438.8168,354.2
438.9721,3307.9
438.9851,2621.7
439.0162,309.9
439.0624,81.2
439.2039,322.9
439.6654,194.9
439.7274,345.4
439.9656,21.7
439.9742,351.1
440.2391,139.8
440.375,348.4
440.4255,519.4
440.521,266.6
440.5353,19.5
440.7254,442.9
440.9692,846.2
440.9831,533
440.9891,640.1
441.066,20
441.2701,315.6
441.2982,344.4
441.3472,130.5
441.5787,248.1
441.7334,18.9
441.9056,126.3
441.9717,580.3
442.2554,153.3
442.3031,54.8
442.3235,622.7
442.723,1020.1
442.8052,149
442.8197,715.1
443.2235,358.3
443.3284,669.4
443.4151,168.4
443.4675,371.7
443.5277,443.9
443.5311,447.1
443.5434,187.7
443.918,160.7
444.1722,328.1
444.294,135.7
444.7821,198.1
444.8432,493.1
445.27,749
445.2935,267.6
445.469,79.7
445.8176,331.8
445.9252,211.2
446.3542,22.7
446.6717,366.8
446.7601,111.2
446.8285,120
446.8882,1237.8
447.149,114.1
447.2419,244.4
447.5569,225.5
447.6563,644.5
447.9143,105.7
447.9613,278.9
448.0453,16.9
448.0651,224.1
448.0965,780.9
448.1548,18
448.3878,331.3
448.4245,824.5
448.6119,19.1
448.9331,4256.3
449.1089,89.8
449.1414,20.1
449.1545,2122.6
449.2289,498
449.2808,157.6
449.2958,459.7
449.3598,474.2
449.4999,280.6
449.519,600.8
449.5293,182.8
449.5802,480.6
449.9294,19
450.0632,19.1
450.158,404.8
450.2765,186.6
450.4339,176.2
450.5383,532.7
450.6766,96.7
450.9044,485.7
450.9226,244.9
450.9305,1185.4
450.9935,502.8
451.1497,89.6
451.3289,505.5
451.698,220.1
451.7304,233.7
452.1746,486.8
452.3907,384.3
452.741,465
452.7958,1414
452.9328,198.3
453.1816,310.8
453.4013,188.6
453.4315,710.9
453.5044,135.5
453.6063,157.3
453.7748,736.1
454.0222,38.7
454.1319,171.7
454.167,132.4
454.1712,140.1
454.3137,165.4
454.5663,272.6
454.8824,577.6
454.9501,35089.5
455.4103,771.6
455.5212,296.7
455.5734,538.7
455.6052,107.2
455.868,544.3
455.9535,741.1
456.2534,165.4
456.348,37.3
456.5324,165.1
456.6985,453.8
456.8413,126.3
456.9004,631.4
456.9473,5581.3
457.0515,18.9
457.2331,14808.3
457.3273,120.7
457.3473,480.9
457.5561,571.6
457.681,176.6
457.7984,175.4
458.1745,261.4
458.2363,2237
458.3089,177.3
458.3716,107.1
458.9615,1222.8
459.2488,354499.6
459.308,178.2
459.5028,19.3
459.8089,24
459.8193,792
459.862,113.9
459.9152,750
459.9747,120.5
460.0157,824.5
460.2521,73044.6
460.484,173.8
460.9669,71339.3
461.0725,101.7
461.2548,5663.4
461.3444,581.7
461.4483,503.2
461.5609,301.7
461.6529,159.4
461.9699,4719.1
462.1374,734.1
462.1865,108.4
462.258,546.8
462.2681,576.2
462.478,123.9
462.9639,17829.2
463.024,225
463.1592,525.7
463.2017,623
463.4979,189.4
463.7557,470.9
463.9672,436
464.0802,151.8
464.2744,571.1
464.7922,112.5
464.9133,633.5
464.9787,7062.3
465.1186,242
465.2508,494.7
465.5185,341.5
465.5312,453.2
465.6738,229
465.8197,312.3
465.9042,323.4
466.0293,261.1
466.2053,425.7
466.4051,585.4
466.7934,639.1
466.8542,104.4
467.148,292.2
467.2123,499.6
467.2352,207.8
467.9839,20.1
468.0714,92.4
468.1521,84.7
468.2881,471.5
468.9049,124.6
469.0021,760.2
469.0979,587.1
469.1454,545.1
469.3298,23.6
469.5687,420.1
469.7229,121.9
469.8727,304.8
469.9175,20.3
469.9721,150.7
470.2735,19.8
470.3868,494.2
470.4018,113.2
470.9238,14834.6
470.9394,142.5
470.9952,3613.6
471.2134,465.1
471.2836,20.4
471.3738,575.1
471.4871,432
471.5916,165.2
471.6275,120.5
471.7891,221.5
471.9961,552.1
472.0375,725
472.1118,474.9
472.3002,434.7
472.6735,319.1
472.8879,1225.1
472.9035,428
472.9221,3051.7
472.9342,31.4
472.9529,717
472.995,206.7
473.1493,145.2
473.265,856.5
473.4995,767.9
473.5523,164
473.5936,738.2
473.6547,418.8
473.976,23.1
474.3174,153.9
474.9408,767.6
474.9764,357.2
475.1579,140.3
475.2226,18009.5
475.2439,513.2
475.4431,94.8
475.7116,551.7
475.7368,188.2
475.8213,161.3
475.8881,475
475.9423,443.1
475.9804,477.5
476.1235,107.9
476.1489,168
476.1654,274.5
476.2262,2837.7
476.3265,109.8
476.3628,167.4
476.3994,584.3
476.4172,537
476.8636,453.7
476.8925,510.6
476.9407,39915.6
477.0816,277.4
477.1446,496.6
477.2095,165.9
477.3164,316.1
477.369,640.6
477.4383,164
477.5665,33
477.9443,3608.2
478.3296,46961.6
478.4606,592
478.697,520.5
478.717,229.3
478.9381,10371.6
479.1308,158.4
479.2124,19.1
479.3045,314.2
479.3329,9429.6
479.4266,170.2
479.5746,291.3
479.7082,747.8
479.9415,417.6
479.9532,20.8
479.9876,123.9
480.1865,129.2
480.3354,659
480.7069,633.6
480.7729,470.3
480.9002,173.9
480.9521,2903.3
481.0914,89.1
481.135,19.6
481.1874,19.2
481.9273,511.9
482.0045,471.9
482.2609,238.2
482.372,256.2
482.6495,18.6
482.7813,236.1
483.138,127.5
483.2487,102960.3
483.536,218.3
483.6113,173.2
483.8574,119.2
483.9965,496.8
484.004,161.6
484.0976,458
484.1579,581.4
484.2149,99.6
484.252,25309.4
484.495,21.7
484.6837,523.4
484.7143,126.4
484.7283,75.8
484.7504,332.8
484.8214,509
485.0382,512.5
485.1602,575.1
485.2644,101155.3
485.317,227.7
485.3861,86.1
485.3987,129.2
485.8184,30.4
485.8464,161.7
486.1343,859.8
486.2398,499.6
486.2676,20668.7
486.7462,102.5
486.8979,1438.6
486.9698,881.7
487.2248,151.1
487.2801,61221.7
487.6097,341.1
487.6394,581.8
487.8301,431.3
487.8484,279.2
488.1744,117.7
488.2833,13524.8
488.78,107.8
488.8076,104.8
488.8942,340.7
488.9509,350.7
489.0695,402.9
489.0858,24.5
489.1958,116.9
489.2872,1784.2
489.3562,846.3
489.4058,155.1
489.4193,217.4
489.4362,333.1
489.4585,778
489.4946,98.8
489.582,316.1
489.5883,722.9
489.6364,145.1
489.7195,136
489.8277,293.3
490.0188,98.5
490.1522,314.3
490.2627,91.1
490.291,4323.8
490.3137,465.9
490.3272,86
490.4927,319.1
490.5539,481.8
490.6071,174.2
490.9503,314
491.0701,149.4
491.0837,293.3
491.3713,1503.5
491.5078,317.5
492.4355,128.8
492.6542,22.2
492.6838,211.5
492.826,95.6
492.8663,145.2
492.9146,7040.6
492.9833,118.8
492.9997,178.6
493.057,533.7
493.1587,108.1
493.3839,581.9
493.7295,577.9
493.9503,455.9
494.1923,250.5
494.2197,407.2
494.2859,953.7
494.3244,6483.5
494.369,389.2
494.9123,2613.8
495.1318,128.3
495.1797,172.1
495.1946,450.6
495.233,149.6
495.3713,507.6
496.0732,197
496.2042,191.6
496.253,29.1
496.3402,340636.1
496.3913,851
496.4263,386.6
496.6873,449.9
496.7206,446
496.8652,190.7
496.9311,774.2
496.9868,22.9
497.1561,309.2
497.259,199.3
497.3435,86312
497.4784,142.4
497.5581,502.6
497.5867,305.4
497.6247,443.5
497.7777,16.8
497.8828,257.4
498.2725,823.5
498.3464,8139.2
498.5033,19.3
498.6997,526.9
498.9277,698
498.978,390.2
499.2226,4268.3
499.5624,224
499.7828,95.9
500.1244,19.8
500.1942,257.6
500.3105,888.8
500.3673,102.2
500.5874,163.4
501.0212,490.4
501.0482,397.9
501.1319,244.8
501.238,6154.4
501.4475,172.5
501.4974,177.4
502.0383,20
502.0949,73.2
502.3295,22637.9
502.3456,730.3
502.3913,706.5
502.5044,49.3
502.9041,200.1
502.9879,795.1
503.0351,175.9
503.1081,65.3
503.1464,255.4
503.2269,304.9
503.254,1967.4
503.282,34.7
503.332,1293.5
503.3968,320.5
503.4479,18.8
503.7317,237.5
503.9672,382.5
504.306,2206
504.345,6447
504.4115,106.2
504.4743,508.3
504.6489,454.5
504.6923,146.7
504.8217,164.8
504.8656,122.1
505.2358,474.6
505.3504,1272.6
505.5781,581.7
505.9325,707.4
505.9996,191.2
506.2247,159.7
506.2331,174.3
506.2371,154.4
506.3607,4901.6
506.6783,16.5
506.8915,3966
507.0914,276.7
507.1801,218.9
507.2488,25133.2
507.3609,117.2
507.5222,252.7
507.6791,161.5
508.252,4330.3
508.3277,280.2
508.3769,729.9
508.595,356.9
508.8789,147.4
508.8891,1159.5
509.0055,4263.8
509.2115,147
509.2644,11656.6
509.7192,310.2
509.7716,156.2
509.8408,683.1
510.0766,257
510.0936,161.8
510.2673,1851.1
510.3563,889.1
510.8989,109.6
511.1253,41.1
511.2076,168.6
511.423,77.2
511.6047,334.1
511.6646,23
511.9417,39.3
512.0341,561.3
512.1401,479.6
512.2668,188.7
512.2724,193.3
512.4052,28.7
512.7209,132.3
512.9086,13344.4
512.9436,21.5
512.954,132.4
513.032,211.7
513.0824,214.7
513.284,769.1
513.5317,253.2
513.8904,18.9
513.9122,382.5
513.9665,23
514.0226,149
514.0868,337.3
514.1426,766.7
514.1684,124.4
514.2808,109.2
514.6576,535.4
514.7434,536.6
514.8387,307.1
514.9059,7137.8
515.0222,1943.1
515.1318,131.1
515.2489,17.2
515.3379,132.3
515.5425,161.4
515.5754,254
515.7249,136.9
515.8766,20.3
516.0549,928.6
516.3066,15196.3
516.3221,18.8
516.6562,406.8
516.7384,151.7
516.9377,262.9
516.962,594.1
517.0709,305
517.2482,222.9
517.2596,315.8
517.2799,26.5
517.3097,2610
517.3709,86
517.3914,20
517.4181,461.9
517.4959,296.7
517.5194,460.5
517.8021,343.3
518.0518,132.7
518.1276,382.5
518.3044,581.2
518.3223,566009.8
518.4928,310.4
518.5848,567.9
518.7187,339.8
518.9255,24459.2
519.1535,159.9
519.2217,198.2
519.292,130.7
519.3257,130942.9
519.4523,18.2
519.4665,21.1
519.5167,136.4
519.8423,37.6
519.9285,963.9
520.0688,194.1
520.1036,130.2
520.2418,704.6
520.33,15665.9
520.3402,95074.3
520.6374,490.4
520.8697,475.9
520.9225,15211.5
521.2616,17.9
521.3436,24008.2
521.4192,22.2
521.5357,128.2
521.9268,1047.7
522.1066,19.4
522.2587,564.2
522.3559,102340.2
522.3792,23.9
522.6454,215.9
522.8667,107.1
522.8884,163.4
522.92,1199.2
522.9374,4075.2
523.1072,490.6
523.129,478.5
523.2424,451.4
523.305,128.5
523.3593,26240.2
523.7276,39
523.7773,533.8
523.8163,582.2
523.8641,109.9
523.8986,237.9
523.9731,703.3
523.9818,784.4
523.9984,144.4
524.0106,119.5
524.0258,222.3
524.3715,86487.8
524.5326,36.8
524.5958,311
524.6123,216
524.6435,113.5
524.8558,128.7
524.9343,1046.6
524.9789,1040.1
525.1254,457.7
525.3221,17.5
525.3749,21830.6
525.6921,293.3
525.7352,134.2
525.7494,592
525.9473,172.9
526.3298,3976.9
526.3766,639.3
526.6717,148.6
526.9486,1142.1
527.0763,225.2
527.2152,118.6
527.4051,611.5
527.5577,106.8
527.7103,277.9
527.8874,455.7
528.0042,557.6
528.2549,442.8
528.3452,1179.4
528.4821,620.5
528.5117,18.6
528.5864,114.3
528.6167,109.7
528.8829,7496.8
528.9542,2911.8
529.0183,740.1
529.1213,29.8
529.2616,277.4
529.3483,320.1
529.5319,245.9
529.5584,273.7
529.6189,124.8
529.695,126.1
529.7411,78.1
529.8412,24
529.8601,24.6
529.8976,491.4
529.9419,746.2
530.1464,76.8
530.3086,128.2
530.3436,129.9
530.5254,440.2
530.5866,160.9
530.7365,200.4
530.88,3959.8
531.019,19.1
531.2184,121.4
531.2485,1727
531.3865,488.2
531.5294,319.8
531.5365,474.8
531.539,482.8
531.5913,593.5
531.6888,20.1
531.7053,36.2
531.874,263.5
532.1035,134.4
532.1289,128.2
532.1725,823.6
532.2458,340
532.2642,161.4
532.2805,3083.8
532.3376,2413.2
532.6522,481.2
532.7049,519
532.7396,349.6
532.967,699.8
533.3563,456.9
533.4168,535.4
533.5461,79.8
533.6275,326.9
534.2208,531.6
534.2592,418.7
534.2962,147962.1
534.3174,2398
534.6997,395.7
534.7138,113.8
534.859,260
534.8995,14958.8
535.2337,482.1
535.2995,31291
535.7055,31.1
535.8522,535.9
535.9033,490.5
535.9473,171.9
536.1584,19.6
536.2954,7484
536.7064,18.3
536.7719,470.8
536.8147,74.8
536.8755,165.8
536.8967,12294.4
537.0191,476
537.0727,540
537.1648,128.4
537.344,1142.7
537.389,45.3
537.4218,153.1
537.4411,20.5
537.5623,617.1
537.7316,126.2
537.7825,178.5
537.9857,120.9
538.1023,19.3
538.1194,230.1
538.3468,172.2
538.894,1279.2
538.9118,695.4
538.9311,1141.5
539.0314,504.2
539.0816,187.5
539.2224,105.4
539.2437,334.1
539.3196,33.2
539.4996,441.2
539.6608,371.9
539.7269,550.9
539.7403,91.8
540.0084,410.2
540.306,514.6
540.3616,19.2
540.4801,448.8
540.566,127
540.6028,411.6
540.802,365.5
540.8322,175.1
540.8867,590.3
540.9097,372
541.245,116.8
541.2904,331.8
541.5544,20.3
541.7472,668.4
541.7735,281.7
541.8388,34.8
541.961,18.2
542.3223,148543.4
542.3577,150
542.4289,402.1
542.4758,667.1
542.5461,540.6
542.707,576.5
542.9554,689.9
543.0381,497
543.3256,39913.4
543.4233,150.8
543.4636,151.8
543.5952,99.3
543.6089,113.3
543.7028,263.9
543.7383,171.8
544.3063,353.8
544.338,170960.2
544.3757,363
544.5321,131.3
544.7517,154.8
544.8563,364.4
544.8758,318.3
544.9494,1465.4
545.3414,44528.5
545.5215,210.7
545.9017,169.1
545.9858,112.5
546.0219,273.2
546.2345,219.8
546.3131,498.4
546.3536,130814.2
546.4778,168.8
546.9083,19.5
546.933,206.1
547.357,33037.8
547.4369,32.2
547.4982,381.7
547.8047,274.5
547.9448,171.1
548.0952,211
548.1826,457
548.3602,2349.9
548.4176,104.5
548.4407,104.4
548.8469,22.1
549.1824,24.5
549.248,478.6
549.3972,111.8
549.7879,656.4
549.8354,171.7
550.2048,305.2
550.5708,21.3
550.6329,283.3
550.696,122.3
550.8732,3715.8
550.9539,281.2
551.4932,333.7
551.6639,542
551.6849,124.1
552.0028,18.5
552.0207,401.3
552.7626,560.1
552.8705,1410.5
552.9923,18.5
553.0058,263.6
553.4272,450.3
553.9815,377.8
554.2571,110
554.595,371.8
554.6995,247.8
554.857,453.3
554.8899,441.3
555.1205,308
555.1488,138.1
555.2529,383.7
555.5094,115.6
555.5565,19.4
555.7055,578.1
555.8608,227.4
555.8976,22.6
555.9145,243.9
556.0074,913.9
556.2323,428.8
556.4718,114.5
556.5113,665
556.5566,557.8
556.8872,486.9
557.1442,119.5
557.3266,164.8
557.3652,398.5
557.5352,200.7
557.8163,476.3
558.1613,247.6
558.1828,132
558.2495,180.5
558.2962,38898.1
558.4578,48.6
558.5091,323.3
558.667,554.3
558.8126,21.4
558.8633,255.2
558.8978,81.5
558.9498,97.8
559.0689,87.7
559.157,261.1
559.2998,9886.9
559.726,38
559.7404,135.4
559.7512,110.5
560.2482,21.8
560.312,41168.7
560.3777,784.6
560.4681,23.1
560.5865,18.4
560.7763,336.9
560.9217,478.9
560.9474,710.3
561.2085,89.9
561.3156,8038.9
561.3371,22
561.4136,1724.1
561.4496,295.8
561.4769,430.5
561.9912,475
562.0154,311.5
562.1526,134.2
562.31,685.4
562.3277,29399.7
562.4736,114.5
562.4856,32.7
562.5228,127.3
562.6019,912.8
562.6906,189.6
562.7413,267.6
563.3312,5660.4
563.4282,2875.8
563.5469,292.8
563.692,111.2
563.743,100.8
563.9245,680.3
563.9407,167.3
564.0768,209
564.1392,524.8
564.2541,433.1
564.3189,719
564.995,78.4
565.1309,399.6
565.1922,20.9
565.8818,18.1
566.3224,31760.8
566.7396,426.6
566.839,433
566.8768,201.4
566.9635,2369.8
567.3259,7420.6
567.5595,251.3
567.7221,342
568.3382,20095.5
568.429,289.9
569.1764,467.4
569.3161,105.6
569.3415,2282.4
569.482,221.4
569.6524,537.2
570.1456,153.1
570.2047,120
570.2201,357.7
570.2451,381.8
570.3521,860.3
570.4004,288.4
570.4669,487.3
570.531,677.6
570.5674,142.9
570.7657,109.5
570.8675,2886
571.0353,301.6
571.6001,525.2
571.7595,23.4
571.8738,363.7
571.9335,18.5
572.2699,203.6
572.4024,473.9
572.6545,98.3
572.8646,2128.5
572.9806,659.2
573.2914,524.2
573.6987,114.3
573.8519,242.4
574.0628,732.4
574.1652,318.5
574.2845,834
574.8226,133.6
574.862,524.2
575.1941,75.6
575.294,158.9
575.3707,98.8
575.4683,240.8
575.5044,9353.3
575.5482,771.3
575.7051,479.5
575.8273,21.1
576.0417,159.8
576.062,248.7
576.2809,6066.4
576.507,251.9
576.8841,7592.8
576.9128,512.7
577.2848,1020.3
577.4069,521.3
577.5185,502.4
577.7268,330.2
578.0363,121.5
578.0713,21.1
578.1051,139.3
578.2784,633.7
578.3806,176.3
578.4588,529.8
578.5799,133.8
578.6352,558.7
578.8814,8055.3
579.0173,620.7
579.0634,18.2
579.3049,126.6
579.3967,388.2
579.4646,20.7
579.5719,250.2
579.7923,420.7
580.0741,451.8
580.878,1619.1
580.8975,1005.8
581.1672,30.1
581.4394,161.7
581.5138,342.7
581.6322,541.5
581.6691,19
581.8097,747.3
582.2965,7659.8
582.3156,334.4
582.3559,17.7
582.4414,692.4
582.5206,363.9
582.5445,493.3
582.5664,1076.5
582.5948,539.7
582.6081,261.9
582.6457,704.6
582.7138,254.7
582.7328,18.7
582.7943,42.5
582.863,740.1
582.8919,496.2
582.9398,377.4
583.2573,1527.1
583.2982,390.1
583.8263,1044.7
583.8684,314
583.8813,967.3
583.9323,114.2
584.157,213.2
584.2274,407.1
584.3124,4626.3
584.3491,126.7
584.3854,182.7
584.6558,222.8
585.1118,681.8
585.1892,431.7
585.2722,2201.3
585.4077,21.1
585.8988,32.1
586.124,326.4
586.3091,4961.7
586.4888,733.3
586.5963,171.2
586.8405,1966.2
586.8957,108.8
586.9921,290.8
587.117,455.8
587.2502,136.6
587.6318,126.8
587.7505,227.9
587.8846,442.3
588.1169,188.5
588.2329,219.8
588.3458,212.9
588.548,483
588.7847,568.9
588.8392,3582.1
588.9116,829.4
588.953,107.6
589.1619,143.5
589.3717,443.4
589.4794,469.3
589.5985,205.1
590.0523,384.5
590.3224,1745.8
590.7697,601.5
590.8219,146.8
590.9094,243.2
590.9231,746.9
591.2005,36.3
591.7512,21.4
591.8131,128.8
592.0969,670
592.6732,302.4
592.8582,5485.4
593.008,32.6
593.2478,306.8
593.3211,166.6
593.6094,233.5
593.6495,330.8
593.7116,169.6
594.4476,20.1
594.7741,750.4
594.8552,5505.9
595.0257,19.3
595.2619,333.8
595.6428,339.2
596.0923,310.1
596.1069,21.5
596.2575,452.7
596.4101,140.6
596.8522,1491.3
597.148,1084.9
597.2713,18.8
597.4519,3268.6
597.4858,11190.3
597.6892,351.7
597.784,18.7
597.8289,19.5
598.0599,17.6
598.0905,233.2
598.1784,540.9
598.2506,115.3
598.4586,681.4
599.0781,85.8
599.1841,19.7
599.4258,451.8
599.47,2311.7
599.5029,4382.4
599.5821,304.7
599.7125,434.9
599.9832,749.7
600.3646,123.3
600.5064,766
600.7698,705.5
600.8256,264.1
600.9649,109.6
600.9789,133.4
601.115,18.7
601.4052,244.4
601.4728,753.9
601.5208,35.1
601.7227,290.7
601.9627,223.7
602.1936,284.9
602.5208,547.4
602.5816,118.9
603.1164,232.9
603.377,420.6
603.5135,139.6
603.5349,112.6
603.6217,251.4
604.7364,20.6
604.9823,581.9
605.0363,75.2
605.2115,224.5
605.3251,19.9
605.3986,289.1
605.4368,521.4
605.5474,19
605.7987,34.6
605.9144,721.8
606.0177,465.9
606.0328,269.1
606.3443,547.4
606.3707,432
606.5985,172
606.869,96.2
606.8843,633.1
607.0397,24.2
607.1713,12574.5
607.6262,483
608.0082,121.1
608.1751,1897.4
608.2901,175
608.6988,322.8
608.7763,164
608.8319,1281.4
609.0262,236.3
609.2877,153.6
609.8751,18.6
610.0497,103.6
610.1284,363.6
610.428,20.8
610.6106,603.1
610.7847,223.5
610.83,705.8
610.9098,526.4
611.3684,112.9
611.5198,99.5
611.8904,497.6
612.0448,127
612.3263,732.8
612.4092,133.7
613.3546,35.9
613.5145,294.4
613.6387,176.3
613.8721,208.7
613.9084,166.4
614.106,281.9
614.3306,33.5
614.7743,524
615.46,4270.8
615.5274,448.8
617.4759,20361.4
617.7496,22.8
617.9422,367.5
618.303,750.3
618.4792,4420.7
618.8693,254.9
619.0359,543.7
619.4416,532.5
619.4915,19225.8
619.8766,351.9
620.1894,21.4
620.3116,203.7
620.3471,395.4
620.4948,6625.5
620.55,552
620.8354,377.5
620.8442,822.6
620.8476,817.7
621.2863,20
621.447,1230.2
621.4572,810
621.4661,754.5
621.4857,5339.5
622.1031,564.8
622.2736,106.4
622.3287,105.4
622.4024,374.6
622.4399,347.8
622.4965,238.7
622.5873,603.2
622.8044,185.7
622.8392,214.6
622.9426,167.1
623.1364,39602.4
623.217,171.8
623.3887,366.7
623.4612,1145.1
623.4761,718.2
623.5025,1029.8
623.5764,123.1
623.6427,160.1
624.14,6698.8
624.4166,308.4
624.4936,147.5
624.6715,491.7
625.1411,464.7
625.1761,232
625.2082,126.2
625.5011,256.8
625.5191,282.6
625.6724,444.6
626.0597,156.3
626.2756,497.5
626.8754,196.7
627.0582,279.7
627.5353,330.4
627.9525,436.7
628.5359,670.1
628.8233,222.8
628.8641,112
628.9294,17.6
629.1535,78148.9
629.2456,167.9
629.5498,43.2
629.8959,210.3
629.9139,20.5
629.9324,142
630.1571,14992.9
630.2789,465.4
630.3079,452.9
630.4877,134.4
630.8078,365.3
630.9361,329.5
631.1301,413.4
631.1574,1627.2
631.2369,166.6
631.2569,599.5
631.3933,741.8
631.4764,234.8
631.9717,244
632.0177,251.1
632.0387,541.7
632.1711,440.6
632.3537,1031.6
632.442,234.3
632.4655,20.9
632.9355,474.1
633.0306,183.1
633.205,171.6
633.2342,185.4
633.4507,1676.4
633.5884,686.2
633.9661,169.4
634.186,288.7
634.2994,342.3
634.4487,188.4
634.7541,534.5
634.8432,852.9
635.1915,19
635.3977,19.8
635.4635,367.6
635.5363,341.7
635.5562,491.7
635.7914,126
635.9739,858.4
636.3751,543.6
636.4012,165.5
636.8136,20.3
636.8408,2797.6
636.9618,92.7
637.0243,233.7
637.085,579.5
637.5197,125.5
637.6693,167.6
637.8071,123.4
638.0274,326.8
638.2261,133.8
638.2956,95.6
638.3262,89.4
638.341,294.3
638.3565,143.3
638.3741,119.6
638.4062,566
638.4353,129.1
638.8377,637.8
639.011,348.1
639.1376,170.4
639.626,89.7
639.7298,162.6
639.8207,115.1
640.0472,114.2
640.1193,169.5
640.2006,19.1
640.2641,575.4
640.4778,306.2
640.7909,81.6
640.9947,258.4
641.1274,20.9
641.2101,510.4
641.7295,258.4
642.1372,314.8
642.1509,125.7
642.3163,103.8
642.5859,345.5
642.808,225.8
642.9855,406
643.1895,152.6
643.4037,643.6
644.138,139.4
644.203,350.1
644.2967,45.9
644.7847,23.9
644.8249,311.2
645.1189,26052.2
645.3202,46.4
645.3812,455.3
645.4251,299.4
645.9391,112.5
646.1227,4712
646.2555,20.2
646.4272,676.6
646.4617,297.2
646.734,22.2
646.7983,105.1
647.0975,735.4
647.123,1177.1
647.1567,467.8
647.7224,355
647.7511,577.4
647.875,247.4
648.1399,22.3
648.2711,158.7
648.7946,371.5
649.1571,613.3
649.2188,99.9
649.2753,135.6
649.4744,990.3
649.6569,598.4
649.8749,207
650.036,365.8
650.0698,19.2
650.44,4615.3
650.7053,120
650.8175,1143.3
651.0408,169.2
651.1353,66505.8
651.4749,594.9
651.7662,438.3
651.9617,483.5
652.1152,560.6
652.1389,11799.8
652.321,114.4
652.5627,34.5
652.713,350.4
652.7541,598.3
652.8136,2156.2
653.1115,1499.8
653.1397,893.6
653.2804,133.3
653.4094,125.7
653.816,119.7
654.4793,127.8
654.5412,565.5
654.7644,464.4
654.8127,444.5
655.1035,41.7
655.1348,482.3
655.2769,315.3
655.3964,264.4
655.5859,212.5
655.9842,17.2
656.6116,197.8
656.7144,156.5
656.7999,374.1
656.9394,41.3
657.0436,203.3
657.538,305.4
657.9577,867.1
658.4817,180.5
658.5353,126.5
658.7017,918
658.7467,115.8
658.8967,331.6
659.1555,17.4
659.398,485.2
659.5378,525.7
659.7251,188
659.8077,292.4
659.9852,337.6
660.4286,133
661.0833,12435.5
661.1309,586.9
661.3937,362.5
661.4699,1200.1
662.0868,1231.2
662.1935,258.2
662.6369,511.1
662.7258,140.8
662.9111,189.9
663.0009,227.6
663.0776,39
663.1932,328.7
663.4544,1072.4
663.6711,149.5
664.0868,150.6
664.237,768.1
664.3444,17.2
664.3821,18.2
664.4681,732
664.5401,482.1
664.5593,215.5
664.7164,514.2
665.2062,705.2
665.5661,262.4
665.9062,291
665.9691,18.8
666.4348,155.6
666.4848,5674.7
666.758,23.5
667.1,26941.2
667.5919,285.2
667.9145,20
668.1034,5384.8
668.5727,199.4
668.7907,425.6
668.8246,39.6
669.0769,169.2
669.1049,637.3
669.288,19.1
669.4262,111.9
669.6349,122.6
670.1038,530.1
670.1623,245.2
670.4265,817.4
670.5878,647.1
670.7391,340.7
670.7848,321.8
671.0044,170.9
671.0447,267.7
671.0988,592.9
671.1406,520.7
671.5886,169.8
671.6999,21.1
672.1941,35.5
672.4218,2549.9
672.7947,20.1
673.1173,55384
673.3391,294.8
673.405,19.2
673.4827,311.2
673.72,190
674.1209,11172.3
674.5108,19.8
674.652,130.4
675.0867,169.1
675.1226,789.4
675.2328,163.2
675.2689,169.8
675.5446,11595.6
675.6832,167.7
675.7494,137
676.0453,93.5
676.0934,249.6
676.3254,233.7
676.3934,34.5
676.5474,1669.3
677.0401,21
677.1309,341.6
677.4098,543.8
677.6431,18.7
677.7764,248.1
678.4218,326.2
678.4698,248.5
678.685,412.8
679.1527,18.6
679.2463,525.8
679.6644,24.1
680.0047,144.5
680.5014,289.8
680.6378,18.5
680.9489,355.5
681.0905,237.4
681.1958,37.7
681.4913,558.1
681.893,20.7
682.0651,746.5
682.6041,106.9
682.9491,135.8
683.0651,6081.6
683.2017,281.1
683.2243,182.5
683.2639,266.7
683.4564,1079.2
683.671,160.7
684.0748,112
684.1596,342.7
684.3148,106
684.4063,21.1
684.978,184.1
685.0319,203.4
685.1288,359.6
685.1613,115.8
685.1841,112.4
685.3193,254.4
685.437,8961
685.8183,246.1
685.9825,165
686.2807,525.2
686.4401,804.3
686.4898,934.2
686.6668,107.2
686.7211,236.6
686.7792,349.1
686.9002,686.8
686.9457,319.4
687.3878,529.6
687.7172,19.3
688.3303,1032.8
688.416,1271.1
688.4332,114.9
688.6344,131.1
688.9382,472.7
689.0818,19537.7
689.0914,18583.9
689.5601,725.4
689.6597,143.1
689.7004,594.7
689.7456,21.5
690.0947,2619.1
690.1515,230.9
690.179,731.2
690.6623,19.7
690.8709,250.4
691.0676,319.2
691.0812,138.3
691.09,132.4
691.3182,22
691.3957,299.1
691.454,79.5
691.7788,398.7
691.9085,172.5
692.2911,95.8
692.4103,168.7
692.4444,118
692.9261,65.3
693.3436,330.5
693.3715,17.9
693.8823,362.6
694.5136,324.9
694.8046,36.9
694.8667,568.9
695.0992,36147.8
695.4569,121.2
695.5105,626.9
695.946,135.1
696.1028,6074.1
696.2093,164.7
696.4288,511.1
696.7515,99.8
696.8351,357
697.1054,138.9
697.2097,602.3
697.3524,446.9
697.4505,337.3
697.5266,16994.6
697.6658,427.3
697.7552,510.6
697.9419,445
698.0274,667.8
698.3739,876
698.3779,895.6
698.387,487.7
698.5293,7145.1
698.6065,474.8
698.97,22.2
699.1855,233.2
699.2174,236.4
699.2766,119
699.6537,781.8
699.6806,143.3
699.706,575.4
699.8848,83.8
700.045,107.2
700.2654,528.5
700.3532,173.9
700.4534,308.8
701.0596,35.2
701.2472,21.1
701.4109,316.8
701.5602,31882.5
701.8231,627.2
702.1545,358.8
702.3089,232.2
702.3425,3151.2
702.5637,9643.6
702.6379,140.3
702.686,354.7
702.718,123.4
702.7549,687.1
702.8195,19.9
702.9701,229.8
703.2282,614.2
703.2858,663.3
703.3467,589.1
703.576,90355.6
703.9849,740.5
704.1339,254.5
704.1642,270.7
704.2397,253.7
704.3416,243.8
704.4131,367.1
704.4483,2827.9
704.4683,307
704.5792,33208.9
704.6197,123
704.8722,18.4
705.0507,3892.8
705.3389,93.2
705.4154,477.5
705.4843,1021
705.5828,3683.3
705.7873,707
705.8554,134.6
705.9599,542.3
706.4575,448.3
706.5392,1063.6
707.179,182
707.3898,567.8
707.5306,565.6
707.5683,16.4
707.9984,762.1
708.2196,237.5
708.333,328.3
708.4254,707.1
708.4661,335.3
708.6322,118.5
708.7538,492.8
708.8937,409.6
708.9239,709
709.2001,545.2
709.3313,119
709.3451,330.1
709.4355,183.9
709.511,168.5
709.6092,154
709.978,181
710.048,235.5
710.1696,678
710.2998,170.4
710.556,160.6
710.6856,99.8
711.0636,11204.6
711.0744,15933.6
711.237,23.6
711.3407,905.7
711.4403,472.5
711.5417,2384.6
712.0693,1243.2
712.2618,209.1
712.3658,582.6
712.4592,113.5
713.4803,540.1
713.5005,944.7
714.117,120.8
714.8447,337.9
714.873,347.7
714.9401,139.5
715.1694,255.1
715.5229,106.6
716.1034,19.1
716.1579,459.5
716.4147,119.9
716.4281,114
716.7072,120.2
717.0811,16080.8
717.5566,17.3
717.6297,423.4
717.7283,296.3
717.833,566
717.9154,504.3
718.0842,1813.8
718.1384,803.9
718.2375,100.2
718.3653,168.6
718.5754,841.4
718.7925,100.7
719.0103,19.8
719.5532,272.8
719.8909,325.9
720.2068,207.5
720.3985,330
720.5902,315.3
720.636,212.1
720.7593,599.4
720.9397,119.8
721.0104,535.7
721.3543,361.6
721.4788,55903.9
721.5977,134.6
721.9203,992.3
721.9578,123.5
722.0537,368.6
722.0842,227.8
722.4825,21699
722.5329,319.2
722.6581,31.1
722.8556,434.7
722.8925,620.9
723.0316,458.1
723.4199,898.4
723.4947,17699.9
723.5422,34056.3
723.7555,116.4
724.0153,660.9
724.2719,116.2
724.2802,110.6
724.4972,3456.4
724.5456,12456
724.6829,150.2
724.7747,80.3
724.9446,20.5
725.2571,108
725.3353,121.2
725.5002,967.1
725.558,73402.2
726.2217,221.6
726.5014,150.4
726.5613,28145.5
726.8958,862.9
726.9189,783.9
726.958,511.5
727.0378,2255.4
727.217,405.2
727.325,403.9
727.4861,23.8
727.5637,2989.2
727.7251,157.9
727.9318,249.3
728.0506,94.9
728.1698,315.4
728.1778,576.4
728.1852,653.6
728.5198,1696.1
728.6108,615.3
728.8635,105.6
729.5916,10633.5
730.0739,276.9
730.1412,52.5
730.1566,558.7
730.5394,8990.5
730.5952,764.1
730.6574,147.4
730.998,175.2
731.0329,533.8
731.1909,323.4
731.5435,1342.6
731.6075,7006.7
731.6538,325.2
731.7464,558.7
731.827,102.9
731.9721,82.2
732.1099,306.5
732.2112,444.5
732.555,73868.2
732.6094,1146
733.0454,7238.4
733.056,7709.9
733.1503,141.2
733.4859,137.1
733.4961,142.7
733.5584,31112.4
733.6093,460
734.0393,162.9
734.0589,154.2
734.2111,161.6
734.4768,572.8
734.5718,10753.5
734.7042,150.3
735.367,45.6
735.5746,2721.2
735.9344,566
736.0204,393.3
736.0844,154.9
736.2351,33.1
736.3429,389.5
736.389,434.6
736.4937,268.3
736.7099,753.3
737.1024,588.5
737.2872,245.9
737.4332,468.4
737.4532,11384.8
737.5592,529.1
737.6215,721.7
737.752,189.2
737.8361,547.3
737.8498,562.8
738.4344,975.2
738.4565,3009.6
738.6723,531.8
738.8919,2039
738.9111,711.4
739.0142,100.5
739.0635,7471.1
739.3928,225.3
739.4217,43.3
739.4407,178.8
739.4704,619.4
739.5159,2621.8
739.6361,498.8
739.942,232.4
740.0298,477.2
740.0527,221.5
740.067,521.4
740.1769,164
740.2687,641.1
740.5197,319.1
740.5347,118.8
740.6992,585.7
740.7967,605.5
740.9193,587.3
741.0222,391.8
741.2035,393.9
741.2658,103.3
741.5322,6365.3
741.7781,285.4
742.058,224.3
742.4306,1108.2
742.5354,2642.5
742.5758,8677.7
742.9922,914.9
743.1138,33.1
743.2157,131.5
743.2807,619.7
743.3783,600.1
743.397,106.4
743.5799,1547.8
743.8095,534
743.9551,474
744.0093,173.8
744.2801,220.2
744.5551,1577.4
744.5915,8504.9
744.963,140.8
744.9819,364.2
745.0486,294.4
745.1855,902.4
745.2804,181.8
745.3598,506.8
745.4791,24907
745.5558,404.1
745.5952,2712.1
745.6273,149.3
745.6786,122.7
745.8017,95.9
746.0989,17.4
746.4449,313.8
746.4829,4195.5
746.5017,263.1
746.5716,1988.8
746.6075,4891.2
747.0303,206.5
747.3077,137.4
747.4955,11673.9
747.5605,382.4
747.6112,860.2
747.6314,335.9
747.8514,312
747.8799,428.6
748.0004,475.9
748.3304,31.3
748.4976,1788
748.6147,136.9
748.8556,332
748.8877,272.4
749.0193,812.3
749.2169,86.7
749.5112,4085.4
749.5359,359.5
749.6621,320.2
749.8999,143.8
749.9863,123.4
750.1953,508.9
750.5129,630.6
750.5474,672.2
751.3604,1122.1
751.486,283.2
751.5189,165
751.5733,5472.5
752.1037,21.4
752.1251,364.3
752.3175,23
752.3371,25.2
752.3635,903.7
752.5217,11371.6
752.5761,1017.1
752.61,523.7
752.6965,520.7
752.9215,850.4
753.5245,2091.2
753.5893,3115.6
753.9045,440.3
754.3976,1661.9
754.5372,57001
754.5775,665.6
755.0271,3001.3
755.1292,303.7
755.5404,21016.3
755.6702,770.3
755.8349,244.4
756.0278,403.2
756.2944,216.7
756.3166,524
756.5549,51527.2
756.6572,558.6
757.0891,607.4
757.2149,252.6
757.2525,815.9
757.5186,316
757.558,20302.7
757.6234,1854.2
757.8696,564.4
757.8786,463.9
757.9724,542.2
758.3705,370.4
758.4068,702.6
758.4632,355.3
758.5706,1219308.6
758.6195,789.2
758.8913,34.9
759.0914,676.2
759.1577,513.4
759.2252,241.3
759.3012,251
759.574,540279.5
759.6375,1299.6
759.7213,172.3
759.864,163.7
759.9166,18.6
759.954,234.4
760.4572,238.9
760.587,499708.1
761.0451,2376.1
761.1082,432.1
761.2367,120.7
761.4229,263.2
761.4518,2867.4
761.554,398
761.5899,235818.6
761.6406,101.3
761.8799,759.1
762.4229,305.4
762.5071,33
762.5928,52078.3
762.7097,43.5
762.8657,505.4
763.1038,173
763.1992,111.3
763.4637,348.5
763.5959,4269
763.7214,21.2
763.7522,349.7
764.5577,308.6
764.6052,205.3
765.1059,347.9
765.4097,131.9
765.5655,605
765.8156,260.5
765.999,164.8
766.0791,113
766.1147,125.3
766.4716,222.4
766.5367,2413.7
766.5755,29957.1
766.6479,480.1
766.8318,88.7
767.2588,745.2
767.3488,114.7
767.4817,220.7
767.5784,10150.8
767.7304,514.5
767.7637,118.9
767.8872,21.7
768.1004,458.6
768.136,691.6
768.324,384
768.4212,325.1
768.53,406.3
768.5533,272.9
768.5916,40869.6
769.4796,135.3
769.5601,164
769.5945,17855.6
769.8734,493.4
770.008,511.3
770.2553,20.5
770.5104,7632.6
770.5719,757.6
770.608,5714.8
770.7839,578.2
770.992,4239.5
771.0137,335.1
771.0523,258
771.2455,252.8
771.5117,1207.3
771.6101,1620.2
771.7347,303.4
771.9911,535.7
772.5074,33.6
772.5276,844.8
772.5863,9039.5
772.6223,306.1
773.2416,128.2
773.291,273.8
773.4781,146.5
773.5067,159
773.552,129.4
773.5898,1098.6
773.7093,205.6
773.8408,822.3
774.6032,1357.6
774.6795,471.3
774.7497,109.6
774.9052,237.7
775.4406,794.4
775.6064,352.6
776.161,20.8
776.5196,1990.5
776.8284,486.3
776.9785,497.3
777.0095,4141.1
777.2104,272
777.4563,25.3
777.543,773.6
777.5582,485.3
777.9074,242.2
777.955,114.9
777.9852,56.9
778.0464,1369.3
778.1063,110.9
778.3588,228.4
778.4532,344.7
778.537,25748.6
778.5977,128.7
778.736,23.7
778.9256,472.9
779.0532,1102.9
779.2246,634.4
779.4923,312.9
779.5404,12244.4
779.9191,22.4
780.4,351.1
780.4218,480.2
780.5527,673196.8
780.7881,304.9
781.1138,185.5
781.2332,275.1
781.3271,636.8
781.4204,464.3
781.4596,179.5
781.5561,304414.5
781.6237,993.5
781.8764,542.5
782.3684,473
782.5703,718761.6
783.0272,3599.9
783.0824,441.7
783.5734,329976.1
783.6732,110.5
783.8624,375.4
783.9944,322.1
784.0351,740.1
784.0804,159.1
784.1945,18.4
784.2151,295.8
784.5869,403240.8
784.8004,122.9
785.0387,242.6
785.5898,192823
785.6538,6480.1
785.7516,271.8
786.0821,370.4
786.6027,264309.8
786.658,1557
786.712,125.1
786.7508,101.3
786.8963,126.8
786.967,352.6
787.1259,652.1
787.2524,737.8
787.3734,21.7
787.6056,128627
787.6653,1698.1
787.7302,241.7
787.9815,782.5
788.3907,107
788.5579,6205.1
788.6057,20604.2
788.6207,12936.3
788.6702,636.3
788.7484,726.8
789.5618,229.6
789.6222,10083.3
789.6996,141.7
789.9143,480.8
790.1561,463.6
790.2795,376.6
790.443,679.1
790.5495,548.2
790.5739,11862.5
790.6236,127
790.7221,275.4
791.1464,209.3
791.2267,578.9
791.2342,593
791.5739,2162.3
791.6567,419.1
791.8754,102.6
791.9619,98.4
792.1453,125.5
792.3182,631.8
792.5544,1035.9
792.5908,8803.2
792.6376,506.3
792.6891,36.2
792.826,287.5
792.9512,227.6
792.9824,776.4
793.1051,611.1
793.5935,4833.3
793.6727,520.7
794.2374,839.6
794.4352,299.2
794.4858,119.1
794.5104,2286.8
794.6071,39905.4
795.0751,819.3
795.3292,248.7
795.5169,705.5
795.6101,18515.2
795.7272,170.5
796.0542,570.7
796.5266,123640.6
796.5865,2273.4
796.6238,6085.4
796.6446,214.2
796.9017,435.2
796.9722,277.4
797.5301,57288.6
797.6269,2888.7
797.8829,498.2
798.5433,42729.7
798.8873,337.7
799.0527,117.8
799.1467,449.8
799.5454,18890.7
799.6011,154.1
799.6718,431.7
799.8574,66.9
800.1453,110.2
800.2961,291.5
800.348,805.6
800.4389,19.1
800.4651,131.3
800.5506,623.7
800.6783,531.1
800.7336,78
800.8756,94
801.5609,314.7
801.701,871.3
801.9559,164
802.024,109.6
802.1196,89.5
802.1442,441.5
802.2331,317
802.3864,682.4
802.5372,20724.5
802.7047,931.6
803.0393,146.3
803.07,39
803.5408,8324.4
803.8073,486
803.9594,594.6
804.0595,487.8
804.3269,798.4
804.3647,174
804.4213,60.9
804.5526,277537.8
804.65,20.6
804.7086,1025.3
804.7567,883.1
804.936,83.1
805.0854,21.1
805.4317,96.4
805.556,130914
805.6646,770.1
806.3788,411.5
806.5088,112.4
806.5696,287287.9
806.8328,854.8
806.9145,89.9
807.021,194.1
807.5726,141604.4
807.678,123.1
807.7935,546
807.9392,522.5
808.0896,36.9
808.1625,279.4
808.2828,361.9
808.3184,1601
808.5859,182583.8
808.696,545.3
809.0284,1211.5
809.2169,266
809.3566,171.5
809.4313,528.9
809.5034,1144.9
809.589,88134.4
809.6231,819.4
809.8889,547.9
809.9299,621.7
810.2036,150
810.2774,268.5
810.3812,890.1
810.6026,133104.5
810.6542,75.6
811.0115,292.6
811.1626,315.6
811.1894,258.8
811.3409,568.5
811.4645,19.4
811.5258,109.4
811.5506,985.7
811.6053,65963
811.6705,8740.8
811.7127,330.2
811.8047,258.4
811.9396,420.9
812.5393,326.5
812.6017,2880
812.6194,38469.9
812.6737,3139
812.8463,340.4
813.6215,19674.9
813.6859,7887.3
813.7907,760.8
814.4723,103
814.5757,1232.1
814.6238,1315.2
814.689,2552.5
814.8851,498.3
814.9158,578.6
815.2215,338.2
815.3576,438.7
815.5256,81.6
815.5738,787.2
815.7052,46.7
815.9577,244.7
816.1161,235
816.17,217.5
816.5379,172.8
816.5894,12532.1
816.7782,20.6
816.9355,1276.1
817.0536,350.7
817.1644,408.8
817.5957,1315.5
818.226,24.5
818.5108,4241.5
818.5555,135
818.6059,2425.9
818.671,165.3
818.83,257.7
818.8656,18
819.3097,252.2
819.3328,604.5
819.4454,148.6
819.5818,329.5
819.6129,455.4
819.8648,200.7
819.9442,732.3
820.1589,776.3
820.1838,141.4
820.3843,529.1
820.4814,472.9
820.5263,58131.2
820.6071,440.3
820.6179,445.8
820.9328,52.7
821.5301,24978.7
821.8148,101.4
822.3633,21.5
822.5431,35564.5
822.5689,1283.9
822.6411,416.5
822.9054,1175.3
823.289,522.1
823.4322,127.8
823.5463,14959.6
823.641,41.5
824.2352,50.9
824.2608,111.8
824.4406,133
824.4643,166
824.5058,113.2
824.5588,20107.8
825.5608,4494.4
825.6055,930.1
825.922,522.5
826.2111,355.1
826.4266,464.3
827.0087,130.8
827.0737,415.3
827.1326,734.1
827.2977,152.5
827.945,99.5
828.3215,144.6
828.3751,35
828.5526,61361.2
828.5868,362.7
829.0154,105.1
829.5562,27210.1
829.8953,251
829.9182,220.3
830.0436,892
830.1296,603.8
830.1982,437.1
830.5689,42663.2
830.688,371.4
830.904,517
831.2937,126.9
831.5717,20851.7
831.8804,138.5
832.0003,501.1
832.0483,181.7
832.4748,106.4
832.5438,113.6
832.5847,52776.7
832.6724,140.8
832.9115,797.7
833.2824,21.6
833.5879,26533.4
833.8138,605.7
833.9091,19.3
833.928,352
834.4632,470
834.6018,27448.3
834.9377,409.2
835.0436,388.3
835.1352,908.9
835.4562,442
835.5633,144.8
835.6048,10047.5
835.7233,24.9
835.767,533.5
835.7945,563.4
836.0663,20.4
836.1138,338.8
836.1455,118.7
836.1581,126.4
836.4071,138.9
836.442,474.5
836.6191,3993.9
836.8004,239.5
837.0015,845.4
837.1213,327.3
837.3069,242.3
837.4459,96.3
837.6211,1297.6
837.6824,476.5
837.897,587.8
838.1744,771.7
838.511,1082.6
838.7753,19.6
838.8759,397.1
838.9992,164.3
839.1713,524.1
839.2065,334.8
839.2919,258.8
839.3985,478.9
839.556,243.1
839.5746,236.2
839.6367,487.8
839.967,974.7
839.9985,566.7
840.7138,1376
840.8228,20.5
840.9642,512.9
840.9958,497.7
841.436,71.3
841.8353,19.5
841.8552,19.1
842.2067,243.5
842.2918,516.1
842.6294,751.2
842.7679,537
842.9099,532
843.553,164.6
843.6467,156
843.6839,122.3
843.806,705.1
843.97,482.3
844.3571,491.7
844.5263,8563
844.5611,320.1
844.9018,326.1
845.5303,1628.1
845.7008,339.2
845.9852,787.1
846.542,5307.8
846.5742,609.9
846.6083,136.8
846.785,1300.1
846.8911,582.1
847.1983,288.7
847.3812,496.2
847.5487,466.4
847.7423,121.9
848.0068,251
848.3745,745.5
848.5563,3376.3
848.7101,800.9
848.9178,235.3
849.1431,22
849.2611,516.2
849.3714,581.6
849.4424,155
849.5604,801
849.6021,132.2
849.6528,280.9
849.9433,432.8
850.0826,49.4
850.4465,47.5
850.4992,685.4
850.5753,165.6
850.6016,451.7
850.6559,68.3
850.8851,109.8
850.9668,177.3
851.1127,117.3
851.5179,259.2
851.5594,20.8
851.6926,173.6
851.8024,157
852.005,401
852.043,124.6
852.0904,132.1
852.1132,336.2
852.7803,36
853.0213,21.3
853.209,706.9
853.3757,1165.2
853.5692,208.1
853.9441,751.4
854.0048,577.1
854.0243,749.8
854.2458,191.5
854.3143,289.6
854.3376,318
854.4453,616.7
854.5672,161.3
854.6348,2106.5
855.1546,558.5
855.2572,387.1
855.4342,162.6
855.5149,20.8
855.9423,119.2
856.1962,200.2
856.2393,282.9
856.338,801
856.5828,1992.6
856.638,595.4
856.9157,263.8
856.9765,467.1
857.2128,314.2
857.5109,531.3
857.5727,802.5
857.6813,568.5
857.7279,781.7
857.9617,135.5
858.0427,18.7
858.3837,22.8
858.5474,85.7
858.6074,317.1
859.3596,324.5
859.5154,36.9
859.5941,73.4
859.6541,803.4
859.711,736.8
860.4144,997.3
860.4448,76.3
860.5448,120.7
860.9532,19.9
860.988,101.9
861.0752,1437.9
861.4544,22.5
861.5133,32.5
861.8294,157.4
861.9523,19.3
862.1739,343.8
862.2441,509.4
862.3883,254.6
862.4179,475.8
862.4583,962.8
862.8287,96.2
863.1213,329.6
863.2365,21.8
863.9282,198.3
864.1928,114
864.2332,19.9
864.2884,347.6
864.4242,1284.6
864.6014,395.8
864.6817,97.9
864.8512,257.2
864.8566,257.7
865.1571,23.9
865.6616,297.9
865.8687,549.3
866.3976,23.9
866.4525,659.3
867.0078,137.1
867.6248,181.6
867.6575,18.3
868.2513,470.1
868.4225,332.7
868.8288,1310.4
869.057,162.7
869.1158,268.8
869.1843,17.1
869.3252,336.3
869.4834,482.2
869.6841,36.2
869.7132,122.5
869.8965,1428.3
869.9323,864.8
869.9955,852.4
870.0436,1266.8
870.0866,688.2
870.1246,371.3
870.1643,662.4
870.2037,3511.1
870.2294,2559.1
870.2531,2459.9
870.2951,5179.2
870.365,694.5
870.4212,1877.4
870.4451,2046.8
870.5044,530.6
870.5469,529.4
870.6054,350.2
870.7873,140.3
870.9108,932.5
871.1186,111
871.1626,234.3
871.6865,115.4
871.8242,596.9
872.0737,583.8
872.5392,432.4
872.6506,296.6
872.7424,34.8
872.8265,242.5
872.9051,248.4
873.2281,326.5
873.4451,101.8
873.8604,187.2
873.9122,524.9
874.1444,86.7
874.2187,19.5
874.3324,430.4
874.4673,301.8
874.4896,20.8
874.6944,237.3
874.8332,292.5
874.8558,702.2
875.3236,311.3
875.4427,390.2
875.5571,42.1
875.6323,157.7
875.7987,621.5
876.1798,525.8
876.4233,106.6
876.5381,213.1
876.6254,190.7
876.7538,1277.4
876.8133,133.9
876.9037,123
876.9748,296.1
877.0277,351.6
877.0901,536.9
877.2494,168.4
877.7976,527.8
877.9971,19.9
878.0603,24.1
878.1039,135.1
878.3152,254.5
878.3682,539.4
878.6731,230.7
878.866,94.9
879.083,96.5
879.191,128.9
879.2931,58
880.2731,211.9
880.5259,282
880.9342,406
881.3202,138.4
881.7422,578.2
881.9639,100.9
882.0813,31.7
882.6742,21.2
882.7443,212.8
883.0209,120.3
883.4026,571.8
883.671,44.9
884.2906,122.7
884.3151,402.7
884.3904,141
884.5443,44.1
884.6554,85.3
885.0562,19.1
885.3348,23.4
885.3888,605.2
885.4277,42.7
885.558,324.2
885.6353,491.2
885.8025,513.4
885.9263,140.9
886.066,17.8
886.1281,363
886.4982,677.5
886.9286,126.2
887.3887,1416.9
887.6407,172.3
888.903,384.7
889.4853,342.9
889.5514,39.2
889.884,22.2
890.4804,43
890.6874,142.8
891.168,1180.2
891.416,555.7
891.5547,213.9
891.85,1035.2
892.0032,93
892.7331,19.8
892.896,20.7
893.1164,18.1
893.8314,534
894.3675,429.7
894.4674,2309.2
894.5939,252.7
894.8815,564.3
895.996,760.8
896.0363,225
896.1288,491.6
896.3132,1166.1
896.4696,890.6
896.6351,267
896.6761,583.5
896.7391,709.7
896.7762,18
897.1516,350.7
897.7539,1372.1
898.4936,212.6
898.5323,284.6
898.5809,1061.2
898.6596,947.7
898.7439,563.1
898.7593,504
899.4494,473.7
899.4718,489.3
899.5876,109.3
899.6753,1121.3
899.7156,245.6
899.8371,293.7
900.0961,439.6
900.3223,500.6
900.3626,621.1
900.6526,69.5
900.7306,127.4
900.922,22.5
901.2704,17.4
901.5876,20.2
901.8793,46.2
901.9083,275.8
901.9616,284.8
902.2176,488
902.3368,985.3
902.7182,102.2
903.2659,846.8
903.7926,630.6
904.1587,146.8
904.3639,105
905.789,761.6
906.0807,195.7
906.2156,19.9
906.3693,20.2
906.5027,856.4
906.6472,543.2
906.8896,184.5
907.0117,626.8
907.0645,114.7
907.1241,471.3
907.5478,23.9
907.5696,33.2
908.0885,799.3
908.6278,100.2
908.7818,327.1
909.0622,1026.3
909.2732,503.6
909.3781,137.6
909.9972,238.8
910.3272,295.1
910.4496,159.4
910.4787,180.9
910.6833,176.5
910.8791,18.9
910.9323,33
910.9681,690.4
911.1506,434.6
911.237,748
911.4806,305.2
911.6334,176.9
911.7796,358.5
912.1755,699
912.3028,635.8
912.347,54.1
912.4331,50.7
912.7244,555.4
912.9134,275.2
913.2107,741.6
913.4518,74.3
913.5545,289.9
913.6266,744.1
913.8204,824.2
913.8481,742.5
914.2191,35.2
914.8581,547.2
915.2429,516.8
915.5119,336.9
915.8382,85.8
915.9274,317.5
916.1474,935.3
916.2093,474.1
916.5647,526.9
916.7563,128.8
917.2911,886
917.7498,151.2
917.8141,25.3
917.8707,531.6
918.2284,450.6
918.3007,23.5
918.4758,19.7
918.5026,196.1
918.5709,20.4
918.6845,105.6
918.7756,47.7
919.2677,1376.7
919.8116,841.2
919.9979,199.3
920.0731,276.1
920.2332,245.8
920.2807,609.6
920.4968,501.3
920.5228,470.6
920.8305,128.3
921.1031,81
921.1905,1880.4
921.2602,195.2
921.3943,38.4
921.4886,752.8
921.6585,140.6
921.798,1055
921.9574,794.6
922.0859,514.1
922.1112,568.9
922.1645,121.2
922.2401,18.5
922.8483,56.6
923.019,366.5
923.1619,143.7
923.2466,254.8
923.3783,535.9
923.5139,317.9
923.9769,264.5
924.0499,528.9
924.2058,273.8
924.3691,18.5
925.055,941.2
925.18,499.4
925.3405,33.6
925.4558,1650.5
926.0905,845
926.329,90.4
926.9746,706.8
927.0353,135.4
927.251,703
927.6459,418.9
928.0653,104.8
928.3323,1241.7
928.4198,633.8
929.0729,485.7
929.3025,169.6
929.4959,391.8
929.7987,751.5
930.0147,388.3
930.0559,124.5
930.3228,247.2
930.8394,18.3
931.2252,657.9
931.5912,1449.6
931.8003,736.8
931.8587,209.2
932.1388,135.3
932.4991,462.5
932.6679,546.8
933.4441,261.1
933.7095,388.2
933.8083,369.7
933.9527,476.5
934.0217,2549.6
934.0778,975.7
935.0334,144.1
935.2021,115.1
935.2682,336.8
935.5013,122.5
935.7367,274.6
935.8661,726.7
935.9202,502.9
936.0046,467.3
936.0823,43.2
936.426,333.2
936.8075,91.1
936.9764,370.3
937.1349,230.1
937.2115,253.5
937.4598,754.5
937.548,224.7
938.2233,28.3
938.6019,930
939.0819,122.4
939.1952,445.7
939.2521,94.4
939.3011,179.5
939.3994,1026.8
939.5495,1258.5
939.5955,52.2
939.6796,184.9
939.7292,822.3
939.8566,139.5
940.1873,749.5
940.385,808.1
940.5361,1534.4
940.8956,21.7
941.9637,1479.1
942.1321,727.8
942.9013,854.5
942.9956,317.5
943.0195,375.5
943.0657,59.8
943.1373,103
943.1637,274.9
943.2258,1843
943.5076,328.1
943.5643,50.3
943.8438,311.6
943.9696,399.8
945.1397,576.9
945.505,57.5
945.6101,20.7
945.9139,687.1
946.7256,431.4
946.8143,762.5
946.9021,756.5
946.9371,616.8
947.18,1409.6
947.6925,441
947.9359,533.4
948.2212,355.6
948.4207,411.9
948.4767,1109.1
948.5055,1091.8
948.6614,684.7
948.7752,334.3
949.0277,288.6
949.2803,21.3
949.6593,360.8
949.8429,738.1
950.0378,464.2
950.0953,904.4
950.1125,570.5
950.1707,1174.6
950.3088,546.4
950.404,728.8
950.5237,118.9
950.5651,586.6
950.6193,1344
951.1224,295.5
951.4664,142.9
951.6037,1092.2
951.7172,160.7
952.2511,435.9
952.5303,148
952.777,75.7
952.8095,472.8
952.9158,133.1
953.5915,321
954.4574,858.5
955.293,295.4
955.6427,165
955.8489,20.7
955.9394,118.5
956.2403,313.8
956.4133,35.3
956.5405,620.6
956.9326,18.1
957.0956,338.4
957.1219,20.1
957.158,911.2
957.2404,463.9
957.7876,809.6
958.0201,1424.6
958.0866,316.7
958.6454,91
958.691,2741.1
959.27,219.6
959.5277,277.4
960.1066,246.1
960.2956,972.6
961.2134,330.3
961.2662,503.7
961.5507,1071.6
961.7527,282.2
962.4591,153.5
962.6619,335.5
962.7265,151.9
962.8901,306.3
962.9785,1341.1
963.1692,872.2
963.5043,533.7
963.6884,1428.6
964.1788,21.3
964.4926,140.6
964.6645,281.3
964.716,19.5
964.8359,362.8
964.9148,78.4
964.9414,78.9
965.1099,661.5
965.1663,332.3
965.2076,770.2
965.3142,580.3
965.6357,500.1
965.6677,112.7
966.3292,436.4
966.5636,468.1
966.7289,412.7
966.8234,67.3
966.9165,219.5
967.1898,548.9
967.4496,20.4
967.8821,77.9
967.9437,141.3
968.2942,582.8
968.6832,814.9
968.7566,1169.9
969.2271,1349.9
969.2725,396.1
969.3789,1126.5
969.4409,606.1
969.5994,491.9
969.9879,1104
970.1018,93.5
970.2864,19.4
970.6296,876.8
971.0441,153.2
971.2103,508.1
971.243,20.6
971.3592,245.2
971.6305,135.9
971.6964,525.1
971.7624,811.1
971.8739,151
971.9844,316.5
972.2528,520.6
972.4973,651.8
972.5238,542.5
972.8415,310.4
972.8747,138
973.0302,640
973.6629,881.1
973.7186,315.1
973.7806,111.4
974.0004,112.5
974.4637,320.5
974.4968,546
975.0696,19
975.1097,287.9
975.1426,136.9
975.429,352.8
975.7049,443.4
975.9011,122.3
975.9628,415.5
976.0377,94.5
976.0954,118
976.1386,203.8
976.2023,634.7
977.7484,367.7
977.8298,440.7
978.2468,824.6
978.5166,282.2
979.2387,141.9
979.5856,471.7
979.8,616.6
980.0355,1453.4
980.1601,536.2
980.1983,18.6
980.6224,191.4
980.7334,1620.2
980.8293,410.9
981.0839,907.7
981.1632,719.5
981.2414,761.5
981.3593,789.8
981.404,167.7
981.5703,201.2
981.6918,514.6
981.818,177.1
982.159,1112.5
982.8002,467.9
982.846,367.5
983.0973,470.5
983.2856,113.9
983.8295,1544.1
983.888,18.9
984.0074,232.6
984.0751,217.7
984.5977,715.8
985.0791,299
985.1621,270.2
985.6861,51.8
986.032,95.7
986.1287,252.4
986.2143,279.7
986.3204,674
986.5125,2119.5
986.8169,227.5
987.0373,529.3
987.51,532.5
987.6722,34.6
987.7282,144.5
987.7553,304.5
988.2452,400.1
988.4287,979.1
988.6535,22.3
988.9424,562.7
989.1036,43.4
989.1722,476.2
989.3552,234.2
989.7419,1042.4
990.0907,752.9
990.1757,131.6
990.589,550.1
990.6523,269.9
990.7621,22.2
990.9424,523.7
991.1557,491.1
991.3811,807.6
991.6069,1744.8
991.8618,413.1
991.9551,34.1
992.1643,35.3
992.3579,65.8
992.3756,138.9
992.6271,2452.1
992.7221,240.9
993.3926,491.7
993.4211,152.5
993.5457,374.6
993.8822,202.9
994.0068,508.7
994.6417,19.1
994.9093,1190.4
995.1795,236
995.2426,222.4
996.142,468
996.2052,115.1
996.3247,129.3
996.9759,24.9
997.0405,554
997.1153,345.9
997.2555,199.6
997.4851,125.8
997.5277,432.2
997.694,247.3
997.9683,286.6
998.1636,121.4
998.3288,777.7
998.3702,744.4
998.9348,1023.8
999.4136,347.9
999.8787,776.5
