SPECTRUM - MS,
771.RAW,
FTMS + p ESI Full ms [50.00-1000.00],
Scan #: 1-40,
RT: 0.01-1.97,
AV: 40,
m/z,Intensity

50.0019,15
50.0142,103.5
50.0207,171.5
50.0224,282.7
50.025,89.2
50.0252,87.6
50.0268,163
50.0333,818.9
50.0345,115.4
50.0421,16.9
50.0456,113.8
50.069,109.3
50.0764,194.4
50.0954,108.2
50.1024,495.2
50.1424,22.1
50.157,99.3
50.1735,17.5
50.1898,16.4
50.1954,23.3
50.2141,138.6
50.2191,527.1
50.2305,18.5
50.2356,846.7
50.278,346.5
50.2953,716.7
50.3,17.8
50.3278,102.9
50.3394,461.2
50.3525,276
50.3748,259.2
50.3982,227.7
50.417,89.4
50.4294,81
50.4298,195.7
50.436,284.1
50.4378,83.4
50.4484,20.5
50.4514,489.3
50.4649,166
50.4681,30
50.4733,123.3
50.4747,348.4
50.4861,205.9
50.4972,168.1
50.4973,171.4
50.4974,88.1
50.5019,308.3
50.5398,141
50.5502,252.5
50.5907,16.6
50.5918,414.3
50.604,321.8
50.605,101.7
50.6083,187.6
50.6166,124.8
50.6203,176.4
50.6206,753.1
50.6399,93.7
50.6688,18.6
50.6713,18.8
50.679,481.5
50.6958,17.1
50.703,450.5
50.7049,154.7
50.736,159.1
50.7403,24.8
50.7492,113.9
50.7707,19.5
50.7894,241.2
50.7926,18.1
50.8042,263.5
50.8074,128.5
50.8243,169.2
50.8611,535.3
50.8894,434
50.8944,259.2
50.9145,517.2
50.9568,16.5
50.9644,253.5
50.9647,513.9
50.9744,475.3
50.9775,261.8
51.0219,20.8
51.0385,75.6
51.0451,182.6
51.0463,469.1
51.0518,305.2
51.0766,25.7
51.0804,16.5
51.1117,74.8
51.1147,18.7
51.1162,246.9
51.1278,116.6
51.1318,183.3
51.1455,120.5
51.1543,451.2
51.1577,285.2
51.162,152.7
51.182,112.6
51.1839,506.6
51.187,22.7
51.1972,406.1
51.2026,92.2
51.2114,248.4
51.2295,91.8
51.2353,16.6
51.2452,16.8
51.2518,120.2
51.2525,431
51.2554,422.5
51.2574,14.9
51.2616,18.3
51.282,159.4
51.2833,325.9
51.2856,16.5
51.2967,309
51.3096,250.1
51.3135,23.7
51.3183,152.3
51.3272,15.2
51.3466,153.1
51.3479,103.1
51.3515,558.4
51.3634,174.5
51.369,447.3
51.3778,171
51.3913,16.4
51.3953,649.7
51.4129,298.2
51.428,236.2
51.4495,88.5
51.4611,541.4
51.4761,16.4
51.4784,93
51.483,456
51.485,704
51.5063,20.3
51.5125,15.4
51.5336,75.1
51.5341,330.4
51.5463,196.6
51.5585,332.9
51.5879,271.5
51.6034,174
51.6194,104.2
51.6636,74.1
51.6756,16.4
51.6951,84.4
51.6991,560.2
51.7044,156
51.7097,184
51.7248,16.9
51.7321,80.3
51.7389,910
51.7591,147.9
51.7676,110.6
51.7716,637.6
51.7898,20.9
51.7907,117.2
51.8043,218.9
51.8072,160
51.8156,17.5
51.8201,14.9
51.8342,16.2
51.8351,24.9
51.8361,15.7
51.8608,225.1
51.8638,709.2
51.8681,349.4
51.8726,109.9
51.9024,840.3
51.9087,248.8
51.919,456
51.9254,222.5
51.9269,285.2
51.9468,169.1
51.9509,154.7
51.9586,316.3
51.9711,18.5
51.9722,15.7
52.024,304.7
52.0286,149.7
52.0356,99.5
52.0423,296.2
52.0431,176.7
52.0485,291.4
52.0508,18.7
52.0512,136.1
52.0545,96.5
52.0547,99.5
52.0609,20.3
52.0653,211.3
52.0668,310.6
52.067,329.1
52.0791,18.1
52.0801,308.2
52.0819,207.9
52.113,505.4
52.1322,450.1
52.1332,182.7
52.1357,91.7
52.1437,14.5
52.1484,279.2
52.1594,17.5
52.1698,501.3
52.187,263.5
52.199,161.4
52.2018,247.4
52.2027,20.5
52.2321,17.6
52.2355,258.4
52.2388,820.2
52.2498,162.9
52.2617,269.4
52.2727,168.8
52.2738,147.1
52.2843,229.4
52.2936,19.1
52.3128,234.2
52.3186,112.9
52.3225,302.6
52.3444,17.3
52.3654,106.5
52.3687,16.6
52.3779,18
52.3817,135.4
52.4238,118
52.4258,15.9
52.433,414.4
52.4345,18.1
52.437,120.4
52.4385,461.9
52.4403,267.1
52.4623,95.4
52.4752,111.9
52.479,24.8
52.4994,254.2
52.5258,484.5
52.5261,361.3
52.5286,18.9
52.5299,15.5
52.5449,116.3
52.5465,359.3
52.5487,248.9
52.5546,109.3
52.5614,114.7
52.5888,286
52.6353,141
52.6405,94.8
52.6612,693.2
52.6722,496
52.6775,17.7
52.684,86.1
52.6974,788.3
52.6998,263.1
52.7069,309.4
52.7117,243.8
52.7201,93.6
52.7212,409.9
52.7335,729.5
52.7479,235.6
52.7531,304.4
52.7706,169.2
52.774,211.7
52.7794,131.8
52.786,26.3
52.7866,574.1
52.7872,986.8
52.7877,1445.2
52.7886,2746
52.789,3434.7
52.7896,2106
52.7902,2531.1
52.7907,579
52.7913,193.7
52.7924,442.4
52.81,17.4
52.8104,347.8
52.8113,654
52.8121,207.5
52.8135,122.4
52.8192,84.9
52.8492,96.2
52.8729,95
52.8883,21.4
52.8906,254.2
52.9076,114.8
52.9122,87.4
52.9185,118
52.9311,93.7
52.9325,519.9
52.9345,16.3
52.9488,423.7
52.9531,286.4
52.9664,484.3
52.9899,107.4
52.991,22.7
52.9921,312.8
53.0062,14.7
53.0072,366.2
53.0104,261.1
53.0153,307.2
53.0205,453
53.0251,189.7
53.0322,772.8
53.0355,215.4
53.0394,16.7
53.0415,113.1
53.0463,103.6
53.0517,741.8
53.0723,130.7
53.094,609.6
53.0968,96
53.1029,15
53.1191,444.5
53.123,109.6
53.1336,431.9
53.1363,402.2
53.1483,555.7
53.1671,125.2
53.1686,282.7
53.1717,15.7
53.1801,179.9
53.2035,254.8
53.2318,128.6
53.2406,680.9
53.2479,79.6
53.2569,576
53.2671,126.3
53.2773,16.7
53.2778,23.4
53.2784,287.9
53.2933,364.5
53.2973,136.5
53.3136,113.3
53.3236,140.9
53.326,106.4
53.3271,274.6
53.346,17.4
53.3603,100.5
53.3608,107
53.3906,363.4
53.398,160.9
53.4049,147.7
53.4057,106.7
53.4103,474.3
53.4206,102.9
53.4313,147.4
53.434,415.5
53.4519,243.5
53.4531,21.1
53.4622,123
53.4688,101.1
53.475,144.8
53.4846,117
53.49,18.6
53.4955,311.1
53.4962,96.5
53.5055,163.2
53.5062,170.6
53.5104,144.8
53.5115,105.7
53.5211,312.6
53.5388,656.3
53.5538,198.5
53.5582,329.5
53.5679,14.3
53.6148,16.3
53.626,161.4
53.6451,89.7
53.6518,86.4
53.664,320
53.6909,96.6
53.6955,16.2
53.6985,19.3
53.7015,306.9
53.711,159.6
53.7199,960.1
53.7461,816.7
53.7473,104.3
53.7488,113.2
53.7552,122.5
53.7559,144.5
53.7697,284.1
53.7842,218.5
53.8068,159.1
53.8075,598.8
53.8137,295.4
53.8171,411.8
53.8277,249.1
53.8465,289.6
53.8589,16.5
53.8765,96
53.8788,151.6
53.8922,269.3
53.9078,258.4
53.9135,14.9
53.9153,25.6
53.9194,324.4
53.9267,19.6
53.9369,219.9
53.938,417.2
53.9442,240.3
53.9528,276.4
53.9589,19.8
53.9751,267.9
53.9863,75.6
53.988,306.2
54.0082,18.5
54.0124,648.5
54.03,201.8
54.0383,131.1
54.0708,78.3
54.0719,234.9
54.0917,167.7
54.1046,361
54.1499,85
54.1552,224.3
54.1585,197.2
54.1691,440.4
54.1778,85.2
54.1816,402.7
54.1998,353.7
54.2002,121.1
54.2144,845.9
54.2209,231.9
54.2466,334.9
54.2477,301.8
54.2598,474.2
54.2642,510.4
54.268,105.5
54.2714,424.3
54.2815,407.2
54.3071,298.1
54.3104,255
54.3302,181.8
54.3358,294.4
54.3375,147.2
54.3407,15.1
54.3456,601.3
54.3478,476.9
54.3575,330.1
54.3805,277.3
54.3978,167
54.4151,170.8
54.43,425.6
54.4501,80.3
54.451,14.6
54.4538,148.6
54.4564,27.9
54.4624,254.2
54.4819,273.1
54.4995,183.4
54.5075,261.3
54.5147,744.8
54.5288,110.6
54.5318,562.8
54.5419,393.5
54.5467,21.9
54.5481,121.9
54.5499,284.1
54.5709,586.2
54.5762,157.2
54.582,273.7
54.604,108.8
54.6646,235.7
54.6944,15
54.6976,287.8
54.6988,346.2
54.6991,526.5
54.7155,180.2
54.7239,16.4
54.7274,556.6
54.7414,19.6
54.7813,194.3
54.7831,363
54.784,137.1
54.7849,78.5
54.7891,203.6
54.8014,356.7
54.8077,629
54.8118,15.1
54.823,140.3
54.8258,305.5
54.8283,18.1
54.8335,88.9
54.8388,26.3
54.8588,228.9
54.872,247.3
54.8826,526.1
54.8856,93.8
54.892,165.7
54.8928,218.1
54.9061,255.8
54.9074,498.9
54.9106,111.1
54.9206,337.5
54.9241,16.5
54.9308,520.6
54.9556,470.9
54.9561,17.9
54.958,107.9
54.9608,660.1
54.965,175.4
54.9778,168.1
54.9823,17.2
54.9847,670.5
54.9886,209.6
54.9954,121.6
55.0033,148.7
55.0041,191.7
55.0134,285.2
55.0189,716.4
55.0259,287.3
55.0266,511.6
55.029,361.9
55.0327,100.6
55.0536,270.8
55.0548,319.2
55.0863,311
55.0953,752.3
55.103,147
55.1065,394.2
55.1137,275.4
55.1557,17.4
55.1711,17.8
55.1862,503.2
55.1921,79.2
55.1929,332.9
55.206,266.5
55.2074,117.9
55.2083,687.3
55.2087,198.5
55.2197,458.3
55.2234,123.7
55.2697,440.3
55.2698,440.9
55.2755,401.9
55.2767,92.8
55.2789,122.3
55.3136,269.8
55.3187,132.6
55.3212,97.9
55.3244,151.5
55.3263,135.2
55.328,88.4
55.3338,15.2
55.3553,18.4
55.3635,483.5
55.3985,317.9
55.4284,233.2
55.4352,17.5
55.4386,105.8
55.4481,102.5
55.4771,309.4
55.4832,16.5
55.4968,16.3
55.5009,255
55.5111,542.8
55.5213,308.4
55.5278,636.8
55.5306,495.1
55.5404,296.2
55.546,94.5
55.5498,189.7
55.5617,122.9
55.5887,469.9
55.6067,232.7
55.6142,764.3
55.6206,118.4
55.6245,202.8
55.6261,720.7
55.639,275
55.6563,20.1
55.658,19.5
55.6598,229.2
55.6679,15.7
55.6873,16.6
55.7181,127.4
55.7332,173.5
55.7404,15
55.7422,117.9
55.745,114.8
55.7565,200.7
55.7721,270.3
55.7778,100.1
55.7802,509.7
55.7835,99.9
55.8121,142.4
55.8152,434.1
55.8164,143.1
55.8212,107.2
55.8357,489.8
55.8794,17
55.9003,374.8
55.901,233.5
55.9064,405.8
55.9156,168.7
55.9418,293
55.9449,92.1
55.9457,340
55.9488,19.4
55.9689,431.6
55.9732,94.6
55.976,188.5
55.98,161.7
56.0194,89.8
56.0237,100.9
56.0305,132.4
56.05,217.5
56.0593,100.7
56.0622,17.6
56.0668,109.5
56.0762,146.2
56.1163,17.1
56.1246,179.5
56.125,23.5
56.1331,622.4
56.1469,17.4
56.1813,292
56.1863,759.4
56.1883,18.6
56.1962,426.3
56.1972,400.1
56.1979,250.2
56.2142,113.1
56.2253,456.9
56.2325,561.4
56.2358,107.8
56.27,90.3
56.2712,143.4
56.2764,111.4
56.2869,479.5
56.2941,617.5
56.2986,357.1
56.2997,405.1
56.3,430.6
56.3237,587.3
56.3256,334.1
56.3324,727
56.3351,183.3
56.3532,166.8
56.3667,221.7
56.3818,80.1
56.3833,551.4
56.3955,324.3
56.4334,16.2
56.4461,371.2
56.4722,101.1
56.4743,16.1
56.475,575.1
56.4859,519.2
56.4941,108.5
56.4975,133.3
56.5212,187
56.5267,648.4
56.5278,17.7
56.539,286.6
56.5445,152.6
56.5692,586.6
56.5707,16.7
56.5953,654.9
56.6143,143.4
56.6158,22.8
56.6183,16.4
56.6191,27.4
56.632,241.5
56.6422,90.1
56.6521,533.2
56.6645,105.2
56.6695,813.5
56.6783,16.6
56.6791,122
56.6972,247.8
56.7134,277.2
56.7187,162.9
56.7198,84.8
56.7217,117.2
56.7231,94.7
56.728,22.4
56.7409,19.8
56.7549,321.4
56.764,557
56.7735,91.5
56.7747,272.3
56.8046,456.6
56.8132,221.5
56.8159,16.5
56.8293,107.1
56.8396,220.3
56.8523,327.7
56.8695,247
56.9006,598.5
56.9126,616.8
56.9143,20.4
56.9226,751.7
56.9359,18.5
56.9477,350.9
56.955,301.9
56.961,182.5
56.981,458.4
57.002,139.8
57.0104,152.4
57.0402,262.6
57.0574,87.5
57.0693,108.7
57.0798,170.8
57.089,455.5
57.094,85.9
57.0942,86.7
57.1028,709
57.1045,555
57.1072,129.7
57.113,322.2
57.1151,294.9
57.1155,116.8
57.116,24.4
57.1289,430.7
57.1305,611.5
57.131,102.5
57.1333,171
57.1391,112.9
57.1486,529.2
57.155,103.8
57.1648,286.9
57.1706,487.8
57.182,117.3
57.1827,196
57.1911,223.5
57.1939,148.1
57.2079,18.3
57.2139,145.1
57.2238,586.5
57.2334,374.1
57.2414,14.8
57.2472,20.5
57.2614,706.5
57.2812,332.3
57.3094,97.1
57.3113,18.8
57.3135,17.6
57.3163,509.5
57.3201,102.9
57.3215,99.6
57.3265,107.2
57.3271,111.6
57.3386,97.9
57.3417,155.9
57.3439,14.7
57.3486,311.3
57.3576,18.7
57.3603,224.1
57.3656,263.6
57.3683,109.9
57.3698,138.1
57.3742,261.3
57.3949,15.5
57.3958,866.4
57.4084,257.9
57.4488,161.7
57.4585,24.1
57.506,326.2
57.5109,249.4
57.5198,142.5
57.521,260.2
57.525,17
57.5375,650.7
57.5648,699.4
57.5699,15.9
57.578,393
57.6056,705.3
57.6138,16
57.6424,91.8
57.6479,20.8
57.6519,17.2
57.6851,619.9
57.7204,15.7
57.7392,305.5
57.753,19
57.7591,589.5
57.7623,83.7
57.7709,92.1
57.7831,597.1
57.7863,79.1
57.7903,400.6
57.7914,281.3
57.7985,337.9
57.8007,149.5
57.8181,571.2
57.8253,175.9
57.8547,151.6
57.8909,264.8
57.8924,15
57.8973,258.3
57.9038,873
57.9162,309.5
57.917,16.1
57.9177,514
57.9183,151.5
57.9242,251.9
57.9418,596.7
57.9433,217.5
57.9458,111.9
57.952,150.8
57.953,456.1
57.9678,436.3
57.969,200
57.9771,92.9
57.984,704.3
58.0012,147.2
58.0121,265.2
58.0201,16.3
58.0323,498.8
58.0444,244.1
58.0462,452.2
58.063,169
58.0659,167.9
58.0699,92
58.1106,158.4
58.1174,409
58.1213,88.3
58.1356,94.7
58.1388,194.1
58.1545,78.4
58.1805,287.4
58.195,626.3
58.202,96.2
58.2074,263.4
58.2107,87.7
58.222,85.3
58.2282,467.5
58.2316,20.7
58.241,395.1
58.2437,224.8
58.2468,329.2
58.2513,125.8
58.2597,772.2
58.2668,177.2
58.2954,609.7
58.3031,398
58.3058,18.9
58.3086,116.1
58.3318,224.6
58.3465,182.4
58.3691,205.6
58.3815,470
58.3831,97.6
58.4011,488
58.4034,630.2
58.4047,182.4
58.4193,346
58.4391,725.6
58.453,16.1
58.4548,18.6
58.4705,145.5
58.4733,245.7
58.4771,517.6
58.4835,160.5
58.4891,183.1
58.4939,511.6
58.4945,82.3
58.5051,163.1
58.5436,550.7
58.5513,111.1
58.5528,301.4
58.5739,204.5
58.5899,131.6
58.597,109.6
58.5986,16.4
58.5997,105.3
58.6092,440.5
58.619,90.1
58.6209,192.6
58.6232,16.1
58.6253,146.2
58.6259,604.9
58.6312,20.4
58.6373,20
58.6399,284.7
58.6472,351.2
58.6638,122.7
58.6721,97.4
58.6848,175.4
58.6933,16.2
58.6982,22.9
58.7067,400.1
58.7286,97.2
58.7426,91.2
58.7462,313.8
58.7475,18.8
58.7495,284.7
58.7668,184.4
58.7734,174.7
58.7907,122.3
58.8164,22
58.8325,759.2
58.834,392.1
58.8414,143.7
58.8596,93.4
58.8602,130.9
58.8627,164.9
58.8678,269.6
58.8809,22.3
58.9019,179.1
58.9033,161.1
58.9163,491.3
58.9231,393.9
58.9465,388.2
58.9492,76.7
58.9538,297.9
58.9794,82.6
58.9858,294.2
58.996,99.9
58.9978,15.8
59.0013,536.5
59.0212,478
59.0287,17.7
59.0323,15.3
59.0443,98
59.0521,297.6
59.0693,228.4
59.0853,140
59.0959,277.5
59.1074,124.9
59.1096,355.6
59.1327,564.5
59.1343,196.8
59.1421,356.3
59.1741,466.7
59.2009,701
59.2043,425.2
59.2166,179.2
59.2373,267.8
59.2537,475
59.2557,434.2
59.2625,21
59.2821,316.2
59.2852,239.3
59.3128,205.5
59.3377,352
59.338,120.2
59.3431,147.5
59.3452,89.2
59.3563,20
59.3632,80.9
59.374,316.6
59.3839,259.5
59.4367,231.5
59.4374,178.9
59.4412,15.7
59.4454,121.8
59.4479,16.3
59.5013,35
59.5077,21
59.5092,181.6
59.5137,16.7
59.5481,86.5
59.5534,430.9
59.5588,154.5
59.5718,432.7
59.5721,79.5
59.5748,236.9
59.5809,348.9
59.5909,108.6
59.5929,327.7
59.6005,256.1
59.6399,16.3
59.6403,179.1
59.6422,279.3
59.6454,213
59.6655,99.3
59.6823,118
59.7076,244.5
59.7265,23.2
59.7542,111.5
59.7617,334
59.7711,112.7
59.777,716.6
59.7796,16.6
59.7993,548.4
59.8085,126.5
59.8111,160.7
59.8199,358.2
59.8285,693.2
59.8328,139.5
59.8594,103.1
59.8651,19.1
59.8771,139.2
59.8872,141.3
59.9091,367.9
59.9111,255.5
59.9242,316.9
59.9255,452.4
59.9474,225.7
59.9558,559.3
59.9588,170.7
59.9641,288.7
59.9785,95.3
59.9796,432
59.9884,102.7
59.9971,16.5
60.002,15.8
60.0208,519
60.033,144.3
60.0881,386.3
60.0929,502.7
60.0984,16.3
60.1082,210.8
60.1163,92.7
60.1204,18.5
60.1275,91.8
60.1312,24.8
60.1326,103.5
60.1376,432.2
60.1508,583.4
60.1653,143.8
60.1868,17
60.1972,196.7
60.1987,508.1
60.2202,14.8
60.2253,15.3
60.2496,292.9
60.2608,514.5
60.2789,767.1
60.2797,22.7
60.2825,16.4
60.2849,218.7
60.2949,199.8
60.3246,284.5
60.342,121.9
60.3943,73.8
60.4072,214.5
60.4159,118.8
60.4282,19.1
60.43,195.8
60.4415,95.2
60.4457,21.1
60.4497,220.7
60.455,251.2
60.4678,90.5
60.4688,126.2
60.5033,120.3
60.5069,471
60.5111,20.9
60.5152,199.8
60.5238,17.4
60.5407,109.1
60.5492,84.4
60.5623,333.8
60.5749,458.9
60.5803,237.3
60.5866,154.3
60.5874,86.9
60.6158,95.9
60.6231,527.8
60.6277,401.3
60.6286,560.3
60.642,420.9
60.6443,822.7
60.6457,143.1
60.6759,28
60.6817,111.7
60.7151,16.4
60.7189,197.3
60.7213,514
60.7354,245.5
60.7419,169.7
60.7437,529
60.7447,527.6
60.7707,284.9
60.8125,855.8
60.8237,86.5
60.826,214
60.8298,285.2
60.8394,97.2
60.8497,17
60.9459,279.9
60.947,406
60.9491,117.4
60.9725,182.5
60.9845,27.6
60.994,139
61.006,657.6
61.0081,19.3
61.0181,81.8
61.0254,272.8
61.0297,584.3
61.0345,432.3
61.0475,18
61.0561,181.9
61.0619,156.5
61.0635,278
61.0656,164
61.0738,308.8
61.097,514.8
61.1045,642.8
61.1081,16.9
61.125,19.2
61.136,90.3
61.137,347.1
61.1412,295.1
61.1778,191.6
61.1935,19.2
61.2019,300
61.2316,451
61.2318,421
61.2462,216
61.2516,83.2
61.2569,325.2
61.2601,88.2
61.2675,32.2
61.2746,739
61.2824,16.3
61.2855,145.1
61.2913,780.6
61.2974,177.9
61.3238,448.2
61.3293,87.8
61.3561,112.3
61.3719,709.5
61.4066,268
61.4125,329.9
61.4217,364.4
61.4259,78.1
61.4332,16.3
61.4726,91.3
61.4891,767.1
61.5017,18.6
61.5113,15.7
61.5243,17.2
61.5322,277.4
61.5446,538.3
61.5475,511.6
61.5752,87.2
61.5763,519
61.6087,177.6
61.6145,442.2
61.635,17.7
61.6425,104.3
61.643,167.8
61.6468,15.6
61.6587,272.3
61.6619,554.1
61.6704,134.3
61.6721,463.8
61.6809,17.2
61.7106,512.4
61.7181,169.4
61.7309,111.6
61.7367,328.3
61.7529,170
61.7588,188.8
61.7652,249
61.766,84.2
61.7682,156.7
61.7789,110.8
61.7884,18.3
61.8064,574.1
61.8248,726.8
61.8617,21.1
61.8651,650.6
61.866,16
61.8967,96.2
61.9076,462.9
61.9128,357.6
61.9215,17.8
61.9276,741.2
61.9299,171.1
61.9357,307.2
61.9445,92.6
61.9538,494.8
61.9721,160.5
61.973,157.2
61.9888,150
62.0077,427
62.0106,123.3
62.024,107.6
62.0256,177.5
62.0357,17.8
62.0465,673
62.0575,18.1
62.0702,326
62.0806,19
62.0828,156
62.0833,233.3
62.0964,82.5
62.107,94.4
62.114,102.6
62.1295,163.7
62.1611,113.9
62.174,146.4
62.1987,134.3
62.1994,118.9
62.2003,330.1
62.2016,91.4
62.2068,733.9
62.2202,111.5
62.2216,167.7
62.2337,692
62.2399,94.9
62.2419,91.3
62.2498,105.2
62.2583,82.3
62.2951,268.1
62.3104,90
62.3797,344.7
62.3996,16.6
62.4169,23.7
62.4181,324.7
62.4243,35.7
62.4321,17.4
62.4662,226.7
62.4698,101.5
62.4702,97
62.4879,354.8
62.4962,19.2
62.5004,172
62.5014,453.5
62.5038,296.8
62.5043,20.1
62.5102,324.1
62.5328,111.6
62.5472,121.3
62.5505,19.9
62.5573,209.3
62.5711,538.6
62.575,440.4
62.5757,495
62.5787,448
62.5914,158
62.6046,83.6
62.6096,84.3
62.6102,376.3
62.611,448.1
62.6145,322.7
62.6152,279.9
62.6222,17.4
62.6382,98.4
62.6616,351.5
62.6716,439.9
62.6773,458.9
62.6783,213.5
62.6793,161.7
62.683,132.1
62.7006,194.9
62.7113,434.3
62.715,504.4
62.7171,498.3
62.7182,423.1
62.7189,294.2
62.7469,22.6
62.7494,289
62.7595,135.5
62.7792,469.4
62.8,150.4
62.8004,282.5
62.8197,344
62.8343,116.3
62.845,106.6
62.8495,369.9
62.8517,422.6
62.8537,486.3
62.8676,88.5
62.8695,245
62.888,565.7
62.8975,449.6
62.898,345.5
62.9184,74.1
62.9198,801.1
62.9391,81.5
62.9542,182.5
62.9641,253.7
62.9708,296.6
62.9884,244.6
62.9954,143.2
62.9963,436.4
63.0149,457.6
63.0262,484.6
63.0269,20.2
63.0552,134.1
63.0794,373.1
63.0845,391.3
63.1032,115
63.111,248.7
63.174,207.9
63.184,117.9
63.2118,190.5
63.2252,125.3
63.228,479.1
63.2475,400.7
63.2767,411.7
63.2801,182.9
63.2996,353.2
63.3032,25.3
63.317,325.6
63.324,259.8
63.3299,144
63.3382,122.7
63.3419,140.8
63.3453,16.8
63.3816,92.7
63.4073,28.8
63.4191,178.7
63.4356,1010.9
63.4411,198.5
63.4592,115.5
63.4604,250.7
63.4609,236.5
63.4754,201.9
63.4784,185.4
63.4855,222.6
63.4954,466.7
63.4971,809.9
63.5028,23.4
63.5048,86.8
63.5095,267.2
63.52,350.8
63.5553,349.7
63.562,161.1
63.5946,156.2
63.6104,159.3
63.6316,314.5
63.6483,607.1
63.6489,210.3
63.6836,266.8
63.7033,144.8
63.7073,888.7
63.7298,172.6
63.7441,656.7
63.7525,153.2
63.7634,387.8
63.7655,19.5
63.7672,582.9
63.7683,103.8
63.7716,86.9
63.7767,340.2
63.7792,162
63.7955,303.4
63.797,88.9
63.8049,21.1
63.8099,202.7
63.8209,256.2
63.8385,267.8
63.8474,245.2
63.8481,201.4
63.858,535.6
63.8645,16.5
63.8712,236.5
63.8798,243.4
63.8948,16.1
63.8977,150.8
63.9109,77
63.934,191.1
63.9522,208.1
63.9595,497.9
63.9779,18.2
63.9853,150.8
64.02,658.3
64.0228,711.4
64.024,272.6
64.0589,186.4
64.064,134.2
64.0668,222.4
64.0679,87.3
64.0713,567.4
64.0805,802.8
64.0843,968.1
64.0869,312.2
64.0879,325.9
64.1065,473.4
64.1093,276.7
64.1202,352.9
64.1322,240
64.1378,340.8
64.1488,102.3
64.1642,19.5
64.1681,654.9
64.169,314.8
64.1713,181.9
64.1785,650.5
64.1883,278.7
64.1942,96.8
64.2013,485.4
64.2556,753.1
64.2798,84.7
64.2865,113.7
64.2933,322.7
64.3045,409.9
64.3183,518.6
64.3256,254.2
64.3266,344.6
64.3341,221
64.336,95.5
64.3427,455.1
64.3484,111
64.3489,222.7
64.3763,18.4
64.4002,92.8
64.4076,95.9
64.4097,88.7
64.4347,90.2
64.4361,418.7
64.4595,100.4
64.4601,805.8
64.4697,90.8
64.4745,403.7
64.4936,778.7
64.4957,105.9
64.5112,119.9
64.5148,18.1
64.521,280.4
64.5305,22.9
64.5342,335.5
64.5405,146.5
64.547,361.2
64.601,296.4
64.6055,219.7
64.6158,402.9
64.647,17.9
64.6557,552
64.6869,272.9
64.7176,97.1
64.7236,344.3
64.7278,187
64.7311,201
64.757,20.8
64.7589,19.9
64.7621,549.7
64.7652,261.7
64.7792,156.3
64.787,118.2
64.795,17.1
64.8233,662.5
64.8312,107.2
64.8536,212.2
64.8611,154.5
64.8721,517.2
64.8767,196.6
64.8932,19.3
64.8997,93.9
64.91,185.2
64.92,227.9
64.9201,229.4
64.9223,20
64.9247,503.8
64.9292,111.1
64.9637,18.6
64.9701,18.3
64.9709,21.8
64.9721,24.2
64.9786,362.6
65.0076,17.8
65.0182,124
65.0197,75.3
65.0319,15.9
65.0431,536.1
65.0646,275.7
65.0774,299.4
65.0884,320.4
65.0895,455.9
65.1238,122.8
65.129,17.1
65.1321,148.8
65.1387,88.1
65.1397,244.4
65.1503,136.5
65.1509,430.3
65.1533,161.8
65.1562,87.8
65.1759,18.2
65.188,450
65.1998,198.2
65.2055,255.4
65.2289,134.9
65.232,183
65.2358,445.1
65.2439,247.1
65.2452,290.4
65.2509,444.7
65.3153,21
65.3239,133.3
65.3283,17.2
65.337,89.3
65.3428,588.8
65.3471,105.3
65.3478,101.9
65.3515,115
65.3587,133.1
65.3636,171.8
65.3701,190
65.3732,150.6
65.3753,88
65.3797,426.7
65.3852,93.2
65.3867,570.8
65.4122,192.3
65.4192,740.1
65.4397,593.1
65.4431,93.9
65.4475,391.4
65.4519,22.1
65.4563,28.1
65.458,450.3
65.463,19.8
65.4648,18
65.4766,255.1
65.4771,194.3
65.4793,270.4
65.4895,181.6
65.505,301.5
65.5228,807.9
65.5303,17.4
65.5456,439.4
65.5585,267.3
65.5636,107.1
65.5852,499.9
65.6016,103.9
65.6146,307
65.6333,17.8
65.6358,98.8
65.6423,335
65.6515,575.3
65.6533,19.9
65.6589,256
65.661,131.1
65.6783,93.6
65.6859,287
65.6943,20
65.6948,429.2
65.7104,294.6
65.7451,17
65.7582,287.1
65.7614,15.9
65.7623,169.7
65.768,306.2
65.7854,227.6
65.8026,16.3
65.8116,261.6
65.8273,420.3
65.8334,243.4
65.8423,540
65.8769,140.1
65.8878,185.3
65.8925,101.6
65.9054,255
65.906,278.2
65.9211,301.1
65.9252,203.2
65.9292,182.2
65.9306,198.1
65.9375,77.7
65.9536,352.6
65.9736,321.8
65.9756,179.3
65.989,647.3
65.9905,151.9
66.0233,392
66.0243,19.7
66.0391,342.3
66.0541,23.7
66.0734,31.9
66.0747,155.2
66.0967,497.7
66.1425,521
66.1615,235.7
66.1677,862.6
66.182,565.3
66.2108,107.9
66.2268,501.1
66.2383,768.2
66.2469,154.8
66.254,287.3
66.2603,89.5
66.2686,354.7
66.2795,21.8
66.2861,273.1
66.2915,121.3
66.2971,126.1
66.32,183.4
66.3251,16.7
66.3356,521.8
66.3452,111.4
66.3471,601.7
66.3678,485.1
66.3834,233.1
66.3936,101.9
66.4361,780.5
66.4634,259.4
66.4716,116.5
66.4954,19.1
66.547,18.2
66.5665,510.3
66.5698,151.1
66.59,131.5
66.5902,123.4
66.6145,105.7
66.6426,24.9
66.6577,350.2
66.662,471.8
66.6642,174.2
66.675,102.9
66.6862,122.4
66.6992,262
66.7052,371.2
66.7092,151.5
66.7174,108.8
66.7282,325.4
66.7378,270.9
66.7632,319.5
66.7703,222
66.7714,111.9
66.7837,140.1
66.7862,190.7
66.7864,171.5
66.8273,121.6
66.8297,459.8
66.8574,254.9
66.8654,282.1
66.8749,24.4
66.878,236
66.8845,150.4
66.889,185.3
66.8917,192.8
66.8938,137.9
66.8957,18.5
66.8991,643.2
66.9111,233.1
66.921,19.8
66.9436,158.1
66.9509,100.1
66.9515,111.9
66.9548,514.9
66.9621,115.7
66.9655,212.1
66.9806,93.2
66.9877,19.2
66.9991,17.9
67.0073,112.3
67.0258,390.8
67.0271,325.8
67.0289,260.2
67.0339,18.3
67.0432,496.7
67.0539,75.5
67.0588,319.3
67.0596,496.3
67.0608,18.1
67.0783,16.5
67.0903,702.4
67.0961,170.3
67.1214,240.5
67.1463,32.1
67.1468,309.4
67.1565,161.2
67.1714,533.2
67.1726,170.8
67.1785,108.4
67.2104,16.2
67.2287,93.8
67.2515,194.4
67.2643,407
67.267,295.7
67.271,17.4
67.2889,135.5
67.2991,18.7
67.32,22.2
67.3441,204.5
67.3467,21.4
67.3622,105.1
67.3627,133.1
67.3997,126.7
67.4253,567.1
67.4281,156.8
67.4319,19.3
67.4339,163.1
67.4425,180.1
67.4477,204.4
67.4573,176.2
67.4686,174.5
67.49,522.9
67.5237,338.5
67.5607,18.9
67.5656,129.1
67.5868,209.7
67.6001,752.8
67.6026,307.3
67.6104,18.1
67.6121,373.8
67.6282,15.3
67.6749,142.8
67.6783,763.9
67.6813,417.9
67.719,309.4
67.7266,775.8
67.7651,212.1
67.7864,18.2
67.7899,762.2
67.8143,145.9
67.8284,117.7
67.8498,651.8
67.8552,83.4
67.8665,483.2
67.8686,207.6
67.9077,18
67.9175,357.4
67.9403,205.9
67.9557,254.7
67.9579,257.9
67.9821,847.8
67.9832,133
67.9839,184
68.0244,535.8
68.0406,17.6
68.0505,18.8
68.0661,290
68.0774,369.2
68.0937,183.2
68.1052,112.1
68.1398,168.2
68.1558,16.5
68.1605,119
68.1728,250.4
68.1814,135.6
68.187,741.1
68.2028,126.5
68.22,120.5
68.234,16.4
68.2628,510.2
68.2846,286.9
68.2957,129.3
68.3201,167.6
68.3445,227.8
68.3726,203.3
68.3838,430.3
68.3906,221.1
68.3985,24.7
68.4053,201.5
68.415,519.9
68.4171,321.7
68.4205,176.2
68.4326,791.7
68.4419,435
68.4529,128.4
68.4603,1010.5
68.4723,336
68.4924,484.8
68.4963,314.5
68.4999,19.3
68.504,18.3
68.538,145.7
68.5609,106.3
68.5783,165.5
68.5957,762.1
68.5993,170.1
68.6159,165.4
68.6202,319.1
68.6261,104.4
68.6321,492.9
68.6371,88.8
68.6657,388.4
68.666,337.3
68.6663,367.3
68.6872,16.7
68.7017,477.1
68.7112,19.2
68.7133,231.1
68.7403,148.1
68.7567,511.9
68.7768,441.7
68.7781,104.2
68.7858,118.2
68.7892,164.2
68.7959,247.3
68.824,101.2
68.8333,218.3
68.8387,511.3
68.8557,651
68.8585,119.6
68.8727,199.7
68.8979,330.6
68.8984,363.5
68.9148,17.5
68.9313,311.6
68.9416,369
68.9469,323.5
68.9623,646.6
68.9659,154.9
68.9709,102.8
68.9829,355.8
68.9856,126.9
68.9885,110.5
68.9906,188.9
69.0053,139.9
69.013,79.2
69.0215,210.8
69.0371,20.3
69.0387,373.5
69.0524,122.3
69.0731,18.2
69.0881,122.7
69.1277,166.2
69.1346,231.3
69.147,526.8
69.1542,557.4
69.1557,16.1
69.1589,253.9
69.162,193.5
69.166,18.8
69.2022,392.6
69.2225,281.2
69.2644,119.9
69.2824,152.6
69.3171,108.8
69.3185,236.3
69.3364,123.9
69.3681,433.5
69.3852,107.3
69.4138,657.1
69.4236,571.2
69.4243,23.4
69.4351,205
69.4392,165.2
69.4411,519.8
69.4775,436.8
69.4839,152.6
69.4847,188.9
69.4906,245
69.5037,120.6
69.5115,120.6
69.5144,105.4
69.5237,254.1
69.5254,115.3
69.543,136.7
69.5465,467.7
69.5568,310.8
69.5578,118.5
69.5677,181.5
69.5879,475
69.5957,332.2
69.6077,709.7
69.6148,26.9
69.6386,177.9
69.6586,375.5
69.6611,534.2
69.6936,698.2
69.7032,18
69.7073,319.8
69.717,154.8
69.7292,133.5
69.7538,142.5
69.7562,320.9
69.7664,198.1
69.7819,785.9
69.7883,158.4
69.8168,274.6
69.8524,139.4
69.8565,18.8
69.8975,119.8
69.9232,152.1
69.9352,323.4
69.965,127.4
69.9669,177.9
69.9876,183.4
69.996,153.8
70.0014,151.1
70.0037,180.4
70.0087,19.9
70.0648,238.9
70.0949,127.6
70.1079,97.1
70.1094,249.4
70.1542,28.3
70.1634,267.6
70.1656,313.7
70.1729,95.7
70.1767,110.8
70.1894,113.9
70.1907,18.9
70.1958,516.4
70.2094,199.2
70.2111,318.4
70.2259,602.1
70.2273,28.1
70.2462,349.4
70.2489,856.9
70.273,486.1
70.2911,15.8
70.3048,88.9
70.3115,326.1
70.3439,479.2
70.366,174.2
70.3774,151.4
70.3965,246.8
70.4396,408.5
70.4501,129.4
70.4572,18.7
70.4585,271.8
70.4696,285.8
70.4906,119.1
70.4955,128.8
70.5049,428.3
70.5167,17.8
70.5176,567.4
70.5283,352.5
70.5585,247.5
70.5754,564.8
70.5775,398.2
70.5863,546.6
70.6299,98.3
70.6524,440
70.6594,121.6
70.7027,288.9
70.7062,18.7
70.7173,78.9
70.7193,198.5
70.7286,16.9
70.7314,206.6
70.7375,229.4
70.7447,263.3
70.8141,93
70.8227,202.6
70.833,149.8
70.8417,489.5
70.8584,156.1
70.8986,208.3
70.9021,429.7
70.9056,177.5
70.9103,397.9
70.9183,264.9
70.9264,247.2
70.9695,200.4
70.9731,294.9
70.9882,193.2
71.0593,358.9
71.067,356.8
71.0973,482.8
71.1157,903.9
71.1165,125.5
71.1186,117.9
71.161,1050.2
71.1721,305.1
71.1912,182.6
71.2023,161.9
71.2058,128.1
71.2151,87.5
71.2209,255
71.2331,300.3
71.2635,235.4
71.276,410.3
71.2956,475.7
71.3106,465.9
71.3187,762.1
71.3222,96.8
71.3356,244.1
71.3457,16.9
71.3472,461.2
71.3945,609.8
71.4067,436.1
71.423,180.4
71.4274,156.3
71.4422,153.8
71.4463,510.8
71.4474,114.7
71.4687,159.3
71.4766,488.5
71.5043,485
71.5059,20.9
71.5106,123.7
71.5176,93.2
71.5376,314.8
71.5389,144.6
71.5571,254.5
71.573,17.8
71.5742,570
71.5798,830.5
71.5817,246.3
71.5845,154.6
71.5852,140.3
71.5963,223
71.6068,114.4
71.6209,84.6
71.6525,412.8
71.6566,145.3
71.6627,97.5
71.6691,572
71.6976,114
71.7015,199.5
71.705,147.8
71.7162,520.3
71.7207,114.8
71.7364,152.2
71.7526,746.1
71.7579,18.5
71.7677,144
71.7905,17.6
71.793,16.6
71.7991,113
71.8019,201.6
71.8121,240.2
71.8152,267.1
71.8499,522.2
71.8526,177.2
71.8532,321.6
71.9013,140.9
71.902,228
71.92,15.3
71.9476,262.8
71.9526,269.8
71.9561,519.9
71.9598,355.7
71.9918,284.9
71.9923,18.6
72.006,96.5
72.01,329.1
72.0126,16
72.0464,286.1
72.0558,787.9
72.0615,461.7
72.065,467.7
72.0782,98.8
72.0785,117.9
72.0787,113.9
72.0805,130.4
72.0879,20.2
72.1009,369.1
72.1081,171.6
72.1095,151.2
72.1978,19.8
72.2083,248.2
72.2188,196.1
72.2197,24.7
72.2217,467.5
72.2227,1020
72.2239,983.4
72.2244,1285.5
72.2252,1809.3
72.2258,1114.1
72.2264,1172.1
72.2274,1149.1
72.2281,1290.7
72.2285,1223
72.2301,2317.2
72.2311,1215
72.232,1356.5
72.233,709.1
72.2341,2603.9
72.2346,3293.8
72.2357,1240.3
72.2364,1365.5
72.237,1722.9
72.2378,1243.2
72.2384,973
72.239,1253.9
72.2393,1422.2
72.2402,4233.7
72.2414,2519.1
72.2424,1793
72.243,1368.8
72.2435,2301.3
72.2444,2724.2
72.2449,1714.6
72.2457,1676
72.2469,3163.2
72.2488,321.5
72.2496,1248.2
72.2509,104
72.2523,750.5
72.2538,828.9
72.2542,97.8
72.2599,326.7
72.2751,351.4
72.2787,93
72.2868,128.4
72.291,106.7
72.3155,666
72.3309,196.1
72.3482,257.3
72.3677,142
72.37,160.1
72.3932,129.4
72.3982,206.6
72.4023,128
72.4246,18.7
72.4279,164.7
72.4359,141.9
72.4569,214.4
72.4919,252.7
72.4984,233.9
72.536,478.3
72.5425,107.5
72.5835,127.1
72.627,86.3
72.6308,109.8
72.6478,126.4
72.6582,566.8
72.6614,314
72.6944,86
72.7028,24.8
72.7083,182.9
72.7193,17.9
72.7282,268.1
72.7372,164.2
72.7387,243.4
72.7629,16.7
72.7841,366.8
72.7869,504.1
72.7911,153.4
72.8194,105.6
72.8259,204.9
72.8278,686
72.8384,143.3
72.8391,340.7
72.8451,303.6
72.8508,159.5
72.8577,719
72.8766,95.8
72.8825,935
72.8895,110.2
72.8981,405.6
72.9081,312.7
72.9247,18.4
72.946,16.4
72.9584,332.4
72.9642,410.1
72.9673,17.1
73.019,214.2
73.0311,17.3
73.0434,16.7
73.0468,148.6
73.0659,184.4
73.0724,169.5
73.092,167
73.1298,89.4
73.1624,319.8
73.1631,413.4
73.1641,129
73.1929,393.6
73.208,804.2
73.2101,422
73.2181,452.7
73.2311,393.1
73.2365,349.5
73.2632,134.9
73.2793,19.6
73.2864,532.8
73.293,264
73.3361,187.7
73.3497,111.9
73.3748,202
73.3855,95.3
73.3872,664.9
73.4053,103.2
73.44,171.4
73.4547,242.4
73.475,143.1
73.4825,172.6
73.4937,397.1
73.5155,20.7
73.5178,142.1
73.5528,85.5
73.5583,266.3
73.5728,332
73.5919,94.6
73.6072,112.3
73.6332,290.9
73.6441,91.8
73.6712,203.5
73.6841,387.6
73.6887,17.8
73.7185,145.8
73.724,378.8
73.7565,529.7
73.7584,450.6
73.7743,451.4
73.7785,503.3
73.7935,503
73.8194,692.9
73.8237,580.4
73.8734,260.5
73.8779,345.8
73.881,184
73.8819,16.3
73.8923,488.3
73.912,144.2
73.9131,149.5
73.9152,93.8
73.936,313.2
73.9604,106.4
73.9714,135
73.9735,483.7
73.9961,337.4
73.9968,803.4
74.0104,236.6
74.0275,641.3
74.0355,170.4
74.0509,16.6
74.0597,3886.3
74.0655,154.2
74.0817,356.3
74.0886,304.7
74.1099,586.4
74.1164,466
74.1396,131.8
74.1995,198.9
74.2019,182.7
74.2028,106.5
74.2627,554.7
74.3095,89.3
74.3244,542.6
74.3391,211
74.3437,318.9
74.3763,167.9
74.4041,100.8
74.4069,195.6
74.4187,114.7
74.432,316.7
74.4604,284.3
74.4681,132.3
74.4782,112.6
74.4829,239.1
74.5049,139.5
74.5271,228.4
74.5335,17.1
74.5592,19.2
74.5603,268.6
74.6093,285.9
74.6197,250.2
74.6482,23.9
74.6791,248.9
74.6869,231.6
74.6981,437.9
74.7395,163.7
74.7433,97.4
74.7557,93.5
74.772,310.9
74.7742,153.3
74.7943,119.6
74.8333,18.7
74.8587,857.9
74.8609,85.7
74.867,202.5
74.8753,554.3
74.8767,142.6
74.8824,24.7
74.8944,664.9
74.9521,19.5
74.9679,271.7
74.9871,173.6
75.0332,757.1
75.044,191
75.0473,532.9
75.0836,332
75.0962,269.3
75.097,142.5
75.1279,19.8
75.1327,104.9
75.1603,105.7
75.1853,404.8
75.1982,17
75.2008,185.1
75.2022,436.1
75.2116,597.7
75.2192,89.8
75.2335,151
75.2453,93.4
75.2936,255.8
75.3439,17.7
75.3509,116.1
75.3925,127.4
75.4005,98.6
75.4042,325.9
75.4551,18.5
75.4747,115.8
75.4987,88.2
75.5037,17.8
75.51,176.1
75.5877,176.4
75.6009,243.5
75.6263,161.4
75.6413,91.6
75.6551,345.8
75.7004,296.7
75.7058,284.7
75.7173,327
75.7265,93.9
75.7341,289.7
75.7358,425.1
75.7873,236.4
75.8092,215.4
75.8153,175.5
75.8193,164.6
75.8278,79.8
75.8349,126.1
75.8365,163
75.8426,167.6
75.8495,103.4
75.9588,148.4
75.9678,281.3
75.9687,303.7
76.0122,170.2
76.0165,269.4
76.0537,473.1
76.0655,318.8
76.0668,272.8
76.0672,261
76.1355,92.7
76.1416,210.9
76.1539,238.5
76.1737,92.9
76.1965,132.8
76.2146,318
76.2219,136
76.2235,16.3
76.23,120.5
76.2356,128.8
76.2431,496.4
76.2548,19.4
76.2608,454.7
76.2719,162.2
76.2729,664.2
76.2946,189.8
76.3097,299.9
76.3106,243.5
76.3126,19.2
76.3182,522.2
76.32,17.9
76.3251,126.6
76.3442,16.1
76.3519,133.2
76.3829,463.9
76.3894,105.1
76.4122,301.7
76.4314,223.2
76.4378,144.6
76.4422,19.3
76.498,452
76.5034,136.6
76.5417,28.4
76.5527,146.8
76.5692,537.3
76.583,531.3
76.5913,293.9
76.6009,17.1
76.6236,95.4
76.6244,16.5
76.6496,195.3
76.6583,668.8
76.6792,110.6
76.6813,223.2
76.689,551.2
76.6943,84
76.6974,425.4
76.6988,554.8
76.7033,547.3
76.7143,372.8
76.7227,25.7
76.7262,216.6
76.7282,148.3
76.7438,252.1
76.7462,499.3
76.7801,305.4
76.7815,310.3
76.7867,501.5
76.7896,149
76.8126,464.1
76.8277,241.8
76.8418,86.8
76.8481,708.8
76.8782,536.1
76.8869,822.8
76.8983,147.3
76.9029,16.7
76.9426,82.2
76.9632,18.7
76.964,487
76.965,527.3
76.9724,431.1
76.9942,178
77.0166,107.8
77.0198,161
77.0308,27.4
77.0324,35.1
77.0334,27.4
77.0345,556.4
77.0353,387
77.0362,24.2
77.0383,115798.7
77.0396,19.3
77.0497,484.6
77.0947,113.2
77.1023,212
77.105,100.8
77.1103,154.1
77.1243,90.1
77.126,100.4
77.1434,508.1
77.1683,157.5
77.1883,175.3
77.2052,368.6
77.2069,111.4
77.2263,106
77.2434,620.4
77.2468,251.7
77.2635,617.6
77.3097,486.9
77.3263,272.6
77.3414,777.9
77.3512,286.8
77.3551,331.5
77.3923,311.5
77.3993,124.1
77.4503,139.4
77.4579,97.3
77.4776,467
77.4834,189.3
77.4923,190.5
77.512,297
77.5263,102.9
77.5391,79.5
77.5419,306.6
77.5507,270
77.5681,451
77.5724,501.8
77.5831,108.5
77.5988,200.8
77.6109,231.8
77.6358,505.9
77.6489,17.7
77.6525,116.3
77.6537,313.6
77.6595,496.6
77.6754,132.1
77.6987,517
77.7131,20.2
77.7307,184.7
77.7553,93
77.757,17.5
77.7682,250.9
77.7767,15.6
77.7972,16.7
77.7995,526.9
77.811,245.3
77.8167,20.8
77.8747,268.2
77.8964,354.3
77.9067,178.1
77.9078,85.9
77.9156,442.9
77.9355,17.5
77.9412,738.9
77.9431,137.7
77.9758,194.4
77.9814,164.2
78.0057,279.5
78.037,161.8
78.0399,304.6
78.0417,3297.5
78.0577,866.8
78.0698,376.5
78.0757,139
78.0988,825.5
78.1318,21.6
78.1355,312.7
78.1634,82.3
78.2401,98.8
78.2455,870.7
78.2555,129.8
78.2693,295
78.2896,20.8
78.3002,17.2
78.314,140.2
78.3223,17.1
78.3348,351.7
78.3411,277.4
78.3447,126.5
78.3547,300.1
78.3568,157.8
78.3649,588.9
78.3675,263.6
78.3946,799.9
78.4041,20.5
78.4056,145.6
78.4215,298.6
78.4382,30.1
78.4893,465.8
78.4978,230.9
78.5012,114.9
78.5067,881.5
78.5452,126
78.5469,123.5
78.5519,18
78.5634,92.6
78.5653,87.4
78.5739,438.6
78.5766,582.6
78.6041,16.2
78.6122,339.6
78.6304,285.6
78.648,876.1
78.6535,230.8
78.681,152.9
78.6823,94.1
78.6834,425.4
78.6836,424
78.7002,572.4
78.7237,236.9
78.7331,425.7
78.7362,756.8
78.7471,387.5
78.7554,19.5
78.7575,23.7
78.7735,19
78.781,146.4
78.7851,177.9
78.7943,733
78.7992,476.7
78.8343,561.7
78.867,135.6
78.8859,783.7
78.8899,454.7
78.9088,249.4
78.9114,269.1
78.9167,403.1
78.9275,100.8
78.9702,307.6
78.9968,238.8
79.0026,204.6
79.0373,20.3
79.0529,17
79.054,1711.9
79.0775,126.3
79.0841,246.1
79.0946,492.6
79.1464,347
79.1756,18.6
79.197,144.5
79.2198,186.2
79.2342,122.9
79.2408,99.7
79.2661,320.8
79.2845,536.2
79.285,25.8
79.2871,417.9
79.2929,337.4
79.3034,19.3
79.3168,15.9
79.3184,95.6
79.3426,119.5
79.3525,194.5
79.3606,86.5
79.375,107.2
79.3802,18.3
79.4178,140.5
79.4393,228.8
79.445,344.8
79.4543,285.2
79.4714,100.1
79.4771,436.6
79.4784,243
79.488,191.4
79.5241,702.3
79.5292,187.2
79.5312,202.7
79.5317,179.2
79.5356,24.6
79.57,252.9
79.643,293.1
79.6433,288.1
79.6627,17.7
79.6694,162
79.7046,89
79.7095,204.5
79.7162,755.7
79.7269,89.7
79.7336,17.9
79.738,17.4
79.7458,19.3
79.782,17.8
79.7839,117.1
79.8186,233.3
79.8464,339.6
79.8593,102.7
79.8678,18.4
79.8717,344.5
79.8776,369.1
79.9084,546.8
79.9127,543.9
79.9479,251.1
79.9498,408.5
79.9512,123.4
79.9543,124.2
79.9798,398.2
79.9826,260.3
80.0084,358.5
80.0487,873.1
80.0503,329.1
80.0573,58
80.0594,100.7
80.0688,679.2
80.092,108.8
80.1062,287
80.111,18.4
80.1303,30
80.1366,105
80.1417,773.5
80.1779,316.1
80.1848,16.5
80.1859,196.8
80.191,338.7
80.2175,149.7
80.2389,297
80.2464,319.6
80.2526,110.6
80.2547,103.7
80.2565,414.4
80.2781,338.2
80.2809,117.3
80.2966,131.2
80.3071,262.4
80.331,18.8
80.346,288.4
80.352,723.7
80.3675,277.3
80.3844,118.1
80.3884,82.8
80.3919,122.9
80.4114,646.2
80.4161,327
80.4541,101.3
80.4914,381
80.5131,340.1
80.5149,17
80.5169,114.4
80.5391,171.8
80.5405,113.8
80.5416,328.2
80.5594,189.8
80.5603,121.8
80.5721,86.6
80.5796,479
80.5939,89.5
80.6109,281.4
80.6183,21.2
80.6208,108.9
80.6323,636.4
80.643,251.4
80.66,327.3
80.6643,86.8
80.708,93.2
80.713,149.9
80.7529,261.5
80.7621,268.4
80.7683,124.2
80.8253,519.7
80.832,112
80.8471,532.6
80.8603,229.6
80.8622,534.5
80.8742,588.2
80.8809,458.7
80.8844,225.4
80.8891,92.4
80.8972,110.9
80.9149,25.3
80.9276,89.7
80.9351,184.2
80.9476,67825
80.9588,289.3
80.9603,142.3
80.9802,197.4
80.9983,159.3
81.008,93
81.025,308.1
81.0283,187.1
81.0433,774.4
81.0664,99.1
81.0696,1097.9
81.0723,193
81.0773,153.8
81.0972,240.4
81.1255,319.6
81.133,242.2
81.1409,762.4
81.142,252.8
81.1426,435.6
81.144,1787
81.1462,96.3
81.148,243
81.1488,197.4
81.1737,226.9
81.1751,125.3
81.1837,274
81.1904,360.2
81.1993,344.8
81.2214,93.3
81.2366,91.2
81.2554,121.4
81.2697,493.5
81.2722,305.6
81.2758,544.8
81.2823,941.4
81.2942,495.7
81.3078,558
81.3309,297.5
81.3394,19.1
81.3401,737.9
81.346,628.2
81.3477,198
81.3538,101.1
81.3581,111.1
81.3643,513.5
81.382,349.8
81.4074,78.8
81.4145,262.4
81.419,115.9
81.4395,353.9
81.4626,103.3
81.4845,159.6
81.5414,149.5
81.5831,178.9
81.5855,298.2
81.5922,252.9
81.5955,146.3
81.6186,843.7
81.6233,246.6
81.6465,311.9
81.6471,159.2
81.6624,88.2
81.6813,17.6
81.682,693.8
81.7004,143.4
81.7413,26.9
81.7737,19.4
81.7829,262.1
81.784,93.7
81.7911,89.7
81.792,187.1
81.7931,95.1
81.8013,302.2
81.8838,18.2
81.8993,164.8
81.9282,100.4
81.9544,350.7
81.9645,121
81.9728,288.3
81.998,476.1
82.0006,87.9
82.0366,427.3
82.0382,159.4
82.0393,120.6
82.0862,376.2
82.1117,673
82.1288,409.4
82.1318,158.9
82.1329,129.8
82.1343,186
82.1617,112.6
82.168,657.8
82.1689,198.7
82.171,906.8
82.1859,281.4
82.1922,186.8
82.2139,360.3
82.2218,125.7
82.2445,453.8
82.2466,16.9
82.2584,362.7
82.2661,745.6
82.2716,347.4
82.2851,478.1
82.2988,19.2
82.304,436.6
82.3328,16.4
82.3657,167.4
82.3726,492.2
82.3862,757.9
82.4068,442.8
82.4299,147.9
82.4355,348.1
82.4658,292
82.4758,623.9
82.5062,198.6
82.5195,300.5
82.546,589.1
82.5502,22.3
82.5579,143.9
82.5844,92.7
82.5978,581.2
82.6089,372.6
82.6091,361.4
82.6599,523.4
82.6657,103.2
82.6737,434.9
82.7226,19.3
82.7265,254.8
82.739,193.5
82.7547,99.8
82.7827,257.9
82.7837,170.4
82.8002,288.5
82.8018,419.1
82.8083,312.4
82.8546,162
82.8806,332.4
82.8853,148.1
82.9223,550.9
82.9234,564.9
82.9334,216.2
82.9411,302.6
82.9447,19520
82.9762,149.5
82.9828,258.6
82.9986,182.3
83.0036,102.7
83.0185,105.6
83.0554,779.7
83.0854,118.3
83.0999,305.3
83.1105,26.8
83.1209,18.1
83.1265,772.7
83.1334,135.3
83.1535,517.2
83.1589,484.5
83.1676,158.3
83.1722,218.4
83.1857,104
83.2168,18.9
83.2401,390.5
83.2442,25
83.2464,16.4
83.2742,120.4
83.278,302.1
83.3035,124.6
83.315,662.5
83.3305,118.2
83.3383,467.7
83.3475,124.8
83.3505,791.2
83.3527,741.7
83.3807,203
83.3848,23.8
83.4021,106.7
83.4182,199.3
83.4623,25.3
83.5227,157.6
83.5307,15.6
83.5353,534.9
83.6133,217.1
83.6154,158.9
83.6233,90.1
83.6262,466.7
83.6706,295.3
83.6779,99.1
83.6786,25.5
83.6946,261
83.7052,749.6
83.7271,126.8
83.7437,758.6
83.7486,317.6
83.7783,215
83.7831,265.3
83.7892,258.6
83.7999,620.5
83.81,156
83.8163,27.8
83.8208,707.8
83.8223,219.8
83.8282,366.1
83.8295,286.6
83.8469,21.1
83.8525,78.6
83.8621,333.3
83.8641,154.2
83.8651,142.8
83.8702,304.2
83.8721,113.1
83.8776,16.4
83.8842,294.2
83.9013,100.2
83.9068,172.8
83.9114,514.6
83.9426,375.3
83.9606,556.3
83.9661,279.9
84.0106,332.7
84.0442,827.5
84.0454,23.3
84.0736,16.8
84.0871,169.8
84.0941,122.9
84.1054,159.2
84.1142,151.3
84.1163,147.2
84.1215,483.6
84.1301,188.8
84.1675,573.3
84.183,121.1
84.2105,283.1
84.2274,143.1
84.2298,20.4
84.2479,269.7
84.2689,106.6
84.2808,159.2
84.3703,151.7
84.3827,170.9
84.3878,22.4
84.3908,19.1
84.4447,24.5
84.4633,23.7
84.4762,716.2
84.4999,239.6
84.5026,186.1
84.5418,124.9
84.5778,79.7
84.5805,505.5
84.5954,245.4
84.6443,23.7
84.6827,231
84.6911,205.6
84.7163,222.8
84.7363,724
84.7395,94
84.7429,559.4
84.7442,86.8
84.7489,196.5
84.7599,506.3
84.774,16.4
84.7801,178.9
84.7959,127.2
84.8031,115.3
84.8294,253.2
84.8505,431
84.8736,151.5
84.8763,146.2
84.9011,209.9
84.9053,498.6
84.9143,154.1
84.932,501.9
84.9595,20291.1
84.9734,449.7
84.9966,231.2
85.0245,133.4
85.0282,585.1
85.057,313.5
85.0917,26.3
85.101,160.1
85.1143,17.4
85.1312,18
85.1365,230.7
85.1379,119.9
85.1945,156
85.2099,464.3
85.2418,143.7
85.257,194.6
85.2781,225.1
85.2924,304.9
85.3055,177.9
85.3258,18
85.3285,238.7
85.3339,107.4
85.3401,321.9
85.3491,101.6
85.3737,420.7
85.3873,573
85.4069,332.9
85.4276,95.2
85.443,90.2
85.4445,528.3
85.4541,349.7
85.4796,103.1
85.4822,20.1
85.4965,111.3
85.5277,176.2
85.5306,255.1
85.5501,19.9
85.553,131.3
85.5686,92.6
85.6031,783.8
85.6371,141
85.641,17
85.6434,136.9
85.6476,284.2
85.6831,273.7
85.7026,123.6
85.7034,575.2
85.7339,330.5
85.7686,508.3
85.7822,20.4
85.8344,111.3
85.8536,123
85.8796,133.9
85.8855,18
85.9265,162
85.9852,430.7
86.0064,26.6
86.0098,18.3
86.0239,89.5
86.0288,19.1
86.0598,34448.7
86.078,19.1
86.083,15.9
86.0943,442.8
86.0962,138927.6
86.1167,320.1
86.124,17.7
86.1257,259
86.1577,91.7
86.1623,629.7
86.1746,183.9
86.1999,18.8
86.2035,208.2
86.2411,29.3
86.2617,344.8
86.2654,141.4
86.363,245.5
86.368,17.4
86.3767,323.4
86.3806,442.8
86.3865,519.9
86.3916,371
86.3935,660.8
86.3945,142.8
86.4151,292.5
86.4301,925.1
86.4403,250.2
86.4441,235.9
86.4737,103
86.4787,314.9
86.4869,92.8
86.5171,88.5
86.5216,147
86.5541,110.7
86.5804,518.7
86.5891,84.1
86.5973,273.3
86.6297,16.2
86.6584,105.7
86.6622,25.6
86.7015,118.5
86.7239,811.4
86.7332,18.6
86.74,101.5
86.7425,118.7
86.7457,258.9
86.7866,119.8
86.7969,17.5
86.7991,239
86.82,18.9
86.8671,250.3
86.8766,276.1
86.9061,18.8
86.9157,19.3
86.9407,191.8
86.9509,20.7
86.9611,343
86.9753,122.1
86.9899,320.7
87.0107,17.6
87.0133,196.8
87.0242,206.7
87.0386,768.1
87.0996,3846
87.1108,109.9
87.1198,120.8
87.132,175.2
87.1548,229.5
87.1618,254.5
87.1626,160
87.1866,379.5
87.1998,17.3
87.2242,527.5
87.2715,483.4
87.2835,343.9
87.2931,770.2
87.2946,294.1
87.3099,235.7
87.3846,847.9
87.4085,149.1
87.4221,146.8
87.4583,88.5
87.4834,567.6
87.4843,16.7
87.5663,298.5
87.6329,17.4
87.6441,147.4
87.6609,122.9
87.6708,388.3
87.677,212.6
87.6804,291.8
87.6815,308.8
87.7173,263.5
87.7419,177.9
87.7502,539.2
87.7654,17.8
87.7758,822.7
87.7894,378.2
87.7919,271.8
87.8092,22
87.8287,104.3
87.8334,733.2
87.851,118
87.8527,93.3
87.8768,267.7
87.9245,200.9
87.9345,304.2
87.9381,606.4
87.9417,148.1
87.9494,113
87.9569,553.6
87.9574,170
87.9641,16.8
87.9653,124.1
88.0217,511.2
88.023,284.2
88.0267,754.9
88.0391,8513.7
88.0445,219
88.0947,17.4
88.0966,38
88.1356,77.9
88.1564,106.9
88.1641,525.6
88.1746,183.2
88.1777,146.9
88.1836,285.3
88.1943,751.5
88.2179,265.8
88.2203,452.9
88.223,17.1
88.2248,154
88.23,102.3
88.2312,384.7
88.2698,128
88.3032,20.1
88.3317,439.5
88.3361,84.9
88.3375,249.4
88.3399,197.2
88.3639,109.7
88.3788,81.6
88.4496,20.7
88.46,30.5
88.461,327.1
88.4766,133.2
88.477,130.1
88.4782,127.3
88.4793,163.7
88.4917,338.2
88.5217,18.5
88.5433,290.6
88.5586,356.3
88.5886,78.7
88.6234,96.2
88.6431,16.8
88.6806,115.2
88.6906,176.2
88.6915,118.4
88.6971,333.7
88.7379,286.6
88.7729,194.8
88.8009,378.6
88.8016,734.1
88.8282,174.2
88.869,107.8
88.883,108.1
88.9103,18.2
88.9116,334.5
88.9316,268.7
88.9327,141.4
88.9525,23.6
88.9925,786.2
89.0512,164.9
89.0896,19.3
89.1573,433
89.1731,378.4
89.1877,510.9
89.2196,117.3
89.2349,19.1
89.2437,326.6
89.2812,119.6
89.2888,301.7
89.2997,548
89.3076,180.8
89.3167,280.8
89.3298,198
89.3731,285.5
89.3828,17.5
89.3842,124.5
89.3994,17
89.4002,515.6
89.4528,176.1
89.4728,405.9
89.4828,106.5
89.4985,17.2
89.5113,332.9
89.5122,19.1
89.5514,320.7
89.5784,86.3
89.5864,141.1
89.6683,17.9
89.7074,20.7
89.7157,398.5
89.7548,189.2
89.793,20.9
89.7978,272.7
89.8598,20.2
89.872,247.5
89.8841,290.1
89.9077,508.1
89.9124,18.4
89.9391,16.8
89.9819,18.7
89.9847,128.4
89.9911,444.8
90.016,301.1
90.0306,299.8
90.0322,194.2
90.0416,747.5
90.0739,335.9
90.1138,470.8
90.118,271.1
90.1663,619.4
90.1689,88.7
90.1726,140.1
90.2608,216.1
90.3043,351.4
90.333,177.3
90.3356,285.7
90.3367,530.4
90.3492,21.3
90.3767,153.2
90.425,502.1
90.4275,183.1
90.4513,19.6
90.4699,180
90.4902,556.3
90.4989,193.6
90.5041,87.2
90.5199,17.5
90.5337,78.6
90.5628,475.7
90.5962,126.9
90.6412,99.8
90.7074,117.4
90.7143,109.9
90.7196,455.2
90.7234,103.2
90.7273,719.4
90.7364,188
90.7567,379.5
90.7623,96.3
90.7838,739.2
90.7875,149.8
90.8012,833
90.8259,454.7
90.8266,168.6
90.8485,142.8
90.9136,663.8
90.918,296.1
90.9271,19.6
90.9307,524.9
90.9475,147.1
90.9765,11045.7
90.9798,132.7
90.9878,17.5
91.0053,763.7
91.0245,382.1
91.0306,117.2
91.053,114.2
91.054,2053.7
91.0573,18.5
91.0832,19.9
91.0926,145.2
91.157,25.7
91.1903,632.4
91.1973,226.4
91.2211,522.9
91.2324,24
91.2427,282.3
91.2631,29.4
91.2777,124.9
91.2951,217.6
91.3005,157.1
91.3064,315.1
91.308,188.9
91.3185,108.3
91.3442,17.1
91.3622,28.7
91.366,109.3
91.3752,775.3
91.3881,106.4
91.3954,207.4
91.4038,17.6
91.4391,500
91.4409,499.2
91.4472,332.6
91.4543,114.7
91.4647,153.5
91.5419,90.2
91.585,213.7
91.6115,88.3
91.6266,551.4
91.6707,238.2
91.7297,151.2
91.7429,17.6
91.7561,999
91.7693,231.8
91.8252,19.6
91.8295,186.8
91.831,154.8
91.9001,469.2
91.907,141.9
91.9542,167
91.9684,87.5
92.0353,326.2
92.0533,92.2
92.0573,20.6
92.1045,207.2
92.1095,123.9
92.1658,140.3
92.193,115.1
92.2291,153.5
92.2498,29
92.2634,161.4
92.2644,24.7
92.2937,17.7
92.3138,279.9
92.3502,192.7
92.3537,371.2
92.3806,21.8
92.3817,96.4
92.3828,268.1
92.3859,404.2
92.417,250.2
92.4364,19.1
92.4372,162.6
92.4431,116.6
92.4481,289.6
92.4618,351.5
92.4963,103.1
92.5197,210.6
92.5314,166.8
92.5366,204.7
92.5523,190.8
92.5552,183.7
92.5612,257.6
92.5743,823.2
92.5805,838.9
92.5879,18.1
92.6153,343.9
92.616,785
92.651,875
92.6671,191.4
92.6689,103.3
92.676,153
92.6827,515.1
92.7501,23.1
92.7639,113.4
92.7748,513
92.8286,238.4
92.8517,582.9
92.8665,241.5
92.8747,16
92.8902,142.7
92.8909,131.4
92.893,142.9
92.909,110.1
92.9425,17.6
92.9726,107.2
93.004,21.7
93.0126,662.5
93.0292,27.7
93.065,471.3
93.0698,88.3
93.0835,226.2
93.0871,137.6
93.143,683.1
93.1477,18.6
93.1604,27.2
93.1642,90.2
93.2397,313
93.2434,17.1
93.2456,314.3
93.2621,105.5
93.2691,16.9
93.2735,128.9
93.2949,261.6
93.3078,96.5
93.3419,132
93.3868,355.2
93.3878,552.6
93.3921,252.5
93.4335,20.7
93.4354,545.2
93.4388,524.5
93.4522,542.1
93.4588,171.4
93.4601,185.6
93.5127,99.7
93.517,268.5
93.5245,103.8
93.5464,107.4
93.5546,18.4
93.6001,26.2
93.6214,407.1
93.6222,22.7
93.6375,278.7
93.642,283.6
93.6486,548.3
93.7014,151.6
93.706,85.5
93.7311,306.8
93.7535,27.8
93.757,926.8
93.7588,455.3
93.7734,160.7
93.7775,19.5
93.787,17.6
93.848,19.2
93.8681,410.7
93.8833,513.9
93.8845,392.8
93.8899,332.4
93.8949,119.3
93.9315,153.2
93.9859,138.1
93.9996,570.1
94.0186,423.8
94.0287,837.7
94.0412,55662.4
94.0674,495.9
94.1075,20.1
94.1423,226.6
94.1913,288.3
94.2233,126.6
94.2443,172.9
94.2568,104.5
94.2774,16.4
94.3075,278.2
94.3184,144.9
94.3386,142.5
94.3684,157.9
94.3758,527.5
94.4025,18.5
94.4089,19.5
94.4219,543.2
94.44,103.7
94.4437,427.9
94.4555,416
94.5001,307.2
94.5104,488.1
94.5244,219.4
94.5398,435.1
94.5687,163.4
94.569,200
94.5693,158.9
94.5968,357.3
94.6318,401
94.638,469.8
94.6651,206.1
94.7172,157.2
94.7222,791.6
94.7678,294.2
94.7939,654.4
94.7978,20.1
94.8074,452
94.8202,102.1
94.8386,351.9
94.8405,298.8
94.8537,240.8
94.8818,94.1
94.8895,194.3
94.901,632.1
94.9267,172.5
94.9299,94.9
94.9868,19.3
95.0016,23.2
95.0087,21.9
95.0133,362.1
95.0177,222
95.0243,669.6
95.0338,141.6
95.0355,74.5
95.0398,136.7
95.042,400.4
95.0445,1011.3
95.046,37.8
95.0466,41.3
95.047,57.6
95.049,409585.6
95.0504,347.3
95.0603,178.2
95.079,846.5
95.0853,683
95.092,273.4
95.099,95.3
95.1064,240.7
95.1182,131.5
95.1456,26.8
95.1624,94.3
95.2141,252.1
95.2322,21.1
95.2583,364.8
95.2672,288.1
95.2872,268.3
95.2925,516.9
95.3449,428.9
95.3514,147.5
95.3666,33.9
95.376,590.3
95.3896,301.8
95.4114,636.5
95.5116,161.6
95.5466,206.4
95.5994,255.5
95.6225,282.7
95.6452,202.1
95.6785,289.5
95.6961,28
95.7429,154.1
95.7486,112.7
95.7612,17.8
95.8125,86.6
95.817,794
95.8397,141.8
95.8601,605.8
95.865,159.2
95.8752,364.7
95.9492,19.2
95.9808,133.1
96.0108,263.5
96.0243,18.3
96.04,22
96.0523,20394.8
96.0552,21.5
96.0792,88.8
96.093,276.5
96.1125,124.3
96.1866,228.3
96.2047,180.4
96.2254,83.8
96.2327,319.9
96.2551,17.7
96.2736,134.3
96.2752,263.1
96.2769,450
96.2782,359.7
96.2928,233.3
96.3402,449.7
96.3438,17.5
96.3599,348.9
96.3701,146.3
96.4088,367.8
96.4121,275.5
96.5139,332.8
96.5266,848.7
96.5289,462.5
96.5767,144
96.6108,510.1
96.6124,837.6
96.6434,526.2
96.6565,575.7
96.6892,266.5
96.6991,83.6
96.7153,193.9
96.7225,126.1
96.7233,369.5
96.7262,420.9
96.7426,826.4
96.7588,29.1
96.7607,150.5
96.774,102.9
96.7803,454.7
96.8074,24.9
96.8081,172.7
96.8235,205.9
96.836,389.8
96.8565,18.5
96.901,179.4
96.9117,347.5
96.9189,178.9
96.9216,171264.4
96.9529,111.2
96.9629,17.9
96.967,748.5
96.9903,701.6
97.0074,247.9
97.0107,20
97.0169,883.2
97.0533,74.7
97.0553,210.4
97.0677,480.6
97.0798,274.1
97.0854,354.9
97.1012,936.6
97.1873,126.7
97.1977,21.6
97.2023,162.4
97.2258,165.6
97.2785,279.6
97.285,17.4
97.293,188.1
97.3108,19.7
97.3366,146.7
97.3815,303.8
97.4127,680.1
97.4507,134
97.4805,603.6
97.5107,18.4
97.5275,138.4
97.5562,174.8
97.5714,303.4
97.5781,761.3
97.6014,212.9
97.6065,18.2
97.6149,358.2
97.6516,312.4
97.6871,120.3
97.7083,461.2
97.7097,16.9
97.7162,167.6
97.7296,20.2
97.7805,283.8
97.8057,17.9
97.8485,246.1
97.8812,90.7
97.908,520.9
97.9162,98
97.9202,680.7
97.9414,141.9
97.9495,570.4
97.9519,178.5
98.0062,155.5
98.0284,322.5
98.0832,659.2
98.0854,394.5
98.0883,175.3
98.0973,118
98.1701,285.9
98.1924,269
98.2257,84.2
98.2543,474.2
98.2755,692.6
98.2795,374.4
98.2851,126.6
98.3121,17.8
98.3806,18.7
98.4304,194.3
98.4355,442.6
98.4479,312.3
98.4855,295.9
98.4874,279.6
98.4951,562.9
98.4985,337.2
98.5605,299
98.5653,687.4
98.6189,152.8
98.6569,19.6
98.6991,141.9
98.7342,492.8
98.7427,503.2
98.7471,553.2
98.7704,627.9
98.7884,269.3
98.8392,122.6
98.8824,97.5
98.8957,460.3
98.9187,49802
98.9198,7319.9
98.9378,255.2
98.9613,18.2
98.9752,14061.8
98.984,123.9
98.9995,19.5
99.027,108.7
99.0417,580.6
99.0915,101.2
99.0959,185.4
99.1063,482.4
99.1287,109.6
99.1351,672.8
99.1529,814.6
99.1562,170.1
99.1722,25.3
99.2128,260.5
99.2216,19.5
99.2324,225.7
99.2653,738.1
99.2931,182.6
99.3576,91
99.3923,644.4
99.4187,199.3
99.43,556
99.4316,139.9
99.4425,27.4
99.472,561.3
99.4806,270.4
99.5351,514.2
99.5678,161
99.5883,283.6
99.6222,460.2
99.6601,18.5
99.6911,181
99.7055,290.6
99.7359,331.5
99.7458,94.3
99.7991,474.3
99.891,287.3
99.8927,15.7
99.9374,527.2
99.9655,96.6
100.0048,20.8
100.055,645.8
100.0697,120.2
100.0756,37.8
100.098,341.9
100.1266,164.7
100.1829,135.4
100.2042,393.1
100.2126,232
100.2197,560.4
100.2591,134.5
100.2645,396
100.2823,328
100.313,21.5
100.3176,464.1
100.325,18.4
100.3475,153.4
100.3601,27.3
100.3646,17.7
100.3748,163
100.3932,555.3
100.4247,218.6
100.4379,326.6
100.4605,19.9
100.4687,17.8
100.5027,434.2
100.5079,120.6
100.5135,111.4
100.5291,120.6
100.5865,93.8
100.6275,313.8
100.7972,185
100.8541,18.4
100.8637,576.6
100.9169,2006.7
100.938,197.1
100.9496,580.2
100.9579,421.9
100.972,18.6
100.9854,115.6
101.047,2366
101.0542,333.2
101.0709,1043.2
101.0794,288.4
101.103,299.8
101.107,578.5
101.1134,265.5
101.1178,180.3
101.1772,321.2
101.1874,390
101.2003,238.6
101.2066,242.3
101.2396,567.5
101.2948,232.1
101.299,158.8
101.3426,265.9
101.3509,318.8
101.3661,176.1
101.3853,17.3
101.5044,168.2
101.5144,791.5
101.549,161.9
101.5501,127.8
101.569,396.3
101.5731,725.8
101.5796,168.8
101.6085,17.7
101.6219,333.9
101.6529,180.4
101.6682,172.1
101.6959,92.4
101.7031,109.4
101.7126,259.3
101.7407,253.4
101.7565,18.2
101.7602,534.5
101.7884,118.7
101.8241,18.1
101.8276,237.5
101.8445,18.4
101.8499,127.3
101.8899,571.3
101.893,22.1
101.9149,19.6
101.921,233.8
101.941,96.4
101.9577,430.7
101.9614,407.8
101.9911,600.2
101.9926,277.3
102.0029,17.6
102.0156,190.2
102.0349,173.9
102.0548,4621.2
102.0632,17.3
102.1103,607.5
102.1288,558.4
102.1379,1039.6
102.1506,165.8
102.1672,16
102.1848,315.8
102.1976,142.6
102.2563,145.1
102.2626,200.8
102.277,903.7
102.2808,168.2
102.2922,18.1
102.3119,102.7
102.3515,22.9
102.3589,91.2
102.3995,587.7
102.4116,104.9
102.4256,21.1
102.4586,457.5
102.4701,78.4
102.4913,117
102.5058,185.9
102.5322,88.7
102.6347,287.8
102.6561,447.3
102.657,333.9
102.6739,746.1
102.6757,546.5
102.6888,106.4
102.7115,150
102.7222,166.3
102.8013,558.9
102.8269,115.6
102.8295,593
102.8322,101.9
102.9701,573.7
102.9769,238.3
102.992,184.5
103.0425,267.3
103.0528,93.6
103.0541,135.7
103.0734,324.6
103.0836,469.2
103.1019,293
103.1518,18.1
103.1712,154.4
103.2559,500.6
103.2961,21.2
103.2993,322.9
103.358,325.4
103.3885,271.2
103.404,196
103.4166,702.5
103.4218,23.4
103.5081,116.3
103.5149,646.5
103.5672,312.9
103.582,121.6
103.5939,202.2
103.6153,326.6
103.6806,126
103.7479,441.3
103.7492,181.8
103.7659,405.3
103.7827,598.8
103.8111,300
103.8179,410.1
103.8218,294.8
103.8249,17.9
103.8316,27.1
103.8415,450.9
103.873,111.4
103.8796,327.2
103.9222,20
103.9594,288.5
103.9621,188.5
103.9744,221.8
103.9792,25.7
103.9844,107.4
103.9996,16.5
104.0184,105
104.0192,21.1
104.0228,717.2
104.074,364.7
104.0825,378.8
104.1069,636514
104.1135,25.3
104.1298,497.5
104.136,18.1
104.141,542
104.1531,137.2
104.1561,392.7
104.1802,660.2
104.182,99.7
104.2261,566.8
104.2292,115.8
104.2322,96.1
104.2573,193.9
104.2826,359.1
104.3046,144
104.308,193
104.3131,172.5
104.3359,897.8
104.3947,348.4
104.4668,338
104.5122,22.8
104.5266,564.4
104.573,491.3
104.5988,22.1
104.6366,376.7
104.6411,442.8
104.7613,462.4
104.835,19.2
104.8364,93.5
104.8822,266
104.9077,26.6
104.9178,297.9
104.9253,108.3
104.9297,289.6
104.9632,192.1
104.9737,146.6
104.9923,1987.7
105.0446,42233.9
105.0636,164.5
105.0698,23.6
105.0858,96.1
105.1102,23899.1
105.1378,16.9
105.1771,134.3
105.1839,404.7
105.2595,448.9
105.2621,351.4
105.2864,17.6
105.3033,18
105.3086,410.2
105.3188,298.5
105.3438,166.9
105.3485,711.4
105.3772,344.5
105.3915,19
105.3934,100.2
105.3978,271.9
105.403,523.5
105.5597,553.7
105.5626,18
105.6098,263.7
105.6147,623.3
105.6277,352.7
105.6404,552.6
105.6607,317.4
105.6668,24.1
105.7264,253.5
105.7408,360
105.8044,645
105.8407,493.9
105.8667,313
105.9201,293.5
105.9822,152.7
106.0479,865.3
106.0845,93.4
106.1176,19.3
106.1304,203.4
106.1318,19.8
106.1475,155.1
106.1829,560.1
106.1843,209.6
106.1884,103.9
106.2114,220.9
106.2153,656.3
106.2194,339.6
106.2215,471.6
106.2353,350.1
106.2463,188
106.2902,152.5
106.3321,16.5
106.3484,511.3
106.3932,509.3
106.4018,19.4
106.4164,247.6
106.4834,783
106.535,100.5
106.5519,24
106.5778,158.8
106.5947,381.8
106.6485,27
106.6732,111.8
106.6884,154.5
106.7039,187.4
106.7281,319.9
106.7793,85.6
106.8218,22.6
106.8254,199.7
106.8859,227.7
106.8951,166
106.9377,865
106.9505,5151.7
106.9583,327.2
106.9741,85.7
106.9895,121.2
106.9918,57.3
107.0282,81.2
107.049,512.1
107.0854,149.6
107.1115,471.9
107.1156,368.3
107.117,271.2
107.1761,269.2
107.2084,164.9
107.2091,227.8
107.2361,258.1
107.2409,401.5
107.2485,20.1
107.2518,182.4
107.3098,581.4
107.3217,248.1
107.3484,178
107.3573,358.6
107.3727,25.8
107.3975,352.4
107.412,329
107.4152,92.2
107.429,110.6
107.4367,259.4
107.5051,371.9
107.5439,87.7
107.554,135.4
107.5718,554.4
107.6553,277.6
107.662,20.8
107.7107,113.2
107.7263,372.4
107.7336,126.9
107.7352,361.8
107.7431,165.5
107.7556,27
107.7789,175.3
107.825,404.3
107.839,204.7
107.8583,138.4
107.8805,159
107.894,193.7
107.8982,239.1
107.9187,162.3
107.9607,421.6
107.9649,109.1
107.9785,25.3
107.997,20.8
108.0486,432.4
108.095,115.6
108.1032,615.1
108.1546,364.8
108.1755,503.2
108.1797,17.4
108.2092,698.9
108.2355,142.1
108.2525,276.5
108.2532,135.5
108.2888,17.4
108.2943,196.3
108.3563,232.5
108.3806,225.7
108.3906,350.8
108.4038,94.2
108.4392,238
108.4631,594.8
108.471,18
108.4799,215.8
108.5038,519.7
108.5217,220.5
108.5228,131.2
108.5686,204.5
108.57,554
108.6657,16.7
108.6709,687.7
108.6972,171.7
108.7469,87.3
108.753,522.6
108.7613,21
108.7927,191.4
108.7968,173.3
108.8339,170.7
108.8922,294.5
108.9064,146.3
108.9086,242.8
108.9117,107.6
108.9137,265.5
108.9258,491.8
108.9271,87.6
108.9307,19.1
108.9477,141.8
108.952,475.7
108.9749,148.1
108.9856,458.4
108.9953,523.6
109.0215,28.3
109.0647,57529.4
109.0793,555.2
109.1011,65.4
109.1194,533.6
109.1239,19.5
109.1275,121
109.1314,111
109.1383,416.3
109.1807,439.1
109.2148,270.9
109.2344,176.2
109.2358,196.7
109.2703,347
109.3076,186.7
109.3312,17.4
109.3511,263.8
109.3537,112.2
109.3557,95.6
109.3948,217.8
109.4144,112.6
109.4338,428.7
109.4873,511.2
109.4915,108.4
109.5156,446.3
109.5778,16.8
109.5823,465.6
109.584,265.2
109.5934,142.3
109.6113,107.8
109.7015,388.5
109.7427,180.8
109.8075,373.2
109.8359,117.4
109.8515,31.7
109.8727,18.4
109.8978,258.7
109.9522,209.2
109.9623,17.9
109.9677,200.7
109.9705,339
109.9893,115.4
110.0018,100
110.0122,90.7
110.0276,570.5
110.0298,114.1
110.0337,20.7
110.0665,158.4
110.068,2065.1
110.0715,208.6
110.0728,116.5
110.0985,644.9
110.119,117.4
110.1206,635.1
110.1358,22.5
110.1813,359.5
110.222,417.6
110.2493,18.7
110.2683,374.2
110.2711,228.1
110.2931,285.9
110.3282,329.4
110.3677,29
110.3864,112.4
110.4203,210.2
110.4452,447
110.5636,319.5
110.5784,569.1
110.5906,87
110.6064,177.5
110.6271,27.3
110.6823,205.7
110.6899,132.8
110.7233,252.7
110.731,18.9
110.8472,138.2
110.8808,383.2
110.8997,760
110.9621,21
110.9638,269.6
111.0167,117.9
111.0209,135.8
111.0231,517.5
111.0278,449.5
111.044,284.6
111.0799,80.9
111.1087,361.6
111.1404,203.4
111.1474,265.1
111.1833,545.4
111.186,384.4
111.2811,763.6
111.3174,99.5
111.3716,17.4
111.4284,96.5
111.4299,491.1
111.4805,229.6
111.4847,360
111.4913,19
111.494,19.3
111.4969,488.7
111.5282,93.4
111.5514,20
111.564,204.3
111.5903,238.5
111.636,156.6
111.649,130.5
111.6914,135.5
111.6975,100
111.724,82.2
111.7739,29.1
111.7822,455.6
111.7961,273.1
111.8308,602.8
111.8408,119.4
111.8597,162.1
111.9472,600.5
111.9909,370.1
111.9952,108.6
112.018,191.2
112.0443,366.4
112.0982,365.9
112.0995,42
112.1041,1027.3
112.1192,477.6
112.1664,346.9
112.1702,157.9
112.1951,425.1
112.2121,153.7
112.2545,21.7
112.2632,134.3
112.2636,132.8
112.2788,236
112.2798,368.9
112.2844,275.6
112.3094,517.7
112.3161,112.9
112.3192,302.4
112.3691,575.1
112.3712,114.2
112.3811,118.1
112.3957,192.9
112.4132,119.5
112.4453,136.7
112.4598,125.5
112.4645,86.5
112.4792,144.7
112.4846,132.7
112.4931,236.6
112.5338,18.6
112.5362,209.2
112.5389,978.2
112.5708,493.5
112.6413,270.1
112.6636,748.5
112.6722,804.5
112.6815,585.8
112.7564,103.8
112.7625,188.9
112.7642,18.2
112.7797,158.9
112.7946,205.2
112.7994,205.4
112.8025,16.3
112.8197,528.9
112.8215,135.4
112.8288,17.9
112.8405,701.9
112.8533,132.4
112.8956,442248.7
112.9283,107.3
112.9297,246.7
112.9969,236.3
113.049,94.9
113.0752,592.3
113.1071,20.3
113.1137,19.1
113.1496,134.6
113.1988,17.5
113.2036,315.6
113.2156,375.3
113.2411,130
113.2453,107.3
113.2725,19.2
113.2766,221.8
113.3869,528.1
113.4168,130
113.4288,374.8
113.4402,156.2
113.4593,288.4
113.4721,102.6
113.4947,152.7
113.543,329.4
113.5475,135.1
113.5628,17.4
113.5732,360.5
113.5815,532.1
113.6256,563.7
113.6274,405.9
113.6804,91.8
113.708,100.3
113.8094,482.3
113.8123,327.7
113.8231,98.1
113.8394,478.6
113.871,334.8
113.8761,220.6
113.9131,391.2
114.0512,25.5
114.0549,52107.2
114.066,563.1
114.0748,18.1
114.1253,186.3
114.1269,27.5
114.1479,17.5
114.157,259.7
114.1622,190.8
114.1747,83
114.1869,898
114.1894,101.9
114.2262,267.9
114.2287,102.6
114.2532,267.2
114.2953,94.5
114.4257,509.8
114.5023,281.3
114.504,17.8
114.5139,400.7
114.5169,18.5
114.5444,117.5
114.6057,320.7
114.6367,155.9
114.6769,178.3
114.6864,132.9
114.7338,96.1
114.7484,355.3
114.7644,233.7
114.7758,109.4
114.7788,136.7
114.8292,329.1
114.8466,25.5
114.8743,812.5
114.8927,139431.6
114.9433,175
115.053,177.2
115.0582,1067.1
115.084,581.1
115.0863,302
115.1491,106.6
115.1599,218.8
115.246,440.1
115.2923,107.7
115.2982,784.4
115.3095,333
115.3326,675.2
115.3348,87.1
115.3434,216.7
115.3529,154.3
115.3613,161.1
115.3683,146.6
115.371,262.9
115.5035,204.4
115.519,263.3
115.5255,21.9
115.5348,15.7
115.5951,271.1
115.6129,359.6
115.6569,498
115.6747,846.8
115.6881,85.9
115.6992,264.9
115.7084,570.7
115.7314,389.8
115.7459,261
115.7492,102
115.7619,17.7
115.7737,744.1
115.8346,528.2
115.8832,160.5
115.9108,19.1
115.9488,237.1
115.956,150.4
115.9615,356.5
115.979,19.7
116.0705,2093.7
116.0912,139.2
116.1926,87.8
116.2182,104.4
116.2207,93.6
116.2358,90.4
116.2394,110.6
116.2743,19.4
116.2886,230.6
116.3168,237.4
116.3331,415.9
116.3977,177
116.4035,122
116.4527,267
116.4588,499.2
116.4927,296.8
116.5075,19
116.5288,242.1
116.7104,137.6
116.7277,391.9
116.7369,347.3
116.7395,347.6
116.7594,177.7
116.7773,23.5
116.8008,741.7
116.8046,250.8
116.8076,109.3
116.8208,24.9
116.8227,504.1
116.8351,508.2
116.8867,559.7
116.8908,15497
116.9005,199.8
116.9099,85.9
116.9306,562.5
116.9355,535.1
116.9415,19
116.9748,603.2
116.9798,485.6
116.9858,794.1
116.991,17.2
116.9953,104.7
117.0078,309.1
117.028,522.6
117.0675,509.1
117.0699,45.1
117.0816,95.4
117.1091,293.1
117.1173,493
117.2087,362.8
117.2296,293.6
117.2696,366.2
117.2756,506.1
117.2996,757.5
117.3104,195.8
117.3159,279.6
117.3412,687.8
117.375,80.3
117.4232,18.2
117.4593,306.9
117.4715,170.4
117.4745,142.7
117.5179,89.4
117.542,452.4
117.5438,110.2
117.5476,129.6
117.5709,175.5
117.5913,257.4
117.6029,18.2
117.6552,225.6
117.6619,223
117.693,38.2
117.6998,138.9
117.7013,269.4
117.7365,174.4
117.7542,266.8
117.7568,116.6
117.8217,253.9
117.8278,418.1
117.8413,19.2
117.8748,17.3
117.876,164.7
117.8976,22.3
117.9053,139.3
117.9701,242.4
117.9729,278.1
118.0184,258.5
118.0593,282.6
118.0877,210.7
118.0989,178.7
118.2037,16.6
118.2265,109.9
118.2292,533.8
118.2327,94.3
118.2395,269.6
118.2519,18.9
118.2702,185.8
118.2938,18.5
118.3066,186
118.3134,148
118.3208,89.3
118.3764,28
118.4149,651.1
118.4207,196
118.4239,253.1
118.4293,181.4
118.4757,695.5
118.5485,248.7
118.5575,306.7
118.5646,106.4
118.5704,150.8
118.5752,191.2
118.6148,115.7
118.6494,368.1
118.7061,17.6
118.7209,396.5
118.7491,89.8
118.7681,237.8
118.7966,288.5
118.8603,685.2
118.8811,18.8
118.9425,17.9
118.9769,451.2
118.979,28.1
118.9808,422.2
118.9908,397.8
119.0191,17.3
119.0601,497.3
119.0858,20.6
119.099,256
119.1189,509.9
119.1538,386.2
119.1589,105
119.171,335.5
119.1906,28.6
119.1968,19.4
119.257,321
119.2904,279
119.2953,118.8
119.4246,169.6
119.4693,131.7
119.5018,123.4
119.5791,17.2
119.5897,119.6
119.6201,547.9
119.6683,867
119.703,599.7
119.7207,590.8
119.7644,223.5
119.7876,20.7
119.8067,438
119.8075,418.6
119.8462,117
119.8585,551
119.9121,119.4
119.9331,210.3
119.9652,23.7
119.9674,291.6
119.991,185.3
120.0031,8068.8
120.0439,285.3
120.0807,11303.7
120.0902,130.9
120.1009,288.6
120.1127,246.2
120.1213,127.6
120.154,357
120.2047,212.4
120.2091,448.2
120.2245,15.8
120.2998,526.4
120.3378,21.4
120.3407,17
120.3467,389
120.3679,463.5
120.3795,117.7
120.4385,189
120.509,126.5
120.519,2079.9
120.5453,255.6
120.5586,193.9
120.5852,537.6
120.6213,125.3
120.6721,625.4
120.7116,117
120.7418,17.6
120.7659,253.3
120.7695,707.2
120.7938,25
120.8309,518.4
120.837,306
120.8898,205
120.9371,488.2
120.9561,226.6
120.963,169.6
120.9808,169
121.0078,393.3
121.0285,379
121.0353,815.1
121.0396,35.5
121.1011,52.8
121.1363,236.5
121.1428,177.6
121.1518,161.1
121.1852,184.2
121.2673,498.5
121.2827,272.4
121.325,20.8
121.347,479.1
121.3905,604.9
121.4121,265.5
121.4253,432.8
121.4371,131.4
121.448,464.9
121.4673,177.7
121.4751,192.5
121.4781,202.6
121.508,106.7
121.5252,296.5
121.554,122.8
121.5573,17.8
121.5717,562.1
121.6027,24
121.6489,19
121.6546,126.1
121.7465,463.7
121.7922,160.6
121.8227,125.9
121.8242,18.5
121.8302,109
121.9022,96.3
121.9316,156.1
121.9685,123.8
121.9751,365.5
122.0221,457.2
122.0418,338.9
122.0566,294.7
122.1396,490.7
122.1769,165.9
122.1853,90.5
122.1976,445.3
122.2633,174.6
122.2861,454.7
122.2998,307.6
122.316,159.5
122.3596,21.7
122.3609,18.6
122.3688,23.6
122.399,370.5
122.5208,132.7
122.5445,19.4
122.5535,195.4
122.5674,534.4
122.5806,19.1
122.6024,200.5
122.6245,384.3
122.6529,149
122.7003,215.1
122.7192,491.7
122.7336,19
122.7794,262.3
122.7935,261.6
122.8356,286.5
122.8504,19
122.8574,683.6
122.9021,212.9
122.9025,213.2
122.903,189.6
122.9245,24991.4
122.9432,455.1
122.9584,24.9
122.9787,139.8
122.9804,20.1
122.9839,16.5
123.0029,21.9
123.0124,159.1
123.0479,103
123.0918,93.8
123.0949,272.5
123.1039,711.4
123.1442,303
123.1617,20.1
123.1644,176.7
123.1728,18.4
123.1853,252.1
123.2369,18.3
123.2916,91.9
123.3423,567.1
123.3997,179.7
123.4632,17.6
123.4748,191.2
123.4899,303.2
123.569,726.4
123.6203,356.6
123.6492,173.1
123.6737,19.5
123.7138,655.2
123.7293,20.8
123.741,20.1
123.7629,151.5
123.7666,260.6
123.7732,87.2
123.7763,100.4
123.835,355.9
123.8549,20.3
123.9404,793.3
123.9524,225
123.9639,383.9
123.9682,116.5
124.0035,755.9
124.0341,224.2
124.0369,188.3
124.1384,145
124.14,95.6
124.2045,96
124.2171,137
124.3424,175.3
124.397,376.7
124.4403,107.8
124.4775,320.1
124.4823,188
124.571,267.2
124.6047,511.9
124.637,808.5
124.6508,421.7
124.6737,783.6
124.6832,808
124.6976,153.5
124.699,317.5
124.718,315
124.7461,198.3
124.7556,84.6
124.7725,120.3
124.7962,112.9
124.8385,999.9
124.862,936.7
124.8977,21.6
124.9226,1598.6
124.9335,316.7
124.9478,217.7
124.9573,167.4
124.9925,184.4
124.997,210.1
124.9998,7818.4
125.0056,327
125.0152,10414.3
125.0388,218
125.0597,25.6
125.0713,26.7
125.0955,510.3
125.164,154.9
125.1675,195.7
125.2196,321.4
125.2462,584.3
125.2633,118.4
125.2665,16
125.2738,152.4
125.2754,98.5
125.3599,247.2
125.4217,22.6
125.4226,24.4
125.4469,368.6
125.4519,118.5
125.4596,87.3
125.4613,203
125.5168,240.9
125.5802,347.5
125.6456,24.9
125.6762,197.2
125.6823,243.6
125.7182,462.2
125.7518,17.5
125.7556,382.4
125.7974,136.9
125.8129,183.4
125.8391,709.9
125.8509,168.8
125.9069,106.7
125.9134,434.6
125.9452,515.3
125.9784,443.3
125.9819,19.8
125.9853,118.1
126.0121,642.6
126.0259,167.5
126.0941,100.5
126.0994,571.7
126.1143,566.6
126.1608,395.9
126.1628,22
126.2432,376.3
126.256,286.7
126.2825,236.9
126.3183,274.1
126.3201,116.6
126.338,224
126.3483,159.6
126.3557,285.4
126.4215,128.1
126.4233,349.1
126.433,17.9
126.4903,245.2
126.5315,489.9
126.5793,538.7
126.5819,168.5
126.6041,319.3
126.6688,22.7
126.6865,497.3
126.6972,152.6
126.7478,567.7
126.7539,18.1
126.795,288.3
126.7993,204.9
126.8444,17
126.8756,154.7
126.8806,187.5
126.9105,232.7
126.9233,22.8
126.9271,121.5
126.9429,1006.9
126.9459,20.3
126.9573,117.2
126.9857,166
126.9896,440.3
127.0123,1148
127.0163,111.2
127.0402,432.5
127.0478,119.2
127.0892,131
127.1118,323.1
127.1659,120
127.1869,214.4
127.1889,29.7
127.207,454.4
127.2257,249.9
127.2292,491.7
127.2535,120.2
127.2978,310
127.3298,17.1
127.3881,140.4
127.4362,517.6
127.4556,18.4
127.4685,207
127.474,481.8
127.506,111.3
127.5084,97.8
127.5112,383.6
127.6143,22.1
127.6247,108.6
127.6301,339.2
127.6321,161.6
127.6767,596.9
127.6835,306.1
127.6867,751
127.6897,296.1
127.6968,125.8
127.7206,20.9
127.737,440.1
127.7704,96.6
127.8024,504.8
127.8184,214.1
127.8991,287.3
127.968,184.5
127.9944,323.8
128.0325,462.9
128.0851,96.3
128.1144,118.3
128.1265,390.6
128.1347,18.7
128.2367,359.1
128.2528,398
128.3557,619
128.3897,293.3
128.3928,16.9
128.397,18.3
128.3997,435.3
128.4914,325.8
128.4922,351.5
128.5061,17.5
128.5172,203.6
128.5218,155.5
128.5746,29.5
128.5856,155.3
128.5982,202.2
128.6579,146.9
128.6647,363.7
128.6859,126
128.6993,721
128.7215,353.5
128.7256,117.7
128.7433,588
128.873,275.7
128.8863,280.1
128.9235,271.3
128.9527,29.4
129.0031,1501.5
129.0169,391.7
129.0467,220.1
129.1024,493.5
129.1428,249.2
129.1471,475.1
129.1961,149.1
129.1971,140
129.2159,107.8
129.3179,334.9
129.3357,98
129.3576,221.2
129.3764,20.6
129.3906,256.6
129.4295,18
129.4406,516.8
129.5616,242.7
129.6084,200.2
129.6305,463.2
129.6421,258.5
129.6743,930.1
129.6954,259.2
129.7137,357.7
129.7259,20.4
129.7297,131.8
129.7577,128
129.8967,127.9
129.9732,272.4
130.0176,680.3
130.0498,4280.9
130.0667,85.1
130.0997,460.3
130.131,496.8
130.133,254.5
130.1719,359.2
130.191,961
130.1967,181.3
130.2074,174.5
130.4223,165.3
130.4909,145.7
130.5266,154.8
130.5344,93.9
130.5719,256.9
130.5939,139.2
130.5973,17.5
130.6094,116.7
130.6528,100.7
130.6585,507.1
130.6602,169.2
130.6623,17.9
130.7348,18.1
130.8694,157.8
130.8707,278.4
130.8846,470.4
130.8974,296.8
130.9681,84.2
130.9746,221.5
130.9899,23.9
130.9985,281.7
131.001,645.9
131.0131,284.5
131.0298,159.3
131.0457,374.3
131.0889,186.3
131.1408,492
131.1459,120.8
131.1533,850.4
131.1747,127.9
131.2045,860.6
131.2198,997.3
131.2396,127.2
131.2664,670.1
131.2696,121.7
131.2882,17.6
131.3117,170.4
131.3687,159
131.411,323.1
131.5824,749.7
131.5872,612.7
131.6836,329.6
131.6976,427.4
131.7459,208
131.8432,29
131.9096,17.2
131.9115,182.5
131.9237,143.8
131.9795,104.5
132.0032,22899.1
132.0655,85963.8
132.0766,1746.3
132.0865,18.4
132.1255,156.1
132.2364,274.1
132.2527,140.8
132.2567,209.2
132.2657,20
132.2858,17.7
132.3225,108.6
132.3253,18.2
132.3967,321
132.4145,21
132.4275,361.1
132.4418,360.5
132.5262,118.5
132.7258,499.4
132.7541,326.5
132.8561,167.8
132.8751,136.1
132.8932,199.7
132.9029,41
132.9076,183.7
132.936,17.1
132.9583,20.9
132.9872,4312.3
133.0259,185
133.0582,301.9
133.0688,2247.6
133.0752,209.3
133.0971,12043.3
133.1048,19.1
133.1081,92
133.1245,284.9
133.1484,298.7
133.1589,127.4
133.1628,92.7
133.1926,17.1
133.2338,21
133.2857,310.1
133.3045,357
133.3244,135.5
133.3604,273.9
133.3729,192.8
133.4005,223
133.4904,551.4
133.5347,18.7
133.5382,338.3
133.57,458.9
133.5844,137.3
133.5983,203.9
133.689,256
133.8024,538.1
133.8139,180.3
133.8168,373.4
133.819,266.2
133.8239,338.9
133.8569,155.9
133.8832,589.1
133.9274,489.7
133.9358,721.9
133.9389,120.9
133.9811,19.4
133.9907,662.9
133.9974,422.8
133.9988,21.4
134.0164,27.9
134.0189,9910.6
134.0289,125.8
134.05,126
134.0623,24.9
134.1051,565.7
134.1171,26.9
134.1948,496.4
134.2409,28.4
134.2679,530.7
134.2851,21.3
134.2977,195.5
134.3335,236.1
134.3758,170.4
134.4182,287.6
134.4435,123.2
134.4711,270.9
134.5384,402.2
134.5448,202.7
134.5565,157.5
134.5993,147.7
134.6015,570
134.6354,97
134.6466,104.3
134.7719,579.4
134.9264,160.8
134.9302,497.3
134.9376,298.8
134.9404,98.4
134.993,249.5
134.9965,26.1
135.0028,119766.2
135.0809,155.8
135.0889,200.8
135.1168,214.3
135.1432,731.1
135.1581,335.2
135.1801,114.4
135.1866,129.7
135.2121,340.3
135.2785,228.6
135.2845,19.3
135.2933,184.8
135.2958,131.1
135.3401,355.6
135.3581,520.1
135.3755,512.8
135.4576,94.3
135.4936,305.6
135.5736,31.5
135.6031,95.1
135.6619,723.8
135.6868,193.1
135.7021,113.6
135.7063,127.7
135.7204,391.9
135.7642,22
135.7762,520.9
135.7857,128.2
135.8773,625
135.9694,231
135.9771,5128.9
135.9998,124
136.0061,1093.9
136.0137,335.1
136.0364,216.1
136.0481,5231.5
136.0572,137.8
136.0619,460.8
136.0756,8910.8
136.0884,27
136.1059,290.3
136.1282,685.9
136.1485,26.4
136.1551,16.9
136.1658,111.2
136.2388,27.3
136.294,157.7
136.3659,180.5
136.3752,324.4
136.4707,114.8
136.4828,263.4
136.546,382.8
136.6793,84
136.7039,269.7
136.7093,234.2
136.7416,19.4
136.7531,18.7
136.8217,21.3
136.8449,20.9
136.8729,168.1
136.9213,121
136.9312,2688.2
136.9778,518.3
136.979,121.7
137.0313,609.5
137.0478,170.1
137.0915,334.6
137.1339,518.2
137.263,595.5
137.408,100
137.5218,591.4
137.5715,90.8
137.5974,566.9
137.6166,351.3
137.637,134
137.6947,316.5
137.7207,30.8
137.7307,266
137.7532,152.1
137.7758,126.7
137.7939,497
137.8168,21.4
137.8284,167.2
137.8322,169.2
137.8452,134.9
137.8498,598.9
138.0076,182.6
138.0227,208.7
138.0525,3393.2
138.0661,98.9
138.0799,306.2
138.1295,620.6
138.1769,366.1
138.1842,21.1
138.2986,477.4
138.3656,182.1
138.3671,700.6
138.3736,271.4
138.3849,622.1
138.4331,22
138.4393,104.9
138.5039,360.7
138.5605,152.4
138.617,27
138.6966,859.3
138.7009,132.6
138.7031,294.8
138.7755,187.8
138.7841,238.6
138.8292,850.3
138.8333,296.9
138.8912,384.6
138.9035,249.1
138.9065,4000.4
138.9136,25.2
138.9188,214.3
138.9441,1025.6
138.9513,1010.8
138.9568,129
138.99,130.2
138.9943,125.7
139.0182,22.1
139.0292,510.7
139.0783,166.2
139.0835,774.5
139.1002,18
139.1054,21
139.165,463.7
139.2096,364.3
139.2266,219.1
139.25,672.1
139.321,293.5
139.3287,629.1
139.3776,218.2
139.4395,306.4
139.4681,18.9
139.4964,18
139.5022,27.5
139.5079,19.5
139.5303,158.1
139.5501,268.6
139.5694,191
139.6085,624.4
139.6843,753.9
139.7275,568.9
139.7798,122
139.8573,180.5
139.8914,279.9
139.9119,131.7
139.9414,344.2
139.9535,327.9
139.9973,228.7
140.0165,1256.2
140.0247,820.7
140.0473,301.1
140.0683,680.2
140.111,20.4
140.1202,185.9
140.1852,502
140.1981,244.1
140.2024,141.5
140.2221,295.2
140.2929,372
140.298,211
140.5438,462.7
140.5482,179.4
140.552,107.7
140.5918,17.9
140.595,301.3
140.6083,170
140.6197,223.7
140.6493,181.8
140.704,422
140.7363,739.1
140.7518,144.4
140.7713,97.6
140.7787,138.6
140.8014,594.3
140.8621,18.7
140.9036,1329
140.9342,415.1
140.9556,353.3
140.9979,22.5
141.0005,16465.1
141.0393,18.9
141.0599,561.5
141.0694,352.4
141.1015,24.5
141.1397,244
141.1593,20.2
141.2502,27.8
141.2803,502.3
141.293,17.1
141.3298,113.1
141.3541,487.1
141.3576,347.2
141.3738,134.6
141.3849,20.6
141.4012,17.6
141.4032,277.6
141.4393,334.3
141.498,127.1
141.5168,177.2
141.5383,162.5
141.541,203.6
141.8382,168.4
141.8585,529.5
141.86,302.8
141.8626,101.1
141.9281,137.4
141.947,333.5
142.0038,460.3
142.0498,107.3
142.0686,26.5
142.0737,79.8
142.0857,20.2
142.1056,419.5
142.1099,22.7
142.1157,834.2
142.1397,357.2
142.1488,97.6
142.1511,193.8
142.2142,128
142.2943,103.5
142.3046,135.1
142.3858,323
142.4153,174.1
142.4673,307.7
142.5216,229.8
142.5321,126.9
142.5771,170.2
142.605,21.1
142.674,165
142.6936,825
142.7933,634.4
142.7986,334.4
142.8343,20.8
142.8578,135.3
142.905,249.9
142.9481,719.9
142.9517,340.2
142.9963,268.7
142.9982,121.8
143.0191,948.5
143.0266,184.1
143.0313,583.9
143.0676,120.7
143.0816,582.3
143.1066,294.6
143.1278,671
143.1305,416.9
143.1576,20.6
143.1643,20
143.1794,28
143.2178,438.8
143.2298,249.9
143.2621,111.8
143.2747,255.2
143.2797,620.6
143.294,381.3
143.3111,532
143.3249,126.5
143.3415,582.1
143.3583,165.5
143.3618,369.7
143.3839,91.4
143.3902,474.8
143.402,142.3
143.5206,797
143.5449,20.9
143.5669,184.7
143.6636,22.1
143.6719,95.2
143.7367,387
143.7526,343.1
143.7902,128
143.7924,21.1
143.9122,749.3
143.9197,107.1
143.9993,171.8
144.0106,52
144.063,41.6
144.0833,565.9
144.0958,771.6
144.1514,26.1
144.1863,17.3
144.2339,21.7
144.2406,111.7
144.3894,104.2
144.4172,185.7
144.4559,392.4
144.4889,734.7
144.4937,754.5
144.4988,118.2
144.7183,165.4
144.7197,157.9
144.7388,358.2
144.7852,341.1
144.869,717.8
144.9142,126.9
144.9439,126.7
144.9809,2561.4
144.989,115.5
145.0746,198.7
145.1402,304.3
145.1714,454.7
145.1924,297.6
145.2097,383.5
145.2435,16.3
145.3893,113.3
145.4061,165
145.41,128
145.4201,19.3
145.4273,663.1
145.431,163.9
145.5276,102.9
145.5439,263.8
145.5878,108
145.6051,144.9
145.6228,170.4
145.6504,375
145.6575,472.4
145.7486,135.7
145.7935,19.8
145.8063,184.7
145.8756,267.5
145.8902,152.1
145.9158,113.5
145.9345,173.1
145.9491,160.9
145.9602,199.6
145.9618,648.2
145.9667,780.5
145.973,182.6
145.9752,24.9
146.0125,3266.6
146.0188,15393.4
146.0604,120.3
146.1161,137.5
146.1181,17.4
146.1264,305.7
146.1364,20.2
146.1494,90.6
146.2202,20.1
146.2619,526.7
146.2708,321.3
146.3033,148.2
146.3529,279.6
146.4361,17.1
146.4738,19.3
146.5567,346.1
146.6086,253.8
146.6534,147.8
146.6565,568.9
146.691,189.2
146.7695,96.1
146.8079,126
146.8227,173.6
146.8573,17.7
146.8879,464.1
146.8945,623.5
146.9535,152.6
146.9818,147527.7
147.0029,979
147.03,196.2
147.0764,42139.6
147.1128,20312.1
147.1166,33.2
147.1879,609.7
147.2292,279.7
147.2352,108.7
147.3262,21
147.3825,23.7
147.3973,110.2
147.4795,272.1
147.4969,22
147.5053,747.6
147.5816,468.9
147.6938,275
147.7545,20.1
147.8181,109.7
147.8512,228.3
147.8913,101.1
147.93,548.6
147.9701,160.3
147.9733,384.5
147.9813,188.2
148.0097,289
148.0226,16.9
148.0549,179.4
148.2346,172.9
148.258,128.6
148.3362,107.3
148.3763,21.3
148.3844,285.4
148.4001,490.5
148.4099,561.8
148.5007,167.5
148.5322,4984.1
148.5498,133.6
148.5978,149
148.7772,283.6
148.8358,185.1
148.8389,556.7
148.8522,145.1
148.856,133.6
148.8821,707.2
148.954,296.1
148.9612,4867.4
149.0025,246.8
149.0186,10803.8
149.0233,5012.5
149.0449,49.7
149.0537,24.6
149.0551,130.6
149.1004,109.1
149.1455,1047.1
149.1734,134.1
149.238,753.9
149.2409,238.7
149.3008,557.5
149.3425,23.8
149.456,171.8
149.5198,88.6
149.5474,202.1
149.6089,99.3
149.6548,219.2
149.7171,22.2
149.8011,241.4
149.8247,633.1
149.8444,211.1
149.8507,483.5
149.8864,18.9
149.8936,19
149.9056,603.9
149.9096,253.3
149.9404,167.4
149.9928,6222.1
150.0137,6528.2
150.0239,288.1
150.0267,111.9
150.0557,352.1
150.0997,115
150.1114,20.9
150.1531,119.3
150.2806,18.5
150.3034,937.3
150.3769,535.3
150.3905,109.2
150.4614,644
150.4881,288.1
150.4931,20.9
150.5385,124.7
150.6215,17.3
150.6763,126.6
150.7485,823.2
150.7662,843.2
150.8513,177.8
150.8976,200.1
150.9218,541.6
150.9369,28.5
150.9768,67087.6
150.9841,369.8
151.0023,99.1
151.0053,289.4
151.0062,304.5
151.0358,540.6
151.0386,810.3
151.0456,354.7
151.0477,2440.3
151.1153,108.6
151.1978,112.1
151.2303,211.1
151.2599,292.7
151.2774,368.8
151.2851,133.7
151.294,18.5
151.3041,213
151.377,530.4
151.4061,132.7
151.4304,361.7
151.4542,483.7
151.46,175
151.4826,18
151.4909,140.8
151.5691,32.5
151.5706,533.6
151.5957,323.9
151.6417,612
151.6874,125.3
151.7709,19.8
151.9511,448.2
151.9742,158.9
151.9803,923.1
152.0221,8055.2
152.0318,4071.3
152.04,289.7
152.0513,172.7
152.0985,294.4
152.1003,564.7
152.1037,783.8
152.1121,28.5
152.1923,176.1
152.2085,302.2
152.2399,167.5
152.2565,399.4
152.2731,225.8
152.2781,288.8
152.3248,20.3
152.4059,282.7
152.4106,235
152.4122,1010.2
152.4483,119.4
152.4837,432.4
152.6126,531.6
152.6936,188.1
152.7115,623.7
152.7977,18.8
152.8563,500.8
152.877,289.5
152.898,156.6
152.9204,277.4
152.9225,479.8
152.9424,253.2
152.975,2291.9
153.0302,326.4
153.0338,114.9
153.0817,18.4
153.135,834.2
153.1769,151.8
153.1868,329.8
153.206,18.4
153.2305,564.8
153.2413,342.5
153.4097,182
153.4385,280.4
153.464,567.4
153.5739,104
153.5876,377.3
153.6523,110.5
153.6565,276.3
153.6694,333.5
153.7174,783.7
153.7631,297.6
153.7796,108
153.8161,302.5
153.8454,183.1
153.8868,349.4
153.8932,116.8
153.9114,146.2
153.9129,170.3
154.011,313.7
154.0266,543.3
154.0297,122.3
154.0421,153.1
154.0522,357
154.0588,2344.9
154.0636,193
154.1012,138.5
154.1057,20.6
154.152,130.3
154.2058,479
154.2098,90.9
154.2311,19.3
154.2434,735.4
154.313,103.1
154.3773,233.7
154.3876,99.9
154.4187,343.5
154.4278,23.4
154.511,136.6
154.5136,285
154.6014,21.6
154.6166,109
154.6301,237.3
154.6988,130.2
154.6994,129.5
154.7004,107.2
154.7576,326.3
154.77,225.5
154.8325,413.5
154.8806,764.1
154.8844,596.4
154.9074,129.2
154.9415,1487.5
155.0427,1590.2
155.054,6101.5
155.0792,641.4
155.1214,281.9
155.1339,29.5
155.1516,200
155.2003,709.7
155.2222,474
155.2369,223.5
155.4398,187.3
155.4492,179.6
155.4997,96.6
155.5177,129.7
155.539,28.8
155.577,837.7
155.624,173.9
155.659,558.4
155.7317,364.5
155.7523,211.9
155.7824,272.7
155.8064,110.5
155.8191,25.9
155.8394,92.2
155.8425,210.3
155.846,339.5
155.8566,117.1
155.8602,186.2
155.9224,297.6
156.0574,152.5
156.0589,380.4
156.0636,111.9
156.0768,31786.1
156.1272,269.2
156.136,273.4
156.1564,16.6
156.2124,589.2
156.2173,187.2
156.2311,248.4
156.2497,114.6
156.2633,168
156.2911,104.8
156.3043,18.4
156.3319,21
156.3962,298.6
156.4045,320.3
156.4389,383.8
156.4447,147
156.5043,19.1
156.5588,106.9
156.5825,180.8
156.6195,670
156.6289,552.8
156.6773,664.3
156.7163,139.1
156.7379,171.5
156.7463,200.5
156.8109,245
156.8573,123.5
156.8774,358.6
156.8889,125.7
156.8922,492.3
156.9339,822.3
156.9483,16.9
156.9743,69
157.0045,211.9
157.0578,181.4
157.0661,98
157.0802,322.9
157.0833,20.8
157.0972,496.9
157.1089,336.7
157.1213,20.4
157.1488,117
157.1703,273
157.2449,27.9
157.251,194.1
157.3717,16.9
157.4219,456.9
157.5013,107.1
157.5265,205.4
157.5448,455.9
157.5757,210.2
157.5794,166.7
157.5837,172.2
157.5899,565.9
157.5926,454.8
157.6344,669.3
157.6537,85.2
157.7033,535.7
157.7211,185.3
157.7892,17.6
157.8016,183.9
157.8452,242.8
157.8575,97.2
157.9222,99.6
157.9263,171.8
158.0126,533.1
158.0193,305.2
158.0271,3032.1
158.0774,134.5
158.1487,17
158.2233,278.7
158.2378,182.3
158.3208,29.9
158.3288,18.4
158.3359,166
158.3867,199.7
158.4731,523.3
158.5306,97.6
158.5671,18.9
158.5993,117
158.6808,173.7
158.7697,18.8
158.8455,104.2
158.857,227.5
158.8947,107
158.9207,123.6
158.9279,1585.1
158.9641,13746.2
158.9706,277.2
158.9746,383
158.9966,4358.9
159.0114,25.2
159.0304,122.4
159.0808,120.2
159.0986,157.4
159.1033,202.8
159.1096,18.6
159.1821,24.8
159.2416,382
159.2469,289.2
159.3305,18.3
159.4508,774.9
159.506,127
159.5763,195.7
159.5908,282.4
159.6079,281.1
159.629,194.1
159.6437,21.7
159.7506,116.4
159.7549,109.6
159.7624,775
159.8091,111.8
159.8139,343.5
159.848,195.9
159.8519,18.9
159.9374,164.3
160.023,64.9
160.0311,18.5
160.0346,10564.2
160.0456,297.6
160.0605,99700.9
160.1975,121.6
160.2836,18
160.2883,463.3
160.3191,299.5
160.3484,251.9
160.3925,161.3
160.4138,140.6
160.4582,365
160.4631,144.7
160.4756,28.7
160.4935,17.4
160.5383,319
160.5784,21
160.5934,150.4
160.6079,286.1
160.6137,502
160.8461,342.7
160.8496,504.3
160.8874,504.2
160.9197,567.8
161.0159,23.7
161.0187,375.7
161.0574,192.7
161.0605,17
161.0638,3903.8
161.1285,1034.4
161.1529,157.6
161.2186,453.6
161.2392,125.8
161.2592,165
161.2922,19.3
161.3301,18.3
161.3589,456.4
161.4203,149.8
161.5246,347.3
161.56,115.2
161.5635,18.7
161.6422,677.5
161.6627,850.7
161.7238,243.5
161.7705,205.2
161.8174,300
161.9068,506.2
161.9219,116.6
161.9335,266
161.9841,235.1
162.0219,17.6
162.0358,18.6
162.0469,28.1
162.0502,18705
162.0609,522.5
162.1057,208.6
162.1128,113.1
162.1384,297.4
162.1459,189.3
162.2097,378.7
162.22,198.7
162.3269,138.6
162.3365,420.5
162.3437,381.6
162.3506,305.4
162.4219,168.2
162.4284,194.6
162.4794,360.9
162.4851,221.3
162.4878,298.2
162.5201,29.1
162.524,284.5
162.5587,203.4
162.5619,147
162.6405,106.3
162.6559,17.1
162.825,186.2
162.8546,99
162.8856,186.4
162.9046,345.3
162.9556,4300.4
162.963,443.2
162.9802,182.5
162.9941,114.5
163.0027,595.6
163.0156,2666.2
163.039,369.9
163.0531,355.9
163.1201,18.9
163.1583,102.3
163.1687,170.2
163.1752,487.4
163.1922,308.3
163.3111,194.4
163.345,398.1
163.4304,162.2
163.4597,523.2
163.4746,607.3
163.5382,102
163.6158,258.1
163.6379,19.9
163.6423,662.7
163.6464,561.5
163.6491,98.5
163.6537,727.1
163.6583,303.8
163.6807,553.7
163.7558,210.9
163.7815,328.7
163.8186,207.6
163.8381,171.9
163.9617,193.8
164.0008,385.1
164.0295,11924.9
164.042,390
164.0789,18.8
164.1293,170.6
164.1436,354
164.1833,182.3
164.2069,98.6
164.2209,700.8
164.2237,266.3
164.2747,430.4
164.3088,17
164.3442,330.6
164.3743,599
164.595,329.4
164.6315,566
164.641,133.2
164.6864,131.1
164.7017,327.7
164.7435,164.2
164.8443,458.8
164.8491,379
164.887,159.3
164.8942,18.6
164.9206,4437.1
164.9301,21888
164.9352,3576
164.9394,328.2
164.9925,3948.3
165.057,527.8
165.0886,164.2
165.0911,5339.7
165.2205,19.7
165.2513,246.8
165.281,157.8
165.3244,95.6
165.4212,324
165.4239,356.6
165.6619,199.4
165.7159,210
165.8734,111.1
165.8789,305.4
165.9116,17.9
165.9401,307.9
165.9669,472.7
165.9705,153.9
165.9788,739
165.9878,4922.4
165.9951,45.7
166.0108,475.4
166.0203,530.9
166.0747,327.7
166.3237,23.7
166.3499,762.5
166.3638,313.8
166.4567,252.6
166.4717,218.7
166.5283,121.9
166.6728,284.8
166.6992,268.8
166.7367,159.2
166.8062,110
166.8387,113.8
166.8818,263.1
166.9173,298.9
166.9179,299.6
166.9509,24945.7
166.972,110.2
167.0217,4122.2
167.0693,352.3
167.1578,736.3
167.2552,194
167.2811,86
167.3595,244.5
167.3865,137.1
167.3979,148.1
167.4589,16.3
167.4728,130.3
167.4772,809.6
167.5042,110.5
167.5174,132.5
167.5388,499.7
167.5442,200.6
167.622,137
167.6501,182
167.7001,203.1
167.7358,199
167.7941,110.9
167.815,620
167.8546,17.1
167.8688,106.2
167.9423,212.9
167.9467,108.6
167.9639,161.5
167.9893,286.7
167.9945,1701.2
168.0058,436.3
168.0394,1047.8
168.0728,122.5
168.0868,455
168.0997,618.7
168.1091,163.9
168.1246,86
168.1424,170.9
168.2514,512.3
168.3357,138
168.344,245.7
168.3459,126.6
168.3668,98.5
168.4387,16.4
168.4498,726.5
168.4903,145.1
168.4976,309.2
168.5093,198.5
168.5155,493.5
168.5459,19.1
168.6242,557.4
168.6747,125
168.693,284
168.8882,169.6
168.9298,346.9
168.9404,508
168.949,2105.3
168.954,332.6
169.0174,25.2
169.0351,28.6
169.0489,94.5
169.0511,96.3
169.0584,45933.2
169.0647,187.9
169.0948,810.5
169.1057,147.6
169.1537,20.8
169.1754,275.8
169.2139,18.4
169.2507,174.5
169.3291,98.1
169.3368,272.4
169.358,487
169.4475,121.4
169.4625,912.6
169.4766,472.8
169.4833,388.9
169.5854,25.6
169.6117,102.4
169.6253,536.5
169.6588,532.5
169.6663,717.5
169.7712,87.7
169.7731,490.5
169.7798,799.8
169.8571,317.2
169.8934,95.6
169.8978,122.4
169.9532,194.1
169.9623,697
169.986,2189.2
170.0328,5070.8
170.0429,259.7
170.1515,28.5
170.1908,238.9
170.2605,578.8
170.3516,18.8
170.4473,375.6
170.4686,189.5
170.5643,207.5
170.5698,353.1
170.6357,18.6
170.6766,120.5
170.682,289.9
170.6919,20.3
170.6954,18.1
170.8466,290
170.8545,4238.1
170.905,276.8
170.927,480.6
170.9466,223.8
170.9952,20.1
171.0167,397.6
171.0285,569.2
171.0327,663.3
171.0809,572
171.1216,258.5
171.1589,249.8
171.2967,220
171.3509,105.3
171.3668,131.4
171.3725,164.7
171.4051,85.6
171.4644,486.2
171.4937,131
171.5021,92.3
171.5162,29.3
171.5746,126.5
171.6737,19.3
171.7191,288.8
171.7395,93.7
171.7491,147.6
171.7981,205.8
171.8041,530.6
171.8152,529.8
171.8213,19.7
171.8288,114
171.9541,824.8
171.9757,783.1
171.9816,19.8
171.9918,133.2
172.0073,130.6
172.0249,222.3
172.0283,538.8
172.1129,18.8
172.1298,98.2
172.2216,171.3
172.2277,321
172.2806,258.3
172.3785,119.8
172.3894,98.8
172.3925,140.3
172.4818,86.3
172.5254,503.1
172.5625,124.4
172.5716,252.3
172.6363,328.9
172.6454,362.2
172.6487,93.4
172.6557,91
172.7233,164.6
172.7827,120.5
172.8006,19
172.8515,1735.1
172.8738,121.8
172.9379,393
172.9523,71.9
172.9588,320.2
173.0056,22.2
173.0268,258.3
173.0293,556.9
173.0371,97.8
173.0425,418.3
173.0498,189.5
173.0522,504.7
173.0875,112.9
173.0952,172.8
173.1127,1082.5
173.1191,107
173.1311,784.4
173.1539,194.8
173.205,519
173.2104,438.1
173.3199,114.7
173.3668,475.7
173.4151,108.2
173.4291,529.6
173.4504,200.3
173.6058,283.4
173.6603,18.5
173.7078,89.6
173.7295,190
173.7631,18.1
173.7804,456
173.8442,366.8
173.8618,17.6
173.8989,459.4
173.9201,169.9
173.9335,17.2
173.9591,365.3
173.9678,725.4
173.9751,524.1
174.0365,168.3
174.2676,265.3
174.2911,17.4
174.3357,424.5
174.4441,643.7
174.4527,220.3
174.4958,18.9
174.5023,429.3
174.5377,365.3
174.5859,378.6
174.6233,244.9
174.643,24.2
174.6659,121.9
174.6757,211.9
174.7101,98.5
174.7434,570
174.748,99.6
174.7945,105.3
174.8135,319.3
174.8796,324.2
174.9382,5153.1
174.9848,21.7
174.998,366.6
175.0049,295.9
175.0343,4664.3
175.0455,2288.3
175.0583,438.7
175.0797,236.2
175.119,65738.2
175.1643,191.3
175.2464,18.3
175.2617,144.9
175.3602,870.1
175.4553,155.9
175.5141,19.4
175.532,17
175.5407,341.9
175.5685,655.8
175.5824,195.7
175.6142,673.3
175.7056,543.3
175.7231,474.4
175.7445,91.5
175.7471,164.8
175.7584,191.7
175.8176,114
175.856,424.9
175.876,529.8
175.9024,108.5
175.9577,462.6
175.9671,320.6
176.0086,4276.4
176.0296,192.7
176.0571,152.2
176.066,26640.5
176.1029,262.8
176.1224,953.4
176.1784,23.8
176.1872,284.7
176.2932,661
176.3083,18.1
176.3401,169
176.3897,807.8
176.4618,487.9
176.4663,19.5
176.5972,319.2
176.6087,486.5
176.7273,388.2
176.8149,416.6
176.9137,87.6
176.9756,299.1
176.9923,2148.8
177.0248,6560.7
177.0348,178.8
177.0497,555.6
177.0612,9255.3
177.0693,491.6
177.087,794.7
177.1956,99.9
177.4286,173
177.4974,102.8
177.6131,701.4
177.646,98.4
177.6633,511.2
177.6821,141.9
177.9257,364.2
177.9692,303.1
177.9814,214.2
178.0088,10480
178.0242,9620.3
178.0589,3093.3
178.1429,308.9
178.203,513.6
178.2124,19.4
178.3741,812
178.3944,18.5
178.4345,162.8
178.4562,134
178.4669,281.2
178.5111,797.4
178.5252,822.6
178.5455,17.1
178.5531,102.4
178.5758,591.1
178.6192,422.3
178.6584,18.4
178.7,115.2
178.7787,545.1
178.8214,154
178.8498,282.8
178.8554,18.2
178.8817,179.3
178.8862,874.8
178.954,429.9
178.9801,22.5
179.0488,165.8
179.1966,600.7
179.2057,185.2
179.2109,323.9
179.2209,332.5
179.2276,154.1
179.2964,426.4
179.3484,318.9
179.3621,511.6
179.4157,588.3
179.4238,227.2
179.4393,184.1
179.5033,130
179.5517,622.1
179.5595,138.3
179.6059,507.7
179.7118,99.8
179.8584,19.1
179.8809,388.4
180.0035,7834.7
180.1024,307.3
180.3388,178.3
180.3487,32.8
180.4078,19.2
180.4723,336.9
180.4777,21.2
180.6398,169.2
180.6496,796.2
180.6623,785.9
180.6724,167.6
180.7014,200.9
180.8064,414.8
180.8507,22.3
180.891,295.6
180.8947,2113.3
180.9041,10666.5
180.9576,2492.5
181.0082,322.7
181.0265,671.5
181.065,6266.4
181.1416,302.4
181.1596,283.4
181.1679,291
181.2329,235.3
181.2351,533.4
181.2943,813.5
181.3026,267
181.3303,93.3
181.4011,627.2
181.437,213.6
181.5173,364.1
181.5353,18.7
181.5607,752.7
181.5775,111.8
181.5968,140.7
181.6194,17
181.6257,123.9
181.8159,113
181.8498,230.8
181.8761,416.3
181.8903,141.7
181.9532,224.7
181.9966,244.8
182.0156,107.6
182.0425,30214.6
182.0801,405.6
182.1687,276
182.1845,107.7
182.3089,110.8
182.3203,215.3
182.4675,260.9
182.5603,19
182.6151,584.9
182.6666,279.7
182.6926,270.8
182.7166,809.5
182.7445,30.5
182.7588,733.5
182.7649,166.7
182.8143,314
182.8551,801.3
182.9025,48.5
183.0092,218.7
183.0449,1721.9
183.0792,19.7
183.098,141.2
183.2111,131.1
183.231,568.4
183.2872,215.1
183.4127,448
183.538,218.7
183.5758,147.4
183.6283,198
183.6596,87.9
183.6803,361
183.6956,601.6
183.7591,115.3
183.7772,343.6
183.7934,287
183.8624,164.6
183.893,210.2
183.9171,164.9
183.9593,579.7
183.9649,2071
184.0372,2339.7
184.0579,477.3
184.0624,378.2
184.0654,1646.4
184.0672,2626.9
184.0735,5741776.5
184.0774,9351.1
184.1011,248.4
184.1097,2419.5
184.1196,141.1
184.1326,198.9
184.1533,439.6
184.1652,111.4
184.1822,3188.7
184.211,561.5
184.3256,310.3
184.5524,106.9
184.5961,21.7
184.62,470.5
184.656,543.2
184.8496,383.4
184.9105,612.5
184.9121,208.6
184.9146,622.6
184.9306,181.9
184.9992,19.2
185.0055,252.1
185.0235,553.7
185.0324,49059.9
185.0437,173.5
185.0705,13382.4
185.0768,277597.4
185.0795,4847.8
185.0904,345.2
185.1106,17.1
185.156,332.4
185.1583,18.9
185.2076,121.3
185.2573,216.9
185.3296,265.6
185.367,579.8
185.3904,118.4
185.4558,20.1
185.473,118.1
185.5314,471
185.5606,155.4
185.5972,130.6
185.6019,299.3
185.6506,685.2
185.6607,17.8
185.6952,19.6
185.7835,334.9
185.804,187.9
185.8275,181.8
185.9596,1691
185.9969,655.9
186.0358,394.6
186.0745,317.8
186.0777,39133
186.1316,254.8
186.2573,278.6
186.5245,18.9
186.5577,156.2
186.5609,430.5
186.6405,28
186.6473,250.2
186.6636,203.2
186.7357,215.4
186.7812,153
186.7969,215.9
186.8013,242.5
186.9122,4494.5
186.9285,546.8
186.9639,193.1
187.0303,1352.9
187.0578,10751.8
187.0715,1536.5
187.0814,350.7
187.0857,752.9
187.108,4252.9
187.1461,559.9
187.2083,293.4
187.3569,87.6
187.4976,237.1
187.5096,116
187.5288,19.9
187.6746,312.3
187.8648,131.2
187.914,195.1
187.9311,17.6
188.0689,724
188.0932,30.4
188.1147,293.4
188.1172,87.2
188.2798,232.2
188.2902,100.2
188.4971,226.6
188.5325,24.4
188.5548,283.4
188.5732,513.6
188.6224,133.3
188.6496,17.3
188.6548,549.7
188.6707,120.5
188.9142,217.1
188.9447,608.7
188.9774,151.6
189.007,602.7
189.031,281.7
189.0382,379.4
189.0532,450.2
189.0611,2398.6
189.0871,9537.1
189.1986,258.2
189.2263,143.2
189.3337,18.6
189.4851,172.5
189.4976,463.4
189.6267,851
189.7165,248.4
189.7189,230.5
189.7519,124.9
189.7785,457
189.8596,490.3
189.8819,411.2
189.9501,138.5
189.96,143.2
189.9782,217.1
190.0739,301.2
190.0829,339.8
190.1039,270.5
190.1202,1018.8
190.1373,22.1
190.192,260.8
190.1996,101.7
190.2183,164.8
190.2888,102.3
190.3401,226.2
190.3754,293.6
190.442,285.6
190.5012,156.1
190.5312,159
190.6157,136.7
190.6211,646.8
190.623,605.8
190.7006,595.9
190.7027,445.4
190.758,323.3
190.7938,770.7
190.819,16.9
190.9121,1005.7
190.9197,200.8
190.9426,251.3
190.9446,54.2
190.964,111.6
191.0083,4078.3
191.0279,154.8
191.0343,208.9
191.0405,158060.6
191.0547,110.1
191.0769,24033.7
191.1043,139
191.1319,18.2
191.1657,413.5
191.1984,77.5
191.2885,109.5
191.3172,190.8
191.5177,19.5
191.5454,210.4
191.6807,18.1
191.7004,741.7
191.7681,155.4
191.8343,189
191.8903,28
191.958,101.4
191.9608,565.1
192.04,12276.7
192.0439,4770.1
192.1766,16.2
192.1947,18.6
192.2258,256.6
192.2927,126.4
192.3085,909
192.3337,791.9
192.3662,475.9
192.4556,288.2
192.546,106.3
192.6008,137.2
192.6033,423.9
192.6421,129.1
192.6519,339
192.6701,350.2
192.6942,288.1
192.7648,131.2
192.7786,168.7
192.822,88.4
192.8484,207
192.866,147.5
192.9302,141.3
192.9705,486.1
192.9988,3387.9
193.0351,3396.2
193.0497,514.3
193.2161,243.9
193.2865,110.8
193.4366,423.4
193.4951,182.8
193.4988,245.7
193.558,140.1
193.6183,22.6
193.6942,801.5
193.7115,283.6
193.7515,209.2
193.8218,128.6
193.8657,359.1
193.954,111.2
193.9744,152.8
193.9983,2242.5
194.005,620.7
194.0198,20
194.0326,830.5
194.1214,142.8
194.1542,106.5
194.1784,471.7
194.2235,173.6
194.2285,406.3
194.2605,121.5
194.2966,339.6
194.3062,135.9
194.3111,33
194.3283,18.7
194.428,255.8
194.4512,149.7
194.4701,155.3
194.6245,101.3
194.6382,180.2
194.6822,213.6
194.6863,495.9
194.7455,817.3
194.9219,332.8
194.9353,234.1
194.9539,225.1
195.0374,172.9
195.0651,286.2
195.0701,18.7
195.0882,25
195.1574,23
195.1766,131.2
195.2079,230.1
195.2384,30.1
195.28,35.3
195.2826,129.4
195.3708,172.1
195.4762,141.2
195.5566,159.9
195.59,128.4
195.6655,19
195.6844,110.3
195.8106,116.7
195.8377,629.3
195.8877,19.8
195.9699,316.5
195.9741,26.6
195.9775,363.3
196.0081,168.5
196.0191,155.8
196.0679,731.8
196.0794,93.9
196.1581,507.4
196.1698,307.5
196.1748,122.8
196.2022,186.1
196.2444,19.9
196.2557,478
196.4385,139.8
196.629,170.9
196.6701,155.7
196.6856,151.6
196.7295,20.5
196.7664,87.6
196.7827,18.6
196.8653,8620.5
196.878,1652.2
196.8881,514.6
196.9553,18
196.9797,266.9
196.9955,121
197.0423,162.3
197.1011,1515.9
197.1375,219.4
197.1813,28
197.2484,363.5
197.4103,191.7
197.4143,122.2
197.5003,476.1
197.5835,641.3
197.7316,19.2
197.7983,900.4
197.8565,95
197.8869,257.3
197.938,192.2
197.958,636.7
197.9796,96.9
198.0052,90.6
198.0072,50.1
198.0851,5730.4
198.1097,26
198.1175,547.7
198.1854,5696.2
198.1971,30
198.2055,20.9
198.2403,112.5
198.2882,551
198.3029,89
198.3043,134.2
198.3051,124.5
198.3873,19
198.4251,193.4
198.6095,17.6
198.6732,347.1
198.6871,94.4
198.6926,17.5
198.7277,174.4
198.7509,357.9
198.8624,9332.6
198.9441,170
198.9499,186.4
198.9738,84.1
199.0131,176.7
199.0169,24.9
199.0217,525.5
199.0373,723
199.0691,1583.3
199.0755,902.3
199.0805,196.7
199.0874,373.7
199.0972,194.6
199.1163,19.4
199.127,16.5
199.1887,281.4
199.231,556.9
199.2938,589.4
199.2968,331.1
199.339,161.4
199.3639,21.7
199.3673,165.2
199.4605,172.8
199.4633,22.3
199.5288,219.4
199.5558,328.3
199.5632,150.2
199.5698,439
199.6117,203.3
199.6354,21.1
199.6457,198.3
199.738,382.5
199.7931,530.7
199.8454,183.4
199.9141,302.2
199.9365,353.7
199.9659,501.5
199.9908,27874.2
199.9988,159
200.003,518.1
200.0143,593.2
200.0409,15662
200.0857,178.8
200.0967,10749.5
200.1165,26.1
200.1518,260.7
200.179,182.8
200.2233,163.3
200.2499,163.4
200.3262,460.7
200.5648,21.4
200.6054,20.9
200.6103,117
200.6704,589.7
200.6863,281.9
200.7359,549.6
200.8136,490.4
200.8368,119.2
200.8595,1588.1
200.865,352.4
200.9369,350.4
200.9457,313.1
201.0159,166
201.0245,319.9
201.0385,491.5
201.0872,617.1
201.114,734.6
201.1731,104.1
201.1829,144.2
201.2578,161.3
201.2908,16.4
201.3228,119.9
201.3911,19.4
201.6163,88.4
201.6207,84.9
201.6569,225.4
201.6762,789.7
201.6925,179.8
201.698,563.3
201.8203,124
201.8359,86.2
201.8423,122.2
201.8603,25.1
201.955,83.1
201.9588,115.5
201.9995,17.5
202.0322,387.2
202.0642,638.8
202.1022,217.5
202.1661,85.8
202.1882,144.2
202.2801,299.4
202.2842,313.7
202.3199,543.2
202.467,89.3
202.4707,663.8
202.4766,19057.1
202.5016,171.9
202.511,123.9
202.5202,19.2
202.5611,406.3
202.5648,518.5
202.6669,158.2
202.725,260.3
202.7749,261.8
202.85,193.5
202.8862,317.4
202.9269,625.1
202.9613,17.7
202.9942,24.1
203.0089,101.4
203.0127,267.8
203.0182,26.5
203.0321,3456.8
203.0528,1252119
203.0769,6974.3
203.0968,492.1
203.2448,427.4
203.3401,95.3
203.4525,266.4
203.5301,83.8
203.5341,105.2
203.6082,99.4
203.6112,529.5
203.6817,458.8
203.7024,90.5
203.7542,91.7
203.8302,133.8
203.8943,508.5
203.9458,38.7
204.0245,40508.9
204.0499,372.6
204.0562,66872.6
204.0785,539.3
204.1145,343.7
204.1265,162.5
204.2259,251
204.2804,898
204.3747,251.2
204.3763,250.5
204.442,542.4
204.5011,144.5
204.5312,197.3
204.5468,463.3
204.5699,529.3
204.589,839.4
204.7141,159.5
204.8158,494.3
204.8753,26.6
204.8889,668.1
204.9951,44.6
205.0021,504.8
205.0098,370
205.0281,307.3
205.0571,7765.5
205.0837,102.2
205.0924,1240.8
205.1223,216.4
205.1425,280.1
205.1575,204.6
205.2885,241.7
205.322,196.1
205.5572,235.2
205.6949,611.9
205.7015,572.5
205.7086,23.5
205.7926,366
205.8014,393.7
205.8505,20.9
205.8962,528.3
206.0555,3384.6
206.0921,205.2
206.2956,226.9
206.3551,154.1
206.3624,123.6
206.433,172.5
206.4386,19.2
206.4498,138.5
206.4718,226.9
206.6038,114.8
206.6121,272.2
206.7188,564.1
206.7458,17.1
206.7513,455.1
206.7788,15.8
206.83,797.3
206.8642,281.8
206.8942,22009.8
206.9094,556.4
206.9388,312.5
206.9703,787
206.9823,1456.5
206.9938,265.1
207.0145,93771.1
207.0442,1221.2
207.0509,10703.2
207.1196,301.5
207.1558,435.3
207.1818,279.2
207.2508,498.9
207.2873,231
207.3054,414.2
207.3737,601
207.4949,163.6
207.5287,119.6
207.7129,103.5
207.7626,381
207.7665,995.9
207.806,559.8
207.8163,361.5
207.8225,169.2
207.9901,484.2
208.0141,1075.1
208.018,2472.9
208.0363,19.8
208.0977,255.7
208.1147,386.7
208.1331,153.6
208.235,167.2
208.3033,89.4
208.3513,759.4
208.3695,249.1
208.4385,20.3
208.5141,173.8
208.5886,367.5
208.6944,158.7
208.7268,235.5
208.8207,19.3
208.8833,52.5
208.8912,16299.8
208.936,1716
208.9563,167.4
209.0036,367.5
209.0127,3473.2
209.0362,101.8
209.0923,490.4
209.3662,21.7
209.4292,119.3
209.4389,489.1
209.485,442.3
209.4907,697.3
209.5764,525
209.5961,527.5
209.613,649.8
209.621,21.2
210.7017,696.4
210.7135,149.6
210.7162,179.1
210.7412,227.7
210.7502,385.6
210.8417,209.8
210.8483,506.5
210.8611,334.8
210.8885,722.8
211.0123,19.2
211.0566,647
211.0691,2089.3
211.1069,311.8
211.1334,106.3
211.1368,690.5
211.1401,3321.9
211.1445,5345.1
211.148,10210.8
211.1542,37435.3
211.1587,22802.8
211.1666,5614.7
211.1872,305.3
211.2073,116.9
211.2973,611.2
211.4084,16.2
211.6271,24.8
211.6489,17.6
211.6859,650.2
211.7456,579.9
211.7589,20.6
211.7866,19.2
211.8661,121.7
212.0234,369.3
212.0742,87
212.158,17.4
212.2538,130.5
212.2826,129.7
212.3188,318.2
212.3411,314.3
212.425,27.4
212.4784,258.8
212.6282,101.8
212.6498,170.6
212.7524,295.9
212.7779,170.4
212.8395,4034.3
212.8518,197.9
212.9606,471.2
212.9782,1295.6
213.0548,695.9
213.0705,326.5
213.0747,443.8
213.3182,963
213.4442,278.7
213.5036,181.4
213.644,108.6
213.664,213.4
213.6705,146.5
213.6823,182.6
213.7571,106.2
213.8846,842.8
213.9129,18.5
213.9533,458.7
213.9621,140.4
213.9847,1142.6
214.0067,465.3
214.0403,20.4
214.0591,7010.7
214.0899,958.9
214.1324,21.7
214.1921,316.3
214.2174,20.7
214.3153,205.1
214.4031,305.4
214.4238,218.8
214.5464,26.8
214.609,741.6
214.7812,180.2
214.8067,19.7
214.821,359.2
214.8365,1680.2
214.8863,180.5
214.8929,300.9
214.9175,1116.3
214.9343,169.2
215.0931,36.2
215.1066,18.7
215.1604,94.7
215.1965,478.2
215.4243,489.2
215.5613,665.2
215.6351,212.5
215.7223,254.7
215.8478,137.9
215.8579,128.6
215.8741,185
215.9303,18.6
215.945,504.9
215.953,195.4
215.9945,893
216.0149,9121
216.0463,220.9
216.0528,236.1
216.0881,135.1
216.1008,232.6
216.1249,502
216.1458,212.7
216.1584,277.9
216.166,93.1
216.3066,235
216.318,154.9
216.375,182.7
216.3861,218.4
216.5409,342.3
216.5831,17.2
216.6589,161.8
216.8058,23.7
216.8332,389.3
216.8409,126.3
216.8589,19.7
216.868,19.8
216.923,64169.8
216.9843,45.1
217.0178,558.1
217.057,270.6
217.2715,92.8
217.3009,138.4
217.3448,111
217.3628,152.2
217.4972,17.2
217.5145,19
217.5441,93.1
217.5627,190.7
217.8271,248
217.8786,147.8
217.8909,251.9
217.8958,815.4
218.0063,20.6
218.0153,27.5
218.0997,355.6
218.1188,185.1
218.134,190.1
218.1518,70.4
218.1623,102.6
218.2249,262.5
218.2362,151.3
218.2461,151.3
218.3513,110.3
218.4557,86.7
218.4663,383.7
218.5133,176.5
218.5281,117.7
218.6112,710.6
218.6251,462.8
218.6972,247.6
218.7149,111.1
218.7632,23.1
218.8162,19.6
218.8873,383.9
218.92,16379.8
218.939,20
218.9576,22.1
218.9835,662.3
219.0181,1161.8
219.0268,1368690.9
219.0831,9160.4
219.1014,284.3
219.1911,34
219.2136,167.1
219.2857,135.2
219.2994,17.5
219.3067,359.6
219.3104,164.1
219.3478,167.3
219.3626,665.4
219.3793,127.9
219.4708,135.7
219.4749,467.3
219.5354,180
219.5486,280.7
219.5892,19.8
219.6204,283.6
219.7047,105.5
219.8169,899.4
219.8917,125.9
219.908,147.9
219.9624,18.1
219.9807,18.6
219.9984,160.6
220.0041,199.9
220.0301,74541.1
220.0375,620.7
220.0671,9837.7
220.0861,119
220.1316,843.2
220.1504,187
220.1675,435.5
220.1759,1008.2
220.193,193
220.2124,527.6
220.2371,21.5
220.3184,100.4
220.4246,91.4
220.4762,174.7
220.483,481.9
220.6398,127.7
220.6542,125.2
220.6711,300.4
220.6813,551.1
220.7638,132.9
220.7846,1150.2
220.8164,469.4
220.9346,699.9
221.0249,82338.9
221.0311,10709.4
221.051,1696.9
221.0713,495.7
221.0847,285
221.1196,19.6
221.224,785.6
221.2563,214.7
221.5691,338.3
221.5788,185.7
221.5808,185.1
221.7979,119.9
221.9351,227.8
221.9564,221.8
221.984,1084.7
222.01,492
222.0283,2666.8
222.1201,173.1
222.2035,333.7
222.2121,205.2
222.2387,242.2
222.2846,114.8
222.3231,36.4
222.3579,295.6
222.4353,709
222.557,395.6
222.7245,17.3
222.8681,16782.5
222.8795,391.6
222.8891,524.3
222.8994,21.1
222.9147,224.2
222.9297,352.1
222.9617,213.6
222.9885,8534.2
223.0336,533.1
223.0371,1816.2
223.082,207.1
223.1152,135.9
223.1252,97.8
223.1469,348
223.201,202.3
223.2313,377.1
223.2553,346.8
223.3309,321.5
223.3937,19.8
223.3976,113.6
223.5713,114.4
223.6201,278.4
223.7782,186.5
223.8516,131.7
223.9535,113.6
223.9826,136.2
224.0791,19.7
224.349,359.9
224.3565,18.7
224.4364,270.6
224.5416,507.3
224.5956,629.7
224.6048,393
224.7402,88.8
224.8192,344.4
224.8651,11209.2
224.9074,19.8
224.9283,116.8
224.9556,18.1
225.0423,143.8
225.0549,21748.7
225.0957,285.5
225.1162,485.2
225.1446,188
225.1514,185.9
225.1812,266.3
225.1923,195.1
225.2396,291
225.2588,213
225.3867,120.6
225.3996,83.8
225.5024,162.9
225.6304,264.4
225.7087,306.8
225.7472,287.9
225.9165,593.3
225.9277,17.9
225.9386,375.4
225.9526,18.7
225.9665,102.7
225.995,239.3
226.0022,98.8
226.0064,2233.3
226.0162,435.5
226.0244,6045.9
226.0453,4809.6
226.0584,106.5
226.0655,494
226.0692,595.7
226.1022,223.7
226.2354,785.7
226.567,590.3
226.5723,19.5
226.6909,142.8
226.7572,706.7
226.8626,465.4
226.9518,59059.8
226.9674,19
227.0269,397
227.0342,541.4
227.043,351.8
227.0486,382
227.0628,143
227.079,401.2
227.0865,327.1
227.1456,164.1
227.2078,175.5
227.299,254.8
227.3443,512.5
227.3765,128.7
227.4133,429.4
227.4148,341.8
227.4499,191.7
227.5223,411.2
227.5483,414.9
227.5979,287.4
227.6113,436.7
227.7469,145.2
227.817,553.3
227.8194,120
227.8908,275.5
227.937,19.4
227.955,690.3
228.0003,1195.3
228.0352,189.2
228.1853,188.6
228.2804,162.4
228.3757,143
228.3932,248.6
228.4544,17.8
228.6528,185.1
228.8135,464.4
228.9171,19
228.9564,139.6
228.9773,21.3
229.0319,496.2
229.0352,155.8
229.0639,228.5
229.1184,27.4
229.133,149.5
229.1433,337.7
229.2048,384.7
229.2927,264.8
229.3131,330.9
229.4645,128
229.5393,139.2
229.6268,148.4
229.631,337.2
229.7822,279.6
229.8317,295.4
229.8655,153.4
229.8731,612.8
229.9572,504.9
230.0175,93.7
230.0334,229.1
230.0668,331
230.2367,223.6
230.3544,171.4
230.4086,17.3
230.5055,285.7
230.5221,108.8
230.5653,555.4
230.6249,307.8
230.6839,201.4
230.7098,155.9
230.8101,332.5
230.8836,19.7
230.9785,519.2
230.9822,359.8
230.9845,472.5
230.9863,720.3
230.9905,68.8
231.0062,94.8
231.0559,130.8
231.1195,359.8
231.1449,88.9
231.1904,337.7
231.25,745.6
231.2541,400.3
231.3341,100.7
231.3452,217.4
231.4648,281.1
231.5887,17.6
231.5971,525.9
231.7017,789.5
231.7442,547.6
231.9023,414.8
231.9782,331.5
231.9893,531.6
231.9954,334.6
232.022,36.2
232.0306,18.7
232.0411,339.5
232.0476,17.6
232.1105,266.1
232.1212,773
232.1304,968.8
232.2052,612.8
232.2985,162.3
232.3783,403.4
232.4363,578.4
232.5271,97.1
232.6784,424.1
232.7477,301
232.8135,299
232.8432,19.1
232.8593,21
232.897,46098.3
232.9146,17.5
232.9285,23.3
232.9487,148.6
232.9859,730.3
233.0034,353.8
233.0511,8798
233.0595,20.5
233.241,303.6
233.2727,222.5
233.2942,363.8
233.3494,162.4
233.3684,156.4
233.3844,18
233.4294,132.6
233.6077,275.4
233.6505,169
233.7065,294.9
233.8472,129.6
233.9002,752.1
233.9308,175.3
233.9496,20.1
234.0232,166.3
234.2003,813.6
234.3305,902.6
234.3533,311.5
234.3834,1058.2
234.4061,23.4
234.47,91
234.4776,121.1
234.4966,757.9
234.7292,108.9
234.7925,252.1
234.8705,494.6
234.8939,12502
234.9255,19.1
234.9619,763
234.9631,811.4
234.9817,2549.9
235.0295,592.4
235.0365,179.5
235.0452,576.1
235.0571,3343.3
235.0669,969.8
235.0927,24406.9
235.1003,219
235.1222,196.5
235.1387,178.4
235.1831,95
235.1949,190
235.3498,93.5
235.4302,20.4
235.4389,229.4
235.4665,19.1
235.5321,124.3
235.5805,417
235.8216,173.4
235.8258,460.7
235.864,118.7
235.9558,128.6
236.0166,30
236.0275,17
236.0411,4832
236.0719,43997
236.096,448.8
236.1,467
236.1261,549.9
236.1577,265.1
236.202,283.5
236.2762,168.3
236.436,783.2
236.5173,107.4
236.704,193.2
236.7279,235.8
236.7608,20.4
236.7748,268.1
236.8922,35
236.9167,17.8
236.9552,196.4
236.9796,191
236.9942,165.1
237.0302,654.6
237.0511,762.3
237.0752,1520.9
237.1569,562.2
237.1987,338.6
237.2827,364.6
237.4348,456.7
237.5293,351
237.5757,186.1
237.5781,563.6
237.5789,505.9
237.6338,272.2
237.6426,290.6
237.7273,252.5
237.7664,523.8
237.9274,130
237.9467,494.1
238.0676,561.4
238.076,33.3
238.0783,17.9
238.0897,114.5
238.1422,272.6
238.1473,349.5
238.1842,196.5
238.1997,488.5
238.3456,841.3
238.3607,458.1
238.3687,102.2
238.3909,665.8
238.5732,99.2
238.592,370.6
238.6281,233.3
238.6441,19.2
238.8422,4582.7
238.8506,326.6
238.8524,467.6
238.8537,376.1
238.8628,938
239.013,190
239.0315,166.8
239.0484,529.5
239.0637,164.7
239.0681,1203
239.0721,18.9
239.1386,198.3
239.2984,111.5
239.3764,366.6
239.5054,199.5
239.5573,631.7
239.853,545.4
239.8748,329.4
240.0311,1207.8
240.0436,135.5
240.0557,489.2
240.1001,1397.1
240.2444,19.3
240.3346,145.5
240.3446,91.9
240.6137,400.3
240.6243,417
240.8169,145.7
240.8389,2536.5
240.955,1547.3
240.9674,1928.2
241.0787,579.9
241.2877,356.5
241.2967,493.6
241.462,442.9
241.4813,326.3
241.6098,315.6
241.7035,102.6
241.8138,591.8
241.9476,338.4
241.98,60.6
241.9841,18
241.9917,195.2
241.9985,1159
242.0195,2262.8
242.0502,580.9
242.0562,213.8
242.1615,628.2
242.1752,261.9
242.1915,169.3
242.3567,132.2
242.4488,149
242.4937,198.9
242.5092,94.2
242.5186,19.5
242.5512,40.5
242.6571,90.3
242.6825,768.9
242.7379,573.5
242.8293,20.2
242.9131,615.1
242.9257,25870.8
242.9356,272
243.0066,56.1
243.0532,4427
243.0655,7492.6
243.1274,159.7
243.1683,23.4
243.2762,566.8
243.3115,212.3
243.4379,20
243.4588,258.9
243.5027,469.1
243.5224,130.2
243.53,113
243.5487,282.2
243.6722,208.4
243.7358,124.5
243.8108,554.4
243.862,117.1
243.9083,24.2
243.9728,240.1
243.9886,18.6
244.0127,311.4
244.029,362.9
244.0491,26.4
244.0678,364.4
244.0723,685.5
244.1749,283.7
244.3147,721.9
244.3766,18.3
244.5504,122.3
244.6312,95.2
244.6424,31.9
244.697,124.6
244.8709,11044
244.9102,113.4
244.9241,1779.2
244.9369,20.4
245.0128,253
245.1045,24.3
245.1356,204.8
245.1403,519.2
245.2927,17.5
245.3109,17.3
245.5325,166
245.5562,110.8
245.5797,284.8
245.6572,155.1
245.7315,27.4
245.8493,185.8
246.0015,295.2
246.0116,700.7
246.0586,99.3
246.2265,695.5
246.2858,304.5
246.3231,373.6
246.3503,325.4
246.5621,384.5
246.5912,512.7
246.6687,153.2
246.684,240.1
246.7103,140.1
246.7559,149.4
246.7708,242.3
246.7917,98.4
246.8569,19.4
246.868,1261
246.9126,21.1
246.9237,18.6
247.0369,1868.7
247.0667,1174.8
247.0852,121.5
247.0928,5711.8
247.1012,191.9
247.1648,160.7
247.2498,18.5
247.3681,731.3
247.3857,17.3
247.4433,582.3
247.4563,915.6
247.5202,576.4
247.7306,104.8
247.8934,130.1
247.9354,346.9
247.9482,661.6
248.0053,16.7
248.0889,227.4
248.0963,96.1
248.1244,8059.4
248.1434,284.7
248.1699,21.8
248.1847,331.7
248.2128,148.3
248.2977,133.9
248.3425,195.8
248.363,470.4
248.4157,124.3
248.4581,454.1
248.6305,138.9
248.6811,380.8
248.7462,130.2
248.871,11938.1
248.9596,681.5
248.9886,199.8
248.9988,754.1
249.0158,393.9
249.0613,11909.9
249.1383,138.9
249.2013,649.7
249.2176,438.1
249.334,310.5
249.3576,132.1
249.3681,196.1
249.4568,646.4
249.4712,121.2
249.7965,201.1
249.8071,1072.6
249.8341,89.5
249.9401,598.2
249.949,846.3
249.9641,21.4
250.0079,190.2
250.037,124.7
250.0649,374.3
250.1259,339
250.2537,23.8
250.26,139.9
250.4584,376.1
250.4967,19.4
250.5425,338.1
250.6454,247.8
250.7012,958.8
250.8635,202.1
250.8679,2058.6
250.8851,159.3
250.9206,2444.6
250.9553,681.4
251.0008,133.7
251.0042,105.6
251.0347,513.2
251.0818,87.7
251.1168,20.2
251.1974,104.6
251.259,299.6
251.3548,96.3
251.3917,426.5
251.433,91.3
251.4379,21.3
251.485,153.7
251.5896,115.8
251.6077,473.6
251.6891,331.9
251.7165,145.5
251.8115,156.9
252.0219,571.3
252.0367,230.1
252.0458,100169
252.0999,165.9
252.1135,128.4
252.1702,148.4
252.1883,17.2
252.2373,20.1
252.4585,287.3
252.6486,427.2
252.7047,88.1
252.72,227.1
252.7217,510.3
252.7838,383
252.8261,670.4
252.9176,2903.4
252.9311,705.1
252.9979,64.1
253.0039,640.7
253.0101,24.8
253.0493,4269.8
253.2589,730.6
253.2819,208.5
253.3096,147.9
253.4407,281.5
253.6681,308.4
253.829,302.6
253.8694,19.9
253.9172,134.7
254.044,1052.4
254.0522,18.3
254.0927,301.9
254.1506,249.6
254.1725,201.7
254.197,23.8
254.2235,128
254.2823,16.5
254.3071,186.2
254.3817,154.5
254.4503,287
254.65,405
254.7484,126.8
254.816,1488.8
254.8241,9060.7
254.8428,115.6
254.8998,853.9
254.9703,17.1
255.0331,25388.6
255.038,331.9
255.0465,377.7
255.0638,578.4
255.0758,21.8
255.1223,542.7
255.1634,616.6
255.2693,28
255.4809,557
255.4917,382.1
255.59,123.2
255.7272,695.8
255.8072,133.2
255.8562,202.5
255.9408,112.6
255.9783,2825.3
255.9913,17
256.0212,306.4
256.0328,283
256.058,400.2
256.0663,187.1
256.2401,570.3
256.4498,284
256.4746,429.5
256.504,545.1
256.5116,559
256.5986,32.9
256.6354,229
256.6825,22.7
256.7841,355.1
256.8212,14901.6
256.8459,20.8
256.8646,18.8
256.9288,646.4
256.9321,788.2
256.9748,17.7
257.0488,8013.6
257.0662,401.6
257.0747,58427
257.0976,798.3
257.1288,255.7
257.1764,156.4
257.1865,505.1
257.1964,311.6
257.2317,21.7
257.367,123.6
257.397,328.4
257.4105,18.7
257.4228,118.6
257.4743,173.5
257.5039,279.9
257.6318,465.2
257.7419,143.6
257.9105,171.7
257.9246,201
257.9262,197.7
257.9283,172.6
258.0221,18.6
258.0305,34
258.0536,28.8
258.0782,3308.4
258.1104,25249.6
258.1575,127
258.2671,623.7
258.3453,574.5
258.45,19.8
258.6907,108.6
258.7239,113.9
258.7771,240.6
258.8182,4356.9
258.8998,4000.7
258.9485,112
259.2436,874.4
259.3904,241
259.5128,191.2
259.5279,490.2
259.5501,556.1
259.6095,433.4
259.639,778.2
259.747,403.2
259.8155,230.8
259.9142,17.9
259.9365,212.8
260.0171,45
260.0364,234.4
260.1438,407.8
260.2367,26.2
260.2449,122.4
260.3172,190.3
260.447,578.9
260.4818,655.9
260.4882,302.7
260.6072,184.2
260.7051,176.1
260.7876,803.8
260.7916,124
260.8159,363.6
260.8448,2585.7
260.9492,12057
260.9719,109.8
261.0032,26.9
261.0462,104.3
261.2078,266.5
261.3686,624
261.4891,219.9
261.704,487.5
261.8091,193.8
261.9237,679.6
261.9356,102.3
262.082,3037.4
262.1111,120.1
262.1594,173.3
262.2432,290.7
262.253,30.1
262.3869,366.2
262.4315,510.6
262.4513,328.3
262.4576,528.1
262.4959,423.6
262.5726,520.9
262.6353,126.7
262.6825,18
262.6898,333.8
262.7349,307.3
262.7389,27.9
262.842,496
262.8879,552.5
262.9464,2333.5
262.9863,141.1
263.0851,2382.4
263.2504,338.3
263.2662,258.8
263.2865,475.6
263.3439,231.3
263.463,28.8
263.4689,331.4
263.5173,117.4
263.5224,21.8
263.527,97.3
263.539,266.7
263.6199,135.2
263.7586,601.5
263.8125,89.4
263.8416,970.1
263.8603,95
263.9219,18.1
263.9815,234.9
264.0033,295.8
264.0538,17.5
264.1479,118.8
264.1763,18.2
264.2004,472.4
264.2054,316.5
264.2692,59.6
264.309,598.9
264.3514,353.8
264.3592,557.3
264.4634,227
264.5191,917
264.5635,919.3
264.575,199
264.6657,364
264.6991,605.6
264.8449,869.7
264.853,7725.6
264.9732,1086
264.9912,947.4
265.0165,355.2
265.0354,4923.4
265.0474,3461
265.111,194.3
265.1379,119
265.1442,311.3
265.1917,608.5
265.1958,99.3
265.3272,959
265.3801,254.4
265.4074,148
265.4128,545
265.4726,91.4
265.5003,117.1
265.545,593.9
265.6498,119.8
265.6686,287.9
265.689,779.9
265.7511,946.3
265.9647,331
266.1492,161.2
266.2877,398.1
266.3354,469.8
266.4495,360.4
266.6518,126.9
266.659,186.4
266.738,295.6
266.809,742.6
266.85,6361.9
266.8944,2068.7
266.9264,480.8
266.9308,235.2
267.0016,23.5
267.0132,169
267.0378,136.7
267.0544,166.7
267.0911,117
267.1635,512.5
267.2446,121.7
267.2537,163.3
267.3088,19.9
267.3324,215.8
267.336,200.2
267.3445,172.8
267.4183,112.1
267.4397,787.6
267.5864,208.9
267.6474,1141.2
267.743,610.7
267.8087,121
268.0256,145.1
268.0321,180.8
268.1087,103.9
268.1324,155.3
268.1579,19
268.3615,118
268.4831,320.7
268.5348,153.2
268.6895,207.5
268.7306,884.9
268.8472,1310.5
268.8917,874.4
268.897,18.4
268.9647,96.9
268.9728,100.1
269.0063,109.1
269.0121,59.4
269.0294,17
269.0353,20
269.0449,16601.1
269.0488,34723
269.0572,200.5
269.1613,123
269.2475,22.1
269.2637,19.8
269.4182,301.4
269.5487,170.3
269.7877,265.6
269.8071,111.4
269.9225,644.6
269.9584,116.7
269.9662,186.6
269.9888,588.1
269.9941,2293.2
270.025,929.2
270.0475,25575.3
270.0628,228
270.1456,1177.5
270.1977,206.1
270.4403,20.7
270.527,838.8
270.5412,338.7
270.6867,119.2
270.7981,4526
270.873,718.7
270.924,22.8
270.9781,21783.1
271.0126,102
271.0247,790.3
271.0515,791
271.0647,294.1
271.0779,656.1
271.0902,272.9
271.1325,967.6
271.1499,175.1
271.2004,178.4
271.2405,301.4
271.5141,353.8
271.7209,208.7
271.7596,102
271.8744,137.5
272.0148,342.2
272.0434,159.2
272.048,38.2
272.0527,118.4
272.0805,337.7
272.0897,19.2
272.0987,19.5
272.1536,125.9
272.1905,321.7
272.1994,271.3
272.2431,245.3
272.2858,524.2
272.3531,320.7
272.3701,23.3
272.4566,19.2
272.5346,412.3
272.5689,157.5
272.6032,415.1
272.6757,159.1
272.6868,772.8
272.6929,291.6
272.7602,118.7
272.7952,5204
272.854,97.5
272.8831,139.7
272.9187,18.8
273.0487,4074
273.1319,789.5
273.2595,228.9
273.2811,105.6
273.2938,162.8
273.3306,172.5
273.5796,835.9
273.592,134.3
273.6302,411.8
273.6678,312.3
273.6971,454.5
273.7246,21.2
273.731,301.8
273.8058,131.1
273.9625,396
273.9744,23.7
273.9931,837.2
274.061,208.4
274.0692,263.2
274.0923,2037.5
274.141,582.5
274.1609,162.3
274.1785,158.2
274.6403,331.3
274.6503,359.7
274.6664,196
274.7474,88.9
274.7923,1797.6
274.8818,1185.1
274.9651,1411.6
275.0289,401
275.1294,338.2
275.1678,94.1
275.2847,158.4
275.3398,478.8
275.3564,132.5
275.3629,18.8
275.3789,20.3
275.4277,394.2
275.4729,18.9
275.5072,22.5
275.574,133.2
275.6566,18.3
275.7537,21.3
275.7683,299.6
275.8112,22.7
275.9068,474.4
275.9709,294.4
276.0035,41.1
276.0647,21.5
276.085,125.5
276.2039,198.5
276.3062,282.1
276.5127,865
276.8721,345.5
276.9233,9981.8
276.9754,522.3
277.3149,276.1
277.3519,286.2
277.3706,18.3
277.3924,502.7
277.4091,909.5
277.5452,284.7
277.5781,109.4
277.6303,186.9
277.6843,166.4
277.8179,312
277.9785,477.2
278.009,415.8
278.0195,685.4
278.2756,343.5
278.2872,30.8
278.5396,320.1
278.6336,781.5
278.8935,2361.6
278.9157,21.3
278.9204,1619.2
278.9877,440.5
279.0223,21.9
279.0408,494.9
279.0567,33275.8
279.0637,402.7
279.0841,1826.2
279.2687,123.6
279.37,203.8
279.3836,174.9
279.4396,187.4
279.5104,177.4
279.565,845.9
279.5864,593.8
279.625,943.8
279.8081,119.5
279.8274,143
279.8549,227.9
279.8615,403
279.9242,532.3
279.9384,28.2
279.9783,416.9
279.9894,155
280.016,160.3
280.0428,117.1
280.0601,1205.4
280.086,165
280.0919,1001
280.2247,119.9
280.2496,395.9
280.3166,333.4
280.4038,330.3
280.4997,539.8
280.5055,862.4
280.5216,86.4
280.6379,382
280.6483,108.3
280.7005,657.2
280.7153,123.5
280.7444,159.9
280.8002,133
280.8268,3105.4
280.8372,342.3
280.9411,136.6
281.0098,2344.8
281.0213,22.1
281.052,321.3
281.2807,22.3
281.3475,535.9
281.6023,315.6
281.663,979.6
281.8228,421.4
281.8322,82.6
281.895,602.4
281.9051,112.1
281.9423,617.8
282.0151,120.6
282.0649,485.9
282.2056,134.3
282.3394,214.7
282.3997,266.1
282.499,105.3
282.5393,467.1
282.6053,20
282.6703,92.4
282.717,120.6
282.7382,263.4
282.8027,22.4
282.8241,2384.5
282.8355,345.5
282.9095,315.4
282.9676,18.1
283.0281,1153
283.2537,261.3
283.2634,76.8
283.331,168.6
283.3905,255
283.4121,487.5
283.4327,335.5
283.4743,348.1
283.8018,21.5
283.8875,199
284.0166,615.2
284.0481,462.2
284.0633,157
284.487,100.8
284.6268,282.6
284.6404,219.4
284.6922,124.6
284.7091,290.4
284.8292,267.6
284.8655,595.3
284.888,592.5
284.902,579
285.0399,34.8
285.4245,582.5
285.4464,607.4
285.6277,104
285.7461,196.1
285.7562,115.5
285.8567,182.5
285.9676,737.9
285.981,461.6
285.993,375
286.0199,348.2
286.0961,68.8
286.1214,390.1
286.2019,19.4
286.304,167
286.3249,855.5
286.348,156.9
286.4527,132.1
286.4914,104.6
286.5427,294.9
286.5978,261
286.7723,1333.4
286.7826,240.2
286.811,809.7
286.8646,18.5
286.8707,753.2
286.8825,384.6
286.9521,8755.4
286.9982,108.4
287.0554,29578.8
287.1324,131.1
287.2725,376
287.4503,293.3
287.4825,31.1
287.6272,120.6
287.6397,104.7
287.7587,101.6
287.9028,351.5
287.9553,17.7
287.9969,446.8
288.0053,104
288.0295,297.1
288.0585,1390.5
288.0853,112.9
288.1558,31227.9
288.2193,276.6
288.2372,165.5
288.2979,184.5
288.3663,29.7
288.4581,616.7
288.4835,685.2
288.544,744.8
288.5681,19
288.6466,299
288.6955,128.8
288.7032,243.3
288.769,2104.1
288.8106,210.4
288.8378,167.6
288.8578,170.3
288.8708,1925.2
288.8779,1851.4
288.8908,4413.7
288.8968,6357.5
288.9051,9607.8
288.9098,7039.1
288.917,10712.4
288.9225,14702.6
288.9316,15690
288.9368,14445.6
288.9415,15528.2
288.9455,17551.9
288.9504,18933.1
288.956,13952.6
288.9608,17788.5
288.9664,18227.8
288.9687,17552.8
288.9749,15670.1
288.9786,14033.8
288.9837,11810.5
288.9875,9584.8
288.9976,7274.4
289.0032,6289.3
289.0156,540.4
289.0405,588.5
289.0891,192.8
289.0976,615.5
289.1594,1501.9
289.1863,838.9
289.3408,19.4
289.424,153
289.5113,197.3
289.5387,771.8
289.6475,248.2
289.6606,111.7
289.7072,171.2
289.7191,124
289.7926,215.9
289.7999,261.8
289.9924,348.9
290.0533,115.2
290.1002,24
290.2002,79.6
290.2197,107.3
290.4138,448.8
290.5972,103.7
290.5989,114.8
290.6007,85.4
290.6993,17.9
290.7665,1947.9
290.8165,97.8
290.8426,272.6
290.9391,1116.8
290.9949,1049.8
291.0266,818.6
291.0474,301
291.118,19.2
291.1224,17.7
291.1647,443
291.1913,295.2
291.222,202.1
291.3254,300.9
291.4186,162.8
291.4271,732.3
291.5729,203.2
291.7981,177.7
291.8253,391.3
291.8669,26.8
291.9431,255.4
291.9836,363.9
292.0633,137.3
292.0799,176.1
292.1078,598
292.1813,370.2
292.1883,20.8
292.3799,166.9
292.4468,105
292.5612,33.7
292.7228,172.2
292.845,29.1
292.8675,243.9
292.8973,2637.4
292.904,633.2
292.9299,429.2
293.0356,545.5
293.0721,2136.2
293.0984,347813
293.1058,127
293.1203,20.9
293.1792,6386.5
293.2147,348.4
293.4981,406.8
293.5446,235
293.611,204.4
293.6261,482.6
293.6853,261.9
293.7288,265.8
293.8456,501.5
293.8483,509.1
293.95,623.9
293.9629,413.2
294.035,200.6
294.0954,828.9
294.1017,30831.2
294.1823,747.4
294.2479,20.8
294.2561,20.3
294.2714,280.4
294.3668,189
294.3733,205.4
294.4469,236.4
294.4832,21.5
294.542,230.4
294.5678,27.6
294.6148,151.3
294.7601,602.2
294.9565,151
294.9907,674.7
295.0309,2044.4
295.0581,1870.7
295.1024,3111.2
295.1113,188.8
295.1949,37137.9
295.2233,172
295.2335,114.3
295.3209,239.7
295.5616,530.5
295.5702,221.2
295.6019,509.6
295.732,119.2
295.7541,119.3
295.818,878.1
295.8443,264
296.0665,372.9
296.1582,461.5
296.1982,4806.5
296.2379,134.5
296.2796,316.2
296.318,165.2
296.3486,113.8
296.5059,209
296.5556,28.9
296.7715,787.3
296.801,528.5
296.9479,697.5
296.9787,124.8
296.9877,355.2
297.0072,32.5
297.1598,107
297.1887,162.9
297.2148,117.7
297.2622,448.1
297.3583,545.5
297.4572,362.3
297.4908,187.8
297.7487,101.8
297.8941,862.9
297.9671,32.9
298.0256,2137.3
298.0425,14959.2
298.2828,278.9
298.4024,120.7
298.4879,145.8
298.5175,795.8
298.6037,167.7
298.7101,317.8
298.841,622.4
298.888,93.3
298.9053,269.8
298.9221,342.8
298.9865,217.9
299.0231,1311.3
299.0305,482.8
299.0459,659.9
299.0842,185.8
299.1059,24.1
299.1253,181.5
299.1394,1877.1
299.1961,1949.8
299.2353,135.3
299.3992,86.5
299.5105,766.3
299.6152,460.7
299.7378,525.7
299.7544,24.4
299.7839,23.3
299.8412,107.9
299.9716,267.3
300.0054,576.2
300.0384,177.2
300.0616,527.3
300.0756,534.7
300.1336,307.1
300.1487,122.3
300.1966,46.9
300.2969,280.6
300.3057,427.7
300.4892,164.4
300.514,515.6
300.6677,305.9
300.7089,106.7
300.7909,131.5
300.8026,22.7
300.8471,469.7
300.9434,932.2
300.9958,188.6
301.0263,422.1
301.0388,18998.8
301.0746,389.8
301.0791,32.7
301.1013,379.9
301.1415,255.3
301.1703,19.3
301.2117,6483.4
301.2293,330.1
301.2748,174.6
301.2904,43.2
301.353,159.5
301.3923,349.5
301.5258,28.6
301.6544,398.9
301.6739,96.3
301.6924,192.8
301.7583,95.8
301.7791,203.8
301.8448,504.3
301.9705,84.4
302.02,131.4
302.0356,55.2
302.0434,458
302.0642,5728.9
302.0739,39
302.1458,21.8
302.1645,26.3
302.2142,633.7
302.4615,529.3
302.5705,110.3
302.6711,826.3
302.7477,309.2
302.7648,158.3
302.77,165
302.8296,6399.7
302.9266,742
302.9338,195.3
302.9677,133
303.0546,397.4
303.0676,507.9
303.093,285
303.1077,114.7
303.1307,134.3
303.1478,318.9
303.2173,5180.9
303.2794,337.6
303.3441,540.5
303.4211,21.3
303.4261,234.7
303.5243,19.5
303.6087,196.2
303.6291,116.6
303.672,217.1
303.6893,280.6
303.7814,19.9
303.8331,20.3
303.968,173.7
303.9925,19.9
304.0599,165.4
304.2773,193
304.4697,99
304.479,20.2
304.6569,163.4
304.74,276.5
304.75,238.5
304.7954,426.8
304.8269,2923.2
304.8379,205
304.8774,187.9
304.8959,951.8
304.954,303.8
304.9756,1992.8
305.001,295.7
305.0373,421.4
305.1077,170.5
305.1977,312.5
305.2333,1571.7
305.5027,487.8
305.518,599.5
305.5248,95.2
305.7217,182.5
305.7975,20.5
305.8841,19.8
306.0036,144.2
306.0244,24.5
306.0731,434
306.0955,91.2
306.1396,370
306.1481,274.8
306.313,255.4
306.3192,288.3
306.404,118.5
306.4778,108.9
306.5338,628.2
306.5636,1106
306.6884,564.5
306.7131,526.7
306.8799,626.8
306.9087,21.5
306.9251,608.1
306.9435,544.5
306.9661,134.7
306.9772,4044.3
306.9966,954.9
307.0535,2525.9
307.0948,103.7
307.1051,144.2
307.163,203.5
307.236,480.1
307.3263,48.2
307.3875,166.8
307.4333,112.7
307.5016,308.5
307.5266,116.2
307.6495,104.9
307.6536,659.3
307.7078,172
307.8769,135.3
307.9591,298.6
307.9963,633.6
308.0267,436.1
308.1275,462.4
308.1432,842.7
308.1779,227.9
308.2433,451.9
308.6524,544.4
308.7315,114.7
308.7631,793.5
308.7731,193
308.8794,5080.4
308.8933,112.5
308.9553,315.1
309.0066,458.3
309.0379,3374.4
309.0827,728.6
309.0962,495.2
309.2677,484
309.4732,621.2
309.7993,20.3
309.955,19
310.1857,16.8
310.224,222.3
310.2312,505.7
310.2383,19.9
310.325,356
310.348,118.5
310.3668,20.3
310.3818,381.1
310.4584,104.5
310.4817,444.1
310.5585,169
310.7221,312.4
310.7387,89.9
310.8025,30.7
310.8762,5434.7
310.9436,245.2
311.0032,718
311.0086,196.2
311.149,775.4
311.2302,374.2
311.2989,500.5
311.4471,355.2
311.4774,186.4
311.5405,19.3
311.6215,450.5
311.7662,387.2
311.7884,491.2
311.8739,355.9
311.908,172.5
311.9554,196.7
312.0413,846.5
312.0508,127.8
312.325,244.2
312.6178,274.3
312.651,213.4
312.6634,395.3
312.7677,346.3
312.8141,23
312.8734,604.1
312.8982,398.3
312.9302,540.1
312.9607,597.2
313.002,99.8
313.0222,16.9
313.0369,716
313.044,101.6
313.1444,92.5
313.2407,18.8
313.2742,66932.5
313.5448,27.6
313.6183,226.4
313.8393,157.5
313.8848,105.2
313.9591,112.6
314.0001,712.6
314.0149,331.3
314.0528,103
314.0913,181.5
314.1196,150.8
314.1286,170.6
314.2775,9247.1
314.404,228.5
314.4661,310.4
314.5428,100.7
314.7158,275.5
314.7809,537.3
314.794,192.7
314.8371,3638.9
314.9014,185.2
314.9992,5538.2
315.0186,54.9
315.043,263.7
315.0492,742.8
315.0554,7394.5
315.0598,2439.4
315.0618,4519.8
315.0669,17702.2
315.0697,24089.1
315.0734,17879.2
315.0803,6272346.5
315.0865,19744.8
315.0944,5385.4
315.0963,4072
315.0981,2558.5
315.1007,2600.6
315.1026,2369.7
315.1048,1668.6
315.107,1900.1
315.1088,1628.7
315.1133,630.6
315.1154,520.2
315.1615,4722.8
315.2595,270.8
315.2816,612.6
315.3238,4458.5
315.4086,82
315.4602,294.2
315.4863,442.5
315.6117,805.8
315.6181,330.9
315.6424,374.2
315.7124,101.8
315.8059,178.6
315.8246,28.7
315.9282,130.6
315.9755,102.8
316.0533,75.3
316.0693,929.8
316.0775,34002.9
316.0836,644831.4
316.1123,870.6
316.1431,20.1
316.1662,772.1
316.181,127.8
316.3296,118.3
316.4997,22.3
316.6058,985.7
316.7098,401
316.8177,351.8
316.8304,240.2
316.9099,335.2
316.9222,150
316.987,2748.2
316.9981,149.1
317.0326,121.5
317.0462,389.3
317.0564,67.8
317.0653,3002.8
317.0841,75440.8
317.1522,21.1
317.1792,486.1
317.2155,169.2
317.2819,25.4
317.2954,110.8
317.4241,260.6
317.4401,21.5
317.4899,450.7
317.5362,19.6
317.6539,112.6
317.6614,499.5
317.742,148.3
317.8715,26.8
317.9211,122.8
317.9335,863.4
318.0877,7064.7
318.37,266.1
318.5084,271.5
318.5157,507.5
318.7701,473.4
318.7842,213.6
318.7899,337.5
318.8036,2898.6
318.8465,113.4
318.9701,17.8
319.1949,69687.7
319.2023,735.7
319.3975,283.6
319.4643,330.7
319.6132,308.1
319.6607,90.2
319.7709,328.3
319.7779,114.8
319.8046,736
319.8884,251.2
320.0748,155.9
320.0899,27.5
320.1058,17.6
320.1983,9802.5
320.2248,175.8
320.2588,1981.2
320.2669,358.7
320.41,494.3
320.4159,265.5
320.4624,20.5
320.5571,95.9
320.7506,395
320.8004,741.9
320.9051,407.6
320.9491,594.2
320.9543,498.8
320.9808,507.1
321.1215,427.4
321.1417,201.8
321.1721,221.9
321.1903,137.6
321.2105,69992.5
321.2548,132.2
321.262,78.6
321.3318,186.2
321.4803,417.8
321.5506,846.3
321.575,216.4
321.6233,163.9
321.6455,853.8
321.6878,33.4
321.7789,403.6
321.7899,641.3
321.8096,24.1
321.836,19
321.9234,130.7
322.0002,279.8
322.0091,191.5
322.0254,316.2
322.0885,185.5
322.177,519.6
322.2139,12674.8
322.2444,125.1
322.2777,91.1
322.5127,651.1
322.7255,156.4
322.7355,247.2
322.8115,508.1
322.8303,801.6
322.9089,259.3
322.9322,356.1
323.0207,9926.7
323.0481,2409.5
323.0861,257.6
323.1597,132.7
323.2262,5928.9
323.31,208.3
323.3628,190.8
323.4195,202.9
323.4935,314.7
323.5211,188.1
323.5548,546.1
323.6339,180.5
323.6716,238.9
323.8157,200.8
323.8459,114
323.8514,19.7
323.8641,112.2
324.0045,163.9
324.1812,587.1
324.3013,173.3
324.3609,333.8
324.3914,25.5
324.4986,157.2
324.5629,1670.9
324.5728,7094.9
324.5903,774.8
324.5967,357.9
324.6345,224.9
324.648,566.9
324.6543,444.5
324.6978,18.3
324.7557,99.5
324.797,125.2
324.8092,1079.4
324.8532,2117.5
325.0025,1816.4
325.0703,155.7
325.0892,114.1
325.1126,248.9
325.1268,567.6
325.1645,209.8
325.2032,780.5
325.2118,15044.5
325.2835,131.9
325.3557,161.8
325.4404,462.6
325.4481,100.1
325.4632,387.9
325.5078,278
325.5708,561.1
325.6087,172.7
325.6267,590.1
325.7694,323
325.7766,331
326.0818,620.4
326.2155,593.7
326.3957,19.2
326.594,155.7
326.739,125.4
326.8502,2432
326.9047,121.8
326.9296,115.7
327.0157,5733.5
327.0522,2172.7
327.2275,17308.1
327.2796,22.9
327.2995,100.2
327.4176,672.6
327.4974,26.4
327.6943,551.1
327.7347,194.9
327.8153,473.3
327.8313,146.1
328.0631,120.1
328.2,20.2
328.4215,459.6
328.4362,121.3
328.4461,527.2
328.6487,363.7
328.7648,289.1
328.8321,495
328.8702,100.2
329.0779,272.4
329.0958,2124
329.1997,124.9
329.232,96.5
329.2828,98.6
329.2942,28.9
329.5096,251.5
329.5279,378.9
329.5682,820.7
329.6136,540
329.7221,123
329.9315,310.2
329.9777,92.5
330.0264,399.4
330.0591,129.5
330.1928,147.6
330.2319,387
330.2553,17.5
330.7487,166.2
330.7546,296.2
330.8434,212.5
330.9784,660.8
330.9878,22.8
331.0197,2175.6
331.0372,132
331.0455,110201.9
331.0542,829803.8
331.1653,150.1
331.1905,130.7
331.2746,470.3
331.3269,312.8
331.4902,835.3
331.5185,394.4
331.6859,310.2
332.0482,7813
332.0576,73265.4
332.1307,453.7
332.1588,715
332.1733,249.9
332.2865,128.3
332.3205,340.6
332.4441,307
332.4876,171.3
332.6275,25.5
332.9603,1194.4
333.0434,755.2
333.0524,49603.6
333.0579,7021.5
333.3668,20
333.4393,170.9
333.6378,294.3
333.6956,17.6
333.7368,634.8
333.7654,19.3
333.811,172.8
333.9946,147.1
334.0557,3836
334.0909,58.1
334.1595,21.3
334.3875,309.2
334.4394,23.3
334.5487,311.8
334.7129,520.6
334.8135,171.5
334.8885,379.9
334.8971,400.3
335.0208,395.8
335.0276,454.4
335.0384,775.8
335.184,27.2
335.2298,231.6
335.2406,19.1
335.3014,18.2
335.3306,365.7
335.494,176.5
335.511,18.5
335.7385,137.5
335.7561,174.2
336.0657,22.2
336.116,281.1
336.1957,185.2
336.2087,184
336.3026,177.2
336.3301,142.7
336.3677,250.4
336.6023,181.2
336.687,765.3
336.7083,231.8
336.7853,18.8
336.8262,185.9
336.9747,25.4
336.9884,475.9
336.9997,432.8
337.0365,10131.6
337.0498,20030.9
337.0623,549285.9
337.0846,148.3
337.1339,400.5
337.1472,140.2
337.1708,19.3
337.2522,122.6
337.2605,304.1
337.2745,6025.3
337.3926,533.7
337.4288,509.9
337.4559,349.9
337.7431,414.4
337.7549,236.5
337.7987,315.3
337.966,398.3
338.0502,211.9
338.0656,52759.9
338.1665,170.7
338.342,46.2
338.3924,18.1
338.4094,515.5
338.4934,118.8
338.6003,627.5
338.7857,1048.8
338.8805,129.6
338.9214,968.4
338.9455,263.6
339.0222,451.7
339.0384,1492.6
339.0472,1045.1
339.0661,4660.2
339.1923,22.8
339.2899,6614.9
339.3276,371
339.4933,302.7
339.6049,20.1
339.6334,287.2
339.6417,200.4
339.6684,18.4
339.8454,172.6
339.9787,250.1
340.2947,533.7
340.3869,941.7
340.5989,481.9
340.6652,324.6
340.7597,854.8
340.7773,265.5
340.7828,521.8
340.7991,539.5
340.8277,341.2
340.95,530.6
340.9847,440.7
341.0182,72.1
341.3055,11442.3
341.3503,334.7
341.4245,167.2
341.5234,174.2
341.6766,109.4
341.6984,449.4
341.9139,172.1
341.9856,132
342.0161,42.2
342.2401,386.5
342.3099,934.2
342.4278,250.3
342.5031,20.1
342.5218,150.9
342.6805,572.2
342.7797,997.1
342.7867,627.8
342.8218,345.9
342.9897,1752.6
342.9969,102.7
343.1269,124.4
343.195,23748.9
343.2013,809.3
343.2177,901.2
343.3313,208.7
343.3599,117.2
343.3697,119.2
343.5878,19.7
344.0405,821.2
344.0464,176.5
344.1778,188.1
344.198,2312.1
344.2438,285
344.3672,18
344.3928,134.4
344.4068,18.7
344.6033,901.3
344.7037,168.5
344.8137,1067.2
345.0934,123.9
345.1374,23.6
345.1517,166
345.1599,216.4
345.1814,175.8
345.1892,801.8
345.2104,5488.8
345.2383,22
345.3684,342.5
345.5018,117.6
345.6425,266
345.6517,714.3
345.8048,172.7
345.9839,1018.4
346.0098,73.8
346.0383,551.9
346.1683,812.6
346.2053,133.3
346.2429,21
346.7968,345.3
347.0761,122.7
347.0812,608
347.0972,817.3
347.2071,632.6
347.7246,224.9
347.7378,466.2
347.8525,25.2
348.1087,113.7
348.3898,342.9
348.4239,539.9
348.7059,423.6
348.7319,19.9
348.8285,728.1
348.9345,320.6
349.1064,92.7
349.3117,177.1
349.4336,104.2
349.5292,122.8
349.6106,191.1
349.941,24
350.0138,30.3
350.2156,309.6
350.3089,132.3
350.5224,261.9
350.5288,120.9
350.6058,606.6
350.7691,308.7
350.899,403.3
350.9237,273.1
350.9451,282.3
351.5257,376.3
351.5884,193.8
351.7216,157.2
351.7414,161.8
351.8271,157.9
352.1879,178.7
352.8132,289.5
352.8979,1737.4
352.9741,111.2
353.0273,115427.7
353.0362,168497.4
353.0942,304.8
353.5686,592.1
353.6018,120.7
353.6283,744.6
353.8242,207.7
353.9277,284.5
353.9487,247.6
354.0305,7729.5
354.0396,15358.7
354.5844,124.3
354.691,183.9
355.012,2360.8
355.0217,122.1
355.0344,9984.3
355.0705,446.3
355.0959,313.8
355.1285,21
355.1857,120.2
355.6761,633.8
355.6903,259.9
355.7033,245.7
355.8348,175.5
355.8454,120.7
356.0153,124.9
356.0418,606.5
356.0701,84
356.2677,462.6
356.3442,143.2
356.3556,318.8
356.3849,19.3
356.4013,440.3
356.4402,21.2
356.5113,243.8
356.7853,19.6
357.0088,973.1
357.0204,633
357.1378,496.1
357.1464,97.8
357.1585,522.5
357.4439,120.4
357.5699,212.9
357.6233,480.5
357.6655,640.7
357.9447,161
357.979,143.4
358.0095,81.5
358.0337,357.5
358.1995,490.4
358.267,635.1
358.343,94.3
358.7327,151.2
358.785,115.4
358.9579,101.6
358.9659,17.2
359.0078,677.5
359.0317,13721.7
359.0442,313341.7
359.1267,153.3
359.232,100.1
359.2814,115.2
359.4082,120.9
359.468,426.5
359.5411,19.1
359.5569,22.2
359.5692,360.4
359.5911,1420.7
359.5962,1085.8
359.599,1205.9
359.6027,680.7
359.6206,223.3
359.6312,1608
359.6426,328.6
359.6578,164.7
359.67,231.5
359.6765,416.9
359.6808,427.6
359.6904,762
359.7297,760.5
359.7493,555.2
359.7762,625.2
359.7947,375.1
359.9186,695.5
360.0112,29.8
360.0333,226.4
360.0476,27172.2
360.1103,253.4
360.1839,141.2
360.2469,262.2
360.2754,20.6
360.3243,9838.7
360.3341,643.8
360.3427,174.8
360.5533,116.7
360.6427,198.2
360.7075,154.3
360.873,29.4
360.9327,305.7
361.0203,4845.8
361.029,695.3
361.0486,873.2
361.0956,623.1
361.2746,919
361.3288,594.1
361.3667,154.6
361.3941,371.6
361.4937,558.9
361.7142,619.1
361.8715,488.9
361.915,284.1
361.959,344.2
361.9901,875.5
362.0105,790.3
362.202,254
362.2243,111.2
362.2596,566.8
362.3503,827.1
362.4885,29.3
362.8369,546.3
362.9273,2251.3
363.1349,317.1
363.1847,394
363.9068,535.9
364.0625,363.9
364.0812,30
364.1271,803.2
364.1582,541.1
364.2817,140.4
364.3569,341.7
364.4663,110.1
364.52,19.1
364.5546,106.2
364.6585,231
364.7799,263.9
364.8031,208.8
364.902,847.9
364.9155,356
365.0563,480.7
365.5599,115
365.6547,535.1
365.8739,306.4
365.9635,111.4
365.9876,20.6
366.0588,850.1
366.0684,320
366.1977,243.8
366.3754,659.6
366.4181,338.4
366.4641,866.3
366.4801,189.2
366.7401,23.8
366.7714,190.8
366.914,183.9
367.1214,1607.3
367.1668,137
367.1949,9820.5
367.4109,535.1
367.4411,289.5
367.5916,134.8
367.5951,172
367.6314,20.1
367.742,171.1
367.9914,21.5
368.1528,120.3
368.3404,31
368.4727,413.6
368.9069,392.2
368.9726,342.9
368.9924,777.7
369.0013,12772.3
369.0102,4400.9
369.0788,171.7
369.2767,312.6
369.3736,118
369.536,120.6
369.9785,231.5
370.0053,101.6
370.012,476.2
370.0537,315.5
370.0584,608.3
370.2582,787.4
370.461,527.6
370.4857,138
370.5838,262.4
370.6331,176
370.6878,168.5
371.0419,1306
371.1023,25.9
371.1817,172.2
371.2344,587.4
371.2653,1965.8
371.331,23.8
371.4868,167.2
371.5002,20.6
371.7427,124.1
371.8602,325.7
371.9321,112.6
372.067,3049.7
372.1046,588.4
372.3047,118.8
372.5421,206.7
372.6413,204.2
372.7053,311.8
372.8021,217.8
372.8288,233
372.9956,118.6
373.0422,109
373.324,28.5
373.7452,236.5
373.8109,124.4
373.9964,479.8
374.0442,311.4
374.4947,194.8
374.736,900.3
374.8811,212.3
375.0093,110336.2
375.0182,85944.4
375.1559,138.7
375.2491,326.3
375.2588,155.2
375.2987,522.8
375.3455,527.2
375.7273,884
375.7978,98.6
376.0126,8610.2
376.0215,6464.4
376.298,2689
376.3508,109.9
376.4053,20.8
376.446,436.5
376.5586,18.7
376.6576,119.3
376.727,127.8
376.9939,787.4
377.0166,3330.7
377.1063,367.4
377.2526,641.6
377.2839,160.2
377.302,738.5
377.358,19.1
377.5946,468.6
377.6038,402.1
377.8283,111.7
377.8998,155.1
377.9337,350.7
378.0887,195.2
378.219,177.9
378.335,407.3
378.3737,494.8
378.4725,621.1
378.5111,111.5
378.6125,167.5
378.76,357.7
378.7778,112
378.8034,178.9
378.8455,250.3
378.9009,1209.1
378.9911,71.3
379.0717,301.8
379.1811,328.9
379.3161,499
379.6342,419.3
379.7572,157
380.0283,563.2
380.2823,184.2
380.395,22.3
380.4572,475.9
380.5185,616.7
380.5339,111.6
380.5645,193.7
380.5772,726.6
380.6712,16.8
380.7692,825
380.9879,364.1
381.0137,25520.9
381.0262,181035.2
381.1341,110.8
381.2342,320.3
381.2947,206.7
381.3364,228.4
381.35,348
381.5535,174.6
381.6068,274.2
381.7135,280.9
382.0142,646.7
382.0297,17077.2
382.1839,798.3
382.2481,251.3
382.3554,87.3
382.3991,19
382.4078,337
382.4979,180.7
382.6012,23.6
382.6033,24.6
382.6072,17.7
382.6705,488.4
382.7676,1682.1
382.7908,114.4
382.8021,269.7
382.8476,233.8
382.9375,393.8
383.016,100.5
383.1035,21.8
383.1166,164585.5
383.1647,140.4
383.4507,18.2
383.4804,673.4
383.6379,120.7
383.7718,23.4
383.9513,318.1
384.1198,21222.9
384.4317,114.4
384.5011,554.6
384.5094,145
384.7057,584.2
384.7646,669.1
384.7853,133.8
385.0724,191.5
385.1204,1189.1
385.1273,101.2
385.2749,38.4
385.3717,110.1
385.446,571.8
385.518,135
385.65,600.8
385.6623,197.8
385.6745,101.2
385.7136,481
385.7952,255.8
385.968,145
385.9713,150.8
386.3074,408.6
386.3097,410.9
386.397,177.2
386.474,123.6
386.6536,102.3
386.6649,255.8
387.0031,1893.1
387.0916,21.6
387.2059,346
387.4142,117.3
387.644,199.5
387.6545,500.6
388.0415,397.8
388.2082,555.8
388.3155,140.3
388.3897,106.5
388.402,304.1
388.473,518.7
388.6005,510.3
388.7125,824.2
388.7225,148.4
388.7655,186.8
388.9125,790.7
388.9203,116.6
388.9521,18
388.986,626.1
389.1505,193.1
389.2069,28.1
389.7913,406.7
389.9126,108
389.974,2116.6
389.9939,44.3
390.201,357.1
390.2665,406.3
390.41,286
390.5421,352.6
390.7102,767.1
390.7686,944.3
390.7988,1451.5
390.8371,871.6
390.8449,698.1
390.8585,23.2
390.8716,510.7
390.9219,164.1
390.9741,10302.8
390.9832,14270.7
390.992,8471.5
391.1907,440.1
391.2446,156.5
391.3,314.4
391.3498,578.7
391.3793,249.4
391.7196,164.6
391.978,190.9
392.0172,489.3
392.0288,163.8
392.0749,159.6
392.2321,600.8
392.7963,2297.3
392.818,18.8
392.9293,368.2
392.9599,74.7
392.9888,208.9
393.0207,164.1
393.0282,133.8
393.1116,455.2
393.2984,22.2
393.3488,87.4
393.5005,17
393.6198,871.4
394.3142,191
394.415,351.5
394.4307,795.9
394.6795,523.5
394.6895,316.5
394.7937,502.8
394.8082,341
394.8838,19
394.9584,23.7
395.0215,213.9
395.1104,331.9
395.1433,18.1
395.1565,240.7
395.2406,115.3
395.4502,493
395.4597,443.2
395.6646,645
395.7818,244
396.0052,87.4
396.2828,114.4
396.6472,763.1
396.7443,1762
396.8203,210.7
396.9913,171620.8
397.0001,50623.1
397.1279,17.9
397.9076,112.7
397.9304,168.5
397.9448,278.2
397.9702,302.6
397.9947,11447.6
398.0035,3081.8
398.17,298.7
398.242,9136.7
398.4335,78.9
398.7411,1536.3
398.7628,2079.2
398.9752,59.1
398.9987,1161.1
399.2343,336.7
399.2455,883.4
399.2553,133.1
399.6762,20.6
399.7586,415.7
399.8502,165.5
399.8571,381.7
399.9037,480.3
400.2662,92.8
400.4435,20.9
400.6188,362.6
400.738,799.3
400.7746,163.5
400.8278,792.6
400.8858,97.7
400.9773,651.7
400.9843,496.7
401.1886,108.8
401.4743,829.3
401.7233,186.8
401.7542,371.1
401.7978,132.5
402.0429,282.2
402.4571,115
402.5713,131.3
402.8254,1999.4
402.8972,322.4
402.97,207
403.0082,235639.5
403.0245,217.1
403.1941,19.7
403.3273,314.7
403.4011,304.4
403.4255,227.3
403.7923,20.8
403.9671,349.7
404.0115,20824.1
404.0614,20.5
404.3556,95.3
404.4907,19.4
404.6126,482.1
404.6394,179.8
405.0128,271.2
405.1893,154
405.4956,152.6
405.6057,90.4
405.621,20.7
405.9135,894.8
405.9485,134.6
406.255,143.1
406.2594,167.7
406.3297,1473.7
406.5885,315.2
406.6238,19.1
406.6858,430.2
406.7738,1126.3
406.7911,27.6
406.842,26.8
406.8785,160.1
406.9681,174.1
406.9982,686.6
407.3331,330.6
407.4533,96.7
407.5937,19.4
407.9429,334
408.206,438.7
408.2648,211.5
408.3435,17.7
408.4554,18.3
408.51,222.6
408.77,2071
408.8965,985.3
408.9656,359.9
409.2044,120.5
409.63,625.7
409.9906,177.2
410.0517,556.4
410.0735,22.8
410.1488,122.5
410.3288,269.5
410.6432,831.8
410.6933,372.9
410.7624,1176
410.8567,767.4
410.9698,163.3
411.0378,209.4
411.264,985.7
411.3108,343.8
411.417,296.8
411.5663,459.3
411.7418,578.2
411.8545,296.8
412.239,93.2
412.2571,120.9
412.2713,29.1
412.3214,1691.7
412.3821,332.9
412.5877,20.1
412.7222,115.8
412.7616,16.9
412.7787,708.7
412.8119,18.8
412.9652,21296.5
412.9741,7952.9
413.0833,18.9
413.1369,165.2
413.2117,125
413.2668,3427.3
413.2898,580.9
413.3204,328.6
413.362,837.1
413.7385,166
413.7526,220.8
413.7827,143
413.8291,20.5
413.9695,1129.2
414.0327,105.7
414.1517,301.9
414.2474,502.3
414.27,1053.5
414.3077,115.1
414.3323,182.6
414.416,21.4
414.7158,348
414.9731,243.9
414.9837,746.5
414.9983,408.7
415.0109,180.1
415.2224,3163.9
415.2607,360.2
415.536,564.5
415.5527,658.7
415.6279,290.2
415.6412,838.1
415.6492,19.9
415.8058,259.8
415.8591,304.8
415.9613,17.6
416.065,245.2
416.1139,18.7
416.1355,6971.8
416.2145,24468.7
416.4127,664.2
416.5875,19.8
416.6185,554.8
416.8018,324.8
416.9987,19.7
417.1748,200.7
417.201,132.4
417.2183,2335.5
417.3696,118.4
417.4757,369.9
417.4997,121.8
417.7241,356.1
417.8203,347.6
418.4475,164.3
418.5846,105.2
418.7995,903
418.9821,70749.6
419.07,505.4
419.2434,260.1
419.2558,1031
419.3618,194.1
419.3842,237.3
419.5809,446.2
419.6049,455.6
419.6508,19.8
419.7402,401.6
419.9697,329.4
419.9855,3615.4
420.0504,21.7
420.2613,409.8
420.2698,264.9
420.3372,474.8
420.5384,22.7
420.6964,144.5
420.7136,148.6
420.7466,668.3
420.8346,153.9
420.8859,843.6
420.958,1104.6
420.9804,2069.1
421.0384,870.1
421.0686,133.7
421.1164,171.9
421.3241,28.4
421.4321,277.2
421.4677,602.6
421.7097,19.7
422.3041,54.2
422.7107,502.6
422.7471,506.4
422.7806,657.4
422.9108,501.9
423.0523,123.7
423.0675,19
423.3613,480.5
423.6849,109.3
423.745,362.8
423.763,153.3
424.3596,134.5
424.7696,266.4
424.8677,638.2
424.9516,297.2
425.0394,277.8
425.2891,126.2
425.5806,210.8
425.6722,19.1
425.7361,22.3
425.9936,127.8
426.1588,167
426.3584,1094.3
426.4079,141.5
426.5013,571.7
426.6554,115.5
426.7405,455.7
426.7946,509.9
427.2661,141
427.3342,1018
427.3642,19.5
427.4338,111.3
427.4855,20.4
427.7637,86.2
427.7774,476.1
427.9395,144.7
428.4047,136.3
428.5858,148.9
428.5961,104.5
428.6978,325.7
428.7811,26.1
428.7905,100.7
428.9291,132.3
428.9387,1277.6
428.9463,43
428.9604,791.9
428.9728,614.2
428.9883,318.4
429.0891,310.1
429.1862,100.6
429.2408,23.6
429.2781,548.6
429.4591,161.6
430.0015,197.4
430.1331,261.5
430.5337,323.3
430.6106,20.9
430.6308,26.3
430.6606,19
430.6972,550.7
430.9152,2259
431.1234,184
431.2173,2933.3
431.3488,560
431.5326,207
431.5714,792.7
431.6345,253.9
431.6624,17.1
431.8439,145.1
432.0136,187.3
432.8325,177.7
432.861,178.3
432.9372,234.1
432.9697,234.5
433.0415,17.2
433.1866,472.5
433.2816,374.5
433.4554,113.8
433.7413,30.8
433.8149,718.1
434.0245,105.2
434.2,713.1
434.3486,134.8
434.4297,19.9
434.6359,31.3
434.7722,669.2
434.8714,253
434.9562,10141.6
435.1109,20.6
435.1282,165.1
435.2226,29.2
435.3678,122.3
435.5946,121.5
435.6341,599.2
435.9083,876.9
435.956,194.8
436.0108,19.8
436.1294,19
436.5224,19.9
436.8226,547.6
436.9028,27.2
436.9387,137.4
436.992,212.4
437.0761,222
437.1873,735.2
437.2043,1712.8
437.2194,528.4
437.3219,736.8
437.3558,747.6
438.0491,633.3
438.1647,315.5
438.1969,523.8
438.3791,686.5
438.4064,117.2
438.6657,151.3
438.7159,963.2
438.9233,197.4
438.9726,3838.3
438.9847,1416.4
439.0866,520.3
439.2128,782.6
439.4754,196.4
439.7451,136.4
439.8554,277.8
440.1069,215.1
440.3821,830.4
440.4098,135.6
440.6842,343.8
440.7083,99.1
440.8931,22.7
440.9426,238.7
441.0683,512.3
441.2768,133.1
441.2979,306.4
441.6958,618.8
441.8744,264.4
442.0271,20.1
442.2187,827.4
442.3011,74.6
442.7234,362.6
442.7648,300.1
442.8253,288.3
443.2536,2730
443.5116,358.2
443.5699,19.3
444.2905,105.4
444.3847,22.3
444.5033,677.1
444.5664,189.9
444.7197,383.2
444.7594,330.8
444.9848,19.8
445.0117,22.6
445.1416,1709.9
445.2098,119.2
445.2328,2946.6
445.2591,641.4
445.2694,3634.1
445.5564,529.1
445.6946,104.4
445.7673,821.9
445.8878,26.7
446.1443,124.7
446.1651,18.5
446.299,22.5
446.4362,20.3
446.5343,304.5
446.672,609.7
446.8873,591.8
446.8957,285.8
446.9136,469.6
446.9313,118.2
447.054,113.6
447.273,151.9
447.3688,174.1
447.4007,434.5
447.852,194.7
447.9325,20.7
447.9938,493.4
448.1669,18.3
448.2756,147.3
448.325,778.7
448.6077,140.9
448.6477,470.4
448.6681,407.8
448.7118,362.8
448.7195,192
448.917,121.6
448.933,4712.2
448.9657,89.8
449.0896,27.8
449.1545,2042.1
449.3591,19.5
449.4022,184.5
449.5457,22.1
449.7785,275.6
449.8048,250.9
450.0217,18.3
450.158,373.5
450.3875,20.9
450.4561,421.5
450.6144,377
450.7181,204.1
450.7555,500.6
450.8591,285.5
450.9304,784.4
450.996,291.9
451.0065,116.9
451.0491,718.7
451.1578,783
451.1718,510.9
451.7613,108.6
452.4085,84.6
452.7971,440.2
452.8913,702.2
453.104,192.5
453.1744,699
453.4552,746.6
453.4818,591.7
453.7092,138.3
454.156,525
454.1769,380.8
454.2411,372.3
454.3516,225.3
454.4575,150.2
454.533,614.1
454.6499,193.9
454.7012,327.2
454.7582,33.1
454.9501,38556.8
454.9654,609
454.9691,560.9
455.1678,776.8
455.2964,971.5
455.5886,483.9
455.6107,237.7
455.7634,95.5
455.7877,180.5
455.9533,985.9
456.0463,98.2
456.0585,150.7
456.2414,24.5
456.5116,303
456.7008,532
456.947,10771.8
457.0115,111.9
457.2332,10181.1
457.2871,130.4
457.2998,200.1
457.4293,156.6
457.4841,18.2
457.7391,85.3
458.0403,597.6
458.2372,531.8
458.4243,312.1
458.6968,420.6
458.9619,541
459.2021,388.8
459.2488,633481.7
459.8705,397.3
460.0488,103.5
460.2078,181.3
460.252,130139.9
460.4801,220.7
460.7837,888
460.8734,92.8
460.9668,71875.2
461.0346,421.5
461.0938,197
461.1871,791.4
461.255,9861.9
461.5061,128.6
461.6299,183
461.8332,122
461.9564,227.1
461.9701,5511.5
462.1858,251.7
462.2169,25.2
462.3862,365.2
462.5666,97.2
462.7976,250
462.964,20023.8
462.9902,728.8
463.1366,126.5
463.2022,2307.7
463.2144,428.6
463.2874,206.1
463.5937,907.8
463.6592,176.4
463.7876,148.6
463.9675,417.9
463.9876,18.1
464.0256,176
464.0891,381.3
464.1977,209
464.6437,341.3
464.6608,103.2
464.6962,770.8
464.9788,7272.3
465.08,457.6
465.3013,268.7
465.975,302.6
466.1471,20.4
466.2879,197
466.3403,149.4
466.7292,388.1
466.7801,206.2
466.9783,20.4
467.1237,374.1
467.2685,25.6
467.3272,334.4
467.4147,732.7
467.4537,139.9
467.5213,324.4
467.6103,763.5
467.7034,660.8
467.9385,472.6
467.9864,31.5
468.0398,346.8
468.1639,181.5
468.3094,663.1
468.5676,128.9
468.88,461.5
468.9433,292
469.1412,24.6
469.1587,340.7
469.3122,299.2
469.3304,171.9
469.3664,671.5
469.6668,179.8
469.7105,524.8
469.9955,102.5
470.0313,758.6
470.22,474.1
470.3596,160.1
470.595,105.3
470.9239,14295.2
470.9959,3471.8
471.017,348.9
471.1647,164
471.2492,638.4
471.3478,20.1
471.5983,242.6
471.8042,322.6
471.8694,384
471.9294,799.8
471.9446,164.5
472.0498,22.6
472.7615,19.7
472.7868,21.1
472.9209,4874.9
472.9325,166.7
472.9546,591.7
473.0949,18.4
473.104,318.8
473.2275,96.9
473.2432,141.3
473.2644,11576.8
473.2868,290.4
473.3888,207.2
473.58,178.9
473.7948,197.1
473.9552,122.7
474.0532,181.4
474.2675,806.8
474.5495,177.1
474.6217,335.1
474.8352,18.9
474.8746,324.9
474.9377,473.2
474.9709,104.8
475.0385,210.5
475.144,169.9
475.2227,26814.4
475.241,268.4
475.4171,472.6
475.5539,102
475.5632,176
475.59,286.9
475.9124,132
476.0004,401.1
476.0433,163.9
476.2258,4816.2
476.3143,919.4
476.5806,99
476.6288,139.8
476.6595,372.3
476.8973,19.3
476.9408,33789.7
477.0444,529.9
477.3049,404.9
477.6468,18.3
477.7952,370.7
477.9443,970.3
478.0122,168
478.259,515.1
478.3296,57446.8
478.5851,239.9
478.863,204.6
478.938,12152
479.0933,221.2
479.2552,542.6
479.3333,9824.9
479.444,525.1
479.5533,25.2
479.6037,556.6
479.6465,557.2
479.7694,153.7
479.8943,179.7
479.9413,383.3
480.1755,176.1
480.3453,1303.5
480.6115,163.1
480.9021,485.8
480.9398,822.1
480.953,923.3
481.0928,193.2
481.2332,2237.6
481.2557,172.1
481.3747,116.7
481.6422,333
481.7457,128.4
482.0049,154.3
482.1252,18.7
482.3242,1396.1
482.3616,885
482.4594,374.7
482.5969,323.3
482.6593,115.6
482.6689,148.9
482.8895,722.1
482.9019,392.1
483.0055,252.8
483.0548,124.6
483.0846,194.2
483.1096,388.9
483.1125,377.1
483.2488,107878.1
483.5436,224.6
483.6945,595.2
483.7761,117.2
483.8249,873.8
484.1405,19.5
484.252,24114.6
484.4502,18.9
484.494,117.7
484.6298,177.1
485.0047,662.1
485.1657,408.8
485.2644,100813.1
485.3155,391.6
485.6199,264.9
485.7039,23.2
485.757,172.9
485.8503,130.3
486.1401,180
486.2678,20920.3
486.4482,147.4
486.7577,546.5
486.8269,529.6
486.8983,1111.7
487.0565,186
487.2088,211.7
487.28,222942.2
487.414,237.5
487.5098,404.7
487.6793,634.1
487.8664,279.3
487.8948,121.5
488.1683,492
488.2833,47602.5
488.5026,929.5
488.8303,318.5
489.1594,774.3
489.1904,161.2
489.2143,104.1
489.241,429.4
489.2638,518.1
489.2875,3496.4
489.3699,21.9
489.4501,1598.6
489.4774,974.8
489.5086,285.8
489.5334,131.7
489.5449,948
489.5561,398
489.5683,497.9
489.6104,256.7
489.7514,398.2
489.8224,394
489.8531,20.4
490.0402,286.4
490.2913,4869.1
490.3321,831.8
490.3945,157.8
490.9125,281.6
491.0677,29.9
491.0905,366.4
491.2993,106.4
491.344,466.9
491.3695,368.3
491.3837,261.9
491.4581,365.2
491.7402,233.4
491.7828,101.6
492.0777,380.4
492.0867,119.6
492.5336,358.1
492.5485,331.8
492.6454,544.6
492.7506,687.9
492.7952,318.7
492.8601,397.4
492.9147,5160.5
492.9484,21.4
493.0604,136.1
493.1527,330.4
493.1631,94.9
493.2685,19.8
493.3214,166.8
493.4664,177.4
493.652,622.9
494.2894,287.4
494.3246,7884
494.3686,174.8
494.6497,108.9
494.7786,575.2
494.9126,1552.5
495.185,175.4
495.2479,282.2
495.3849,982.3
495.5026,198.8
495.5293,192.6
495.7647,199.1
496.1041,31.3
496.284,956.3
496.3403,513241.4
496.3982,116.2
496.5955,483.3
496.8092,750
497.059,369.3
497.1571,138.2
497.1748,464.6
497.1878,217.4
497.2956,291.6
497.3435,123555.9
497.4575,525.5
497.6547,19.6
497.6943,198.3
497.7657,227.6
498.0723,844.7
498.0782,398.7
498.2202,126.7
498.2463,118.9
498.256,645.4
498.3467,12486.3
498.684,590
498.7397,28.3
498.7886,18.3
498.8198,136.1
498.9016,609.8
498.9279,867.4
498.9665,643.2
499.2218,850.4
499.5403,355.9
499.8365,212.6
499.8707,87.4
499.9199,608.2
500.2285,1329.2
500.3129,848.3
500.5261,89.4
500.7268,834.5
500.7739,85.2
500.8587,23.9
500.9835,211
501.0798,18.5
501.0957,23
501.1843,201.7
501.2381,3345.1
501.2617,324.1
501.2966,608.5
501.3071,337.3
501.6626,231.1
501.6884,561.1
501.9218,152.6
502.0227,22.5
502.1521,821.7
502.3291,20158.1
502.3469,118.2
502.695,398
502.7059,19.1
503.0195,350.9
503.0326,184.4
503.1086,74.7
503.2542,10944.9
503.3326,3208.2
503.3732,144.3
503.3928,187.9
503.4155,550.4
503.6562,594.5
503.8409,132.7
504.1413,174.6
504.2579,648.6
504.2664,19.3
504.307,5240.8
504.3444,6663.4
504.4542,154.4
504.5934,670.2
504.6514,597.1
504.8032,19
505.0433,21.3
505.0995,340.5
505.2329,2968.1
505.2698,341.4
505.3091,651.5
505.5132,100.2
505.6034,21.2
506.1071,225.9
506.3607,14761.8
506.3999,657.7
506.413,19.7
506.7407,205.8
506.8659,170.2
506.8911,6062.9
507.0368,119.5
507.142,356.8
507.2486,39329.6
507.2995,117.7
507.3642,2533.7
507.6218,343.2
507.9671,589.9
508.072,220.6
508.167,378.5
508.2521,7638.1
508.276,191.6
508.5865,137.5
508.7129,423.3
508.7569,322
508.8893,864.6
509.0051,3180.2
509.2642,14484.5
509.3479,353.9
509.3749,207.4
509.6727,256.1
510.0326,83.9
510.0886,271
510.0923,309.8
510.2677,1833.8
510.3559,9207.3
510.4724,576.9
510.6197,902.7
510.9233,289.4
511.048,94.5
511.1241,23
511.1615,444
511.2801,861.5
511.3579,776.8
511.5119,410
511.6409,153.2
511.6717,365.7
511.8851,594.9
511.9385,236.8
511.9832,142.1
512.0047,566.1
512.241,621.3
512.4777,332.7
512.6911,22.5
512.9086,17509.3
513.0019,19.5
513.1467,231.3
513.313,621.6
513.3927,324.7
513.5253,274.9
513.5736,133.4
513.7762,630.8
513.8771,150.5
513.8873,18.7
513.9084,341.6
514.0339,510
514.0611,21.7
514.1306,531.8
514.3347,649.3
514.5935,81.8
514.6123,1096.4
514.659,752.6
514.7875,801.3
514.9059,6634.1
514.9657,197.3
515.0226,405.4
515.1268,18.7
515.1469,20.8
515.1948,120.2
515.2691,18.7
515.5998,116.3
515.8698,349.4
515.8871,18.5
515.9255,234.1
516.2856,308.7
516.3066,15232.7
516.4344,669.2
516.5154,122.9
516.6566,356.2
516.8038,21.5
516.902,425.3
516.9186,545.5
516.9514,638.6
517.167,224.3
517.263,38.4
517.3,123.8
517.3103,1360.8
517.4323,99.4
517.6175,368.2
517.9448,260.8
518.0666,374.6
518.1935,170.4
518.3222,943177.1
518.4484,27.5
518.5898,511.9
518.6068,90.4
518.9254,30501.3
519.061,111
519.3256,227292.8
519.4806,235
519.5008,443.8
519.5629,850.7
519.9283,1490.6
520.037,154.3
520.2855,133.6
520.329,24473.3
520.3402,85358.4
520.5543,111.4
520.8,21.4
520.9047,301.1
520.9225,15550.3
520.9469,25.9
521.3318,547.2
521.3437,21633.7
521.3851,209.3
521.5825,125.8
521.8634,150.8
521.9268,524.8
522.2224,348.1
522.3207,591.2
522.3559,94692.8
522.4108,197
522.7749,211.5
522.8012,223.3
522.9197,1395.1
522.9377,5919
523.0215,322.9
523.0394,362.5
523.0505,438.3
523.1977,379
523.3592,22840.7
523.6484,154.9
523.6686,391.6
523.7474,769
523.787,18.8
523.8407,690.5
524.001,1148.5
524.0227,196.4
524.0369,493.9
524.0567,1073.3
524.1287,458.4
524.1534,110.1
524.325,205.7
524.3716,226746
524.4055,20.5
524.5966,392.7
524.6878,388.3
524.712,25.6
524.9337,542.6
524.973,174.4
525.1245,399
525.3749,63109
525.435,531.4
525.4591,874
525.5249,211.9
525.5733,768.2
525.8188,129
525.9435,266
525.9626,148.3
526.036,18.8
526.3298,8266.9
526.3777,5854.3
526.4284,191.4
526.6816,478.7
526.9585,467.4
527.2402,136.8
527.2979,530.4
527.7134,146.2
527.8143,162.5
528.0609,434.9
528.0804,19.3
528.1843,380
528.3463,714.1
528.7727,534
528.8824,4870.5
528.9543,982
528.9748,18.2
528.9926,527
529.0286,181.2
529.0968,158.8
529.2543,827
529.4256,130.9
529.5893,175
529.9041,143.6
530.0562,102.1
530.3586,2430.8
530.4994,20
530.7051,621.3
530.8798,3602.6
530.9516,490.5
531.076,150.3
531.2486,11660.1
531.2707,201.3
531.3669,601.7
531.4833,159.7
531.7933,209.8
531.8308,312.3
531.8957,22.2
532.2517,1094.9
532.2806,3592.4
532.3381,21334.9
532.4938,499.6
532.5074,252.7
532.5278,152.6
532.8761,333.4
532.9661,1733
532.993,28.3
533.2042,99.1
533.259,1410.8
533.3412,3662.4
533.4594,143.9
533.6919,277.2
533.8607,552.7
534.1231,187.2
534.1544,27.4
534.2963,216788.3
534.3154,408.6
534.4969,137.2
534.8994,12648
535.2043,329.7
535.2996,49575.9
535.56,196.5
535.5747,20.5
535.747,759
535.9023,656.6
535.9413,857.5
536.0522,28.3
536.2944,11803.1
536.3144,92.6
536.5274,414.3
536.5439,126
536.6244,21.5
536.8231,29.7
536.8965,9767.8
536.9213,139
537.0568,232.3
537.2526,179.1
537.4122,265.7
537.7789,748.9
538.3891,895.2
538.4195,21.3
538.7277,108.7
538.7693,142.2
538.7997,541.1
538.8928,982.9
538.9107,1141.3
538.9328,935.1
538.9708,199.5
538.9765,147.8
539.0326,246.5
539.1216,266.7
539.1348,319.5
539.3834,184.3
539.4239,25.6
539.471,31.5
539.4826,218.1
539.6194,262.8
539.6492,19.8
539.6666,555.1
539.786,20.8
539.8431,875.2
539.9349,201.7
539.9682,121.8
540.129,115
540.189,121.2
540.222,98.7
540.4028,934.8
540.475,942.3
540.7834,204.3
540.8469,22.3
540.9157,632
541.0479,177.3
541.0883,89.4
541.1415,421.6
541.5453,292.4
541.746,289
542.2671,526.9
542.3223,148914
542.4925,570
542.615,742.7
542.7748,794.2
542.8612,210
543.0349,139.6
543.0692,240.9
543.3039,373.5
543.3256,36978.7
543.4203,304.3
543.4826,192.7
543.5657,20
544.338,158678.4
544.5399,188.5
544.8569,599.8
544.9239,269.5
544.9486,2874.1
545.0136,175.7
545.0285,452.1
545.0335,455.2
545.1302,136.1
545.3415,41941.2
545.3755,426.8
545.509,21.3
545.87,293.5
545.9215,113.6
546.0834,18.9
546.1474,20.5
546.1836,128
546.3536,383625.3
546.4561,513.5
546.4779,90.5
546.6679,218.3
546.8129,286.7
547.0185,318.2
547.1855,123.9
547.2646,361.1
547.357,105908.1
547.4534,191.1
547.4785,111.9
547.4973,112.1
547.6013,107
547.6488,313.6
547.9913,432.6
548.0092,1105.4
548.2115,290.4
548.3121,4731.7
548.3601,10427.4
548.4791,623.5
548.5912,148.8
548.9073,269.2
549.1483,114.1
549.1851,98.2
549.3646,155.2
549.4488,91.9
549.9548,498.4
550.1577,93.3
550.3302,1355.7
550.6097,205
550.7263,116.2
550.743,367
550.7612,18.8
550.8739,1469.1
550.9028,302.9
550.9708,112.4
551.6655,20.6
551.9725,853
552.0099,214.4
552.0884,205.1
552.4034,889.8
552.871,2124.6
553.0523,119.1
553.1846,202.5
553.2402,472.8
553.4846,309.5
553.6843,249.2
553.7158,129.2
553.8281,159.9
553.9518,25.1
554.0004,134.9
554.4134,98.7
554.4229,28.4
554.6665,125.4
554.7386,347.6
554.7617,162.2
554.906,416.1
555.3825,145.6
555.4458,129
555.7583,565.7
555.7838,180
555.9064,312.4
555.939,270.5
556.0674,221.5
556.1492,111.2
556.2055,179.9
556.405,488.5
556.5119,570.5
556.5625,22.4
556.8885,406.3
557.069,378.4
557.1638,21.7
557.4146,401.7
557.4301,30.2
557.4519,193.4
557.8602,127.1
557.9376,108.8
558.296,32131.4
558.3529,343.9
558.5422,672.7
559.2991,6956.6
559.4728,112.4
559.6715,168.8
559.8373,390.4
560.3119,34637.4
560.364,716.4
560.5794,202.9
560.6612,403.8
560.7021,591.1
560.7118,198.9
560.8803,17.4
560.9139,376.2
561.2902,111
561.3154,7317.7
561.4461,560.8
561.6663,25.7
562.2605,960.1
562.3276,77607.7
562.352,111.5
562.536,160.5
562.6849,167.4
562.8921,186.6
563.1971,336.7
563.331,20425.7
563.3783,106.4
563.4377,486.5
564.1422,19
564.3261,1693.1
564.7821,21.9
564.8506,1046.7
564.9899,93.6
565.0428,405.1
565.1703,243.4
565.2024,330.9
565.3288,821.5
565.928,103.6
565.944,306.9
565.9819,174.5
566.0745,135.8
566.1288,336.4
566.248,232.2
566.3223,47189.8
566.6994,762.7
566.8479,555.5
566.965,1691.6
566.9998,929.4
567.1973,539.4
567.2887,21.3
567.3059,179.9
567.3255,10823.3
567.4139,517.9
567.6348,788.2
567.6506,22
567.6775,370.6
568.2484,119.4
568.3382,23631.4
568.6388,195.9
568.8657,418.4
568.9034,921.7
568.9603,327.4
569.0817,639.9
569.2694,314
569.3417,6183.2
569.5607,348.4
569.5727,256.5
569.7268,160.4
569.8521,572
569.9877,19.6
570.2355,111.5
570.2614,659.4
570.6962,376.5
570.8672,5514.5
570.9369,20.9
570.9584,98.3
571.1648,604.4
571.4271,158
571.5167,387.8
571.5382,257.9
571.5585,97.5
571.8291,20.3
572.2875,595.5
572.424,379.3
572.8642,3657.1
572.979,335.7
572.9953,863.4
573.1599,367.1
573.3538,208.5
573.8291,183
574.0163,278.5
574.025,276.1
574.2841,2257.2
574.5955,29.6
574.6132,465.5
574.6581,238.7
574.8597,571
574.9523,337.4
575.0483,280.3
575.0588,282.4
575.2953,149.9
575.379,309
575.5039,11449.1
575.565,369.9
575.6103,18.3
575.6896,291.6
576.2814,10567.5
576.5064,1412.4
576.8843,8807.3
576.9355,481
576.9481,233.7
577.153,229.7
577.2416,114
577.2847,440.7
577.512,165.5
577.6742,267.9
577.7179,115.5
577.7333,689.9
577.7782,141.5
577.8377,275.6
577.8874,463.2
578.0467,789.1
578.1493,94.7
578.2778,1187.5
578.8033,17.7
578.8812,10327.8
578.9198,18.2
578.9563,208
578.9815,464.8
579.7774,585.7
580.0294,471.4
580.1097,578.5
580.1381,25.7
580.5864,211.2
580.7284,108
580.8775,2731.1
580.8959,803.5
581.5129,439.1
581.7124,857.2
582.1136,20.7
582.2726,27.7
582.2962,8802.2
582.3582,522
582.3878,21
582.4142,21.9
582.4364,305.4
582.4528,230.8
582.4926,408.2
582.5169,795.1
582.5221,659.3
582.5324,374.8
582.5488,666.8
582.5803,799.4
582.6012,615.8
582.6071,541.1
582.6128,319
582.6542,215.5
582.6751,126.7
582.7071,884.9
582.7426,158.9
582.8989,493.1
582.996,344.2
583.2347,92.7
583.2569,1074.9
583.2744,404.1
583.2997,2997.8
583.6369,29.7
583.8621,149.5
583.878,348.4
583.9027,21.7
583.9284,350.2
584.1812,202.9
584.312,2842.8
584.3368,120.1
584.3893,19.7
584.4794,534.1
584.6612,193.1
584.6959,191
584.7521,222.4
584.8043,33.3
584.9158,428.4
585.0076,21.1
585.7534,29.6
585.9944,262.8
586.2449,443.1
586.2732,188.8
586.31,6741.2
586.6784,28.3
586.8419,2442.2
586.9127,973.8
586.9686,360.2
587.0549,108.3
587.2179,18.9
587.3118,598.5
587.6053,104.1
588.3695,227.1
588.6235,361.7
588.8388,3826.4
588.9122,504.9
589.127,354.5
589.4494,26.8
589.779,19.8
589.9603,412.5
590.0317,390.7
590.0745,115.7
590.3225,12051.5
590.7864,133.1
590.8366,909.3
591.1643,324.7
591.3247,2595.9
591.4189,123.5
591.6156,344.4
591.7501,258.1
591.9049,20.7
592.0681,406.9
592.2548,1615.1
592.3352,600.5
592.5348,762.2
592.579,929.9
592.8587,5322.2
592.9362,997.9
593.1004,135
593.2609,157.7
593.6776,114.3
593.6953,195.5
594.2511,425.6
594.3145,193.2
594.5357,558
594.8553,4097.3
594.9668,642.4
595.0473,334.1
595.1517,667.1
595.6592,181.7
595.7509,23.7
596.0286,832.5
596.0853,200.4
596.2657,1093
596.3813,260.3
596.8523,1207.9
596.8701,1117.1
596.909,22.1
596.9571,104
596.9896,20
597.05,310.1
597.1326,32.1
597.202,308.6
597.4531,3861.6
597.486,10947
597.7852,504.3
598.1283,447.2
598.1656,175.1
598.2533,109
598.3452,474.1
598.4606,368
598.4893,2493.9
598.5019,339.3
598.5081,214.1
598.5202,19.4
598.5381,170.2
598.7762,291.2
598.8684,400.5
599.036,491
599.0784,129.5
599.2684,189.5
599.3643,193.1
599.4572,171.6
599.5035,2073.9
600.4199,640.8
600.465,355.1
600.5057,289.6
600.5171,178.9
600.6249,416.3
600.7068,599.5
600.7528,132
600.8009,377.4
600.9561,202.8
601.032,101.5
601.1701,344.1
601.4833,998.7
601.6491,459.8
602.0847,324.4
602.1211,216.6
602.144,154
602.2825,1858.3
602.3813,107.8
602.4202,599.2
602.588,400.6
602.6288,557.6
602.6525,349.9
602.7044,277.3
602.7472,111.1
602.8651,689.8
602.907,384.2
603.5087,165.8
603.5354,552.2
603.692,154.3
604.2163,214.1
604.3115,2885.8
604.3325,487.2
604.3775,322.5
604.4759,681.7
604.5395,41.2
604.6198,151.8
604.6784,362.8
604.8298,851.7
604.9507,165.1
605.121,112.1
605.3119,441.3
605.4165,584.8
605.4923,715.6
605.5614,279.4
605.6958,794.7
605.8456,98.1
606.2963,974.2
606.4974,128.3
606.7007,212.1
607.0243,185.9
607.171,7605
607.4504,167.7
607.4676,287.9
607.6822,587.4
607.9486,670.9
608.1626,226.2
608.1748,432.1
608.2576,840.7
608.2919,756.9
608.7737,156
608.8319,960.5
608.9685,1209.1
609.1125,911.1
609.1215,576
609.2429,961.9
609.4867,412
609.8225,91
610.4897,601.7
610.7228,261.6
610.829,1152.2
610.9178,535.2
610.9802,396.3
611.0539,607.8
611.2176,118.4
611.3339,141.2
611.9421,403.8
612.2418,705.7
612.999,33.9
613.1106,150.8
613.2398,107.2
613.4052,34.6
613.5706,158.2
613.6069,120.7
613.7015,120.9
613.8398,374.9
613.8635,698.8
614.3415,1255.4
615.0264,942.3
615.4649,323
615.6071,21
615.7777,288.1
615.7855,291.1
615.8966,18.7
616.3045,160.9
616.8936,24.6
617.5806,640.6
617.6468,231.7
617.6953,178.9
617.7743,306.8
617.8037,358
617.8681,189.2
618.1744,401.6
618.4162,20.8
618.4657,827.8
618.9864,310.1
619.079,106
619.3526,801
619.468,527.9
619.5398,197
620.0543,135.6
620.3002,188.8
620.41,214.4
620.5002,284.6
620.7292,424.2
620.8654,551
621.1628,373.9
621.2484,328.9
621.4473,939.8
621.4601,1474.9
621.486,12668
621.8064,458
621.8141,454.6
621.91,152.9
622.0982,203.2
622.4198,400.8
622.4686,1215.7
622.4887,1587.4
622.61,298.9
622.7479,218.4
622.9297,28.2
623.0456,513.7
623.1364,25983.6
623.3249,130.1
623.4622,650.8
623.4751,1542.9
623.504,2568.2
623.738,124.6
623.8913,153.4
623.9899,119.3
624.14,4910.8
624.5016,639.7
624.8055,520.4
624.8928,563.5
625.2031,216.2
625.3811,482.7
625.4028,162.7
625.4846,541.1
625.5955,104.4
625.6517,465.2
625.8525,762
626.2412,566.8
626.2577,150.3
626.6047,373.8
626.9218,557.5
627.5346,2062.8
627.8794,21.9
628.4384,765.2
628.4551,20.8
628.5391,78.1
628.8272,373.9
628.9328,238.9
629.0635,20.8
629.1069,322.4
629.1532,60197.8
629.1746,226.9
629.2853,194.1
629.3203,194.5
629.4513,18.1
629.5455,33.9
629.6267,177.4
629.7076,928.7
629.8752,319.9
629.9437,103.7
630.1566,12332
630.2954,504.1
630.6691,114
630.6875,19.7
630.8233,968.4
630.9411,393.2
631.1096,252.4
631.1293,428.2
631.159,1387.9
631.4186,306
631.6253,1119.4
631.9091,23.1
631.9486,162.6
632.0823,22.3
632.3745,875.5
632.4414,914.1
632.5007,249.2
632.5621,118.9
633.0426,635.9
633.072,350.7
633.2197,338.1
633.328,327.4
633.3731,151.6
633.4578,162.1
633.7268,18.4
633.9236,1102.1
634.0746,414.6
634.186,129.1
634.7165,660.7
634.8436,2072.4
635.2729,813.7
635.3108,160.7
635.4844,636
635.5794,146.5
635.9202,668.5
636.2906,337
636.4815,123
636.6812,207
636.8203,179.9
636.8401,2205.7
636.8667,898.8
637.197,560.7
637.6466,271
638.0149,204.1
638.1305,247.4
638.2134,409
638.3464,136.3
638.4524,926.3
638.8377,905.7
639.3463,207.8
639.4494,1019.5
639.6465,152.7
640.0622,216.2
640.1318,239.6
640.3096,200
640.3711,23.6
640.4476,682.1
640.6887,20.5
641.0538,653.1
641.1096,157.2
641.2214,21.2
641.2404,584.9
641.3057,875.3
641.3253,692.9
641.3884,732.6
641.4128,88.7
641.4676,215.2
641.6033,22.9
641.7755,187.7
641.8607,243.8
642.1001,319.4
642.5049,326.1
642.8843,132.6
643.0634,155.9
643.0813,300.3
643.9028,407.2
644.6411,112.5
645.038,183.6
645.118,19145.9
645.3204,643.3
645.4852,1803.8
645.5343,479.9
645.5582,133.2
646.1223,2924.3
646.4821,308.8
646.565,30.1
646.7982,438.5
646.8852,233.5
647.0501,166.6
647.0949,361.1
647.1014,340
647.1252,188
647.2055,877.1
647.2896,362.9
647.3174,32
647.3898,176
647.6476,520.4
647.7871,423.7
648.2165,722.8
648.2398,135.2
648.6725,194.6
648.7167,187.6
648.7658,486.7
648.804,147.6
649.0412,128
649.0973,855.4
649.4161,21.3
649.6972,145.2
649.9162,21.7
650.0012,624.2
650.107,124.8
650.142,154.2
650.4913,695
650.7825,522.1
650.8198,1356.6
650.8738,17.7
651.1351,52562.9
651.3604,257
651.7121,131.9
652.1388,10395.2
652.3623,735.2
652.4574,20
652.5742,915.6
652.8141,1724
653.1113,322.6
653.137,1468.4
653.4986,129.4
653.5251,24.3
653.6134,123.5
653.661,171.3
653.7944,129.3
653.9394,236.9
654.1012,21.1
654.4457,393.8
654.4984,890.6
654.5491,229.2
654.5557,294.6
654.5649,311
654.6011,873.9
654.8114,1077.6
655.4912,225.7
655.676,18.3
655.708,107.4
655.737,406.2
655.8034,520.8
655.8384,618.4
655.9557,356.3
656.0766,581.8
656.1452,94.3
656.1809,206.4
656.2663,399.1
656.962,131.3
657.0572,312.2
657.4611,199.7
658.3183,225.7
658.4289,1368.9
658.7388,123.8
658.8105,325.4
658.9635,21.9
659.1576,128.8
659.3891,1363.9
659.407,949.9
659.7336,196.9
659.9376,1194.9
660.4446,512.7
660.5499,351.6
660.78,549.6
660.9815,317
661.083,7289.5
661.1701,280.3
661.2563,17.4
661.4384,408.2
661.4698,262.7
661.5041,29.8
661.6542,193.3
661.7823,287.2
661.9918,693.9
662.0867,635.9
662.8135,625
662.9987,20.6
663.1967,443.4
663.2483,125.1
663.4078,187.5
663.4554,522.1
663.8416,21.7
663.9094,18.9
664.0739,826.9
664.3384,557.4
664.362,27.8
664.469,9503.2
664.5593,665.9
664.5816,272.5
664.8315,146.3
665.1836,175.4
665.4715,3356.6
665.5213,395.3
665.5765,624.4
665.9241,25.9
666.1018,148.3
666.1607,120.8
666.3527,360.6
666.4843,12247
666.5475,127.2
666.8853,127.5
667.0249,196.2
667.0307,219.5
667.0376,182.4
667.0998,24142.6
667.1372,22.8
667.9292,29.7
668.0736,20.5
668.1029,3125.7
668.6837,618.5
668.7353,389.5
668.7525,408.3
668.8928,175.2
669.0737,145.8
669.1046,398
669.189,775
669.432,383.5
669.4945,2126.2
669.7953,443.4
669.9228,175.2
670.0006,193.6
670.3042,350.5
670.4096,278.8
670.4861,272.5
670.5559,311.8
670.9328,315
670.9723,651.9
671.0846,112.7
671.5661,369.2
671.6538,517.4
671.738,914.2
671.9579,228.7
672.0244,19
672.4452,789.6
673.0865,134.4
673.117,52358.5
673.448,848.8
673.5298,3405.4
673.7965,467
674.1207,11170.4
674.5298,1130.1
674.6324,350.4
675.0631,196.6
675.095,493.5
675.1084,242.4
675.1216,630.3
675.195,493.2
675.4846,640.1
675.5447,23631.6
676.4182,966.7
676.5479,9490.1
676.8951,141.3
677.1878,453.6
677.4552,334.8
677.6332,251.1
677.8431,510.6
677.9873,113.7
678.068,27
679.508,251.2
680.0092,22
680.287,29.9
680.5163,97.9
681.2862,18
681.4472,781.4
681.8272,103.8
682.0649,319.2
682.277,202.9
682.6713,18.2
682.8068,586.8
682.935,926.5
683.065,3199.8
683.3553,270.8
683.4776,120.2
683.8048,282.8
683.9831,909.1
684.0676,135
684.2047,121.2
684.3835,590.2
685.089,219.5
685.1533,498.1
685.4364,6236.2
686.0171,254
686.1602,121.5
686.4096,169.7
686.4387,1327.2
686.6178,632.2
686.9963,200.8
687.1754,285.6
687.6219,745.5
687.6533,197.8
688.2583,20.6
688.4194,371.1
688.8492,375.1
688.9602,135.8
689.0304,324.9
689.0813,16380
689.091,14171.7
689.3716,890.9
689.5601,8798.8
690.0863,1974.9
690.0949,1993
690.2275,372.3
690.5643,802.9
690.8075,162.6
690.9473,162.4
691.0669,97.5
691.7269,217.5
691.7626,20.7
691.879,123.2
691.9129,897.6
692.6265,421.6
692.713,408.9
692.8159,21.5
692.85,144.1
693.0629,352.6
693.1106,116.1
693.2953,22.3
693.4319,155.6
693.5632,339.1
693.9094,18.5
693.9357,350.5
693.9786,20.1
694.0676,246.7
694.1613,271.1
694.3205,124.2
694.3856,107.3
694.5731,167.9
694.7726,534.6
694.7991,817.1
695.099,34228.1
695.2899,545.6
695.511,6696.1
695.743,191.4
696.1029,5764.3
696.5157,721.8
696.9426,866.6
696.9649,900.9
697.0471,128.1
697.1045,571.2
697.4667,494.4
697.4825,378.5
697.5264,35065.4
697.6693,301.5
697.7398,217
697.9231,19.9
697.9829,339.3
698.181,322.1
698.2272,253.2
698.3608,122.8
698.4449,185.5
698.4673,32.7
698.5298,12218.7
698.6848,122
698.9332,351.7
699.0294,120.3
699.2435,19.2
699.4366,1300.5
699.5323,702.9
700.0339,323.8
700.0632,384.7
700.175,23.7
700.3043,219.4
700.3625,107.7
700.4149,221
700.5061,219.2
700.6238,149
700.674,54.8
700.9856,20.7
701.4075,271.5
701.5603,66648.3
701.9221,241.5
701.9288,256.7
702.2041,184.1
702.3425,2014.5
702.365,242.6
702.5637,25244.9
703.1619,101.3
703.4172,615.4
703.576,131285.3
704.0459,122.5
704.397,467.7
704.5793,51268.6
704.7566,655.1
704.9067,183.8
705.055,3182.5
705.1506,22.9
705.2827,646.3
705.5824,5948.1
705.6634,391.4
705.6894,20
705.7983,187.1
705.8558,172.1
706.065,138.8
706.1269,22.3
706.2117,762.8
706.2499,122.6
706.2864,167.9
706.3333,307
706.382,200
706.5407,1702.2
706.6214,21.3
706.6495,593.2
706.8022,626.4
706.8509,222.4
706.9322,140.5
706.9894,20.6
707.0159,767.7
707.5421,677.9
707.5895,300.5
707.71,106.5
707.8623,99.5
708.4339,92.2
708.9601,207.7
709.2221,194.8
709.2588,22.6
709.4212,608
709.4664,353
710.1584,128.6
710.343,167.5
710.4137,115.7
710.472,268.7
710.6699,29.7
711.063,9794.3
711.0743,12106.5
711.2646,180
711.2839,138.6
711.379,499.2
711.48,691.2
711.5424,10339.1
712.0694,1130.7
712.1859,109.4
712.2766,289.6
712.4006,641.1
712.5413,536.8
712.9788,22.4
713.1711,106.3
713.244,334.1
713.4169,682.2
713.4999,1191.6
714.0763,183.1
714.1259,279.2
714.2321,99.8
714.7136,20.2
714.8886,186
714.9327,233.8
715.2711,247.6
715.2928,591.8
715.3617,600.4
715.5805,243
715.7266,800.7
716.1277,203.8
716.1571,573.4
716.4273,344.6
716.7018,960.7
717.0809,18082.2
717.2,400.9
717.2613,238.8
717.5911,524.8
717.9559,214.2
718.0834,1292.1
718.6945,97.8
718.9178,27.2
719.1953,20.4
719.2455,210.9
719.374,333
719.4626,184.1
719.7646,297.8
719.8883,392.2
720.2639,197.5
720.6439,21.3
721.2427,119.9
721.479,64143.3
721.5832,522.6
721.891,28.2
722.0722,295
722.1935,533.1
722.4822,22710.1
722.716,135.3
722.775,339.5
722.8431,19.2
723.3256,236.5
723.495,5979.3
723.5421,75316.7
723.5713,315.5
723.605,22.1
723.6238,506.8
724.083,19.3
724.1269,18.6
724.2469,561.8
724.5002,1021.9
724.5457,28081.1
724.8571,20.4
724.9573,351.5
725.5012,178.5
725.558,110637.6
725.6044,188.5
726.3573,498.9
726.5059,63.7
726.5611,43751.3
726.9287,205
727.0374,1859.4
727.1164,219.6
727.1393,108.9
727.2044,412
727.2968,103.6
727.564,7716.9
727.9524,212.2
728.5208,3298.8
728.7235,293
729.0496,433.9
729.1465,897.7
729.2874,132.1
729.361,29.5
729.5414,500.9
729.5916,28986.1
729.7714,643.3
730.0448,171.6
730.1062,18.8
730.1622,19.5
730.2894,270.8
730.3177,557.1
730.5389,10362
730.5948,10684.5
731.0787,28.8
731.2456,19.4
731.3291,145.3
731.4451,17.2
731.5425,1897.3
731.6081,12209
731.654,273
731.7392,170
732.0851,20.1
732.1772,399.5
732.3557,147.9
732.4512,950.8
732.5193,393.2
732.5548,34633.9
732.6112,2947.5
733.0438,5073.5
733.0565,6118.7
733.4702,149.5
733.5583,10427.3
733.6152,352.5
733.7139,555.9
734.059,426.2
734.5713,5427.6
734.6263,130.7
734.909,429.8
734.9851,172.6
735.0314,590.8
735.1325,401.4
735.5749,757.1
736.1353,116
736.255,642.8
736.7296,20
736.9509,145.2
737.1984,84.7
737.4527,13378.1
737.5153,182.7
738.069,198.2
738.4554,2759.9
738.7218,445.6
738.9142,975.2
738.9648,869.5
738.9948,284
739.0625,9037.9
739.4616,120.1
739.5159,5379.4
739.9924,126.1
740.0647,718.9
740.089,115.8
740.1358,259.1
740.2654,520.5
740.3132,117.9
740.5186,1952.8
740.5757,932
740.6495,230.1
741.1322,88.7
741.3275,544.1
741.532,11936.2
741.7176,202.4
742.1094,510.6
742.1942,302.9
742.3392,293.2
742.5363,4228.5
742.5755,10766
742.8638,269.7
743.579,2979
743.6293,327
743.8942,103.4
743.9363,113.2
744.2565,129.6
744.4047,131.7
744.4761,152
744.5555,5538.5
744.5916,4729.8
744.8499,34.1
745.4789,45191.2
745.5214,147.1
745.5595,1117.2
745.5951,1191.5
745.625,432.2
745.6437,520.6
745.8015,123.1
746.0636,35.1
746.4825,17551.2
746.5721,2633.7
746.607,2224.8
746.8575,19.6
746.8769,218.4
747.0681,113.3
747.3288,352.5
747.4958,11807.1
747.6221,170
747.7523,207.6
747.78,180.8
747.8848,768
748.4661,628.7
748.4984,2257.9
748.7005,294
748.746,164.6
749.019,758.9
749.1065,568.9
749.2712,865.9
749.4142,494.5
749.51,8882.8
749.5513,238
749.6102,19.8
749.6324,650.4
749.9815,111.4
750.4348,115.2
750.8628,112.4
751.545,258.6
751.5737,18829
751.7918,612.3
751.8589,529.7
751.8823,204.1
752.481,125.7
752.5219,7055.3
752.5767,6960.5
752.823,17.8
753.0796,122.8
753.5237,3300.9
753.5898,5775.5
753.6834,29.2
753.824,19.9
753.9823,583.9
754.1968,22.8
754.2154,289.7
754.5372,27211.4
754.5949,697.7
754.7536,392.3
755.026,3830.5
755.0381,3389.4
755.0624,799.7
755.1495,162.7
755.2842,193.3
755.5405,9975.1
755.5921,357.4
756.1093,134.7
756.1242,458.5
756.1942,149.6
756.4216,456
756.5547,44472.3
757.4446,114
757.4952,545.3
757.5581,17007.7
757.6235,3870.3
757.6715,184.1
758.3259,829.7
758.5705,1133279.4
758.6273,900.1
758.7669,323.9
759.3521,98.8
759.5739,496466.2
759.6391,2239.9
759.8101,104.4
759.9124,22.9
760.2067,415.8
760.4469,438.7
760.5277,123.8
760.5875,289248.2
760.6358,194.6
760.656,327.3
760.9513,606.3
761.0445,3717.9
761.1108,790.2
761.4526,8479.4
761.59,141985.5
762.0261,198.4
762.0698,785.7
762.3986,529.5
762.457,853
762.5457,244.6
762.5928,30317.9
762.7141,305
763.1197,151.1
763.5953,2964.9
763.8212,756.7
764.3016,110.5
764.5574,2286.5
764.962,140.3
765.1597,200.3
765.2706,844.8
765.2834,343.6
765.4837,152.5
765.9324,187.5
766.4943,220.6
766.5369,3721.2
766.5757,36738.8
767.2998,626.8
767.4123,132.3
767.5107,21.3
767.5489,1461.3
767.5789,11383.6
767.734,30.2
767.9467,223.7
768.2883,191.7
768.5338,207.1
768.5548,5501.5
768.5919,31804.5
768.7597,633.7
769.2483,642.3
769.3186,806.6
769.345,106.1
769.4784,17393.7
769.5242,161.3
769.5561,2631.3
769.5946,13901.4
770.0017,278.5
770.3883,459.9
770.4816,3255.8
770.5119,3335
770.573,223
770.6089,2296.7
770.9926,3992
771.1373,390
771.3456,252.9
771.4375,195.4
771.489,284.7
771.5744,1054
771.6088,150.4
771.8561,237.7
771.8928,794.3
771.9293,19.6
772.0262,637.3
772.0736,34.6
772.2787,113.7
772.4094,396.4
772.4396,335.8
772.5864,21429.2
772.858,90.6
773.007,204
773.2705,436.3
773.509,3931.5
773.5902,6826.2
774.0074,105.8
774.2298,730.6
774.6024,2631.9
774.8185,221.4
775.0573,373
775.6025,154.1
776.1948,541.3
776.2558,31.2
776.5209,3487.1
776.9221,168.5
777.009,5917.2
777.3518,480.5
777.5799,553.7
777.8482,108.7
778.0149,488
778.0464,711.2
778.0882,32.3
778.537,33773.3
778.6979,161.7
778.7951,578.1
778.9659,245.5
779.1038,21.1
779.2453,22.2
779.3344,30.4
779.5401,11352.3
779.6359,227.3
780.0805,18.8
780.4971,203.7
780.5526,719788.6
780.5927,1108.2
781.2915,272
781.5193,108.5
781.5561,322047
781.7224,138.9
781.8074,216.2
782.3529,836.8
782.5705,843107.6
782.6987,20.3
782.8751,749
783.0273,4478.7
783.3207,409.3
783.4185,203.3
783.5738,406627
783.6374,1341.2
783.809,383.3
784.5399,324.5
784.5871,364630
785.153,651.6
785.59,180123.1
785.6542,11949.1
786.1286,19.8
786.3528,1158.5
786.5155,364.4
786.6025,332605.5
786.6567,4216
786.8659,249.2
787.1249,453.6
787.2417,527.7
787.6056,154781.5
787.6705,962.2
788.5193,293.2
788.5579,13545.3
788.6057,26708.8
788.622,11615
788.6709,133.7
788.7435,103.4
789.1673,220.2
789.2362,258.2
789.5597,4986.5
789.6228,5125.1
789.7129,536.2
790.0449,1370.9
790.3698,23.3
790.4751,312.6
790.5406,741.6
790.574,18695
790.6218,896.9
790.7995,189.7
790.8619,633.3
790.9163,729.7
791.2831,423.2
791.3394,34.7
791.537,224.3
791.577,5624
792.0108,207.2
792.2975,132.6
792.3585,179
792.4741,350.8
792.5548,1260.9
792.5909,14882.6
792.9823,491.7
793.0672,357.7
793.2406,368.2
793.2881,107.5
793.3636,340.3
793.5939,5077.6
793.6435,427.6
794.018,168.3
794.1737,381.8
794.4178,131.7
794.4725,492.5
794.5111,5532.7
794.5687,10220.4
794.6073,28798
794.9476,180.6
795.095,377.8
795.1209,484.4
795.5733,261.8
795.6106,12253.2
795.7273,104.1
795.9082,166.1
796.2446,357.2
796.2821,576.9
796.5264,108823.7
796.5864,13177.4
796.6245,3438.9
796.8749,147.4
796.894,19.5
796.9446,20.7
797.5299,47785.2
797.5902,4165.7
797.6259,308.7
797.7134,133.3
797.7966,296.3
798.5433,21860.8
798.6023,2032.5
798.8302,578
798.9359,1145.4
798.9976,789.7
799.1765,266.3
799.2152,139.8
799.5469,7515.8
799.6031,476
799.6697,771.8
799.8314,99.8
799.9372,448.5
800.5514,308.8
800.6719,795.5
800.8164,216.6
800.901,930.7
801.0223,19.4
801.2711,283.1
801.3155,30.3
801.5416,915.3
801.8951,34.6
801.9957,458.6
802.0471,776.2
802.1169,128.5
802.1358,16.9
802.2774,144.8
802.537,35792
802.6334,189.3
803.1096,271.6
803.3946,808.8
803.5405,12461.8
804.0557,991.9
804.125,21.2
804.5527,424287.7
805.5559,210001.5
805.7873,349.6
806.5702,500097.4
806.7297,19.5
806.7546,17.7
807.3735,186.1
807.5734,251222.6
807.6362,1071.5
808.4303,100.5
808.5861,238740.5
808.6414,165.9
809.5889,126552.4
809.6543,1979.9
809.7871,171.4
809.9029,353
810.6024,244218.7
810.6586,34.9
810.9943,95.3
811.4902,197.8
811.6054,124180.8
811.6701,18676.7
811.8121,784.4
812.5583,136.3
812.6037,10507.2
812.6199,55681.7
812.6727,8802.5
812.7863,1072.2
812.8556,511.3
812.951,155.4
813.5639,422.8
813.622,32725.3
813.6864,9275.7
813.823,100.1
813.8635,388.1
813.9058,287.2
814.253,401.4
814.5726,1574.4
814.6228,3438.2
814.6891,4498.7
815.1703,103.3
815.3007,202.8
815.5479,167.3
815.5769,1791.5
815.6869,40.4
816.0094,105.1
816.5215,333.3
816.5893,10553.5
816.9431,282.4
816.9832,265.5
817.1655,147.6
817.2802,153.8
817.4949,19.6
817.5911,4064.7
818.0902,119.8
818.2537,359.9
818.5098,3083.5
818.5691,3537.8
818.607,3073.2
818.6501,351.5
819.3407,18.3
819.4379,109.8
819.5723,729.4
819.6101,866
819.861,994.7
819.9942,97.1
820.5266,72878.6
820.5863,4418
820.6252,1069.3
820.641,801.2
821.0767,93.7
821.5298,32851.8
821.5899,1173.5
821.6548,653.6
821.7839,403.1
822.3351,23.3
822.5434,27406.4
822.6309,346.7
822.801,474.1
823.1133,379.5
823.5457,13663.8
823.8831,443.7
824.2498,474.1
824.4641,1963.3
824.5114,104.1
824.5583,18821.3
824.8831,1515.7
825.561,6638.6
825.9307,225.5
826.1281,567.8
826.1464,625
826.4925,20.1
826.5372,1358.6
826.9025,511.5
827.1957,644.5
827.2301,538.1
827.4858,405.6
827.5458,502.6
827.6558,381.2
827.8057,135
828.2683,172.7
828.5527,187584
828.62,119.7
829.1734,388
829.2051,243.2
829.292,279.3
829.4452,650.2
829.5559,91077.1
829.6963,1004.7
829.8253,630.4
829.9521,41
830.0122,526.8
830.075,353.6
830.2711,576.4
830.4485,104.2
830.5703,63211.8
830.7627,398.2
830.7973,440.5
831.5726,30141.4
831.699,294.3
831.8775,877.7
832.5848,113115.6
832.9511,420
832.9737,548.1
833.0142,165.1
833.2673,247.8
833.3562,867.3
833.5877,58262
833.6518,5400.8
833.9548,153.6
834.0698,857.1
834.2025,528.2
834.5161,532.7
834.602,86413.4
834.6581,549
835.0309,385.1
835.062,20.4
835.1658,271.6
835.1759,235.4
835.2437,130
835.4257,499.9
835.4971,216.5
835.6052,40768.2
835.6459,127.8
835.6684,1292.9
835.756,178.8
835.7786,168.7
835.8271,476.1
836.6046,2156.9
836.6206,4887.3
836.6629,156.8
837.2887,413.9
837.6219,2203.2
837.7343,253
837.7983,162.5
837.9633,830.4
838.1632,171.3
838.3329,329.7
838.5122,838
838.6366,434.5
838.8697,349.2
839.2802,1008.9
839.9825,53.6
840.014,153.3
840.0639,611.9
840.1562,105.1
840.4152,168.3
840.5159,626.5
840.7621,287.3
840.775,347.7
840.8046,870.7
841.8504,252.1
842.1229,18.6
842.5662,705
842.8946,112.4
843.0601,27.1
843.5135,165.6
843.8634,984.3
844.0875,505.5
844.3612,622
844.5266,28138.9
844.611,605.6
844.6793,202.7
844.8856,383
845.0227,340.5
845.159,18.5
845.2446,411.8
845.4757,244.5
845.5298,13331.9
845.6042,20
845.6873,1130.3
845.8686,252.7
846.5432,4227.2
846.676,128
846.7655,363.6
846.798,514.3
846.9646,297.4
847.2134,824.3
847.5465,797.8
847.858,23.5
848.0734,220.1
848.1558,149.7
848.195,233
848.5121,883.6
848.5576,15905.3
848.6243,557.6
848.8453,20.1
848.8892,658.1
849.154,301.4
849.231,582.7
849.2651,475.4
849.3669,165.6
849.5611,2852.5
849.8432,316.2
849.8557,310.5
850.0552,107
850.1674,364.8
850.5737,876
850.9302,205.7
851.1219,171.7
851.5751,100.1
852.0219,336.3
852.0614,24.9
852.1195,197.9
852.1643,155.3
852.2374,126.1
852.307,571.7
852.4699,209.7
852.5547,819
852.7989,766.1
852.8108,769.4
853.1386,258.4
853.2614,101.8
853.8998,106.6
854.0927,528.2
854.5675,1716.1
855.3871,445.8
855.7385,168.9
855.8033,513.4
856.5843,21638.8
856.8119,136.5
856.9825,381.5
857.0437,143
857.5875,9526.5
857.8009,263.2
858.2337,121.6
858.4104,959.2
858.6042,811.1
859.0393,650.4
859.2976,29.8
860.3261,303.2
860.7074,357
860.8112,261.5
861.0276,92.4
861.0585,367.8
861.6971,231.7
862.2636,353.8
862.5115,380
862.7154,543.9
863.5222,511.1
863.818,159.8
863.9551,17.8
863.9841,662.7
864.1748,354.2
864.2613,581.8
864.5245,506.3
864.557,26.9
864.5869,210.7
864.7595,223.3
864.8004,274
864.8086,273
865.2791,297
865.3994,178.9
865.889,480
866.2078,143.5
866.2657,1061.5
866.7217,537.5
866.8633,216.6
867.0358,1148.6
867.2484,754.2
867.3578,52.4
867.3885,26.7
867.5208,258.5
867.7578,76.8
868.0151,155.6
868.2205,959.6
868.413,549.7
868.7214,400.7
868.8877,254
869.3055,261.2
869.7421,283.5
869.8828,214.7
869.9366,19.6
870.0475,2613.4
870.0852,298.8
870.1524,918.2
870.1847,334.4
870.2392,3149.2
870.2654,4217
870.2811,4841.9
870.3311,3428.6
870.3615,1714.9
870.4065,1229
870.4428,2480.3
870.4993,776.4
870.5698,405.9
870.7332,592.8
871.5235,532
871.7843,295.3
871.8143,228.5
871.9296,27
871.9797,317.5
872.3359,100.6
872.5454,1286.8
873.0612,122.7
873.1982,113.2
873.882,21.3
874.0335,190.3
874.155,283.9
874.3847,210.7
874.5494,166
874.8216,929.4
874.9229,201.6
875.0888,19.5
875.4459,286
876.4162,110.9
877.5302,302
877.758,226.6
878.34,174.3
878.4567,297.3
878.6888,855.1
879.4569,851.1
880.16,33.1
880.2643,409.4
881.0532,89.7
881.6369,28.7
882.5349,452.7
882.6317,369.4
883.396,707.9
883.7705,878.3
883.8263,788.5
883.9637,180.2
885.3157,801.1
885.9382,117.6
886.1901,696.9
886.5741,133.5
886.7932,250.2
887.0243,132.9
887.1476,30
887.1755,40.8
887.2994,35.6
887.4586,141.7
887.7973,132
888.1485,20.3
888.5019,21.6
888.7226,20.4
889.0044,101.4
889.1585,191.2
889.6345,314.1
890.002,360.6
890.0179,361.3
890.1815,222.6
890.5215,515.2
890.8678,21.3
890.9361,32.6
891.553,117.1
891.5795,422.9
891.8823,23
891.9506,206.5
892.1248,166.1
893.6251,393.3
894.3815,549
895.5931,765.9
895.7174,114.3
896.0003,183
896.0267,688
896.5453,834.8
897.026,219.8
897.2819,21.9
897.4097,971
897.5628,114.4
897.8885,184
898.2085,389.7
898.4771,137.6
898.8727,866.3
899.3159,603
899.3931,460.5
899.5955,30.9
900.3207,120.2
900.8309,157.6
901.1225,295.2
901.4687,32
902.1895,174.4
902.2408,371.3
902.3789,343.6
903.0412,145.3
903.2074,295.2
903.2978,148.3
903.3492,128.1
904.2881,210.1
904.5131,19.3
904.539,22.8
904.8244,575
905.2801,923.1
905.4361,102.9
906.1182,100.4
907.2441,127.1
907.3731,1150
907.5033,726.9
907.5213,585.9
907.6038,105.7
907.944,425.3
908.04,354.4
908.0646,562.7
908.8232,155.8
908.8563,222.1
909.1328,319.6
910.0781,886.5
910.7248,164
910.9056,529.5
911.0168,494
911.3533,378.3
911.3976,174.6
911.7536,102.4
911.8067,1061.2
911.9655,311.6
912.2525,19.5
912.3928,224.2
912.4398,239.4
912.468,122
912.6368,446.4
912.6996,1053.7
912.9872,383.9
913.1664,180.6
913.4012,646.5
913.4455,22.5
913.6879,146.8
913.8033,23.1
913.9357,437.1
914.3819,341.2
914.4218,458.1
915.1748,969.5
916.0789,185.2
916.2906,857.4
916.681,30.1
917.1626,132.5
917.284,109.7
917.5161,863.8
917.5816,349.7
917.6659,123.6
918.0691,179.8
918.1885,396.5
918.3957,525.5
918.5944,129.3
918.7418,504.7
919.0191,402.7
919.3538,208.9
919.5688,190
920.001,339.8
920.2014,247.8
920.3087,729.3
920.3226,538.2
920.5701,22.1
921.4348,19.9
922.3117,341.7
922.6128,117.3
923.0236,481.4
923.0501,741.4
923.1344,143.6
923.2469,200.5
923.8158,531.1
924.2651,365
924.4727,113
925.6639,22.8
925.7657,498.9
925.9811,1101.7
926.0996,172.1
928.0476,297.6
928.9655,135.9
929.8106,111
929.9865,352.9
930.5287,202.7
931.4125,191.2
931.5284,22.1
931.7896,487.4
931.843,21.2
932.1443,1368.2
932.1882,115.4
932.51,111.8
932.5699,64
933.2416,99.5
933.3586,35.4
933.6306,1776.6
933.8724,41.5
934.4587,120
934.4973,133.3
934.9926,515.3
935.1343,953
935.3415,629.4
935.4799,191.9
935.7191,910.1
936.1288,158.7
937.1296,65.2
937.2085,130.3
937.7369,118.9
938.1485,206.6
938.3303,28
938.7551,456.8
939.1251,159.6
939.6316,527.8
939.6924,1736
939.7659,137.3
941.5014,104.8
941.5347,539.9
941.8416,194.4
942.6546,827.8
943.074,257.3
943.1239,276.1
943.2277,733.7
944.3172,19.4
944.9687,26
945.2202,276.2
945.56,26.1
945.8739,408.3
946.1093,145.5
946.1856,514.2
946.3474,257.6
946.5418,315.9
946.6053,101.7
946.8197,92.8
946.9674,560.9
947.1015,218.7
947.3259,499.3
947.551,115.7
947.9643,122.4
948.0812,683
948.1077,335.8
948.3683,635
948.3978,214.5
948.6683,1130
949.2168,381.2
949.4379,351.9
949.8979,139.4
950.0025,239.4
950.083,509.6
950.1553,349.6
951.0645,1257.9
951.6517,126.2
952.1244,108.1
952.3516,540.1
952.9561,175.7
953.021,163.5
953.0551,585.1
953.1202,599.7
953.739,178
953.7973,468.9
954.2463,1043.9
954.3551,524.3
954.9584,204.9
955.2045,625.1
955.5106,373.3
955.5874,1540.4
955.7047,224.2
956.0579,22.8
956.1863,545
956.3115,1079.6
956.3925,292.2
957.0448,201.2
957.1125,467
957.2215,1908.6
957.5102,29.9
957.5544,160.6
957.6213,18.4
958.5992,606.4
958.6453,1115.9
959.5664,348.1
959.7385,1209.4
961.1627,65.5
961.4995,19.1
961.9497,267.5
962.2084,20.5
962.2733,472.9
963.2918,399.7
963.4452,25.8
964.0662,1104.8
964.5173,20.1
964.9939,562.9
965.129,335
965.1717,147.3
965.2099,429.3
965.3096,98.7
965.4691,129.9
965.6336,199.6
965.7234,18.3
966.1894,567.8
966.2158,109.1
966.6049,155.4
967.221,20.7
967.5093,97.7
967.5923,1074.3
967.8201,33.9
967.854,124.5
967.8996,1090.4
967.9452,160.4
968.1548,122.3
968.3876,358.3
968.8527,108.3
969.2134,19
969.9632,230.1
970.129,324.5
970.1757,115.3
970.7032,289.3
970.8559,494.1
971.2711,32.1
971.3388,210.6
971.7763,303.4
971.8314,778.1
972.0015,129.6
972.1209,147.7
972.2924,451
972.6538,113.9
972.7657,133.8
972.8684,673.7
972.9558,357.3
973.9883,414
974.2178,137.5
974.369,211
974.4769,532.2
975.0626,113.6
975.1647,112.1
975.549,506.6
976.0185,195.5
976.1043,468.9
976.1448,146.5
976.6566,253.1
976.9172,136
977.2512,269.5
977.8553,1129.3
978.0614,822.2
978.2161,313.4
978.6181,802.2
979.1662,359
979.3634,1085.7
979.9158,166
979.985,118.1
980.1662,41.2
980.2564,757.9
980.3581,649.6
981.7442,463.4
981.8263,433.8
982.103,18.1
982.3305,91.9
982.6538,413.2
982.7847,1424.5
983.9084,337.7
984.2587,426.9
984.3999,325.4
984.7955,332.4
985.3735,1103.1
985.4757,295.4
985.5411,93.9
985.942,24.9
986.0026,405.2
986.1111,1601.5
986.208,136.8
986.4071,586
986.6002,20.7
986.7692,125.5
987.0437,318
987.1384,503.6
987.1948,150.6
987.3956,297.1
987.4781,148.1
987.6351,837.8
987.6718,365.2
987.9378,493.7
988.8561,1070.3
989.3857,654.6
989.7455,946.2
990.8263,160.3
991.1605,90.1
991.8223,171.5
992.1405,393.5
992.3705,383
992.8894,129.4
992.9311,1153.4
993.1353,147.2
993.3572,580
993.6417,836.1
993.7322,1077.3
993.8785,1927.9
993.9903,136.8
994.2667,243.6
994.527,106.8
994.6935,17.7
994.8371,283.5
995.0502,576.9
996.9954,109.9
997.5813,224.6
997.9623,179.6
998.0015,238.3
998.1503,1484.6
998.2817,433.3
998.5645,92.2
998.6191,550.9
998.86,689.2
998.9254,18.2
999.4019,17.8
999.6023,130.6
999.7504,392.4
999.9754,374.4
