SPECTRUM - MS,
788.RAW,
FTMS + p ESI Full ms [50.00-1000.00],
Scan #: 1-40,
RT: 0.01-1.97,
AV: 40,
m/z,Intensity

50.0032,129.4
50.0073,41
50.0125,19.1
50.0279,376.9
50.0287,14.9
50.0405,208.1
50.0429,107.1
50.0477,148.5
50.061,30.7
50.0623,141.7
50.075,18.2
50.0954,469.4
50.104,416.9
50.1095,329.9
50.1125,15.1
50.1148,240.1
50.1329,197.8
50.1408,16.7
50.1489,138.5
50.1619,607.6
50.1713,15.2
50.1739,17.4
50.1791,17.9
50.1943,646.8
50.1986,496.2
50.1996,17.2
50.2005,21.3
50.2185,16.5
50.2435,626.8
50.2638,151.5
50.2684,363.3
50.2778,34.6
50.284,23.3
50.2958,360.7
50.307,146.5
50.3198,635.3
50.3257,501.5
50.334,141.5
50.3341,133
50.3472,16.2
50.3477,18
50.3657,139.2
50.367,145
50.3712,107.2
50.3757,102.5
50.383,338.2
50.3935,375.2
50.3945,190.6
50.3995,459.2
50.4141,124.9
50.4307,119
50.4442,173.5
50.4505,15.7
50.4761,225.8
50.4777,278.4
50.4846,551.6
50.5016,110.8
50.5111,178.2
50.522,662.4
50.5259,115.8
50.5329,287.5
50.5455,98.5
50.5593,349.3
50.5638,16.3
50.5655,16.1
50.5685,124.2
50.5864,197.8
50.5956,168.1
50.61,324.4
50.6361,110.8
50.6508,381.7
50.663,14.8
50.6703,143.1
50.6909,110.5
50.7231,551
50.7348,367.4
50.7567,16.3
50.7603,18.1
50.804,30.7
50.8208,80.2
50.8399,259
50.8463,288
50.8668,238.7
50.8741,157.1
50.8907,125.2
50.9014,445.3
50.9046,213.5
50.9164,16.3
50.9197,462.8
50.9456,216.3
50.9621,103.7
50.9715,342.8
50.9834,17.4
50.9977,121.5
51.0009,18.3
51.0184,152.7
51.0248,97
51.0442,215.6
51.0489,100.5
51.0569,498.2
51.06,636
51.0607,226.1
51.069,493.5
51.0737,155.8
51.0914,95.5
51.1255,16.9
51.1383,17
51.1474,16.6
51.1489,143.3
51.1509,192.6
51.1639,16.8
51.1657,167.8
51.1758,15.2
51.1807,260.3
51.2046,253.8
51.2149,17.5
51.2232,35.2
51.2271,250.2
51.2273,343.2
51.2273,343.8
51.2279,293.7
51.2515,555.1
51.2587,268.4
51.2617,181.9
51.2642,18
51.2649,139
51.2658,193.6
51.2839,211.8
51.289,539.4
51.2971,20.7
51.2988,15.1
51.2989,15.9
51.3013,90.9
51.3206,20.1
51.3375,217.8
51.3389,328.2
51.3415,503.7
51.3508,95.5
51.3555,16.9
51.37,428.5
51.3734,144.2
51.4027,328.8
51.4135,34.4
51.4234,108.9
51.4326,334.2
51.4489,270.1
51.4511,256.9
51.4705,268.4
51.4716,160.8
51.4889,506.5
51.4973,136.2
51.4981,520.4
51.499,16.3
51.507,132.3
51.5088,133.2
51.5108,104.7
51.5296,213.1
51.5559,32.4
51.5603,164.5
51.5641,222
51.5783,95.4
51.6086,493
51.6094,151.2
51.6208,505
51.6312,113.4
51.6432,91.1
51.6629,81
51.6793,494.2
51.6939,279.8
51.7005,406.4
51.7505,349.5
51.7575,227.6
51.7581,16.4
51.7989,17.4
51.819,16.7
51.8333,651.1
51.8516,109.1
51.8565,101.4
51.9094,126.8
51.9163,466.8
51.9322,260.4
51.9375,102.8
51.9401,92.8
51.9791,22.3
51.9797,22.4
52.0054,19.2
52.008,322.3
52.0174,85.1
52.0214,353
52.0235,15.9
52.024,219.6
52.0395,368.9
52.0442,20.5
52.0479,85.6
52.0648,341.7
52.0697,17.2
52.0833,200.2
52.0892,102
52.0953,247.3
52.0973,227.4
52.1227,16.5
52.1285,239.9
52.14,175.4
52.1433,142.7
52.1553,265
52.1598,15.9
52.1799,279.2
52.1832,95.8
52.1849,266.3
52.1984,30.5
52.206,157.1
52.2174,129.8
52.222,394.5
52.2485,506.2
52.2563,175.9
52.2592,497.8
52.2595,424
52.2658,83
52.2806,136.7
52.2964,434
52.298,258.8
52.3016,16.4
52.303,336.5
52.3084,20
52.3103,83.3
52.3168,170.6
52.3339,179.7
52.336,15.6
52.344,92.8
52.3478,15.4
52.3589,143.7
52.3705,15.6
52.3721,206.5
52.3753,229.3
52.3853,713.9
52.4074,624.7
52.4397,135.5
52.4478,140.1
52.4594,551.9
52.4612,97.5
52.4618,72.9
52.4668,16.3
52.4872,481.3
52.4934,81.9
52.5156,201
52.546,187.9
52.5477,505.6
52.5532,458.4
52.5557,121.2
52.5659,120.8
52.5716,429.5
52.5904,79.1
52.6004,335.9
52.6332,17.3
52.6627,135.9
52.6724,524.4
52.6869,102.5
52.6899,93.6
52.6907,206.9
52.6962,32.2
52.698,286.2
52.7027,80.5
52.7086,268.1
52.7134,132.3
52.7353,137
52.7473,472.3
52.7594,16.3
52.7848,235.8
52.786,979.6
52.7867,899.5
52.7871,1045.2
52.7879,713
52.7882,916.8
52.7884,1268.9
52.7892,633.9
52.7896,1513.4
52.7901,1139
52.7907,728
52.7913,861.4
52.7915,728.7
52.7976,420.1
52.7993,485.8
52.8463,184.1
52.867,127.6
52.8741,344.9
52.8785,31.9
52.8814,234.8
52.8848,14.8
52.888,125.3
52.8903,17.3
52.9037,17.1
52.9091,398.8
52.9111,406.2
52.9382,90
52.9525,462.3
52.9662,27.2
52.9743,248.7
52.9781,556.7
52.9867,156.8
53.0061,134
53.0204,259.6
53.0234,101.3
53.0318,521
53.0449,20
53.0797,244
53.0954,136.6
53.0966,726.2
53.0974,404.4
53.1048,204.6
53.1296,388.5
53.1309,339.8
53.1655,93.5
53.1707,20.9
53.2062,87.5
53.2093,132.6
53.2119,99.4
53.2189,415.4
53.2202,471.8
53.2222,110.1
53.2329,207.2
53.2382,279
53.2397,127.8
53.2424,17.8
53.2472,16.3
53.255,29.2
53.2608,103.2
53.2645,30.6
53.2714,394.9
53.2772,174.3
53.282,650.2
53.3051,18.9
53.3205,161.7
53.3285,124.7
53.334,129.8
53.3612,233.9
53.3807,128.9
53.3958,83.3
53.4015,88.7
53.4076,72.8
53.4168,98.5
53.4212,318.8
53.4221,102.1
53.4264,91.6
53.4321,319.3
53.4456,100.7
53.4583,122.8
53.4716,203.8
53.483,349.2
53.4877,122.2
53.4938,414.1
53.4944,15.8
53.4952,703.4
53.501,574.8
53.5062,237.2
53.5113,241.3
53.517,476.2
53.5394,512.8
53.5605,70.9
53.6013,413.1
53.6136,19.5
53.6192,540.4
53.621,110.4
53.6218,375.1
53.6324,173.3
53.6573,236.9
53.6624,206.4
53.676,267.9
53.6799,275
53.6997,336.2
53.7309,131.1
53.7382,512.6
53.7575,84.8
53.768,360.6
53.7732,546
53.7797,178.4
53.787,132.8
53.8089,90.8
53.8116,104.4
53.8398,179.6
53.8532,365.1
53.8559,83
53.8765,738.4
53.8788,257.1
53.8897,129.6
53.8947,490.3
53.91,307.1
53.9112,220
53.9137,516.3
53.9197,133.3
53.9379,272.8
53.9386,155
53.9494,502.6
53.9578,126.8
53.9601,281.7
53.9691,240.4
53.9777,457.2
53.9891,104.1
54.0127,232.4
54.0262,77.1
54.0461,577.2
54.047,507
54.0526,412.5
54.0604,256.1
54.0731,306.6
54.0746,307.2
54.0876,652.7
54.0946,141.4
54.0968,302.4
54.0999,381.3
54.1048,330.7
54.1092,428.9
54.1166,491.2
54.1195,148.5
54.1222,275.6
54.1322,557.9
54.1373,16.8
54.1399,237
54.1491,81.4
54.1659,143.3
54.1904,135
54.1976,311.7
54.2052,29
54.2294,232.3
54.2353,500.9
54.2488,707.5
54.2578,241.9
54.2732,257.9
54.2993,140.4
54.301,18.8
54.3137,239.3
54.3268,267
54.3307,426.5
54.3651,596.3
54.3821,420.1
54.3836,264.6
54.3951,399.1
54.3976,18
54.4017,595
54.409,82.2
54.414,90.6
54.4375,182.3
54.4396,764.6
54.4408,92.9
54.4483,663.1
54.4516,261.6
54.4574,164.8
54.4711,412.5
54.4757,154.8
54.4807,84
54.4846,432
54.499,419.7
54.5101,245.1
54.5588,250.5
54.5605,16
54.5654,571.8
54.5714,16.1
54.5841,294.5
54.5925,614.5
54.6135,152.6
54.6294,404.3
54.6326,31.6
54.6389,472.2
54.6528,170.7
54.6718,348.5
54.6951,115.9
54.7047,123.9
54.7112,284.5
54.7173,222.2
54.7207,35.2
54.7272,139.5
54.7386,297.5
54.7506,177.8
54.7766,17.2
54.7779,113.5
54.7833,261.8
54.787,236.3
54.8281,151.7
54.8313,123.5
54.8484,130.8
54.8504,81.5
54.8583,327.4
54.8628,134.2
54.8651,174.3
54.8776,267.2
54.8793,17.4
54.8935,21.4
54.9003,101
54.901,583.2
54.9151,109.3
54.9194,16.1
54.9224,149.4
54.9228,292
54.9253,585.9
54.9316,80.7
54.9328,43.5
54.9433,462.6
54.944,684.6
54.9521,108.9
54.9661,123.6
54.9789,14.6
54.9937,334.1
55.0041,575
55.0342,17.8
55.0449,141.3
55.0762,83.4
55.079,15.5
55.0815,30.7
55.0891,635
55.1034,533.2
55.1141,221.7
55.1182,19.1
55.1603,221.2
55.1621,372.1
55.1659,89.9
55.1741,17.8
55.1775,293.9
55.1896,289.8
55.1968,23.3
55.2204,101.4
55.2277,422.9
55.2544,527.4
55.2579,188.8
55.2589,17.5
55.2643,519.6
55.2868,16.6
55.2994,315.6
55.3146,439.9
55.3232,222
55.3629,515.4
55.3679,116.2
55.3697,400.3
55.3728,114.7
55.3756,477.2
55.3886,268.5
55.3945,490.4
55.4078,91.9
55.41,665
55.4199,535
55.4401,249.9
55.4502,99.3
55.4559,486
55.4667,555.9
55.4946,454.7
55.5276,525.8
55.5373,226.2
55.5546,97.1
55.5636,164
55.5733,473
55.5835,661
55.5997,287.8
55.6184,94
55.6372,139.2
55.6401,19.2
55.6454,140.7
55.6817,152
55.689,139.3
55.6972,248.7
55.7029,132.9
55.7087,140.6
55.7095,183.9
55.7383,140.6
55.7459,343.7
55.7584,419.3
55.7677,285.2
55.7693,368.1
55.7916,309
55.8183,474.4
55.8208,141.5
55.8224,86.8
55.84,17
55.8425,105.7
55.8584,16.9
55.8643,161.3
55.9063,395
55.9232,15
55.9435,157.9
55.9646,311.9
55.9688,265.7
55.9819,237.5
56.0087,218.9
56.0123,281.9
56.0268,90.1
56.0385,266.5
56.0491,115.9
56.0678,141.3
56.0829,274.9
56.0864,243.8
56.1077,217.5
56.1101,261.2
56.119,417.8
56.1222,243.9
56.123,83.7
56.1255,121.4
56.147,198.9
56.1877,457.8
56.189,508.2
56.2027,80.9
56.2316,15.1
56.2383,18.9
56.2388,242.6
56.2413,496
56.2561,309.2
56.2569,675.7
56.271,73.4
56.2723,206.4
56.2734,18.7
56.2791,502.4
56.2829,291.7
56.2934,16.2
56.3127,17.6
56.3382,90.9
56.3601,95.1
56.3983,296.4
56.4184,87.1
56.4211,93.2
56.4292,110.4
56.4357,92
56.4432,143
56.4561,356.8
56.4827,498.1
56.4917,17
56.4963,279.6
56.5084,87.7
56.5116,37.2
56.5207,156.9
56.5333,80.5
56.539,15
56.5549,239.1
56.588,689.9
56.5956,423.1
56.6052,138.2
56.6855,80
56.7011,318.4
56.7239,707.4
56.7364,485
56.7663,140.4
56.7767,393.8
56.7775,144
56.7887,16
56.7918,335.1
56.7923,251.3
56.8301,312.1
56.8342,303.4
56.845,16.8
56.8472,279
56.9348,268.1
56.9684,207
56.9747,267.9
56.9827,283.9
56.9836,103.2
56.9857,109
57.0261,316.2
57.0391,256.6
57.0453,357.1
57.0462,370.5
57.0673,173.7
57.0748,135.6
57.0855,162.6
57.0869,91.3
57.0934,19.8
57.1154,16.7
57.1173,19.5
57.1504,130.1
57.1516,420.9
57.1719,622.8
57.1737,611.2
57.1771,567.7
57.1877,81
57.1935,283.7
57.208,19.2
57.2194,15.7
57.2327,110.8
57.2524,177.4
57.2714,181.9
57.2856,16.2
57.3012,78.1
57.306,357.8
57.3105,100.9
57.3219,126
57.326,207.5
57.3392,464.6
57.3569,220.8
57.3622,196.7
57.3864,141.3
57.4025,241.5
57.4105,307.3
57.4205,154.1
57.4499,16.2
57.453,417.3
57.456,247.3
57.4637,33.8
57.4675,205.3
57.4684,235.2
57.486,32.7
57.4951,126
57.4994,346.7
57.5233,158.4
57.5299,187.1
57.5466,264.8
57.5697,150.4
57.5833,200.8
57.5976,511.3
57.5993,324.6
57.6108,269.2
57.6156,284.1
57.6281,14.6
57.637,102.7
57.646,498.3
57.6523,142
57.6576,90.9
57.6676,141.1
57.7127,18.2
57.7226,346.3
57.7378,149.7
57.74,322.4
57.7417,71.1
57.7448,291.1
57.7487,293.6
57.7667,100.5
57.7697,246.1
57.7885,142.8
57.811,412.6
57.8237,75.9
57.8333,377.2
57.8361,263
57.8743,477
57.8958,20.5
57.8994,298.5
57.9114,151.5
57.9171,37.6
57.9246,176.6
57.9468,374.2
57.9628,355.1
57.9725,74.8
57.9763,147.2
57.978,150.9
57.9799,481.4
57.9892,19.7
57.9931,310
58.0137,145.5
58.0148,98.6
58.0185,18.5
58.0303,180.8
58.0558,96.7
58.0565,348.2
58.0591,321.4
58.0619,393.5
58.0696,472.2
58.0803,129.2
58.0829,147
58.1063,122.3
58.1128,298.5
58.1159,355.8
58.1624,162.4
58.1686,205.1
58.1727,152.6
58.1923,247.2
58.2005,464.6
58.2234,590.7
58.2249,215.3
58.2272,124.7
58.2278,248.3
58.2545,33.9
58.2553,76.4
58.2678,442.5
58.2757,183.8
58.2772,222.2
58.2875,223.1
58.2902,580.6
58.2941,100.7
58.3054,88.9
58.3174,109.7
58.3188,235.2
58.3228,15.3
58.3418,338.1
58.3498,118
58.3694,104.7
58.376,352.2
58.3882,514
58.3931,635.3
58.3974,281.9
58.4036,274.6
58.4054,133.2
58.4073,262.4
58.4096,169.1
58.4118,495
58.4296,258
58.4315,107.5
58.4319,163.5
58.4411,98.1
58.4559,251.8
58.4594,525.6
58.4627,83.1
58.4666,17.7
58.4709,70.7
58.4795,76.9
58.4904,116.3
58.5017,663.1
58.5185,272.8
58.5404,466.6
58.5435,291.5
58.5506,539.3
58.5806,38.8
58.584,146.1
58.5886,331.9
58.6047,141.1
58.6075,82.6
58.6129,95.5
58.6537,17.5
58.6767,158.6
58.682,466.3
58.6831,455.2
58.6857,201
58.6898,216.5
58.7024,441.4
58.7141,86.6
58.7157,31.9
58.7178,877.1
58.7205,77
58.7236,160.1
58.7273,82.5
58.7431,412.2
58.7481,79.5
58.7668,93.4
58.7685,530.2
58.7798,66.7
58.7877,111.7
58.7923,246.7
58.7972,271.6
58.8279,202.7
58.8303,15.6
58.8346,376.2
58.8353,308.7
58.8552,15.7
58.8592,649.1
58.8601,375.6
58.8705,409.8
58.8792,293.5
58.8863,213.3
58.8909,196.8
58.8977,95.7
58.9018,150.5
58.9049,158
58.9129,444.9
58.9209,343.5
58.922,79.3
58.9306,355.9
58.9317,117.7
58.9485,291.6
58.9678,345.6
58.984,195.1
59.0003,372.3
59.016,16.8
59.0222,575.5
59.025,251
59.0377,270.4
59.0465,309.5
59.0469,97.9
59.0512,92.3
59.0672,154.4
59.0683,482.4
59.0698,104.5
59.0706,228.4
59.0777,210.6
59.0888,18
59.0976,364.5
59.1265,81.8
59.1297,373.9
59.152,345.8
59.1643,415
59.1756,79.9
59.188,321.3
59.2039,18.7
59.2133,170.3
59.2183,266
59.2267,225.7
59.2353,218.5
59.2836,169.5
59.2861,265.2
59.2935,99.5
59.2975,340.9
59.3016,265.6
59.3265,33
59.3498,369.8
59.3522,228.9
59.3574,17.6
59.4419,163.2
59.4435,250.4
59.4567,444.1
59.4592,18.2
59.4679,453.9
59.4721,233.9
59.4724,80.8
59.4812,92.3
59.4875,127.2
59.5063,405.9
59.5158,333
59.5209,127
59.5289,33.3
59.5339,170.1
59.5364,130.5
59.5523,504.5
59.5538,21.5
59.5574,113.9
59.5596,116.4
59.5685,175.4
59.5706,435
59.5722,153.4
59.5765,15.6
59.5821,128.6
59.6045,374.5
59.6618,19.5
59.6678,356.8
59.67,104
59.7043,16.8
59.7251,253.1
59.7258,157.5
59.7457,75.3
59.7614,110.4
59.7932,237.2
59.794,649.8
59.799,15.4
59.8218,221
59.8231,337.5
59.836,377.3
59.8363,140.3
59.8375,583.3
59.8425,201.6
59.8589,93.8
59.8683,257.4
59.879,20.1
59.9198,101
59.9312,575.7
59.9426,401.2
59.9456,542.5
59.9519,218.2
59.9703,287.4
59.9755,223.5
60.0105,374.2
60.014,86.6
60.0187,592.6
60.0362,35.8
60.0519,306.9
60.0796,141
60.0819,18
60.0838,493.9
60.0877,17.3
60.1072,16
60.1215,165.4
60.1224,178
60.1351,136.4
60.1464,84.9
60.1623,146.8
60.165,283.8
60.1678,103.5
60.1692,31.2
60.1812,159.9
60.1836,136.1
60.1846,142.6
60.1919,227.6
60.2005,222.7
60.203,212.4
60.2113,191
60.2187,461.5
60.2255,227.8
60.2331,436.4
60.2342,170.5
60.2507,359.2
60.2558,154.1
60.2623,699.8
60.2645,226.5
60.303,152.4
60.3084,20.1
60.3106,547.4
60.3124,16.1
60.3154,75.7
60.3249,217.2
60.3356,142.9
60.3576,319.9
60.361,837.4
60.3616,83.9
60.3638,317.5
60.3838,417.7
60.4068,728.5
60.4182,532.6
60.4375,190
60.4415,267.1
60.4449,177.7
60.4877,146.6
60.5092,516.4
60.5194,29.5
60.5714,97.3
60.5841,84.5
60.5983,86.5
60.6023,463.9
60.6052,183.2
60.6082,277.9
60.6101,261.9
60.629,231.8
60.6554,347.3
60.6843,114.5
60.7148,19.1
60.7453,457.5
60.7463,462.4
60.7706,318.2
60.7806,16.6
60.7952,173.5
60.8106,235.3
60.8114,149.7
60.8186,85.3
60.8272,464.7
60.8316,536.7
60.8416,168.4
60.8531,677.6
60.8564,115.6
60.866,149.5
60.882,635
60.8861,83.3
60.8874,92.4
60.8923,18.9
60.8948,227.3
60.8955,516.2
60.9014,349.2
60.9062,29.7
60.908,372
60.9119,103.1
60.9503,533.4
60.9598,193.2
60.977,113
60.9924,305.5
60.9955,17.5
61.0048,131.6
61.0224,215.3
61.0519,171.5
61.0738,385.5
61.0742,83.7
61.0882,273.7
61.091,258.5
61.1027,150.5
61.1268,332.8
61.1283,369.9
61.135,344.9
61.1358,217.5
61.1389,133.8
61.1718,94.4
61.2106,165.4
61.2167,162.4
61.2299,411.3
61.231,510.8
61.2562,397.3
61.2663,229.5
61.2792,98.3
61.3056,302.4
61.3406,269.8
61.3523,395.6
61.4035,105.7
61.4044,342.3
61.4379,182
61.4452,361.8
61.4552,135.2
61.4581,174.6
61.4615,33.7
61.4656,128.1
61.4694,547
61.4777,164.3
61.5029,264.3
61.506,89.5
61.5094,356.1
61.5262,824.4
61.5271,352.8
61.5476,19.4
61.5686,349.3
61.5693,298.5
61.5821,97.9
61.6554,185.9
61.6664,506
61.6764,201.4
61.6815,157.5
61.6821,18.2
61.6909,251.2
61.6965,419.9
61.7021,17.9
61.7204,599
61.7314,19.8
61.7542,18.5
61.767,224.4
61.7804,310.7
61.7833,19.8
61.7899,340.9
61.7927,77.1
61.7983,731.7
61.8002,245.1
61.8023,287.5
61.8122,17.3
61.8147,233.7
61.8347,686.7
61.8434,483
61.8627,34
61.8632,17.8
61.8643,258
61.8743,809.1
61.8947,18.5
61.9145,71.5
61.9238,23.7
61.928,461.6
61.9373,282.3
61.9445,37.4
61.9492,91.2
61.9507,142
61.9567,209
61.9593,18.8
61.9627,508.5
61.9692,278.8
61.9768,78.5
61.9813,85.4
61.9974,352
62.0198,124.5
62.0209,539.2
62.0244,418.4
62.0332,228.3
62.0527,108
62.0736,177.6
62.1233,572.1
62.1255,142.7
62.1441,105.1
62.1636,375.2
62.223,304.4
62.2281,627.6
62.2397,17.7
62.25,144
62.2664,326.8
62.2675,121.1
62.2716,81.3
62.2771,292.7
62.2926,90.4
62.3028,20.5
62.3278,283.2
62.3289,287
62.3371,104.4
62.3418,407.9
62.379,107.4
62.3884,510.6
62.3949,430
62.3998,722
62.4021,21.2
62.4051,356.8
62.4115,282.5
62.4156,445.5
62.4208,1029.7
62.4356,81.7
62.4535,148.1
62.4545,382.4
62.4612,222.9
62.4657,164.9
62.4717,118.3
62.4778,160.8
62.4948,276.3
62.4952,177.6
62.513,116.7
62.5247,84.5
62.5263,498.9
62.5302,330
62.5351,313.6
62.5369,138.6
62.5378,19.1
62.5392,244.5
62.5422,16.5
62.5541,311
62.5608,121.5
62.6011,33.6
62.6019,285.3
62.6098,119.6
62.6132,272.5
62.6318,196.1
62.6429,436.8
62.6509,215.4
62.6579,250.6
62.6963,226.7
62.6984,100.7
62.7246,267.5
62.7268,479.2
62.733,101.9
62.7386,277.7
62.7545,322.4
62.7605,145.6
62.7666,377.5
62.795,675.1
62.7988,15.1
62.8098,616.3
62.8104,144.2
62.8326,489.3
62.8343,331.1
62.8615,139.2
62.8701,89.8
62.893,616.8
62.9092,465.9
62.9105,90.6
62.9289,17.2
62.9332,345.3
62.937,82.2
62.9451,346.8
62.9516,18.5
62.9582,312.7
62.9634,215.7
62.9694,352.6
62.9725,111.2
62.9792,32.8
62.9838,357.5
62.988,93.8
62.9927,583.5
63.0145,460.1
63.0165,543.2
63.0186,487.3
63.0355,244.4
63.0491,504
63.0609,17.6
63.0763,40.1
63.0819,271.3
63.0866,419.8
63.0957,103.9
63.0973,469.3
63.1052,19.6
63.1104,17.1
63.1423,113.3
63.1518,538.3
63.1553,17.8
63.1631,16
63.1683,130.2
63.2035,17.6
63.2146,82.8
63.2209,136.5
63.2332,277.4
63.2358,453.8
63.2494,166.7
63.2556,235.8
63.2932,645
63.2967,403.9
63.3018,18.2
63.3162,111.6
63.3236,243.4
63.3238,236.9
63.3356,18.6
63.3439,155.6
63.3655,18.5
63.3766,282.8
63.4067,29.8
63.4258,95.1
63.4294,30.7
63.4715,257.7
63.4718,251.5
63.4962,294.9
63.5016,476.4
63.5075,318.6
63.5259,503.4
63.5263,647.7
63.5388,136.6
63.5449,220.2
63.5519,304.5
63.5605,18.5
63.5902,322.5
63.6129,139.9
63.6133,154.9
63.618,193
63.62,117.3
63.6282,264.6
63.6529,286
63.6546,113.4
63.6671,140.8
63.7047,300.7
63.7362,35.7
63.7496,23.3
63.7693,97.8
63.7703,106.8
63.7926,503.1
63.8199,163.5
63.8217,19.6
63.8239,226.9
63.8299,371.3
63.8377,735.2
63.8434,200.7
63.8637,223.6
63.8773,122.4
63.9058,512.3
63.9067,81.3
63.9196,18
63.9503,258.6
63.9567,108.9
63.968,206.8
63.9794,141.3
63.9809,323.5
63.988,243.5
64.0088,234.5
64.0099,469.1
64.0134,556.9
64.0189,422.2
64.0415,152.7
64.0449,297
64.0553,471.4
64.06,414.6
64.0791,114.3
64.0855,351.6
64.0882,333.4
64.0964,16.6
64.1132,253.6
64.129,170.6
64.1854,126
64.1871,354.1
64.1934,245
64.1993,17.6
64.2113,17.2
64.2197,304.2
64.2209,17.8
64.2266,406
64.2399,131.8
64.2429,216.9
64.2444,258.7
64.2495,260.6
64.2579,79.3
64.2759,108.5
64.2766,471.2
64.2964,17.7
64.3054,16.4
64.3206,145.1
64.3252,18.3
64.3366,84
64.3462,16
64.3518,88.6
64.3557,324.3
64.3616,172.4
64.368,317.8
64.3699,313.3
64.3734,163.9
64.3856,644.9
64.4388,174.9
64.4428,228.1
64.461,127.3
64.4625,92.8
64.4678,80.7
64.4732,616.9
64.4749,17.3
64.4805,169.5
64.4899,265.5
64.4954,335.3
64.4961,229.1
64.5008,202.4
64.5014,495.9
64.5065,102.9
64.5118,678
64.5181,163.8
64.5277,536.4
64.5328,87.7
64.5334,230.2
64.5341,76.9
64.5441,148
64.5571,520.1
64.5679,19.2
64.5725,97.7
64.5851,714.9
64.5858,21.9
64.5962,126.3
64.6168,175.7
64.6254,607.8
64.6441,301.4
64.6479,86.1
64.6544,252.7
64.6574,515.1
64.6668,188
64.6683,366.6
64.6746,751.1
64.7107,16
64.7226,519.1
64.7237,160.5
64.7255,17.4
64.7407,230.3
64.7535,88.6
64.7592,544.3
64.7614,345.9
64.7639,15.9
64.7696,89.6
64.7922,158
64.798,270
64.8206,329.5
64.8248,38
64.8447,713.2
64.861,162.5
64.8646,414
64.8686,19.5
64.8874,678.2
64.8966,712.7
64.8979,483
64.9031,503.6
64.9075,118
64.9426,703.7
64.9438,499
64.9636,332.1
64.9666,124.7
64.9753,141.1
64.9905,489.7
65.014,263.7
65.0159,16.9
65.0173,149.9
65.0215,808.4
65.0501,356.9
65.0803,239.3
65.0959,17.9
65.1106,773
65.1159,296.2
65.1264,19.9
65.1283,446.9
65.1372,496.3
65.1381,115.1
65.1636,220.8
65.1651,31.3
65.1696,87.1
65.1743,140.6
65.1795,145
65.1842,194.9
65.2115,20.4
65.2402,185.7
65.243,15.8
65.2656,323.8
65.2681,245.8
65.273,18.3
65.2984,480
65.3178,137.7
65.3287,269.3
65.3313,95.3
65.3401,461.4
65.3795,631.7
65.3914,35.2
65.3944,148.5
65.4003,219.6
65.4043,103
65.4089,148
65.426,94
65.4616,18.7
65.4697,361.4
65.4772,172.3
65.5052,143.8
65.5231,519.7
65.5243,387.5
65.5468,100.6
65.5531,245.4
65.5803,651.6
65.5877,304
65.6036,676.7
65.6106,626.4
65.6216,18.4
65.6589,392.6
65.6746,222.4
65.6756,235.2
65.6785,96.7
65.7074,297.4
65.7109,142.9
65.7242,167.2
65.7365,283.9
65.7626,602.7
65.7662,228.4
65.7861,118.5
65.8709,446.3
65.8843,183.5
65.888,476.8
65.9006,22.2
65.9062,519.2
65.9097,294.4
65.9118,72.9
65.9125,322.9
65.9299,129.1
65.932,84.6
65.9386,461.2
65.9681,166.3
65.9736,40.6
65.9815,383.9
65.983,601.3
65.9928,122.4
65.9987,115.8
66.013,81.7
66.0163,675.4
66.0216,196.4
66.0347,36.7
66.0407,17.2
66.0616,397.8
66.0617,407.2
66.0727,17.9
66.0746,18.6
66.0847,15.6
66.1467,163.2
66.1874,16.4
66.2183,270
66.2237,475
66.2267,255.7
66.2325,100.8
66.2356,153.2
66.2393,16.6
66.2569,186.7
66.2722,343.4
66.2858,150.1
66.2866,599.8
66.2907,386.8
66.2989,515.1
66.2995,22.1
66.3152,137.6
66.3354,144.2
66.3437,154
66.3655,162.1
66.3824,214.8
66.3829,93.9
66.3924,271.1
66.3967,243.2
66.3988,112.9
66.4052,148
66.4331,469.8
66.4572,333.1
66.4656,119.2
66.47,31.1
66.479,86.7
66.4813,379.1
66.4892,137.8
66.5298,586.7
66.5308,602.3
66.5398,241.7
66.5498,22
66.5779,182.6
66.6065,18.3
66.608,254.3
66.6204,132.5
66.6484,98.5
66.6676,108.1
66.6686,358
66.6756,237.4
66.6998,279.3
66.7142,418.5
66.7279,777.1
66.7386,134.9
66.7436,118.5
66.744,128.6
66.7495,98.3
66.7579,422.5
66.7607,423.4
66.7719,136.7
66.7845,356.6
66.8003,725
66.8008,117.5
66.8051,270.2
66.8186,481
66.8227,306.7
66.8255,366.3
66.8362,130.3
66.8439,593.5
66.8562,131.5
66.8835,42
66.8931,452.2
66.9017,177.3
66.9111,253.2
66.9268,17.1
66.9436,355.7
66.9478,337.4
66.9865,37.2
67.0167,163.5
67.023,19.1
67.0265,584.4
67.0355,106.1
67.0538,419.8
67.0977,156.3
67.1542,384.1
67.1612,105.6
67.1664,373.9
67.1838,99.6
67.1867,18.5
67.198,816.6
67.2017,107.3
67.2066,123.8
67.2341,18.2
67.2352,19.5
67.2394,521.1
67.2605,250
67.2643,236.3
67.2668,227.7
67.2809,638.7
67.3269,429
67.3376,687.7
67.3452,17.6
67.3458,190.8
67.3488,79.7
67.354,20.6
67.3649,35.2
67.3839,158.2
67.3932,219.5
67.3965,95.5
67.4048,355.5
67.4166,21
67.427,215.1
67.443,262.5
67.4516,336
67.4653,17.5
67.4722,519.4
67.4737,290
67.479,135.6
67.5052,511.5
67.5089,484.6
67.5299,458
67.5405,279.2
67.5518,421.4
67.58,94.4
67.5855,35.1
67.5882,586.3
67.5949,626.1
67.5959,16.1
67.6006,124.6
67.6089,746.1
67.6253,89.6
67.668,508.9
67.669,87.9
67.6995,18.5
67.7038,470.9
67.7184,292.1
67.7241,221.3
67.728,594.8
67.734,884.9
67.7376,193.2
67.7445,403.5
67.7467,165.8
67.7518,108.9
67.7947,324.7
67.7965,167.8
67.8194,366.1
67.8244,812.3
67.8387,639.7
67.8598,152.2
67.8642,657.6
67.9116,119.8
67.9147,190.9
67.9209,587.6
67.9419,80.9
67.9488,301.9
67.9507,164.5
67.9544,430.6
67.9552,278.4
67.9707,33.9
67.9819,16.8
67.9937,85.4
68.012,269.1
68.0427,151.1
68.0583,783.1
68.0593,538.6
68.0669,17.8
68.0845,369.6
68.0883,894.3
68.1329,284.9
68.1374,134.7
68.1569,432.7
68.17,338.5
68.1806,20
68.1861,18
68.1873,855.6
68.1902,311.3
68.2012,151.3
68.2029,287.9
68.2515,115.4
68.2671,91.5
68.2924,121.8
68.2941,85.8
68.3192,261.5
68.3257,345.4
68.3297,576.1
68.3362,18.3
68.3384,359.5
68.3467,432.6
68.35,88.7
68.3714,31.3
68.3901,131.9
68.4018,128.5
68.4058,103.9
68.4096,148.2
68.4815,528.3
68.5086,546.9
68.5259,18.4
68.5312,16.8
68.5353,264.8
68.5499,272.4
68.5771,542.9
68.5909,765.4
68.5938,384.5
68.6023,741.2
68.6101,311.2
68.6147,83.1
68.6186,707.6
68.623,80
68.6282,147.8
68.6639,434
68.6667,84.2
68.7022,531.4
68.7107,17.6
68.7217,109.5
68.7222,422.9
68.7605,186
68.7628,322
68.7723,385.5
68.79,119.3
68.7939,18.7
68.8334,183.4
68.848,223.5
68.8597,113.3
68.8901,18.4
68.9216,245
68.9249,264.7
68.9276,515.8
68.9304,92.7
68.9394,660.8
68.9502,517.8
68.9566,251.7
68.9753,627
69.0118,171.4
69.0277,37.7
69.0318,283.5
69.0378,281.9
69.0405,705.8
69.0566,734.9
69.0686,130.8
69.0696,21.9
69.0759,96.6
69.0809,304.5
69.0835,315.1
69.0841,562.3
69.1027,370.3
69.1071,146.9
69.1077,248.3
69.1095,448.1
69.1146,164.1
69.1375,266.4
69.1435,106
69.1466,16.4
69.157,206.7
69.1818,90
69.1918,435.8
69.2173,544.7
69.2636,356.9
69.2677,287.6
69.2917,733
69.2983,241.5
69.363,16.5
69.3659,422.8
69.3711,109.3
69.3793,294.1
69.3843,272.9
69.386,529.9
69.3999,743.3
69.4105,176.9
69.4132,254.5
69.4216,113.3
69.4718,164.5
69.4752,92.3
69.489,70.7
69.5008,443.2
69.5042,236.1
69.522,561
69.5698,286.7
69.571,133
69.5783,590.7
69.5832,496.6
69.5921,641.4
69.5934,87
69.597,512.7
69.6315,334.5
69.6387,438.2
69.6628,18.1
69.6674,18.5
69.6683,18.8
69.6776,90.8
69.6943,163.6
69.7154,399.1
69.732,15.7
69.7398,131
69.747,385.2
69.7475,593.9
69.7596,366.2
69.761,460.1
69.7651,494.1
69.7735,654.1
69.7908,84.4
69.8401,824.2
69.8643,105.3
69.8649,101.7
69.8679,285
69.8904,395.8
69.9092,141.3
69.922,96.6
69.9418,493.2
69.961,130.8
69.9637,116.6
69.9822,91.6
69.9948,520.9
70.0184,478.8
70.0229,421.6
70.0455,240
70.0648,1423.2
70.0805,17.5
70.1002,19
70.1099,268.9
70.1107,397
70.1279,130.3
70.1354,35.5
70.1381,247.7
70.1704,88.5
70.1829,16.5
70.1935,275.7
70.2052,130.1
70.2177,21.8
70.2286,295.5
70.2648,18.9
70.3027,121.8
70.3111,341
70.3124,15.3
70.3393,404.4
70.3494,461
70.3553,16
70.3683,258.9
70.392,92.7
70.3949,405.5
70.4553,128.2
70.4738,426.1
70.4917,120.5
70.5252,30.7
70.5317,341.5
70.5392,22.7
70.5497,271.5
70.5647,108.5
70.6605,35.2
70.6621,372.7
70.6697,164.8
70.6774,18.6
70.679,120.8
70.6832,148.9
70.709,376.2
70.7542,274.1
70.7755,241.9
70.7905,663.9
70.8013,183.7
70.8514,18.9
70.8706,289.8
70.8844,150.5
70.8963,346.7
70.9066,118.2
70.9273,119.4
70.9546,83.9
70.9614,18.3
70.9643,319.2
70.9678,276.1
70.9875,797.7
70.9951,160.8
70.9995,17.3
71.0027,258
71.0078,394.4
71.0214,566.6
71.0219,147.7
71.0304,88.7
71.0344,152.3
71.0427,18.7
71.051,164.6
71.0945,154.1
71.116,180.2
71.1306,19.6
71.139,258.5
71.1415,403.6
71.1421,193.5
71.1764,83.1
71.2017,595.8
71.2085,229.8
71.229,22.8
71.2446,268.6
71.263,393.2
71.29,153.1
71.2928,75
71.304,203.7
71.3268,492.7
71.3521,95.2
71.3716,16.4
71.3831,329
71.3909,127.3
71.4121,271.1
71.4449,557.6
71.4763,198.8
71.4853,163.5
71.4901,234.7
71.4915,32.8
71.4927,285.6
71.4952,490.8
71.5047,19.4
71.5249,106.6
71.5264,232.6
71.5439,177.5
71.5606,137.8
71.576,170.8
71.5814,149.1
71.5908,35
71.5924,16.7
71.6122,22.4
71.6212,143.1
71.6223,262.8
71.623,161.9
71.6282,102.8
71.659,84.9
71.6644,449
71.6719,127.3
71.6773,118.7
71.7016,35.3
71.7025,426
71.7156,110.5
71.7184,290.2
71.7352,372.8
71.7396,23.4
71.7494,879.7
71.7536,213.4
71.7549,163.8
71.7645,614.7
71.7702,15.8
71.7989,256.4
71.8102,258
71.8124,500.9
71.8309,298.2
71.8337,170.6
71.856,249.1
71.8658,96.1
71.8731,19.2
71.8865,392.9
71.8884,516.7
71.9138,123
71.915,18.3
71.9241,168.7
71.9302,100.4
71.939,15.8
71.9842,316.9
71.992,544.6
72.0152,503.9
72.0392,97.4
72.044,22.5
72.0475,38.7
72.0798,41.8
72.0806,376.2
72.0936,182.8
72.0985,88
72.1143,347.3
72.1157,368.7
72.1308,197
72.1381,204.7
72.1628,98.9
72.1988,179.4
72.209,86.1
72.2163,157.9
72.2176,252.4
72.2188,152.2
72.2191,183.6
72.22,812.3
72.2208,596.4
72.2217,471.1
72.2233,964.6
72.2247,2063.4
72.2256,2057.1
72.2265,2086.8
72.2274,1536.4
72.2282,1219.4
72.229,1813.1
72.2297,1250.9
72.2302,2011.8
72.2307,2045.7
72.2315,2672.4
72.2317,2750.5
72.2324,2573.5
72.2329,1657.4
72.2348,3661.2
72.2357,4098.2
72.2372,2248.6
72.2381,2463.5
72.239,1683.4
72.2396,1966
72.2403,727.1
72.2411,1316.4
72.2421,864.4
72.2423,960.5
72.2432,980.2
72.244,1573.1
72.2458,762.7
72.2468,948.4
72.2478,17.3
72.2487,43
72.2636,585.6
72.2706,17.4
72.2768,16.7
72.2868,399.8
72.3003,106.7
72.3072,82.3
72.3126,18.9
72.3213,234.5
72.3396,109.2
72.356,18.4
72.3588,546
72.3866,255.7
72.4035,17.1
72.4081,246.1
72.4098,18.2
72.4148,492.3
72.4264,135.2
72.4305,927.3
72.4382,107.2
72.4542,275.3
72.4636,17.2
72.4845,491
72.4853,164.5
72.4924,86.7
72.5032,149.6
72.5441,519.5
72.5545,247.3
72.5601,545.8
72.5684,239.4
72.5759,387.4
72.6109,217.3
72.6275,78.9
72.6632,666.1
72.666,802.6
72.6746,285.2
72.6965,310.9
72.7113,366.6
72.7252,240.4
72.7292,485.7
72.7705,111.5
72.7761,132.1
72.7818,15.4
72.7932,17.1
72.7982,513.5
72.8093,282.7
72.8187,418
72.8238,164
72.8592,79.6
72.8662,16.8
72.8741,18.4
72.8853,484.9
72.8908,322.7
72.8937,174.9
72.8973,146.2
72.9005,100.1
72.9035,168.8
72.9132,287.5
72.9205,127.4
72.927,174.7
72.9491,393.3
72.9764,499.3
72.9927,86.3
73.0054,294.2
73.0124,127.5
73.0453,83.2
73.062,379.2
73.0788,140.7
73.0802,382.2
73.0811,508.2
73.0846,612.6
73.1082,101.2
73.1145,341.6
73.1305,233.2
73.1334,692.9
73.1431,92.2
73.1496,169
73.1735,112.8
73.1837,341.8
73.186,116.7
73.1917,127.2
73.2229,237.5
73.2301,268.5
73.249,316.1
73.2621,653.6
73.2672,96.7
73.3021,200
73.3052,468.2
73.3143,172.8
73.3189,359.5
73.3252,321.3
73.3348,491.1
73.3456,90.3
73.3821,547.8
73.3954,278.5
73.4078,139
73.4166,78.1
73.4261,35.9
73.4874,163.6
73.4926,441.5
73.4977,85.4
73.5202,255.7
73.5323,38
73.5876,617.4
73.6035,738.5
73.6085,103.7
73.6185,410.6
73.63,234.6
73.6321,91.2
73.644,104.4
73.6503,209.8
73.6584,590
73.6696,334.8
73.6749,122.4
73.6842,81
73.6848,710.1
73.6871,135
73.6953,81.4
73.7624,343.1
73.8129,275.2
73.8138,17.5
73.8158,90.1
73.8419,447.2
73.8544,146.7
73.8551,467
73.8633,40.1
73.9041,214.3
73.9056,109.6
73.9114,100.9
73.9147,31.8
73.9217,647.4
73.9484,244.4
73.9615,479.7
73.9694,159.5
74.0406,483.4
74.0415,122
74.0462,432.3
74.0496,287.9
74.0532,309.3
74.0598,4539.6
74.0675,136.9
74.0787,150.4
74.1029,167.2
74.1303,129.3
74.1399,407.1
74.1808,176.4
74.2295,95.2
74.2492,18.4
74.2604,421.3
74.2719,84.1
74.2771,740.3
74.2939,110.2
74.3,77.4
74.3107,581
74.3245,91.3
74.328,269.4
74.3288,136.1
74.349,374.9
74.361,617.8
74.3636,99
74.3905,164
74.3936,128.2
74.4273,132.6
74.466,273.9
74.4962,643.8
74.5102,177.3
74.5133,205.7
74.555,98.8
74.5945,136.4
74.6088,103.3
74.6099,131.7
74.6154,265.5
74.6234,295.4
74.6365,533.9
74.6607,666.2
74.6617,192.9
74.6688,184.8
74.6699,22
74.6791,190.8
74.6945,115.1
74.7178,39.1
74.7337,529
74.7689,539.8
74.786,441
74.7972,336.6
74.819,97.5
74.8248,691.2
74.8316,122.1
74.8502,355.3
74.8588,190
74.8789,605.1
74.8819,171.1
74.883,90.8
74.8955,143.2
74.9495,683.7
74.9796,17.6
75.0004,142.9
75.0083,110.7
75.0096,145.4
75.0167,244.9
75.0236,343.5
75.0437,189
75.0471,370.2
75.0544,529
75.0825,235.9
75.1059,88.6
75.131,158.2
75.1317,427.6
75.1379,712.7
75.1436,545.3
75.1487,98.1
75.1542,91.3
75.1771,81.7
75.1889,220.1
75.1927,18.8
75.1958,41.5
75.2316,140
75.2376,257.5
75.2619,293.6
75.2692,254.8
75.2756,106.7
75.2827,457.6
75.2969,826.7
75.3276,259.5
75.3347,106.6
75.3444,263.3
75.3571,15.8
75.3599,34.4
75.3752,503.7
75.4063,105.1
75.4075,450.3
75.4243,730.7
75.4568,16
75.4959,291.8
75.5268,18.5
75.5363,181.2
75.5582,138.1
75.5597,122.3
75.573,389.5
75.5952,302.7
75.6004,136.7
75.6039,159.7
75.6245,99.8
75.6394,651.6
75.652,85.1
75.659,101.9
75.6653,461.1
75.6664,278.1
75.6697,17.5
75.6751,92.3
75.6919,94.5
75.7006,81.3
75.7266,779.4
75.7351,312.2
75.7577,196.6
75.7858,229.6
75.8161,18.2
75.8354,364.8
75.8395,17.7
75.8464,214.3
75.8712,87
75.898,770.6
75.9317,102.7
75.9449,301.1
76.0212,308.3
76.0402,737.1
76.0443,289.3
76.0488,163
76.0913,16
76.1028,156.3
76.1186,299
76.127,103.8
76.1405,558.7
76.1552,275.9
76.1559,232.3
76.1909,168.4
76.1917,194.1
76.2089,218.9
76.2683,96.9
76.2729,107.2
76.2748,108.6
76.2869,167.9
76.3115,166.1
76.389,682.3
76.3899,130.1
76.401,231.3
76.4212,19.8
76.4358,376.2
76.451,460.6
76.4607,301.3
76.4655,138.6
76.4982,19.4
76.5055,147.3
76.506,316.3
76.5107,18.8
76.5122,101
76.5216,125.8
76.5343,235.3
76.5541,95.9
76.5588,328
76.5669,339.1
76.5692,227.3
76.5885,90.1
76.5937,218.1
76.603,510.1
76.6126,275.9
76.6194,118.8
76.6326,136.8
76.662,518.3
76.689,157.4
76.7253,536
76.7635,144.9
76.7761,91.3
76.7769,155.1
76.8025,116.5
76.8067,533.7
76.8243,328.6
76.8531,155.4
76.8718,87.8
76.8938,39.7
76.9081,16.7
76.9421,77.9
76.9574,330.5
76.9788,342.8
76.993,99.9
77.0152,175.7
77.035,458.4
77.0355,430.3
77.0383,120861
77.0392,52.4
77.0403,22.6
77.0557,108.8
77.0631,210.8
77.0681,170.1
77.094,145.3
77.1054,131.1
77.1157,635
77.118,318.5
77.1186,94.2
77.1441,113.1
77.1486,647.7
77.1865,16
77.2261,186.5
77.2923,16.1
77.2934,75.5
77.3196,84.6
77.3221,16.5
77.3276,178.6
77.3362,237.4
77.341,163.8
77.3575,192.1
77.3774,21.1
77.3912,257.1
77.4018,202.7
77.4703,761.2
77.4817,350.9
77.4926,113.8
77.5561,115.6
77.5583,98.1
77.5593,240.1
77.5632,19.6
77.5769,286.1
77.5779,411.1
77.579,596.1
77.5975,370.1
77.6234,158.3
77.6254,21
77.6319,305.7
77.6748,22.4
77.6834,133
77.6994,149
77.7227,140.8
77.7489,19.2
77.7604,578.7
77.78,116.8
77.7851,165.7
77.7873,684
77.8032,754.8
77.8187,35.6
77.8507,106.6
77.8729,291
77.8783,113
77.9166,205.5
77.9212,384.2
77.9454,94.9
77.9484,726.1
77.9584,295.9
77.9927,76.5
78.012,19.9
78.0214,649.1
78.0236,82.7
78.0279,337.4
78.0417,4282.4
78.0773,261.3
78.1051,165.8
78.1091,84.1
78.1367,493.5
78.146,39.4
78.1858,179.4
78.1892,111.9
78.1901,21.2
78.2027,73.2
78.2392,168.7
78.2476,486.4
78.2524,138.6
78.2568,100.5
78.26,37.6
78.2776,305.4
78.3012,611.4
78.3025,720.7
78.3129,304.3
78.3145,85.8
78.3259,82.6
78.3342,286.1
78.3392,406.2
78.3469,147.6
78.3619,269
78.3912,476
78.4224,102.1
78.4258,17.7
78.4338,103.4
78.4369,92.1
78.4448,408
78.4601,399
78.4816,77.4
78.4976,15.9
78.5249,115.8
78.5338,193.2
78.5371,673.1
78.5416,367.8
78.5701,227.3
78.6465,209.9
78.6681,358.9
78.6807,243.7
78.6857,614.2
78.7156,99.7
78.721,227.9
78.7318,206
78.7455,89.5
78.764,293.4
78.8083,150.5
78.8191,147.8
78.8332,156.8
78.8461,494.1
78.8793,90.2
78.892,141.3
78.8961,18.3
78.8994,160
78.9008,107.3
78.9132,109.9
78.9164,526.1
78.9322,380.6
78.9439,587.5
78.962,430.1
78.9906,110.3
78.9968,192.2
79.0038,339.7
79.0337,153.9
79.0357,444.3
79.054,2700.6
79.0554,89.8
79.081,96.9
79.0959,228.6
79.0997,184.8
79.1023,413
79.1368,17.1
79.1668,136.4
79.1728,112.8
79.1892,75.4
79.1966,17.3
79.2255,281.8
79.2296,20.6
79.2499,565.5
79.2596,250.6
79.2632,508.1
79.267,269.6
79.2777,639.7
79.2945,142.6
79.3276,376.9
79.3432,202
79.3825,578.3
79.3896,172
79.4019,233.3
79.4258,115.4
79.4525,293.6
79.4584,364
79.476,137.9
79.4841,120.2
79.488,758.1
79.4984,464.9
79.4995,25.4
79.5033,276.2
79.5088,253.1
79.527,171.9
79.5465,16.2
79.5677,19.6
79.5706,31.3
79.5874,345.6
79.6048,616.7
79.6322,17.3
79.6506,548.3
79.6555,153.1
79.6567,145.6
79.6634,621.2
79.6863,259.7
79.7512,15.8
79.7915,432.8
79.8076,77
79.8168,750.4
79.8317,585.5
79.8517,18.3
79.8542,34.9
79.8593,466
79.8859,413.9
79.9102,19.9
79.9515,276.9
79.952,275.9
79.976,447.2
79.9799,278.9
79.9824,447.7
79.9953,16.9
80.0088,624.8
80.0498,157.2
80.0506,108.2
80.0589,154.7
80.0697,153.8
80.0702,138.9
80.09,794.6
80.1407,494.9
80.1433,199.7
80.1654,491.6
80.1727,102.9
80.1972,285.4
80.2176,133.9
80.2244,314.2
80.2302,368.2
80.2777,413.7
80.3143,122.4
80.3159,400.6
80.3224,356.4
80.3563,18.8
80.3781,86.4
80.4217,18
80.4272,34.3
80.4545,562.6
80.4577,739.5
80.464,118.3
80.4688,109.7
80.4921,117.9
80.5011,19
80.5075,16.5
80.5219,449.4
80.5536,141.8
80.5555,110
80.5851,414.8
80.5858,254.8
80.5865,132.2
80.6118,269.9
80.6226,640.9
80.639,82.3
80.6405,17.3
80.6423,517.8
80.65,322.5
80.6507,135.1
80.6596,321.1
80.6657,551.3
80.6732,252
80.6829,107.6
80.6946,121.5
80.7412,22
80.7597,18.9
80.8158,20.1
80.8348,328.3
80.8711,97.5
80.893,183.6
80.9004,225.9
80.9025,362.6
80.925,398.5
80.9312,434.9
80.9352,159.4
80.9397,349.8
80.9476,51629.8
80.9744,345.3
80.9821,533.7
81.0081,90.7
81.0427,18.2
81.0491,134
81.0641,269.7
81.0697,1163.8
81.0853,341.8
81.1197,106.4
81.1407,564.2
81.1435,944.4
81.1444,2491.7
81.1458,577.2
81.1479,318.7
81.1496,264.7
81.1518,160.3
81.1523,133.9
81.153,134.6
81.1686,142.7
81.1715,110.9
81.1823,318.3
81.1844,206.4
81.1944,183
81.2383,94.3
81.2401,18.9
81.2635,113.7
81.2653,17.9
81.3059,339.7
81.3244,330.6
81.3266,141.8
81.3433,430.3
81.379,224.9
81.3904,106
81.3982,19.5
81.4036,94
81.435,17.4
81.4486,400.9
81.4639,17.8
81.4677,86.8
81.4787,256.1
81.4799,210.4
81.5298,98.8
81.5655,18.4
81.6021,548.1
81.6069,828.6
81.7085,170
81.7159,19.4
81.7381,207.8
81.7489,131.3
81.7499,566.2
81.7663,116.7
81.827,160.4
81.8397,578.9
81.8565,186.5
81.923,699.6
81.9329,341.9
81.9925,296.1
81.9943,201.4
82.0284,142.8
82.0325,578.7
82.0333,627.7
82.0554,255.4
82.0729,275
82.0872,183.8
82.0905,403.1
82.1003,558.4
82.1024,213.8
82.1054,302.7
82.1104,354.6
82.1208,270.9
82.1246,561
82.1258,20.2
82.1426,16.4
82.1446,759.1
82.1551,271.8
82.1751,119.1
82.178,81.2
82.1893,35.7
82.1933,295.1
82.196,284.5
82.1973,460.4
82.257,112.5
82.2766,398.7
82.2794,152.5
82.335,148.8
82.3406,129
82.3587,315.1
82.399,277.7
82.4362,175.8
82.4649,606.2
82.4803,19
82.4894,289.9
82.4942,538
82.5211,481.7
82.5436,17.8
82.5478,17.7
82.5533,370.5
82.5611,624.1
82.5702,112.3
82.6126,359.5
82.6195,18.7
82.6511,304.7
82.6573,307.7
82.6962,101.6
82.7022,256.7
82.7402,136.4
82.7738,20.4
82.8133,271.7
82.8251,399.8
82.8393,175.9
82.852,18.3
82.8534,108.9
82.8631,18.3
82.8655,266.8
82.867,360.1
82.8692,266
82.891,268.3
82.9447,13357.9
82.9491,170.7
82.9529,394
82.985,204.8
82.9907,17.7
82.993,273.6
83.0271,313
83.031,137.9
83.0346,161.2
83.0375,511.9
83.0469,285.9
83.0517,18.3
83.0533,222
83.0718,681.1
83.0787,121.9
83.0884,34.1
83.11,212.3
83.117,463.3
83.1702,287.1
83.178,17.3
83.1847,197.1
83.2292,34.3
83.2526,418.4
83.2814,192.1
83.2915,296.7
83.2946,325.9
83.3264,21.4
83.3571,366.4
83.3706,17
83.3732,17.5
83.3838,266.7
83.3967,18.4
83.4287,112.2
83.4326,20.5
83.4395,337.7
83.4504,24.6
83.4549,507.6
83.483,129.7
83.4941,105
83.4993,683.9
83.5314,376
83.5323,298.6
83.5714,698
83.6491,392.5
83.6499,592
83.6614,256.2
83.6715,245.8
83.6896,261.7
83.6923,75.1
83.7,37.4
83.7095,80
83.7149,85.3
83.7159,204.3
83.7267,20.2
83.7287,636.9
83.749,269.5
83.7553,136.5
83.7588,272.1
83.786,155.1
83.8306,16
83.8465,384.7
83.8527,201.5
83.8541,469.4
83.8628,33.7
83.8963,658
83.9059,323.9
83.9211,468.3
83.9291,196.6
83.9367,135.1
83.9376,474
83.949,226
83.9569,522.8
83.9683,156
83.9721,19.8
83.9865,117.9
84.044,458.2
84.0932,603.6
84.1061,144.4
84.119,33.5
84.1226,320.6
84.1251,105.8
84.1327,18.7
84.1497,709.8
84.1971,260.9
84.2099,296.3
84.2135,450.9
84.2291,576.4
84.2296,623.8
84.2631,19.8
84.2903,19.8
84.2981,88.2
84.3097,107.5
84.3148,577.7
84.3207,18.2
84.3401,184.4
84.3504,827.9
84.4082,83.5
84.4122,286.6
84.4503,261.5
84.4942,299.1
84.5049,37
84.5305,378.8
84.5521,148.2
84.5722,102.3
84.5776,205.9
84.597,148.9
84.6025,467.6
84.6254,161.8
84.6561,667.7
84.6665,101.3
84.7037,275.4
84.7614,155.5
84.7684,451.9
84.7809,34.2
84.7875,113.3
84.7992,170.6
84.8107,351.1
84.815,18.4
84.8158,194.6
84.8224,342.7
84.8411,108.1
84.8433,148.2
84.8654,514.3
84.8714,296.2
84.9108,117.1
84.9193,19
84.9292,357.2
84.9595,19607.6
84.9706,99.8
84.9947,239.1
85.0282,1971.8
85.0358,528.1
85.0395,104.4
85.0455,16.7
85.0582,449.3
85.0987,245.2
85.1002,344.5
85.1244,210
85.1516,629.2
85.1594,208.5
85.1603,73.9
85.2681,32.9
85.2884,104.4
85.318,238.1
85.3291,224.1
85.4077,299.5
85.4118,251
85.427,94.9
85.435,262.8
85.4398,136.7
85.442,105
85.4537,15.8
85.4547,19.3
85.49,18.1
85.4963,441.6
85.5117,35.7
85.5309,617.5
85.5363,18.9
85.5503,17.4
85.5607,21.3
85.5776,88.7
85.5819,145.2
85.5885,16.7
85.6067,16.8
85.6135,137.3
85.6276,247.1
85.648,99.4
85.6874,96.8
85.7573,110.6
85.7707,244.9
85.7731,173.3
85.7865,142.4
85.8011,245.3
85.8107,269.5
85.8145,138.5
85.8557,388.4
85.8596,552.4
85.8626,18.9
85.8709,648
85.8946,403.2
85.9219,17.2
85.9271,686.8
85.9389,747.3
85.9519,83.7
85.9637,127.4
86.0405,89.2
86.0486,93.1
86.0598,38728.8
86.0691,311.3
86.089,125.8
86.0962,138233.2
86.1034,179
86.1088,89.1
86.1251,16.6
86.1519,277.4
86.1672,17.8
86.171,311.3
86.2819,405.3
86.345,18.6
86.3476,588.6
86.3607,20.2
86.3689,139.6
86.3889,206.8
86.4066,311
86.4217,385.1
86.4309,144.8
86.4315,31.3
86.4473,176.2
86.463,278.6
86.4777,93.1
86.5215,213
86.5354,18.4
86.5486,93.7
86.5574,20.5
86.6187,19.1
86.6413,483.5
86.6463,368.5
86.6495,241.9
86.6748,132.3
86.6811,594.7
86.6824,242.1
86.7184,365.9
86.7705,105
86.7898,458.1
86.7957,293.4
86.8075,130.6
86.8136,36.4
86.8538,18.4
86.8613,16.4
86.8622,31.1
86.8738,221.3
86.8862,644.1
86.9109,120.2
86.9272,600.1
86.9565,317.5
86.9708,105.4
87.0167,597.3
87.0201,206.5
87.0231,93.6
87.0271,132.3
87.0371,334.1
87.0761,105.8
87.0995,2961.6
87.118,32.8
87.1242,813.1
87.1273,590.7
87.1432,243.8
87.1488,511.5
87.16,19.3
87.1679,108.6
87.1909,129.7
87.2144,446.9
87.2147,264.8
87.2361,419.3
87.2626,250
87.3186,112.4
87.3717,102.1
87.3742,435.3
87.3856,21.7
87.3947,265.6
87.4088,149.7
87.4171,544.5
87.4425,432.8
87.5184,17.3
87.534,294.6
87.5384,179.1
87.5486,687.6
87.5517,116.4
87.5935,19.8
87.595,442
87.5961,217.4
87.608,326.4
87.6104,259.1
87.6167,526.4
87.6366,200.7
87.6685,20.2
87.7077,382.7
87.7126,23.3
87.7608,18.1
87.8073,230.4
87.8492,106.9
87.8579,108.8
87.8621,258.5
87.8673,212.1
87.9388,351.2
87.944,147.1
87.9557,112.5
87.9589,118.2
87.9766,387.6
87.986,95.2
87.9883,289.7
88.0088,145.9
88.0103,108.1
88.0391,9090.8
88.0405,143.8
88.0452,140.6
88.0909,498.6
88.1332,343.2
88.1354,585.8
88.1458,765
88.1589,218
88.1705,102.5
88.2322,577.9
88.2678,403.5
88.3087,673.8
88.3246,172.7
88.3419,180.2
88.3604,89.7
88.3737,190.6
88.3916,323.9
88.4027,654.7
88.485,292.4
88.5782,423.2
88.6058,417.5
88.636,145
88.6397,18.2
88.6708,321.6
88.6987,20.6
88.7465,373.1
88.7917,421.2
88.798,272.7
88.8204,321.4
88.8479,16
88.8777,365.1
88.9,143.3
88.9008,661.8
88.9134,118.8
88.9355,97.7
88.9522,364
88.985,18.7
89.0404,507.4
89.053,102.2
89.0595,59.9
89.0661,325
89.0683,161.1
89.0883,179
89.092,797.5
89.1015,16.4
89.1235,96.6
89.1285,73.1
89.1381,286.2
89.1602,353.9
89.181,86.5
89.1862,302
89.1906,19.8
89.1926,88.4
89.2193,163.6
89.2798,252.3
89.2964,304.2
89.3225,17.8
89.3791,159.4
89.386,19.2
89.3901,739.7
89.4155,341.1
89.4839,166.1
89.5128,148.7
89.5196,258.1
89.5322,530.8
89.5376,176.2
89.541,99.5
89.6028,89.7
89.6245,320.6
89.6423,280.8
89.6435,545.4
89.6457,291.2
89.6526,310.2
89.6641,102.7
89.6908,16.1
89.7019,106.1
89.7103,19.4
89.7379,111.5
89.7392,270.9
89.8051,626.4
89.8224,304.8
89.8353,309
89.8377,18.3
89.8739,120.6
89.9147,359.6
89.9256,649.8
89.9796,174
90.0065,119.9
90.0527,18.4
90.0576,256.8
90.1038,744.6
90.1588,19.7
90.1679,164.3
90.1702,132.9
90.1987,276.8
90.2112,154.3
90.2219,231.1
90.2245,300
90.2661,267.2
90.2675,20.6
90.3029,769.9
90.3243,88.5
90.3554,18.3
90.3832,201.3
90.4389,325.1
90.4452,729.3
90.4458,305.1
90.4505,78.6
90.4532,155.2
90.464,157.1
90.468,425.6
90.5045,180.6
90.531,338.4
90.5377,164.4
90.5696,15.9
90.5991,30.7
90.6373,128
90.6627,387
90.7222,469.9
90.7336,81.2
90.7385,308
90.7466,108
90.7497,567.2
90.7537,110.3
90.7643,17.8
90.7669,120.4
90.78,270.6
90.7836,111.7
90.7881,107.1
90.8117,321.7
90.856,16.8
90.8703,458.7
90.8717,206
90.9158,255.1
90.922,134.6
90.9302,86.5
90.946,359.5
90.9475,135.5
90.9701,524.3
90.9765,10215.8
91.0069,191.2
91.0237,639.3
91.0247,428.8
91.0366,337
91.045,294.2
91.0541,3246.1
91.0823,17.8
91.1015,91.4
91.1164,97.7
91.1322,166.5
91.1363,513.6
91.1485,111.2
91.2187,667.8
91.2492,458.2
91.2699,103.3
91.2951,522.8
91.3082,182
91.3189,337.1
91.3491,98.4
91.394,89.1
91.3957,218.7
91.403,17.7
91.4556,289.1
91.4594,109.6
91.4909,21.2
91.5145,107.1
91.5148,146
91.5151,135.4
91.6088,19.7
91.6298,345.8
91.6396,512.4
91.6721,433.7
91.682,131
91.683,580.3
91.6967,221.7
91.7067,262.8
91.7351,89.4
91.7544,522.7
91.7959,15.2
91.8223,327.4
91.8494,18.9
91.8522,17.8
91.8817,89.6
91.8836,311.7
91.9127,24.5
91.9779,404.9
91.9845,455.1
92.0443,18.5
92.0494,43.4
92.0662,89.6
92.0731,23.7
92.0851,39.5
92.1316,369.4
92.1503,309.1
92.1639,17.6
92.2016,19.1
92.2134,17.9
92.2282,88.1
92.2591,103.1
92.2769,18.3
92.2925,891.5
92.3285,294.4
92.3386,113.7
92.3393,392.3
92.3418,417.4
92.3602,16.3
92.3626,622.1
92.3723,112.7
92.3959,142.3
92.4085,573.2
92.4219,19.3
92.4996,456.7
92.5275,22.5
92.5497,16.7
92.5541,100.2
92.5585,222.7
92.5628,662.7
92.5662,16
92.584,256.7
92.6048,454.7
92.631,17.4
92.6321,313
92.635,151.4
92.6485,381.9
92.6557,475.8
92.685,92.4
92.7752,560.3
92.8178,441.3
92.8274,210.9
92.8301,716.4
92.8328,136.1
92.848,546.3
92.8483,628.7
92.8487,422.3
92.8756,89.5
92.8939,171.7
92.9293,201.6
92.9507,24.5
92.9689,239.3
92.9707,19.9
92.9733,20.1
93.0126,689.4
93.0231,227.2
93.0334,23.7
93.0571,47.4
93.0695,875.2
93.1157,353.9
93.1401,20.6
93.1446,19.5
93.1889,262.8
93.1946,275.6
93.2145,21.1
93.2495,29
93.2871,408.2
93.2951,236.6
93.3208,33.5
93.3249,138.3
93.3639,118.2
93.3978,287.8
93.4273,313.7
93.4384,78
93.4597,36.8
93.4723,78.1
93.484,665.1
93.4857,368.5
93.4864,514.1
93.5013,101.8
93.5068,177.1
93.54,105.8
93.5501,86.7
93.5663,408.5
93.6184,103.1
93.6467,21.1
93.6644,279.4
93.6817,853.1
93.7207,306.3
93.7433,336.8
93.8092,17
93.8188,362.7
93.8361,87.6
93.9011,15.5
93.9251,488.6
93.9467,161.9
93.9644,323.7
93.9735,572.3
93.9943,101.5
93.9989,16.5
94.0218,17.5
94.0392,120.6
94.0412,57016
94.0458,185.2
94.0564,470.6
94.0766,134.2
94.0792,178.1
94.1332,85.9
94.1449,211.4
94.1668,111.8
94.2063,505.3
94.238,293.2
94.3304,290.3
94.3361,98.4
94.3918,16.7
94.4071,19
94.4288,226.3
94.4406,587.9
94.4566,693.1
94.4787,298
94.4918,19.6
94.5738,745.8
94.5925,118.1
94.6285,95.5
94.651,596.7
94.6513,546.1
94.6569,141.5
94.7229,91.8
94.7506,109.9
94.753,164.3
94.8518,330.9
94.8869,543.8
94.9266,337.1
94.9416,780.4
95.0043,17.6
95.0087,112.8
95.0355,96.3
95.0446,1321.4
95.046,48.1
95.0466,56.5
95.0474,148.9
95.049,436666.5
95.0504,249.8
95.0509,168
95.0518,118.8
95.0523,66.6
95.0531,35.1
95.0625,88.2
95.0758,199.2
95.0854,1064.3
95.0893,28
95.1091,529.1
95.1162,19.3
95.1238,295
95.1375,492.6
95.1632,268.9
95.1877,126.7
95.2423,444
95.2649,166.2
95.2713,270.9
95.3442,248.8
95.3733,156.1
95.378,542.3
95.387,513.1
95.4702,123.7
95.4739,17.7
95.5252,110.1
95.5337,208.3
95.5656,248.1
95.6311,16.2
95.6512,753.3
95.6762,136.5
95.679,17.2
95.7006,19
95.7038,107.4
95.7441,310.3
95.7623,18.1
95.7707,117.5
95.7765,17.2
95.8006,286.9
95.8096,756.7
95.813,22
95.8656,161.5
95.869,124.5
95.8888,352.4
95.9238,363.4
95.9335,17.4
95.9612,230.1
95.9728,367.9
95.9886,87.1
96.0076,17.1
96.0333,257.3
96.0459,260.4
96.0523,19632.8
96.0869,18.7
96.0914,269.7
96.0932,166.8
96.1142,37.8
96.1204,38.3
96.1398,106.7
96.1494,250.8
96.1828,18.2
96.2091,637.8
96.2248,515.6
96.2259,77.8
96.2301,147.7
96.2523,691.4
96.2563,117.5
96.264,277.2
96.2645,303.6
96.2867,168.9
96.2929,481.4
96.3149,170
96.3676,485.6
96.3685,458
96.3702,605.7
96.3754,540.2
96.441,20
96.4567,384.6
96.4716,110.9
96.4902,297.1
96.5064,649
96.5537,18.2
96.5595,345.8
96.5966,380.2
96.6007,116.2
96.626,184.5
96.6331,163.7
96.6675,499.4
96.6894,105.7
96.6905,168.2
96.6965,266.2
96.7468,530.4
96.7635,263.7
96.7657,273.7
96.7837,324.2
96.8055,248.2
96.8165,91.3
96.8485,19.7
96.8789,149.2
96.9138,638.8
96.9153,193.5
96.9216,158173.5
96.9527,188.6
96.9621,23.6
96.998,398.2
97.0074,180.4
97.0106,21.4
97.015,34.8
97.0214,295.3
97.0519,361.5
97.0532,112.8
97.0557,64
97.0564,90.3
97.063,21.4
97.0679,35.6
97.073,192.9
97.098,17.3
97.1011,22.3
97.114,290.5
97.1218,169.3
97.1419,372.8
97.1546,430.4
97.1562,17.7
97.1592,336
97.1705,113.9
97.1768,122.2
97.1867,229
97.216,445.1
97.2299,425.2
97.2612,86.4
97.3008,302.7
97.3714,283.8
97.3793,88.5
97.3812,450.3
97.405,94.2
97.4392,717.9
97.4452,182.7
97.4467,155
97.4476,622.5
97.4727,186.2
97.4841,21.8
97.4893,387.6
97.5044,227.3
97.539,121.8
97.5412,435.8
97.5467,672.5
97.5665,266
97.5719,659.7
97.5763,216.5
97.6056,22.1
97.6105,430.1
97.6237,34.3
97.6509,437.6
97.6603,169.5
97.7094,515.6
97.7294,258.8
97.7449,363.3
97.747,428.2
97.7847,254.5
97.7857,667.4
97.8193,377.1
97.8607,327.8
97.8707,689.8
97.8865,17.4
97.9075,17.7
97.9446,19.2
97.9949,109.1
98.0051,583.3
98.0094,165.7
98.0176,19.4
98.0897,17
98.156,95.7
98.1806,528
98.1911,114.7
98.2167,299.5
98.2281,19.6
98.2642,189.5
98.2785,244.4
98.2794,558.8
98.2958,477.6
98.3284,286.7
98.3362,302.5
98.4291,330.4
98.4419,19.4
98.4523,419.5
98.463,17.5
98.4729,100.8
98.4894,150.9
98.5155,34.2
98.592,115.3
98.6377,253.7
98.645,188.4
98.6835,451.4
98.6848,194.8
98.6896,141.2
98.7102,202.3
98.7193,328.2
98.7202,206.5
98.7418,303
98.7549,322.1
98.7605,330.2
98.7704,514.5
98.7769,200.8
98.7881,425.1
98.8001,382.4
98.8088,506
98.8265,200.1
98.8324,89.8
98.846,243.5
98.8509,618.1
98.854,267.5
98.8713,145.6
98.8771,309.3
98.9128,356.5
98.9187,44338.2
98.9197,6402.3
98.925,124.4
98.9276,487.7
98.9592,159
98.9663,206.9
98.9752,14811.3
98.9841,60.9
99.0071,150.8
99.0085,182.2
99.0267,218.5
99.047,20.8
99.0501,117.2
99.0915,45.7
99.1191,649.6
99.1395,119.4
99.1464,153.3
99.1658,88.8
99.1683,298.8
99.1746,32.1
99.2634,96.3
99.2754,286.2
99.3175,603.7
99.3234,241.9
99.3636,474.2
99.4107,18.3
99.4327,168.2
99.5983,145.2
99.6213,185.4
99.6302,327
99.6768,604.6
99.7284,97.3
99.738,139.9
99.7666,335.9
99.8384,17.5
99.8433,314.4
99.9172,256.6
99.9466,114.5
99.9828,513.4
99.9846,170.4
99.9895,294.8
99.9959,676.7
100.0104,209.6
100.0138,571.1
100.0302,309.3
100.0461,302.4
100.0513,526.9
100.0755,25.1
100.1078,565.4
100.2226,116.9
100.2558,584.2
100.2639,274.2
100.267,114.4
100.2703,381.4
100.2979,38.4
100.3154,290.6
100.3243,86.8
100.3434,92.2
100.3652,474.2
100.3713,778
100.3859,293.4
100.417,715.1
100.4313,308.7
100.4929,246.5
100.4976,441
100.5334,139.4
100.578,422.4
100.5854,232.8
100.6036,399.9
100.6074,126.5
100.61,209.3
100.6663,154
100.7303,126.6
100.7315,173.5
100.7355,17.6
100.7964,475.9
100.8328,526.5
100.8423,543.7
100.901,19.8
100.9168,895
100.9296,18.6
100.9533,407.6
100.9608,275.9
100.9909,26.2
101.047,2972.4
101.0579,549.1
101.0653,617.8
101.0685,167.3
101.0708,1640.3
101.0832,84.7
101.0888,17.8
101.1035,18.3
101.1265,183.2
101.1654,20.2
101.1884,413.3
101.2105,384.8
101.2265,298.8
101.2688,321
101.2784,185.5
101.2929,120.5
101.3031,19.6
101.349,247.5
101.4024,40.3
101.4035,134.9
101.4086,96.3
101.4336,158.4
101.4484,578.3
101.4796,611.1
101.503,146
101.5046,254.7
101.5144,210.3
101.5303,41.1
101.5318,382.3
101.5377,171.7
101.5388,411.8
101.5535,324
101.5661,816.7
101.577,576.9
101.5817,395.8
101.6283,17.5
101.6395,275.6
101.6586,20.9
101.6941,380.2
101.6949,162.5
101.7035,337.9
101.7326,573.9
101.7351,86.1
101.7562,177.2
101.7704,243.3
101.834,98.7
101.8697,177.4
101.893,112.6
101.897,552.1
101.9301,100.4
101.9702,257.7
102.0204,206.7
102.0266,499.9
102.0453,151.1
102.0548,5492.7
102.0792,155.2
102.0808,705.2
102.0882,494.3
102.0932,123.7
102.1483,163.1
102.1524,437.9
102.1633,161.5
102.1808,320.3
102.1986,84.3
102.227,593.6
102.2343,186.6
102.2624,296.6
102.2681,758.5
102.2716,531.7
102.2849,245.7
102.3101,277
102.3324,479.5
102.3744,358
102.3782,193.5
102.3833,467.3
102.3965,92.9
102.4715,536
102.5126,126.3
102.5436,433.9
102.5491,19.6
102.5846,120.5
102.6095,540.7
102.6927,560.2
102.7277,253.3
102.7296,264
102.7576,503.7
102.7826,325.3
102.7887,19.9
102.8263,140.8
102.8284,97.4
102.8524,211.7
102.8622,188.1
102.8682,109.8
102.8733,16.5
102.8987,311.8
102.9081,944.8
102.9193,187.5
102.9227,106
102.93,540
102.9356,115.8
102.9483,177
102.9701,579
102.9882,21.4
102.9953,317.9
103.0438,19.3
103.0541,205.5
103.0836,246.7
103.086,217
103.0879,165.7
103.1143,190.9
103.1421,126.6
103.159,338.6
103.1699,17.1
103.1736,507.9
103.1748,565
103.2165,318
103.2459,592.6
103.3211,118.4
103.3369,181.9
103.3777,549
103.4092,410.2
103.4234,199
103.4861,495.4
103.5155,528.1
103.5178,397.6
103.5376,178.3
103.5388,565.1
103.5397,117.6
103.5536,16.4
103.5764,536.7
103.5834,21.8
103.612,35.5
103.6135,281.8
103.7149,117
103.7526,124
103.7655,93.9
103.7669,180.1
103.7779,17.9
103.7955,495.4
103.8074,186.1
103.81,117.6
103.8155,365.7
103.8279,20.9
103.8341,104.6
103.8389,425.4
103.8635,107.8
103.8835,344.5
103.938,20.1
103.9392,99.2
103.9823,287.6
104.0014,91.2
104.0056,196.5
104.0103,190.3
104.0536,163.7
104.1069,680654.4
104.1121,199.9
104.1228,277.9
104.1432,179.8
104.1687,183.3
104.1699,331.7
104.1767,83.3
104.2302,17.8
104.241,98.1
104.2508,106.3
104.2728,452
104.3004,18.5
104.3069,21.4
104.3088,18
104.3167,529.7
104.3609,238.3
104.3871,169.5
104.4048,43.1
104.4477,376.1
104.5175,424.1
104.5391,97.8
104.5582,308.5
104.5649,267.1
104.5673,684.9
104.6146,223.2
104.6208,338.7
104.6441,149.5
104.6953,260.6
104.7052,116
104.7248,446.2
104.7403,323.9
104.7807,249
104.7864,82.3
104.8438,268
104.8798,502.4
104.8893,88.1
104.9095,102.2
104.9222,123.7
104.935,185.3
104.9479,38.1
104.9632,231.7
104.9923,1663.3
104.996,98.8
105.0027,286.7
105.0127,17.7
105.0186,21.6
105.0246,225.3
105.0298,572.9
105.0384,164
105.0446,39464.5
105.07,19.6
105.0779,705.6
105.0866,91.4
105.101,104.4
105.102,244.9
105.1049,417
105.1102,24927
105.1429,544.6
105.1432,563.7
105.1539,165.4
105.2,287.4
105.2443,163.1
105.2569,133.8
105.2884,18.3
105.302,150
105.3149,250.1
105.3234,35
105.3451,191.2
105.3573,138.5
105.3703,304.8
105.4127,118.6
105.4152,20
105.4433,197.7
105.4468,18.1
105.4655,154.5
105.5177,96
105.5248,125.6
105.5298,236.4
105.5332,171.9
105.5782,114.7
105.586,320.3
105.6398,32.6
105.6666,303.5
105.7201,18.9
105.7788,83.6
105.8076,87.1
105.8332,208.8
105.8975,251.2
105.9037,98.2
105.9157,326.7
105.9492,353.1
105.9525,94.2
105.9917,497.9
106.0416,19.1
106.048,921.3
106.0504,148.1
106.0591,639.7
106.0644,926.8
106.1034,684.2
106.1565,117.2
106.1591,383.2
106.1663,182.7
106.2034,128.5
106.2385,30.8
106.2461,477.2
106.2584,373.6
106.3119,279.7
106.3195,460.7
106.3305,80.3
106.3375,553
106.3677,19.2
106.4989,664.7
106.5167,152.7
106.5538,558.6
106.5593,496.8
106.6123,150
106.6295,636.9
106.6451,344.1
106.648,264.1
106.6516,420.6
106.6793,291.3
106.6859,742.6
106.6998,18.3
106.7056,98.6
106.7721,544.8
106.7862,85.4
106.7932,104.5
106.8413,584.9
106.9031,315
106.9043,211.3
106.929,32.2
106.9504,4510.7
106.9638,20.4
106.9919,59.9
107.0035,247.4
107.0242,109.8
107.0283,79.7
107.031,167.5
107.0365,17.4
107.049,686.9
107.0634,20.8
107.0855,50.6
107.0978,184
107.1047,20.1
107.1093,140.5
107.1155,141
107.1709,16.6
107.2007,95
107.2185,289.9
107.2385,257.1
107.2436,117.3
107.2489,136.2
107.2636,503.6
107.2697,18
107.2885,20.8
107.2951,203.6
107.3155,118.2
107.3242,356.7
107.3296,228.4
107.358,114.1
107.3616,30.3
107.4547,601.4
107.4814,401.5
107.5215,116.5
107.5367,435.3
107.5431,88.1
107.6484,168.3
107.6505,682.1
107.7002,227.3
107.7195,824.7
107.724,109.6
107.7293,713.9
107.7373,344.7
107.7402,21.7
107.774,693
107.7759,17.2
107.8055,153.9
107.8528,272.3
107.8658,631
107.8702,123.8
107.9145,273.4
107.9178,94.6
107.9444,147.5
107.9534,482.1
107.9668,20.7
107.9954,501.1
108.0382,94.4
108.0526,18.6
108.0569,49
108.0689,312.9
108.0803,16.7
108.1414,94.1
108.1515,19.1
108.1643,288.7
108.1808,157.7
108.2139,147.4
108.232,119.2
108.2693,301.5
108.2806,200.9
108.2928,44.7
108.2996,37.7
108.3028,201.3
108.3086,320.3
108.3156,830.4
108.3239,189.9
108.3342,17.7
108.4168,134.6
108.4329,164.6
108.4444,32.7
108.4842,572
108.5126,77.5
108.517,114.7
108.5279,246.3
108.5874,17.1
108.5916,147.7
108.5924,303.8
108.641,405
108.6875,383.6
108.7019,18
108.7284,274.4
108.748,94
108.76,230.1
108.7871,150.7
108.7922,99.7
108.8159,158.4
108.8716,248.3
108.9756,134.7
109.0108,19.4
109.0273,342.9
109.0292,368.2
109.0453,495.5
109.059,170.9
109.0647,60579.4
109.1011,341.2
109.1086,108.9
109.1552,692.6
109.2467,256.3
109.4166,112.3
109.4225,182.6
109.4426,212
109.445,21.2
109.5834,302.2
109.5987,17.7
109.6083,208.8
109.6688,269.3
109.7313,619.2
109.7567,93
109.7862,167.1
109.8166,17.1
109.8197,201.6
109.8293,17.8
109.8316,334
109.8537,21.1
109.8664,200
109.8907,141.9
109.9736,22.4
109.9753,432.2
110.0681,1880.4
110.1132,149
110.123,39
110.1384,17
110.1428,536.3
110.1494,318
110.1712,245
110.1926,186.4
110.2287,18.7
110.2361,185.9
110.2577,196.8
110.2657,18.3
110.3262,91.4
110.3304,418.5
110.3375,593.9
110.3608,306.6
110.3686,556.1
110.3925,338.3
110.4052,92.6
110.4401,138.5
110.4756,186.9
110.5075,261.7
110.5331,431
110.5901,106.3
110.6,248.1
110.7238,453.9
110.7306,104
110.8226,136
110.8321,338.1
110.8629,473
110.8773,334.3
110.9086,16
110.9145,85.2
110.925,274.3
110.9548,138.6
110.9706,487.7
110.9721,145
110.9977,76.3
111.0202,501.3
111.0232,468.6
111.0439,303.3
111.0619,293.7
111.1248,360.4
111.211,275.9
111.216,18
111.2893,186.4
111.3013,17.1
111.3137,173.9
111.3623,708.4
111.3795,40.1
111.3858,312.5
111.4431,262.3
111.4967,17.6
111.5343,80.1
111.6077,646.4
111.6094,305.5
111.6313,534.1
111.6652,18.4
111.699,17.1
111.7142,135
111.7236,118.2
111.7439,219.5
111.7571,554.4
111.7759,109.4
111.8335,667.3
111.8817,540.3
111.9069,562.8
112.0054,295.4
112.0205,338
112.0227,18
112.0495,301.3
112.0506,18.3
112.0577,133.3
112.0698,152.6
112.0727,179.1
112.0968,35.9
112.099,268.8
112.123,165.3
112.1267,279.9
112.1381,106.6
112.177,159.8
112.1824,301.5
112.2098,103.2
112.2202,452.7
112.2951,120.6
112.2958,119.6
112.3268,411.2
112.3693,18.6
112.3774,19.4
112.4054,291.3
112.4124,408.4
112.4143,725.7
112.4249,306.3
112.532,534.8
112.5373,122
112.5577,110.6
112.566,20.1
112.5741,678.4
112.6112,136.4
112.6275,95.7
112.6298,551.6
112.7098,407.2
112.7155,724.1
112.7173,504.7
112.7406,678.9
112.7688,17.6
112.7781,481.4
112.8839,88.9
112.8938,604.4
112.8956,463637.6
112.8992,19.1
112.9359,230.6
112.9463,143.7
112.9515,518.5
112.9929,473.8
113.0024,90.8
113.0068,170.5
113.0424,97.9
113.1277,548.4
113.1898,343.5
113.2226,137.7
113.2331,154.9
113.2527,176
113.2691,222.8
113.2804,110.1
113.2872,130.3
113.2887,191.4
113.3041,272.2
113.3092,16.8
113.3216,269.4
113.3233,135.8
113.3813,102.5
113.3873,127.1
113.4909,519.4
113.4998,244
113.5091,114.7
113.514,21.8
113.5215,362.7
113.582,149
113.609,496.4
113.6489,467.4
113.6765,339.1
113.6835,20.6
113.7142,293
113.7156,329.5
113.7421,303.3
113.7482,402
113.7608,153.9
113.7846,108.6
113.7868,650.4
113.8397,291.6
113.8505,325.9
113.8582,502.4
113.8594,138.2
113.9589,739.1
113.9792,462
113.9928,412.2
114.006,116.4
114.0247,271.1
114.0265,352
114.0549,56200.9
114.0661,1130.9
114.1717,340
114.1747,18.9
114.1907,105
114.1961,97.4
114.2349,245.8
114.2449,450.9
114.3299,97.9
114.3435,142.3
114.3752,510.6
114.3847,140.4
114.4367,233.2
114.4387,141.3
114.4637,16.9
114.4799,134.4
114.4829,316.5
114.5183,430.5
114.5692,17.1
114.6728,17.6
114.6781,484.7
114.7671,290.2
114.7735,130.8
114.8401,722.7
114.8816,18.6
114.8927,138594.2
114.9244,124.6
114.9733,19.1
114.9934,34.4
115.0263,179.7
115.0583,1817.2
115.0866,562.7
115.1109,135.4
115.1352,449.6
115.1967,17.8
115.2268,480.4
115.2598,666.3
115.2639,251.8
115.27,217.4
115.3072,147.8
115.3213,113.2
115.3566,138.3
115.3582,17.3
115.3587,21.7
115.3675,23.6
115.38,112.3
115.4092,188
115.4201,107
115.4282,133.6
115.4486,359.2
115.4647,299.2
115.5389,246.3
115.5419,480.7
115.557,163.9
115.5777,155.8
115.5854,346.1
115.6087,577.2
115.6256,453.6
115.6402,245.4
115.6664,212
115.6951,147.7
115.7484,272
115.8018,23.2
115.8054,105.9
115.8333,476.4
115.847,153.2
115.8949,106.3
115.9373,16.7
115.9618,16.7
116.0163,79.5
116.0503,430.5
116.0531,426.1
116.0705,3445.2
116.1861,88.5
116.1881,212.9
116.1911,136.5
116.1954,185
116.1965,262.7
116.2636,744.7
116.2654,606.7
116.2993,518.5
116.3539,155.4
116.3751,322.3
116.4429,268.2
116.5549,618.6
116.5648,319.6
116.5699,238.9
116.5956,157.5
116.6033,224.5
116.6127,517.9
116.6168,600.8
116.6618,92.1
116.6693,273.3
116.808,530.4
116.8329,143.7
116.869,527
116.8908,15684.5
116.9048,515.7
116.9324,242.9
116.9593,522
116.9858,2153
116.9917,177.1
117.0589,101.6
117.0698,23.3
117.0751,305.8
117.088,536.1
117.1649,20.4
117.177,469.9
117.1849,107.1
117.2499,317.6
117.255,248.1
117.2719,97.1
117.2991,421
117.3097,631.7
117.3211,537.2
117.3476,328.5
117.3925,22.4
117.3966,144.1
117.4276,227.2
117.4486,198.6
117.4805,252.3
117.5216,18
117.5462,489.2
117.5618,297.7
117.6701,247.2
117.6777,18
117.679,149.1
117.7027,352
117.7381,220.2
117.7783,97.1
117.7848,101.9
117.8143,87.4
117.9411,440.5
117.9448,125.4
117.9465,158.4
117.9992,294
118.0075,531.2
118.0231,106.5
118.0504,145.3
118.0545,235.5
118.078,697
118.1287,237.3
118.1872,17.8
118.1977,420.3
118.235,31.6
118.2481,21.4
118.2622,308.8
118.2681,621.8
118.274,681.8
118.2847,585.3
118.2956,376.9
118.3339,737
118.3375,108.7
118.3983,382.3
118.3991,263.1
118.4969,496.9
118.5002,391
118.5736,302.3
118.5851,367.2
118.7,20.2
118.7198,300
118.7211,256.5
118.7318,382.9
118.74,104.1
118.7632,93
118.7733,20.1
118.792,37.1
118.8043,18.5
118.826,19.4
118.8331,20.3
118.8548,430.1
118.8748,84.3
118.9041,298.8
118.9148,171.8
118.934,310.7
118.9472,423
118.9585,18.3
118.9659,305.7
119.0189,20.8
119.0201,302.4
119.0267,227.6
119.1297,164.8
119.1828,455
119.1883,208.5
119.1934,101.8
119.2004,297.9
119.2238,94.5
119.2398,103.6
119.3081,101.5
119.3411,123.7
119.3637,172.3
119.3708,19.6
119.4002,16.6
119.4108,100.9
119.422,552.9
119.4382,670.7
119.4548,164.7
119.5554,148.2
119.5889,173.4
119.6101,560.7
119.6381,345.6
119.6406,360.3
119.6448,126
119.6782,118.6
119.7048,280.8
119.7144,531.3
119.7293,320.6
119.783,482.2
119.7947,476.4
119.8313,143.3
119.8487,680.2
119.8653,302.8
119.8707,262.6
119.9287,276.4
119.9481,413
119.9537,166.7
119.9951,607.7
120.0031,2209.1
120.0067,16.8
120.0484,322.6
120.0594,141.5
120.0655,924.3
120.0807,15869.1
120.0905,336.1
120.1137,632.4
120.1196,83.5
120.1512,40.8
120.2,248.7
120.2019,300.5
120.2485,113.2
120.2634,558.2
120.2787,180.8
120.2859,104.9
120.3035,426.2
120.3374,89.9
120.4201,103.1
120.4442,667.8
120.458,19.4
120.4801,18.1
120.5191,1820.8
120.531,322
120.5618,497.8
120.565,465.6
120.5885,323.3
120.6297,413.5
120.6523,136.7
120.6935,374
120.7159,18.9
120.7585,154
120.7791,17.7
120.8007,624.6
120.8044,103.9
120.8704,615.6
120.9489,278.2
120.9809,143.8
121.0076,307.9
121.0284,399.9
121.0395,141.4
121.0497,19.3
121.1523,431.3
121.1892,512.9
121.2146,112.4
121.2428,637.3
121.2573,251.7
121.2624,595.8
121.268,193.6
121.3356,176.2
121.3404,20.3
121.3488,91.4
121.389,123.5
121.3904,166.4
121.46,240.3
121.4723,293.5
121.4781,17.2
121.4987,260
121.5398,288.6
121.5679,259.7
121.6434,295.3
121.6448,118
121.6796,132.5
121.7035,673.9
121.7091,175
121.7118,93.7
121.8094,148.4
121.9133,249.2
121.9228,462.7
121.936,248.5
122.0434,33.6
122.0522,344.7
122.0672,106.9
122.1048,20.3
122.185,149.7
122.194,292.1
122.1965,81.5
122.2021,421.5
122.2414,282.5
122.257,166.8
122.2774,485.1
122.2963,625.1
122.2999,467.2
122.3107,142.3
122.3336,19.2
122.3651,104.4
122.424,159.9
122.4371,21.1
122.4417,309.8
122.4957,192.1
122.5113,239.5
122.5181,17.8
122.5299,112.1
122.5385,141.7
122.5508,506.8
122.5679,82.6
122.659,146.6
122.7169,538.3
122.7848,358.3
122.7983,90.4
122.806,17.7
122.812,145.6
122.8708,322.6
122.8757,109.8
122.8896,16.1
122.9007,505
122.9244,23842.1
122.9756,124.7
122.9947,592.2
123.0704,141.2
123.0805,92.9
123.0882,19.8
123.1101,272.4
123.1168,29.5
123.1223,163.4
123.1363,315.9
123.1549,160.8
123.186,271.7
123.1907,263.3
123.2043,705.6
123.2599,86
123.2802,112.1
123.2875,724
123.3244,451.1
123.3613,894.6
123.435,199.6
123.4407,159.4
123.4537,222.9
123.4572,613.1
123.4654,263.2
123.4674,161
123.4746,513.6
123.4812,355.9
123.5121,704.1
123.5348,373.5
123.539,148.4
123.5498,17.3
123.5588,548.7
123.6497,508.4
123.694,165.2
123.7413,19.6
123.7437,428.1
123.7981,247.7
123.8121,635.9
123.8358,199.2
123.8431,346
123.8566,21.1
123.9027,462.5
123.9841,18.1
124.0129,744.7
124.0149,295.1
124.0325,512.3
124.034,100.3
124.0444,17.7
124.0666,261.4
124.0719,189.6
124.122,350
124.1349,210.8
124.1878,526
124.1951,246.9
124.3288,121.8
124.3426,85
124.35,177.4
124.361,97.6
124.3683,204.9
124.3707,209.8
124.3782,1066.3
124.3824,102.5
124.3864,250.5
124.3919,101
124.4074,216.1
124.4106,21.5
124.4442,499.9
124.4814,619.5
124.5125,435.5
124.5153,17.8
124.5164,473.4
124.5376,99.1
124.5686,32.1
124.6949,313.6
124.7066,446.7
124.7096,193.5
124.7988,108.3
124.8493,773.9
124.852,495
124.9026,31.8
124.9224,1207.3
124.9449,84.8
124.9846,20.1
124.9862,617.8
124.9998,10488.7
125.0055,418.5
125.0224,582.3
125.0289,588.1
125.0389,218
125.0596,60.8
125.1438,18.7
125.1532,300.9
125.1659,429.1
125.2228,146.2
125.274,38
125.2893,484.4
125.325,103.2
125.329,269.8
125.3332,362.7
125.3558,121.2
125.4004,375.5
125.4246,346.9
125.4338,931.8
125.4876,277.9
125.5124,410.4
125.5333,93.4
125.6162,493.9
125.699,155.9
125.7353,374.4
125.7422,18.8
125.7507,720.5
125.7676,437.2
125.8026,78.3
125.825,184.5
125.8309,283
125.8735,168.1
125.8835,397.1
125.8978,90.2
125.9018,504.3
125.9087,106.4
125.9207,289
125.9223,39.6
125.933,299.5
125.944,129.4
125.9475,264.6
125.9487,639.3
125.9769,87.6
126.0259,145.5
126.0449,743.7
126.0807,194.1
126.1149,178.1
126.1241,98.4
126.2067,36.3
126.2524,144.1
126.2599,371.1
126.275,557.1
126.2809,818.6
126.3164,128
126.3313,121.6
126.3726,98
126.3982,712.2
126.4829,309.7
126.4909,138.2
126.5067,318.6
126.5682,519.4
126.6081,29.8
126.6151,32.6
126.6511,22
126.8377,167.4
126.852,113.2
126.8655,321.3
126.8726,383.5
126.9465,16.3
127.0267,385.4
127.0367,281.6
127.0479,172.8
127.0535,17
127.0881,223.5
127.1013,290.5
127.1059,170.5
127.1122,117.6
127.1267,414
127.152,470.6
127.1872,21.6
127.2064,229
127.2598,181.8
127.274,344.2
127.3153,96.9
127.3638,436.7
127.3671,82.2
127.4237,17
127.4259,177.8
127.442,19.1
127.4527,153.6
127.4842,18.5
127.4894,19.3
127.5176,301
127.5823,104.3
127.7186,223.6
127.7574,98.3
127.7666,346.1
127.7737,441.8
127.7813,104.6
127.7988,220.4
127.8399,23.7
127.8896,19.9
127.9225,340.8
127.9779,16.3
127.9897,743.8
128.0303,125.5
128.0351,19.1
128.0572,17.8
128.0915,39.2
128.1171,20.7
128.1186,307.3
128.1251,245
128.177,19.4
128.1927,17.7
128.2637,292.4
128.2727,96.8
128.2995,671.8
128.3182,33.7
128.3812,327.9
128.3902,316.1
128.4359,522.2
128.5058,425
128.5101,347.5
128.6248,357.4
128.6391,337
128.68,18.1
128.6887,21.9
128.7084,504.5
128.7099,108.5
128.7611,401.6
128.7681,18.8
128.7827,390.7
128.7962,236.3
128.8241,116.7
128.8247,88
128.8272,203.3
128.8411,128.7
128.8733,194.2
128.9095,543.7
128.9272,166.5
128.9658,243.5
128.9858,553.1
128.9996,324.2
129.0018,304.8
129.0033,1128.8
129.049,103.8
129.0553,292.4
129.0766,315
129.0928,97.8
129.0943,271.2
129.1021,1050.7
129.1291,305.9
129.1554,302.3
129.1758,20.8
129.2036,363.7
129.2612,302.7
129.2673,943.1
129.2831,306.7
129.2914,533.1
129.321,266.5
129.3291,17.6
129.3877,412.1
129.4395,551.3
129.4566,690.6
129.4953,38
129.509,111.4
129.5744,17.9
129.6037,203.6
129.6081,481.3
129.633,91.4
129.6417,166.4
129.7225,502.4
129.7306,487
129.7385,19.9
129.9296,145.5
129.9491,275.3
129.9677,17.2
129.9778,369.3
129.9877,322.7
130.0431,364.7
130.0499,5902.7
130.0775,16.4
130.1141,215
130.1202,266.1
130.1207,274.3
130.1779,811.4
130.2604,698.2
130.2806,384.5
130.3225,242.6
130.3511,109.2
130.3776,682
130.387,214.2
130.4753,277
130.5069,744.1
130.5286,226.6
130.5299,725.7
130.571,125.5
130.6255,653.4
130.703,239.9
130.7124,914
130.7428,195.7
130.7448,20.9
130.7664,380.3
130.7707,848.5
130.7792,700
130.8125,21.6
130.8328,489.5
130.8404,126.7
130.8434,308.1
130.8481,123.7
130.863,339.5
130.8701,175.2
130.8758,278.5
130.8779,396.7
130.8891,678.3
130.9126,134.6
130.9154,18.1
130.9369,163.3
130.9448,320.5
130.9811,101.2
130.9833,934.4
131.0014,565.7
131.0074,569.6
131.0087,217.7
131.018,223.5
131.0921,418.3
131.1208,532.1
131.1415,731
131.2786,123.6
131.2821,349.3
131.293,18.5
131.2969,177
131.3223,262.5
131.4078,647
131.4684,400.4
131.4773,85.6
131.4981,686.8
131.5577,266.2
131.6044,17.9
131.6393,311.5
131.7264,111.9
131.7289,113.1
131.7498,292.4
131.9714,117.6
132.0032,24743.4
132.0062,37.7
132.0556,179.1
132.0597,246
132.0655,95311.8
132.0685,94.8
132.0842,22.3
132.1017,294.9
132.1408,176.2
132.1445,16.8
132.167,266.9
132.1996,18.2
132.2026,107.3
132.2671,313.7
132.3082,239
132.3306,90.8
132.344,322.7
132.3665,137.7
132.399,92.6
132.4108,283.9
132.4163,651.4
132.4344,477
132.452,151.3
132.5086,251.2
132.5521,188.4
132.56,343.7
132.5918,169
132.6028,451.9
132.6049,91.8
132.6153,142.4
132.6663,89.3
132.6773,149
132.7051,279.9
132.7535,128.9
132.8308,303.2
132.8975,282.8
132.9039,356.7
132.9058,752.7
132.9584,51.5
132.9831,174.3
132.9872,2868
133.0119,352.7
133.024,34.5
133.0269,320.5
133.0688,3434.8
133.0971,13967.4
133.1451,95
133.1571,180.7
133.1715,153.5
133.1753,155.5
133.1954,432.7
133.2035,185.9
133.2135,230.5
133.2212,18.7
133.249,557.6
133.27,314
133.3083,115.5
133.3598,156.3
133.3709,104.3
133.4604,190
133.502,37.1
133.5493,140.2
133.5587,296.9
133.5604,213
133.604,204.3
133.6304,113.2
133.6864,88
133.6914,144
133.7766,553.3
133.8564,19.5
133.9774,98.8
134.0188,18326.2
134.0925,147.3
134.1676,125.4
134.1713,408.8
134.1743,19.9
134.2356,19.7
134.2972,493.1
134.3206,19.7
134.3505,20.3
134.4973,112.7
134.5223,118.6
134.5269,712.5
134.5663,33.8
134.656,362.5
134.7025,157.7
134.7143,370.1
134.7319,316.2
134.7659,158.6
134.7832,663
134.7987,17
134.8681,414.2
134.9159,96.9
134.9425,549.5
134.9965,72.3
135.0028,94943.1
135.0232,28.1
135.03,262.5
135.0835,269.1
135.1168,200.1
135.1401,508.1
135.2044,223.8
135.2134,501.1
135.294,34
135.2964,175.9
135.338,17.3
135.3421,155.1
135.3956,18.7
135.46,121.3
135.5075,20.4
135.5103,668.4
135.5665,542.3
135.5998,551.8
135.6439,128.8
135.6521,135.8
135.6602,544.2
135.6934,74
135.7439,99.8
135.7603,207.4
135.7834,404.5
135.796,21.4
135.7999,21.2
135.8228,193.8
135.9106,222.4
135.9367,21.9
135.9737,295.2
135.977,2852.9
135.9865,135.1
136.0063,690.5
136.0431,142.7
136.0481,11150.1
136.0615,524.2
136.0757,11586.2
136.0957,19.3
136.129,448.5
136.1308,90.5
136.1577,91.7
136.198,19.8
136.2228,17.9
136.238,267.3
136.2455,16
136.3082,116.5
136.3485,455.7
136.3592,536.2
136.3701,22.2
136.4575,162.5
136.4605,115.7
136.486,16.9
136.5113,16.8
136.5169,1231.4
136.5373,385.9
136.5432,234.9
136.5526,396.4
136.5538,148.4
136.623,311.3
136.634,183
136.643,448.8
136.6538,258.2
136.7376,187.8
136.7613,92.2
136.8278,120.6
136.8555,464.4
136.8922,386.7
136.9311,3291.4
136.947,279.3
136.9549,131.2
136.9559,150.9
136.9675,17.4
136.9682,24.2
136.9686,19.7
136.974,406.6
136.9768,119.6
137.0453,549
137.0596,26.9
137.0683,198.2
137.0774,107.1
137.0913,108.3
137.175,259
137.2619,83.1
137.2859,17.1
137.3116,19.3
137.3184,320.5
137.3631,285
137.3658,286.4
137.3867,175.9
137.4184,103.3
137.4308,300.9
137.5291,320
137.5346,309.5
137.5366,99.9
137.595,381.4
137.6004,291.5
137.6123,280.8
137.635,382.8
137.749,37
137.7816,123
137.7988,413.3
137.8801,19.8
137.932,131.7
137.9727,551.8
138.0068,301.9
138.0202,145.3
138.0346,765.8
138.0526,6206.1
138.0662,32
138.1636,605.5
138.1828,331.2
138.1856,173.2
138.2043,19.9
138.2934,167.8
138.3109,341.3
138.3491,725.1
138.4634,97.6
138.4775,256.7
138.4864,337.4
138.5012,16.7
138.5357,203.7
138.5613,17.2
138.6025,317.9
138.6237,90.1
138.6303,18.8
138.6653,448.2
138.6875,621
138.7012,189.1
138.7113,325.1
138.7539,289.4
138.8027,206.2
138.8329,87.9
138.8609,18.2
138.8691,352.6
138.9065,2381.5
138.9832,122.7
139.0414,473.2
139.0976,597.7
139.1426,375.2
139.1658,622.7
139.1687,336.6
139.2554,546.8
139.3287,214.1
139.3422,186.6
139.3565,806.3
139.3624,149.2
139.3645,166.4
139.3963,590.8
139.403,478.5
139.4354,135.8
139.4848,524.2
139.4944,107.9
139.5091,351.1
139.5557,313.5
139.6119,299.2
139.7109,166.2
139.7591,239.9
139.7693,89.8
139.7749,337.6
139.818,162.3
139.8445,748.9
139.9865,554.2
139.9926,462.5
139.9932,437
139.994,484.6
139.9971,38.6
140.0165,1236.7
140.0251,168.5
140.0361,509.6
140.0446,99.7
140.0568,203.9
140.0682,2734.1
140.0968,91.1
140.1579,447
140.1749,213.9
140.2141,20.2
140.2767,20.2
140.3063,100.2
140.3222,85.1
140.3244,352.1
140.3548,743.8
140.3771,452.2
140.3933,246.8
140.4759,156.5
140.5037,626.3
140.5428,156.5
140.5808,102.1
140.5884,519.3
140.6475,600.5
140.7081,20.9
140.7139,432.2
140.7343,166.2
140.7698,407.7
140.7747,497.7
140.7898,86.8
140.8071,34.5
140.8185,224.7
140.8315,203.4
140.8564,191.2
140.8636,249.8
140.8992,483.4
140.9036,1105.3
140.9639,93.5
141.0005,15943.1
141.0198,20.6
141.0305,295.8
141.0465,722.7
141.1185,746.4
141.1272,124.3
141.1698,147.2
141.2103,19.3
141.3186,35.3
141.3979,545.7
141.424,17.4
141.495,334
141.645,76.4
141.6924,33.4
141.7358,90.5
141.8038,218.4
141.8372,17.9
141.8757,140.8
141.8842,305.3
141.8879,565.3
141.9029,452.2
141.9103,265.4
141.913,515.1
141.9705,188
141.9766,22.5
142.0039,616.5
142.0243,329.8
142.0473,397.2
142.0552,327.6
142.0738,56.2
142.0936,468.6
142.1379,18.9
142.1505,113.3
142.1547,680
142.1682,20.3
142.1877,263.5
142.197,21.1
142.2021,98.9
142.2496,293.6
142.2785,830.4
142.3276,434.3
142.3415,144.8
142.3775,681.6
142.41,437.9
142.4215,380.2
142.5589,313.3
142.6555,119.3
142.6678,117.1
142.6758,610.7
142.8892,563.8
142.9482,505.1
142.9666,109.5
142.9963,288.1
142.9989,79
143.0192,1166.6
143.0518,522.8
143.0816,224.8
143.1359,447.9
143.143,524.6
143.1599,359
143.1939,135.2
143.2006,429.9
143.2187,401.1
143.233,209.6
143.3032,165.4
143.3055,23.6
143.337,439.2
143.3447,17.3
143.3497,241.6
143.3956,22
143.4241,760.5
143.4747,296.9
143.4774,142.4
143.5208,455.8
143.5482,553.6
143.5841,97.6
143.6569,146.6
143.6845,132.8
143.6866,115.7
143.7028,203.3
143.7502,137.6
143.819,506.3
143.852,143.5
143.8624,380.8
143.9307,137.8
143.933,117.3
143.9503,159.8
143.9693,20.6
144.0001,707.6
144.0107,23.4
144.0631,29.9
144.0968,226.6
144.159,17.9
144.1741,719.3
144.2466,104.2
144.3261,359.3
144.4082,170.7
144.4251,17.8
144.4951,562.8
144.5128,117.2
144.5352,178.1
144.5569,367.2
144.6373,148.6
144.6834,95.8
144.6899,21.4
144.7127,462
144.7153,18.3
144.7204,156.3
144.7783,39.5
144.8382,131.3
144.8717,410.6
144.9024,490.4
144.9191,35.9
144.9225,164
144.9455,123.7
144.9808,4382.5
145.0381,154.7
145.0631,95.7
145.0799,95.9
145.1203,547.1
145.1289,325.6
145.1339,497.3
145.1474,279.8
145.1714,289.1
145.1891,177.4
145.1992,387.3
145.2796,264.2
145.3065,172.9
145.422,562.8
145.4507,337.3
145.4623,345.9
145.4781,450.8
145.4954,18.1
145.5091,373.8
145.5095,372.9
145.5937,16.6
145.626,167.8
145.6559,94.4
145.6689,550.9
145.7632,272.4
145.7733,164.4
145.7792,20.5
145.8226,299.6
145.9091,464.7
145.9114,286.9
145.9194,22.3
145.9351,274.3
145.9437,92.9
145.9603,508
145.9874,262
146.0124,3885.7
146.0188,16465.6
146.0257,20.6
146.0326,433.2
146.0489,446.5
146.0574,583.5
146.0654,140.6
146.1581,142.2
146.1918,19.8
146.1953,559.7
146.1967,198.8
146.2492,293.8
146.2509,114.9
146.4152,321.8
146.4371,357.7
146.4418,114.3
146.4726,342.5
146.4777,580.4
146.4847,21.4
146.5041,493
146.6002,102.4
146.63,296
146.6481,306.9
146.7147,117.6
146.7236,614.9
146.7896,433.2
146.8207,84.6
146.8566,162.6
146.8615,105.9
146.9144,17.6
146.9534,297.8
146.9818,144179.5
147.0279,89.3
147.0382,19.1
147.0726,434.7
147.0764,37654.1
147.0898,132.8
147.1128,22948.5
147.1166,626.2
147.1249,269.5
147.149,100.8
147.1664,326.9
147.1868,16.8
147.1995,387
147.2303,107.1
147.2347,288.7
147.4984,155.7
147.5442,326.6
147.5665,344.5
147.5709,293.6
147.5715,290.5
147.5722,255.1
147.6488,202.3
147.7004,298.3
147.7129,111.1
147.7176,471.8
147.7487,175.4
147.7574,751.3
147.7659,198.9
147.7786,92.2
147.8367,274.4
147.8456,22
147.8767,144.3
147.9069,155.5
147.9145,195.3
147.9929,574.2
148.018,18.8
148.0344,334.2
148.0843,211.3
148.1436,421
148.1804,94.7
148.2204,442.7
148.2242,573.9
148.2316,259
148.2404,290.5
148.2687,513.8
148.2973,111
148.3716,99.4
148.4001,267.5
148.4113,130.7
148.4365,463
148.469,138
148.5322,6059.6
148.5464,502.1
148.5704,219.7
148.5893,39.3
148.595,207.3
148.6034,310.3
148.6145,297.6
148.645,20.7
148.6471,287.9
148.7178,145.9
148.7296,542.2
148.8135,287
148.84,734.9
148.9612,2566.4
148.9641,229.6
149.0026,60.1
149.0186,8151.6
149.0234,5132.9
149.0445,328
149.1136,384.8
149.1179,140.7
149.1665,158.4
149.2091,252.2
149.2526,152
149.3373,94.8
149.3432,394
149.348,294.4
149.38,98
149.4156,135.5
149.5438,113.4
149.5487,481.1
149.5871,17.7
149.6063,268
149.7214,123.2
149.7849,179.4
149.8122,179.1
149.8209,395.1
149.8549,158.2
149.8894,738.5
149.8954,662.2
149.8971,272.8
149.9263,123.7
149.9292,174.4
149.9928,11905
149.9967,116.1
150.0138,3995.4
150.0267,61.9
150.032,102
150.0416,18.5
150.073,145.5
150.1011,264.2
150.1115,317
150.2054,329.3
150.2339,314.3
150.354,437.8
150.3651,635.7
150.4025,742.4
150.4266,258.7
150.5465,247.7
150.5671,103.3
150.7092,265.1
150.7316,593.8
150.7451,155.6
150.763,19.4
150.8261,123.9
150.8546,592.5
150.9257,316.4
150.9768,63944.7
150.9842,338.5
151.0478,2160.4
151.0808,17.3
151.0865,699.5
151.1536,295.4
151.2533,595.3
151.2577,379.2
151.2744,18.4
151.2827,206.2
151.3199,528.4
151.3756,17.5
151.3913,17
151.3992,22.2
151.4086,378.5
151.4572,679.4
151.4985,373.7
151.503,138.5
151.5896,138.5
151.609,290
151.6527,19.5
151.6592,22.4
151.7303,147.6
151.7621,172.4
151.7731,279
151.78,21.1
151.838,284.9
151.8451,123.2
151.8605,154.9
151.8703,435.4
151.8739,513.1
151.9149,21.6
151.9273,329.5
151.9317,795.1
151.9419,344.4
151.951,661.8
151.9666,265.4
151.9801,492.8
152.0098,235.2
152.0221,17043.9
152.0318,1810.1
152.1331,221.5
152.3082,568.1
152.3849,551.3
152.4108,123.9
152.4132,181
152.4242,302.4
152.472,520.6
152.4808,288.3
152.5504,803
152.5876,303.9
152.6203,19.2
152.6356,18.9
152.6413,18.4
152.6848,157.3
152.698,18.4
152.7209,452
152.7482,209.2
152.7703,158.4
152.7826,20.9
152.9169,178.1
152.918,202.4
152.919,156.8
152.9515,101.9
152.9655,198.1
152.975,4400.6
152.9816,155.9
153.0152,285.2
153.0264,418.5
153.0541,546.8
153.0649,19.4
153.0683,345.4
153.0829,252.6
153.1267,623.8
153.1309,539.6
153.1666,165.3
153.2052,401.7
153.2074,614.7
153.2177,87.6
153.2643,20.6
153.3053,527.8
153.3671,246.7
153.4722,243.8
153.5453,203.7
153.6116,144.5
153.6587,151.1
153.6998,18.1
153.7559,17.4
153.9008,270.6
153.9132,432.5
153.9375,528.5
153.9443,319.4
153.9548,225
154.01,153.4
154.0115,276.8
154.0265,1085.5
154.0611,165
154.2488,253.1
154.2861,18.6
154.3596,327.6
154.3996,831.7
154.4159,506.9
154.4187,164.7
154.4248,823.3
154.4292,216.2
154.4311,301.3
154.4332,16.9
154.4538,182.5
154.4976,297.8
154.5648,171.6
154.5746,378.5
154.5751,387.1
154.7025,149.2
154.719,80.9
154.7967,412.4
154.8115,24.2
154.8787,443.5
154.9075,120.2
154.9149,581
154.9348,157.6
154.9418,717.6
154.9439,92.2
154.9499,308.5
154.9713,294
154.9858,103.4
155.0049,166.2
155.0427,2039.8
155.0494,350.5
155.054,5996.5
155.0663,155.8
155.1491,141.2
155.2563,577.6
155.3286,361.4
155.3305,155.8
155.4301,255.2
155.4427,120.7
155.4689,138.5
155.4958,246
155.5252,476.9
155.57,98.5
155.5798,98.7
155.5828,18.4
155.6129,404.2
155.6172,20.1
155.6331,318.5
155.6546,150.8
155.7344,277.8
155.8,184.4
155.9311,222.3
155.9831,152.8
155.9915,348
156.0134,577.4
156.0422,1755
156.0574,110.5
156.0768,45451
156.1603,19.5
156.3087,384.1
156.4118,149.5
156.4272,37.5
156.4449,84.6
156.4549,149.9
156.459,228.7
156.4876,16.5
156.513,18.4
156.6477,22.8
156.6985,275.3
156.8178,21.5
156.8652,263.6
156.8685,18.3
156.9297,309.5
156.9489,328.2
156.9735,536.7
157.0044,115.7
157.0274,20.4
157.0802,1061
157.0972,358.7
157.1546,575.4
157.2486,473.2
157.2614,488.1
157.2763,280.4
157.4123,22
157.5916,465.1
157.6068,310.4
157.6822,419.9
157.6879,352.2
157.7163,169.4
157.7558,144
157.7758,18.2
157.8597,205.3
157.8764,90.4
157.8825,329.4
157.9615,107
158.0271,3437.1
158.0498,151.2
158.074,433.8
158.1058,359.1
158.1672,224.5
158.3137,531.8
158.3318,628.6
158.3805,92.3
158.4367,333.4
158.4924,149.4
158.5661,434.3
158.5705,81.5
158.7234,36.1
158.7514,136.1
158.782,18.8
158.8004,600.3
158.8174,18.8
158.8512,586.1
158.8552,314.3
158.8613,421.5
158.8754,155.3
158.9278,1279
158.9424,518.5
158.9493,363.5
158.9596,448.7
158.9641,11967.9
158.9965,8832.3
159.0263,19
159.0306,120.9
159.0575,161.6
159.071,247.6
159.0827,885.8
159.0916,53
159.237,94.3
159.2553,155.1
159.2562,238
159.2613,110.9
159.4226,740.5
159.4269,531.5
159.4425,246.7
159.4775,18.5
159.4828,665.2
159.5071,88.5
159.5445,415.8
159.6535,219.8
159.6685,304.1
159.6922,328.4
159.7053,537.9
159.7471,422.7
159.7604,152.9
159.8131,240.9
159.8161,19.6
159.8429,246.1
159.8623,403.8
159.8798,555.3
159.9152,427.6
160.0017,163.2
160.0229,29.7
160.0346,22384.8
160.0605,115397.9
160.0843,178.1
160.1079,754.2
160.2194,871.9
160.25,99.3
160.2811,104.6
160.3574,33.2
160.4417,19
160.4509,175.7
160.4919,21.2
160.4954,21.1
160.5073,269.2
160.5557,19.7
160.5608,90.1
160.5718,437.5
160.6221,150.6
160.6998,517.7
160.7042,456.7
160.7592,425
160.7887,120.3
160.7914,536.6
160.7979,177.3
160.8068,17.8
160.8304,166
160.8493,18.8
160.8734,371.3
160.8754,17.2
160.8854,89.7
160.8958,441.3
160.9153,472.9
160.9903,34.9
161.0186,449.5
161.0608,21.6
161.0639,4873.4
161.1053,266.3
161.1211,735.7
161.1288,461.1
161.1327,20.6
161.1889,620.9
161.1925,127.8
161.2263,274.6
161.2887,19.4
161.3263,270.4
161.3924,263.3
161.4313,452.3
161.487,85.5
161.5048,155.4
161.5674,265.2
161.6419,26.4
161.6479,209.4
161.7019,106.8
161.7044,268.9
161.8244,625
161.8379,281.5
161.8599,516
161.8861,18.9
161.9566,118.8
161.995,710.1
162.0172,136.7
162.0502,19050.1
162.0862,102.9
162.1125,261.5
162.1138,121.5
162.1148,113.8
162.1196,287.3
162.1453,271.4
162.1707,145.2
162.1873,383.3
162.1982,252.8
162.3289,19.5
162.3363,173.7
162.3972,144
162.4954,189.3
162.548,137.7
162.5998,92.9
162.6817,567.2
162.7017,19.2
162.8025,340.1
162.9558,4372
163.0156,5371.8
163.0341,578
163.0393,20.6
163.0627,18
163.0962,140.4
163.099,276.7
163.1256,320.7
163.167,137.9
163.1702,17.6
163.3274,146.2
163.3675,32.9
163.5037,489.4
163.5467,110.2
163.5672,148.6
163.5798,737.9
163.5945,294.9
163.6169,92.4
163.6232,317.7
163.6325,497.4
163.6371,755.6
163.6483,195.1
163.6506,329.9
163.654,197.7
163.7669,431.6
163.8801,17.7
163.9023,114.2
164.0295,17879.8
164.0598,20.4
164.0611,146.4
164.1543,298.7
164.168,125
164.1768,236.6
164.2023,480.4
164.2256,195.7
164.2376,214.6
164.2473,20.6
164.2937,93.9
164.3262,571.7
164.3719,286.8
164.4226,277.6
164.4635,130.7
164.547,220.4
164.5552,299.4
164.5978,93.8
164.6728,109.5
164.6959,304.2
164.714,119.8
164.7586,21.2
164.7948,252.6
164.8326,19.8
164.8617,162.2
164.8693,253.9
164.9206,4575.9
164.9301,13262
164.9351,2297.2
164.9925,4135.2
165.0912,1412.1
165.2764,210.6
165.3243,140.5
165.343,130.5
165.3835,596.8
165.4024,123.9
165.469,108.3
165.4817,473.8
165.5401,286.5
165.6162,135.3
165.6621,722.8
165.7141,301.9
165.7209,177.3
165.7588,18.2
165.7815,84.4
165.8197,88.9
165.8667,912.3
165.8769,354.2
165.9295,333.8
165.9668,2686.6
165.9788,1758.4
165.9879,5020
165.9951,68
166.04,473.6
166.0711,130.6
166.0873,324.2
166.0939,571.5
166.1259,755.4
166.1398,623.3
166.2093,172.8
166.2195,16.8
166.2286,123.2
166.3314,115.6
166.3915,19
166.4293,262
166.4661,340.7
166.4855,38.7
166.493,295.6
166.5242,506.6
166.5384,515.1
166.5578,250.1
166.5972,411.4
166.6086,332.2
166.6134,240.2
166.6235,20.5
166.6415,103.7
166.6829,119.2
166.7298,421.3
166.8064,18.3
166.8282,113.7
166.8398,614.6
166.9509,27264
166.9917,303.9
167.0123,22.7
167.0218,3894.6
167.0662,111.8
167.0943,251.7
167.1085,310.9
167.1997,17.9
167.2587,16.9
167.4196,391.1
167.4259,487.7
167.554,113.1
167.6241,111.7
167.6398,251.2
167.6654,22.3
167.674,204
167.6895,16.6
167.6965,571.7
167.7417,17.9
167.7826,543.5
167.8217,161.1
167.8404,98.5
167.882,76.9
167.9071,103.6
167.9858,304.6
167.9944,1024.2
168.0061,321.1
168.0792,20.6
168.1562,196.7
168.2196,631.1
168.2494,347.1
168.2509,288.9
168.3315,600.6
168.4238,307.1
168.4823,41.4
168.4846,163.7
168.5545,204.2
168.694,116.6
168.7454,181.9
168.774,314.5
168.8026,87.4
168.8162,496.3
168.8486,441
168.9099,20.7
168.9491,1921.2
168.9911,38.3
169.0172,22.6
169.0585,41916.8
169.0649,949.6
169.0946,316.4
169.0973,649
169.1243,114.1
169.1742,18.5
169.1887,311.3
169.2321,564.2
169.2493,104.3
169.2734,167.9
169.3299,287
169.3306,285
169.5443,115.8
169.6312,120.9
169.6341,107.5
169.7345,748.2
169.7774,38.1
169.808,514.3
169.8306,237.8
169.8397,711.4
169.8701,899.6
169.9757,431.7
169.9778,123.9
169.9858,913.6
170.0002,241.9
170.0328,1424.5
170.062,872
170.0925,2408.3
170.1252,118.4
170.1834,19
170.2541,265.7
170.325,500.5
170.3272,627.8
170.5148,36.8
170.5862,177.5
170.6399,244.7
170.647,415.3
170.6795,312.4
170.6864,751.3
170.7013,535.1
170.7519,185.5
170.8544,3399.5
170.8894,515.5
170.9552,18
170.9694,128.3
171.0168,931.5
171.0281,573
171.0794,151.1
171.112,391.4
171.1551,21
171.1625,390.9
171.1933,297.4
171.2524,172
171.2845,703.6
171.3008,839.9
171.3161,114.8
171.4258,195.4
171.4827,212
171.5149,94.6
171.5327,381
171.6193,624.9
171.6389,19.6
171.691,16.8
171.7295,111.9
171.755,425.7
171.7658,805.4
171.8937,130.7
171.9242,309.1
171.9373,778.4
171.9389,819
171.9884,287.6
172.0029,254.5
172.0283,1792
172.0485,294.6
172.0557,152.9
172.0911,562.3
172.104,580.8
172.1273,147.2
172.1295,232.9
172.1635,120.3
172.3025,531.4
172.3694,355.7
172.3747,566.2
172.3907,16.9
172.4569,270.8
172.5473,138.9
172.6372,36.3
172.6446,19.2
172.659,264
172.6865,139.8
172.7715,298.7
172.8514,1057.6
172.9516,242.5
172.9661,763.2
172.967,728.4
172.9723,440.1
173.0273,955.5
173.03,399.9
173.0342,635.7
173.1365,599.5
173.1502,17.5
173.163,185.7
173.2146,266.5
173.2212,120.3
173.3004,194.7
173.3521,258.7
173.3563,485.4
173.3654,440.4
173.3969,102.1
173.5833,526.6
173.7042,961.7
173.7197,18.4
173.7299,496
173.7781,22.8
173.8246,113.7
173.8609,244
173.8808,114.5
173.8959,169.7
173.9027,522.8
174.0044,676.6
174.025,96
174.0303,19.3
174.1179,256.9
174.1361,197.7
174.2062,111.5
174.304,581
174.3134,18.3
174.3672,175.1
174.493,158.7
174.5039,782.6
174.523,102.7
174.5583,36.7
174.5731,304.4
174.6618,80.1
174.7389,637.2
174.7679,20.9
174.7817,324.6
174.7861,119.1
174.832,255.5
174.8984,264.8
174.9097,258.6
174.9215,522.3
174.9381,6175.2
174.9495,625
175.0343,10591.5
175.0456,2755.3
175.0578,3438.1
175.0857,404.3
175.1191,66337.8
175.1235,250.3
175.1486,26.3
175.1523,167.5
175.1632,103.3
175.1826,397.4
175.2238,452.5
175.3009,147.4
175.3043,16.6
175.3303,17.6
175.3407,325.2
175.3705,280.6
175.4174,179.2
175.4653,368.7
175.4947,34.1
175.5628,383.9
175.6075,454.6
175.6557,115.5
175.6651,17.5
175.8138,212.7
175.8474,101.2
175.8826,258.6
175.8905,475.1
175.9239,309.9
175.9631,19
176.0086,10921.4
176.0245,22.8
176.0531,203.2
176.0659,31210.3
176.0738,214.9
176.1031,2051.8
176.1225,793.3
176.1493,354.1
176.1542,153.3
176.1671,260.1
176.2115,20.2
176.2262,325
176.272,365.9
176.2788,241.9
176.3533,533.5
176.4706,20.5
176.5043,195.5
176.51,542
176.5902,179.4
176.6005,18.6
176.6332,344.9
176.6504,253.6
176.6892,316.5
176.6943,308.3
176.9239,88.3
176.9585,300.6
176.9771,322
176.9925,4354.4
177.0248,7370.9
177.0446,188.8
177.0612,8508.2
177.0697,328
177.0871,1470.3
177.1208,481
177.1287,365.3
177.1663,463
177.1749,17.3
177.2113,312.1
177.2947,143.4
177.3384,21.2
177.3669,288.3
177.4009,479.7
177.4636,161
177.524,129.8
177.5531,183.9
177.5812,364
177.6043,111.6
177.6352,290.1
177.6747,33
177.7225,117.5
177.8523,325.1
177.8802,521.4
178.0088,9205.3
178.0242,9478.6
178.0588,3122.2
178.0635,218.4
178.1263,111.8
178.1297,262.3
178.2095,236.8
178.23,18.4
178.2355,191.6
178.2857,120.8
178.3685,496.9
178.4148,316.3
178.6389,123.5
178.7326,592
178.915,325.7
179.0082,433.5
179.0494,385.9
179.0741,330.5
179.2013,324
179.2547,338
179.32,114.2
179.3254,271.3
179.3413,135.8
179.346,417.7
179.4329,306.7
179.4768,19.8
179.4796,260.1
179.498,201.9
179.5407,127.4
179.6086,152.5
179.6125,450.7
179.6578,263.3
179.684,130.7
179.6906,439.3
179.7802,313.4
179.7887,362.4
180.0006,274.8
180.0035,14549.3
180.0341,101.2
180.0608,449.9
180.0715,95.7
180.1109,111.9
180.114,17.3
180.1402,18.3
180.1469,215
180.1787,94.3
180.3365,119.1
180.3547,129.8
180.3815,129.7
180.388,445.1
180.4181,19.5
180.5112,454.5
180.6274,271
180.6354,283.1
180.6516,19.4
180.7498,327.9
180.8114,108.5
180.8295,761.7
180.8349,416.1
180.8946,2972.5
180.904,6677.6
180.9222,95.3
180.9277,17.6
180.9575,1998.7
180.9669,422.9
180.9789,523.4
180.987,278.2
181.0066,85.1
181.0113,170
181.0136,18.5
181.0356,113.3
181.065,8490.3
181.0793,394.5
181.1647,566.3
181.1731,18.7
181.1756,305
181.1889,20
181.2714,137.7
181.2839,17.4
181.2997,340.2
181.3117,245.4
181.3467,309.1
181.3488,533.1
181.3616,548.2
181.4678,113.4
181.5075,106.1
181.5621,81.2
181.5792,516.9
181.664,351.9
181.6841,122.1
181.7101,105.4
181.7125,392
181.8029,582.4
181.8503,199
181.9188,297.6
181.9261,220.4
181.9562,19
182.0125,413.1
182.0426,34788.6
182.0801,433.2
182.1208,79.8
182.1586,592.7
182.2078,354.1
182.2316,91.3
182.3093,19.8
182.3759,20.1
182.4932,432.9
182.6305,92.1
182.689,19.2
182.7149,181.1
182.8042,683.4
182.8097,137.3
182.8572,611.3
182.9026,53.1
182.9344,163.1
182.9415,297.1
183.0445,2469
183.0564,86.3
183.0796,105.8
183.1566,390
183.1609,228.3
183.1757,477.5
183.2683,368.1
183.3012,179.2
183.3137,34.6
183.3987,555.2
183.5254,32.7
183.5323,173.8
183.5484,111
183.5944,17.6
183.6145,171.7
183.6237,96.2
183.6508,118.1
183.7242,405
183.739,616.2
183.7581,450
183.767,20.3
183.7829,495.4
183.8571,17.3
183.8815,520.3
183.9576,501.7
183.9648,1035.9
184.0371,769.7
184.0635,378.8
184.0652,874.4
184.0735,4961827
184.0891,108.5
184.1097,1785.1
184.1324,482.9
184.1698,46.3
184.1822,4369.8
184.2432,743.6
184.2703,656.5
184.2836,384.2
184.2885,172.2
184.3016,559.6
184.3044,830.1
184.3402,306.7
184.3451,266.1
184.4604,252.2
184.4671,98.3
184.4792,19.9
184.6605,185.5
184.6828,531.9
184.6952,145.7
184.7068,16.2
184.7659,254.1
184.8483,20.1
184.9178,325.9
184.9292,145.4
185,233.4
185.0021,19.7
185.0236,501.7
185.0324,42219.5
185.0704,9709.1
185.0768,236262.9
185.1071,91.9
185.1292,17.8
185.1496,451
185.2701,507.7
185.4141,554.2
185.4554,110.6
185.4883,227.6
185.642,20.1
185.6736,520
185.7117,329.1
185.7305,89.6
185.7873,147.9
185.8531,18.4
185.9184,312.3
185.9599,513.5
185.9987,966.6
186.0332,99.9
186.0357,326.4
186.0777,30377.3
186.2405,17
186.2434,18
186.258,147.1
186.3011,584.4
186.3082,181.7
186.3395,777.6
186.3615,573.3
186.4279,230.4
186.4491,246.3
186.4753,510.7
186.57,342.8
186.6237,39.9
186.788,316.6
186.8244,102.5
186.8671,235.5
186.895,103
186.9122,2566
187.0305,1799.2
187.0431,754.6
187.0579,8158.8
187.0715,2071.5
187.1079,11647.5
187.2416,18.3
187.3606,250.5
187.4025,720.1
187.4398,44.9
187.5204,201.2
187.5251,286.3
187.5392,517.5
187.5962,103.1
187.617,195.1
187.7164,116.7
187.7387,209.7
187.8027,445.1
187.8322,671.2
187.9325,141.5
187.9818,17.1
188.0012,548.3
188.0743,381.6
188.1119,258
188.1225,18.1
188.1604,444.3
188.1675,98.5
188.1705,545.6
188.19,16.3
188.1907,16.1
188.197,438.1
188.2253,748.1
188.2357,86.9
188.2657,159.7
188.3299,492.5
188.5426,22.5
188.5706,228.8
188.6151,432.1
188.785,433.6
188.7913,18.7
188.8981,153.1
188.9496,287.8
188.9761,452.9
188.9931,275.1
189.0237,792.3
189.0612,1557.5
189.0806,92.7
189.0871,10866.9
189.1091,335
189.1979,92.6
189.2359,470.7
189.2923,324.6
189.2976,169.7
189.3158,133.6
189.3552,443.3
189.3991,274
189.4473,99.3
189.4572,174.4
189.5167,315.1
189.5552,124
189.7787,396.2
189.7879,498.1
189.9026,91.1
189.9789,326.4
189.9819,17.6
190.1262,345.8
190.1329,78.6
190.1376,123.7
190.1866,102.4
190.2251,344.1
190.2681,899.9
190.2737,399.6
190.3426,508.8
190.355,204
190.3994,308.4
190.4209,318.9
190.4764,380.6
190.5148,518.1
190.5742,24.7
190.5902,592.1
190.711,499.7
190.7348,367
190.7466,336.3
190.9122,2109.6
190.9351,35.7
190.9446,51.1
190.9996,316.9
191.0083,10586.9
191.0319,836.8
191.0405,114196.5
191.0769,24831.3
191.1196,116.7
191.1571,472.2
191.1769,20.6
191.2417,523.2
191.2907,199.3
191.3924,178.7
191.4225,396.5
191.4344,465.4
191.4483,19.8
191.4732,433.1
191.5143,18.2
191.5399,118.9
191.604,94.5
191.6522,100.5
191.7105,90.5
191.7122,87.2
191.7859,183.1
191.7923,330
191.8675,167.4
191.9457,149.6
191.948,338.3
191.9783,144.3
191.9825,1925.5
192.04,18540.5
192.0438,4044.7
192.1313,284.7
192.161,401.4
192.1791,216.8
192.2771,224.7
192.4666,316.4
192.5301,525.8
192.6033,190.4
192.6513,18.8
192.6594,143.2
192.6631,15.9
192.7099,528.8
192.7135,267.8
192.7323,175.6
192.7471,117.6
192.7548,90.1
192.768,448.3
192.8342,185.9
192.8475,723.6
192.9079,436.8
192.9106,426.2
192.9618,332.2
192.9777,37.5
192.9988,5368.4
193.0352,2061.4
193.0783,182.3
193.1127,17.2
193.1439,159.2
193.1513,296.1
193.1895,613.8
193.1956,789.7
193.2191,24.9
193.2425,18
193.2604,145.7
193.2809,157.7
193.3352,305.7
193.3923,242.4
193.5361,818.2
193.5646,402.4
193.6175,184.5
193.7792,390.8
193.7919,243.8
193.8355,584.9
193.8859,273.7
193.9205,17.8
193.9906,18
193.9982,2269.2
194.0051,455.2
194.0094,273.5
194.0225,403.1
194.0327,2721.5
194.0383,905.4
194.0483,294
194.138,117.3
194.1542,118.2
194.269,500.6
194.2734,148.6
194.3049,17.1
194.3227,769.6
194.332,328.3
194.4267,102.7
194.4481,261
194.4505,96
194.5328,140.8
194.5457,520.2
194.5571,114.4
194.5905,816.3
194.6529,289.6
194.7919,281.9
194.8315,342
194.8918,17.1
194.9228,236.5
194.9696,23.2
195.0023,355.4
195.0419,133.6
195.0446,715.7
195.1108,252.9
195.1598,16
195.1755,128
195.2251,134.5
195.2555,391.4
195.2765,185.5
195.2799,534.4
195.2889,261
195.4783,557.8
195.5675,316.1
195.6284,182.7
195.7238,91.9
195.8086,126.7
195.8221,327.4
195.9149,262.3
195.9774,547.7
196.0021,963
196.0793,103.3
196.1056,126.3
196.1406,380.8
196.1585,34.1
196.1697,421.8
196.1762,760.3
196.1809,344.2
196.1951,336.3
196.2485,17.5
196.2969,268.7
196.4799,152.7
196.5284,384.8
196.5637,372.8
196.7852,130.9
196.8053,20.9
196.8384,154.3
196.8495,364.1
196.8653,5774.6
196.8686,977.2
196.8782,1102.2
196.9112,251.1
196.9154,294.4
196.9235,20.2
197.015,19.8
197.0827,108.6
197.1013,801.3
197.1727,23.9
197.1972,549.7
197.2814,19.1
197.2929,149
197.4965,306.5
197.5994,197.8
197.7751,109.1
197.8026,40.2
197.8094,162.4
197.8209,554.8
197.8834,18.2
197.9202,401.6
198.0163,288
198.0851,10223.6
198.089,732.7
198.1091,110.1
198.1548,168
198.1855,6696.8
198.2329,286.4
198.5326,588.6
198.6085,262.5
198.8193,253.2
198.8624,6122.2
198.9739,96.2
199.0226,243.5
199.0384,215.3
199.0587,562
199.0692,960
199.0757,2261.3
199.0804,152
199.1888,290.4
199.2692,267
199.3199,17.5
199.4189,130.8
199.6725,89.1
199.837,19.9
199.8548,136
199.9392,334
199.9663,20.3
199.9908,28138.3
199.9995,1013.5
200.0034,309.9
200.0207,131.5
200.0246,104.1
200.0273,113.6
200.0409,21811.5
200.052,20.3
200.0566,218
200.1009,6927.2
200.1057,3312.6
200.1096,18.2
200.1148,35.8
200.1549,93.3
200.249,439.1
200.2794,96.3
200.2866,450.9
200.3055,89.5
200.3278,83.2
200.3337,19.1
200.3642,504.2
200.4081,211.5
200.4344,354.6
200.4902,259.7
200.5144,333.6
200.7081,733
200.8235,443.4
200.8594,856.4
200.9349,233.6
200.9675,20.3
201.0267,495.2
201.0545,371.4
201.0633,33.6
201.0872,499.1
201.096,311.5
201.1262,94.2
201.1528,17.1
201.2031,505.8
201.2768,153.8
201.3031,19.4
201.3108,89.9
201.5713,90.8
201.6221,409.6
201.6956,18.6
201.7211,133.5
201.7672,236.4
201.8099,35.3
201.8655,16.9
201.9186,689.4
201.9738,493.7
202.0907,21.2
202.3163,421.5
202.3492,426.4
202.362,19.6
202.475,18.1
202.4823,21344.4
202.5297,807.6
202.5357,321.4
202.7715,235.3
202.809,141.6
202.9303,125.7
202.9957,53.5
203.0077,325
203.0265,265.1
203.0319,3023
203.0398,132.1
203.0528,1324506.1
203.0769,7608.8
203.184,207.7
203.2133,216
203.2374,155.7
203.3162,310.8
203.3325,442.1
203.3365,372.6
203.3619,324.5
203.3665,107.6
203.3753,268.4
203.5011,182.2
203.5053,173.6
203.5176,104.9
203.5747,351.8
203.7005,17.4
203.764,16.8
203.7779,147.8
203.9013,113.9
203.9458,57.1
203.9587,290.8
204.0179,525.8
204.0245,38428.7
204.0562,69842.6
204.0868,917.5
204.1877,104.4
204.2002,197.8
204.3683,118.6
204.3783,582.2
204.4993,106.6
204.5285,117.2
204.6126,138.3
204.6829,19
204.728,305.3
204.7973,629
204.879,99
204.889,595.5
204.9835,102.5
205.0166,517.7
205.0286,745.6
205.0571,9683.4
205.0685,33009.3
205.0838,230.8
205.0965,19.6
205.1089,315
205.4478,535.2
205.5332,118.3
205.6105,478.3
205.8195,165.9
205.9132,583.6
205.9862,167.4
205.9929,137.8
206.0556,3221.4
206.0657,21.2
206.1185,17.4
206.2003,580.9
206.27,18
206.3006,151.2
206.3763,107.5
206.4672,17
206.5243,116.9
206.6072,393.4
206.6407,222.1
206.6493,497.5
206.6762,437.1
206.6867,478.2
206.7592,287.3
206.7822,18.4
206.8575,838.9
206.8776,710.2
206.8941,13803.3
206.9267,455.1
206.9308,124.9
206.9822,5920.4
206.9979,318.8
207.0145,78542.7
207.0444,1906.7
207.0508,13592.8
207.0583,182.8
207.2139,106.3
207.219,162.3
207.2324,36.1
207.2494,300
207.2941,125.9
207.3501,232.3
207.4842,237.3
207.5507,313.7
207.5548,128.3
207.5581,108.2
207.6657,116.6
207.7055,120.8
207.7725,140.6
207.7915,111.8
207.8861,184.5
207.9177,549.4
208.0139,3128
208.018,1081.9
208.1539,337.8
208.1592,126.4
208.2373,87
208.2896,627.2
208.3625,24.9
208.4391,22.2
208.5294,404.9
208.5344,253.6
208.6051,179.7
208.6279,18.3
208.7119,434.3
208.7601,317.5
208.8832,60.8
208.8912,8378.6
208.9129,21.3
208.9359,1387.1
208.9678,497.3
208.9729,320.7
209.0126,3870.1
209.0852,167
209.1203,451.6
209.1505,90.3
209.2731,18.4
209.2896,519.6
209.303,126.6
209.4219,498.1
209.444,148.3
209.4505,272.5
209.4727,120.5
209.49,257.3
209.5496,441.8
210.7259,36
210.738,226
210.7431,258.8
210.7705,376.9
210.7835,416.4
210.797,152.3
210.8947,425.7
210.903,159.9
210.9199,124.8
210.9529,669.5
211.0463,274
211.0565,432.8
211.0693,1637.9
211.094,473.8
211.0985,440.5
211.105,475.5
211.1339,537.3
211.1438,15262.2
211.1505,30777
211.1578,20706.2
211.1626,16594.2
211.169,1260.6
211.1788,18.7
211.1947,21.4
211.1998,100.6
211.2352,312.4
211.275,106
211.4537,372.2
211.4576,19
211.4887,553
211.628,140.6
211.7184,151.2
211.732,103.7
211.8638,105.7
211.8987,676.6
211.9068,90.1
211.935,21.1
211.9756,307.8
211.9848,282.4
212.0198,790.2
212.0238,29.3
212.0478,99.9
212.0724,299.8
212.1481,391.4
212.1922,95.3
212.2248,517.5
212.2295,157.9
212.2648,82.7
212.3829,129.7
212.3894,571.4
212.5196,477.7
212.526,130.6
212.545,352.1
212.616,140.3
212.6445,156
212.8394,1436.5
212.9153,466.9
212.9628,87.1
212.9814,258.4
213.0295,295.8
213.0332,19.5
213.041,349.2
213.0552,822.3
213.0746,377.8
213.089,159.5
213.13,155.6
213.1412,240.4
213.2783,362.6
213.4234,21.9
213.4287,288.8
213.4454,298.7
213.4807,110.4
213.5337,18.2
213.6608,21.2
213.6894,435.3
213.7341,17.8
213.7466,501.3
213.9065,131.3
213.9339,585.9
213.9585,145.6
213.9602,137.8
213.9622,53.3
213.9848,542.9
214.0064,1111
214.0591,10077
214.0899,959.9
214.1198,662.4
214.1472,50.2
214.1609,143.3
214.2067,600.8
214.2508,483.5
214.3083,331.5
214.3805,138.5
214.5294,40.6
214.6035,735.4
214.6623,145.6
214.6819,95.4
214.7537,140.7
214.8092,331.8
214.8364,2621.2
214.8478,177
214.9179,60.6
214.9328,152.9
215.0679,179
215.0937,27.1
215.1435,103
215.2472,268.4
215.2574,483.8
215.2611,20.8
215.2752,580.1
215.324,553.5
215.5183,586.6
215.5655,331.8
215.7931,292.2
215.837,468.1
215.8692,380.8
215.9048,362.3
216.0148,10714.3
216.0173,2566.9
216.0487,99
216.0577,335.6
216.1212,18.2
216.1627,378
216.2372,473.1
216.2997,526.1
216.36,229.2
216.4105,424.3
216.4665,17.3
216.6865,765.3
216.7307,542.7
216.896,556
216.9229,47306.9
216.9347,329.7
216.9381,310.8
216.9843,29.9
217.0123,21.3
217.0182,483.1
217.0216,19
217.0729,187.8
217.0819,495.5
217.1569,240.2
217.2611,37.6
217.3046,198.8
217.3156,334.3
217.4446,301
217.5239,273.4
217.5452,156.3
217.5611,267.9
217.5905,124.1
217.6199,166.5
217.7058,365.6
217.7284,294
217.7437,102.6
217.7557,114.6
217.7821,156.1
217.8135,172
217.8479,247.7
217.9769,542.6
217.9931,182.9
218.0065,23.6
218.0137,316.1
218.0738,21.4
218.0924,572.8
218.152,36.7
218.2182,384.8
218.2968,478.7
218.338,141.9
218.4832,185.5
218.5763,89.3
218.6764,273.8
218.7767,752.3
218.7876,107.4
218.867,112.1
218.9033,373
218.92,14951.4
219.0118,24.5
219.0178,1392.5
219.0268,1489129.9
219.0365,485.5
219.0832,8563
219.0924,155
219.1029,117.3
219.1245,178.7
219.3085,118.6
219.3227,456.4
219.3939,281.8
219.4572,497.1
219.5884,168.5
219.6259,154.5
219.7982,139.6
219.8224,583.7
219.8398,155.6
219.8473,810.1
219.9293,532
220.0301,78647.8
220.0374,392.5
220.0598,297.3
220.0671,12496.7
220.1675,486.2
220.4068,1081.7
220.4431,88.9
220.4743,394.8
220.7892,136.9
220.7991,192.7
220.8896,267.7
220.8972,289.9
220.9011,103.6
220.9067,389.2
220.9273,446.9
220.9347,642.2
220.9491,591.3
221.0189,539.7
221.0249,89055.9
221.0311,11242.1
221.0425,19369.7
221.0512,760.1
221.0837,642.7
221.1085,21.4
221.3682,174.2
221.413,281.8
221.4163,292.8
221.4396,154.9
221.5604,186.6
221.7417,147.4
221.8004,359
221.897,641.7
221.9565,208.9
221.9839,2809.7
222.0022,827.2
222.0282,2872.5
222.0843,43.3
222.1043,336.4
222.1921,320.1
222.2289,142.6
222.279,186
222.2966,598.2
222.3282,344.8
222.4531,571.9
222.5184,668
222.6078,314.9
222.6681,268.2
222.7277,221.8
222.8681,12013.8
222.9073,170.3
222.9086,124.7
222.9349,231.9
222.9425,34.3
222.9608,22.6
222.9821,19.7
222.9884,5795.3
223.0159,102.3
223.0366,1760.7
223.0419,19.1
223.0638,21.8
223.2613,106.6
223.2949,248.6
223.3481,259.2
223.4935,18.4
223.4994,132.2
223.5018,25.4
223.5313,87.1
223.6327,255.1
223.8446,327
223.9532,98.2
223.9921,607.5
224.0082,298.5
224.0144,546.9
224.03,1001.1
224.1073,30.1
224.1086,29.5
224.1246,384.4
224.1287,753.7
224.1588,259.6
224.3248,443
224.3447,347.9
224.3893,89.7
224.4272,595.7
224.4879,100.1
224.5551,344.8
224.6389,260.8
224.6426,114.1
224.7027,578.5
224.744,24.3
224.7603,135.1
224.7876,388.9
224.865,8380.3
224.8782,742.9
224.9348,308.4
224.9667,427.8
224.9861,489.9
225.0432,172.4
225.0549,25406.9
225.0841,353
225.1572,149.7
225.2233,537.6
225.2287,169.7
225.235,19.3
225.275,604
225.3749,227.1
225.5154,94.3
225.5352,113.9
225.6815,114
225.8681,709.4
225.914,247.9
225.931,118.1
225.9464,150.4
225.9526,24.2
226.0022,97.3
226.0067,1274.6
226.0244,9396.4
226.0453,12024.1
226.0585,409.4
226.0846,599.9
226.1093,208.8
226.1175,172.9
226.1342,145.9
226.152,143.6
226.2033,103.1
226.3263,18.2
226.4201,545.9
226.4636,415.6
226.5242,109.3
226.5486,419.1
226.5583,182
226.6036,22.8
226.6461,529.8
226.7404,123.8
226.7604,18.7
226.7784,297.2
226.8352,100
226.8623,402.5
226.8959,755.1
226.9154,309.5
226.9193,117.6
226.9517,42631.2
226.9715,551.2
227.0284,273.3
227.0328,416.5
227.034,422.4
227.0797,845.7
227.0867,242.1
227.1684,38.8
227.2325,188.8
227.3785,18
227.3902,87.9
227.4005,37.1
227.4669,281
227.5152,244.2
227.6628,695.3
227.6768,271.5
227.7833,363.4
227.8207,144.3
227.8849,780.6
228.0006,344.8
228.0226,526.7
228.0292,336.6
228.0493,340.5
228.1352,45.3
228.1573,170.7
228.3281,247.5
228.3347,308
228.3487,194.9
228.5143,268.7
228.7378,673.3
228.7992,400.7
228.8028,183.9
228.8132,513.9
229.0432,252.3
229.0856,103.6
229.2454,225.8
229.3766,95.5
229.3989,143.8
229.4531,265.3
229.5039,221
229.5587,594
229.6174,18.3
229.7028,397.1
229.8292,20.7
229.8415,335.6
229.8468,304.3
229.8691,476
229.9572,485.3
230.0335,248.2
230.0647,105.7
230.0886,377
230.1156,18.5
230.3424,311.3
230.3737,237
230.4939,106
230.5114,305.5
230.5897,148.8
230.6214,96.2
230.7583,517.2
230.8921,158
230.9639,322.4
230.9907,93.2
231.0034,438.8
231.0235,578.2
231.0585,281.5
231.0843,1546.6
231.0953,22.5
231.1894,105.7
231.2444,90.1
231.3003,18.5
231.3145,17.4
231.3341,151.7
231.4668,517.7
231.5153,486.8
231.5586,163
231.5892,92.3
231.6553,324.2
231.729,343.9
231.7523,317.5
231.7829,256.4
231.8373,651.2
231.8529,24.6
231.8724,204.5
231.9522,22
231.9586,39.9
231.9954,406
232,103.7
232.1399,116
232.207,102.6
232.2781,295.2
232.408,442.6
232.5441,436.8
232.5592,382.1
232.5905,159.8
232.6465,119.2
232.8158,19.1
232.8276,415.3
232.8462,88.7
232.8614,202.4
232.8651,102.6
232.8969,41021.2
232.9858,10762
233.0511,8561.1
233.0635,450.5
233.1373,211.5
233.2026,121.9
233.4237,236.9
233.49,273.7
233.5028,22
233.6497,171
233.6796,509.3
233.9286,112.5
233.9484,176
233.968,758.8
233.9855,303.8
234.2804,466.7
234.2994,965.3
234.3948,105.1
234.6024,176.7
234.6162,19.4
234.6259,93
234.8346,229.3
234.8643,304.9
234.8938,10800.3
234.9663,550.6
234.977,148.7
234.9817,8666
235.0113,163.2
235.0571,4669.7
235.0669,942.4
235.0807,688.4
235.0927,26877.7
235.1741,436.6
235.1775,158.8
235.272,549.7
235.4102,281.8
235.4173,181.2
235.4245,164
235.4345,18.2
235.4713,184.9
235.5671,88.5
235.6267,113.8
235.7282,32.8
235.736,328.6
235.8682,34.1
235.946,332.1
236.0412,6717.5
236.0719,40976.9
236.096,673.8
236.1493,157.9
236.3197,256.9
236.333,553.7
236.3435,124.2
236.365,203.8
236.4673,311.6
236.4905,92.6
236.4985,91.8
236.5574,167.1
236.5704,663.1
236.601,20.3
236.7406,364.9
236.8857,589
237.0753,1662.1
237.115,282.5
237.1332,187.1
237.1413,390.9
237.2232,684.5
237.3057,117.2
237.3948,364.9
237.836,144.9
237.8693,308.8
237.9405,265.7
238.0677,513.8
238.0756,136.5
238.2205,342.2
238.3796,146.9
238.5175,146.7
238.5987,115.7
238.63,145.4
238.7663,523.1
238.8075,779.3
238.8133,18.2
238.8422,4853.8
238.8532,1015.3
238.8704,437.6
238.8953,378.3
238.9313,21.2
238.9362,215.4
239.0095,196.1
239.0288,32.8
239.0496,213.7
239.068,1315.1
239.0713,32.8
239.4027,91.8
239.4696,138.2
239.6637,179.4
239.6845,200.6
239.724,109.7
239.9842,314.6
240.0003,21.5
240.0037,380.2
240.0248,565.1
240.0313,1165.9
240.0391,249.8
240.0536,360.8
240.0999,638.2
240.1324,396.8
240.1531,157.1
240.1788,99.5
240.3559,584.1
240.3785,91.2
240.5736,677.8
240.63,337.1
240.6459,687.4
240.6855,351.3
240.8114,673.2
240.8389,1836.3
240.9232,124
240.9548,2919.2
240.9673,1566.2
240.9851,251.1
240.9877,491.5
241.0169,18.2
241.0922,307.3
241.1452,126.7
241.1827,398.3
241.1879,301.9
241.2414,17.5
241.2758,434
241.2851,245.7
241.2945,279
241.4479,18.3
241.6408,166.8
241.6527,394.7
241.6998,285
241.7154,38
241.8468,425
241.9027,157
241.9798,50.5
241.9983,2960.3
242.0192,6305.2
242.0318,18.4
242.077,133.4
242.1802,264
242.3603,128.2
242.4229,519.2
242.4951,261.1
242.4991,846.2
242.5123,394.1
242.5187,538.2
242.6042,143.8
242.8249,376.3
242.9257,22898.5
243.0065,22.6
243.0331,437.8
243.0532,5436.4
243.0655,9143.4
243.074,108.6
243.0821,119.2
243.1925,466
243.2032,579.5
243.2088,19.1
243.2806,22.2
243.2922,148.7
243.3686,360.3
243.5252,668
243.5592,17.5
243.6181,18.2
243.7089,19.9
243.7161,18.3
243.8947,794.1
243.9364,19.6
243.9729,221.1
243.9973,287.1
244.0128,406.4
244.0187,142.9
244.0313,277.2
244.0376,439.3
244.0742,580.8
244.0983,350.4
244.1961,98.9
244.212,19.3
244.3617,551.6
244.4079,146.6
244.5552,112.1
244.6664,262.3
244.742,100.1
244.8098,22.2
244.8161,277.9
244.8405,671.3
244.8709,6245.3
244.9055,299.2
244.9239,1516.2
244.9349,172.9
244.9687,427.4
244.9738,39.7
245.0064,31.1
245.0158,31.5
245.084,264.8
245.1659,99.3
245.3165,305.3
245.3254,358
245.4435,161.4
245.4836,238.5
245.4974,312.6
245.6289,251.6
245.66,111.6
245.679,687.3
245.7439,150.5
245.7493,143.3
245.7876,19.7
245.8967,17.5
245.9063,22.2
245.9501,657.3
246.0016,233.1
246.1198,474.2
246.1537,41.1
246.2011,124.1
246.2173,272.9
246.2479,144
246.4305,122.6
246.4364,134.8
246.4836,124.3
246.7902,19.6
246.7938,235
246.8262,17.4
246.868,1524
246.929,153.3
247.0369,683.1
247.0496,219.5
247.0513,251
247.0539,210.3
247.0584,548.7
247.0669,482.9
247.0928,6799.9
247.1293,359.6
247.5937,112.4
247.6713,353.5
247.7393,415.9
247.7476,22.7
247.8029,280.2
247.8072,361.8
247.8597,152.6
247.8751,464.2
247.9679,22.7
248.0149,450.6
248.0961,70.3
248.1069,18.8
248.1245,7000.1
248.4486,277.7
248.5818,213.9
248.6307,360.2
248.8536,142
248.8709,13498.8
248.8751,22
248.9228,629.8
248.9597,9925
248.9995,847.6
249.0161,1468.8
249.0296,19.4
249.048,650.2
249.0614,17257.1
249.0793,272.9
249.1577,19.1
249.2083,375.9
249.2429,98.6
249.3568,205.8
249.4362,340.9
249.4574,117.4
249.5416,87.8
249.5666,234.4
249.6316,182.6
249.6932,175.8
249.7825,318.6
249.7935,19.1
249.7971,277.2
249.8864,535.9
249.9461,18.6
249.9962,106.9
250.0323,21.8
250.1898,288.9
250.2022,223.8
250.2924,21.8
250.3198,438
250.3242,89.8
250.4803,24.9
250.5028,17.9
250.7807,346.4
250.8678,1859.1
250.9151,153.8
250.9206,3089.8
250.9502,94.9
250.9556,2427.6
250.9728,754.3
251.0009,161.3
251.0332,219.1
251.06,106.8
251.0727,519.6
251.0991,494.4
251.2514,192.6
251.2679,21.5
251.445,18.8
251.4887,210.8
251.4986,347.2
251.5007,471
251.5022,292.5
251.5136,117.8
251.5319,305.8
251.5739,17.7
251.6582,720.2
251.9136,677.4
252.0363,154.6
252.0459,96786.9
252.0839,20.3
252.2481,653.2
252.2639,531.8
252.3163,319.7
252.411,728.3
252.4377,149
252.5401,315.4
252.5927,326.3
252.6034,550.5
252.6163,209.7
252.6359,287.5
252.8203,256.3
252.8284,114.1
252.8453,307.3
252.8538,788.1
252.9176,1473.2
252.9515,40.4
252.9826,457.4
252.9977,49.7
253.011,701.7
253.0284,757.5
253.0492,5956.2
253.0802,261.5
253.1052,812
253.1398,21.1
253.1886,462.8
253.2459,375
253.3272,281.1
253.3895,21.6
253.472,165.8
253.563,426.6
253.5987,165.5
253.6341,176.5
253.6374,318.9
253.7149,100.7
253.7528,437.4
253.774,129
253.8042,22
253.8112,128.9
253.8515,19.4
253.8728,771.8
253.8888,294.8
253.9307,177.1
253.9662,267.6
253.9687,146.8
254.044,3824.3
254.0734,479.4
254.2052,390.7
254.3288,18.4
254.3513,181.9
254.3735,607.4
254.4773,646
254.5287,137
254.5934,109
254.6388,123.1
254.7699,341.6
254.788,334.3
254.8161,2047.5
254.8241,7279.6
254.9044,95.7
254.9491,374.5
255.0174,562.1
255.0332,19840.4
255.0386,319.3
255.0468,986.2
255.0967,17.4
255.1677,33.1
255.2068,328.7
255.2795,22.3
255.4425,195.3
255.4742,34.8
255.4968,142.9
255.652,129.2
255.707,102.3
255.8105,493.6
255.8809,20.6
255.8864,343.6
255.9784,773
256.0368,347.3
256.0588,159.5
256.0613,134
256.0645,121.8
256.0734,596.6
256.0933,90.8
256.1617,646.1
256.1943,580.5
256.2326,36.5
256.3196,547.6
256.348,451.7
256.4599,128.2
256.4935,141.1
256.5645,18.6
256.5764,36.7
256.7393,726.4
256.7435,103.8
256.8211,10516.1
256.8336,133.9
256.8655,239.6
256.891,274.9
256.9296,964.4
256.9318,780.9
257.0488,6413.6
257.0561,136
257.0652,563.2
257.0748,56778
257.0824,349.1
257.101,160.5
257.2006,110.4
257.2161,298.5
257.3169,432.1
257.4737,20.2
257.6723,517.4
257.9372,133.3
257.9732,86.8
257.9931,1643.5
258,472.9
258.0303,69
258.0586,202.5
258.0744,205.5
258.0782,2731.7
258.1105,28084.8
258.1421,415.7
258.1623,584.7
258.4229,520.3
258.6064,295.3
258.6383,149.3
258.6475,17.5
258.8182,4721.5
258.8997,4574.9
258.9195,393.1
258.9479,179.7
259.0274,990.8
259.1006,299.8
259.1179,270.3
259.1622,18.8
259.3276,35.2
259.5005,307.1
259.6452,22.2
259.6983,103.3
259.8787,357.8
259.9655,788.3
259.9842,253.7
260.0172,25.5
260.0538,389.6
260.1338,290.2
260.1428,312.6
260.1493,167.8
260.1652,86.1
260.2166,105.5
260.427,372.9
260.4428,85.2
260.4559,166.1
260.5504,552.4
260.6691,274.9
260.7237,655
260.764,617.4
260.8276,112.4
260.8449,2580.7
260.873,107.6
260.8825,455.8
260.9197,156.2
260.9493,7677.8
261.0375,187.6
261.0473,452.3
261.1936,268
261.24,569.3
261.2745,350.3
261.2946,141.1
261.4338,249.5
261.4804,213.4
261.4835,823.2
261.4992,239.6
261.6048,598
261.762,496.3
261.7747,18.7
261.851,788
262.0821,1745
262.0887,634.5
262.2576,487.6
262.2956,152.5
262.4149,31.7
262.4407,112
262.5453,562.1
262.5532,165.9
262.6234,772.3
262.7603,20.8
262.8428,489.7
262.8703,107.2
262.9464,1332.7
262.9946,18.6
263.0079,257.2
263.0852,1941.7
263.1536,113.8
263.4246,678.2
263.432,481.7
263.4819,383.4
263.8948,496.6
263.9307,85.4
263.9973,572.7
264.1036,108.4
264.1328,20.3
264.18,238
264.1864,185
264.2191,101.4
264.3329,748.1
264.4666,142.7
264.498,388
264.5862,278.9
264.6527,219.8
264.7163,532.7
264.7366,18.4
264.8447,1284.4
264.8529,5686.9
264.9339,14691.4
264.9888,167.8
265.0168,273.3
265.0232,894.6
265.0353,10415.1
265.0475,3550.7
265.0653,223.8
265.1101,193.4
265.1397,207.6
265.1609,90.1
265.2318,94.1
265.2522,83.5
265.3176,627.6
265.4203,192.1
265.4429,198.6
265.4603,125.4
265.6107,368.2
265.643,789
265.7046,18.5
265.9106,337.8
265.9206,532.5
265.9394,328.6
265.9445,248.8
265.968,267.4
266.0387,290.9
266.0508,188.4
266.2157,329.6
266.2643,220.7
266.2688,21.1
266.3305,387.2
266.3523,23.4
266.6475,17.7
266.6764,264.3
266.7371,20.3
266.7422,160.1
266.7549,347
266.7619,676.8
266.85,5447.9
266.8945,2816.7
266.9265,530.5
267.0134,146
267.0237,324.5
267.0447,1038.9
267.0544,152
267.0691,153.7
267.0766,466.8
267.1543,342.2
267.167,249.6
267.3626,275.1
267.3718,741.9
267.5294,127.5
267.5387,339.8
267.597,19.4
267.7007,293.7
267.9436,21.1
268.0141,263.3
268.032,287.2
268.0834,23.4
268.1017,186.8
268.1973,99.2
268.2104,450.1
268.3499,319.8
268.3831,210.7
268.3942,174.1
268.4329,254.9
268.5155,17.4
268.5573,116.1
268.6654,184.6
268.7804,110.3
268.7859,781.9
268.8469,871.5
268.8649,714.5
268.8913,450.4
268.9813,126
269.0125,69.5
269.0246,131.8
269.0344,183.6
269.0453,17234.7
269.0488,41130.1
269.0662,107.6
269.2204,121.8
269.3348,530.1
269.3438,788.6
269.3599,229.9
269.6093,620.9
269.9297,485
269.9522,24.1
269.9683,172.6
269.9939,2747.7
270.0173,424.7
270.0251,1045.4
270.0476,23675.9
270.065,42.7
270.1453,1208.3
270.1805,409.7
270.2172,669.2
270.2334,553.8
270.3151,21.2
270.3216,408.4
270.3727,634.6
270.4321,403.3
270.5324,324.9
270.5838,126.4
270.6372,113.7
270.7175,93.9
270.7207,538.4
270.7306,169.1
270.7605,213
270.7654,19
270.7769,509.7
270.798,4354.7
270.9029,325.5
270.9781,16807.7
271.0238,504.7
271.0286,26.5
271.0509,463.1
271.078,692.5
271.0904,979.3
271.1055,329.2
271.1067,346.9
271.109,156
271.2211,19.8
271.2755,877.3
271.366,40.6
271.4573,96.2
271.5363,914.8
271.6157,609
271.7123,197
271.7298,37.5
271.7581,113.7
271.8153,173.4
271.9263,192.9
272.0434,131.1
272.0807,357.9
272.1064,19.6
272.1306,464.2
272.1524,832.5
272.156,200.5
272.184,18
272.2017,690.2
272.2712,19.4
272.3079,144.5
272.4725,19.5
272.4785,131.9
272.5347,523.1
272.5605,1181.3
272.5732,20.7
272.671,370.1
272.7141,563.9
272.7635,281.2
272.7951,5892.5
272.8757,601.4
272.9676,108.8
272.9724,670.6
273.0128,559.4
273.0487,5504.5
273.3016,37.8
273.3954,85.4
273.4152,166.9
273.4278,220.7
273.4363,1001.1
273.5007,882.2
273.6909,275.4
273.8955,36.7
273.9548,453.3
273.9631,386.9
274.0701,280
274.0924,2392.2
274.4305,480.8
274.4853,127.4
274.5362,18.9
274.6245,425.7
274.6306,322.4
274.7922,2296.9
274.8104,115.9
274.9323,130.2
274.9494,219.7
274.9652,998.6
274.9955,520.2
275.0188,90.7
275.1884,105.9
275.2339,406.1
275.2517,131.1
275.3504,629.4
275.3639,329.8
275.3847,119.2
275.3999,418.9
275.4084,429.4
275.4253,175.8
275.6448,146.2
275.7049,552.6
275.766,483.8
275.8867,18.6
276.0038,22.4
276.0098,18.4
276.0403,498.4
276.0852,123.4
276.2547,89.9
276.2805,263.9
276.5475,198.9
276.6915,108.2
276.7592,246.2
276.7889,318.3
276.8301,300.2
276.8628,288.9
276.9141,161.2
276.9233,8136
277.004,228.4
277.0702,21.6
277.0834,270.4
277.2387,249.4
277.2546,646.6
277.3709,715.8
277.6658,19.7
277.6842,337.1
277.7012,93.3
277.7268,509.1
277.8101,343.4
277.8265,249.6
277.8871,432.2
278.0114,422.5
278.0192,497.9
278.0271,287.7
278.0996,697.3
278.1984,110.2
278.2916,572.8
278.651,174.1
278.776,205.6
278.8709,123.8
278.8934,1885.1
278.9202,1002.9
279.0228,68
279.0568,37736.7
279.3174,101
279.3545,325.2
279.4097,173.2
279.4654,991.4
279.4787,88.9
279.7106,39.1
279.8019,91.8
279.835,1245.1
279.8422,446.3
279.8487,188
279.8554,100.2
279.8924,153.2
279.9783,420.3
280,212.9
280.0085,198.4
280.0161,284.3
280.0601,665.9
280.0916,647.9
280.0982,925.7
280.1308,40.2
280.1621,33.2
280.2612,20.1
280.3416,291.5
280.3747,284.8
280.4364,307.5
280.4872,112.6
280.5092,188
280.7336,170.3
280.7486,731.4
280.8269,2381.7
280.8379,426.3
280.8484,612.8
280.9418,256.5
280.9577,322.2
280.9621,802.5
281.0094,2040.5
281.0182,163.3
281.0515,281.6
281.0957,18.7
281.1796,21.6
281.2276,256.1
281.3275,579
281.3601,93.1
281.4109,34.1
281.5009,38.7
281.5192,300.9
281.662,163.7
281.6733,269
281.8694,377.4
281.9932,267.1
282.0094,390.2
282.0149,137.9
282.065,475.4
282.1104,185.8
282.3304,255.4
282.4681,339.6
282.473,160.8
282.5094,664.7
282.6229,326.5
282.6405,44.3
282.7851,125.5
282.7965,345.1
282.8242,1900.6
282.8876,361.7
282.9057,50.7
282.9404,244.9
282.9913,542.1
283.0279,2841.3
283.071,18.3
283.0792,146.1
283.1402,31.9
283.1546,335.5
283.2516,149.7
283.2642,21.8
283.2773,519.1
283.4734,36.2
283.546,395.9
283.5742,102.2
283.8036,35.2
283.8969,291.4
283.9044,22.3
283.9436,453.5
284.0634,155.4
284.1251,17.8
284.3843,458.3
284.4545,119.7
284.5841,18.4
284.6474,491.9
284.9191,625.7
284.9204,643.6
284.9227,302.7
284.9899,364.3
285.0239,160.6
285.0386,24.9
285.0696,209.4
285.3008,549.3
285.5602,743.5
285.5885,19.1
285.7352,103
285.7478,206.4
285.7524,443.9
285.8758,98.9
285.9508,125.6
285.9677,1261.6
285.9874,132.9
286.0058,20
286.02,267.2
286.0266,17.2
286.042,49.7
286.0965,71.5
286.1195,342
286.1444,100
286.2495,382.7
286.3869,23.3
286.5068,491.9
286.5588,351.4
286.5923,798.9
286.676,171.4
286.7008,219.7
286.772,1841.9
286.8065,21.6
286.9183,369.8
286.9521,8867.2
286.9987,113.5
287.0555,34928.7
287.1003,373.6
287.2112,88.5
287.2707,699
287.2958,244.1
287.5359,127.6
287.6778,126.5
287.7405,21.5
287.9803,526.7
288.0137,71.4
288.0522,108.1
288.0588,1105.9
288.0848,134.4
288.1558,43549
288.321,90.9
288.3856,611.3
288.769,2791.5
288.778,355
288.7894,687.8
288.8238,393.5
288.8453,511.5
288.8646,3230
288.8717,2665
288.877,2312.6
288.8878,7079.3
288.8941,12219.2
288.9026,13344.1
288.9128,17794.2
288.9219,18143.5
288.9266,19770.9
288.932,18919.2
288.9387,20984.1
288.9491,16280.2
288.9572,8742.9
288.9612,11019.9
288.9696,5663.2
288.973,4247.1
288.9769,2919.3
288.9819,4390.8
288.9895,1862.1
288.9985,742.4
289.0439,324
289.0743,22.6
289.1593,3264.7
289.2301,339.4
289.2578,235.1
289.3118,20.3
289.3964,691.5
289.437,37.5
289.6847,145.2
289.753,553.9
289.7703,466.2
289.9067,308.4
289.9178,269.3
289.9888,592.3
290.0336,645.3
290.0946,98.4
290.1007,46.3
290.1695,315.2
290.2013,90.6
290.6103,288.9
290.7086,164.7
290.766,550.4
290.8299,197.6
291.0269,3832
291.1086,169.7
291.1994,221.9
291.3233,396.6
291.3828,173.1
291.3913,227.4
291.7067,105
291.821,150.5
292.0695,153.1
292.0799,217.4
292.1033,957.5
292.1147,526.3
292.1232,19.7
292.2043,371.6
292.2149,477.9
292.2856,463
292.3715,193.7
292.3926,104.9
292.403,351.6
292.5793,356.6
292.5813,532.7
292.5831,549.2
292.588,597.3
292.6269,335.5
292.6326,646
292.6935,179.5
292.7316,292.9
292.7503,175.9
292.7938,86.9
292.8732,133
292.8971,1299.7
292.9405,504.9
293.0062,273.4
293.0722,3259.3
293.0984,486678.4
293.1097,157.2
293.1365,99.7
293.1431,271.2
293.1794,2803.5
293.2305,415.2
293.3034,259.6
293.3556,518.5
293.3625,595.3
293.3924,195.3
293.4497,20.2
293.4858,17.7
293.4999,196
293.7709,596.8
293.8733,473.4
293.9242,324.9
293.9412,323.2
294.0955,958.6
294.1018,43727.2
294.2482,202.7
294.3292,518.3
294.3495,108.4
294.3698,134.8
294.5048,163.5
294.5118,462.9
294.5776,685.6
294.6806,542.5
294.704,314.6
294.7345,20.8
294.9741,244.9
294.9908,491
295.0307,970.7
295.1025,4154.2
295.1949,22276.6
295.2247,153.2
295.3665,18.8
295.4684,299.4
295.6816,160.1
295.7534,739
295.7629,511.2
295.8107,535.2
295.8205,769.2
295.8752,286.5
295.965,32.8
296.0092,1372.6
296.116,485.3
296.1327,447
296.1981,1695.7
296.2913,323.3
296.5403,144.8
296.5964,160.7
296.6116,624.6
296.8138,28
296.8395,558.2
296.9875,288
296.9925,728.6
297.2145,32.8
297.2264,393.4
297.2321,21
297.2533,101.4
297.2815,673.4
297.3581,284.3
297.3633,161.3
297.4062,33.6
297.4169,20.4
297.5692,89.5
297.8156,326.4
297.994,280.5
298.0254,1583.8
298.0425,17230.7
298.0618,561.2
298.2032,100.1
298.547,625.6
298.727,279.6
298.8182,413.7
298.8927,183.4
298.9369,19.9
298.9713,379.2
298.9864,258.5
299.0232,2744.2
299.046,626.5
299.1068,557.3
299.1396,4226.1
299.4281,156.5
299.4363,663.9
299.5527,130.1
299.5818,165.5
299.6225,277.8
299.7544,234.4
300.0048,1133.4
300.0384,280.3
300.0492,24.5
300.0757,803.4
300.1084,19.2
300.1963,63.9
300.3254,163.5
300.358,179.4
300.6325,131.6
300.6747,84.4
300.7733,616.2
300.8501,409.7
300.9681,544.6
301.0388,18478
301.0783,23.1
301.1147,129
301.1416,241.7
301.193,310.9
301.2118,738.4
301.2417,36.1
301.2571,107
301.5535,311.4
301.677,605.2
301.7104,228.9
301.7751,138.8
301.7823,106.3
301.8124,429.1
301.8621,112.2
302.0088,590.1
302.0204,233.4
302.0352,81.3
302.0641,5808.9
302.0736,42
302.1155,318.4
302.1847,108.5
302.284,23.1
302.2986,763.1
302.3729,192.4
302.5142,313.1
302.5827,462
302.6797,772
302.6837,183
302.6892,526
302.6952,225.2
302.7975,119
302.8298,3743.1
302.8532,105.5
302.9259,733.5
303.0676,546
303.0744,2185.5
303.2175,1838.1
303.2339,158.1
303.2949,423.3
303.3332,91.3
303.3414,347.4
303.3861,323.3
303.4117,301.8
303.524,38.6
303.5874,109.7
303.6245,24.2
303.8538,21.9
303.9831,638.3
303.9902,764.3
304.06,201
304.2011,155.7
304.2747,550.8
304.2813,516.6
304.4079,386.8
304.4316,121.3
304.495,153.8
304.5492,23.4
304.5766,175.5
304.734,328.1
304.7438,327.9
304.7881,270.6
304.8271,2610.7
304.8964,656.4
304.9467,212.4
304.9762,372.9
305.0224,22.4
305.0768,653
305.1451,45.9
305.2334,712.3
305.3262,130.6
305.4069,631.2
305.4753,150.7
305.5532,497.8
305.6047,97.3
305.6257,287.9
305.7561,553.1
305.8944,20.7
306.0241,50.7
306.0518,346
306.0958,91.5
306.2239,575.7
306.2354,209.3
306.3511,121.8
306.417,22.8
306.4413,104.7
306.5235,749.3
306.9775,3560.2
307.0738,642.3
307.0947,35.7
307.2147,313.4
307.2499,433.3
307.3897,395.2
307.4284,490.8
307.459,409.5
307.4657,278.9
307.7368,497.5
307.7429,633.5
307.8082,162.4
307.8435,38.4
307.9038,167.2
307.9515,417.9
308.0166,299.3
308.1328,303
308.2309,469.8
308.2708,235.7
308.3219,557.4
308.7023,98.7
308.8792,3233
308.9721,91.5
309.0064,483.7
309.0157,166
309.0377,4235.8
309.0826,3598.4
309.0951,186.3
309.4375,738
309.5315,156.1
309.9571,534.7
309.982,202.1
310.0475,410.5
310.179,22.3
310.2094,19.3
310.2379,105
310.2734,282.8
310.4302,716.6
310.564,555.2
310.5792,273
310.6214,554.5
310.7025,641.3
310.8564,607.3
310.876,2456.7
310.9123,591.5
310.9257,594.2
310.9411,370
311.0033,217.7
311.0136,418.6
311.034,153.1
311.1751,253.2
311.1825,693.8
311.2032,18.4
311.2586,829.9
311.3393,101.4
311.3731,279.9
311.392,18.9
311.8057,1116.9
311.8273,267.4
312.0028,22.4
312.0413,2637.8
312.4737,21
312.7721,167.9
312.8133,111.1
312.8171,561.8
312.8343,142.5
312.8583,1312.7
312.8706,130.2
312.947,436.5
312.9982,124.9
313.0017,65.6
313.0275,317.1
313.0366,699.3
313.1657,205.4
313.2742,55002.4
313.2969,173.9
313.3291,354.2
313.3351,95.6
313.3719,282.2
313.5838,136.5
313.6577,34.9
313.6957,225.8
313.8069,250.4
313.8625,39.4
314.0149,339.9
314.092,328.8
314.141,506.9
314.1593,745.8
314.2776,8764.2
314.3216,802.1
314.5419,105.8
314.5716,285
314.6709,18.8
314.6832,497
314.7591,327.3
314.7664,291.1
314.7795,319.6
314.8372,5540
314.8648,589.9
314.9292,482.5
314.9575,333.4
314.9992,5479.7
315.0044,2009.9
315.0185,21.5
315.022,108.5
315.0237,101.4
315.0495,1482.8
315.0555,7175.5
315.0597,4206.9
315.0617,4732.9
315.0639,7011.8
315.0668,18737.1
315.0698,27852.9
315.0733,19145.7
315.0804,7520811.5
315.0871,25625.5
315.0899,14928
315.0921,10009.8
315.0944,6566
315.0964,4347.2
315.0986,4721.7
315.1006,3034.5
315.1049,920
315.1073,1547.1
315.1091,1790.2
315.1132,715
315.118,85.8
315.1197,141.4
315.1284,156.2
315.1302,193.9
315.1616,5343.3
315.2592,231.9
315.2697,643.1
315.2795,19.2
315.3237,7584.1
315.3705,359.1
315.4064,156.4
315.4511,144
315.4856,158.6
315.6186,755.9
315.8657,388.1
315.9444,208.1
315.9793,532.3
316.0113,20.4
316.0532,60.1
316.069,1118.8
316.0776,41692.3
316.0837,787008.6
316.1118,1412.9
316.3327,162.6
316.4464,118.4
316.4632,118.8
316.5926,84.5
316.8765,561.9
316.9105,501.5
316.9866,1130.8
317.0232,756
317.0564,410.6
317.0652,2144.4
317.0731,676.7
317.0842,90502.6
317.2255,263.5
317.5202,373.6
317.5559,254.1
317.6571,20.7
317.7774,118.7
317.8613,142.9
317.9432,97.2
317.9859,600.6
318.0081,101.4
318.0879,8451.5
318.1445,328.3
318.3985,376.2
318.5005,292.3
318.7808,729.2
318.8039,1929.7
318.8763,91.2
318.9081,552.5
319.0099,20.7
319.0217,183
319.0525,467.4
319.0884,164.3
319.195,35709
319.2098,716.8
319.2769,16.8
319.4023,24.8
319.4558,153.3
319.6238,108
319.7149,169.5
319.8873,717.2
319.9965,583.4
320.0749,227.5
320.1059,231.6
320.1983,4313.9
320.2129,188.5
320.2342,116
320.2588,1998.7
320.2831,324.7
320.3892,330.5
320.6245,376
320.801,629.9
320.9014,220.5
320.909,811
321.1247,143.7
321.2106,50270.5
321.2219,467.1
321.2618,96.2
321.3704,148.2
321.5,481.9
321.5128,16.5
321.6631,319
321.7959,20.9
321.8759,743.4
321.9271,476.2
322.0094,220.6
322.0513,110.5
322.1612,23.5
322.1692,22.1
322.1945,291.2
322.2139,6590.3
322.2653,93.6
322.2734,350.6
322.3713,113.8
322.6403,292.9
322.7629,157.7
322.7994,320.7
322.8115,751.7
322.8248,172.1
322.8811,401.9
322.9314,553.9
322.9396,186.5
323.0206,10542
323.106,573.7
323.2032,466.2
323.2147,574
323.2261,959.6
323.3473,18
323.4374,18.2
323.4523,658.4
323.4834,133.2
323.5233,334.9
323.5343,188.7
323.9972,103.7
324.0056,119
324.0364,469.7
324.101,258.7
324.4065,351.3
324.5548,649.9
324.5688,2289.6
324.582,3506.7
324.591,2340.1
324.6008,464.6
324.6812,719.9
324.7972,313.9
324.8081,579.4
324.8531,3233.2
324.8655,265.1
324.9235,281.1
325.0025,1298.9
325.0565,1022.7
325.1391,332.1
325.1455,244.2
325.2119,976.6
325.4141,200.1
325.4425,218.2
325.6379,432.6
325.7688,95.6
325.8475,519.1
325.8537,21.8
325.9632,673.2
326.0053,59.6
326.0476,19.8
326.0557,138.9
326.0603,199.1
326.3307,100.5
326.3709,385.6
326.448,555.9
326.5338,18.9
326.5885,104.3
326.6119,123.6
326.6208,579.8
326.6786,406.5
326.8502,2566.1
327.0155,4056.6
327.039,407.1
327.0521,1929.5
327.1094,17.3
327.1164,344.6
327.217,911.6
327.2277,8681.7
327.3327,429.2
327.4179,345.3
327.7213,498
327.9064,305
327.9669,122.3
327.9716,104.5
328.0155,1111.5
328.0646,809.1
328.3227,18.7
328.3363,248.8
328.3865,35.4
328.4076,620
328.4262,446.7
328.4351,142.2
328.4421,105.5
328.556,355.7
328.9081,448
329.0193,559.1
329.0311,166.1
329.0963,2337
329.2013,326.9
329.2604,467.9
329.5833,104.3
329.6477,17.4
329.7459,420.8
329.7651,483.9
329.9833,772
330.0082,17.6
330.0567,212.7
330.1519,39.4
330.3722,604.2
330.5502,611.4
330.6026,489.6
330.6614,141.8
330.7538,380.7
330.8806,253.2
330.9884,25.5
331.0142,516.4
331.0193,313.1
331.0455,128020
331.0543,1132914.4
331.213,188.2
331.33,359.5
331.3684,324.7
331.7408,20.3
331.7678,79.8
331.8769,158.1
332.0484,9557.8
332.0576,103584.3
332.0738,760.7
332.2241,282.8
332.2416,101
332.3012,268.1
332.4431,18.9
332.5911,105.5
332.8336,291.5
332.9611,393.6
332.9853,20.9
333.0524,68084.3
333.0581,10780.3
333.1784,280.3
333.2514,688.1
333.3352,131.5
333.6288,96.9
333.7158,254.3
333.7722,312.1
333.831,110.9
333.8543,91.3
333.9351,20.9
334.0501,728.2
334.0558,6112.9
334.0907,106
334.1665,303.9
334.2227,33.1
334.2612,503.4
334.4242,407.2
334.525,397.5
334.8375,564.2
334.9157,21
335.0375,386.1
335.0562,195.6
335.0959,602.9
335.1663,35.4
335.2095,104.9
335.2569,375.6
335.7223,296.4
335.7758,130.7
335.7959,20.8
335.8517,19.8
336.0496,266.3
336.1142,261
336.1797,144
336.2119,284.7
336.4365,221.9
336.5112,808.6
337.0308,397
337.0364,11080.8
337.0499,21619.5
337.0623,623625.7
337.2743,16406.1
337.487,670.2
337.7464,163.1
337.7817,719.8
337.8963,362.9
337.909,511.5
337.9237,158.2
338.0501,511.3
338.0656,56332.3
338.1839,556.1
338.1929,433.2
338.2769,894.7
338.2957,259.5
338.3172,125.8
338.3421,24.2
338.4466,21.1
338.8273,17.7
338.885,285.3
338.9075,297.6
338.9217,437.9
338.9818,469.6
339.0385,1188.7
339.0473,1773.2
339.0663,5201.5
339.1754,357
339.2164,583.6
339.2233,395.9
339.2503,810
339.2898,16004.3
339.3154,19.6
339.6498,19.8
339.6598,510.7
339.7488,85.7
339.8035,108.7
339.8189,653.9
340.264,135.7
340.2952,171.6
340.4951,818.3
340.5179,786.5
340.6793,169.2
340.703,141.6
340.8404,18.3
340.9342,365.2
340.9647,603.9
340.9874,824.3
341.0184,78.6
341.1795,436.4
341.1926,115.8
341.3054,4337
341.4674,86.3
341.4788,462.7
341.5385,19
341.6957,599.9
342.0067,559.8
342.0487,661.2
342.1311,19.6
342.2616,167.7
342.6197,292.2
342.7183,332.8
342.7974,342.1
342.8399,130.8
342.8587,21.6
342.8908,19.6
342.9829,269.7
342.99,2294
343.0063,309.7
343.0184,201.9
343.0259,777.6
343.195,18859.8
343.2114,119.3
343.3509,170.7
343.421,505.1
343.5601,222
343.5836,170.1
343.6384,359.9
343.6735,175.8
343.7008,212.1
343.7585,424.2
343.7671,613.4
343.8247,410.4
343.8835,233.3
344.0665,354.9
344.1985,1347.4
344.3189,204.3
344.3537,19.1
344.4064,17.7
344.5795,138.9
344.6187,495.6
344.7692,148
344.8203,728.8
344.9082,277.6
344.9431,162.9
344.9587,675.2
345.0751,20.4
345.2111,1615.6
345.3032,188.7
345.3765,259.9
345.4168,226.1
345.5189,975.8
345.5265,353
345.546,545.5
345.5569,142.2
345.5831,598.6
345.9834,2106.5
346.0099,28.9
346.0214,377.4
346.1539,342.7
346.2363,426.4
346.5242,587.9
346.7563,39.6
347.3051,176.3
347.3309,295.3
347.4256,396.7
347.5499,272.4
347.5897,220.6
347.6449,463.7
348.4601,464.9
348.5129,190
348.7603,334.3
348.8112,104.1
348.9914,779
349.2201,175.7
349.2834,226.1
349.3548,108.2
349.4014,19.5
349.9855,245.9
350.0143,21.8
350.0187,202.6
350.0358,416.9
350.1285,133.4
350.1467,597.4
350.1703,892.6
350.3671,163.6
350.5574,421
350.8401,18.9
350.8998,472.4
351.0726,534.2
351.1494,421.3
351.3145,36.6
351.4497,444.1
351.5087,91.1
351.5285,696.5
351.638,142.4
351.6958,671.7
351.8595,305.9
351.9668,417.4
352.1541,500.3
352.2346,17.2
352.5293,276.9
352.6518,526.9
352.8088,318.9
352.8693,495.3
352.8978,1257.3
352.9368,603.8
352.9525,102.6
353.0274,131797.5
353.0363,206617.8
353.0498,137.2
353.1047,100
353.2386,18.9
353.4291,389
353.4461,529.4
353.5017,221
353.5836,661.5
353.7941,524.1
353.8351,154.5
353.8713,250.3
353.9026,17.8
353.9191,175.1
354.0306,9689.4
354.0396,18442.2
354.1343,286.8
354.2167,241.6
354.219,237.6
354.2826,166.4
354.3224,191.6
354.3419,889.5
354.5787,104.4
354.6223,223.8
354.7237,188.2
354.7434,182.6
354.7541,580.4
354.7955,360.6
354.8248,19.6
354.8642,104.3
354.9674,320.5
355.0119,2257.6
355.0345,11335.7
355.0706,481
355.1588,847.5
355.1895,378.6
355.2301,340.2
355.2489,267.8
355.4875,187.5
355.5248,699.3
355.5785,90.8
355.5899,520.9
355.7115,148.3
356.0153,100.6
356.0315,168.8
356.0495,190.4
356.1698,547.8
356.3464,728.8
356.3972,711.2
356.4585,21.2
356.4802,100.8
356.4964,533.7
356.6523,718.3
356.6914,285.7
356.8179,336.8
356.884,323.4
357.0088,816.6
357.0457,18.2
357.1176,261.6
357.3905,384.3
357.4168,40.7
357.5374,546.7
357.5602,180.8
357.5886,745.3
357.5997,430.4
357.6099,112
357.6325,21.2
357.6721,140.4
357.7407,558.3
357.8345,18.4
357.8617,326.7
357.9775,32.2
358.0093,22.7
358.0222,610.7
358.1378,169.2
358.144,330.1
358.3623,127.5
358.555,93.6
358.9368,306.3
359.0078,556.8
359.032,14465.4
359.0443,339171.3
359.2561,25.9
359.4517,424.4
359.5084,475.8
359.5104,494.5
359.5383,146.1
359.5404,165.6
359.5432,159.3
359.5653,116.1
359.5814,677.9
359.5939,189.5
359.6042,1137.7
359.6168,454.3
359.6473,126.6
359.6532,272.8
359.6707,774.4
359.6904,468.6
359.7112,205.5
359.72,608.5
359.7284,270.2
359.733,140.9
359.7853,241
359.7985,111.2
359.8104,443.8
359.85,487.3
359.8949,17.9
360.0007,523.2
360.0107,48.6
360.0476,31011
360.0701,318.7
360.1554,235.6
360.1648,40.9
360.3245,340.7
360.3453,140.3
360.6224,364.8
360.6588,322.4
360.6677,91.7
360.9297,19.2
360.9743,20.6
360.983,425
361.0207,3096
361.0284,162
361.0481,1142.3
361.2745,2216.3
361.5837,110.5
361.7068,144.1
361.7802,739.4
361.8254,185.1
361.8596,324.5
361.8983,403.4
362.0549,746.6
362.2857,167.6
362.2989,162
362.3319,226.2
362.5028,280.5
362.6334,387.5
362.6922,543.8
362.8115,109.4
362.9267,1724.8
362.9962,20.9
363.0056,22.3
363.172,34.3
363.2117,385.1
363.2503,245.6
363.307,199.4
363.3751,531.4
363.4112,113
363.4602,335.3
363.5969,1022.3
363.689,23.9
363.7634,36.7
364.1269,364.3
364.1464,857.4
364.2222,112.9
364.4143,164.6
364.5404,137.8
364.7173,332.9
364.7942,380.8
364.9733,115.2
365.0812,93.1
365.1069,1438
365.5661,115.5
365.5734,549.9
365.6509,202.7
365.8126,182.1
365.8997,332.9
366.0054,471.6
366.1397,58.9
366.156,97.8
366.2254,122.6
366.3239,180.2
366.8736,535.8
367.1214,1398.1
367.195,3691.7
367.2179,307.9
367.263,115.7
367.476,94.4
367.5874,654.1
367.7842,466.6
367.9459,759.4
367.9896,17.1
368.107,86.7
368.2008,20.6
368.2213,18
368.4062,357.4
368.5004,695.7
368.5608,379.1
368.595,375.4
368.7239,178
368.7441,134.8
368.7554,118.7
368.8854,667
368.9929,2417.3
369.0013,16484.5
369.0103,7308.8
369.0191,570.4
369.1093,186.7
369.1231,25.9
369.2112,448
369.3272,134.3
369.3384,174.3
369.3531,31.3
369.4006,487.1
369.4104,117
369.4287,777.7
369.4924,185.7
369.6365,85
369.6638,597.9
369.9261,227.6
369.9931,282.5
370.005,289.8
370.0703,544.9
370.2998,36.4
370.3461,314
370.4,135.1
370.7071,830.5
370.7396,309.5
370.761,298.3
371.0028,95.7
371.042,1107.1
371.0797,646.1
371.1548,128.7
371.1732,516.4
371.1826,159.2
371.3682,207
371.4317,21.4
371.4719,201
371.6058,496.8
371.6514,210.6
371.8794,265.3
372.1945,20.5
372.4987,418
372.5795,287.9
372.6188,270.1
372.6754,435.8
372.9362,285.5
372.999,672.2
373.0836,524.9
373.1783,213.2
373.272,124.3
373.3186,135
373.386,113.2
373.5543,567.2
373.6183,275.7
373.807,375.9
374.0172,645.3
374.0933,520.2
374.1522,619.4
374.1649,99.9
374.2932,19
374.3545,410.5
374.5118,129.6
374.5468,120.7
374.6049,269.4
374.6439,154.8
374.651,267.1
374.664,190.6
374.6954,214.2
374.7223,195.6
374.7362,395.6
374.791,173.7
374.8154,156.1
374.9884,516.1
375.0094,124015.1
375.0183,105263.3
375.0722,229.9
375.2283,94.7
375.2957,377.4
375.6436,149.2
375.6687,435.4
375.6806,295.3
375.7102,19.9
375.7587,299.5
375.9197,121.6
375.9754,20.3
376.005,158.4
376.0125,9301
376.0217,9878.4
376.1448,571.2
376.2187,92.7
376.3404,18.9
376.4257,643.5
376.4316,1510.6
376.5314,573
376.6429,926.7
376.6626,219.4
376.6778,165.9
376.7623,375.3
376.9943,663.5
377.0166,4414.5
377.2447,638.3
377.438,626.1
377.5812,473.7
377.6269,245.5
377.7075,19.7
377.9247,166.4
378.2055,115.8
378.2276,218.8
378.3348,421.1
378.5216,554.4
378.6229,162.4
378.6342,39.6
378.7043,679.4
378.7195,407
378.884,763.1
378.9012,1187.8
378.9912,93
379.0431,129.4
379.2019,36.1
379.2361,89.5
379.3384,47.1
379.8906,489.7
380.0042,800.9
380.1092,392.7
380.1309,175.5
380.1913,79.6
380.7403,86
380.7706,385.9
380.858,200.7
381.0031,507.2
381.0136,23540.9
381.0262,189400.8
381.1779,211.8
381.2202,124.8
381.5273,443.4
381.6725,541.5
381.7308,119.7
381.7924,223.9
381.8082,398.6
381.8241,19.9
382.0166,403.6
382.0295,17246.3
382.0999,277.5
382.1835,380.2
382.1908,345.1
382.3889,222
382.6678,89.4
382.7675,1489.5
382.8123,37.3
382.866,100.3
383.1166,190701.1
383.389,458.5
383.8029,572.1
383.8408,426.5
383.9233,746.2
383.9647,223.8
384.0507,680.4
384.0746,20.3
384.1199,22560.4
384.212,321.8
384.3301,186.7
384.4281,152
384.7641,863.9
385.121,579
385.2561,524.1
385.3914,109.3
385.4718,118
385.5134,432.1
385.8564,135.8
385.8947,263.3
386.1663,184.5
386.4697,21
386.5744,100.7
386.7007,315.9
386.7157,362.5
386.7839,144.3
386.886,563.8
386.946,176.5
386.9757,21.6
387.0037,1288.6
387.1309,261
387.1727,478.8
387.2081,110
387.349,444.5
387.4485,287
387.4908,424
387.5348,584.8
387.5704,416.5
387.8654,32.2
387.9857,427.6
387.9884,459.9
388.0543,18.7
388.0931,20.2
388.7125,435.9
388.8618,18.5
389.134,590
389.3234,263
389.3805,100.8
389.6528,471.4
389.6999,100.3
389.7473,342
389.8061,255.3
389.8381,107.9
389.9746,1312.9
389.993,45.1
390.0551,23.5
390.1076,310.1
390.1865,780.6
390.2014,491.4
390.2192,20.5
390.3605,302.6
390.5341,33.2
390.5566,486.1
390.5898,159.8
390.7114,760.1
390.721,285.6
390.7302,298.8
390.799,1459.1
390.8317,566.6
390.8343,649.8
390.8384,619.4
390.8429,559.5
390.8578,566.9
390.8706,129.5
390.9743,12568.9
390.9833,21781.1
390.9922,12479.4
391.0633,154.1
391.1005,98.1
391.1102,19.7
391.1421,548.4
391.5783,420.8
391.7229,772.9
391.9426,18.5
391.9878,131.9
392.1365,320.9
392.1787,443.9
392.2416,21.1
392.2477,374.9
392.5483,358.8
392.741,473.9
392.7487,153.9
392.7964,774
392.9143,624.2
392.959,51.9
392.9797,20.8
393.0561,20.3
393.6908,20.6
393.7045,645.7
394.1426,303.3
394.2991,107.4
394.6319,102.9
394.7207,106.3
394.9553,24.8
395.2559,201.2
395.4193,18.2
395.5186,551.5
395.5636,157.3
395.5955,744.8
395.6536,166.3
396.055,163.8
396.505,587
396.7199,286.5
396.9624,169.6
396.9914,173372.9
397.0002,61060
397.2352,152.8
397.2551,21.8
397.2741,90.6
397.3397,463.1
397.4244,99.9
397.4622,94.8
397.5003,115.2
397.5778,96.7
397.7776,91.6
397.8637,31
397.9759,157.2
397.9945,15064.3
398.0033,3154.4
398.0674,242.1
398.2035,529.1
398.2417,5889.3
398.4686,127.7
398.5495,166.4
398.7414,1964.2
398.7626,1052.7
398.7897,452
398.9271,474.6
398.9754,36.1
398.9978,1199.3
399.0547,437.2
399.0745,148.8
399.1737,473.2
399.2183,309.9
399.2716,348.3
399.4714,510.5
399.5564,439.8
399.665,104.5
399.6936,128.7
399.7412,251.6
399.827,584.1
400.2191,236.9
400.3241,266.5
400.6975,273.1
400.7193,21.2
400.7388,418.6
400.7638,22.3
401.4163,450.2
401.4687,135
401.8205,181.3
401.8435,822.6
401.8931,177.2
401.9297,120.6
401.9551,17.5
401.9828,303.5
402.0742,674.8
402.1907,751.1
402.3251,722.2
402.3843,19.1
402.4908,20
402.5272,123.6
402.8259,1558.6
402.863,311.9
402.9201,23.8
402.9323,40.8
402.9508,110
403.0082,239997.8
403.0537,357.6
403.4999,111.5
403.5561,20
403.5933,19.5
403.6593,304.7
404.0115,20629.7
404.0426,21.8
404.0966,286.7
404.13,17.8
404.1359,20.6
404.1559,100.4
404.1885,164.4
404.2635,491
404.3143,18.9
404.641,337.5
404.6549,404.9
404.6678,154
404.6862,991.2
404.8047,18.8
404.8144,115
404.8229,614.7
405.0129,1004.3
405.239,305.8
405.3093,158.3
405.3542,130.5
405.3671,253.4
405.4582,447.9
405.5174,671.1
405.717,573
405.7437,282.2
405.828,431.7
405.9484,1333.7
405.9847,518.4
406.0302,478.7
406.0394,494.1
406.0563,288.7
406.3297,1373.6
406.5089,114.2
406.7733,1385.3
406.8216,119.5
406.9553,137.8
407.2939,706.9
407.3333,204.5
407.4286,220.2
407.4951,755.6
407.5377,197.6
407.6749,248.3
407.6943,467.7
407.7601,19.4
407.8361,531.7
407.9604,270
408.0093,438.3
408.1258,295.8
408.3072,357
408.4398,274.1
408.5758,487.6
408.5945,158.3
408.7705,1348.7
408.9851,1634.7
409.2644,138.4
409.4675,509.8
409.5173,615.1
409.5281,468.6
409.5316,436.4
409.6879,20
410.0945,18.7
410.1723,110.7
410.3034,746.7
410.8159,381.9
410.8244,653.9
410.9699,44.3
410.9966,217
411.0754,593.7
411.427,524.2
411.4684,548.9
411.8575,306.8
412.0115,111.1
412.1445,196.9
412.1571,195.1
412.292,568.8
412.3026,18.2
412.3215,1454
412.3982,227.5
412.7455,18.5
412.7638,569.8
412.8299,121.6
412.8957,19.8
412.9653,27165.4
412.974,10302.8
413.1418,42
413.1878,212.3
413.2668,3637.9
413.2908,546.8
413.3246,203.2
413.4508,500.9
413.4627,255.1
413.6604,640
413.7809,283.9
413.9689,353.8
414.1458,138.4
414.227,131.2
414.2702,436.2
414.5019,639.4
414.5391,163.4
414.7067,21.5
414.7154,515.2
414.7603,115.3
415.0371,28
415.0921,102.2
415.1871,40.1
415.2228,1498.6
415.2719,85.3
415.4225,432.4
415.4583,562.8
415.764,200.6
416.0081,293.4
416.0632,110.4
416.1355,8343.7
416.1729,185.7
416.2144,21538.9
416.2258,116.2
416.2576,188.1
416.3056,159.6
416.5412,558.5
416.8095,460.3
416.8641,171.8
416.9574,405.5
417.218,2544.4
417.3149,38.2
417.7406,189.4
417.7639,40.7
417.8981,21.2
418.0432,124.5
418.1571,126.3
418.195,19.6
418.4302,17.2
418.7589,695.8
418.7989,915.2
418.8269,592.7
418.9821,82126.9
419.0826,248.1
419.256,1194.7
419.2648,141.9
419.3798,157.1
419.6739,896.8
419.8826,373.2
419.9856,3861.7
420.0277,177.6
420.0573,298.4
420.0863,246.4
420.125,241.1
420.1698,21.2
420.4624,292.7
420.6993,272.1
420.7305,82.5
420.7403,690.8
420.7652,424.5
420.8377,445.7
420.8861,767.9
420.926,95.3
420.9461,21.3
420.9576,394.8
420.9802,2787.8
421.0777,711.4
421.3452,22.3
422.1056,661
422.2423,336.6
422.304,44.7
422.3504,241.5
422.4991,545.4
422.5439,259.8
422.7974,244
422.956,515.7
423.0232,41
423.3054,425.9
423.3507,704.7
423.5157,464.1
423.592,132.7
423.7628,134.4
424.0302,358.1
424.2266,123.1
424.3867,272.4
424.5844,472.4
424.6326,105
424.6586,475.3
424.6996,819.5
424.7384,269.7
424.752,825.9
425.1616,119.6
425.2289,531.1
425.2891,474.5
425.5078,19.6
425.5292,177.9
425.7555,38.8
426.3181,38.3
426.3897,158.2
426.6337,417.1
426.7101,276.3
427.026,626.6
427.1166,33.7
427.15,178
427.2194,521.4
427.2898,236.4
427.4551,160.4
427.649,118.3
427.7384,124.5
428.0358,248.2
428.1253,162.4
428.4735,955.2
428.4978,321.9
428.7708,294.4
428.8402,718.6
428.9397,2543.7
428.9525,1207.2
428.9608,20
428.9706,49
428.9868,301.1
429.006,148.6
429.0894,322.5
429.2398,19.3
429.3297,110.8
429.373,527.3
429.3892,547.2
429.5145,290.8
429.5221,467
429.697,717.7
429.8268,137.1
429.8838,384.2
429.9069,97.1
429.9812,173.8
430.0557,138.8
430.4643,546.8
430.9144,2027.3
430.9505,376.8
430.9624,841.6
431.0561,537.9
431.0757,305.5
431.0872,213.1
431.1687,129.4
431.2174,6969.9
431.5171,175.3
432.3995,24.2
432.4485,37.6
432.5483,378.6
432.5821,117.4
432.6122,143
432.9684,534.7
433.1008,472.7
433.1532,333.5
433.2815,323.2
433.5477,21.8
433.6245,451.2
433.75,101.5
433.8979,406.8
434.1049,601.1
434.5729,176.3
434.642,739.1
434.8223,261.4
434.9562,14149.7
435.0098,284
435.2226,128.7
435.2605,287.6
435.3266,157.2
435.5554,91.4
435.5776,704.8
435.6035,130.8
435.7661,488
435.8108,181.4
435.9364,23.4
435.9596,437.4
436.1859,88.7
436.2669,429.2
436.8175,306.4
436.9545,1208.3
437.0642,457.9
437.1866,631.8
437.2043,2761.5
437.2415,274.5
437.3279,147.8
437.4165,120.8
437.7312,93.8
437.8531,1167.8
438.1049,314.3
438.1962,1527.2
438.2135,519.8
438.2334,119.7
438.7546,193.1
438.8435,268.5
438.9037,18.7
438.9723,2780.4
438.9848,3418.7
439.0769,38.5
439.1535,131.1
439.159,138.9
439.2041,268.2
439.6242,526.8
439.7874,91.1
439.8716,311.4
439.91,119.7
440.0494,176.7
440.4674,257.1
440.4798,528
440.539,18.9
440.5672,155.3
440.5968,118.2
440.9703,515.3
440.9825,496.8
441.1966,18.9
441.2382,711.8
441.2982,294.2
441.4188,246.9
441.4392,176.9
441.5588,22.1
441.5781,211.3
441.8635,149.1
441.8724,242.6
441.9948,376.2
442.0254,386.7
442.1066,528.6
442.1815,173.8
442.4318,409.9
442.7231,648.8
442.7686,675.2
442.7842,170
442.9671,92.2
442.9781,21.1
443.0359,318
443.0922,121.7
443.2542,826.6
443.594,119.1
443.7516,393.1
443.7919,326.9
443.8749,23.7
444.2372,268.5
444.5347,612.4
444.5454,473.4
445.0085,182.9
445.0714,226.5
445.1029,310.4
445.1731,358.3
445.2106,322
445.233,1229.4
445.2703,690.6
445.3088,17.5
445.3308,153.4
445.4595,682.5
445.721,315.3
445.8637,146.3
445.9999,304.7
446.1198,103.1
446.1575,342
446.2435,438.5
446.374,293.5
446.4171,656.6
446.5627,105.5
446.784,523.1
446.8875,981.8
446.969,110
447.1504,720.2
447.209,98.6
447.3294,331.3
447.3773,38
447.4279,18.6
447.8337,423.2
447.9329,421.4
447.9594,263.9
448.5911,110.6
448.6475,110.2
448.7086,472.5
448.7244,131.4
448.746,299.3
448.8443,316.1
448.9152,93.6
448.9331,2749.2
449.0013,303.4
449.0534,289.4
449.1546,2297.3
449.4372,302.8
449.7166,381.5
449.7336,229.3
450.158,390.9
450.3821,512.5
450.4892,587.1
450.514,288.8
450.5537,305.6
450.9288,1571.1
451.0675,101.9
451.1504,151.4
451.1682,106.9
451.4465,816.5
451.5722,316
451.6707,125.9
452.0147,19.3
452.3242,832.6
452.3645,241.6
452.3749,333
452.5084,126.9
453.1718,982.1
453.4352,19.3
453.5408,20.1
453.6458,133.3
453.8071,148.7
453.8786,467.1
454.1581,693.6
454.309,18.8
454.4186,103
454.531,173.7
454.6272,292.8
454.6446,20.6
454.7337,620.7
454.95,34314.8
455.0491,499.1
455.1772,597.8
455.2249,310.2
455.4678,184.8
455.7942,616.3
455.8919,240.9
455.9531,659.2
456.1457,207.9
456.206,728.1
456.2984,325.8
456.499,157.8
456.6997,537.1
456.9472,9643.6
457.0406,300
457.233,25056
457.5485,107.5
457.5895,423.4
457.7095,765.4
457.8444,415.6
457.9537,267.8
457.9851,103.9
458.0023,215
458.2369,3836
458.9623,1436.5
458.978,632.4
459.1474,125.5
459.2487,501156.5
459.3592,97.2
459.3776,552
459.6164,147.5
459.6797,164.2
459.7946,18.9
460.0523,18.9
460.2521,107907.1
460.3615,286.8
460.5883,169.4
460.7748,273
460.8563,237.2
460.9669,71246.2
461.0206,94.6
461.0789,131.8
461.1303,246
461.2555,9076.8
461.305,111
461.329,548.6
461.3966,137.3
461.4658,20.4
461.5106,232.3
461.5717,341.9
461.5786,735
461.6825,127.2
461.7667,18.7
461.8123,114.2
461.8199,123.9
461.9703,4927.8
462.0229,405
462.3371,16.9
462.3629,233.3
462.504,336.1
462.7323,392.5
462.9639,21235.5
463.0326,22.6
463.1601,22.8
463.1722,383.5
463.1922,139.3
463.2014,767.8
463.2204,536.9
463.2769,37
463.5031,18.2
463.9666,364.4
464.4476,19
464.456,19.7
464.4673,776.6
464.7304,344.9
464.9788,8817.4
465.1657,115.6
465.5393,452.7
465.7328,112.1
465.8114,138
466.1624,336.9
466.5378,201.5
466.653,19
466.6658,170.1
466.7289,362.4
466.7446,338
467.2457,491.2
467.3577,254
467.4598,143.1
467.5045,368.4
468.1439,137.4
468.309,1782.1
468.3512,676.4
468.7568,586.7
468.7969,533.5
468.9414,235.3
469.1411,45.3
469.2447,139.8
469.3078,111.2
469.3299,31.7
469.7284,233.8
469.7425,383.5
469.9345,21.4
470.002,95.4
470.165,384.1
470.242,32.7
470.3107,304.8
470.4291,780.3
470.4731,169.3
470.924,14911
470.9555,1620.9
470.9955,3533
471.4661,25.1
471.533,97.2
471.73,663.4
471.7443,170.1
471.7897,250.4
471.8907,215.4
471.8956,250.1
471.9176,698.5
472.1195,152.8
472.4132,136.1
472.5009,136.5
472.9212,5022.5
472.938,667.6
472.9483,228.6
472.983,53.6
473.0834,129.4
473.1124,122.8
473.2647,5189.6
473.3615,291.9
473.4739,86.1
473.49,374.3
473.5412,192.7
473.7678,506.8
473.7994,18.3
473.9021,274.8
474.1091,129.8
474.2863,111.2
474.3057,18.7
474.3739,548.6
474.5449,404.2
474.7017,300.3
474.7527,144.7
474.9014,609.2
475.0969,492.9
475.2227,24284.6
475.2452,608.7
475.4879,326.6
475.6135,317.6
475.749,481.2
475.9402,112.4
476.1219,579.9
476.2259,3596.7
476.3144,1016.7
476.3389,880.3
476.8827,331
476.9205,164.5
476.9408,40037.3
476.9523,231.6
477.0397,912
477.0665,174.6
477.1883,317.9
477.2204,870.2
477.3183,145.2
477.4288,128.6
477.6869,21.7
477.8672,19.9
477.9274,18.2
477.9441,2245.6
478.2626,472.6
478.2929,1263.8
478.3297,48195.7
478.4822,164.9
478.696,135.8
478.8032,335.2
478.9379,12251.4
478.9858,138.3
479.0021,105.1
479.3332,9069.7
479.4889,395.2
479.5235,111.6
479.5367,112.4
479.636,243.2
479.9414,1007.3
479.9551,391.1
480.0155,532.9
480.0691,18
480.118,333.2
480.3106,1408.6
480.3358,679.8
480.4071,19.1
480.6895,164.3
480.936,343.6
480.9527,2578.5
480.9676,20.7
481.0917,103.8
481.1458,238.9
481.2326,6082.5
481.3447,443.4
481.6999,348.7
481.7883,210
481.8826,857.8
481.9863,832.5
482.0058,581.8
482.0697,159.4
482.2035,183.8
482.2346,411.1
482.2631,198.3
482.3006,725.2
482.7831,412.1
482.8141,532
482.9653,666.6
482.9975,22.8
483.1104,17.3
483.2487,200485.2
483.2964,293.2
483.492,768.5
483.6362,110.4
483.8287,100.2
484.138,299.3
484.2521,50292.6
484.3666,169.6
484.46,758.9
484.4791,345.9
485.0592,271.1
485.2643,199601.2
485.3232,169.9
485.4012,164.6
485.445,127
485.7161,519.4
485.8866,630.2
485.914,271.6
486.2469,301.7
486.2678,47076.6
486.4494,117.1
486.5096,220.6
486.6936,297.5
486.8418,102
486.9694,1387.3
487.0868,175.8
487.28,89435.2
487.309,197.4
487.4151,101.1
487.4543,19.4
487.6868,616.6
487.9275,22.5
488.0479,295.8
488.2834,20007.5
488.411,552.3
488.7147,358.9
489.0864,66.5
489.2864,1531.3
489.4604,664.6
489.4741,314.8
489.4997,211.4
489.5304,450.9
489.5996,509.9
489.6724,17.9
489.732,457.2
489.9803,96.3
490.291,9887.8
491.2072,327.5
491.5536,205.3
491.6779,530.6
491.7008,432.1
492.2216,686.2
492.3081,195.7
492.4024,420.8
492.4652,501.7
492.6215,345.3
492.7988,102.8
492.8631,363
492.8731,242.7
492.9147,6993.9
493.2621,137.3
493.4084,133.3
493.4216,340.9
493.5681,200.7
494.0308,403.8
494.3246,20141.4
494.5831,240.4
494.8882,19.1
494.9115,1669.7
495.2464,19.6
495.3285,810.5
495.6086,417.9
496.0149,109.2
496.1464,524.3
496.1834,101.7
496.2992,116.7
496.3403,517097.8
496.3699,207.4
496.4721,395.4
496.5537,137.5
496.5701,94.9
496.7107,141.2
496.9314,544.7
497.3435,124499.9
497.5208,189.5
497.9467,451.2
498.2399,390
498.3472,9670.2
498.4212,110.1
498.5192,704.2
498.902,755.5
498.9141,260.2
498.9288,1603.6
498.9672,18.4
499.1491,98.3
499.2225,7745.9
499.2656,160.8
499.3633,447.6
499.709,272.9
500.0259,385.1
500.2267,397.6
500.2922,513.7
500.6839,561.3
500.7734,235.2
500.9845,911.1
501.0838,103.1
501.095,25.4
501.2179,18.8
501.238,10681.4
501.2582,151.4
501.354,230.8
501.5525,164.5
501.6824,107.8
502.241,2231.6
502.2909,877.4
502.3294,18367
502.4058,168.2
502.7046,18.6
502.8785,522.9
502.9543,263.1
502.988,931.3
503.1079,83.3
503.1558,127.3
503.1815,230.2
503.237,676.9
503.2542,3945.5
503.333,1691
503.3597,222.7
503.5781,19.9
503.7451,19.6
503.9174,96.7
503.9938,364.4
504.1075,20.5
504.248,25.7
504.2728,413.4
504.3064,4142.7
504.3178,719.2
504.3452,15013.8
504.7402,738.9
505.1311,338.3
505.2332,5502.2
505.349,2060.4
505.6716,513
505.9192,87.9
506.2336,187
506.2653,1848.8
506.361,4159.7
506.3913,829.6
506.4775,162.5
506.4998,168.6
506.6294,458.8
506.6507,20.5
506.7153,441.8
506.7796,852.2
506.8907,3358.8
507.1322,545.4
507.1818,307.3
507.2206,110.8
507.2487,59349.3
507.3369,307.1
507.3632,375.9
507.9213,521.1
507.9682,347.3
508.0118,265.6
508.2521,12754.8
508.3478,38.6
508.3763,3054.3
508.401,246.5
508.5551,298.5
508.5615,180
508.6139,117.4
508.6998,377.5
508.8888,1857.5
509.0052,3344.8
509.2014,452.8
509.2642,17846.1
509.44,221.9
509.4782,749
509.6501,284.3
510.218,336.9
510.2354,322.4
510.2683,2147.8
510.3558,4949.6
510.6176,21.2
510.6667,684
510.8867,337.7
510.9031,749.4
511.1251,39.2
511.3598,599.8
511.4846,202
511.6693,383.1
511.7175,395.2
511.8205,323.8
512.0215,434.1
512.3333,331.7
512.9086,16860.8
513.3651,187
513.3918,264.1
513.6905,540.7
513.9434,98.4
513.9617,344.3
514.4072,484.5
514.5013,18.7
514.6588,417.8
514.9057,8370.2
515.0224,395.9
515.061,196
515.4062,103.5
515.4829,546.3
515.7602,308.2
515.7802,843.6
515.9781,103.6
516.0387,460.3
516.3065,33780.2
516.331,347
516.3706,139.5
516.664,371.4
516.8186,483
516.8647,484.1
516.901,484.7
516.9205,1277.2
517.0537,608.4
517.2615,345.9
517.2769,439
517.287,619.7
517.3098,5369.3
517.6688,256.9
517.92,167.8
517.9689,186.8
517.9961,944.8
518.0875,128.3
518.1611,99.6
518.3222,782972.5
518.5275,124.8
518.7401,256.9
518.7532,412.3
518.7735,280.6
518.9254,26059.3
519.0016,19.6
519.1811,183.7
519.198,144.8
519.2139,413.2
519.3256,190899.8
519.8528,426.3
519.8756,209.7
519.9282,978.1
520.1488,176.8
520.2009,460.6
520.2811,619.7
520.3403,186887.2
520.5452,132.8
520.6553,158.2
520.7355,18.9
520.812,470.6
520.9222,15007.2
520.9471,18.8
520.9777,510.1
521.045,849.8
521.1065,91.5
521.2805,507.6
521.3293,1946
521.3437,47990.1
521.5478,136.3
521.601,115.5
521.6864,96.3
521.7511,126.1
522.2569,577.2
522.3559,209467.9
522.6595,297
522.6998,321.6
522.9194,2104.8
522.9372,4588.7
522.9678,656.2
523.2224,1444.9
523.2895,179.2
523.3592,60065.2
523.5168,110.6
523.8008,515.3
523.9639,185
523.9854,505.4
524.0028,776.3
524.0372,305.4
524.108,18.3
524.2277,1180.5
524.2557,267.8
524.2736,1446.5
524.3715,117303.1
524.439,109.3
524.9788,438.4
525.224,550.2
525.2781,433
525.3454,112
525.375,30138.4
525.5246,24.1
525.5717,629.4
525.9609,41.8
526.1146,121.6
526.215,354.7
526.2992,348.6
526.3297,6915.3
526.3773,1108.5
526.5235,156.5
526.6915,458.5
526.7468,388.5
526.8311,132.2
526.9442,167.2
527.0571,85.8
527.1738,23.9
527.231,166.8
527.3066,150.4
527.3207,350.6
527.3317,157.1
527.3678,277.6
527.512,337.9
527.6389,526.5
527.8927,17.7
528.11,508.9
528.2529,256.7
528.4119,542.7
528.5295,412.9
528.6329,37.9
528.7706,325.4
528.8823,7034
528.9541,1883.2
529.2071,155.1
529.2631,642.3
530.0626,679.9
530.3217,1853.3
530.3583,1112
530.5126,126.8
530.5985,278.7
530.7431,39.5
530.7903,317.7
530.8221,630.9
530.8793,4558.5
531.2204,4508.7
531.2485,10421.9
531.3881,389.9
531.4027,20.6
531.4794,757.9
531.6049,388.9
532.163,376.5
532.1686,342.6
532.2519,1005
532.2804,8361
532.3376,8607.7
532.4172,89.2
532.433,500.2
532.6282,176.6
532.8421,372.8
532.8529,121.9
532.9663,1827.3
533.2644,1314.5
533.2864,571.5
533.3177,193.1
533.3656,256.9
533.5046,326.6
533.611,202.4
534.2289,568.9
534.2642,386.9
534.2962,210357.7
534.5221,708.7
534.6235,497.5
534.7368,95.8
534.7701,22.9
534.8994,15116.9
535.0153,115
535.1763,18.9
535.2487,106.2
535.2996,47581.9
535.3406,141.7
535.366,627.4
535.557,800.2
535.7017,385
535.7588,377.7
535.8389,352.7
535.8575,314
535.9018,356.9
536.2946,11271.2
536.5089,158.2
536.6124,354.7
536.8967,9906
537.1176,791.9
537.2608,99.6
537.2991,785.2
537.332,405.9
537.3425,181.3
537.4796,18.5
537.8235,92
537.9005,779.5
538.2898,332.5
538.705,123.9
538.7597,314.8
538.894,1526.1
538.9122,2113.7
538.9328,1262.9
538.9817,621.2
539.0548,349.7
539.1662,104.4
539.3192,343.2
539.4947,454.3
539.5349,18.9
539.6036,694
539.6319,663.3
539.7097,494
540.1174,277
540.1917,108.1
540.3065,2491.2
540.456,114.2
540.7007,189.1
540.8075,533
541.2024,18.3
541.4834,327.9
541.5138,189.9
542.2536,119.4
542.3223,297858.3
542.4915,770.3
542.566,154.9
542.8168,511.5
542.9275,598.1
543.1243,112.6
543.3256,77878.2
543.4251,226.7
543.6897,724.7
544.0761,290.3
544.287,22.3
544.3381,334834.3
544.412,644.5
544.4812,18.9
544.5346,302.2
544.6029,20.3
544.6965,19.6
544.7377,381.2
544.857,470.9
544.928,667.9
544.9483,1052.7
545.0422,745.9
545.2007,95.3
545.2384,294.8
545.2592,22
545.3415,83273.6
545.5667,315.7
545.7982,218.9
546.0223,19.4
546.1945,113.4
546.2577,530.3
546.3536,163553.6
546.8743,171.9
547.1435,190.9
547.2097,297.9
547.357,42459.4
547.3881,280.5
547.5045,35.7
547.7267,105.2
547.9146,101.3
547.9653,461.9
548.1681,667.2
548.312,2234.3
548.3599,2935.1
548.9227,21.6
548.9923,550.9
549.0065,159.1
549.0293,124
549.1934,234.7
549.36,278.8
549.5264,193.7
549.6725,120.1
549.7937,240.9
550.2701,530.1
550.284,98.6
550.4388,20.1
550.7217,18.1
550.8737,2766.7
551.0131,16.2
551.208,245.5
551.2424,535.6
551.3818,338.8
551.4711,18.3
551.5761,100
551.8583,685.9
551.8729,19.3
552.1298,152.8
552.1763,94.7
552.4227,278.6
552.4372,21.8
552.8708,657.1
552.9715,37.4
553.0079,229
553.4132,766.4
554.2668,123.5
554.5356,20.6
554.7726,25.3
554.8887,168.4
555.2652,34.2
555.3407,186.7
555.3798,98.8
555.6585,255.6
555.7298,254.3
555.8277,169.1
556.0224,379.8
556.1695,123.5
556.2735,39.5
556.583,99.3
556.9663,458.2
557.1394,570.4
557.1641,96.5
557.2649,264.5
557.7276,131.9
557.9472,110
558.2963,79843.6
558.8956,277.4
559.2994,17090.3
559.3288,278.7
559.5407,250.6
559.6357,694.1
560.2676,313.1
560.2953,817.2
560.3119,83444.1
560.5357,476.1
560.6177,118.9
560.6242,106.2
560.6294,98.9
560.9108,512.4
560.9224,321.3
561.1109,552.3
561.2463,195.4
561.2688,270.2
561.3152,19697.4
561.8746,20.6
561.9246,160.5
562.0166,45.6
562.1116,22.9
562.2167,169.5
562.311,3388.6
562.3275,38431.7
562.3929,21.2
562.603,176.7
562.6692,132
562.6924,155.6
562.935,467
563.2475,130.2
563.3311,7865.9
563.3627,418.3
563.3689,302.9
563.5094,121.5
563.5659,37.1
563.6805,23.4
563.7481,428.9
563.9819,135.9
564.0274,168
564.3069,3879.3
564.5927,226.7
564.773,19.6
564.8142,123.2
564.8497,695
565.0425,439.2
565.0574,399.6
565.1309,123.2
565.3363,99.2
565.512,380.3
565.6433,755.4
566.0288,200.2
566.1899,382.2
566.3224,80802.3
566.4722,122.3
566.492,21.2
566.5211,20
566.8683,192.8
566.9811,435.9
567.1407,125.8
567.3257,23069.8
567.4644,116.6
567.4967,18.5
567.6103,103.4
567.6534,340.5
568.1203,145.3
568.3384,33590.5
568.4076,533
568.7854,270
568.7965,240.1
568.8193,498.9
568.8423,330.6
569.0546,634.7
569.1664,346.3
569.3418,5992.3
569.4942,99.5
569.6667,173.7
569.8575,110.6
570.2568,1023.1
570.3407,19.6
570.5469,107.2
570.7861,254.6
570.8674,3980.9
570.9535,163.5
571.0053,286.2
571.0596,401.8
571.3351,475
571.3922,124.8
571.6598,223.7
571.9841,24.2
572.0835,413.4
572.3687,847.2
572.482,673.8
572.6156,469.8
572.7737,109.1
572.8647,4060.6
572.981,575.6
573.1292,484.3
573.2781,20.8
573.5867,21
573.6157,130.3
574.284,2502.4
574.5742,190.3
574.7012,474.2
574.8663,398.3
574.9964,214.3
575.2104,145.6
575.5041,4985.5
575.5726,102.8
575.816,443.2
575.9868,183.4
576.0313,107.5
576.2812,8117.5
576.4009,234.1
576.5083,542.9
576.8545,225.4
576.8843,9738.3
577.2305,400.6
577.2809,363.5
577.3799,200.3
577.4509,161.8
577.5203,790.7
578.1416,258.5
578.2759,1141
578.8815,7481.8
578.9243,323.5
578.9612,155.1
579.0178,472.7
579.1195,20.2
579.1745,298.2
579.776,151.2
579.9307,116.8
579.9744,340.9
580.294,638.3
580.4844,330.8
580.758,299.9
580.8788,2225.8
580.8958,2399.6
580.9341,179.8
581.0337,136
581.4541,107.5
581.6433,162.5
582.2417,206.8
582.2963,22102.4
582.3313,1015.7
582.3908,99.3
582.4155,114.2
582.4816,164.6
582.5206,958.3
582.5413,673.2
582.5469,609.2
582.5543,864.3
582.5729,1109
582.5948,373.2
582.6231,647
582.6768,392.4
582.7091,126
582.7239,96.8
582.7371,243.8
582.7878,674.8
582.8335,20.6
582.9373,355.3
583.2562,877.1
583.3002,1997.3
583.574,24
583.6676,449.6
583.7697,291.6
583.7861,19.7
583.9509,131.9
584.2798,184.9
584.2951,354.9
584.3115,3097.1
584.7028,314
584.832,179.3
585.2717,726.3
585.431,698.5
585.8638,626.2
586.31,6683.6
586.4673,177.9
586.6355,20.3
586.6892,96.4
586.8414,2824.2
586.9122,605.8
587.0653,101.3
587.2367,708.4
587.2643,216.8
588.1214,18.7
588.1488,345.7
588.7008,105.2
588.7312,521.7
588.7526,447.7
588.7801,150.9
588.8384,1665.4
589.4139,20
589.5996,146
589.8444,527.4
590.112,156.1
590.1982,564.5
590.3225,17322.7
590.418,616.4
590.4799,152.1
590.9276,325.4
591.0135,373.7
591.1851,414.5
591.2596,519.1
591.285,517.2
591.3248,3471.8
591.5026,19.7
591.779,110.9
591.8122,296.5
591.8856,282.2
592.0416,20.6
592.1588,22.2
592.2552,1220.6
592.3381,3264.2
592.8582,7644.5
593.1183,286
593.2402,130.9
593.2723,265
593.3419,732.2
593.4445,614
593.5633,524.6
593.6424,710.7
593.8018,404.5
594.0075,242.6
594.0443,103.8
594.6119,36.3
594.7212,290.8
594.79,633.8
594.8554,6434.2
595.2514,362.8
595.3873,343.5
595.4846,424.6
595.9832,449.9
596.2746,433
596.4568,17.7
596.4834,475.9
596.6707,97.7
596.8526,1329
596.8702,391.6
597.1695,358.4
597.1831,129.7
597.4591,1500.2
597.4858,5303
597.8686,243.4
597.8862,434.9
597.9915,155.8
598.0277,184.7
598.1019,163.8
598.4588,995.4
598.6242,321
598.8677,478.9
598.8976,445.2
598.9473,363.3
599.0411,117.4
599.2986,165.6
599.3916,286.5
599.454,600.5
599.4754,511.2
599.502,2360.5
599.5847,310.7
599.8594,443.8
599.9088,105.5
600.0443,374.5
600.2815,1588.5
600.5061,591.2
600.5808,120.3
600.619,323.6
600.7394,237.6
600.8426,20.2
601.0076,20.2
601.2093,704.8
601.2852,439.6
601.3632,111.3
601.4785,171.6
601.6628,437.6
601.7668,687
601.7896,361.2
602.0261,128.9
602.0605,152.9
602.2159,349.6
602.2982,485.5
602.5258,122
602.9014,277
603.0396,139.6
603.1852,180.6
603.3055,36.8
603.3532,99.8
603.4483,730.4
603.5348,649
604.0038,100.7
604.3129,1232.5
604.6569,288.2
604.6734,584.5
604.7359,342.7
604.7741,325.1
605.401,139.8
605.5872,109.5
605.7439,625.4
606.2377,124.8
606.2961,1735.7
606.417,489.6
606.4643,180.7
606.6468,460
606.9961,189.3
607.0553,20.9
607.1714,9137.2
607.2221,18.2
607.4602,21.2
607.4735,161.4
607.6737,803.9
607.9604,120.3
608.1738,676.9
608.3688,184.5
608.5749,275.4
608.6111,823
608.8324,2121.6
608.8872,135.4
608.9602,23.4
609.2288,236.4
609.2569,24.7
609.3672,409.4
609.6024,269.5
609.6895,162.7
609.7505,96
609.9698,18.1
609.976,18.4
610.1076,152.4
610.3079,811.5
610.3661,25
610.5316,144.5
610.5688,278.6
610.6459,674.1
610.7351,285.2
610.83,622.9
611.4917,570.7
612.042,378.4
612.3247,1620.3
612.3564,40
612.3913,36.7
612.675,34.6
613.0093,323.2
613.6035,94.1
613.6728,20.5
613.8826,248.4
613.9724,419.3
613.9894,104.9
614.0613,918.5
614.1184,305.9
614.2833,129.8
614.5057,839.4
614.6336,453.2
615.0415,39.9
615.2964,321.8
615.4584,1529.7
615.9554,731.6
616.1874,110.4
616.2131,190.8
616.2979,350
616.4613,120
616.9812,20.9
617.0507,334.7
617.2064,279.6
617.401,421.5
617.4352,821.9
617.4768,5038.4
617.5787,601.3
618.1035,688.7
618.1988,109.8
618.7212,98.4
618.8233,110.9
618.8465,341.6
618.9629,310.5
619.3906,97.3
619.4384,378.2
619.4914,10396.8
619.5767,18.5
619.6054,182.8
619.6107,191.5
619.6175,103.2
620.1463,183.4
620.4953,452.2
620.9005,222.4
621.0529,246.5
621.323,94.4
621.3714,106.3
621.4238,239.2
621.4435,1273.9
621.4567,1619.6
621.4864,7799.5
621.6255,477.3
621.649,103.3
621.8856,128.1
621.9541,22.8
622.3285,659.9
622.4226,327
622.4563,1403.3
622.4892,1035
622.7335,355.4
623.1365,29823.5
623.176,38.5
623.2034,120.3
623.4667,362
623.5005,886.8
623.8878,87.5
624.1249,138.9
624.1401,5909.8
624.1793,163.3
624.2804,372.6
624.4246,102.4
624.6279,313.8
624.8136,33.2
624.8742,261.8
624.9439,729.3
625.14,267.5
625.1846,454.8
625.2857,616
625.3541,99.1
625.487,227.5
625.5161,113
626.0325,301.9
626.1958,128.5
626.2773,484.9
626.2967,556.2
626.3299,105.9
626.5511,310.7
626.8025,526.9
626.9159,17.2
627.1558,313.9
627.5367,703.4
627.6807,381.6
627.7317,35.8
627.983,175.8
628.1781,693.3
628.2714,183.7
628.332,466.1
628.539,108.1
628.5919,201.9
628.6973,747.4
628.8266,379.4
628.9378,617.7
629.0421,22.3
629.1533,70892.3
629.3335,22.4
629.3658,143.3
629.3988,95.4
629.4185,369
629.4636,340
629.4903,198.6
629.8064,500.3
630.1256,185.7
630.1569,14336.3
630.4693,666.8
630.7625,613.7
630.793,91.9
630.8245,370.1
630.9391,527.4
630.9893,18.9
631.0828,682.5
631.1056,599.5
631.1317,325.3
631.1593,1669.9
631.2211,198.3
631.3002,119.9
631.8741,179.6
632.1546,365.4
632.2213,116.2
632.4386,112.7
632.4587,329.4
632.508,725.2
632.7295,19.6
632.9711,577.1
633.1651,179.6
633.3347,18.4
633.4167,272.7
633.5868,658.3
633.7638,99.8
634.0434,533.8
634.1555,874.6
634.7085,547.9
634.8433,3131.3
634.9594,436
635.0785,308.8
635.1963,652.1
635.2068,544.2
635.7028,340.6
635.821,466
636.3561,170.8
636.3684,22.4
636.4059,147.1
636.4205,826.9
636.794,488.4
636.8402,3300.7
638.2896,19.6
638.4526,1529.5
638.7595,250.9
638.8372,1642.8
639.2113,140.3
639.5408,628.6
639.8418,556.8
640.2296,114.3
641.0193,580
641.0385,619.5
641.1069,36
641.2497,710.4
642.066,21.3
642.0976,887.1
642.3461,292.8
642.4152,406.2
643.0248,121.4
643.5348,17.5
643.9737,20.2
644.118,554.9
644.1451,38.9
644.2603,90.7
644.2787,23.3
644.9493,142.1
645.1183,24305
645.3198,334.8
645.4533,359.4
645.4869,1259.9
646.072,20.8
646.1222,3206.5
646.2165,812.3
646.4483,579.8
646.4766,340.3
646.9299,1764.4
647.0941,983.8
647.1268,272.2
647.5984,117.7
648.1303,167.9
648.2206,376
648.3147,241.6
648.3861,793.6
648.4069,331.9
648.4282,150.9
648.5474,393.5
649.0474,441.5
649.1164,388
649.1631,364.5
649.2535,99.6
649.4836,165.6
649.5335,21.5
649.5937,151.4
649.7891,351.6
649.9794,449.5
650.1006,225
650.1988,175.1
650.2568,476.9
650.4407,2416.3
650.4772,99.3
650.4946,414.7
650.5515,114.4
650.7226,189.7
650.8177,1152.3
651.1352,62276.8
651.2252,368.8
651.4678,309.3
651.8171,335.9
652.0077,20.5
652.1046,23.7
652.1389,11455.8
652.247,162.8
652.3167,119.5
652.4355,145.1
652.504,110.7
652.8145,1805.9
652.9006,127.6
653.1109,661
653.1413,749.9
653.4748,421.8
654.5441,1943.2
654.5845,673.5
654.6838,149.7
654.7985,424.9
654.812,826.7
655.0047,19.1
655.1195,348.9
655.3376,250.8
655.3803,488.4
655.4089,419.3
655.6943,183.1
655.9874,807.7
656.003,152.2
656.1379,406.2
656.1964,246.7
656.3618,570.2
656.7394,214
656.7593,241.1
657.258,108.2
658.443,103.8
658.6635,332.4
658.8846,583.1
658.9184,115.1
658.9637,276.9
659.0534,265.8
659.2471,18
659.4846,147
659.561,515.8
659.6029,163.6
659.7821,289.2
659.8351,747.2
660.1445,381.3
660.3643,135.6
660.5409,35.9
660.6782,152.5
661.0832,12167.3
661.3165,203.2
661.561,260.2
661.7994,21.2
661.944,187.2
662.0435,181.6
662.0861,1007.1
662.1205,216.2
663.0325,277.2
663.0895,235.1
663.3104,318.3
663.4192,717.6
663.4555,1535.4
663.713,532.9
663.9293,776.8
664.4677,3633.1
664.9608,420.4
665.4233,320.8
665.67,563.5
665.7035,580.7
666.2351,198
666.3678,380.4
666.3985,21.6
666.4834,5883.5
666.7298,309.1
667.1,26262.9
667.3836,563.5
667.7907,436.3
667.9166,408.9
667.9364,249
668.1036,3680.9
668.7871,368.1
668.8264,339.4
669.0762,246.3
669.1056,789.1
669.4906,892.6
669.5076,612.3
669.9404,585.5
670.4112,19.2
670.427,790.9
671.0472,296.1
671.248,97.7
671.4023,307.7
671.7637,337.3
672.1042,428.9
672.1308,376
672.1708,584.9
672.287,502
672.4149,136.8
672.4449,698.9
672.4851,310.7
672.4924,309.6
672.5573,315.9
672.9163,193.5
673.1172,56803.4
673.4333,197.8
673.4668,21.2
673.6143,132.7
673.8425,23.3
674.1209,9964.2
674.1707,349.6
674.4458,648.2
674.5415,23.4
674.7716,320.5
674.8183,268
674.874,427.3
674.9114,528.5
675.0935,380.7
675.123,669
675.3088,813.4
675.4246,129.2
675.5444,12009
675.7251,46.2
676.5487,2353.1
677.007,458.1
677.5429,177.2
677.717,554.8
677.7816,507.1
678.024,269.8
678.1852,416.7
678.3986,183.2
678.5969,216
678.8398,244.6
679.0883,20
679.4471,25.6
679.7607,411.4
679.8213,98.6
680.5442,144.4
680.578,186.6
680.8218,23
680.8497,403.6
680.8967,120.1
681.0634,147.4
681.2522,18.1
681.3093,530.8
681.9881,122.5
682.0642,489.1
682.1186,894
682.4313,336.3
683.0654,4454.5
683.2712,21.4
683.7913,22
683.9086,110.6
684.0589,208.3
684.0795,190.6
684.3298,714.9
684.7304,544.1
684.7639,310.5
685.0408,306.7
685.1618,389.6
685.2363,384
685.3541,111.1
685.4362,5364.7
685.5545,206.7
685.9329,132.8
686.3225,44.4
686.4394,638.2
686.4654,112.3
686.6654,158.9
686.7815,380.8
686.8174,90.3
687.1492,666.1
687.2135,613.4
687.3229,197.3
687.3673,796.4
687.5599,407.8
687.594,445.4
687.7538,192.2
688.1233,991.5
688.3183,22.8
688.6244,278.8
689.0816,17745.3
689.0916,18349.9
689.1604,831.3
689.2317,141.3
689.5318,324.4
689.5612,2116.5
689.6883,330.4
689.9979,268.9
690.0939,2049.2
690.3914,304.9
690.5635,662.7
690.7581,718.6
690.9075,575.1
691.0324,257.2
691.0845,170.7
691.2663,467.4
691.3376,128.5
692.0011,388
692.22,99.2
692.2723,164.7
692.5366,301.3
692.6996,113.7
692.7443,376
692.8009,742.3
692.9374,100
693.1017,194.2
693.1285,106.5
693.1528,655.5
693.2842,529.7
693.6063,304.7
693.6339,203.3
693.6815,190.7
694.0378,354.3
694.777,138.2
694.7989,438.2
694.8697,152.8
695.0183,18.8
695.0991,37285.5
695.4374,98
695.4646,1509.8
695.5085,842.2
695.5654,460.9
695.8076,19.3
696.1029,5920.6
696.317,44.8
696.5559,22.5
696.6966,327.2
696.7959,358
696.8136,20.7
697.3767,107.5
697.469,672.5
697.5264,17846.2
698.2296,264.5
698.5302,4192.2
698.6408,835
699.0312,603.8
699.0495,166
699.455,98.7
699.7321,21.4
699.7498,40
700.3019,589.9
700.3284,628.6
700.8354,463
700.8983,102.5
700.9821,446.3
701.0044,98.6
701.2814,36.2
701.4101,658.6
701.5166,493.3
701.5605,32406.9
702.0884,647.1
702.3422,1301.4
702.564,10270.8
702.8792,547.6
703.0426,150.7
703.3469,937.5
703.5761,69187.6
703.6451,113.8
703.9327,153.4
704.4492,917.9
704.525,1513
704.5793,27596
704.6825,804.7
704.7155,580.4
704.7219,523.1
704.7299,480.4
704.8757,347.6
705.055,4475.6
705.2918,194.2
705.5147,284.3
705.5821,2837.5
706.1664,184.3
706.4187,240.3
706.4543,18.3
706.4727,165.2
706.5391,3583.3
706.5958,409.3
706.7811,21
707.3677,20.6
707.4029,53.1
707.4254,209.4
707.5443,183
707.5642,131.8
707.6433,17.9
707.9378,17.7
708.0024,394
708.5428,337.2
708.8024,397.8
709.5002,303.6
709.5346,104.2
709.7237,306.5
709.8854,336.6
710.1509,349.9
710.2474,256.7
710.4842,17.9
710.5687,40
710.6282,141
710.773,895.7
711.0627,11053.7
711.0745,13561.8
711.0967,335.7
711.211,512
711.494,232.1
711.5422,851.3
711.8382,170.8
712.0762,1091.5
712.2275,117.8
712.2426,876.8
712.4984,374.3
712.5162,134.1
713.0465,133.7
713.17,359
713.2361,39.2
713.3285,33.1
713.8757,18.7
714.1958,148
714.7771,38.2
715.2472,758.8
715.4085,105.9
715.5129,429.8
715.8158,22.9
715.9181,175.7
716.0136,305.3
716.241,285.1
716.3271,399.8
716.4611,170.3
716.6352,536.7
716.6655,168
717.081,18221.7
717.1512,558.7
717.2614,22.9
717.2841,179
717.5122,105.2
718.0349,20.9
718.0842,1651.2
718.5759,751.9
718.5969,199
718.7036,784.1
718.789,287.1
719.2242,22.8
719.2508,223.9
719.2694,103.1
719.3809,325.8
719.5818,477.9
719.695,115.6
719.7901,345
719.9629,343.3
720.2918,561.4
720.59,270.8
720.9408,325
721.0649,521.2
721.4788,56286.8
721.7304,235.9
722.0016,21.6
722.4823,21287.6
723.0067,264.3
723.4952,12577.2
723.5421,35087.3
723.6303,558.1
723.9147,287.4
724.0266,322.8
724.0376,348.4
724.3244,1096.2
724.3447,387
724.3771,18.1
724.4351,536.1
724.4997,1587.1
724.5461,11349.6
725.2363,106.3
725.4583,243.2
725.5578,57619
725.6782,96.6
725.8388,143.1
726.4644,123.7
726.5613,23015.1
726.8028,263.8
726.8493,20.3
726.9049,776.4
727.0283,1898.5
727.3487,111.5
727.481,238.6
727.6832,592.8
727.7631,369.1
727.8158,636.2
728.0294,231.6
728.2665,184.1
728.3304,387.3
728.5218,1623.8
728.7288,661.8
728.784,978.6
728.8664,376.5
729.2094,113.7
729.347,677.8
729.3837,613.5
729.4981,105.2
729.5919,6646.2
729.6603,357.9
730.1328,19.6
730.2369,122.9
730.3599,23.6
730.5389,9780.3
730.5932,1827.9
730.6503,99.4
730.6758,460.4
730.7548,19.4
730.8052,594.2
730.8455,178.8
731.0425,19.5
731.069,253.5
731.1466,193.1
731.2171,22.5
731.25,595.7
731.3145,311.4
731.5425,3008.5
731.5776,349.2
731.6073,3210.1
731.8075,22.5
732.4286,130.8
732.555,79440.9
732.6112,762.9
732.7986,316.8
732.8219,384.2
733.0453,6837
733.0558,7825
733.5167,349.7
733.5584,33315.4
733.5972,39.1
733.9056,20.2
734.0315,279.2
734.3078,395.8
734.3231,860.7
734.5719,6990.7
734.8523,20.3
734.9201,678.3
735.5337,94.7
735.5744,2189.8
735.6314,167.9
735.9973,19.7
736.1604,511.9
736.209,375.4
736.4115,20.9
736.4411,101.8
736.9911,827.7
737.1827,248.2
737.2242,834.2
737.4079,821.5
737.4529,12413.4
737.5075,890.3
737.7345,426.2
737.8537,626.2
738.2563,104.6
738.3817,175.4
738.4572,1077.5
738.927,122.9
738.9509,1708.4
738.971,1036.5
739.0627,10079.2
739.3495,285.9
739.5165,3868.3
739.7025,388.1
740.0667,491.4
740.3069,740.4
740.3637,560.5
740.5999,18.2
741.3332,177.7
741.5319,7025.3
741.5983,101.2
741.8043,290.2
741.9216,575.8
742.1888,135.9
742.3155,19.7
742.4944,169.2
742.5368,1221
742.5752,9897.9
742.7505,301.2
742.7724,271.8
742.8846,623.5
742.9455,506.4
743.4644,3396.1
743.5306,356.3
743.5791,1881.8
743.7844,34.6
744.035,511.4
744.5007,20.3
744.5541,3579.8
744.5916,8136.1
745.0806,179.3
745.0944,623.2
745.4787,38772.5
745.5563,1568.7
745.5951,1649.8
745.6861,185.4
745.8301,547.7
745.881,331.5
746.0363,153.1
746.0576,524.6
746.0825,269.8
746.0909,287.5
746.0975,284.5
746.3898,44.6
746.482,11412.2
746.5296,389.8
746.5709,5765.2
746.6086,1778.1
746.648,37.3
746.7371,209.5
746.9189,38.6
747.0739,273.6
747.1205,628.6
747.2043,320.4
747.3114,18.2
747.4436,653.4
747.4955,9161.8
747.574,574.5
747.6073,285.9
747.6505,20.9
748.1041,472.9
748.2639,75.6
748.4982,3028.9
748.7473,621.5
748.9003,360.8
749.0204,521
749.4087,212
749.4217,210.7
749.5108,3880.8
749.5779,22.3
749.9064,887.3
750.0117,754.7
750.2369,162.6
750.4233,119.8
750.4719,188.4
750.5035,248.6
750.7276,399.2
751.2778,176.5
751.3516,134
751.5162,99.2
751.5721,3845.4
751.8317,168.2
751.8624,813.4
751.9943,91.2
752.4022,178.5
752.5211,9250.4
752.6803,294.4
752.993,606.9
753.0459,110.3
753.1805,365.6
753.2342,178.2
753.4107,622.3
753.4451,183.2
753.4791,312.5
753.5262,1534.7
753.5734,93.9
753.5892,338.8
753.6365,540.2
753.9554,248.9
754.0189,161.2
754.3792,270.7
754.5058,107.7
754.5371,62560.8
754.7257,579.5
754.908,258.6
755.0376,3195.6
755.5406,23268.8
756.0662,596.3
756.189,119.4
756.2336,160.5
756.3283,20
756.3738,156
756.3971,19
756.5549,51801.4
756.6333,22
757.5581,21816
757.5939,353.7
757.6225,1003
757.703,267.1
757.9439,757
758.2166,468.1
758.3456,618.1
758.5706,1073046.9
758.7325,280
758.7546,211
758.8537,101.5
759.574,476930.7
759.6388,584.3
760.0927,114.5
760.5869,485807.8
760.82,19.9
761.0454,4812.4
761.2831,356.8
761.4522,4905.4
761.5899,223710.5
762.0427,334.6
762.1669,422.9
762.5928,49417.1
762.7704,541
763.1585,713.6
763.4701,343.5
763.5961,4614.8
763.8288,17.4
763.9078,20.4
764.2432,293.9
764.2751,782.9
764.3585,269.5
764.5584,887.5
764.6462,18.5
764.7481,40.3
764.7845,131.9
764.9017,443
764.9433,20.5
764.9758,786.7
765.043,92.1
765.4784,92.3
765.8037,207.9
765.879,98.1
765.9177,27.6
766.173,40.2
766.2593,218.3
766.2924,66.1
766.5352,2857.2
766.5754,30698.9
766.6558,495
766.735,280.4
766.7751,19.8
766.9107,20.5
766.9956,323.6
767.5789,11201.4
767.6696,158.2
767.7334,22.7
768.2275,328
768.2871,291.5
768.5531,5164.5
768.5915,32864.5
768.671,133.5
768.7901,524.7
768.8312,273.7
769.2385,41.3
769.4794,6144.1
769.5582,2088.5
769.5946,15468.6
769.8481,20.3
770.2546,423.1
770.4772,814.7
770.5104,8037.6
770.5689,835.3
770.6078,4179.6
770.9129,759.1
770.9928,6792.9
771.5103,2615.2
771.612,471.2
771.6786,348.7
771.7699,42.5
772.009,163.9
772.2567,502.2
772.4033,17.5
772.5617,36.5
772.5866,13057.6
772.7997,196.9
773.0928,978
773.3257,191.2
773.4464,18.7
773.4671,519.2
773.5895,2689.7
773.6531,214.2
773.7983,110.6
773.9175,140.3
774.6029,2749.3
774.9867,671.7
775.5177,777.5
775.5525,416.7
776.0511,19.7
776.1311,19.6
776.2226,115.7
776.4474,375.6
776.5207,3094.4
777.0087,4052
777.3473,18
777.5259,1301.7
777.5816,54.3
777.6093,92.9
777.6489,344
777.7792,754.2
778.0484,61.7
778.0924,511.8
778.1594,336.6
778.537,34182.3
778.6407,246.7
779.0184,300.8
779.0568,155.2
779.2456,370.1
779.4459,677.8
779.5404,14777
779.6455,21
780.145,345.6
780.4581,508.8
780.5527,635330.5
780.6425,673.3
781.0851,303.2
781.5563,286460.8
781.6182,617.5
781.7938,42.3
781.9796,19.6
782.5703,865111.9
782.6219,348.2
783.0277,4842.3
783.0587,426
783.5736,399226.5
783.7805,329.4
783.8419,19.8
783.9294,38.4
784.0063,155.8
784.5011,167.5
784.5872,306019.6
784.8014,450.8
785.3697,20.4
785.4255,661.8
785.4523,123.5
785.59,152820.2
785.6544,2887.2
785.7373,75.2
786.0429,286.4
786.0874,153.6
786.5637,165.4
786.6026,261819
786.6571,1225.8
787.0701,534.4
787.5564,986.7
787.6055,125883.7
787.6703,888.2
787.8082,329.3
788.1384,65.9
788.2196,250.9
788.4536,98
788.5248,257.8
788.5572,7884.1
788.6049,17867.5
788.6208,16196.5
788.7513,288.4
789.1513,80.4
789.3193,711
789.5606,4619.4
789.6217,8406.8
789.7787,504.8
789.8903,567.6
790.0443,570.4
790.0814,20.5
790.2074,222.2
790.2446,177.9
790.3084,100.3
790.5432,1129.2
790.5742,13287
790.6238,515.7
790.8458,428.3
790.8663,21.4
791.0351,552.8
791.1695,671.3
791.5764,5907.1
792.035,218.2
792.362,106.1
792.3991,297.8
792.5911,14655.3
792.7539,541.9
792.8373,41.7
792.9447,372.6
792.9933,19.6
793.1991,21.2
793.4595,114.1
793.5186,106.8
793.5944,3223.4
794.0474,230.4
794.2753,668.7
794.3509,21.3
794.4745,103.3
794.5115,3597.9
794.5711,1838.8
794.6072,39410.6
795.5695,1709.5
795.6105,19040
795.6765,723.2
795.7992,106.6
795.8084,107.8
795.8573,156.2
796.1387,18.3
796.2018,206.4
796.3026,518
796.3853,359.7
796.5265,109742.7
796.5864,10132.3
796.6247,3687
796.8335,125
796.8723,326.9
796.9807,192.5
797.1279,296.7
797.1845,950.9
797.3038,142.2
797.4838,500.3
797.5298,48782.2
797.5894,1868.6
797.6272,518
798.1309,296.5
798.5431,39763.6
798.6019,782.2
798.8332,777.6
798.8772,395.3
798.9996,427.8
799.0889,667.1
799.5457,18845.4
799.667,459.7
799.7433,271.8
800.0763,154.1
800.1396,273.6
800.2902,457.7
800.3132,822.8
800.397,29.3
800.4211,109.7
800.5291,279.7
800.5557,773.2
800.6724,52.1
800.7741,126.5
801.3428,169.3
801.5306,742
801.9169,503.9
801.9473,20.6
802.0427,957.5
802.5371,42797.4
802.5647,18.4
802.637,191.5
802.7909,127.7
803.1657,292.9
803.314,48.7
803.5402,16956.4
804.258,323.1
804.4527,323.6
804.4782,148.7
804.5527,370965.6
804.9371,175.8
805.1411,429.8
805.2969,22.4
805.556,174688
805.7301,265.8
805.9644,1260.4
806.3898,280.6
806.5301,543.4
806.5701,322308
806.6014,21.4
807.2292,224.3
807.3221,120.6
807.4948,131.8
807.5733,160192
807.6342,251.7
807.8446,299.7
808.5862,218005.5
808.9911,74.1
809.3208,487.5
809.5889,113976.8
809.7156,725.5
810.1538,384.7
810.3577,173.4
810.6026,156599.6
810.9493,135.2
811.5168,159.6
811.6056,78529.8
811.6697,8374.2
811.9073,568.6
812.1363,448.4
812.5316,312
812.6037,6447.7
812.6206,16756.4
812.6741,2849
812.8547,309.5
812.9329,199.1
813.0913,166.6
813.5592,721.3
813.6225,7498.2
813.686,6676.2
813.7521,26.2
814.3017,171.7
814.3667,306
814.5514,44.1
814.5808,958.3
814.6225,556.7
814.6918,1598.5
814.7763,252.5
814.8417,52
815.5519,436.6
815.5758,134.1
815.6872,50
815.7616,148.3
815.8852,601.5
815.9832,798.7
816.5893,13851.3
816.7375,338.2
816.8907,434.8
817.1454,532.3
817.2015,498.2
817.5346,38.1
817.5921,1954.5
818.5113,3666.1
818.5649,219
818.6075,2698.3
818.7409,188.1
818.8657,95.7
818.9095,120
818.9804,601.6
819.0812,611.2
819.1818,42.1
819.4324,240.2
819.5153,1041.1
819.5763,669.4
819.6002,393.1
819.8014,19.5
819.8396,174.5
819.921,187.8
820.5266,70595.6
820.558,108.3
820.5865,592.8
820.6234,441.1
820.6544,360.2
821.14,135.2
821.3186,206.8
821.5299,30482.3
821.5968,93.8
821.6257,399.2
821.9082,85.4
822.5432,24575.3
822.6394,361
822.7098,448.3
823.5465,13661.9
823.8925,123.7
824.4087,554.3
824.5584,13630.4
824.7262,417.1
824.7392,345
824.9448,885.6
825.561,4043.1
825.653,781.4
826.0246,424.5
826.2394,53.4
826.441,1176.9
826.539,1538.7
826.5818,159.8
827.9225,19.1
828.0057,192.6
828.0785,287.2
828.5528,102803.8
828.7557,364.4
828.8044,328.7
828.8592,150.6
828.8949,572
829.187,160.8
829.3688,546.2
829.556,47845.9
829.6987,1105.6
829.818,409.2
829.9001,21.9
829.9481,687.1
830.5693,57682.9
831.4988,279.1
831.5719,30466.2
831.9368,438.5
832.0539,483.8
832.585,63537.7
832.7782,513.5
832.8272,113.9
833.0656,99.2
833.588,31988.6
833.723,258.4
834.142,178.9
834.6021,29432.1
834.8639,98.3
834.9027,268.3
835.2427,328.1
835.3195,307.4
835.4515,357.3
835.6052,15425.3
835.669,928.8
835.7695,833.6
835.821,178.7
836.1001,189.6
836.2925,377
836.6191,2925.9
836.6682,163.3
836.7521,24.9
836.9827,184.2
837.5174,59.4
837.6218,1622
837.771,418.7
837.8066,86
837.9623,20.3
838.0784,507.2
838.513,884
838.5904,166.7
838.6391,425.7
839.3673,22.9
839.4343,144.7
840.123,659.8
840.3959,452.5
840.5831,564.6
840.6886,154.2
840.731,1055.3
840.7764,1617.6
840.7912,1459.3
840.9145,786.4
841.6936,96.9
842.7505,262.3
842.8928,364.9
843.304,186.3
843.5323,173.5
843.5489,158.6
843.5718,59.9
843.6655,606.9
844.0419,18.8
844.5268,16585.5
844.8222,1166.1
844.888,253.7
845.0001,308.3
845.0937,19.6
845.5021,172.3
845.5298,5279.4
845.6363,408.1
845.7568,685.2
846.5432,7816.7
846.6983,379.6
847.0369,340.5
847.3988,588.1
847.5431,1288.4
848.0635,779.3
848.3182,1045.6
848.5581,7083.6
848.9472,451
849.1625,108.5
849.1852,120.1
849.4535,296.4
849.554,1247.4
849.6676,179.2
849.8099,277.7
850.0258,315.8
850.0684,168.3
850.2604,820.1
850.8032,21.1
850.8838,19.2
851.2921,293.6
851.4068,315.7
851.697,20.6
851.7663,38
852.4834,244.7
852.9683,756.7
853.4596,93.3
853.6959,41.2
853.8411,19.1
854.0054,451.4
854.3667,354.6
854.5679,1450.6
854.7874,561
854.9201,582.2
855.2685,114.1
855.5904,18.4
855.6401,1074.3
855.7831,19.2
855.9275,396.6
855.9655,139.3
856.0033,132.4
856.0794,601.7
856.2363,24.8
856.5047,557
856.5852,4149.7
856.7079,502.1
856.7583,156
857.5875,1404.5
857.6782,201.7
858.0965,307.5
858.3722,521.4
858.4463,459.8
858.6014,229.5
858.813,905.3
858.9234,846
859.2244,52.1
859.4546,1147.4
859.877,703.6
859.946,74.5
859.9944,681.3
860.0176,44.4
860.4062,149.6
860.4942,1901.5
860.858,777.9
860.9316,856.9
861.0565,646.6
861.1335,574.4
861.1622,161.4
861.1811,796.7
861.3159,201.6
861.448,19.6
861.5131,503.2
862.3737,762.9
862.3985,534.3
862.4295,820.7
862.4613,411
862.5689,125.4
862.6421,153.2
862.7234,624.5
862.9219,351.7
862.9709,152.2
863.8924,159.1
863.9869,674.2
864.1605,1167.6
864.1862,375.7
864.2325,25.2
864.3181,120.7
864.4435,163.1
864.5082,132.4
865.4205,203
865.4435,742.7
866.2633,188.6
866.3918,412.5
866.9669,317.9
867.4094,201
867.4405,626.5
867.6678,132.4
867.8781,709
867.95,350.3
868.287,18
868.4728,20.4
868.9754,405.9
869.3146,713.6
869.5055,41.9
869.5348,39.4
869.5616,473.7
869.6693,875.5
869.7746,138.6
869.7905,126.5
869.8328,206.9
869.888,362.8
869.9265,657
869.9617,286.1
869.994,1563.1
870.0339,834
870.0647,1446.3
870.1006,1485.5
870.1616,1473.2
870.185,1749
870.2058,2682.9
870.2358,3527.2
870.2608,2858.7
870.3344,2950
870.3889,2683
870.418,598.6
870.4385,742.6
870.4838,974.7
870.5096,749.8
870.5368,614.9
870.8987,19.3
872.067,100.7
872.2284,364.9
872.2991,308.8
872.5037,479.5
873.5657,84.1
873.6592,745
873.7055,2183.5
873.8524,22.6
874.2029,417.3
874.4036,602.9
874.459,287.5
875.8547,105
875.9251,244
876.5969,19.6
876.7647,149.4
877.2668,162.8
877.4406,102.5
877.5263,183.1
877.7472,176.5
878.039,274.1
878.4946,587.9
879.1346,394.3
879.2141,99.2
879.3414,502.6
879.7519,88.8
880.1346,37.3
880.176,18.2
880.5655,17.6
880.8041,116.3
880.9148,396.1
881.0675,109.7
881.4185,160.6
881.4988,153.7
881.8292,431
882.0404,129.8
882.6223,948.5
882.7993,675.1
882.9141,21.6
883.1737,614.5
883.4362,108.7
883.4548,140
883.7186,482.1
883.884,615.3
884.2783,314.2
884.5605,672.5
884.6682,152.3
884.8172,116.3
886.0361,172.7
886.2514,801.3
886.4772,364.2
886.8992,188.4
887.0407,46.3
887.1404,233.1
887.1665,167.9
887.3797,56.4
889.1808,231.8
889.7162,806.6
889.8691,174.9
890.1436,21.7
890.3599,125.1
891.1255,824.5
891.1595,206.9
891.2421,1191
891.5358,155.4
891.5918,340.4
891.89,355.9
892.0258,631.5
892.0976,76.2
892.3109,18.6
892.5431,681.4
892.6289,558.4
892.6505,40.2
893.0447,115.6
893.1955,366.8
893.2812,682.6
894.0777,38.7
894.1088,347.9
894.5294,869.6
894.8566,291.9
895.148,20.4
895.2386,279.9
895.3242,261.2
895.6904,151.6
895.7258,290.6
895.8333,912.2
895.8992,614.7
896.3299,382.3
896.5987,182.9
896.6266,556
896.7156,18.8
897.0301,652.1
897.1747,269.6
897.2681,178
897.6847,623.8
898.0815,539
898.7916,161.8
898.9043,746.5
898.9367,321.7
899.9067,110.3
899.9387,95.3
900.0773,129
900.2618,721.4
900.545,312.4
900.6557,144
901.3584,283.1
901.5049,692.9
901.5768,743
901.6221,330.1
901.6622,924.5
902.7012,649.2
902.7574,296.4
902.9101,108.3
902.9761,607.7
903.1681,284.3
903.4196,801.1
903.4259,834.9
903.5055,19.9
903.5702,559.2
904.138,294.3
904.3032,19.6
904.415,314.4
904.4811,662.7
904.8254,22.6
905.4337,485.6
905.4793,684.8
905.6739,19.6
905.9694,122.3
906.6028,39.5
907.2984,44
907.8625,171.2
907.9794,163.7
908.4705,1464.2
908.5973,1124.6
908.8027,20.5
908.9818,284.6
908.9995,296.8
909.0266,610.5
909.1753,544.8
909.2148,150.2
909.3768,251.6
909.562,142.8
909.9384,365.4
909.9766,306.2
910.2126,142.5
910.3293,279.5
910.6426,337.7
911.0295,20.5
911.5134,337.4
911.7279,196.3
912.1077,298.1
912.5349,125
912.6725,162.2
912.919,594.5
913.616,168.6
913.7207,472.1
913.8451,424.8
914.6648,106.1
915.2511,424.6
915.5617,121.9
916.0424,117.2
916.2069,434.2
916.3135,96.2
916.8817,309
917.6653,162.3
918.2698,103.4
918.3979,999.7
918.837,300.6
919.0113,443.5
919.0683,875.4
919.3143,124
919.4529,453.5
919.832,172.8
919.8589,422.9
920.0247,397.3
920.8077,19.3
920.8642,95.9
920.8774,88.3
921.3053,144.2
921.4462,261.7
921.5404,1197.1
922.0186,378.8
922.0549,329.2
922.2067,406.4
922.483,716.9
922.874,43.3
923.3832,174.8
923.6898,731.7
923.7068,899.4
923.8771,155.1
924.6387,814.5
925.1081,491.4
925.821,131
925.9379,140
925.9849,22.1
926.1407,1179.4
926.4159,329.1
926.6624,122.3
926.9045,457.5
927.06,182.8
927.5131,104.1
927.7619,611.7
928.0264,19
928.6244,92.8
928.9249,639.2
929.0085,18.4
929.6979,94.2
930.3653,21.2
930.4431,482.5
930.5226,114.2
930.5685,135
931.2542,149.9
931.3155,521.3
932.2249,394.5
932.285,47.4
932.3869,37.9
932.5743,135.8
932.6924,203.6
932.7241,481.8
932.8491,106.7
933.0815,735.2
933.1447,506.5
933.2035,20
933.3649,586.2
933.3974,102.2
933.4297,302.4
933.5613,101.1
933.9254,1447.2
934.0446,91.6
934.0974,655.4
934.2433,160.3
934.269,121.4
934.3086,639.8
934.7561,292.2
935.2722,155.3
936.1594,20.2
936.4487,328.1
936.5007,112.4
936.5525,348.4
936.5856,485.5
936.6408,510.3
936.793,663.8
936.969,615.5
937.26,21.6
937.6937,19.8
938.3605,106.7
938.4976,531.8
939.0001,656.5
939.4517,1172.9
939.8898,136.4
940.9394,129.9
941.194,103.5
942.0243,18.9
942.172,18.6
942.2005,20.3
942.2315,283.6
942.9578,411.5
943.0022,866.3
943.0654,21.1
943.1421,537.3
943.2266,1125.5
943.6597,122.9
943.8272,243.1
944.0851,496.8
944.2341,198.3
944.3732,182
944.5069,120.9
945.254,108.4
945.7878,605.8
946.0255,183.7
946.1528,212
946.8743,19.1
947.2229,102.4
947.7994,651.7
947.925,573.7
948.0829,1125.7
948.1214,427.6
948.3721,727.1
948.4066,435.2
948.514,271.1
948.8721,1598.5
949.034,133.4
949.5845,519.7
949.7286,21.8
949.7644,243.5
949.7982,172.5
949.9859,96.8
950.1479,546.4
950.1912,305.7
950.515,411.6
950.7135,302.8
950.9805,602.7
951.0759,374.6
951.9221,291.4
952.4062,287.9
953.0298,40.2
953.3682,567.8
953.4261,495.7
953.957,344
954.1232,117
954.5469,1425.1
954.6388,699.8
955.045,258.4
955.1762,100.9
955.2659,20.3
955.3371,858.4
955.442,235
955.4933,34.6
955.7451,783.5
955.8772,85
956.3718,20.1
956.4801,41.5
956.5757,327.5
956.9612,18.3
957.0308,22.5
957.101,136.3
957.1531,848.1
957.2493,1007
957.3251,724.6
957.4242,571.9
957.6494,650.6
957.7469,796.7
958.4885,915.6
958.6031,422.3
958.6287,320.5
958.7692,20.2
958.9764,86.4
959.124,553.5
959.1819,847.4
959.3967,107.2
959.7502,658.1
959.8968,116.9
959.9803,87.1
960.0835,178.3
960.2254,582.9
960.6773,43
960.7298,396.7
960.9409,62
961.1487,853.3
961.4742,54.5
961.5969,128.1
961.9101,159.4
961.9742,345.9
962.7074,609
963.0728,310.8
963.4302,520.1
963.6216,195.9
963.7103,140.8
963.7626,150.6
964.1151,40.7
964.3133,139.9
964.3319,110.9
964.6654,507.4
965.1297,358.8
965.1702,1111.7
965.2088,1386.1
965.6122,1524
965.7193,532.1
965.8253,482.8
966.0938,1158.3
966.3773,315.2
966.4052,326.4
966.5859,325.1
967.2463,100.7
967.5056,515.8
967.6335,139.4
967.7857,134.6
967.9129,649.3
968.195,322
968.6749,342.9
968.7056,700.9
968.9259,20.3
969.055,609.5
969.1638,209.9
969.2873,828.5
969.4484,125
970.1875,114.6
970.2544,655.1
970.5238,415.7
970.8818,874.8
970.9524,407
971.0569,217.9
971.2432,703.5
971.605,249.6
971.712,424.1
971.8334,192.8
972.5091,18.8
972.7773,498.1
972.7844,497.7
973.4383,292.8
973.566,199.8
973.6177,24.2
974.5145,332
974.7175,277.2
975.0023,481.8
975.3738,771.1
975.4246,699.1
975.6706,108.4
975.7975,490.7
975.8209,666.4
975.9848,197.8
976.1735,36.7
976.4734,115.7
976.83,254.8
977.5739,337.2
977.9883,288
979.0922,20.5
979.2848,1076.1
979.4661,810.6
981.0255,408.8
981.8536,205.9
982.0568,136.5
982.1153,362.3
982.8803,316.9
983.2765,417.5
983.3117,190.3
983.7639,294.7
983.9888,848.6
984.0181,1850.5
984.4252,1347.6
984.5941,346.2
984.6842,464.1
984.7345,290.3
985.1734,21.5
985.2917,97.2
986.9203,118.4
986.9787,312.2
987.0598,598.4
987.1881,331
987.4237,310.2
987.4942,345
987.7676,124.8
987.9019,67.4
988.0408,524.4
988.1736,652.7
988.2158,111.8
988.3627,583
988.7746,834.9
988.8012,759.2
988.9315,847.3
989.2075,19.3
989.4077,107.9
989.9069,297.3
990.0894,115.1
990.4892,837.7
990.6604,377.8
990.7512,133.4
990.9562,527.2
991.1944,136.4
991.3015,115.6
991.5535,188.7
991.6842,124.7
992.8339,21.7
992.9594,154.7
993.4806,454.8
993.8049,808.5
994.1399,2123
994.2938,839.8
994.3774,723
995.1675,404
995.2039,337.2
995.3057,241.2
995.4838,621.2
995.7289,412.8
995.8014,17.8
996.0093,116.6
996.1021,374.7
996.323,558.5
996.4247,340.5
996.5232,461.9
997.0208,589.4
997.0628,1061.5
997.3714,49.1
997.6797,42.2
997.8567,100.5
998.3639,854
998.8634,300.3
999.0915,282.5
999.5778,18.4
999.7093,20.9
999.8988,184.8
