SPECTRUM - MS,
804.RAW,
FTMS + p ESI Full ms [50.00-1000.00],
Scan #: 1-40,
RT: 0.01-1.97,
AV: 40,
m/z,Intensity

50.0105,241.5
50.0141,103
50.021,20.4
50.0278,79.6
50.0304,145
50.0311,125.4
50.0372,206.6
50.0519,339.7
50.0621,653.8
50.0774,318
50.0851,97.9
50.1059,159.3
50.1667,166.4
50.1848,17.5
50.1871,309.7
50.1915,87.9
50.1962,82.6
50.1993,674.4
50.2042,16.5
50.222,94
50.2341,202.6
50.2435,497.1
50.2621,98.7
50.2757,126.5
50.2946,213.8
50.2961,559
50.2967,82.2
50.2995,682.2
50.3176,16.4
50.3318,398.2
50.335,16.5
50.3607,343.2
50.3627,118
50.3693,356.7
50.3708,501.2
50.3761,340.3
50.3788,268.9
50.4045,102.2
50.4084,109.9
50.4193,493.2
50.4208,93.8
50.43,152.7
50.4425,70.8
50.4511,21.2
50.4565,223.2
50.4627,87.6
50.48,15.1
50.4968,166.8
50.5025,184.5
50.5101,82
50.5311,619
50.5396,509.4
50.55,86.5
50.5527,83.4
50.5534,105.9
50.5784,121.1
50.5824,266
50.5895,108
50.5997,17
50.6167,434.3
50.6184,88.5
50.6192,199.5
50.628,118
50.6287,332.7
50.6298,304.6
50.6333,165.4
50.6472,401.4
50.6488,91.2
50.6775,304.6
50.6793,376.1
50.6954,269.3
50.7008,806
50.7286,94.3
50.7496,518.3
50.767,259.9
50.7755,74.1
50.7768,233.4
50.8092,84.8
50.8173,83.4
50.8239,119
50.8403,167.9
50.8503,81.4
50.8557,15.6
50.8717,282.3
50.8746,312.1
50.884,129.5
50.9001,148.9
50.9056,95.7
50.9087,411.9
50.9093,146.7
50.9146,21.1
50.9306,52.4
50.9364,283.9
50.9394,50.4
50.9483,394.8
50.9498,450.5
50.9531,72.9
50.9536,17.2
51.0016,514
51.0084,608.1
51.0191,315.2
51.0219,24.8
51.033,89.5
51.0424,19.3
51.0771,116.8
51.0817,370.7
51.0835,357.9
51.0925,442.3
51.114,19.2
51.1188,647.6
51.1218,90.4
51.1304,487.4
51.1328,165.6
51.1623,17.7
51.1652,100.9
51.1778,592.5
51.1792,45.3
51.1808,620.6
51.185,630.7
51.2048,540.6
51.2397,99.1
51.2539,102.2
51.2607,213.6
51.2895,328.3
51.3144,291.9
51.3159,115.5
51.3381,123.1
51.3583,115.6
51.3674,120.7
51.3758,241.1
51.3768,88.1
51.3872,137.4
51.4113,17
51.4408,89.5
51.465,312.7
51.4755,385.4
51.4845,495.2
51.5181,109.3
51.5245,15.4
51.5291,130.9
51.5336,327.6
51.5412,111.9
51.5553,157
51.5714,288.1
51.5849,203.8
51.5966,295.6
51.6021,123.5
51.625,150.3
51.6262,263.9
51.637,128.6
51.6555,129.9
51.6572,244.2
51.6661,97.1
51.6761,134
51.6807,113.6
51.6828,350.5
51.6945,110.2
51.7054,182.2
51.7145,121.5
51.7203,124.2
51.7218,501.6
51.722,516.1
51.753,145.2
51.7778,79.4
51.7793,136.5
51.8125,345.8
51.8247,305.3
51.8394,207
51.8482,137.2
51.8513,19.9
51.8646,16.3
51.8742,83
51.885,193.8
51.8879,50.1
51.889,168.3
51.8899,116
51.8955,113.3
51.8963,88.6
51.9161,172
51.9183,166.6
51.9295,106.6
51.9356,165.6
51.9393,226.8
51.9421,15.8
51.9532,83.1
51.9572,18.1
51.9815,121.4
51.9903,104.7
51.9959,16.1
52.0395,18.9
52.0495,235.7
52.0607,246.9
52.0645,109.8
52.0925,107.5
52.0951,494.5
52.1005,133.3
52.116,159.6
52.1181,16
52.1226,80.4
52.1244,274.3
52.1292,16.4
52.1488,352.6
52.1497,18
52.1553,40.5
52.1614,452.9
52.1621,179.6
52.176,176.8
52.1976,245.1
52.1993,15.6
52.2145,190.5
52.2166,170
52.2299,49.7
52.2316,18.4
52.2615,111.9
52.2718,120.2
52.2725,493.7
52.275,101.5
52.289,93.7
52.2907,274.1
52.3033,76.4
52.3117,158.9
52.3128,103.5
52.3173,74.9
52.3324,96.5
52.3364,512.3
52.3435,125.6
52.3485,517
52.3499,336.4
52.3511,149.4
52.3605,520.3
52.3664,273.6
52.3827,166.1
52.4016,161
52.4053,164.8
52.4073,399.9
52.4129,634.8
52.4207,145.7
52.4295,98.2
52.4339,89.3
52.448,80.7
52.4569,17.1
52.4611,111.1
52.4615,330.8
52.4707,17.3
52.479,15.8
52.4792,14.9
52.4806,286.3
52.4933,193.6
52.5085,300.9
52.5291,20.8
52.5488,169.4
52.5492,108.1
52.5557,249.1
52.5742,329.7
52.5907,449.7
52.595,115.3
52.5964,313.1
52.5983,52.6
52.6009,220
52.6287,17.8
52.633,103.1
52.6463,166.7
52.6479,716
52.6532,624.4
52.6851,17.9
52.6968,370.5
52.7108,119.3
52.7242,161.7
52.7371,240.7
52.7411,158.4
52.7449,231.6
52.752,112.2
52.7625,359.4
52.7651,91.9
52.7741,153
52.7798,139.3
52.7916,797.8
52.7922,1285
52.7926,1077.3
52.793,1470.6
52.7937,563.4
52.7939,553.6
52.7943,1285.6
52.7953,486.5
52.7964,1225.1
52.7969,2038.9
52.7973,1375.9
52.7975,1481.5
52.7981,234
52.7984,468.3
52.7988,233.4
52.8068,305.2
52.8353,297.2
52.8431,161.4
52.8658,279
52.8807,352.9
52.9071,125.8
52.9278,86.1
52.9386,127
52.9472,126.6
52.9508,90.9
52.966,109.4
52.9894,326.9
52.9965,15.9
53.021,288.6
53.0301,96.9
53.0346,93.7
53.0391,285.1
53.0504,23.2
53.0692,398.1
53.0973,202.4
53.1031,143.4
53.1059,325
53.1144,160
53.1173,98.2
53.1257,238.1
53.1317,596.8
53.1378,464.8
53.1461,191.5
53.1767,90
53.186,284.8
53.2151,144.9
53.2212,89.7
53.2381,192.4
53.2438,121.6
53.2493,286.2
53.2521,17.5
53.2552,17.6
53.2699,178.4
53.2711,772.3
53.2849,382.9
53.2896,427.7
53.3039,51.9
53.3056,128.5
53.3115,102.4
53.3155,260.8
53.3289,192.8
53.346,276.4
53.3593,232.4
53.382,115.8
53.3979,149.8
53.4092,128.4
53.424,267.7
53.4265,98.4
53.4267,97
53.4792,117
53.4841,120.2
53.5322,85.5
53.5523,106.8
53.5766,212.9
53.5928,20.2
53.607,275.3
53.6103,92.8
53.689,301.2
53.6914,19.4
53.6935,144.1
53.6984,87.8
53.759,292.1
53.7739,260.1
53.7891,95.2
53.7954,321.1
53.7957,287.2
53.797,17.2
53.8356,101.8
53.8364,15.9
53.847,199.8
53.8631,344.8
53.9066,80.8
53.9327,211.6
53.9341,188.2
53.9582,75.3
53.9587,552.1
53.9607,171.1
53.9791,310.4
54,342.7
54.0392,363.8
54.046,115.7
54.0535,190.9
54.1015,573.2
54.1112,189.8
54.1279,245.9
54.1387,242.3
54.1417,208
54.1685,406.4
54.1692,549.1
54.1824,126.1
54.184,18.8
54.1998,99
54.2108,237.9
54.2382,42.9
54.2436,671
54.2477,149
54.2541,544.7
54.2549,446.5
54.2632,336.3
54.2805,47.7
54.2959,585.5
54.2998,612.6
54.3295,105.4
54.335,337.9
54.3351,363.8
54.3396,161.6
54.3447,165.9
54.3459,126.5
54.3545,447.1
54.3805,197.4
54.3929,107
54.3967,91.2
54.4713,334.5
54.481,150
54.5075,620.6
54.5223,509.8
54.5256,128.8
54.5326,85.4
54.556,79.2
54.576,288.3
54.5864,22.8
54.6007,97.7
54.602,269.5
54.6142,79.5
54.6248,460.4
54.6306,71
54.6361,434.5
54.6468,474
54.6975,242
54.7011,547.2
54.7188,130.2
54.7215,16.4
54.7259,88.5
54.7294,166.1
54.7328,16
54.7422,16.3
54.7473,107.2
54.7537,45.7
54.7598,80.3
54.7734,19.4
54.7768,323.2
54.7807,151.3
54.8012,180.7
54.8254,586
54.8382,364.9
54.8397,44.6
54.8528,20.9
54.8548,552.8
54.8644,93.3
54.8873,304.2
54.8924,17.6
54.8955,246.5
54.9028,164.3
54.9097,19
54.9143,103.4
54.9242,170.4
54.9398,230.1
54.9423,323.3
54.959,20.2
54.9671,103.7
54.9775,93.2
54.9924,360.5
54.9973,160.2
55.0244,44.5
55.0322,116.3
55.0532,16.8
55.0549,380.8
55.0739,126.9
55.0954,102.7
55.0983,324
55.1041,469.3
55.1215,333.9
55.124,127
55.1358,156.9
55.1377,265.4
55.1447,93.5
55.1748,121.7
55.1879,103.2
55.2287,117
55.2338,166.2
55.2402,85.4
55.2478,266.5
55.2488,150.2
55.253,105.1
55.2544,278.9
55.2613,289.2
55.3087,22.4
55.3097,739.6
55.3102,440.7
55.3466,153.2
55.3501,210
55.3592,82.3
55.3761,628.6
55.3851,16.7
55.3886,18.9
55.4041,380.4
55.411,230.9
55.413,118.9
55.4329,559.1
55.4338,125.3
55.4553,140.7
55.4809,76.2
55.4872,180.2
55.5199,230.2
55.5404,308.2
55.5479,16.7
55.5496,291.6
55.5683,381.4
55.5907,45
55.5973,20.5
55.5978,23.5
55.6026,520.1
55.6314,133.5
55.6484,418.5
55.6562,45.9
55.6763,304.5
55.6923,251.7
55.6955,97.8
55.6991,48.5
55.7037,85.9
55.7143,91.2
55.7246,341.9
55.7417,337.1
55.7797,99.8
55.7843,83.7
55.7967,269.4
55.8035,489.4
55.8147,15.7
55.8179,219.8
55.8339,623.4
55.8396,350.4
55.8585,15.3
55.86,16.6
55.8792,52.6
55.8863,16.3
55.8914,320.1
55.8922,78
55.8942,389.4
55.9081,166.4
55.9186,606.2
55.9279,188.7
55.9458,458.9
55.9628,531.8
55.9819,175.3
55.9864,19.2
55.9891,401.5
55.9922,590.6
55.9969,425.7
56.0227,298.4
56.0246,248.5
56.0491,175.4
56.0525,380.5
56.0627,250.9
56.1385,113.3
56.1733,341.3
56.192,79.1
56.199,646.8
56.209,200.1
56.2259,97.8
56.2266,268
56.2386,118.1
56.254,129.2
56.2794,15.3
56.3025,15.3
56.3126,118.2
56.329,73.3
56.352,123.9
56.3569,409.1
56.3599,121.4
56.3625,20.4
56.3725,17.8
56.3754,661
56.3854,185.1
56.3912,342.7
56.4092,16.9
56.4101,18.9
56.4191,144.3
56.4457,260.7
56.4478,99.3
56.4588,352.5
56.4624,16.5
56.4702,81.2
56.4762,346.7
56.4792,92.3
56.4954,285.4
56.5199,301.7
56.5231,417.3
56.5548,299.2
56.5716,313.8
56.5836,87.9
56.5884,146
56.6106,110.9
56.6305,600.2
56.6319,16.6
56.6328,115.8
56.6459,119.7
56.6503,124.9
56.6517,126.6
56.6582,44.4
56.6714,167.6
56.6933,134.3
56.6953,148.7
56.7073,533.5
56.7435,548.1
56.7507,133.5
56.7596,128
56.7674,579.7
56.7703,148.9
56.7763,639.1
56.7965,311.6
56.8059,246.9
56.8286,131.9
56.8438,438.1
56.8643,390.4
56.8684,14.9
56.8742,112
56.8768,118.4
56.8777,331.4
56.8858,230.5
56.8957,118.8
56.9125,281
56.9195,182
56.9764,228.9
56.9855,656.1
57.0042,376.5
57.0045,350.7
57.0146,238.1
57.0232,302.4
57.0259,104.9
57.0379,53.5
57.0434,230.5
57.0492,306
57.0626,17.8
57.0776,88.1
57.0817,708
57.0842,256.9
57.0889,18.7
57.1001,535.4
57.1077,120.8
57.1088,171.5
57.1287,15.2
57.149,576.2
57.1612,247.2
57.1643,116.3
57.1654,214.8
57.1836,120.8
57.1866,293.9
57.1953,509.8
57.2198,339
57.2239,97
57.2513,442.8
57.2518,658.5
57.265,121.1
57.273,18.4
57.275,582.2
57.2932,191.5
57.3085,208.3
57.3258,588.6
57.3294,97.8
57.3572,99.1
57.3602,114.5
57.3639,591.8
57.3645,122
57.3925,292.9
57.3974,48.1
57.3992,14.4
57.4026,539.7
57.403,19.2
57.4055,654.4
57.4123,107.9
57.4183,90.1
57.4242,121.2
57.4286,245.9
57.4321,86.5
57.4459,297.9
57.4483,446.1
57.4505,118
57.493,114.6
57.5025,293.8
57.5164,322.5
57.5196,79.6
57.5289,199.5
57.5429,344.7
57.5475,87.9
57.5549,16.4
57.562,190.5
57.5629,18.1
57.5758,17.4
57.5846,251.2
57.606,78.1
57.6067,89.2
57.6092,124.4
57.6116,140.7
57.6209,221.7
57.6234,117.1
57.6319,392.7
57.6449,121.4
57.6486,165.3
57.6509,125.5
57.6782,82.2
57.6979,115.6
57.7017,85.3
57.7107,91.9
57.7117,143.6
57.7175,16.7
57.7232,282
57.7322,87.1
57.7412,81
57.7433,278.7
57.7479,15.6
57.7482,17.7
57.7508,89.7
57.7512,127.1
57.7693,398.8
57.7742,302.2
57.775,113.9
57.7763,15.9
57.7779,704.3
57.78,49.9
57.7808,128.8
57.7858,17.2
57.7893,520.2
57.7935,91.1
57.8024,88.9
57.8031,109.4
57.8249,234.7
57.8361,80.6
57.8455,382.7
57.8518,103.2
57.8672,604.6
57.8846,16.8
57.8961,304.6
57.9039,69.4
57.9113,510.6
57.9134,131.5
57.9166,50.1
57.9185,89.3
57.941,17.4
57.9541,137.1
57.9732,16.8
57.9857,175
58.0077,677.2
58.0128,50.6
58.02,551.8
58.0209,567.1
58.0288,131.1
58.0308,558.7
58.0576,293.6
58.0641,112.9
58.0662,104.1
58.0809,18.1
58.086,221.6
58.1113,472.4
58.116,177.2
58.1168,82.2
58.1174,231
58.1253,20
58.1284,678.9
58.1578,173.4
58.16,17.6
58.1682,16
58.1729,46.7
58.1733,18.2
58.1829,123.1
58.1864,232.9
58.1883,325.4
58.198,556.5
58.2087,41.9
58.2221,211.9
58.2244,220
58.2425,115.8
58.2435,94.2
58.2461,85.6
58.252,310.3
58.2538,455.6
58.3059,260.1
58.3066,231.1
58.3159,117.8
58.3288,556.4
58.3353,521.4
58.3593,15.8
58.3621,16.3
58.3729,87.2
58.3804,90.6
58.3844,764.8
58.3859,16.1
58.4107,412.5
58.4245,201.9
58.4314,200.7
58.4359,216.9
58.4613,136.7
58.4658,80.6
58.5101,134.4
58.5179,388.5
58.5198,314.4
58.5328,41.2
58.5342,413.7
58.5354,153.5
58.5402,169.6
58.5405,101.6
58.5462,669.1
58.5503,241.8
58.551,18.6
58.6024,192
58.6078,49.1
58.6209,82
58.6219,86.8
58.6382,601.4
58.6629,47.4
58.6678,96.1
58.6737,433.2
58.6742,227.4
58.6747,333.7
58.6904,135.7
58.6942,105.5
58.6976,592.4
58.7074,695.9
58.7133,213.5
58.7235,364
58.7762,109.5
58.7768,557.5
58.7821,174.7
58.7835,446.5
58.7854,198
58.8054,146.2
58.8444,412.7
58.8619,230.4
58.8922,91.4
58.8928,92.4
58.8991,153.5
58.9055,492.7
58.9064,436.5
58.9193,458.7
58.9478,589.9
58.951,16.3
58.9783,19.1
58.9833,180.6
59.0008,333.7
59.003,228.5
59.0126,453.1
59.0299,549.5
59.0317,79.6
59.0663,212
59.0701,536.1
59.0716,82.9
59.0843,485.6
59.0917,325.7
59.0957,17.6
59.1042,328.8
59.1097,356.8
59.1167,316.6
59.1255,351.7
59.1361,133.2
59.1449,895.6
59.1604,141.3
59.1826,642.9
59.2026,17.1
59.2058,350.3
59.2067,80.9
59.2135,127.8
59.2395,17.4
59.2432,177
59.2472,100
59.2601,191
59.2613,18.2
59.277,17
59.3055,188.5
59.3193,718
59.3208,45.4
59.3604,84.3
59.3619,260
59.3719,365.3
59.3854,359.6
59.4106,266.9
59.4189,108
59.4378,520.2
59.4388,274.4
59.4525,261
59.46,80.7
59.4657,107.2
59.4663,262.2
59.4919,85.1
59.4958,184.5
59.5022,599.1
59.5273,555.9
59.5304,206.5
59.5617,323
59.5695,16.6
59.5706,17.1
59.573,276.5
59.589,520.2
59.6073,447.1
59.6096,372.9
59.6176,231.9
59.6355,482.3
59.6413,483.9
59.6449,117.3
59.6532,130.8
59.654,203.6
59.6632,164.5
59.6644,220.8
59.6876,226.7
59.6944,355.4
59.7013,608.4
59.7236,530.2
59.7264,235
59.7265,245.7
59.7308,15.6
59.7564,123.4
59.7622,177.7
59.7676,328.3
59.7699,320
59.7754,99.9
59.7926,200.4
59.8057,94.6
59.8177,352
59.8226,77.3
59.829,355.9
59.8469,118.6
59.8592,83.3
59.8621,18.1
59.8668,79.8
59.8707,17
59.8802,102.1
59.8913,15.2
59.9014,226.3
59.9077,241.5
59.9085,603.2
59.9181,273.7
59.9506,84.4
59.9535,183.7
59.9761,465.4
59.9797,613.7
59.9823,536.6
59.9959,51.3
60.0027,43.4
60.0201,277.5
60.0234,77.7
60.0378,82.2
60.0403,280.2
60.0511,15.3
60.0624,126.9
60.0638,84.1
60.095,627.3
60.0988,220.4
60.117,509.3
60.1182,391.9
60.1269,194.8
60.1346,17.5
60.1408,639
60.1519,110.9
60.1545,87.5
60.1569,16.5
60.1586,112.8
60.1625,202.5
60.1656,635.1
60.1731,104.6
60.1775,210.3
60.18,346.7
60.2165,17.3
60.2249,79.9
60.2402,156.6
60.2425,165.7
60.2514,199.5
60.2679,301.9
60.2717,123.5
60.2801,249.6
60.2843,60.8
60.2852,307.6
60.2947,227.5
60.298,165.9
60.318,564.3
60.3323,130.9
60.3586,103.1
60.3671,100.5
60.3688,257.7
60.3753,215
60.3769,86.8
60.4112,413.1
60.4563,237.6
60.4626,87.8
60.478,448.2
60.4852,17
60.4894,310.2
60.5093,300.7
60.5252,111.4
60.5324,258.2
60.5353,82.9
60.5399,17.2
60.5416,155.6
60.5791,83.1
60.5857,172.8
60.5894,96.4
60.5903,185.9
60.5921,309.7
60.5928,268.6
60.6047,16.1
60.6147,90
60.6353,172.2
60.6427,86.7
60.6458,126.1
60.65,273.8
60.6722,85.3
60.6837,91.7
60.689,495.4
60.7112,198.3
60.7274,79.8
60.7318,18.6
60.7708,113.3
60.7791,153.8
60.7831,193.3
60.7869,196.3
60.8045,163.2
60.8066,672.1
60.8084,454.8
60.8121,16.5
60.8213,121.1
60.8283,133.9
60.8526,97.4
60.8605,61.1
60.865,297.8
60.8702,525.8
60.8707,104.1
60.8805,625.1
60.9104,276.6
60.9276,17
60.9865,79.9
60.9988,343.7
61.0032,206.6
61.0236,145.6
61.0241,187.9
61.0544,121.7
61.0636,17.8
61.0662,151.1
61.0849,132.1
61.089,282.5
61.1076,790.4
61.1274,245.7
61.1344,263.5
61.1445,110.2
61.1615,16.2
61.1698,110.6
61.1732,18.3
61.1892,133.1
61.1996,118.9
61.2227,164.8
61.2374,16.3
61.247,193.6
61.2525,178.9
61.266,17.7
61.2823,223.6
61.2923,698.7
61.2972,97.2
61.3044,137.2
61.3183,122.1
61.3291,474.7
61.3339,500.1
61.3575,116.3
61.3764,16.4
61.3808,345.3
61.4001,232.1
61.4117,163.4
61.4168,16.5
61.4238,247
61.462,120.9
61.4635,121.4
61.4722,47.2
61.477,120.2
61.4971,146.9
61.5026,24.8
61.5138,130.7
61.5381,130.2
61.5523,131.6
61.5568,126.7
61.5577,162.4
61.5849,233.4
61.5901,94
61.6085,18.4
61.6099,47.8
61.6311,137.7
61.6383,118.2
61.6576,86.5
61.6646,501.7
61.669,17.4
61.6915,17
61.693,80.1
61.6983,23
61.7066,321.6
61.7124,86.6
61.7356,49.2
61.744,206.1
61.7466,123.1
61.7682,90.1
61.7791,100.7
61.8068,17.1
61.8087,248.5
61.8303,686.9
61.8398,151.6
61.8434,115.9
61.8733,338.4
61.8749,182.8
61.903,114.8
61.9098,132
61.9122,148.1
61.9591,150.3
61.9853,20.5
62.0418,16.1
62.0488,290.9
62.1096,104.1
62.1251,569.7
62.1302,17
62.1321,331.5
62.1394,653
62.1434,565.2
62.1722,433.8
62.1905,18.2
62.228,484.3
62.2299,245.8
62.2359,18.3
62.2392,167.2
62.2447,104.2
62.2527,16.6
62.2672,84.9
62.2799,216.4
62.3094,130.8
62.3225,16.5
62.3279,458.8
62.3375,88.1
62.3413,71.9
62.3432,110.8
62.351,107.8
62.3613,425
62.3758,345.8
62.3767,344.4
62.3918,360.4
62.4141,341.3
62.4207,565.5
62.4413,89.6
62.4598,71.4
62.4651,337.6
62.4672,116.9
62.4688,391.5
62.4751,497.4
62.4894,619.1
62.492,355.2
62.5026,75.1
62.5123,494
62.5146,209.5
62.5156,298
62.5345,243.2
62.5354,486.7
62.5374,261.1
62.5379,185
62.5414,132.5
62.5425,121
62.5587,148.2
62.5735,470
62.5778,379.9
62.5879,314.4
62.5884,52.4
62.5969,123.8
62.6034,298.7
62.6086,118.6
62.6148,93.1
62.625,751.8
62.6266,82.3
62.6333,21.2
62.6356,332.7
62.6371,104.6
62.6389,642.1
62.6457,257.9
62.6597,172.1
62.6673,112.7
62.6732,618.7
62.681,134.9
62.6824,238
62.6856,310.2
62.6881,238.6
62.6936,222.5
62.7107,141.2
62.7138,317.3
62.7289,15.7
62.7345,583.3
62.7357,127.7
62.752,167.7
62.7723,87.5
62.7779,423.1
62.7945,135.1
62.8434,215.2
62.8458,232.9
62.8507,52.2
62.8513,111.4
62.8535,597.9
62.8555,195
62.8577,16.9
62.8641,177
62.9088,18.6
62.9154,19.7
62.9267,89.8
62.9407,91.9
62.9529,620.3
62.9566,333.2
62.9738,237.8
63.0168,133.9
63.0376,410.4
63.047,267.2
63.0562,44.6
63.0618,47.2
63.0689,90.4
63.0896,19.7
63.0917,223
63.1095,135.1
63.1167,17.8
63.124,83
63.1429,136.1
63.15,283.7
63.1898,20.6
63.1922,326.7
63.2035,639.2
63.2243,632.9
63.24,130.1
63.2451,528.8
63.247,85.7
63.2508,544
63.2536,151.9
63.2786,151.3
63.3025,296.9
63.3232,744.8
63.3349,205.3
63.3392,599.7
63.3598,215.5
63.3656,159.5
63.3737,184.2
63.3747,19.1
63.3854,17.6
63.3954,109
63.4017,16.5
63.4064,249.8
63.4216,324.3
63.4409,16.6
63.443,139.8
63.448,551.4
63.4595,419.4
63.4782,86.7
63.5191,628.8
63.5201,271.9
63.546,513.6
63.5599,225.9
63.5731,115.2
63.5907,127.8
63.5926,701.4
63.6345,549.6
63.6409,389.7
63.6869,427.3
63.7181,98.2
63.7652,518.3
63.7693,252.3
63.7722,671.4
63.7752,264.6
63.7796,382.7
63.8042,428.3
63.8106,522.2
63.8133,324.8
63.8369,125.7
63.8449,564.3
63.8472,140.4
63.8542,18.9
63.8568,17.7
63.8655,144.2
63.8747,129.9
63.8801,134.1
63.8818,45.9
63.9049,542.6
63.9426,554.3
63.9459,87.4
63.9635,22.3
63.9777,16.5
63.9953,414.9
64.0016,563.4
64.0207,190
64.0356,85.1
64.0413,97.5
64.0654,44.1
64.0759,236.6
64.081,18.5
64.0866,182.9
64.092,123.5
64.1152,111.7
64.1158,360.6
64.1229,337.8
64.1545,855.5
64.1658,19
64.1664,202.7
64.1761,161.4
64.2077,250
64.2111,17.9
64.2361,514.3
64.2476,522.3
64.2482,88.1
64.268,261.6
64.2836,589.6
64.2939,123.4
64.3,90.4
64.3059,251
64.3151,81.3
64.3185,84.2
64.3471,78.2
64.3536,538.6
64.3697,488.4
64.3711,18.2
64.3792,439.9
64.3928,149.3
64.4001,110.6
64.4169,19.5
64.4277,127.9
64.4305,123.7
64.4579,496.8
64.4713,113.2
64.5038,23
64.5148,148.4
64.5246,123
64.5293,148
64.5408,89.4
64.5536,95.5
64.5575,83.3
64.5678,395.1
64.5812,327.6
64.5835,85.5
64.5911,459.8
64.6059,17.7
64.6083,91.3
64.6183,338.9
64.6294,17.3
64.63,468.3
64.6315,132.1
64.634,424
64.6367,225.2
64.6585,492.5
64.6611,69.1
64.6961,194.8
64.7033,366.8
64.7324,118.3
64.7405,377.4
64.7522,107.2
64.7923,312.5
64.8061,140
64.8132,17.8
64.8196,467.5
64.8224,384.1
64.834,229.5
64.8506,86.4
64.8552,83.6
64.8722,89.5
64.8762,127.3
64.8821,570.5
64.8972,19
64.9034,595.7
64.91,660
64.9279,19.6
64.9348,120.6
64.9412,46
64.9447,19.6
64.9476,354.8
64.9583,157.9
64.9585,262.3
64.9766,621.4
64.9789,144.3
64.9879,330.2
64.9983,643.5
65.0393,231.2
65.0544,52
65.0593,92.1
65.0644,106.8
65.065,16.5
65.0661,49.4
65.0669,466.4
65.0773,166.1
65.0841,232.8
65.1107,116.1
65.1258,170.2
65.1354,481.2
65.1521,20.9
65.1665,343.5
65.1682,82.5
65.1824,321
65.2087,100.9
65.2237,131.8
65.2482,547
65.263,680.5
65.2643,73.8
65.2659,102.9
65.2743,221.4
65.2866,183.2
65.2879,609.2
65.2881,715.1
65.2883,651.1
65.2956,111.9
65.2972,17.9
65.2988,289.3
65.3139,140.2
65.3166,109.1
65.3231,18.1
65.3237,305.8
65.3356,602.6
65.3375,750.5
65.3377,353.2
65.3396,365.6
65.3482,163.1
65.3497,120.5
65.3577,118
65.3803,121.8
65.3823,20.1
65.4238,84
65.438,442.9
65.4439,316.1
65.4487,284.5
65.4495,95.9
65.4618,16.6
65.5062,116.8
65.5089,222.1
65.5295,471.8
65.545,568.3
65.5538,208.6
65.5616,330.9
65.5646,17
65.5751,446.7
65.5936,237.1
65.5942,120
65.6036,157.1
65.6085,383.2
65.6181,373.8
65.6357,158.2
65.638,190.6
65.6688,129.2
65.6693,18.5
65.6723,636.5
65.7013,328.3
65.718,204.5
65.7389,166
65.7547,291.5
65.7549,295.1
65.7551,185
65.7594,134.2
65.7782,219.8
65.7824,176.3
65.7959,141.6
65.7994,183.7
65.814,336.1
65.8339,87
65.8449,18.7
65.8747,126.7
65.8767,103.8
65.8863,327.7
65.898,277.4
65.9044,261.5
65.9199,388.8
65.9285,120.2
65.9502,225
65.9562,270.8
65.9701,385.4
65.977,249.4
65.9914,227.6
66.0097,196.6
66.027,609.2
66.0368,93.6
66.043,134.5
66.0489,139.9
66.0751,291.1
66.0846,668.1
66.0967,234.5
66.1163,269.7
66.1207,191.8
66.1485,350.7
66.1546,501.7
66.176,110.5
66.1964,95.2
66.2042,86
66.2124,276.3
66.2171,330.7
66.227,19.8
66.2299,129.5
66.2343,319.9
66.2542,120
66.2707,354.8
66.2799,247
66.2862,123
66.2943,155.7
66.2959,92.4
66.3371,247.1
66.3433,190.9
66.3473,16.8
66.3718,225.4
66.3808,17.4
66.3891,81.9
66.3955,94.7
66.4122,231.2
66.4171,17.8
66.4281,335.1
66.4291,176.6
66.4508,96.1
66.4637,384.3
66.4818,120.6
66.5047,389.1
66.5112,706.6
66.5165,143.6
66.5309,246.6
66.5427,184.2
66.5523,89.7
66.5545,99.5
66.5663,122.1
66.5968,258.2
66.605,605.2
66.6353,17.7
66.6405,126.3
66.6503,124.7
66.652,121.6
66.6637,247.9
66.7043,21.3
66.7169,633.6
66.726,80.4
66.7575,182.1
66.7577,190.7
66.7966,365.6
66.8029,113.2
66.8212,103.1
66.823,88.9
66.8481,215.2
66.8526,226.7
66.8641,204.8
66.8715,174.4
66.8893,541.2
66.9043,340.2
66.9296,195.7
66.9317,120.3
66.9485,253.9
66.955,154.4
67.0064,543.1
67.0311,253.5
67.0539,73.6
67.0694,436.8
67.0725,81.7
67.079,128.5
67.0875,1045.9
67.0966,175
67.1319,93.1
67.1454,88.7
67.1511,121.4
67.1729,520.9
67.1787,369.6
67.1838,322.7
67.185,208.4
67.1899,588.3
67.2025,241.2
67.2096,135.7
67.2313,473.2
67.2385,309.2
67.2544,276.7
67.2737,161.9
67.2814,212.9
67.2927,109.3
67.2945,711.9
67.2995,17.8
67.3104,17.5
67.3198,756.9
67.3301,231.9
67.3437,117.4
67.3451,16.3
67.372,264.4
67.3836,16.8
67.4143,179.6
67.4164,115.5
67.419,354.9
67.4452,180.4
67.4496,51.7
67.4571,750
67.4674,109.8
67.4758,260.6
67.4803,82.4
67.4828,47
67.4908,128.7
67.4951,229.2
67.5044,128.5
67.5148,101.6
67.5287,123.7
67.5454,463.4
67.5663,157
67.5805,17.5
67.5834,156.3
67.5937,17.1
67.6041,18.3
67.6099,162.8
67.6119,311.1
67.6121,269.6
67.6123,207
67.627,342.6
67.6767,265.7
67.7083,457
67.711,74.8
67.7115,48
67.724,95.5
67.7736,270.6
67.7776,18
67.8266,94.4
67.8294,438.9
67.8415,474.6
67.8815,765.9
67.9026,18.3
67.9096,567.2
67.9238,343.5
67.9447,174.5
67.9526,22.3
67.9672,243.9
67.9713,124.6
67.9733,143.2
67.989,499.2
68.0014,478.3
68.0224,177.1
68.0418,20.3
68.0516,209.1
68.0552,485.6
68.089,449.3
68.0908,682.8
68.099,117.1
68.106,326.8
68.131,310.1
68.143,440.9
68.1538,610.8
68.1615,234.2
68.1667,244.2
68.17,344.6
68.1724,611.2
68.18,93.8
68.2304,102.3
68.2386,527.1
68.2473,101.2
68.2625,128.6
68.2659,137.5
68.2675,316.8
68.2819,513
68.2869,109.4
68.2874,361.1
68.2966,175
68.3075,664.3
68.3164,138.7
68.319,155.9
68.3229,19.3
68.3239,16.8
68.3478,98.7
68.356,50.7
68.3666,18
68.3781,114.7
68.4014,301.7
68.4094,286.4
68.4111,95.2
68.4204,60.2
68.4473,69.4
68.456,443.9
68.4669,237.2
68.4847,249.8
68.4995,114.7
68.5055,173.3
68.5097,161.6
68.5273,175.8
68.5393,304
68.5411,127.3
68.5646,312
68.5657,113.4
68.5834,294.5
68.5905,56.7
68.6232,220.9
68.6592,103.9
68.6728,47.1
68.7108,19.3
68.7157,185.9
68.7289,566.9
68.732,359.5
68.7436,198.4
68.75,558.4
68.7542,455
68.7543,545.3
68.769,573.5
68.7858,18.8
68.7898,210.9
68.8097,290.6
68.8102,675.2
68.8334,352.1
68.864,96.4
68.8678,120.9
68.8708,125.3
68.8742,22.7
68.8893,19.7
68.8914,312.3
68.9324,303.9
68.9513,344.5
68.9609,627.5
68.9697,246.5
68.9899,231
69.003,81.8
69.008,88.3
69.012,98.7
69.0183,19.6
69.0348,88.1
69.0472,87.8
69.0682,122.1
69.0781,340.4
69.0946,333.8
69.1006,360.7
69.1304,210.5
69.1319,293
69.1397,327.5
69.1442,17.4
69.1687,177.3
69.1758,110.4
69.1767,208.7
69.1866,793.5
69.2136,396.2
69.2422,270.4
69.2722,633.9
69.2986,19.2
69.3178,84.7
69.3244,53.3
69.329,187.1
69.3345,121.3
69.3395,464.2
69.3413,608.6
69.358,57.2
69.3698,95.4
69.3764,119.2
69.377,334.7
69.3846,328.3
69.3886,84.2
69.3954,340.3
69.3991,260.5
69.4053,467.5
69.4069,309.2
69.4096,197.2
69.4119,472.5
69.4521,645.5
69.4547,99.2
69.4618,250.2
69.4793,131.2
69.4812,116.6
69.4837,454.3
69.5572,123.2
69.5605,136.7
69.5658,18.8
69.5687,445.6
69.5729,99.1
69.5981,99.7
69.6002,590.3
69.6029,227.5
69.6151,155.9
69.6187,197.7
69.6277,389.1
69.6508,121.2
69.6606,359.2
69.6655,336.6
69.6667,116
69.679,188.2
69.6887,198.3
69.6985,46.9
69.7134,15.5
69.7224,285.2
69.7267,17.4
69.7282,123.4
69.7454,105.5
69.746,340
69.7599,96.5
69.7621,286.1
69.7951,97.2
69.8079,176.3
69.8346,15.9
69.8596,179.4
69.8665,139.9
69.8822,554.7
69.8915,79.2
69.9151,647.3
69.9233,166.9
69.9573,265.9
69.9602,67.3
69.9714,148.6
69.9784,632.6
69.9836,203.2
69.9856,170.7
69.9959,86.7
70.004,310.9
70.0336,105.7
70.0361,91.2
70.0648,829.5
70.1023,118.2
70.108,104.4
70.142,399.8
70.1526,183.9
70.1579,727.1
70.1782,241.4
70.2071,417.6
70.2162,570.3
70.2215,71.3
70.2514,138.1
70.2531,202.1
70.2719,225.2
70.2752,27.6
70.3034,16.5
70.3123,574.3
70.3327,199
70.3704,277.7
70.3766,647.8
70.4003,336.1
70.4069,93.7
70.4096,250.2
70.457,630.9
70.5034,507.1
70.5179,80.1
70.5362,108.7
70.5561,368.1
70.5954,353.6
70.5967,327.2
70.6029,208.4
70.6112,129.3
70.616,136.9
70.6274,275.4
70.6545,518.6
70.6577,16.1
70.6702,579.6
70.681,86.8
70.6942,19.6
70.7047,602.7
70.7391,179.6
70.7473,459.8
70.7483,96.7
70.7547,227.8
70.7628,234.1
70.7783,174.9
70.7793,258.5
70.7834,110.8
70.822,20.7
70.8228,109.5
70.8284,100.7
70.8405,371.1
70.8696,427.4
70.8754,649.6
70.8962,256.2
70.901,141.2
70.9026,218.6
70.906,301.9
70.9768,117.4
70.9889,380.7
71.005,19.3
71.009,91.6
71.02,150.3
71.0395,322.7
71.0443,114.9
71.0594,669.6
71.0704,163.1
71.0747,237.8
71.0834,137.7
71.0923,177.5
71.0967,129.2
71.0988,118.5
71.1123,15.9
71.1396,594.6
71.1458,52.5
71.16,232.3
71.1668,171.5
71.1679,281.3
71.2318,127.2
71.2362,110.1
71.2423,345.7
71.2435,348.3
71.2442,272.4
71.251,284.9
71.2555,132.6
71.2872,91.1
71.3066,425.1
71.3188,126.7
71.3327,502.8
71.3412,334.1
71.3501,675.3
71.3983,186.3
71.4169,84.3
71.4218,125.5
71.4226,198
71.4318,17.2
71.4716,21.7
71.4866,444
71.4894,340.4
71.4969,387.9
71.5256,20.2
71.5289,127.2
71.5396,17.7
71.546,256.2
71.5795,128.4
71.5846,427.1
71.6023,17.8
71.6327,435.8
71.6333,341.9
71.6373,72.3
71.6522,208.1
71.6601,250.3
71.6631,195.5
71.6865,714.6
71.709,110.8
71.717,533.9
71.7244,187.2
71.7249,181.6
71.7517,299.6
71.7554,310
71.7908,88.8
71.8158,118.7
71.8662,391.4
71.8734,142.1
71.8779,541.5
71.9008,47.6
71.9052,167.6
71.9101,86.6
71.9228,182.6
71.9415,105.9
71.9499,671.6
71.9556,91.4
71.9666,595.8
71.9685,144
71.9701,370
71.995,234.5
71.999,113.5
72.0077,351.6
72.0084,662.3
72.0109,312.8
72.0223,112.2
72.0267,300
72.0725,691.4
72.0805,121.4
72.1039,213.2
72.1092,109.6
72.1149,375.4
72.1306,93.2
72.1482,96.2
72.1554,141.1
72.1716,258.7
72.1779,18.8
72.1831,356.6
72.1847,338.5
72.1915,291.5
72.1983,118.6
72.2168,283.5
72.2186,293.9
72.2191,808.2
72.22,383
72.2206,445.2
72.2213,26.3
72.2218,389.1
72.2245,429.8
72.2259,1622.2
72.2271,1017.2
72.2274,1293.6
72.2282,770.9
72.2293,1222.8
72.2296,1260.9
72.2303,1623.8
72.2307,2102.5
72.2312,1632.5
72.2319,2363.4
72.2323,2675.9
72.2327,3036.7
72.2335,4888
72.2345,3755.3
72.2355,2895
72.2357,2735.4
72.2363,1736
72.2372,1758.3
72.2377,1301.8
72.2381,1681.2
72.239,1536
72.2396,827
72.2405,1291.4
72.241,1155.7
72.2422,1195
72.2432,1171.4
72.2443,1202.5
72.2453,1327.9
72.2458,1087.6
72.2462,1478
72.2465,1785.7
72.2477,909.8
72.2488,550.1
72.2497,213.6
72.2506,322.5
72.2543,304.9
72.2705,128.8
72.3032,265.8
72.3204,19.8
72.3499,18.4
72.3622,493.4
72.3656,393.5
72.375,183.4
72.3811,156
72.3877,17.8
72.4104,570.4
72.419,489.6
72.4204,16.7
72.4305,224.3
72.4426,365.3
72.4458,20.9
72.4502,104.2
72.4529,667.6
72.4553,731
72.4663,19.5
72.4954,642.3
72.5009,92.7
72.512,16.6
72.516,122.9
72.529,206.5
72.5292,229.2
72.5327,17.5
72.543,118.3
72.5567,206.3
72.5748,200.9
72.5772,20
72.5945,102.9
72.6177,53
72.6201,94.7
72.6288,82.1
72.6375,16.5
72.6436,136.3
72.6768,229.7
72.6835,170.4
72.6948,279.8
72.7025,415.4
72.7201,532.3
72.7266,366
72.7301,134.4
72.7371,298.6
72.7466,271.1
72.7506,548.9
72.7652,17.2
72.7706,16.7
72.7732,127.4
72.7867,17.8
72.8081,543.9
72.8282,92.5
72.8521,176.9
72.8924,770.7
72.8945,454.4
72.8993,232.2
72.9052,92.8
72.9249,19.7
72.9275,332.3
72.9345,294.4
72.9351,446.8
72.9384,292.3
72.9751,17.4
72.9798,195.8
72.9942,234.5
73.0016,562.4
73.004,274.1
73.009,16.6
73.0247,247
73.0274,103.2
73.0317,287.8
73.0497,229.2
73.0517,156.9
73.0727,17.2
73.0996,352.9
73.1118,243.4
73.1333,357.1
73.1412,563.1
73.1421,355.3
73.1506,790.4
73.1612,479.2
73.178,356
73.19,226.9
73.2048,132.5
73.2173,22.4
73.2192,20
73.2401,533.9
73.2607,119.5
73.2768,173.9
73.2986,188.3
73.3505,370.2
73.3906,51.7
73.4065,415.3
73.4233,93.4
73.4287,584.8
73.4451,272
73.469,375.1
73.4715,574.2
73.4771,92.8
73.4825,104.5
73.4905,123.9
73.4915,356.9
73.5009,464.3
73.5634,123.9
73.6004,106.5
73.6018,20.8
73.613,84.9
73.6313,111.2
73.6335,291.5
73.6429,189.8
73.6492,469.1
73.6586,16.6
73.672,372.4
73.6882,92.2
73.6948,149.8
73.7094,106.1
73.7459,183.2
73.7738,304.4
73.7781,117.3
73.7818,153
73.8021,194
73.809,213
73.8142,676.2
73.8765,312.6
73.9145,212.6
73.9186,20.1
73.9302,392.9
73.9338,83.5
73.9382,202.7
73.9444,16.3
73.9454,621.5
73.9664,80.1
73.9756,152.6
73.9811,16.9
73.986,18.4
73.9921,97.2
74.0001,118.7
74.0186,121.3
74.031,261.7
74.0348,546.7
74.0598,4428.4
74.0809,226.5
74.099,402.8
74.102,250
74.139,132.1
74.1421,190.7
74.148,129.7
74.159,238.9
74.196,139.6
74.2301,243.9
74.2356,728.9
74.2396,515.1
74.2442,120.6
74.2472,306.2
74.2545,730.9
74.292,78.3
74.3,156.6
74.3098,168.9
74.3344,17.9
74.3361,47.1
74.3977,275.5
74.4009,76
74.4179,307.2
74.4324,72.2
74.4428,309.3
74.4485,254.8
74.4683,89.9
74.5038,18.5
74.5071,179.4
74.535,306.2
74.552,559.6
74.6071,129.6
74.6376,117.5
74.6853,481
74.707,100.7
74.7112,131.6
74.7134,163.7
74.717,116.1
74.7178,375.2
74.7262,21.4
74.7386,336.4
74.7855,76.2
74.8307,295.5
74.8373,708.5
74.8464,94.2
74.8797,140.7
74.9265,448.8
74.9395,237.4
74.9565,114.8
74.96,204.9
74.9679,145.9
74.9798,180.6
74.9956,89.8
75.0558,19.6
75.0563,569.8
75.0719,275.9
75.0757,84.8
75.0809,279
75.0848,86.7
75.1222,17.1
75.1254,82.9
75.1369,293.2
75.1768,589.3
75.1933,550.3
75.2054,563.8
75.2093,287.8
75.2095,292.2
75.2195,211.3
75.2296,561
75.2735,562
75.276,124.3
75.2829,260.8
75.2932,82.9
75.3069,490.6
75.3082,108.2
75.3134,410.7
75.3251,315.2
75.3586,297.7
75.3662,497.1
75.3732,296.8
75.3794,454.3
75.3802,196.2
75.4044,24.2
75.4556,96.5
75.4751,79.2
75.4839,16.3
75.4953,254.5
75.534,255.5
75.5784,336.7
75.5796,240.5
75.6034,476.6
75.6098,294
75.6485,330.3
75.6715,784.6
75.7004,101.9
75.7221,18
75.7398,18.2
75.7498,123.3
75.8004,122.8
75.8349,130.2
75.836,195.3
75.8612,216.3
75.8917,111.6
75.9013,267.7
75.9057,186.7
75.9846,299.6
75.9951,694.9
76.0037,427.2
76.0363,142.8
76.0531,226.5
76.1014,474.5
76.1101,424.9
76.1183,163.7
76.1334,97.6
76.1707,228.2
76.1846,127.3
76.1869,738.7
76.1898,89.9
76.2015,630.3
76.2108,717.1
76.2128,89.2
76.2178,16
76.2228,123
76.2444,460.8
76.2817,103.6
76.3089,121.8
76.3144,117.2
76.3246,111.3
76.3414,321.8
76.363,418.4
76.3732,85.9
76.4238,17.4
76.4247,506.5
76.4472,145.5
76.448,294
76.4672,128.3
76.471,146.5
76.4877,667.7
76.4899,376.9
76.5283,290.9
76.5567,612.4
76.5606,20.2
76.6197,202.6
76.6258,291
76.642,153.2
76.6494,47.7
76.6584,92
76.6627,110.4
76.6714,145.8
76.6852,113.1
76.6936,477.5
76.7535,285.4
76.758,494.6
76.7606,16.1
76.7745,666.8
76.78,112.5
76.8031,19
76.807,261.4
76.8078,317.3
76.8094,119.6
76.831,383.9
76.8436,309.8
76.8846,717.1
76.8977,350.7
76.9002,249.2
76.9287,156.3
76.9432,682.6
76.9519,438
76.9568,389.9
76.9825,121.7
76.9949,254
77.0085,137.6
77.0353,1049.1
77.0366,30.1
77.0383,118540
77.0663,17.8
77.1121,19.4
77.1178,53.5
77.1314,80.3
77.1395,16.5
77.1495,110.6
77.1733,87.4
77.1836,641.2
77.1898,612.3
77.2138,115
77.2215,87
77.2459,475.9
77.247,126.6
77.2801,89.1
77.2986,102.6
77.3164,98.7
77.3336,249.8
77.3672,345.2
77.3771,16.5
77.3855,119.3
77.3939,365.3
77.4006,319.3
77.4024,468.2
77.4033,332.2
77.4264,319.1
77.4468,423.2
77.4588,124.5
77.4831,269.4
77.4937,346.1
77.5139,48.2
77.5327,320.7
77.5357,531.8
77.539,337
77.5479,240.6
77.5757,235.5
77.5761,291.5
77.5762,298.3
77.6073,18.2
77.6192,88
77.6277,535.5
77.6329,429.7
77.6806,216.7
77.6873,97.5
77.6887,144.4
77.713,322.8
77.7274,178.3
77.7345,123.3
77.7564,601.3
77.7626,196.8
77.7708,668.6
77.7788,17.6
77.7885,112.7
77.8059,181.6
77.8238,16.6
77.8243,16.3
77.8312,86.1
77.8368,124.6
77.8598,16.7
77.8625,111.4
77.904,534.4
77.9141,501.3
77.9198,622.5
77.9217,271.2
77.9483,17.1
77.9648,16.8
77.9725,483.2
77.9785,314.3
77.9922,110
78.0191,90
78.0417,3452.7
78.0574,519.2
78.1052,171.3
78.1122,493.8
78.1154,176
78.1294,125.2
78.1318,700.7
78.1414,114.3
78.1431,323.8
78.1505,226.9
78.1815,134.9
78.234,604.4
78.2599,48.2
78.2665,84.7
78.2801,643.4
78.2886,16.3
78.3006,16.8
78.305,663.9
78.311,491.9
78.3359,227.1
78.3611,247.7
78.3655,359
78.3784,127.7
78.3849,129.1
78.3992,258.9
78.404,252.3
78.4192,89.4
78.4415,222.9
78.4508,20.3
78.4759,82.6
78.4918,88
78.5003,114.2
78.5301,118.8
78.5422,175.3
78.5528,252.4
78.574,99.3
78.5751,637.4
78.5969,100.9
78.6185,19.9
78.661,284.7
78.6723,274.5
78.7057,260.2
78.729,120.5
78.7322,224.5
78.7583,307.9
78.7662,19
78.7877,161.3
78.811,305.8
78.8536,118.1
78.855,127.4
78.8661,22.5
78.8852,120.7
78.8869,549.3
78.8974,440.5
78.9064,166.3
78.9327,250.6
78.9701,52.9
78.9726,310.7
78.995,123.7
78.9967,233.4
79.0165,150
79.054,2381
79.0573,440
79.0867,450
79.095,326.3
79.1167,119.3
79.1205,128.5
79.1242,87.5
79.1269,298.1
79.1286,588.2
79.1302,489.9
79.1318,21.1
79.1334,325.2
79.1349,93.9
79.1511,366.2
79.153,124.8
79.1618,329.9
79.1667,189.8
79.2587,105.6
79.2625,19.8
79.2864,288.8
79.287,414.3
79.2937,246.4
79.3071,332.5
79.3293,86.9
79.3667,234.3
79.3906,138.7
79.4108,90.1
79.4115,20.4
79.4315,188.7
79.4609,366.8
79.4779,105.5
79.4969,212.2
79.5099,362.5
79.5241,355.8
79.5277,188.8
79.5503,206.8
79.5604,259.3
79.5693,225.5
79.5906,122.9
79.611,258.8
79.6125,92.9
79.6571,98.6
79.691,223.3
79.7018,16.3
79.7035,334.4
79.7122,119.5
79.7345,19
79.7402,235.7
79.7538,529.5
79.7735,16.5
79.7795,153.9
79.8053,94.7
79.8072,19.2
79.8157,145.3
79.8724,92.9
79.885,405.5
79.9435,106.6
79.952,20.7
79.9631,150.7
79.9798,315.9
79.9972,421.7
80.0332,170.1
80.0618,225
80.0841,281.8
80.098,82.9
80.0997,20.5
80.1333,540
80.1396,296
80.1428,525
80.1515,302.7
80.1684,612.8
80.1911,228
80.2057,156.9
80.2123,90.1
80.216,131.3
80.2723,155.7
80.2867,157.9
80.3378,17.1
80.347,571.8
80.3475,135.8
80.3539,78.2
80.366,328.8
80.3821,718
80.3832,136.6
80.3848,260.4
80.3893,93.8
80.4203,273.4
80.4356,374.4
80.4598,111.2
80.4628,95.9
80.464,17.5
80.4756,277.1
80.5229,73.4
80.5398,18.2
80.5644,84.6
80.5725,377.7
80.5783,307.6
80.5913,19.6
80.5929,298.6
80.61,226.6
80.622,16.5
80.6486,176.5
80.6523,589.2
80.6614,91
80.6737,284.1
80.6766,17.9
80.6821,19
80.7055,372.3
80.7069,16.4
80.7087,112.3
80.7197,122.1
80.7254,87.3
80.7274,224.7
80.7292,220.7
80.7369,147.4
80.7607,95.2
80.7729,165.3
80.7752,97.2
80.7798,474.9
80.8079,331
80.8087,476.4
80.8128,192.1
80.8216,452.6
80.8343,595.8
80.84,188.3
80.8893,224.2
80.9272,444.2
80.9476,58502
81.0006,19
81.0136,200.6
81.0194,180.9
81.0208,114.1
81.0411,46.1
81.0696,1267.6
81.0797,629.6
81.0903,350.5
81.0984,93.1
81.1069,175.2
81.1117,540.6
81.1171,389.9
81.1388,49
81.1397,17.5
81.1412,764.2
81.1416,768
81.1427,328.5
81.1435,260.5
81.1443,143.3
81.1459,565.7
81.1557,260.4
81.157,17.7
81.1652,411.1
81.1674,178.6
81.1982,86.9
81.2442,58.3
81.2558,18
81.2808,239.8
81.2819,58.5
81.3153,47.2
81.3175,126.2
81.3864,117.5
81.4128,311.7
81.4409,56.7
81.4509,285.6
81.4697,232.6
81.4763,18
81.4823,324.9
81.4928,17.8
81.4995,138.2
81.5026,134.2
81.5127,129.1
81.5174,560.7
81.5538,539.5
81.5694,88.3
81.5756,408.7
81.5768,138.4
81.5784,95.7
81.6078,96.2
81.6125,43.8
81.6345,323.6
81.6396,103.5
81.6404,155.3
81.6714,176.6
81.6745,700.9
81.7241,537.8
81.7678,202.4
81.7888,451.4
81.8387,397.6
81.8448,17
81.886,256.1
81.9209,118.3
81.9247,300.7
81.9836,594.1
81.9858,141.1
82.0261,301.7
82.0534,112.2
82.09,17.4
82.0911,334.3
82.0934,166.2
82.098,667.8
82.1017,324.9
82.1064,422.8
82.1071,165
82.1096,187.5
82.1378,92.3
82.1888,111.2
82.193,454.7
82.2591,517.6
82.2739,530.6
82.2784,105.1
82.296,70.8
82.3067,195.3
82.3301,90.9
82.3314,156.6
82.3414,114.5
82.3514,324.1
82.3565,240.3
82.3575,331.6
82.3647,19.2
82.3688,311.6
82.3721,458.9
82.3973,476.3
82.4242,16.9
82.4334,199.9
82.4378,18.2
82.4803,326.4
82.4865,99.8
82.4904,894.9
82.4919,534.5
82.5433,468.7
82.5779,18.4
82.6036,298.4
82.6041,293.4
82.6113,138.5
82.6205,439.6
82.6453,310.5
82.654,187
82.6573,92.2
82.6789,172.3
82.6967,350.1
82.7471,119.7
82.7752,109.9
82.7834,87.6
82.7929,149.1
82.8015,635.2
82.8027,163.7
82.8212,310.2
82.8253,109.2
82.8618,187.3
82.8682,192.4
82.8802,172.3
82.8882,16.9
82.8931,134
82.922,176.4
82.9231,16.6
82.9355,283.6
82.9423,480.1
82.9447,17310.5
82.9481,53.5
82.9682,228.6
83.0201,258.8
83.0346,380.4
83.0563,251.6
83.0624,153.4
83.0724,117.3
83.0823,64.3
83.1483,52.1
83.1562,245
83.1621,234.4
83.1842,108.3
83.1945,90.5
83.2194,112.6
83.2306,294.7
83.2556,333.1
83.26,109.4
83.2715,243.8
83.2915,90.2
83.2947,574.3
83.3007,18.8
83.3054,366.4
83.3071,181
83.3088,97.4
83.3219,142
83.3325,548
83.3762,138.9
83.3865,160.3
83.3958,262
83.4211,16.7
83.4221,116.2
83.4661,88.4
83.4814,786.1
83.4884,167.2
83.4935,95.5
83.5359,126.3
83.5436,17.5
83.5577,303
83.569,17.4
83.5858,86.5
83.5909,234.9
83.61,271.5
83.6189,454.8
83.6578,80.2
83.6607,334.2
83.6659,616.7
83.6871,155.1
83.7209,205.5
83.7216,146
83.7301,130.1
83.7368,421.8
83.75,127.6
83.7902,111.4
83.7935,729.2
83.8066,335.3
83.8497,543.4
83.8681,191.6
83.8784,522.4
83.8857,48.7
83.8947,541.1
83.9011,16.6
83.9808,651
83.9818,534.2
83.9831,317.7
84.0052,20.2
84.0195,18.8
84.0247,21.9
84.0263,308.4
84.0511,99.1
84.0558,168.2
84.0891,18.6
84.1089,82.2
84.1841,256.2
84.1896,142.1
84.2516,453.8
84.2573,363.9
84.2695,17.8
84.3026,336.3
84.3266,228.1
84.3287,205.9
84.3409,20.3
84.3422,357.5
84.3619,111.2
84.3817,168.6
84.392,100.6
84.4062,18.9
84.477,18.7
84.4935,286.6
84.4961,81.9
84.5159,16.2
84.5298,87.8
84.5362,138.2
84.615,343.1
84.633,265.2
84.648,327.6
84.6601,104.4
84.6627,478.1
84.6858,158.7
84.688,111.3
84.7241,235.5
84.7261,649.3
84.7304,643.4
84.75,429.8
84.7711,523.4
84.7758,52.1
84.8065,107.8
84.8175,197.8
84.819,174.8
84.8223,122.3
84.8709,140
84.8934,20.9
84.9299,16.9
84.9595,19868.4
84.9607,194.1
84.9661,340.5
84.969,154.1
84.9791,20.4
85.0208,269.9
85.0282,2537.5
85.0414,118.3
85.0519,83.5
85.0556,18
85.0648,101.5
85.0747,88
85.0784,912.2
85.0794,98.6
85.1053,504
85.1416,306
85.1652,133
85.1699,595.1
85.1759,125.7
85.1774,207.3
85.1809,585.7
85.206,160
85.2235,319.6
85.234,119.3
85.2367,18.1
85.2436,184.5
85.2546,297.4
85.2623,149.1
85.2776,303.8
85.2867,20.7
85.2917,428.9
85.3158,113.1
85.3196,17.2
85.3298,96
85.3362,107.7
85.3744,19.6
85.3967,673.5
85.4034,15.6
85.4158,348.3
85.4171,19.8
85.4194,488.8
85.4207,52.9
85.4279,121.6
85.4437,173.8
85.4752,348
85.478,335.1
85.5178,295.5
85.5246,284.6
85.5465,241.9
85.5886,166.4
85.5968,260.4
85.6094,53.1
85.6112,18.3
85.6275,395.8
85.6401,103.1
85.643,530.8
85.6702,149.8
85.6736,91.2
85.7021,243.2
85.7499,104.7
85.7819,17.8
85.7916,442.2
85.8063,102.3
85.8146,145.9
85.8164,427.2
85.8317,18.6
85.849,94.8
85.9066,556.2
85.9196,532.9
85.9876,382
86.021,102.4
86.0542,735.1
86.0598,42588.4
86.0734,321.9
86.0839,243.3
86.0962,94216.5
86.0981,148.1
86.1114,707.3
86.1151,293
86.116,191.7
86.1613,392.6
86.1699,182
86.1797,323.3
86.1843,113.9
86.1914,542.2
86.2263,82.3
86.234,129
86.2387,115.8
86.2488,396.3
86.2687,340.2
86.3144,421.1
86.3871,455.1
86.4057,101.3
86.4138,20.1
86.4507,86.6
86.4813,18.3
86.5145,358.7
86.5298,17.4
86.5767,147.6
86.5811,378.5
86.6298,199
86.6536,285.6
86.6641,145.8
86.6681,407.7
86.7059,123.9
86.7843,290.2
86.7855,128.6
86.7901,18.6
86.8005,262.1
86.816,770.1
86.8206,136.7
86.869,777.3
86.8944,163.4
86.9305,17.3
86.9638,128.8
86.9821,101
87.0325,276.3
87.0379,541.7
87.0511,350.9
87.0961,170.4
87.0996,1171.9
87.1088,143.4
87.1462,106.7
87.2103,17.8
87.2172,577.6
87.2232,300.7
87.2331,87
87.2493,352.4
87.2757,343.5
87.2932,79.9
87.2984,256.7
87.3255,17.2
87.4008,262.2
87.4092,673.2
87.4136,750.8
87.4413,472.8
87.4442,230.7
87.4994,444.6
87.5019,435.9
87.5588,101
87.5627,131.2
87.5665,489.7
87.5676,16.5
87.5696,18.9
87.5742,267.8
87.6282,273.2
87.6722,580
87.6786,492.4
87.692,603.3
87.7154,500.5
87.7598,103.7
87.8001,366.5
87.8021,392.2
87.8296,20.3
87.8599,17
87.8774,237.9
87.8823,93.3
87.8896,119.4
87.8976,88.9
87.9134,473.1
87.9421,422.8
87.9874,331.6
88.0038,136.3
88.0293,502.2
88.0391,9448.4
88.0464,19.9
88.0582,282.7
88.0615,326.7
88.0763,374.8
88.0876,100.9
88.1071,49.6
88.1216,47.9
88.1533,634.9
88.162,370.8
88.1796,611.1
88.1875,75.2
88.2017,254.1
88.2078,76.1
88.2161,263.3
88.223,163.4
88.2589,20.6
88.2794,184.4
88.2892,314.4
88.3123,122.5
88.3402,80.6
88.3501,122.5
88.4253,123.3
88.441,324.5
88.4419,222.2
88.4497,124.7
88.4924,212.2
88.5253,257.9
88.54,379.7
88.5513,198.6
88.553,214.6
88.5926,129.7
88.6159,259.7
88.6558,661.7
88.6642,96.3
88.7408,133.5
88.7671,310.4
88.7677,92.9
88.8062,93
88.809,129.4
88.8092,131.1
88.8355,411.1
88.8439,228.4
88.8534,304.9
88.8772,262.2
88.8812,251.9
88.8833,237.2
88.9314,125.2
88.9323,626
88.9409,87.7
88.9424,690.8
88.984,20.4
89.0163,18.4
89.0596,20.3
89.1011,151.8
89.119,476.3
89.1296,419.5
89.1442,163.9
89.1529,420.1
89.1628,377.1
89.177,17.2
89.1827,19.1
89.1899,17.3
89.1929,120
89.2158,124.6
89.2202,118.7
89.2605,914.2
89.3013,464.3
89.3152,18.6
89.3286,549.7
89.3492,715.3
89.3537,384.1
89.3594,610.3
89.3994,102.6
89.4129,155.1
89.4308,185.7
89.4363,583.4
89.441,374.3
89.4457,577.9
89.4861,357.2
89.5105,18
89.5402,110.7
89.553,274.5
89.5625,122.6
89.5748,19.8
89.5775,130.8
89.6348,123.5
89.6488,127.2
89.6544,564.6
89.693,185.7
89.7407,254.5
89.7423,310.8
89.7476,93.3
89.7542,81.9
89.8154,564.7
89.824,322.7
89.8251,379.5
89.8665,151.6
89.8967,80.1
89.9017,310.1
89.9188,153.5
89.9343,90.4
89.9843,134
90.0171,101.7
90.1094,549.7
90.1153,375.4
90.1304,222.6
90.1356,96.1
90.1806,18.6
90.1964,175.8
90.217,25.8
90.2187,426
90.2319,102.5
90.2987,286.2
90.3076,243.2
90.3702,87.3
90.3834,391.7
90.3895,349.5
90.4144,165.9
90.43,163
90.4346,810.7
90.4375,609.7
90.4404,90.3
90.4655,347.5
90.4736,92.2
90.4884,123.3
90.5559,261.3
90.5722,387
90.5732,67.5
90.609,104.4
90.6171,303.9
90.6354,229.5
90.647,166.2
90.6554,20.2
90.6598,137.5
90.6923,344.2
90.7191,377.1
90.7251,310.9
90.7532,117.4
90.791,366.6
90.862,19.6
90.8749,332
90.8991,389.8
90.9157,24.2
90.9475,137.8
90.9673,473.2
90.9765,12057.7
90.9915,156.7
90.9928,274.3
91.0327,263.6
91.0541,3764.4
91.0564,687.4
91.0765,88
91.0788,326.4
91.1177,354.6
91.1297,168.2
91.1368,529.5
91.2009,424.8
91.2396,494.5
91.2959,80.8
91.2978,420.1
91.3451,397.4
91.3579,118.2
91.3647,264.3
91.4197,121.3
91.422,255.9
91.4915,143.9
91.4953,390.8
91.4965,184.9
91.4986,347.5
91.5012,303.4
91.5136,16.6
91.5168,224.8
91.5301,124.4
91.6052,612.6
91.6368,248.6
91.6561,114.5
91.6686,17.7
91.6788,350.2
91.6881,119.8
91.6894,380.2
91.6924,150.5
91.7037,809.8
91.7061,535.3
91.7362,631.8
91.7382,127.6
91.7458,88.8
91.7498,130.3
91.7692,253.4
91.8123,653.6
91.8163,136.8
91.8179,309.4
91.8867,522.4
91.9034,327.1
91.9368,117.2
91.9734,297.4
91.9836,93.6
92.0015,49.1
92.0053,22.1
92.0069,328
92.0272,175.9
92.0469,124.2
92.0883,92.5
92.1036,125.4
92.1184,784.6
92.186,653.8
92.1872,107.6
92.2054,17.1
92.2195,20
92.2288,18.6
92.23,363.4
92.2398,281.7
92.3009,93.3
92.3105,481.9
92.3144,105.4
92.3326,120.8
92.3354,344.2
92.3404,128.9
92.343,394.9
92.3526,20
92.3725,150
92.4167,116.5
92.431,398.1
92.4497,115.5
92.4951,300.3
92.5039,91
92.5623,84.9
92.5656,19.2
92.5827,788.1
92.62,127.3
92.6433,290.5
92.6631,738.7
92.6794,383
92.77,168.4
92.8066,352.8
92.8212,712.5
92.8332,325.5
92.8395,331.9
92.8529,186.6
92.8756,464.7
92.8769,297.4
92.8804,19
92.9264,17.3
92.9343,17.3
92.9699,196.1
92.9707,274.5
92.9943,149.2
93.0125,673.8
93.0182,331.4
93.029,145.1
93.0556,99
93.0571,20
93.0699,209.7
93.0722,179.5
93.0731,379.9
93.0784,510.9
93.0968,204.2
93.1133,452.9
93.1173,91.5
93.131,233
93.2024,201.1
93.2279,643.3
93.2704,636.6
93.292,139.8
93.2936,120.3
93.3116,401
93.3455,220.3
93.3578,91
93.378,115.4
93.3922,95.2
93.425,139.8
93.4412,459.6
93.4982,229.8
93.5102,17.6
93.5119,153.5
93.5141,385.1
93.5228,378
93.5363,110.2
93.5441,157.7
93.5679,387.9
93.6085,131.3
93.6292,526.5
93.6496,122.5
93.6521,137.3
93.6553,18.5
93.67,572.2
93.6708,54.5
93.673,121.1
93.6945,328.4
93.7178,613.7
93.7205,370.1
93.7471,94.7
93.7674,504.2
93.7704,101.9
93.7831,342.6
93.8082,120.5
93.865,544.1
93.8938,120.3
93.9456,16.7
93.9501,100.8
93.9729,127.5
93.999,19.8
94.0412,56282.3
94.0784,357
94.082,306.1
94.0829,356.9
94.0855,358.5
94.091,94.6
94.1061,101.6
94.1108,797
94.1222,221.3
94.1435,94
94.15,342.4
94.1664,229.1
94.1711,96.8
94.1727,19.6
94.2041,162.2
94.2064,18.4
94.2243,148.1
94.2719,222.2
94.2854,656
94.312,101.2
94.3525,161.5
94.3537,519.5
94.3702,136.8
94.4188,258.9
94.4496,221.8
94.507,677.8
94.5119,592.9
94.5784,346.1
94.6372,319.3
94.6423,273.8
94.646,95
94.6541,97
94.6651,335.7
94.6762,118.7
94.6826,264.9
94.6867,347.6
94.6877,207.5
94.702,98.3
94.705,94.9
94.7125,273.6
94.7278,19.1
94.7388,785.4
94.7737,115.2
94.7761,239.1
94.7847,106.1
94.7949,373.7
94.7985,155.2
94.8364,194.3
94.9319,445.6
94.934,539.2
94.9761,115.8
94.9791,202
94.9955,371
95.0088,109.7
95.0355,27.2
95.0433,185.7
95.0445,1117.1
95.047,100.4
95.0476,289.1
95.049,430062.8
95.0501,774.9
95.0506,190.7
95.0513,56.1
95.0517,55.4
95.0523,29.4
95.0624,49.2
95.081,360.9
95.0854,773.3
95.0877,256.7
95.0892,22.9
95.1142,344
95.1171,143.1
95.1259,815.1
95.1425,100.9
95.1474,98.8
95.1572,89.6
95.228,19.6
95.2902,149.8
95.3564,502
95.3673,295.6
95.3819,545.7
95.3891,478
95.4088,312.4
95.412,608.4
95.4223,17.8
95.4273,713.7
95.4327,101.5
95.4335,108.8
95.5123,662.5
95.5478,366
95.5601,88.6
95.5892,309.2
95.6657,391.5
95.7256,232.7
95.7408,18
95.7627,377.3
95.7746,151.1
95.7841,136.3
95.8308,187.2
95.8394,77.6
95.8497,17.5
95.8891,734.9
95.9439,102.5
95.9472,274.5
95.9859,97.1
95.9929,122.8
95.9986,131.9
96.004,202
96.0523,22533.4
96.0586,486.9
96.1979,252.8
96.2173,169.1
96.2224,491.8
96.2245,85.8
96.2539,133
96.2651,316
96.3035,363.8
96.3098,349.1
96.3415,91.3
96.3717,420.7
96.4302,608.8
96.4578,144.6
96.4601,135.5
96.4614,410.2
96.4652,128.5
96.4672,332.1
96.4711,369.7
96.4827,17.9
96.5136,265.3
96.557,16.9
96.6077,80.7
96.6474,325.4
96.733,481.8
96.7822,302.7
96.7933,18.8
96.8337,16.8
96.8577,504.6
96.8587,113.5
96.8677,82.9
96.9042,491.1
96.9142,186.7
96.9216,164030.2
96.931,460.6
96.9513,467.2
96.9516,486
96.9519,219.7
96.9935,101.9
97.0074,196.6
97.0107,129.4
97.035,577.6
97.0532,97.5
97.0556,44.8
97.0731,734.7
97.1,346.7
97.1011,52.1
97.1269,177.3
97.1369,178.4
97.1729,113.2
97.1772,327.3
97.2034,421.5
97.2043,149.9
97.2102,17.6
97.2518,560.5
97.2766,20
97.2824,21.6
97.3016,470.4
97.3592,578.8
97.4078,430.5
97.4479,347
97.4483,379.2
97.4691,143.3
97.4758,134.6
97.494,107.2
97.5151,549.6
97.527,102.2
97.5287,592.4
97.5372,16.6
97.5499,20.3
97.5595,312.9
97.5662,17.6
97.5747,86
97.5803,596.6
97.5904,140.1
97.5939,127.4
97.6068,127.7
97.62,18
97.6274,498.1
97.6285,437.4
97.6306,92.1
97.6329,86.2
97.6786,508.5
97.6795,653.8
97.6833,113
97.7046,196.5
97.7094,808.1
97.7159,325.1
97.7196,190.3
97.7274,389.9
97.7319,631.1
97.7708,543.3
97.7749,350.5
97.8209,383.6
97.8393,18.7
97.8861,91.2
97.9108,525.7
97.989,177
98.0035,249.3
98.0248,46.5
98.0937,135.1
98.0973,144.1
98.0984,244.7
98.1007,17.4
98.1454,119.7
98.1668,402.7
98.1685,211.7
98.1976,350.7
98.2407,346.7
98.2431,18.1
98.2443,334.6
98.27,16.6
98.2728,97.1
98.293,17.5
98.2968,250.7
98.3144,248.8
98.3256,97.8
98.346,396.1
98.3643,347.2
98.3738,452.3
98.3974,633.7
98.4019,217.7
98.4533,549.1
98.4587,95.1
98.5029,289.3
98.5056,158.3
98.5188,559.7
98.5614,354.8
98.5846,268.9
98.6022,836.3
98.6333,135.4
98.6376,19.8
98.6625,19.3
98.6805,375.6
98.6928,302.3
98.7172,320.2
98.737,95.6
98.7531,154.8
98.7924,309.1
98.8115,352
98.8362,140.3
98.8495,19.2
98.8522,406.7
98.8904,110.9
98.9137,255.9
98.9159,17.5
98.9175,764
98.9187,47262.6
98.9197,6694.6
98.9323,121.5
98.9752,14154.8
98.9818,18.4
98.9826,182.8
98.9839,61.1
98.9942,103.1
98.9954,20.2
99.0085,242.6
99.0227,237.4
99.0263,165.6
99.0911,48.4
99.092,421.3
99.0962,44.2
99.1292,186.2
99.1307,284.8
99.1812,605.8
99.2553,574.1
99.2959,229.6
99.3202,218.5
99.3205,227.8
99.321,151.4
99.4432,350.7
99.4556,322.5
99.4968,19.9
99.522,298.5
99.534,20.7
99.5367,321.8
99.558,324.2
99.5617,113.9
99.5717,240.7
99.5765,343.9
99.5818,200.5
99.5921,87.9
99.6077,114.1
99.6086,17.1
99.6183,476.9
99.6596,450.3
99.6746,236.8
99.7178,21.5
99.7473,122.1
99.7521,362.4
99.7644,1165.6
99.8218,98.6
99.863,319.4
99.8833,122.1
99.9139,211.7
99.957,178.1
99.9621,640
99.9842,77.2
99.9993,105.3
100.0393,16.4
100.0754,20.9
100.0878,130.9
100.0984,285.7
100.1184,284.6
100.1268,101.7
100.1584,345.2
100.2558,129.6
100.2623,704
100.2646,118.9
100.2759,373.6
100.283,817.2
100.2857,126.5
100.3148,35.9
100.3292,78.4
100.381,682.7
100.3902,115
100.4069,21.7
100.4289,205.2
100.4359,20.2
100.4468,497.1
100.5069,493.8
100.5179,154.3
100.5334,780.1
100.5381,106.4
100.5486,368.3
100.5812,258.9
100.6469,154.2
100.6749,115.3
100.6917,16.9
100.706,297.6
100.7388,665
100.7563,686.5
100.7641,398.1
100.7789,177.6
100.7849,53.7
100.8032,448.7
100.8063,132.7
100.8186,102.4
100.8248,140.4
100.8349,90.3
100.8391,268.9
100.8451,650.9
100.8875,293.7
100.8984,274.3
100.9081,263.9
100.9147,266.6
100.9169,864.5
100.9468,212.3
100.9939,249.5
101.008,593.8
101.0283,335.7
101.034,18.7
101.047,2664.8
101.0628,178.5
101.0707,1143.4
101.0982,430.7
101.1001,83.7
101.1272,635.2
101.1557,178.6
101.1642,125.4
101.1674,185.2
101.2049,154
101.2692,94.9
101.3015,96.9
101.3107,365.9
101.3131,596.6
101.3696,325.6
101.3982,106.1
101.4067,304.4
101.4218,295.6
101.4741,540
101.4797,165.6
101.4863,186.1
101.4934,131
101.501,525.6
101.5102,379.6
101.519,373.4
101.6002,236
101.6797,639.4
101.7141,319.9
101.7424,248.5
101.7588,213.4
101.7894,17
101.8069,280.4
101.8299,377.1
101.8448,532.1
101.8583,19
101.8795,154.6
101.8849,277.5
101.8928,18.5
101.9438,19.1
101.961,523.5
101.9836,332.4
101.9877,126.1
101.9953,126.2
102.0289,452.9
102.0386,122
102.0548,5302.3
102.0877,273
102.0972,118.2
102.099,547.9
102.1111,85.6
102.1804,100.7
102.2142,47.1
102.2296,20.6
102.2634,19.3
102.282,445.6
102.2968,144.5
102.3019,24.9
102.3766,106.8
102.3811,712.9
102.396,92.5
102.4151,257.7
102.4199,537.8
102.4312,283.8
102.4486,146
102.456,503.3
102.4603,111.3
102.4614,76.1
102.4925,152.6
102.5483,105.7
102.5554,123.6
102.5619,214.8
102.5726,668.8
102.5814,543.3
102.5907,333.5
102.595,50.3
102.5997,246.9
102.6745,101.9
102.7461,692.4
102.8195,117.6
102.8394,57.7
102.8511,370.1
102.9262,107.4
102.9701,556
102.9955,337.1
103.0188,704.2
103.0351,18.2
103.0397,85.2
103.0628,318.5
103.084,630.8
103.1023,338.2
103.1085,318.6
103.1193,104.9
103.1209,687.1
103.1617,218.1
103.1701,310.3
103.1717,47.8
103.1873,98.3
103.2053,132.5
103.2064,319.6
103.2084,672
103.2607,396.3
103.2638,485.8
103.2987,579.6
103.3042,154.1
103.3488,343.3
103.3895,223.9
103.4027,20.4
103.4057,221.2
103.4587,478.7
103.4902,187.7
103.5279,103.3
103.5367,18
103.5894,119.3
103.601,196.1
103.6369,561.6
103.6697,111.5
103.7354,258.4
103.7495,66.4
103.7762,606.9
103.8343,632.5
103.8408,288.3
103.8661,385.1
103.8845,355
103.9222,95.3
103.9266,295.1
103.9291,129
103.93,235.6
103.9575,18.9
103.9794,17.3
103.9871,116.7
103.9887,448.3
103.997,134.5
104.0187,19.4
104.0218,847.7
104.0831,87.5
104.0928,181.2
104.1022,668.3
104.1069,375990.2
104.126,630.6
104.1419,167.5
104.2249,202
104.2326,105.4
104.2414,47.1
104.2496,139.7
104.2515,16.5
104.2634,653.9
104.264,714.5
104.2642,708
104.2741,343.9
104.3102,20.6
104.3262,74.1
104.3466,176.2
104.3499,488.2
104.356,690.7
104.3726,630
104.378,228.5
104.4,16.6
104.4029,127.6
104.4071,115.6
104.4144,45.9
104.4155,87.6
104.4396,19.9
104.4529,19
104.4679,96.8
104.4921,174.6
104.5137,781.9
104.5243,573.1
104.5406,340.4
104.5492,505.5
104.5498,487.2
104.5685,312.1
104.5862,85.2
104.6423,268
104.6453,92.6
104.6641,799.5
104.6773,120.9
104.7055,322.4
104.7066,121.3
104.7113,136.1
104.7296,625
104.7322,119.9
104.7386,447.3
104.7846,108.7
104.8051,15.7
104.898,364.4
104.9632,183.1
104.9819,15.9
104.9921,1560.6
105.0022,228.1
105.0244,130.3
105.0339,18.7
105.0396,406.5
105.0446,37618.7
105.0509,628.5
105.0541,128.3
105.0699,20.7
105.0864,110.2
105.1102,14138.1
105.1535,129.7
105.1601,472.8
105.1634,127.9
105.1866,684.9
105.1939,122.2
105.2139,85.4
105.2713,156.6
105.2748,307.4
105.302,584.3
105.3152,581.8
105.3593,400.8
105.3861,162.8
105.3929,80.3
105.4066,132.2
105.4513,383.5
105.4605,273.5
105.4811,81.7
105.4843,128.1
105.4932,139.2
105.4966,247.4
105.5054,17.2
105.556,143.4
105.5697,431.3
105.5924,91.4
105.6081,472.8
105.6223,192.9
105.6326,85.8
105.6832,577.8
105.7151,18.5
105.7208,149.6
105.7846,251.3
105.8063,387.4
105.8092,357.2
105.8185,309.7
105.8245,547.6
105.8303,133.1
105.8326,312.5
105.8451,580.1
105.8586,17.7
105.8805,731
105.8823,269.5
105.9242,237.9
105.961,171.7
105.9739,44.5
106.0027,114
106.0141,77.2
106.0421,22.7
106.045,210.6
106.048,729.9
106.0865,300.7
106.1112,233.9
106.152,162
106.1629,18.4
106.1922,241.4
106.2019,620.5
106.2392,393.1
106.2945,103.4
106.3392,45.2
106.3886,145.6
106.4103,108.6
106.4188,82.3
106.4351,139
106.4781,142.2
106.4856,193.3
106.5011,137.9
106.5107,20.1
106.525,290.9
106.5307,472.6
106.5321,136
106.5527,223.1
106.5896,134.7
106.6194,122.1
106.6379,411.3
106.7273,17.9
106.74,119.8
106.7609,318.6
106.7677,681.1
106.7907,174.1
106.8203,666.8
106.8411,138.7
106.8632,20.6
106.8944,143.3
106.8997,131
106.9296,197.4
106.936,17.3
106.9464,353.8
106.9505,4336.5
106.9695,671.8
106.9812,124.5
106.9844,518.5
106.9919,73.9
107.0245,365.4
107.0282,86.3
107.0453,321
107.049,640.5
107.0669,107.1
107.0806,489.9
107.0855,159.9
107.0986,126.5
107.1125,86.1
107.1456,125.4
107.1627,16.7
107.1861,91.9
107.2307,238.6
107.2355,183
107.2416,634.7
107.255,99.4
107.3292,179.7
107.3884,647.1
107.4024,622.1
107.4827,623
107.4931,294.7
107.5016,254.7
107.5083,158.4
107.5137,81.2
107.5209,192.6
107.5498,348.7
107.5559,90
107.5846,127.1
107.5863,160
107.5939,295
107.5969,650.2
107.6015,22
107.612,309.2
107.6958,158.6
107.724,512
107.7318,132.5
107.811,98.2
107.8439,249.1
107.8993,664.2
107.9353,166.6
107.9457,390.9
107.9685,114.2
107.9733,273.5
108.0348,98.1
108.0541,137
108.0568,20.9
108.0673,19.1
108.0793,512.4
108.1152,92.9
108.1347,111.5
108.1444,323
108.1475,76.9
108.1555,113.7
108.1801,364.9
108.2025,771.3
108.2034,838.6
108.2316,209.8
108.252,644.2
108.2939,107.2
108.3001,469.2
108.3066,155.6
108.3367,17.7
108.3661,494.4
108.3832,483.6
108.4239,539.3
108.429,214.4
108.4303,397.1
108.4462,133
108.4507,17.6
108.4591,295.5
108.4738,93.7
108.4838,16.8
108.493,79.4
108.6111,299.3
108.62,100.8
108.656,99.7
108.6607,440.3
108.6687,18
108.75,21.3
108.7679,579.8
108.888,239.5
108.9917,91.3
109.0106,16.8
109.0201,309.9
109.0459,17.9
109.0647,61552
109.0667,23.9
109.0742,783.9
109.1012,65.9
109.1044,98.4
109.1474,16.4
109.1686,82.9
109.1949,108.2
109.2031,504.1
109.2096,479.9
109.2348,656.9
109.2387,86
109.2397,85.8
109.3169,123.9
109.3572,290.7
109.3797,18.8
109.3974,48
109.3999,497.8
109.4226,339.7
109.4417,312.6
109.4524,372.2
109.4911,16.7
109.5008,23.8
109.5087,244.3
109.5405,333.6
109.5865,469.8
109.6302,457.3
109.6732,161.5
109.6935,598.2
109.6976,607.5
109.7191,119.2
109.7291,466.3
109.7829,89.1
109.8131,93.6
109.825,170.5
109.8315,331.5
109.8574,665.7
109.9083,150
109.9354,515.2
109.9432,18.4
109.953,174.7
109.9727,91.9
109.9888,48.7
110.0533,258.6
110.0562,644.9
110.068,2147.8
110.0874,90
110.1095,169.4
110.151,128
110.1898,97.9
110.2125,288.4
110.2391,21.6
110.2518,130.2
110.2759,373.3
110.3097,335.8
110.3158,339.6
110.3173,457.9
110.3244,619
110.3572,255.9
110.3711,89.7
110.3842,77.8
110.3991,666.7
110.4234,98.7
110.4534,132.3
110.4559,613.6
110.4569,352
110.5018,651.4
110.5234,18.6
110.5285,92.5
110.5865,24.3
110.6273,49.2
110.6284,254.8
110.6654,209.4
110.6952,89.3
110.6967,95.7
110.7042,321.6
110.7101,263
110.7129,255.8
110.7229,490.1
110.734,179.3
110.74,21.3
110.7693,472.8
110.7756,494.8
110.8172,90.2
110.8395,165.6
110.8817,143
110.8842,454.6
110.8922,17.8
110.9238,437.7
110.9615,81.4
110.9657,110.9
111.0001,430.7
111.0164,17.7
111.0232,383.1
111.0317,81
111.0405,171.3
111.0439,467.1
111.0481,533.9
111.0886,268.2
111.1455,265.3
111.1614,288.5
111.173,101.1
111.1772,102.9
111.2242,286.9
111.2515,230
111.2571,681.9
111.2694,84.2
111.337,136.9
111.3477,346
111.3627,457
111.3655,96.9
111.5,404.1
111.5084,239.2
111.5318,695.3
111.5569,342.4
111.5997,157.3
111.6166,19
111.6232,593.7
111.6315,75.5
111.7231,527.1
111.78,45.2
111.9064,76.9
111.9372,274.5
111.954,625.5
111.9811,265.6
112.0047,134.2
112.0062,480.8
112.0167,96.5
112.0243,19
112.0455,87.5
112.0698,209.5
112.084,20.1
112.1,444.6
112.1215,219.9
112.1231,19.4
112.143,199.6
112.1829,342.1
112.2468,704.1
112.2601,501.3
112.2653,20.3
112.2736,17.4
112.3222,127.7
112.3762,156.2
112.3934,130.1
112.4045,16.1
112.4073,18.6
112.5418,393.6
112.5726,206
112.5825,17.4
112.5915,308.1
112.592,317.7
112.5927,118.4
112.6007,88.1
112.6136,639.9
112.6197,48.2
112.6263,679.9
112.671,393.3
112.6808,221.9
112.6983,472.7
112.727,339.6
112.7588,631.1
112.7642,308.2
112.7817,304
112.7858,125.9
112.7948,20
112.7997,236
112.802,444
112.8328,18.1
112.8478,148.5
112.857,180.3
112.8956,451157.5
112.9066,105.5
112.9123,432.8
112.9858,344.4
113.0374,207.9
113.0502,675.6
113.0703,20.1
113.1221,119.3
113.1658,389.1
113.1674,433.8
113.1987,17.7
113.2043,128.6
113.2134,238
113.2399,262
113.2519,179
113.2663,254.9
113.3367,21.9
113.3533,391.9
113.3565,269
113.4273,88.3
113.4394,87.3
113.4425,115.6
113.4487,101.7
113.4512,120.8
113.5472,17.7
113.5567,668
113.5697,459.1
113.5941,97.2
113.6124,318.8
113.6252,274.6
113.635,653.2
113.6449,248.3
113.6489,399.5
113.6849,55.1
113.6983,253.2
113.7057,767.8
113.7212,108.8
113.7387,98.8
113.7587,91.1
113.8179,98.3
113.8402,63.8
113.8759,98.4
113.9427,558.3
113.9879,86.1
113.9962,88.2
114.025,18.9
114.0479,87.5
114.0549,58262.5
114.0753,202.3
114.0912,34.7
114.1082,73.4
114.1224,116.1
114.1281,18.2
114.2133,443.9
114.2318,268.2
114.2347,261.2
114.2893,246
114.3114,651.5
114.336,18.6
114.3629,329.5
114.3733,226.5
114.3804,397.4
114.3944,517.2
114.4163,339
114.4343,78
114.4388,292.7
114.4495,721.3
114.4633,378.9
114.5065,121.4
114.5097,319.8
114.5291,643.6
114.5566,267.7
114.5596,501.6
114.5965,322.6
114.63,15.2
114.6832,19
114.6882,326.5
114.7614,644.5
114.7668,252
114.7698,740
114.7723,523.9
114.7995,124.2
114.802,300.7
114.8078,267.9
114.825,88.4
114.8371,637.7
114.8519,87
114.8927,141087.6
114.9282,542.1
114.9713,116.7
114.9919,185.2
115.0582,843.4
115.0801,153.5
115.0864,788
115.0934,222.8
115.1197,84.9
115.1302,558
115.133,369.8
115.1958,123.9
115.29,82.5
115.2956,96.6
115.3519,128
115.3673,295
115.4926,250.2
115.6087,134.8
115.6258,16.7
115.6324,244.3
115.7181,206.3
115.777,344.5
115.7793,88
115.8631,268.6
115.9096,17.8
115.9524,44.3
115.9793,28.9
116.0156,204.6
116.0507,358.9
116.0661,85.2
116.0705,2552.6
116.0762,124.8
116.1015,212.1
116.2207,326.3
116.2574,804.4
116.2653,364
116.2945,118.9
116.3315,110.7
116.3566,243.4
116.4884,117.4
116.5266,17.3
116.5396,173.6
116.5422,85.6
116.562,449.2
116.5961,15.7
116.6028,364.9
116.6096,164.3
116.6168,125.8
116.6847,591.5
116.6885,456.4
116.6917,370.1
116.7105,477.3
116.7217,121.4
116.7722,173.9
116.8333,123.8
116.8431,407
116.8671,286.2
116.8718,769.5
116.8908,17095.3
116.9173,93.9
116.9361,16.8
116.9462,660
116.9858,855.1
116.9907,346.8
116.9934,136.1
117.0094,423.6
117.0449,267.1
117.0548,88.3
117.0706,110.7
117.0814,319
117.1754,253
117.1935,130.9
117.2335,128.8
117.2727,19
117.2786,420.2
117.2814,86.9
117.2897,384.5
117.3093,142.4
117.3138,544.2
117.3178,385.1
117.3256,16.6
117.3531,323.5
117.3603,490.5
117.3773,394.8
117.3901,312.5
117.465,570.8
117.4672,124.4
117.4794,98.9
117.4887,88.9
117.5505,452.6
117.5873,18.9
117.6124,353.4
117.6801,521.3
117.7179,143.8
117.7284,1135.2
117.897,17.8
117.9214,106.1
117.9318,113.1
117.9521,227.5
117.9657,348.5
118.0198,542.1
118.0457,21.4
118.0669,331.6
118.0732,211.5
118.1395,709.8
118.1548,481
118.1695,401
118.186,350.9
118.2049,263.2
118.2827,116.4
118.3102,179.2
118.3321,94.7
118.3475,260.5
118.3763,606.8
118.3878,87.7
118.4056,314.1
118.4102,101.1
118.4183,241.5
118.4569,49.5
118.4849,121.3
118.5339,490.9
118.5432,20.2
118.5591,88
118.5745,161.6
118.5779,707.1
118.584,360.5
118.63,89.2
118.6799,86.2
118.7229,526
118.7263,19.3
118.7521,269.8
118.7698,486.2
118.7813,631
118.8148,107.4
118.8713,123
118.8917,602.6
118.9137,114.6
118.9326,87.8
118.9704,709.1
118.9743,21.5
119.0083,216.8
119.0171,85.2
119.0911,321.1
119.0925,129
119.119,129.4
119.1444,140
119.1804,106.7
119.2295,580
119.253,143.2
119.2587,642.3
119.264,106.3
119.2996,85.1
119.3155,113.7
119.3249,409.3
119.3593,758.9
119.3849,121.7
119.3909,463.5
119.4132,308
119.4648,607.4
119.4773,199.3
119.4851,310.6
119.4877,195.3
119.4901,297.6
119.5096,225.1
119.5173,20.8
119.5926,297.6
119.625,315.8
119.6564,577.1
119.6601,91.9
119.6858,663.6
119.7447,194.7
119.7591,534.7
119.7762,80.6
119.7874,130
119.8342,212.1
119.8866,324.1
119.9111,51.6
119.9237,191.7
120.0031,5784.1
120.0106,1009.3
120.0807,15947.4
120.0863,358.5
120.0958,17.7
120.1411,563.8
120.1575,122
120.2655,101.1
120.2726,186.9
120.2926,93.9
120.3048,413.2
120.3758,17.2
120.4992,295.6
120.519,516.4
120.5741,305.8
120.6258,270.4
120.6291,669.3
120.6621,207.7
120.7191,80.8
120.7302,194.8
120.7393,308.1
120.7576,133.4
120.7848,245.6
120.8573,85.6
120.8797,18.3
120.8877,441.1
120.8995,364.1
120.9049,246.5
120.9268,532
120.9289,538.2
120.9318,257.7
120.9332,171.3
120.9479,112.4
120.9661,534.1
120.976,298.9
120.9807,93.9
121.0076,368.5
121.0163,144.7
121.0211,625.7
121.0284,514.4
121.0396,113.5
121.0586,117.6
121.1011,37.3
121.1099,615.8
121.1701,16
121.1759,117.6
121.2585,147.9
121.3442,309.4
121.3854,332.8
121.4189,186.6
121.4357,832.9
121.4815,337.1
121.6092,123.3
121.6503,171.5
121.6556,90.3
121.7071,22.4
121.7288,512.9
121.7561,379.2
121.7653,17.6
121.799,311.2
121.832,84.4
121.8515,635.9
121.8887,103.6
122.0525,144.7
122.0576,83.8
122.0617,86.8
122.078,108.2
122.0982,115
122.1741,17.4
122.24,137.4
122.2552,93.9
122.2667,673.9
122.3146,153.5
122.3287,172.3
122.3686,152.1
122.3739,20.6
122.3882,91.5
122.433,23.8
122.4549,16.7
122.4725,53.6
122.4896,318.6
122.504,218.2
122.5691,427.8
122.5735,170
122.5815,196.3
122.598,94.4
122.6294,215.7
122.6898,203.5
122.7104,20.2
122.7385,96
122.7465,90.7
122.7579,125.7
122.7772,208.1
122.8783,362.9
122.9079,73.3
122.9244,24746.9
122.9295,278.5
123.0292,126.4
123.05,17.9
123.0696,689.8
123.0789,274.5
123.0804,48.1
123.0815,18.7
123.1168,57.6
123.1282,563.9
123.189,412.8
123.1905,135.6
123.2155,153.9
123.2294,16.9
123.2439,630.7
123.2511,762.2
123.3003,170.6
123.3053,590
123.3333,93.3
123.3553,87.4
123.4038,235
123.4075,618.2
123.4374,335.5
123.4411,460.3
123.4962,99.2
123.5426,133
123.59,88.6
123.6013,350.4
123.6563,80.8
123.68,288
123.7006,90.5
123.723,91.2
123.7419,98.5
123.7911,83.9
123.8045,123.3
123.8062,138.5
123.8209,124.1
123.8264,166.3
123.8469,16.2
123.8599,83.1
123.9016,91.4
123.9403,18.7
123.9713,274.9
124.0034,575.8
124.0223,368.1
124.0344,247.8
124.118,249.5
124.1357,58.1
124.1992,165.4
124.2103,76.9
124.2516,278
124.2612,346
124.2846,122.7
124.3248,96.1
124.361,111.8
124.3833,692.1
124.396,105.3
124.4316,86.3
124.4469,134.8
124.4687,666
124.4838,106.2
124.5472,165.1
124.5529,382.9
124.5752,69.4
124.6221,518.7
124.6531,340.2
124.6587,490.5
124.6703,157.9
124.6826,692.4
124.76,209.7
124.765,592.1
124.7931,317.6
124.8013,320
124.8146,778
124.8254,121.7
124.8471,309.8
124.8541,228
124.8558,152.8
124.8613,409.9
124.8828,90.1
124.9182,185.3
124.9226,2573
124.9414,389.6
124.9774,592.5
124.9861,360.5
124.9877,153.1
124.9978,445.6
124.9997,4981
125.0057,571.3
125.0389,206.7
125.0829,156.5
125.1477,615.6
125.1549,190.7
125.1978,200.7
125.2157,347.4
125.2173,303.8
125.228,614.5
125.3195,508.8
125.3593,17.9
125.3803,480.7
125.4024,94.6
125.434,315.3
125.4376,117.5
125.4711,328
125.5123,764.1
125.5227,20.1
125.5239,88.9
125.5681,356.8
125.6122,136.1
125.6342,333.4
125.6473,117
125.6817,568.9
125.7595,17.7
125.9077,406.2
125.9142,20
125.935,204.9
125.9468,367
125.9507,416.3
125.9668,288.9
125.9805,130.9
126.0544,751.2
126.0599,120.1
126.0702,161.4
126.0828,601.2
126.0893,338.9
126.1069,52.7
126.1081,18.5
126.1113,308.5
126.1235,596.8
126.135,172.3
126.1909,168.1
126.2084,653.2
126.3184,180.4
126.3961,290.1
126.411,430
126.4362,176.9
126.4647,193.9
126.4659,523.8
126.474,133.6
126.4803,293.6
126.4859,431.6
126.4937,209.6
126.5878,645.8
126.6083,426.7
126.6714,290.6
126.7549,132.6
126.7589,259.1
126.7624,304.8
126.8266,116.2
126.8657,92.1
126.8966,139.9
126.9438,231
126.9768,589.6
127.0478,116.9
127.0571,203.6
127.0849,154.1
127.2515,434.9
127.2874,483.6
127.2931,393.5
127.3357,170.7
127.3975,400.3
127.4155,100.5
127.4193,496.6
127.4379,379.1
127.549,135.8
127.5806,20.5
127.6186,137.3
127.6489,123.2
127.6704,124.8
127.6764,138.1
127.711,76
127.7159,393
127.7299,337.1
127.734,132.1
127.7398,713.1
127.8015,495.1
127.8848,277.4
127.8894,82.3
127.9927,121
128.0955,624.9
128.1164,16
128.2078,369.5
128.224,78.7
128.2973,17.4
128.3283,558.1
128.3513,226.5
128.4041,131.7
128.4213,626
128.4302,117.4
128.5124,121.2
128.5235,532.5
128.55,183.7
128.5563,148.9
128.5598,46.7
128.5779,464.2
128.5818,238
128.6163,23.5
128.6199,235.6
128.6216,316.6
128.6235,132.9
128.6273,410.4
128.6338,312.7
128.6445,87.4
128.6779,130.4
128.6906,377.1
128.693,410.6
128.7584,79.7
128.7615,376.2
128.7749,136.4
128.7765,587.2
128.7867,520.1
128.85,55.7
128.9136,163.6
128.9298,664.4
128.9555,142.2
128.965,180.6
128.9829,102
128.9858,560.5
128.9876,344.9
128.9981,100.9
129.0736,21.2
129.1023,557.5
129.1578,294.1
129.23,378.5
129.2741,19.1
129.3019,501.2
129.3686,261.2
129.4565,18.5
129.4958,490.6
129.5125,188.2
129.524,365.2
129.5331,19.8
129.5432,97
129.5614,328.6
129.5759,211.3
129.6196,294.5
129.6236,19.3
129.6444,154.3
129.7718,410.3
129.8076,198.7
129.8107,798.2
129.8517,239.9
129.8715,505.9
129.8733,24.1
129.9473,55.9
129.973,652.9
130.0083,137.4
130.047,332.9
130.0498,5871.4
130.0599,178.2
130.0799,59.6
130.1402,355.8
130.1511,204.8
130.1739,121.7
130.2065,454.2
130.225,125.5
130.2515,834.3
130.2711,285.6
130.2897,115
130.3849,596.4
130.4218,252.2
130.4587,108.4
130.4777,323.2
130.5265,18.2
130.5331,215.5
130.6294,326.6
130.6407,84.5
130.6551,317.2
130.6804,17.4
130.6819,17.7
130.6924,142
130.7023,334.4
130.7142,521.5
130.7328,815
130.765,19
130.7838,253.8
130.8509,101.6
130.8719,670.9
130.8814,136.6
130.9166,506.3
130.9328,624.1
130.9385,21.4
130.9627,358.3
130.9998,416.7
131.0018,24.2
131.0348,317.2
131.0498,182.7
131.0635,321.5
131.085,18
131.1009,52.7
131.1184,98.4
131.169,131.8
131.1947,572.2
131.2152,84.5
131.2702,18.8
131.2723,327.4
131.3012,177.7
131.3557,17.8
131.4166,84.5
131.4217,241.7
131.4288,723.6
131.4889,53.7
131.5006,101.4
131.6355,101.5
131.6803,87.6
131.7392,446.9
131.7862,88.1
131.8042,234.3
131.9081,135.6
131.9274,186.4
131.9528,529
131.9887,642.7
132.0031,23025.9
132.0183,101.7
132.0379,186.9
132.041,119.7
132.0439,126.9
132.0469,109.6
132.0577,92.3
132.0655,100878.6
132.102,674.5
132.1255,135.2
132.1376,666.9
132.1918,109.5
132.2148,81.6
132.2576,277.9
132.2656,209
132.2772,483.6
132.3274,129.3
132.3545,243.4
132.4234,92.8
132.4321,230.3
132.4461,626.2
132.4754,652
132.5262,528
132.5704,124.2
132.5764,295.8
132.6048,90.7
132.6693,634.3
132.6787,155.8
132.6972,570.5
132.7031,381.9
132.7311,119.3
132.772,97.9
132.7976,432.1
132.8125,18.5
132.8336,573.1
132.9028,27.7
132.9252,77.9
132.9583,44.9
132.9872,2754.5
133.0346,30.2
133.0689,3239
133.0859,37.5
133.0971,18593
133.1164,112.7
133.2154,95.6
133.2374,116.3
133.2782,125.2
133.2878,246.2
133.324,146.6
133.3586,461
133.4349,47.9
133.4456,17.2
133.4792,494.5
133.4978,397.6
133.5866,242.2
133.689,137.7
133.7017,671.9
133.7453,619.1
133.7608,245.8
133.7913,284.3
133.8341,119
133.8362,16.2
133.8933,16.3
133.8956,358
133.9556,325.6
133.9746,19.4
134.0056,403.6
134.0084,338.1
134.0188,16064.5
134.1415,434.5
134.2935,394
134.3162,239.8
134.3284,558.2
134.3824,158.6
134.3864,170.1
134.44,238.4
134.486,173.5
134.5118,534.1
134.5917,85
134.6185,129.7
134.6309,674.9
134.6924,617.8
134.7082,129
134.7102,125
134.7469,359.3
134.8635,724.8
134.8702,82.9
134.8812,266.5
134.9346,145.5
134.9492,516.3
134.9713,373.2
134.9965,78.9
135.0028,84108.2
135.0214,474.8
135.0233,25.8
135.1168,49
135.1215,19.1
135.1442,120.9
135.183,88.4
135.2578,295.7
135.3105,494.6
135.3218,18.8
135.6281,17
135.631,458
135.6586,137.1
135.6665,76.2
135.774,473.2
135.7815,332.6
135.8086,340.9
135.8115,22.2
135.8192,100.5
135.866,385.4
135.9504,19.3
135.9667,306.2
135.9725,826
135.9771,2101.6
135.9786,183.6
136.0062,835.6
136.0481,1945.5
136.0756,12368.8
136.0823,307.9
136.1103,193.7
136.1167,154.1
136.1347,20.6
136.1735,402.2
136.2467,85.8
136.2665,103.1
136.3301,95.9
136.3734,16.3
136.4689,255
136.5089,217.3
136.5965,133.3
136.6039,17.4
136.6589,537.1
136.6628,275.3
136.6885,115.2
136.7375,475.2
136.7474,155.6
136.8216,154.6
136.8832,315.9
136.8912,597.4
136.9267,1002.1
136.9309,699.9
136.9729,18
137.0053,48.2
137.0156,527.6
137.0447,182.1
137.0889,131.8
137.1028,361.1
137.1566,145.9
137.1592,66.1
137.1808,796.3
137.2546,403.2
137.2593,237.3
137.2884,140
137.2922,680
137.3361,235.4
137.3891,91.6
137.4027,390
137.4167,18
137.4228,98
137.4427,124.5
137.4649,613.4
137.5175,288.3
137.5377,16.6
137.5976,433
137.6334,648.6
137.6832,265.5
137.6837,239.6
137.6852,16.6
137.6951,88
137.862,98.8
137.9124,400.3
137.9216,92.4
137.9342,520.3
138.0525,3932.9
138.0636,20.1
138.0662,67.8
138.104,396.3
138.1648,479.9
138.1793,272.4
138.1814,116.1
138.1836,720.4
138.2828,491.4
138.3097,134.5
138.3491,139.6
138.3588,193.6
138.3754,77.5
138.4135,149.6
138.4208,125.9
138.4704,228.6
138.486,575.5
138.4925,98.7
138.5115,480.9
138.5519,833.3
138.5983,177.9
138.6229,111.7
138.6743,678.2
138.7667,561.3
138.7923,203.5
138.8488,220
138.8749,17.5
138.9063,3506.2
138.9143,290.8
138.9435,697.9
138.9465,76.9
139.0226,17.5
139.0485,113.5
139.0711,565.2
139.0906,193.4
139.1163,99.8
139.2872,128.4
139.3655,453.5
139.4944,892.5
139.5107,352.1
139.5416,139.9
139.5699,668.9
139.5862,106.4
139.6097,282.4
139.6361,503.4
139.6826,176.2
139.7016,334.3
139.7487,657.4
139.7618,351.9
139.8258,114.2
139.8499,341.8
139.926,46.4
139.9495,411.4
139.9541,345.9
139.9979,215.5
140.0037,20.3
140.0164,1353.4
140.022,102.3
140.0336,256.8
140.0681,2088.5
140.1115,176.2
140.1182,422.8
140.1225,141.8
140.2002,179.3
140.2253,602.9
140.255,311.6
140.3235,112.9
140.3869,178.8
140.4134,194.4
140.4231,429.3
140.446,88.2
140.4526,75.8
140.4671,21.1
140.4927,424.6
140.5542,638.8
140.6146,335.4
140.6186,665.9
140.6417,533.1
140.828,98.8
140.8554,635.6
140.8617,154.6
140.8861,242.1
140.9016,94.5
140.9035,493.6
140.9294,91.5
140.944,674
140.9536,399.9
140.9676,94.5
140.9761,679.5
140.9794,20.8
141.0005,16598.5
141.0238,330.5
141.0656,121.8
141.0745,182.2
141.1168,331
141.1457,752.3
141.151,84.5
141.1773,168.5
141.2169,789.2
141.2334,510
141.2836,554.6
141.3016,96.8
141.4086,348.6
141.4565,227
141.4796,123.3
141.5076,598.9
141.5409,399
141.5659,400.4
141.5674,19.9
141.6762,63.5
141.7142,94.4
141.7156,22.4
141.7399,347.7
141.7817,145.6
141.7861,85.7
141.8033,287.8
141.8689,291.6
141.8735,99.6
141.8787,151.9
141.9247,301.2
141.978,625.6
142.0038,542.7
142.0176,110.3
142.0341,591
142.0367,166.4
142.0629,613.4
142.0706,317.1
142.0736,35.5
142.077,250.5
142.1003,16.7
142.1183,429.5
142.12,21.1
142.1416,265.7
142.17,85.3
142.1855,145
142.19,20
142.2294,371.4
142.254,429.2
142.3425,513.5
142.3624,185.3
142.3972,95.3
142.409,412.3
142.5007,290.5
142.5071,350.5
142.5328,51.6
142.5726,148.2
142.5948,129.1
142.6331,655.3
142.6514,131.2
142.6759,300.2
142.7235,439
142.7665,677.5
142.7854,108.8
142.7937,265.6
142.8108,505.6
142.8179,131.6
142.8418,48
142.8492,496.4
142.9427,585.7
142.944,110.6
142.948,261.4
142.9547,205.5
142.9634,152.3
142.966,18.8
142.9721,141.1
142.9771,689.3
142.9847,159.8
142.9963,195.8
143.0188,1198.8
143.0588,112.1
143.0816,556.2
143.1072,135.1
143.1698,710.4
143.1728,18.6
143.2115,357.8
143.2402,566.6
143.2535,19
143.2665,227.9
143.2816,291.5
143.3548,161.5
143.3963,114.4
143.4711,305.5
143.4995,159.2
143.5617,126.4
143.6038,96
143.6852,137.2
143.8112,110.7
143.8181,105
143.8648,571.3
143.8754,670.1
143.9021,786.7
143.9629,479.5
144.0395,365.7
144.063,24.7
144.0789,125.2
144.1514,134.8
144.2063,20
144.2411,223.9
144.3001,93.9
144.3959,18.3
144.3978,190.3
144.4144,114.4
144.4345,132.7
144.4388,416.5
144.4525,126.6
144.4636,237.8
144.4912,22.5
144.5806,146.4
144.609,131.4
144.637,336
144.6417,412.4
144.6497,161.4
144.6678,20.4
144.6901,641.1
144.7496,104.4
144.7583,494.7
144.85,345.6
144.8612,536.4
144.8841,62.3
144.9048,103.7
144.9225,323.4
144.9809,3002
144.9833,19.3
145.0055,106.7
145.0494,403.2
145.0982,688.3
145.1504,517
145.199,859
145.2218,744.9
145.2744,356.5
145.2845,487.9
145.4116,205.3
145.4485,608.6
145.5116,380.8
145.5232,84.8
145.556,18.3
145.5716,596
145.5923,490.2
145.6366,272.2
145.7088,611.8
145.7175,178.7
145.7373,128.8
145.7549,469.7
145.7602,401
145.7841,323.1
145.8005,220.8
145.9402,186.2
145.962,582.7
146.0125,4039.4
146.0188,15039.1
146.0298,22.5
146.047,741.1
146.0581,447.2
146.0785,124.5
146.104,436.3
146.1321,145.3
146.1534,140.2
146.2419,132
146.2521,358.3
146.3629,143.4
146.4107,321.2
146.4254,465.6
146.4441,225.4
146.4628,91.9
146.5032,126.5
146.5153,116.4
146.5582,17
146.6107,331.1
146.6135,125.4
146.6478,305.8
146.6697,85.2
146.6895,137.7
146.6962,588
146.7182,16.7
146.7552,436.5
146.7827,19
146.7988,89.8
146.8311,627.8
146.8424,59.4
146.8448,486.7
146.8502,95.7
146.8561,93.3
146.8852,322.4
146.9588,108
146.9818,105599.4
146.9877,644.1
146.9964,21.6
147.0028,318.8
147.0065,634.1
147.0236,151.4
147.0574,670.2
147.0621,789.4
147.0638,139.8
147.0698,123.7
147.0764,51866.9
147.0837,164.9
147.0953,511.4
147.1128,21663.8
147.117,411.6
147.1259,174.9
147.203,386.4
147.2167,121.3
147.2236,20.6
147.2509,383.5
147.2991,487.9
147.3059,319.9
147.3178,674.5
147.422,853.3
147.4721,16.7
147.5267,315
147.6034,127.8
147.6114,614.8
147.6462,83.2
147.651,109.2
147.6722,17.2
147.684,19
147.6882,244.1
147.7006,532
147.7816,253.5
147.791,610.3
147.8264,139.3
147.8368,90.7
147.851,408.8
147.9203,500.9
147.9743,22.2
147.9999,98.9
148.029,498.8
148.0342,452
148.0697,451.2
148.0732,431.8
148.0748,122.9
148.0765,387.5
148.1122,18.1
148.1569,18.1
148.1745,258
148.2001,518.1
148.2185,19.7
148.2214,304.9
148.2629,111.1
148.2865,424.6
148.2988,149.7
148.3027,259.2
148.3066,97.9
148.3378,280.8
148.351,766
148.3645,152.5
148.3826,23.4
148.4142,18
148.4759,147.6
148.4904,330.2
148.5246,110.2
148.5289,140
148.5321,1990.5
148.6137,19.2
148.6198,309.9
148.6316,56.1
148.6355,205.4
148.6516,49.4
148.6618,18.6
148.851,142.8
148.9611,1997.7
148.9656,143.7
148.9744,350.4
149.0005,143.5
149.0026,49.7
149.0129,126.5
149.0185,4850.3
149.0233,5071.5
149.045,22.4
149.0746,21.5
149.0839,99.5
149.1325,660.4
149.1402,441
149.1665,249.1
149.1999,98.4
149.2078,419.8
149.2126,133.1
149.2278,136.7
149.2585,205.9
149.376,769.7
149.426,150.1
149.4318,275.7
149.4404,95
149.5486,479.6
149.5969,151.5
149.6455,130.6
149.6789,619.2
149.6852,115.3
149.6871,560.8
149.8451,130.2
149.8549,443
149.9248,229.3
149.9928,9299.5
150.0107,149
150.0137,5272.8
150.0267,48.3
150.0483,654
150.0753,133.5
150.0842,237.1
150.2134,719.6
150.321,335.6
150.3284,182.7
150.3521,740.5
150.4049,671.1
150.4333,731.6
150.5157,387.5
150.532,283.4
150.5734,186.7
150.6006,87.3
150.6226,478.8
150.6377,18.1
150.6389,16.4
150.6671,208.1
150.7732,367.4
150.8251,76.3
150.8294,574.8
150.8376,50
150.9531,771.9
150.9768,57405.8
150.9841,262.8
150.9856,513.5
151.0477,2698.2
151.0532,384.2
151.093,644.7
151.1433,137
151.2546,138.6
151.3034,16
151.3487,94.6
151.4941,92.8
151.5251,310.1
151.5535,132.3
151.5588,200.8
151.5751,219.3
151.5938,131.9
151.6259,272.7
151.6641,239.6
151.7349,47
151.7498,20.7
151.8403,22.8
151.9141,19.3
151.9803,492.4
152.022,7342.7
152.0319,2287.2
152.0888,92.2
152.0947,50.7
152.1273,365.7
152.1479,19.7
152.1557,406.7
152.1574,17.8
152.1727,253.1
152.2071,236.7
152.2218,21.4
152.2505,55.8
152.3302,328.4
152.342,483.5
152.3867,622.7
152.3992,459.7
152.499,417.7
152.5068,146.6
152.528,408.4
152.5468,138.3
152.6887,103.8
152.6958,489.6
152.7223,227.3
152.7753,49
152.9749,2106.1
152.9905,19.1
153.0467,18.6
153.0742,372.9
153.093,243.1
153.2313,105.3
153.2477,854.8
153.2829,149.2
153.3464,509.7
153.3948,648.1
153.4501,103
153.4558,140.8
153.4755,119
153.5133,674.4
153.528,97.6
153.5844,150.3
153.6565,168
153.7096,333.5
153.7422,299.9
153.7829,466
153.8249,293.3
153.8817,225.8
153.9148,245.2
153.9325,348.4
153.9577,355.6
153.9638,85.6
153.981,487.2
153.9932,185.2
154.011,328.7
154.0411,327.5
154.0945,146.6
154.1888,137.3
154.2467,257.3
154.2859,19.3
154.3285,382.7
154.3766,16.5
154.4009,138.3
154.4174,437.3
154.4241,531.8
154.4262,487.7
154.4296,689.3
154.4342,505.4
154.4529,155.3
154.514,82.6
154.533,140
154.5495,194.7
154.5626,225.2
154.6882,645.9
154.7184,95.8
154.7377,665.6
154.7485,20.7
154.7605,88.9
154.7734,212.2
154.8018,16.8
154.8139,21.6
154.8273,109
154.8396,53.5
154.8438,329.5
154.8467,122.6
154.8805,415.1
154.9076,70.4
154.9341,613.7
154.9416,26.3
154.9691,1026.6
155.0428,1218.8
155.049,312.6
155.054,6338.2
155.1403,137.4
155.1695,53.8
155.18,116.2
155.3672,370.3
155.4909,17.5
155.5828,636.1
155.651,58.4
155.6802,688
155.6972,148.2
155.7058,92.8
155.7751,192
155.8459,95.5
155.8845,17.3
155.9117,101.8
155.9227,408.4
155.964,135.8
156.0233,135.3
156.0422,2521.2
156.0446,162.9
156.0511,23.7
156.0534,337
156.0573,97.9
156.0704,716.1
156.0768,37288.3
156.1488,243.4
156.1932,157.3
156.2022,564.2
156.2493,124.6
156.286,147.4
156.38,441.7
156.4088,555.5
156.4323,84.6
156.4559,125
156.5261,251.6
156.5843,368.4
156.5888,299.3
156.5994,777.4
156.6171,717.4
156.6613,168.4
156.7243,399.1
156.735,85.5
156.7465,632.9
156.8285,394.1
156.8515,159.4
156.8775,922.6
156.8801,357.3
156.9341,683.7
156.9744,51.1
156.9887,17.5
157.0248,112.9
157.0676,132
157.0858,173.4
157.0924,244.2
157.0972,226.6
157.1392,266.9
157.189,314.8
157.2223,188.8
157.2289,116.8
157.3549,96.4
157.3703,539.1
157.3761,109.6
157.4524,21.9
157.4687,108.9
157.5037,346.1
157.5941,19.2
157.63,251.5
157.7002,172.3
157.794,648.5
157.8772,258.9
157.8911,86.1
157.8958,392.5
157.9347,117.1
157.9431,161
158.0124,374.6
158.023,111.2
158.0271,3800
158.0663,119.5
158.0865,126.3
158.2432,537
158.3045,127.7
158.3861,90.5
158.3989,19.3
158.4064,512.9
158.5148,18.1
158.5649,111
158.5781,18.2
158.5883,222.1
158.6816,283.8
158.7168,143.7
158.7219,665.7
158.7739,94.5
158.8266,185.9
158.9278,2613.4
158.9431,407.9
158.9579,568.4
158.9641,15142.6
158.9732,453.1
158.9965,10014.2
159.0069,18.3
159.0112,42.4
159.0305,103
159.085,127.3
159.1034,324.6
159.1786,423.6
159.1934,550.6
159.1982,318.1
159.2176,125.9
159.2316,313.1
159.2713,89.6
159.2832,381.4
159.3633,121.6
159.3669,86.6
159.3771,300.9
159.4205,296.4
159.455,21.5
159.537,207.3
159.5725,331.2
159.5772,177.6
159.605,126
159.6384,19.6
159.7211,21.8
159.7837,19.8
159.825,385.9
159.8759,170.7
159.879,230
159.8862,16.7
159.8989,311.2
159.9052,338.1
159.9527,109.4
159.971,350.7
159.9818,417.4
160.0346,14409.8
160.0559,96.5
160.0605,120465
160.0734,99.5
160.0761,20.3
160.0876,315
160.1758,18.1
160.2277,446.5
160.2494,234.3
160.2564,124.1
160.3197,104.7
160.3377,153.8
160.3408,339.9
160.3607,82.6
160.3737,429
160.3851,105.7
160.4363,23.9
160.4808,999.5
160.4994,147.2
160.5731,149.5
160.5749,393.4
160.5863,333.2
160.6068,20.3
160.6437,806.6
160.7048,275
160.7309,90.6
160.7602,81.4
160.7646,645.5
160.7936,123.9
160.8239,19
160.8282,178.7
160.8388,135.7
160.8501,235.9
160.9457,269.1
161.0182,365.4
161.0381,356.5
161.0434,189
161.0639,6147.8
161.0856,24.7
161.1056,204.8
161.1072,141.6
161.1235,392
161.1746,373.3
161.2067,114.1
161.2235,358.2
161.2355,17.9
161.242,516.9
161.326,248.5
161.343,623.2
161.3969,175.2
161.431,90.4
161.4556,294.4
161.4717,572.2
161.5241,92.9
161.6014,220.9
161.662,18.5
161.686,160.1
161.7649,224.4
161.7854,126.5
161.7889,123.5
161.8469,499.3
161.8904,346.3
161.9173,104.4
161.9726,329.8
162.0502,18842.8
162.2054,116.4
162.3051,426.4
162.4156,134.1
162.4273,532.7
162.4707,138.4
162.4771,370.9
162.5446,258.5
162.5702,318
162.6174,126.6
162.6528,104.8
162.7207,284.2
162.7439,103.8
162.7574,114.2
162.8116,154.6
162.8133,451.3
162.8966,16.8
162.9011,46.2
162.9083,97.2
162.9162,294.4
162.9395,355.8
162.9438,17.5
162.9558,4935.6
163.0155,3397.1
163.0338,767
163.0394,21.2
163.0608,440.7
163.0859,103.8
163.1251,17.2
163.2584,164.1
163.3557,327.7
163.3962,90.1
163.4233,89.2
163.4847,447.6
163.4898,92.1
163.5242,285.8
163.631,702
163.6454,200.3
163.649,109.8
163.7385,143.9
163.8031,415.3
163.9472,584.5
164.0085,459.7
164.0191,120.8
164.0295,15494.4
164.0544,120
164.0971,158.6
164.106,222.6
164.1468,347.5
164.1552,19.7
164.1995,127
164.2046,19.1
164.2479,115.2
164.2601,469.6
164.3175,273.4
164.3263,96.8
164.3645,603.2
164.3989,114.1
164.5066,333.5
164.5265,346.9
164.5329,154.7
164.5764,262
164.5893,113.7
164.6346,18.1
164.6486,18.8
164.728,19.1
164.7917,109.6
164.7939,666.8
164.8445,342.4
164.8582,147.5
164.8822,133.8
164.892,20.5
164.9072,693.9
164.9205,4780.8
164.93,19093.6
164.9352,2967
164.9925,1611.4
165.0483,132.3
165.0667,226.2
165.0911,916.7
165.1426,814.2
165.2585,128.2
165.2947,518.8
165.3312,347.7
165.3833,25
165.4778,268.5
165.5472,118.7
165.6061,370.6
165.6296,17.5
165.6675,402.2
165.8722,621
165.8772,139.7
165.8922,47.2
165.967,2171
165.9691,290.7
165.9789,785.8
165.9878,4485.2
165.995,104.4
166.0089,104.7
166.0839,8432.7
166.1233,251.6
166.1837,105.6
166.2159,730.3
166.2268,244.2
166.273,164.4
166.3061,658.5
166.3204,455.9
166.3918,308
166.402,19.1
166.4479,535.9
166.4973,118.2
166.5233,129.3
166.5564,117.8
166.5734,114.5
166.5821,145.1
166.7174,17.6
166.7197,661
166.75,433.1
166.7643,295.4
166.7673,395.5
166.7944,418.3
166.7984,221.5
166.8134,730.5
166.877,17.2
166.8827,688.2
166.9029,23
166.9322,124.9
166.9508,17407.4
166.9941,19.8
167.0218,3360.1
167.0537,378.3
167.0865,19.7
167.133,102.4
167.1497,101.6
167.1968,215.4
167.2268,184.9
167.2332,365.4
167.2414,72.4
167.2514,118.3
167.3701,297.1
167.6399,559.3
167.7423,345.4
167.7557,301.9
167.7653,16.1
167.7878,84.1
167.8648,134.3
167.928,110.1
167.9593,218
167.9612,536.7
167.9716,591.2
167.9913,597.4
167.9944,3023.7
168.096,90.7
168.1285,209.4
168.1401,210.6
168.1447,146.6
168.1531,74.8
168.214,369.7
168.2287,19.2
168.2542,19.7
168.2688,184.6
168.2784,19.5
168.2865,18.5
168.3174,20.5
168.3376,18.6
168.3611,16.5
168.3859,894.1
168.4122,99.8
168.489,115.6
168.4921,624.9
168.4965,124.1
168.515,139
168.5895,242.4
168.5951,103.2
168.6345,369.8
168.6872,106.3
168.7049,96
168.7098,268.6
168.7125,318.9
168.7964,323.1
168.8551,486.1
168.9151,19.7
168.9251,120.5
168.9489,1270
168.9917,103.6
169.0188,316.4
169.0256,19
169.0584,52396.7
169.0649,1185.2
169.0853,89.2
169.0948,2603.3
169.1065,49.4
169.2349,473.5
169.2543,429.6
169.2628,628.3
169.274,17.8
169.3491,287.8
169.4272,128.6
169.4361,114.8
169.503,160.4
169.5397,172.4
169.6105,456.7
169.6151,24.7
169.6513,48.6
169.6626,100.7
169.7348,122.9
169.7954,357
169.8821,98.7
169.9772,354.6
170.0007,305.5
170.0327,1244.4
170.0617,1020.4
170.0787,479.8
170.0925,3734.1
170.1793,126.7
170.1838,263.4
170.2128,324.8
170.2208,756.7
170.2764,130.3
170.2818,170.7
170.3654,90.6
170.4838,714.7
170.5527,675.5
170.6239,121.8
170.6404,17
170.6618,90.9
170.6638,786.4
170.7486,101.9
170.7541,88.2
170.7823,20
170.8295,340.9
170.8544,4696.8
170.8577,94.9
170.8728,702.3
170.9134,143.2
170.9438,381.7
170.9614,139.3
170.967,99.2
171.0013,133.1
171.0164,1152
171.028,481.5
171.0534,356.5
171.0975,273.5
171.1127,736.3
171.2208,232.2
171.2925,388.6
171.3116,176.6
171.3384,118.5
171.3568,101.6
171.3863,246
171.6692,121.7
171.7219,57.8
171.7297,338.9
171.7718,52.2
171.8759,149.4
171.8787,120.4
171.8865,16.6
171.9043,53.4
171.9307,87.8
171.9422,333.3
171.9697,354.9
172.0281,937.3
172.0453,113.7
172.0676,134
172.0719,470
172.0877,84.7
172.1435,93.3
172.1585,128.9
172.3233,135.3
172.3278,22.3
172.376,130.6
172.3899,448.9
172.4525,106.3
172.4758,321.5
172.5082,514.9
172.5372,123.2
172.5776,131.7
172.607,400.2
172.6586,555.1
172.6696,312.3
172.723,638.6
172.7759,467.8
172.8514,2068.2
172.8643,157.5
172.9457,596.4
172.9522,53.9
172.9672,1581.4
173.0225,692.3
173.0269,379.2
173.0298,1178.9
173.0497,812
173.0787,20.2
173.092,342.9
173.1118,240.7
173.1304,87.6
173.1493,327.2
173.16,153.6
173.2396,85.3
173.3106,318
173.3513,666.1
173.3574,237.4
173.4025,571.9
173.4297,97.4
173.4387,159.4
173.4897,18.8
173.5301,18.8
173.5648,131
173.6087,145.8
173.7032,161.9
173.7095,318.4
173.7224,92
173.729,126.4
173.7929,148
173.8621,21.9
173.8778,17.3
173.9175,140.9
173.984,301
173.9924,293.3
174.1231,167.2
174.13,126.4
174.1452,18.9
174.1978,116.6
174.2294,150.4
174.248,376.7
174.2842,211.5
174.3147,122.5
174.3435,463
174.3555,112.4
174.3651,713.6
174.3971,341.8
174.4332,46.7
174.4563,885
174.5025,717
174.526,236
174.5329,167.7
174.563,20.6
174.6778,130.7
174.7302,292.2
174.743,90.8
174.7551,19.6
174.7748,97.6
174.7795,285.4
174.8485,49.5
174.9381,5883.1
174.9451,287
174.9508,371.1
174.9718,261.8
174.9747,259.5
174.9852,21.8
175.0018,98.1
175.0343,6275.1
175.0455,2955.5
175.0577,448.8
175.1191,51467
175.1961,428.1
175.203,334
175.2114,188.3
175.2435,818.3
175.3735,132.9
175.4974,141.7
175.5104,81.9
175.6894,378
175.7216,241.3
175.7433,221
175.9389,170.5
175.9649,91.2
176.0085,7477.1
176.0659,24904.8
176.103,760.1
176.1219,303.4
176.1346,286.1
176.1884,91.1
176.1937,453.5
176.2899,56
176.3854,17.7
176.5424,97.1
176.5679,114
176.5982,476.8
176.7223,284.8
176.7548,479.8
176.7642,52.9
176.8432,257.7
176.8569,201.5
176.9591,60.2
176.9719,559.3
176.9924,2048.2
177.0138,259
177.0247,6012.6
177.0612,11522.8
177.0764,395.3
177.0871,1629.1
177.1046,122.4
177.1847,371
177.2215,431.1
177.3705,118.6
177.4112,160
177.4156,584.4
177.4521,321
177.4695,94.7
177.5076,179.1
177.5951,107.4
177.6004,165
177.6111,207
177.6384,94.9
177.643,300.9
177.6567,346.2
177.6876,470.8
177.6951,51.7
177.7449,298.5
177.9051,128.6
177.9796,593.4
178.0088,8694.8
178.0241,9506
178.0587,3792
178.0733,117.7
178.1377,19.6
178.1558,360
178.2664,584.7
178.2944,17.9
178.3644,116.2
178.3848,177.4
178.4165,664.5
178.6083,282.4
178.6246,128.6
178.6553,108.7
178.754,332.5
178.8237,126.2
178.9555,345.1
178.9628,273.2
179.0123,322
179.0493,126.2
179.0817,17
179.1059,761.7
179.1275,107
179.175,127.7
179.2245,18.3
179.2574,592.2
179.3348,165
179.3671,99.4
179.4635,293.4
179.4897,139
179.6142,440.6
179.7082,136.1
179.7271,94.5
179.7358,706.9
179.7416,99.7
179.7614,112.2
179.7932,694.3
179.8033,387.4
179.8982,178.3
179.9049,156.6
180.0035,10040.5
180.0229,354.5
180.0312,18.7
180.0704,86.5
180.1156,16
180.1301,367.5
180.204,120.6
180.2614,335.8
180.3359,294.4
180.338,50.4
180.3942,297.2
180.5126,92.3
180.5606,122.7
180.59,541.3
180.6381,132.1
180.7398,91.7
180.7769,272.6
180.8587,593.5
180.8945,3001.1
180.904,10499.6
180.9536,431.6
180.9574,888.5
180.9898,266.6
181.0263,671.6
181.0286,58.5
181.065,8644.3
181.1125,132.7
181.2037,287.7
181.2414,390.5
181.3405,94.7
181.3429,217.5
181.3759,89.4
181.4249,95.1
181.4603,641.5
181.5023,329.3
181.5164,657.7
181.5928,21.6
181.6661,623
181.6896,19
181.7161,191.5
181.8281,662.8
181.8535,268.8
181.8637,788.2
181.904,151.2
181.9317,618.9
181.9716,153
182.0094,19.4
182.0123,271.1
182.0155,29.7
182.0426,32295.7
182.0579,906.4
182.1106,103.5
182.4044,701.3
182.4351,328.4
182.5551,145.8
182.5771,21.4
182.6022,145.3
182.6204,377.9
182.7193,100.1
182.7394,115.3
182.7595,310.7
182.7891,16.8
182.8089,115.4
182.8204,53.3
182.8578,20.7
182.8686,18.9
182.9025,31.8
182.9059,282.3
182.9162,341.8
182.9686,134.9
182.9977,380.7
183.0268,396.1
183.0443,1327.2
183.1658,103.4
183.2912,551.2
183.3106,324.7
183.4248,20.4
183.4583,329.3
183.5675,181.6
183.579,21.2
183.6653,545.3
183.698,134.9
183.7241,616.1
183.7321,91.6
183.7754,20
183.7987,695.6
183.8139,583.6
183.8686,18.5
183.934,99.2
183.9648,2848
183.9939,298.9
183.9966,484.9
184.0045,185.3
184.0374,1046.2
184.065,421.9
184.066,442.4
184.0734,4898999.5
184.0808,534.3
184.0945,306.5
184.1096,459
184.1147,123.8
184.1288,371
184.1697,60.8
184.1822,3350.5
184.192,18.5
184.2544,327.9
184.306,107.1
184.3318,18.7
184.337,507
184.3541,193.2
184.3605,372.6
184.3695,211.3
184.4812,50.3
184.6711,436.1
184.7374,20.7
184.8045,513.7
184.8167,338.6
184.8639,281.9
184.9069,18.3
184.9317,306
184.9542,637.9
184.9566,301.2
184.9648,537.6
185.0033,108.9
185.0324,52183.9
185.0371,184.9
185.0704,11697.2
185.0768,228007.3
185.0793,4162.5
185.091,18.6
185.1411,94.7
185.1815,328.7
185.1872,453.9
185.2875,347.7
185.3602,269.3
185.3824,123
185.4211,406.9
185.4679,246.3
185.5991,893.6
185.7267,673.1
185.7389,332.9
185.782,318
185.8111,125.1
185.8216,308.8
185.8805,105.9
185.9338,108.9
185.9599,2431.1
186.0203,128.5
186.0357,1239.6
186.0466,255.4
186.0551,350.8
186.0777,30355.4
186.2179,19.1
186.3278,302.9
186.3346,17.2
186.3648,20.2
186.4114,16.5
186.627,643.8
186.6331,184.3
186.6477,161.3
186.7068,813.7
186.7737,299.5
186.8051,558.2
186.8455,131.2
186.8704,123.7
186.8812,395.5
186.8978,83.7
186.9121,5548.5
186.9665,185.2
187.0303,1133
187.037,177.3
187.0579,10314.6
187.0714,2260.1
187.1076,1039.3
187.1557,779.7
187.1866,131.1
187.301,693
187.3216,130.1
187.3241,233.9
187.3428,19.3
187.3608,19.3
187.4263,644.6
187.4292,401.7
187.4897,512.8
187.5246,15.6
187.5464,105.8
187.5509,191.9
187.6736,142.3
187.6778,128.2
187.6813,270.3
187.6945,206.2
187.7088,102.6
187.733,121.2
187.7885,16.5
187.8597,16.7
187.9328,22.6
188.0711,760.9
188.0755,96.3
188.1201,345.7
188.1779,57.7
188.1815,17.2
188.1902,18.8
188.3181,117
188.3653,123.1
188.3897,245.8
188.397,108.4
188.5302,595
188.5525,250.5
188.5685,278.8
188.5974,147.3
188.6878,20.2
188.7283,418.9
188.7536,88
188.7599,47.7
188.9372,248.4
188.9891,124.5
188.9999,487.7
189.0611,1545.5
189.0872,10368.6
189.1119,161.6
189.2062,91.6
189.2544,88.7
189.2686,424.7
189.2887,138.8
189.3214,93.9
189.3345,140.6
189.3791,759.8
189.4008,112.8
189.4603,358.8
189.4948,272.5
189.5098,18.2
189.653,101.1
189.6601,251.1
189.8782,94.4
189.9327,73.5
189.9539,128.1
190.006,383.5
190.0534,210.5
190.0578,93.6
190.4483,20
190.6096,302.7
190.7508,125.6
190.8728,35.4
190.912,1226
190.9377,124.8
190.9444,30.1
191.0083,5618.6
191.0184,717.8
191.0405,149353.8
191.0769,24776.4
191.1826,487.8
191.3382,119.2
191.3398,119
191.3862,431.4
191.5217,121.1
191.7271,98.5
191.74,129.8
191.8068,118.7
191.8849,145.5
191.952,80.6
191.9556,684.7
191.9828,584.3
192.0233,256.4
192.0399,12172
192.0437,2204.4
192.0629,885.9
192.1669,93.7
192.1902,124.2
192.2475,463.6
192.2521,53
192.2567,290.6
192.2667,99.3
192.5458,217.6
192.5627,382.9
192.5801,483
192.608,336.1
192.6626,129.8
192.6969,160.4
192.828,338.4
192.8514,740.5
192.9023,134.5
192.9987,5756.4
193.0352,6251.7
193.1029,522.7
193.1137,404.6
193.2174,497.3
193.2851,218.6
193.5008,88
193.5247,292.8
193.5589,53.2
193.5662,161.4
193.6109,141.5
193.6737,527.8
193.6825,705.8
193.7012,349.8
193.7251,638.3
193.7929,45.4
193.7976,329.7
193.8005,144.9
193.8658,84.7
193.998,1577.3
194.005,2437.8
194.0105,589.8
194.0222,560.6
194.0327,1201.6
194.1035,20
194.1542,171.1
194.1569,226.9
194.2205,171.1
194.2533,95.8
194.2788,364
194.4628,94.8
194.5665,112.8
194.728,425.4
194.9561,206.1
194.9664,128.9
195.044,121.9
195.0655,232.3
195.0815,198.2
195.0983,342.9
195.1098,337.4
195.1478,95
195.1995,527.2
195.2359,87.8
195.2476,586.1
195.2603,19.8
195.2775,149.6
195.2843,18.4
195.3304,184.7
195.341,276.7
195.3627,358.1
195.4122,18.2
195.4368,20.9
195.4823,90.2
195.5116,20.5
195.5174,618.1
195.5312,258.4
195.5701,459
195.5937,488.7
195.6319,238.4
195.6679,126
195.7105,53
195.9502,138.6
195.9598,695
195.9738,705.9
195.9774,886.1
195.9988,343.9
196.0203,96.9
196.048,138.9
196.0792,143.8
196.114,186.2
196.1518,22.8
196.1698,339.1
196.1813,137.1
196.1857,133.5
196.1979,106.9
196.2681,252.1
196.3516,190.6
196.4219,348.2
196.5024,665
196.5377,345.2
196.6923,171.6
196.7087,88.2
196.7814,227
196.8168,22.1
196.8566,892.7
196.8653,6181.2
196.8732,16.8
196.8781,1930.4
196.8874,132.8
196.8887,165.9
196.8896,161.8
196.893,401
196.9537,236.9
197.0277,163.9
197.0763,324.3
197.0904,194.9
197.1553,595.7
197.317,351.8
197.3422,125.3
197.3646,355.8
197.3829,79.3
197.3947,18.6
197.4233,306.8
197.4464,522.3
197.5253,101.4
197.5536,270.5
197.6413,372.6
197.6515,96.3
197.7162,390.4
197.7385,195.3
197.7674,254.4
197.843,151.4
197.8914,311.5
197.9278,449.2
197.9317,111.8
198.0071,27.4
198.085,4010.3
198.0971,21.3
198.1203,138.4
198.1854,4608
198.2166,107.9
198.2386,339.5
198.3236,127.7
198.3262,18.9
198.641,239.4
198.6655,767
198.8155,133.8
198.8194,102.1
198.8403,382.5
198.8623,7614.7
198.8683,20
198.9207,402.3
198.974,78.9
199.0691,1511.1
199.0756,2040.2
199.0803,164.4
199.0985,108
199.1079,411.9
199.1781,16.8
199.1888,284.3
199.2087,121.2
199.2519,20
199.3021,182.6
199.3489,371.7
199.3674,93.9
199.4098,270
199.4764,80.2
199.5002,278.3
199.5133,111.2
199.5435,165.8
199.5831,73.6
199.6836,20.7
199.7943,125.9
199.8582,624.6
199.9908,27462.3
199.9974,405.3
200.0118,302.6
200.0188,250.5
200.023,217.9
200.0408,16525.7
200.0453,52.5
200.0482,855.3
200.0555,484
200.0983,9869.6
200.3103,347
200.3368,18.5
200.3546,17.2
200.4058,499
200.4259,113.3
200.4595,303.8
200.4621,340
200.4823,139.2
200.5368,17.2
200.5567,18.7
200.5668,146.3
200.5772,102.2
200.6318,127.8
200.6938,178.9
200.7186,112.8
200.746,600.3
200.8593,1273.1
200.8757,198.3
200.8777,52.2
200.9115,172.3
200.9326,99.2
200.9821,18.1
201.0548,163.5
201.061,144.6
201.0873,428.9
201.0961,21
201.154,918.7
201.2115,247.9
201.3147,209.3
201.3297,381.2
201.4564,490
201.4589,76
201.5899,135.9
201.6791,123.6
201.684,18.6
201.7,624.7
201.7714,404.1
201.7779,17.9
201.7809,56.4
201.8067,17.9
201.8363,145.5
201.8646,40.3
201.8674,22.2
201.9095,415.7
201.9639,17.4
201.9933,28.6
202.0083,19.3
202.0477,814
202.0985,363.9
202.2028,627
202.2628,17.8
202.2979,158.7
202.3203,306.9
202.475,17455.8
202.5323,192.8
202.5596,148.2
202.5705,19.8
202.6631,428.2
202.7114,123.2
202.7338,311.3
202.7524,124.4
202.8145,285
202.8859,553.8
202.8931,130.7
202.9269,302.9
203.032,4739.5
203.0528,1203406.9
203.0768,7213.5
203.1035,123.9
203.203,156.2
203.2189,334
203.2425,240.9
203.2528,457.6
203.309,84.4
203.3541,246.4
203.3631,93.8
203.367,427
203.459,221.1
203.5288,137.5
203.5698,95.4
203.589,73.2
203.6029,556
203.6362,133.9
203.6417,757
203.6566,587.3
203.7334,801
203.89,412.1
203.8994,50.9
203.9356,54.7
204.0245,39531.4
204.0331,765.5
204.0419,443.7
204.0561,58678.8
204.0594,126.4
204.0632,414
204.0867,364.6
204.1028,331.4
204.1623,236.4
204.2259,125.5
204.2378,156.5
204.2417,349.7
204.2462,218.7
204.3077,172
204.3399,423.5
204.3707,117.8
204.4159,246.9
204.5336,566.6
204.5878,319.8
204.6367,414.4
204.6605,318.9
204.6811,600.2
204.6911,92.3
204.7077,145.5
204.7876,388.2
204.8468,255
204.8894,1467.5
204.9514,90.3
204.9747,344.7
204.9952,19.9
205.0211,20.3
205.0282,421.2
205.0571,9645.2
205.0693,17.2
205.0836,89.9
205.1292,294.7
205.3023,266.4
205.3517,142.2
205.4451,479.9
205.4774,81.1
205.5396,55.3
205.5906,467
205.6292,483.1
205.6905,359.8
205.7373,166.1
205.8098,117.4
205.8125,169.9
205.8565,21
205.9104,49.9
206.0556,1849.9
206.1557,98.9
206.1866,98.9
206.1954,114.2
206.2141,365.8
206.3489,18.5
206.355,283.9
206.4201,188.5
206.454,713.7
206.4587,20.1
206.5135,128.2
206.6556,96.3
206.7049,322.9
206.7679,611.8
206.789,107.5
206.8941,19390.1
206.9649,592.1
206.9822,2863.8
206.9916,90.1
206.9949,21.7
206.9991,133.2
207.0051,314.8
207.0144,99270.8
207.0235,531.2
207.0443,2190.8
207.0509,10981.1
207.0781,18.2
207.0857,569.4
207.1994,364.9
207.2292,647.1
207.2485,130.1
207.2642,316.6
207.2665,121.4
207.28,56.9
207.4035,185.7
207.4109,128.3
207.4932,214.3
207.7681,105.3
207.7709,309.3
207.8169,18.3
207.972,139.2
207.9846,365.9
208.0139,1839.1
208.0179,2851
208.036,242
208.0625,88.2
208.1082,18.3
208.1668,137.8
208.1798,354.4
208.2197,495.2
208.5042,685.8
208.5214,187
208.5344,591
208.5621,264.6
208.6876,232.3
208.781,134.9
208.8047,712.4
208.8255,294.3
208.8833,48.8
208.8911,11277.2
208.8955,132.8
208.9354,1008.8
208.9544,273.7
208.9779,322.7
208.9815,407.9
209.0038,168
209.0125,5105.6
209.0464,134.2
209.1078,249
209.1174,117.4
209.1468,19.8
209.156,320.9
209.1694,420.7
209.3409,17.7
209.3901,607.3
209.3972,166.5
209.4586,82.2
209.4842,690.8
209.5281,686.4
209.6018,181
210.0572,18.1
210.7177,21.3
210.7292,265.4
210.8578,357.7
210.8882,986.5
211.0566,332.8
211.0693,1387.9
211.0822,113.5
211.1697,16708.7
211.1726,11128.7
211.1776,21221.9
211.1796,21144.3
211.1838,14629.1
211.187,20515.3
211.2229,280.4
211.3497,97.8
211.3625,129.9
211.5352,20.9
211.5618,128
211.57,375.5
211.6606,202.6
211.6742,18.6
211.7114,872.7
211.7276,232.4
211.7408,105.5
211.8291,361.8
211.8725,203.9
211.9716,284.8
212.0229,20.5
212.0309,422.1
212.037,331.8
212.0713,128.5
212.0742,124.7
212.1731,138.3
212.2493,137.3
212.4536,254.7
212.4657,112.6
212.4713,19.1
212.6151,99
212.624,502.1
212.6774,171.4
212.7684,600.6
212.7721,116.8
212.8095,650.3
212.8392,3496.1
212.8582,129.7
212.8763,95.1
212.9046,19.4
212.9504,341.7
212.9726,379.9
212.9748,1140.4
212.9789,752.4
213.0079,285.1
213.0548,810.5
213.0591,318.7
213.4078,79.9
213.6254,169.5
213.7497,18.1
213.7604,81.6
213.8497,69.5
213.9622,55.7
213.9847,506.1
213.9975,95
214.0065,570.4
214.046,609.8
214.0591,6915.3
214.0899,913.8
214.1564,140.4
214.2041,511.2
214.2352,424.3
214.3764,264
214.6023,223.1
214.6125,144.9
214.7316,242.6
214.8361,2951.9
214.9177,2793.5
215.0118,403.7
215.0191,108.3
215.0932,49.1
215.2479,194.1
215.2799,203.1
215.2951,73.7
215.3135,185.9
215.4568,97.4
215.4789,476.5
215.6435,553.4
215.6994,20
215.7178,115.5
215.7466,48.2
215.8922,239.9
215.9107,20.8
215.9214,106.6
215.9259,699.1
216.0073,109
216.0148,8858.1
216.0174,2111.3
216.0952,19
216.0984,46.9
216.1806,103
216.2184,359.7
216.2422,81
216.2623,176.6
216.2909,737.9
216.4351,629
216.4388,721.3
216.4906,454.5
216.6272,177.7
216.6911,91.2
216.7533,142.8
216.8408,623.1
216.9229,56675.4
216.9652,365.8
216.9847,20.9
217.0016,429.4
217.0186,675.7
217.036,220
217.0558,255.2
217.0685,774
217.3364,325.3
217.3866,419.6
217.4143,212.2
217.5726,311.3
217.6824,243.6
217.7076,328.7
217.7568,25.3
217.7846,18.4
217.7906,493.8
217.8861,184.7
217.9035,192.3
218.0211,372.7
218.1519,92.4
218.1766,113.3
218.1943,317.9
218.2191,449.4
218.2517,18.9
218.2856,198.1
218.4688,160.5
218.5459,748
218.5742,325.9
218.5821,776.9
218.5898,148.5
218.5949,436.8
218.6392,326.4
218.6527,176.1
218.6645,248.5
218.7234,767.4
218.8231,103.5
218.8602,183.1
218.8677,18.7
218.8922,92.9
218.9199,17362.6
218.9693,489.5
218.992,537
218.9984,479.7
219.0016,308
219.0054,335.8
219.0181,949.7
219.0267,1267741.6
219.0478,27.8
219.083,6246.3
219.2595,750.3
219.2656,177.5
219.3629,599.5
219.495,88.1
219.5313,89.4
219.5492,88.1
219.6647,19.1
219.7119,18.2
219.7292,18.2
219.7437,358.6
219.799,158.7
220.0204,88.9
220.0301,64561.6
220.0374,1506.3
220.0404,16.4
220.067,9073.1
220.0765,216.7
220.1414,311.7
220.1674,429.9
220.1836,132.2
220.2116,54.4
220.2362,122.9
220.3535,358
220.3701,347.8
220.3834,397.5
220.4412,50.1
220.4772,661.9
220.6949,105.9
220.7062,114.6
220.7179,306.5
220.7373,22.9
220.7842,310.2
220.7921,172.6
220.8523,158.8
220.8702,138.5
220.9348,750.7
220.9903,88
221.0186,386.4
221.0248,74778.5
221.031,9543.1
221.0401,413.1
221.0511,1156.2
221.071,362.1
221.0852,531.6
221.1849,694.9
221.2078,16.7
221.3932,316.6
221.4045,397.4
221.448,496.1
221.4597,19.9
221.4808,297.6
221.5243,181
221.5316,82.9
221.6065,74.9
221.6656,19.8
221.7412,245.2
221.7815,181.2
221.9492,95
221.9564,217.3
221.9837,2181.8
222.0277,2192.9
222.0891,1565.1
222.1387,137.9
222.2518,64
222.3589,218.7
222.3841,17.8
222.438,22.1
222.4467,108.2
222.4504,131.5
222.5075,513.4
222.518,691
222.5895,19
222.6555,618.1
222.7447,236.7
222.7904,17
222.868,17568.6
222.8791,1284.9
222.933,99.4
222.9884,10548.7
223.0246,427.2
223.037,1146
223.0411,96.4
223.0639,43.5
223.0823,529.5
223.1401,18
223.1578,332.4
223.2072,274.2
223.213,169.1
223.2866,163.8
223.3365,540.4
223.4431,289.8
223.4969,301.5
223.607,562.8
223.6234,179.4
223.8766,466.2
223.9213,1089.7
223.9532,49.2
223.9839,108.3
224.0245,21.2
224.0296,10377.2
224.1269,476.6
224.21,518.9
224.6129,466.4
224.7535,188.8
224.8131,94.3
224.8203,592.1
224.8247,373.4
224.8303,118.8
224.8579,231.9
224.865,10109.9
224.9385,108.9
224.9433,205.5
225.0355,1051.2
225.0549,26659.5
225.0629,346.4
225.0848,159.5
225.1254,278.8
225.1887,91.1
225.2515,86
225.3662,614.8
225.4084,361.7
225.466,184.1
225.5649,52.2
225.7601,271.6
225.7766,338.2
225.9525,58.4
225.9702,780.5
225.9931,276.2
226.0021,130.6
226.0064,2801.1
226.0243,8331
226.0453,11998
226.0514,118.8
226.2967,17.9
226.3379,205.1
226.3575,518.4
226.4884,266
226.6094,97.9
226.6881,159.8
226.7647,203.9
226.7741,136.8
226.8121,209.4
226.8307,95.8
226.8518,392.7
226.8616,1416.5
226.8966,96.9
226.9517,51994.1
226.9655,282.9
226.9712,680.8
227.0141,124.9
227.0344,1082.3
227.0433,332.7
227.0483,472.6
227.0613,200
227.0793,1236.1
227.0865,311.2
227.1185,417.6
227.1243,121.5
227.1657,423.2
227.178,45.7
227.2486,104.3
227.3029,96.3
227.4296,475.7
227.4504,200
227.4915,283.4
227.6666,329.6
227.7955,78.2
227.8141,106.2
227.8609,18.6
227.8779,95.1
227.9548,805.8
227.9641,294.1
227.9657,308.1
227.9824,132
228.0006,1110.4
228.0223,927.6
228.0845,377.4
228.1151,347.4
228.1718,104.3
228.2121,119.8
228.2532,167.4
228.2988,649.8
228.4178,113
228.5038,19.1
228.596,98
228.6093,24.1
228.7623,108.2
228.8133,1156.4
228.9015,94.1
228.959,94.8
228.9815,172.7
229.0109,653
229.0715,224.1
229.1033,568.8
229.1189,386.2
229.1863,100.5
229.2756,19.6
229.4665,194.3
229.5032,317.6
229.5787,383.3
229.6731,330.1
229.7937,525.2
229.7981,633.6
229.8432,97.7
229.9571,376.8
229.9861,476.4
229.9985,97.1
230.0176,194.8
230.0255,343.1
230.0301,261.9
230.0335,135.8
230.1723,247.4
230.1888,190.7
230.2213,673.2
230.4397,349.8
230.479,20.1
230.5527,17.8
230.5922,365.6
230.6606,111.7
230.7425,23.8
230.81,361.1
230.8375,22.9
230.9053,127.4
230.9266,53.6
230.9904,105.7
231.0101,115.3
231.0348,22
231.0563,177.5
231.0842,2193.9
231.2802,706.9
231.3299,17.8
231.4093,129.9
231.4136,426.9
231.5427,126.1
231.6029,552.8
231.7846,148.8
231.8164,555.3
231.8525,117.9
231.9385,90.8
231.9704,275.6
231.9954,338.9
232.0038,407.1
232.0224,21.2
232.0817,501.2
232.1718,345.6
232.3009,19.1
232.4031,134.9
232.5195,583.6
232.5353,21.8
232.5566,453.6
232.6788,170.1
232.7503,598.3
232.8798,91.9
232.8969,47591.8
232.9252,389.6
232.979,753.9
233.0243,122.1
233.0287,218.6
233.0421,311
233.0511,6559.2
233.1135,340.4
233.1546,131.8
233.1589,601.4
233.1894,18.2
233.3295,298.9
233.3345,94.2
233.3723,119.8
233.414,52.3
233.4264,225.6
233.598,353.8
233.6241,93
233.714,19.6
233.785,186.5
233.7949,403.5
233.8193,97
233.8417,127.3
233.8904,230.7
233.9404,57.2
233.9551,208.1
234.0638,412.5
234.2744,201.3
234.4223,567.6
234.4794,200.3
234.5435,340
234.6328,18.2
234.7248,246.9
234.7761,19.8
234.8938,11474.1
234.919,350
234.9666,92
234.9817,5786.5
234.9959,323.6
235.0522,397.5
235.057,3201.4
235.0669,1581.7
235.0927,27014.4
235.2573,100.3
235.3736,603.6
235.6083,239
235.7274,21.5
235.7512,125.4
235.7739,709.2
235.7942,198.3
235.8446,339.7
235.9572,95.9
236.0138,97.4
236.0215,145.9
236.0411,6694.1
236.0718,43448.8
236.0825,165.5
236.0889,150.4
236.0962,870.2
236.2398,409.9
236.2508,20.5
236.3835,164
236.4323,130.9
236.478,600.3
236.4821,48.8
236.5433,552.2
236.5623,248.1
236.5783,106.1
236.6009,18.3
236.6051,453.1
236.6181,20
236.6318,173.4
236.6533,98.1
236.6906,584.8
236.7928,91.7
236.8319,610.2
236.8839,367.4
236.8909,220.8
237.0752,2224.3
237.1672,20.7
237.2675,300.8
237.28,18.7
237.2958,118.8
237.4443,103.2
237.5226,164.5
237.5403,299.3
237.5855,608.4
237.6329,137.8
237.6586,503.6
237.7169,87.5
237.7197,165.4
237.7832,122.3
237.8186,183.3
237.8746,482.5
237.9906,97.6
238.0659,980.8
238.0766,41.4
238.0819,18.2
238.1884,24.4
238.2229,161.8
238.2695,98.1
238.3752,19.6
238.4403,81.9
238.4742,382.9
238.4987,268.3
238.5445,186.9
238.7187,360.9
238.8421,5674.4
238.8461,459.7
238.853,293
238.9053,107.4
238.9334,104.1
238.9452,696.5
238.9827,20.5
239.0548,215.8
239.0639,174.4
239.0679,1621.5
239.1078,692.7
239.1132,326.8
239.137,341.3
239.1789,216.6
239.2155,20.6
239.4881,19
239.5089,324.1
239.5461,232
239.6963,164.7
239.7128,17.4
239.8732,20.1
239.9064,136.7
240.0036,4330.5
240.0312,1616.5
240.0588,20.8
240.1003,607.9
240.1259,96.2
240.2027,142.1
240.3204,160.8
240.4616,86.7
240.5397,362.3
240.6559,223.3
240.8288,17.9
240.8391,1899.6
240.8801,20.1
240.9547,2151.1
240.9675,1829.7
241.0089,1338.1
241.0842,111.6
241.208,315.3
241.2855,88.8
241.304,263.9
241.4226,515.5
241.5579,248
241.5866,644.6
241.6275,475.1
241.7251,501.7
241.7434,733.5
241.8029,358.1
241.8497,130.9
241.8968,741.8
241.9477,497.4
241.9801,23.7
241.9986,684.9
242.0193,4379.5
242.0706,147.3
242.0735,168.7
242.1984,114.9
242.2407,189.4
242.3304,556.7
242.353,18.6
242.3689,598.3
242.4572,176.9
242.6391,17.7
242.7383,16.9
242.7751,174.9
242.8207,622.5
242.9257,26223.6
243.0225,499.8
243.027,19.4
243.0319,311.1
243.0462,459.6
243.0533,4249.8
243.0655,7795.5
243.1366,91.7
243.1746,331.5
243.3083,319.9
243.5316,356.9
243.5352,128.7
243.557,128.5
243.5773,323
243.6543,98.9
243.9135,635.9
243.926,138.9
243.9299,88.7
243.9728,240.6
244.0127,389.1
244.0686,1027.3
244.1716,620.9
244.1838,139.1
244.2526,21.7
244.3866,706.8
244.5804,441.1
244.6079,737.5
244.6445,514.2
244.7021,656.9
244.7243,186.8
244.8708,8812.7
244.9084,21.4
244.9241,1539
245.0013,474.2
245.0059,19.9
245.0141,22.1
245.0622,122.3
245.0947,174.6
245.1039,100.1
245.3805,96.2
245.4409,344.9
245.4766,346.9
245.4916,298.4
245.6028,591.5
245.6733,307.5
245.892,81.5
246.0015,204.3
246.0475,501
246.0615,22
246.0778,95.2
246.2548,330.4
246.2558,325.8
246.2722,53.9
246.5635,84.4
246.5768,260.7
246.6792,308.9
246.725,147.2
246.868,1438.9
246.8963,138.6
247.0108,311.6
247.0304,264.6
247.0369,216
247.0504,97.7
247.0581,1117.5
247.0667,758
247.0791,143.5
247.0928,7104
247.1324,727.1
247.167,149.2
247.4342,250.4
247.453,25.5
247.46,18.1
247.5799,159.3
247.6867,90.9
247.7622,121.4
247.8198,96.1
247.8751,204.3
247.8787,211.4
247.92,425.7
247.9921,79.8
247.9997,739.2
248.0539,22.1
248.0645,205.7
248.0741,19.5
248.0961,198.9
248.1198,975.3
248.1243,20996.2
248.1383,134.2
248.2671,203.8
248.2784,140
248.331,505.9
248.4002,301.9
248.456,17.7
248.5048,361.9
248.5426,638
248.814,126.3
248.8358,660.3
248.8709,13776.8
248.9515,334.3
249.0163,587.8
249.0567,374.8
249.0613,14875.4
249.107,185.9
249.1622,180.4
249.4732,191.6
249.4878,20.3
249.6324,149
249.7976,87.6
249.8205,20.7
249.8769,98.1
250.0184,295.9
250.0329,39
250.0487,298.3
250.0647,387
250.1024,370.5
250.1963,313
250.1997,394.6
250.2828,17.7
250.2955,282.9
250.3044,259.4
250.3271,158.1
250.3801,579.1
250.4126,21.6
250.4258,400
250.4659,182.1
250.5828,828.6
250.84,254
250.8677,2131.8
250.9025,458.2
250.9205,2043.1
250.9557,1590.7
250.9894,17.5
251.0006,55.5
251.0178,128.1
251.0341,665.2
251.3215,96.4
251.372,616.7
251.4035,303.6
251.4513,332.2
251.7818,108.8
251.8283,440.8
251.8412,180.9
251.8902,151.4
251.9335,354.8
251.9477,306.3
252.0152,514
252.037,192.2
252.0458,90352
252.0636,371.2
252.328,82.2
252.4888,81.1
252.5638,493.2
252.582,669.6
252.8541,50.8
252.8726,377.7
252.9174,1021
252.952,20
252.9599,111
252.9844,147.8
252.994,589.7
253.0492,4951.3
253.1514,223.3
253.3191,267.6
253.401,17.8
253.5397,468.3
253.5589,287.1
253.6027,426.5
253.6154,245.7
253.6284,23.4
253.705,450.5
253.767,101.4
253.8262,744.7
253.9196,139.4
253.9686,141.3
254.044,1885.7
254.11,56.6
254.1502,373.9
254.2571,398.5
254.2925,639.2
254.3107,417.1
254.3756,193.1
254.4195,333.5
254.4662,72.6
254.5351,381.9
254.581,55.2
254.8158,2016.1
254.824,9908.1
254.8997,1010.2
254.9039,18.7
254.9971,24.7
255.0331,21441.9
255.0376,273.2
255.0463,634.7
255.0752,623.9
255.2465,79
255.279,130.1
255.2911,103.6
255.3213,18.4
255.348,605.3
255.424,476.3
255.4686,153.9
255.5906,607.3
255.6051,96.6
255.7395,191.6
255.7713,661.3
255.785,829.4
255.8199,100.5
255.8273,392.6
255.8727,199.5
255.9117,240.2
255.9556,19.3
255.9787,1621
256.0308,295.5
256.0587,168.1
256.067,116.7
256.1853,118.5
256.3169,567.6
256.3279,100.2
256.3994,588.8
256.4148,711.6
256.5598,523.2
256.5745,391.7
256.5976,107.6
256.623,290.9
256.7402,141.5
256.7785,18.5
256.813,415.5
256.821,13856
256.8844,408.2
257.0266,405.4
257.0488,5922.6
257.0637,894
257.0747,56900.7
257.1275,142
257.1765,176.6
257.2175,338.9
257.285,148
257.3001,133.4
257.3131,142.7
257.5417,121
257.557,243.8
257.5912,171.8
257.6249,262.9
257.7399,240.2
257.8711,141.6
257.8819,515.2
257.9932,482.6
258.0303,74.4
258.0359,512.6
258.0683,115.5
258.0747,195.7
258.0781,2059.8
258.1104,12858.9
258.1369,327.1
258.3463,78.5
258.401,280.7
258.4184,558.5
258.4442,389.5
258.5586,751
258.6435,437.2
258.7754,385.4
258.8181,6059
258.8996,5352.6
258.9078,17.4
259.0281,934.5
259.0793,179.1
259.1141,163.4
259.1415,296
259.1573,147.3
259.2164,159.6
259.374,94.9
259.4016,607.9
259.4892,520.8
259.5576,479.2
259.6595,716.9
259.8566,18.8
259.8884,211.5
259.9124,17.9
259.9138,17.9
259.9369,18.9
259.965,426.9
259.9714,551.6
259.9894,22.3
260.0128,961.7
260.017,33.4
260.0738,259.5
260.4228,750.3
260.5499,139.8
260.6946,271
260.705,198.7
260.716,647.9
260.755,605.3
260.8448,3813.9
260.9492,8344
261.0463,538.5
261.1108,104.2
261.204,130.5
261.3676,18.8
261.4438,214.4
261.4851,275.1
261.6625,105.7
261.6997,277.9
261.7174,724.4
261.7358,75.6
261.7747,48.6
261.8101,153.4
261.9137,557.6
262.0645,22.1
262.0823,1353.9
262.1327,137.7
262.3515,795.9
262.493,20
262.4988,97.1
262.5025,594
262.6399,237.3
262.7065,341.1
262.7173,166.7
262.7348,263.3
262.7486,128.7
262.8506,455.1
262.8588,792
262.8671,190.2
262.9026,89.2
262.9163,335
262.9463,1387.4
262.9569,129.4
262.9661,838.4
263.0853,4868.1
263.2048,117.9
263.2657,410
263.3012,53
263.3477,19
263.3986,89.9
263.5214,202.1
263.6005,738.9
263.6404,302.3
263.6563,205
263.7236,103.3
263.9201,56.1
263.929,18.7
263.9863,126.3
264.134,292.3
264.3473,17.4
264.4228,19.5
264.4992,485.7
264.5818,284.3
264.6746,496.4
264.8235,335.3
264.8278,20.8
264.8344,227.8
264.8449,1767.1
264.8528,6639
264.8599,246.2
264.8623,129
264.9019,328.1
264.914,413.7
264.9885,32.9
265.0165,237.5
265.0353,9215.8
265.0474,2445.6
265.0531,369.5
265.2783,337.3
265.3027,228.2
265.3757,152.9
265.5068,622.5
265.5117,87.9
265.5347,439.4
265.7011,19
265.8744,617
265.9467,25.1
265.9732,610.8
266.016,118.2
266.0186,341
266.0245,152.9
266.129,383.2
266.1649,62.2
266.3155,701.9
266.3369,375.5
266.4891,246.7
266.5285,19.7
266.632,309.3
266.6649,274.6
266.6883,242.7
266.6901,267.1
266.692,131.1
266.8422,406.8
266.85,4560.9
266.8942,2344.7
266.9299,318.3
266.9411,689.5
267.0134,112.5
267.0591,422.6
267.2168,407.9
267.369,396.3
267.5454,576.3
267.5693,123.5
267.6126,401.2
267.7566,272.8
267.7611,141.1
267.7965,61
267.91,696.1
267.9147,227.6
267.9253,304.7
268.0321,123.7
268.036,634.1
268.1199,285.9
268.1311,18.4
268.1626,726.4
268.1792,418.8
268.2413,95.7
268.8473,517.8
268.8909,1412.4
269.0121,73.4
269.0324,195
269.0358,242.8
269.0395,699.2
269.0449,17798.7
269.0488,37479.7
269.0747,360.9
269.1031,709.3
269.1343,139.2
269.436,191.2
269.466,150.9
269.5025,188.6
269.5436,268.9
269.8406,163.9
269.9424,20.5
269.9494,540.3
269.9752,203.8
269.9939,2613.2
270.0249,960.6
270.0295,17.3
270.0475,28131.1
270.0522,844.7
270.0647,21.3
270.085,20
270.1452,1358.5
270.1993,52.3
270.2838,87.5
270.317,731.4
270.333,428.6
270.3938,441.6
270.498,55.6
270.5928,285
270.6366,643.4
270.6417,583.1
270.798,4824.2
270.8642,86
270.9403,135
270.9781,16446.8
270.9857,304.2
271.0068,398
271.0239,378.4
271.0508,404.2
271.0786,132
271.0903,394.3
271.219,510.4
271.3013,20.2
271.5923,723.1
271.6453,124.6
271.6559,109.8
271.7155,139.5
271.7252,104.2
271.817,195.9
271.8265,377.9
271.8368,554.1
271.8513,210
271.8623,85.7
271.9113,298.1
272.0203,20.7
272.0435,91.7
272.0487,84.1
272.0806,352.6
272.1579,32.7
272.3904,19.3
272.4459,114
272.508,288.7
272.5728,263.8
272.6184,328.3
272.6979,141.1
272.7738,17.8
272.7951,5562.9
272.8064,159.1
272.8233,491.4
272.9066,810.5
272.9204,147.7
272.983,319
273.0295,215.3
273.0486,5249.1
273.0817,20.1
273.1712,19.3
273.2915,18
273.3111,83.9
273.4027,376.1
273.5852,77.6
273.59,136.6
273.5999,267.7
273.6612,462.7
273.7135,505.8
273.8519,160.9
273.9624,221.9
274.0405,78
274.0513,142.5
274.0692,297.1
274.0802,110.4
274.0923,1189
274.1235,20.3
274.2151,46.6
274.3187,184.3
274.5108,19.9
274.5782,326.1
274.6171,247.4
274.6487,20.8
274.7416,178
274.7673,253.1
274.7918,1946.6
274.7972,18.1
274.8734,1335.3
274.8814,824.7
274.8889,207.9
274.9476,19.3
274.9738,283
275.0025,621.7
275.0667,349.8
275.3356,571
275.3626,654.4
275.3676,708.5
275.8236,83.3
275.8341,83.6
275.9389,497.3
275.9445,55.8
275.9821,193.2
276.0036,44.2
276.085,111.2
276.1973,428.3
276.4034,184.7
276.4764,102.7
276.6213,18.3
276.7723,276.1
276.8191,472
276.8992,370
276.9232,7030.2
277.0056,143.4
277.1574,182.5
277.1716,181.1
277.1932,17.2
277.4814,381.1
277.5632,409.1
277.6514,161.2
277.669,166.1
277.7459,134.1
277.8333,20.7
277.8541,122
277.8603,650
277.8718,114.6
277.9414,213.7
277.9713,163.5
278.0008,23
278.0131,180.5
278.0192,509.2
278.028,153.5
278.1777,176.4
278.3809,251
278.5031,85.8
278.5046,86.5
278.7023,702.6
278.7277,398.9
278.7562,170.6
278.7683,20.1
278.798,771.6
278.803,21.4
278.8936,2666.6
278.9201,1891.8
279.0567,34549.1
279.1976,169.8
279.2497,112.3
279.3989,760.7
279.4031,137.1
279.5032,479.3
279.6571,758.6
279.6704,20.5
279.688,18.4
279.7222,132.1
279.7983,166.4
279.8197,292.6
279.8382,133.4
279.8399,166.4
279.8423,134.6
279.8487,272.6
279.8549,230.1
279.9789,375.1
279.9992,21.5
280.016,256.1
280.0604,655.1
280.1035,153
280.1513,464.7
280.2124,557.8
280.3567,17.5
280.4581,126.6
280.473,77.4
280.5624,115.4
280.8267,4143
280.832,158
280.8626,191.2
280.9157,179.4
280.9246,18.7
280.9312,333.2
280.9386,134.7
280.943,125.2
280.9624,1093.3
281.0096,2744.1
281.017,17.1
281.0515,186.9
281.3328,348.4
281.353,237.2
281.428,924.9
281.4591,85.6
281.4946,770.6
281.5093,259.3
281.5349,261.9
281.6658,22.3
281.7422,18.3
282.0152,208.7
282.0649,488.1
282.1224,647.5
282.4685,96.8
282.5189,251.5
282.5614,158.8
282.69,163.7
282.8239,2306.7
282.8682,503
282.8758,750.8
282.9053,24.8
283.0281,600.4
283.0503,21.4
283.068,19.5
283.1592,105.6
283.199,19.5
283.2633,28.4
283.3743,101.9
283.4156,20.5
283.5122,123.8
283.5353,170.2
283.8281,58.8
283.9387,21.1
283.9795,20.5
284.0121,263.3
284.0138,278
284.0158,193.5
284.0535,84.5
284.0632,190.1
284.0808,320.6
284.1044,388.6
284.2301,811.5
284.3013,245
284.3305,741.5
284.649,303.8
284.6954,19.5
284.8088,210.8
284.8703,19.9
284.9336,153.1
285.0039,124.4
285.0234,249.4
285.0671,25.4
285.1117,20.3
285.1511,244.6
285.3557,21
285.3598,293.7
285.4339,345.1
285.4873,245.7
285.5504,134.9
285.5592,130.8
285.6744,456.3
285.6916,360.1
285.8026,258
285.8795,744.2
285.9683,1949.4
285.9798,544.7
286.0199,268
286.0787,504.1
286.0963,87.1
286.1997,572
286.3017,155.1
286.6283,459.7
286.6373,108
286.6431,373.7
286.7442,136.6
286.7719,2722.2
286.7817,801
286.8066,290.8
286.943,19.4
286.9521,8380.7
286.9985,61.4
287.0082,163.7
287.0395,179.2
287.0555,38148.8
287.07,429.1
287.2026,162.2
287.2055,239.3
287.2517,21.1
287.2801,101.9
287.2939,314
287.3546,142.4
287.4497,172.1
287.484,171.6
287.4863,304.1
287.4883,253.8
287.5923,481
287.6537,149
287.6727,301.5
287.7524,97.9
287.8267,84
287.9775,217.3
288.0587,1579
288.0705,479.8
288.0851,106
288.0975,689
288.1557,23190.2
288.1782,768.6
288.3449,461
288.3772,236.5
288.4499,169
288.5245,104.8
288.6533,190.7
288.6865,102.7
288.6933,104.8
288.769,2471.5
288.8218,424.1
288.8666,763.7
288.8687,437
288.8747,2079.6
288.8779,1320.6
288.8821,1980.3
288.8859,1933.2
288.8945,8223.2
288.8999,7265.2
288.9038,9450.7
288.9155,10857.2
288.9235,20109
288.9311,19297.9
288.9365,20933.5
288.9452,19980.2
288.9506,18752.9
288.9552,10371.4
288.961,12325.1
288.967,7641
288.9722,8845.4
288.9774,7454
288.9838,8192.8
288.9877,7759.9
288.9987,2850.7
289.0081,2567.4
289.0178,946.5
289.0264,258.6
289.0629,84.7
289.0843,201.2
289.0923,21.1
289.1583,388.5
289.2177,570.6
289.494,18.7
289.8102,228.7
289.9569,640.5
290.0369,533.2
290.1001,23.7
290.1068,176.6
290.1268,105.4
290.1334,598.3
290.2525,135.2
290.3902,176.9
290.5715,24.4
290.5981,542.2
290.636,266.3
290.675,71.4
290.7658,1157.4
290.8134,140.3
290.8342,265.5
290.8434,237
290.8675,449.4
291.0269,2415.5
291.0363,229.7
291.0477,157.2
291.1126,504.9
291.1181,18.9
291.1956,206.7
291.2053,643.3
291.2325,22.9
291.2412,126.6
291.5766,102.3
291.5991,310.4
291.9382,19.1
291.9651,410.5
291.9875,117.9
292.0167,131.3
292.0798,201.9
292.145,94.8
292.1606,23.9
292.1751,746.8
292.326,446.5
292.3745,95.2
292.3942,600
292.5055,132.7
292.5217,16.3
292.5231,16.9
292.5676,866.5
292.6463,51.5
292.6902,539.2
292.7703,18.2
292.8762,142.3
292.8977,604.4
293.0726,1868.9
293.089,152.6
293.0984,516256
293.106,223.1
293.1079,108.6
293.1179,708.7
293.1694,108.5
293.1793,4858.3
293.2096,144.7
293.2806,762
293.2948,190.9
293.4452,682
293.5572,249.9
293.7759,37.3
293.9477,610.9
293.9604,196.9
293.9998,19.5
294.0065,55.4
294.0371,552.5
294.0954,1368.9
294.1017,46712.6
294.2003,373
294.2677,103.6
294.2716,287.4
294.3069,91.6
294.3897,692.5
294.4209,231.2
294.7764,456.8
294.8671,849.9
294.8947,21.9
294.932,88.7
294.9898,679.9
295.0256,342
295.0308,1477.8
295.0401,506.6
295.0809,120.1
295.1026,4442.9
295.1948,31104.7
295.2431,516.7
295.382,18.2
295.4055,305
295.4723,375.9
295.5202,722.6
295.6232,158.1
295.7845,170.4
295.802,218.3
295.8659,549.4
295.9521,381.5
296.01,1168.6
296.0357,221.2
296.0911,100.9
296.1028,90
296.1063,597.1
296.1981,3572.8
296.2099,186.4
296.241,20.8
296.2581,213.8
296.4858,690
296.5511,629.4
296.5988,606.8
296.6309,273.8
296.6475,266.1
296.6816,558.4
296.6947,172.8
296.9256,189.2
296.9364,441.7
296.9877,288.6
297.0135,136.6
297.1363,18
297.1634,411.1
297.2035,138.1
297.2303,191
297.3049,107
297.3658,19.4
297.4789,156.4
297.5151,546.7
297.7986,525.6
297.9417,610.8
298.0253,1358.8
298.0425,16781.6
298.1786,160
298.1836,359.4
298.3491,191.4
298.6194,263.9
298.6638,399.3
298.668,381
298.798,361.5
298.9864,92.1
299.01,419.3
299.0227,612.5
299.0457,1340.1
299.0619,50.8
299.1397,1644.9
299.1507,532.4
299.1961,793.6
299.3024,20.3
299.3274,115.9
299.5079,47.4
299.6301,128.8
299.7497,270.3
299.8366,131.3
299.9915,23.2
300.0043,1137.8
300.0385,258.5
300.0489,74.6
300.0757,646.3
300.1259,271.2
300.172,188
300.1962,21.1
300.3184,136.3
300.3556,100.2
300.4194,165.3
300.6566,19
300.7984,195
300.976,49.6
300.9802,411.4
301.0116,190
301.0387,19293.6
301.0473,522.3
301.0723,173.1
301.1415,574.3
301.2117,2519.7
301.4537,372.3
301.5181,553.8
301.5387,93.4
301.6357,706
301.6512,23.3
301.7075,546.1
301.7199,97.7
301.7278,259.7
301.7971,519.5
301.8583,122.9
301.9704,372.1
302.0203,116
302.0354,117
302.0421,501.5
302.0513,22.2
302.0642,5368.3
302.0741,21.7
302.1143,316.1
302.2035,83.2
302.2668,20.1
302.3239,99.2
302.3392,323.7
302.4005,169.9
302.5339,113.5
302.6621,333.8
302.6688,1772.9
302.6711,1689.5
302.6738,810.3
302.6822,417.4
302.6971,714.6
302.7117,18
302.7456,346.4
302.7594,132.4
302.7796,105.5
302.8295,4022.5
302.9047,670.1
303.0079,523.5
303.0163,185.6
303.0535,393.7
303.0675,523.8
303.0745,409.7
303.2176,3192.2
303.3992,126.5
303.4188,467.3
303.4505,444.2
303.5368,289.9
303.561,592.9
303.7297,338.5
303.7885,234.7
304.0168,607.1
304.0597,255.4
304.0921,686
304.2734,543.3
304.3543,20.4
304.4961,237.7
304.7048,273.3
304.8268,3180.2
304.8424,361.5
304.8957,623.6
304.9498,86.9
305.0674,19.4
305.1377,184.3
305.157,470.8
305.2055,114.3
305.2326,647.9
305.2808,441.4
305.5352,153.7
305.5492,690.6
305.6724,839.7
305.7638,185
305.8931,118.8
306.0241,27.5
306.0383,222.2
306.0957,125.7
306.2147,295.4
306.2572,17
306.4871,246.9
306.5408,56.2
306.6032,763.8
306.6428,241.5
306.6915,284.8
306.7954,493.1
306.885,96.9
306.9578,1797.1
306.9774,3153.6
307.6607,385
307.8763,19.1
307.9319,129.8
307.9566,388.2
307.9749,22.6
308.0276,638.9
308.0353,378.4
308.0486,182.9
308.1074,165
308.1271,404.5
308.2711,723.7
308.2789,126.7
308.326,411
308.3741,184.2
308.4114,246.1
308.5262,235.5
308.588,17.5
308.8232,139.9
308.8306,432
308.8791,3032.1
308.8891,461.1
308.9047,646.7
308.9479,400.7
309.0082,501.9
309.0377,3867.6
309.3786,165.6
309.3899,361.8
309.4197,316.3
309.4731,248.7
309.537,485.3
309.6268,258.2
309.7427,21.8
309.7694,594.2
309.9095,94
309.9731,126.3
310.0919,367.2
310.2398,727.8
310.2517,22.8
310.4741,343.8
310.5474,144.1
310.8272,18.6
310.8763,2592.2
310.9135,808.6
310.9154,851.1
310.9993,250.4
311.0031,189.5
311.0532,102.1
311.1755,119.2
311.2561,729.1
311.2678,622.9
311.2708,603.2
311.2873,64.3
311.3316,246.2
311.7212,722.6
311.7559,722.7
311.8916,183
311.9807,23.3
312.014,244.5
312.0412,2051.3
312.0585,660
312.3929,159.6
312.5503,380.7
312.6973,391.4
312.8582,1352.8
313.0023,102.5
313.0364,718.4
313.1372,280.8
313.2465,228.5
313.2741,30459.3
313.3842,273.7
313.3889,103.8
313.5396,307.5
313.6285,52.7
313.8489,100.3
313.8605,527.7
313.9329,245.4
314.0149,180.7
314.0912,131.9
314.2774,5873.9
314.6746,140.1
314.7263,165.7
314.7803,431.6
314.8371,5398
314.9995,4633.3
315.0049,331.1
315.0265,261.8
315.0303,188.3
315.0322,215
315.0453,250.2
315.0475,517.8
315.0494,983.8
315.0553,6183.5
315.0599,1851.7
315.0619,4858.9
315.0644,5173.1
315.0668,18667.5
315.0697,26758.2
315.0735,19173.1
315.0803,7133522
315.0871,24101.8
315.0901,15543.3
315.0922,11102.4
315.0944,6954
315.0966,4994.4
315.0987,4080.8
315.1007,3584.5
315.1028,1939.6
315.1051,2079.7
315.107,2022.7
315.1094,763
315.1113,788.4
315.1135,791.7
315.1153,521.6
315.1244,116.8
315.126,117
315.1471,164.5
315.1614,4138
315.1889,438.1
315.2115,20.2
315.2432,125.5
315.2594,529.5
315.3238,6637.5
315.3886,285.5
315.4863,686
315.5139,142.7
315.6177,87.9
315.7251,245.6
315.7366,378.5
315.7875,360.2
315.9549,616.4
316.0527,90.5
316.0684,1499
316.0777,37899.4
316.0836,751228.9
316.1577,88.8
316.165,183.8
316.3339,353.7
316.3892,130.2
316.4491,657.7
316.471,35.5
316.5174,110.4
316.5629,103.2
316.6185,248.4
316.7762,354.4
316.7944,643.9
316.7999,19.7
316.828,402.6
316.8722,85.4
316.9615,196.4
316.9868,3593.1
317.0029,164.8
317.0141,839.5
317.0425,698.7
317.0561,819.5
317.0652,2302.6
317.0714,103.9
317.0841,85083.2
317.0881,15323.9
317.2248,20.9
317.3488,376.7
317.4994,178.1
317.5064,162.6
317.6096,269.9
317.7231,734.8
317.7537,724.2
317.9461,18.2
317.9773,19
317.9986,151.9
318.0137,169.8
318.0877,7712.6
318.1359,247.4
318.2143,493.2
318.2419,393.8
318.3414,18.1
318.3455,17.5
318.5137,571
318.6403,108.2
318.7109,109.8
318.8035,2128.4
318.8407,235
318.9079,496.9
318.9523,302.9
319.0293,410.6
319.1948,51317.2
319.239,334.9
319.2434,346.3
319.4886,316.2
319.5485,210.5
319.6911,172.3
319.7245,532.6
319.8729,623
319.9876,164.5
319.9934,103.4
320.0096,289.2
320.0178,22.3
320.0288,19
320.0582,671.5
320.0748,229.3
320.1474,21.7
320.1982,4594.7
320.2282,761.1
320.2589,1887
320.4685,20.8
320.5461,540.9
320.559,420.1
320.8007,1534.2
320.8115,134.5
320.8662,218.7
320.9033,142.4
321.2105,51245
321.2624,86.3
321.3304,504.1
321.4531,603.2
321.5009,163.5
321.5318,44.2
321.5376,101.6
321.5779,636.3
321.6645,255.3
321.6884,277.3
321.7421,97
321.8693,128.4
321.878,98.3
322.003,564.9
322.0099,573
322.214,7226.4
322.3218,130.8
322.3789,137.5
322.6627,218.4
322.6811,20.1
322.7388,216.4
322.8517,238.7
322.9317,680.7
322.9461,543.2
322.9987,331.7
323.0206,12103.1
323.2263,4786.8
323.2429,707.3
323.2883,18.4
323.3551,327
323.3743,339.8
323.3894,98.9
323.3964,128
323.5559,586.2
323.6221,244.2
323.658,284.8
323.911,139.4
323.9775,560.2
324.0046,97.8
324.0356,178.8
324.0499,354.3
324.1768,361.9
324.2639,99.4
324.3046,272.3
324.5559,1563.6
324.5616,3656.3
324.5695,4010.7
324.5749,3485.1
324.5814,2439.6
324.5917,702.5
324.6759,105.6
324.6805,90.5
324.7628,410.5
324.8087,1307.4
324.8531,2276.7
324.9198,876
325.003,627.8
325.0179,334.9
325.054,23.3
325.1814,86.7
325.2119,1987.9
325.5916,91.2
325.6242,272.6
325.6644,848.7
325.8862,207.1
325.923,114.2
325.941,343.8
326.0049,33.1
326.1107,135.5
326.6602,309.4
326.8501,1721.5
326.9597,285.9
327.0155,7568.1
327.0522,2779.3
327.2275,7281
327.5684,84.7
327.6142,142.5
327.9111,286.1
327.9264,619.2
328.0151,992.8
328.0994,271.2
328.1743,695.2
328.1918,186.8
328.2316,833.3
328.377,141
328.4051,109.8
328.4113,385.9
328.4371,322.7
328.441,314.7
328.5049,20.2
328.7404,380.8
328.7638,100.9
328.8332,670.6
329.0101,138.3
329.0834,17
329.096,1623.2
329.228,150.9
329.4855,283.2
329.7367,141.7
329.835,23
329.8611,114.9
330.059,227.6
330.069,26.2
330.279,20.5
330.3414,620.4
330.4221,18
330.6047,269.4
330.7605,239.9
330.7849,19.2
330.9035,17.1
330.9065,18.1
330.9214,270.7
330.9919,308.9
331.0198,651.1
331.0455,131816.8
331.0543,1024031.4
331.2617,93.6
331.2948,730.4
331.3254,432.1
331.3684,86.6
331.7238,166.2
331.8736,271.8
332.0483,9276.1
332.0576,91415.7
332.2351,92.8
332.5096,172.7
332.7602,130.1
332.8022,311.7
332.8404,523.9
332.9611,2017.8
332.9868,210.7
333.0524,58745.9
333.058,11280.1
333.2709,438.5
333.293,306
333.5768,436.8
333.6158,18.6
333.6505,141.6
333.6598,236.7
333.74,587.9
333.9648,376.8
334.0558,5479.6
334.0902,89.2
334.2714,506.5
334.3396,91.3
334.572,58.8
334.6205,158.8
334.7618,99.7
334.7943,502.8
334.914,312.7
334.9644,92.4
334.9828,18.2
335.0386,492.9
335.2512,499.6
335.3555,255.8
335.4498,20.3
335.4645,340.2
335.6482,226.4
335.7051,216.4
335.7263,305.2
335.8556,91.5
336.016,670.6
336.0371,94.2
336.3192,768.7
336.4439,477.9
336.4924,23.2
336.8495,266.2
336.8564,81.3
336.985,567.1
336.9965,127
337.0362,8526.8
337.0499,19515.7
337.0623,601012.4
337.2509,113.5
337.2745,4463.3
337.3043,101.8
337.7766,115.2
337.7966,20.6
338.0501,247.2
338.0656,54615.4
338.0958,760.8
338.1829,358.8
338.2777,400
338.457,711.7
338.4989,143.1
338.6627,374.1
338.7103,394.9
338.7287,589.9
338.7859,1011.8
338.7982,144.4
338.8959,236.5
338.9215,2342.7
338.957,130.7
338.9946,382.8
339.0384,1481.5
339.0474,861
339.0662,4958.5
339.2011,504
339.2509,2298.3
339.29,3700
339.5058,251
339.5248,353.2
339.5787,90
339.6402,322.5
339.7203,140.9
339.7425,93.6
339.7616,202.5
339.9657,19.9
340.129,541.6
340.1527,18.7
340.188,400.4
340.387,408
340.5856,217.7
340.6196,292.6
340.7826,1534.5
341.0186,78
341.2124,321.1
341.2509,19.8
341.3056,3237.8
341.3189,208.9
341.3249,332.2
341.3569,337.4
341.4625,111
341.4795,255.9
341.7026,439.8
341.7308,93.8
341.9102,92.6
342.0154,56.3
342.073,96.8
342.2009,480.7
342.2977,52.2
342.3899,112.8
342.734,128.9
342.869,708.9
342.9365,139.9
342.9898,1209.3
343.0129,622.4
343.0805,229
343.1948,11608.3
343.2571,189.2
343.4564,143.1
343.4977,118.1
343.5704,127.8
343.6015,142.9
343.6659,81.5
343.8107,240.6
344.1704,17.9
344.3134,693.8
344.3379,137.6
344.4261,20.3
344.7103,223.3
344.7605,382.7
344.8528,20.4
344.8663,539.2
345.034,92.3
345.2104,4461.7
345.2689,17
345.321,19.6
345.5432,433.6
345.5939,51.1
345.7521,547.3
345.7656,84
345.8003,114
345.8409,238.1
345.9155,468.1
345.9747,429.4
345.9841,434.5
346.0104,37.4
346.026,1018.9
346.0411,31.6
346.3289,209.3
346.5692,49.9
346.8639,510.4
346.892,283.2
346.9712,551.8
346.9893,755.1
347.1169,203
347.275,98.2
347.3494,20.2
347.3719,17.2
347.4393,714.9
347.6701,140.9
348.0467,97.8
348.1247,18.6
348.2325,113.4
348.2515,159.5
348.3471,90
348.4963,678.4
348.7622,152.9
348.8162,387.4
348.9087,220.7
349.0082,20.7
349.1204,302.7
349.1597,105.8
349.2701,751.8
349.3063,382.6
349.3295,376.7
349.5323,251.2
349.5705,520.3
349.6214,330.1
349.6594,125.8
349.6779,296.7
349.8509,51.8
349.9494,19.3
350.0036,26.5
350.0141,29.4
350.2962,504.1
350.4585,401
350.5232,91.8
350.6268,488.8
350.7554,293.5
350.7992,391.2
350.811,514.7
350.9008,907.1
350.9263,668
351.0575,106.7
351.2647,17
351.2921,113.2
351.4193,18.6
351.5277,378.8
351.5979,71.4
351.7487,676.7
351.761,151.6
351.8044,91.5
351.9341,24.6
352.0174,591.4
352.0702,306.3
352.0863,460.8
352.099,307.7
352.3166,110
352.3575,17.7
352.5405,26.3
352.6991,784.8
352.7441,122
352.7541,253.9
352.8095,109.1
352.8227,111.5
352.8616,141.4
352.8984,1661.1
353.0274,128035
353.0362,187909.8
353.119,106.5
353.1277,380.6
353.4101,157.6
353.4934,21.6
353.5678,110.6
353.6983,341.7
353.7541,269.6
353.7657,98.2
353.813,168.3
354.0306,9134.9
354.0396,16239.6
354.1044,189.1
354.152,20.3
354.5153,20.8
354.6298,19.8
354.8386,357.8
354.8946,559.1
354.9423,80.6
355.0122,2271.3
355.0344,10885.6
355.0476,387.7
355.0706,686.5
355.1869,92.6
355.2772,111.6
355.3238,184.4
355.5202,679.4
355.697,268.5
356.0151,107
356.0708,23
356.1336,22.3
356.2134,423.4
356.2161,627
356.2184,693.1
356.612,131
356.7073,100.8
356.7745,74.8
356.8603,356.1
356.9068,200.3
357.0089,830.7
357.0675,137.8
357.1399,28.2
357.195,219.1
357.4577,19.7
357.5832,73.7
357.5877,286.3
357.6146,142.6
357.6179,260.3
357.6217,949.5
357.626,689.9
357.6359,190.9
357.6439,392.6
357.7029,102.3
358.0212,329.4
358.1698,556.5
358.1779,215.6
358.3645,17.6
358.4491,651.4
358.5082,385
358.8438,381.1
358.8784,277.2
358.9094,138.2
358.9758,411.7
359.0082,720.4
359.0318,10366.1
359.0442,321354.3
359.1358,93.6
359.1509,200.5
359.1751,1029
359.1811,289.3
359.1925,90.7
359.2062,134.7
359.2233,112.2
359.5137,130.9
359.5457,273.7
359.5808,696.2
359.585,875.7
359.5906,403.7
359.6112,513.8
359.623,729.6
359.634,943.2
359.6509,1003.6
359.6622,21
359.6734,260
359.6761,405.3
359.6822,370.3
359.696,212.1
359.7059,71.2
359.7128,481.2
359.7158,465.2
359.7613,306.6
359.7681,241.1
359.9479,130.3
359.9904,16.8
360.0476,29322.3
360.2692,898
360.3242,355
360.5397,558.6
360.7887,330.2
360.8168,510.6
360.8498,102.2
361.0203,3162.3
361.0306,737.8
361.0481,1727.7
361.1085,318.8
361.1243,361.5
361.2348,134.2
361.2747,97.3
361.3267,26.1
361.3488,283.5
361.3869,135.6
361.654,20.1
361.6678,102.6
361.7201,176
361.8669,384.2
361.9444,24.4
361.9899,367.9
362.0389,51.8
362.2611,114.4
362.2765,18
362.424,160.5
362.4678,184.6
362.5001,106.3
362.5107,531.7
362.6625,270.4
362.6882,855.2
362.927,1824.6
363.0276,90.4
363.0927,221.2
363.1177,744.4
363.149,643.1
363.1945,324.4
363.5203,366.4
363.5359,722
363.5417,321
363.7326,105.9
363.8058,501.9
363.8699,83.3
363.9995,398.1
364.0559,916.4
364.0798,131.4
364.2535,493.8
364.4396,364.7
364.5552,501.8
364.614,91.1
364.6287,17.3
364.6932,17.5
364.8782,92.9
364.9376,19.7
365.0496,454.3
365.1056,4798.7
365.164,527.3
365.2188,102
365.4421,791.8
365.5283,19.2
365.5383,89.5
365.6036,48.4
366.23,301.2
366.2787,117.8
366.5132,172.8
366.6674,161.4
366.6816,21.2
366.7732,233.5
366.8727,334.2
366.9129,462.1
366.929,539
367.0729,570.6
367.0865,599.6
367.1129,267
367.1217,1864.6
367.1947,1490.2
367.2181,59.3
367.2819,21
367.3829,139
367.389,124.6
367.4456,95.1
367.4771,296.2
367.6766,231.3
367.7657,310.8
367.8689,161
367.8981,591.6
367.9562,725.9
367.9916,20.6
368.1766,184.2
368.1952,106.1
368.3715,21.3
368.7222,109.2
368.8551,380.3
368.9031,248.1
368.9846,215
368.9929,997.6
369.0013,16549
369.0101,6372.1
369.1846,180.3
369.3518,125.4
369.5397,18.3
369.5487,413.4
369.8586,187.4
369.9753,110.9
370.1598,87.7
370.382,569.8
370.3901,443.3
370.7404,651
371.0416,961.2
371.0543,242.6
371.0965,151.2
371.171,214.2
371.43,362.5
371.4394,18.5
371.7758,305.4
371.8492,115.2
371.9476,61.8
372.0733,149.7
372.1005,100.2
372.5281,524
372.5885,449
372.8202,130.8
372.9787,495.6
373.0682,393.4
373.1704,132
373.2368,122.6
373.2976,124.2
373.4608,505.1
373.6989,429.4
373.7738,567.6
373.8497,309.4
373.908,753.8
374.0635,206.2
374.1306,643.7
374.1696,445.8
374.312,90.5
374.3924,94.8
374.5308,261.9
374.5532,94
374.5854,401.4
374.6283,129.9
374.7364,444
374.8505,20.6
374.9483,97.6
374.9833,284
375.0093,118052.6
375.0182,97580.2
375.033,139.2
375.1132,571.6
375.1697,321.5
375.2411,226.7
375.2782,178.8
375.4684,523.6
375.5943,153.7
375.6095,94.2
375.8178,20.5
375.8476,19.2
375.8871,102.9
376.0126,8332.5
376.0216,8921.4
376.1574,46.5
376.3205,381.1
376.4338,1267.9
376.6096,20.3
376.6392,91.2
376.6452,633.5
376.7068,181.9
376.7922,175.8
376.9941,872.4
377.0165,5560.3
377.6331,792.1
377.7147,890.5
377.9573,203.7
378.0227,140.2
378.1704,514
378.3348,362.7
378.415,268.3
378.5005,110.8
378.6404,148.9
378.9012,1162.6
378.991,62.9
379.0739,21.1
379.1075,211.9
379.1908,362.1
379.2575,344.9
379.2739,672.1
379.3181,694.6
379.4112,325.3
379.7446,400.8
379.84,19.4
379.8498,129.8
379.9077,221.5
379.9707,77.7
380.0045,56.1
380.0253,147.4
380.0937,389.2
380.1682,222.7
380.4281,263
380.6583,337.9
380.7707,972.3
380.8169,93.4
380.8888,476.3
380.9897,48.2
381.0137,19007.7
381.0262,183867.1
381.0793,809.2
381.2414,366.9
381.321,152.8
381.4171,568.9
381.4365,335.1
381.915,559
381.9306,21.7
382.0043,344.2
382.0295,14788.1
382.1979,100.3
382.3846,478
382.4462,142.8
382.5353,53.4
382.7568,121.7
382.7673,1788.8
382.8877,549.7
383.0119,650.8
383.0227,140.6
383.0305,136
383.1164,168394
383.2122,508.6
383.4346,123
383.5212,656.9
383.5569,516.1
383.6392,21.3
383.6509,103.1
383.8632,305.7
384.1199,18509.5
384.1822,123.1
384.2317,349.6
384.3066,25.1
384.6689,636.8
384.7506,155.3
384.7646,527.4
384.9381,279.2
384.9525,55.2
384.9608,102.2
384.9681,124
385.1868,823.5
385.409,145.4
385.6534,56.8
385.6648,75
385.8435,167.3
385.8541,382.3
385.865,503.5
386.2946,131.6
386.5596,142.5
386.6192,91.5
386.6951,175.8
386.9726,95.7
387.0022,699
387.0818,100.5
387.2944,18.3
387.3313,354.1
387.5521,135.2
387.6014,119.9
387.6082,86.4
387.6796,254.9
387.7949,394.4
387.8576,20.3
387.8884,119.2
388.1865,961.5
388.194,48.4
388.2838,404.1
388.2902,85.3
388.4528,134.7
388.6669,19.2
388.7127,994.1
388.7258,673.1
388.7368,141.5
388.9628,144.4
389.1751,135.1
389.2522,113
389.3169,99.9
389.3988,250
389.5306,105.7
389.9742,1387.5
389.994,22.7
390.1273,372
390.2736,126.3
390.3984,186.6
390.4891,277.7
390.6421,516.5
390.7104,501.6
390.7991,2256
390.8176,19.7
390.825,509.4
390.8389,662.2
390.8536,390.5
390.8572,377.3
390.8874,149.1
390.8918,174.7
390.9236,177.3
390.9742,10386.8
390.9831,19247
390.9921,11431.3
391.0622,104.5
391.1219,133
391.1733,93.6
391.2712,624.9
391.3178,705.3
391.3416,17.3
391.6397,125.8
391.763,146.8
391.8708,269.5
391.914,288
391.9528,114.3
391.9703,610.2
391.9774,584.6
391.9867,250.3
392.0679,251.7
392.1274,378.1
392.4104,18.6
392.6795,19.8
392.7054,398.2
392.7959,2075.9
392.8418,157.9
392.8531,327.4
392.9426,19.8
392.9593,48
392.9903,268.8
393.0075,296.2
393.0174,283.1
393.1628,98
393.2015,130.7
393.5321,454
393.5829,407.9
393.6266,171.2
393.8514,90
393.9579,192.3
394.0673,125
394.1598,18.4
394.2471,395.8
394.2655,326.2
394.4188,97.8
394.5123,294.9
394.6882,106.7
394.6942,356
394.7929,995.6
394.8316,106.1
394.8508,116.1
394.9271,93.6
394.9562,48
394.9803,302.6
395.0543,363.2
395.1474,136.1
395.2408,161.4
395.2866,18.6
395.6938,268.6
395.7587,591.1
395.9031,383.6
395.9991,18.1
396.0542,121.2
396.062,376.1
396.3053,132.3
396.7436,1622.7
396.7616,513
396.837,369.5
396.9768,440.6
396.9912,172336.7
397.0001,55281.6
397.1461,641
397.1827,635.9
397.5019,411.4
397.701,19.5
397.9488,365.4
397.9945,13834.2
398.0024,2350.1
398.2419,7640.9
398.4148,195.9
398.6005,238.8
398.6146,482.1
398.6379,500.4
398.741,2267.1
398.7901,136.2
398.9473,48.1
398.9758,82.2
398.9988,633.5
399.0115,506.2
399.1221,203.9
399.1979,18.3
399.2463,425.6
399.297,343
399.3344,96.3
399.5752,473.1
399.7331,470.4
399.813,205.5
399.8613,590.4
399.9216,115.7
400.0807,146.1
400.2179,466
400.3692,185.5
400.3835,436.9
400.6792,124.2
400.7378,1773.8
400.8386,361.5
400.9726,26.2
400.9829,388.1
401.1036,349.2
401.2052,594.2
401.357,332.6
401.4376,99.6
401.4766,574.3
401.4952,253.3
402.0968,99.8
402.1069,269.8
402.3851,380.5
402.5299,273.1
402.8253,757.5
403.0081,233654.2
403.0997,18.7
403.1355,17.8
403.2677,52.2
403.2984,195.3
403.4603,17.5
403.6611,151
403.7391,126.9
404.0114,20128.6
404.0967,56.7
404.1482,111.6
404.1624,523.4
404.2449,185.2
404.4575,173.8
404.4984,49.8
404.5559,375.3
404.6308,496.7
404.8013,502.3
404.8117,253.8
404.9584,347.1
404.9937,349.7
405.0127,825.1
405.0938,587.1
405.2228,337.6
405.5273,63
405.9474,1115.5
406.0709,535.2
406.3034,17.7
406.3297,1536
406.4503,664.9
406.4617,117
406.4835,20.9
406.5107,283.5
406.5799,232.6
406.6826,345.2
406.7185,132.4
406.7727,1939.8
406.7842,149.4
406.8417,820.2
406.9736,88.5
406.993,530.8
407.0486,325.8
407.1277,118.6
407.1739,165
407.3332,261.1
407.4323,467.6
407.4904,195.2
407.5112,149.5
407.5962,97.2
407.7051,310.8
407.8852,589.7
407.9754,222.5
408.3696,491.5
408.4056,211.1
408.4666,378.6
408.4822,21.7
408.516,423.7
408.5847,681.4
408.7258,350.2
408.7701,2446.4
408.8123,17.9
408.8807,166.2
408.9281,47.9
408.985,3118.7
408.9977,808.5
409.0945,471.1
409.1266,120.1
409.2187,132.8
409.3545,18.9
409.3811,169.5
409.3982,519.9
409.4566,536.2
409.6273,340.9
409.785,17
409.8012,150.5
409.8425,526.1
410.0473,596.3
410.6606,127.7
410.7669,1341.6
410.8561,1532.9
410.9694,100.8
411.1268,102
411.2101,605.3
411.3116,49.2
411.405,337.1
411.4405,235.8
411.6093,21.6
411.6147,18.4
411.824,831.1
411.9034,519.3
411.9574,528.5
412.0821,19.2
412.2833,293.2
412.3214,1659.1
412.413,598.4
412.4611,156
412.487,88
412.513,155.6
412.6163,97.7
412.8538,1165.6
412.9652,26269.6
412.9741,8845.4
413.108,121.7
413.2369,130.1
413.2669,3045.2
413.2942,657.2
413.3246,206.9
413.5872,20.7
413.7176,209.9
413.783,770.8
413.9386,20
413.9682,589.9
414.1488,343.6
414.1638,283.8
414.2266,760.1
414.27,398.6
414.7717,263.4
414.8088,118
414.8564,93.6
414.8991,81.9
414.9109,172.3
414.9632,368.9
415.0269,353.1
415.0381,52.6
415.1074,216.7
415.2144,338.9
415.2225,1232.5
415.2416,466.2
415.3326,362.3
415.3605,283.6
415.3926,607.9
415.8488,18.9
415.8777,344.9
415.934,17.3
416.1354,9812.2
416.1952,139.3
416.2144,36834.6
416.2508,514.5
416.3181,175.7
416.6047,60.9
416.7116,391.8
416.8016,1353.3
416.8158,260.7
416.8871,98.2
417.173,17.1
417.2177,4036.7
417.4038,628.9
417.5667,269
417.6109,122.7
417.7686,16.6
417.8244,364.1
418.1148,328.3
418.2168,412.4
418.4323,250.3
418.7805,413.6
418.9821,74526.1
419.0815,485.4
419.1008,441.9
419.1449,17.3
419.1692,132.8
419.2549,523.2
419.2699,561.8
419.2819,326.6
419.3003,339.5
419.3724,412.2
419.3908,137.3
419.4197,345
419.5159,76.9
419.6459,263.4
419.8258,22.2
419.9857,4405.9
420.5075,220.9
420.5538,130.1
420.7164,20.3
420.7535,760.8
420.885,1495.3
420.9605,728
420.9805,2439.9
421.0195,199.8
421.035,215.3
421.276,141.2
421.4828,500.3
421.5705,19.8
421.5807,146.2
421.61,625.4
421.6461,19.1
421.6854,859.8
421.7183,115.7
421.8722,612
422.0682,623.8
422.3036,121.1
422.3708,567.3
422.6533,145.7
422.7908,201.7
422.956,610.6
423.0703,731.9
423.2996,149.6
423.3156,152
423.457,499.3
423.5496,341.2
423.5717,195.6
423.7591,740.9
423.911,223.1
424.0155,19.3
424.0822,171
424.2825,738.1
424.7685,111.6
424.8711,93.6
424.9611,93.3
424.976,22.9
425.0323,452.6
425.0802,169.8
425.1401,533.7
425.3044,19.1
425.3584,735.4
425.4952,857.5
425.5231,395.2
425.8157,273
426.3567,907.2
426.6038,18.2
426.649,21.4
426.7066,330.9
427.0236,19.8
427.0739,52.2
427.3013,93.6
427.3422,52.4
427.6471,154.8
427.669,55.5
427.7927,133.8
428.0276,338.4
428.2072,110.5
428.2155,152.8
428.2465,23.1
428.54,189.6
428.5951,134.8
428.6278,142.9
428.8064,526.2
428.8857,587.3
428.9023,534.6
428.9283,677
428.9388,2037.5
428.9565,646.8
428.9679,438.1
428.9865,158.7
429.0004,634.7
429.0896,401.2
429.1208,243
429.1757,24.3
429.2008,649.7
429.245,464.2
429.3623,98
429.4661,499.8
429.7784,95.1
430.0051,378.5
430.1344,105.3
430.1611,125.2
430.4478,195.3
430.7208,492.1
430.8038,189.1
430.914,2602.8
430.9557,327.8
431.2177,2916
431.2703,102.6
431.2992,121.8
431.615,357.9
431.7881,612
431.8242,629.8
432.3564,52.2
432.6939,493.5
433.0137,489.5
433.1649,450.6
433.3168,211.8
433.6603,378
433.6831,280.8
433.7113,633.3
433.7226,723
434.0898,95.5
434.2491,137.8
434.389,332.5
434.5684,18.4
434.726,227.8
434.8238,314.7
434.9561,12096.5
435.0679,211.1
435.133,108.9
435.1793,133.5
436.0261,18.7
436.1398,380.3
436.1734,147.2
436.1926,52.6
436.3462,142.4
436.4823,169.8
436.4936,558.6
436.6297,55
436.7473,69.2
436.8592,1248.6
436.8987,352.8
436.9546,430.6
436.9709,207.1
437.1487,108.3
437.2022,747
437.2973,18.5
437.3026,17.9
437.311,397.7
437.3449,196.6
437.564,157.8
437.7249,291.2
437.7334,257.1
437.7567,128.2
437.7764,680.5
437.8119,97.5
437.8561,241.6
437.8996,199.7
438.3751,541.9
438.5092,133
438.5187,611.8
438.6193,241.9
438.8747,183
438.9726,1159.8
438.985,3859.4
439.0186,131.1
439.2037,270.9
439.2119,337.9
439.3818,95.8
439.5995,370.9
439.6861,247.3
439.8026,19.2
440.0876,18.6
440.3174,150.9
440.5358,147.9
440.6169,21.9
440.7257,950.2
440.9697,545.4
440.9806,370.4
441.0418,326.6
441.1685,107
441.2981,306
441.3284,106
441.4109,473.2
441.5562,114.3
441.6357,119.1
441.9385,724.4
442.069,526.8
442.1755,711.3
442.1995,342.7
442.3272,328.2
442.3978,156.6
442.5452,542.8
442.5678,95.8
442.7228,431.2
442.8603,191.3
443.0327,179.7
443.0803,105.5
443.2512,373.6
443.2732,20.6
444.0682,109.7
444.096,19
444.1167,121.8
444.2917,156.6
444.4453,740.8
444.4538,19.3
444.5544,267.9
444.7432,131.5
444.8203,727.7
444.9817,99.9
445.0533,707.3
445.1058,131
445.2217,134.1
445.233,1876.1
445.2681,356.3
445.4705,19.9
445.5876,19.8
445.9144,107.9
446.3758,336.6
446.3997,352.3
446.4648,136.1
446.6847,285
446.6912,592
446.7002,168
446.7682,20.9
446.8173,218.5
446.8869,590.3
446.8942,702.3
446.9243,18.4
447.0171,18.4
447.0619,96.6
447.0863,200.4
447.4337,18.9
447.4442,116.1
447.5692,156.4
447.5906,341.9
447.6389,472.9
447.6694,121.6
447.8531,112.5
447.8967,127
447.909,488.4
448.0991,109.5
448.1728,517.4
448.2334,353.2
448.2814,107.1
448.6458,108.2
448.6668,440.5
448.8944,166.8
448.9334,3124.2
449.1545,2066.6
449.2331,18.1
449.3131,195.6
449.3626,339.5
449.4899,93.8
450.1578,370.9
450.4222,143.7
450.4658,168.6
450.5194,19.4
450.722,704.3
450.745,290
450.8339,79.8
450.8519,325.6
451.147,180.9
451.2775,502.5
451.2898,195.9
451.3434,19.5
451.4348,19.2
451.454,755.8
451.7589,300
451.7729,192.6
451.889,537.5
451.9718,98.6
452.0979,120.6
452.1821,168.8
452.3259,728.1
452.3359,133.7
452.3499,158
452.4887,196.1
452.5898,205.5
452.7941,275.4
452.9629,705.5
452.9976,215.6
453.022,301.2
453.1727,754.8
453.4771,206.4
453.7937,170.7
453.948,610.3
453.9826,451.7
454.2512,367.2
454.3884,20.8
454.4635,49.4
454.7935,18
454.95,37135.7
455.1078,18.9
455.2256,76.7
455.2971,406.5
455.4,86.2
455.4456,216.1
455.5148,328.4
455.5848,100.5
455.6094,19.2
455.6394,104.9
455.7048,153.4
455.8553,147.2
455.9235,219.1
455.9531,1794.2
456.1152,351.7
456.4709,389.9
456.7006,518.4
456.7101,173.1
456.8697,126
456.9469,10905
457.0209,18
457.1493,97
457.233,11480.1
457.3641,638.6
457.4805,257.3
457.5545,19.8
457.7817,127.1
458.0744,116
458.2166,438
458.2365,857.5
458.2928,100.9
458.3185,129.6
458.6804,847.5
458.6973,986.6
458.7431,17.8
458.7856,382.3
458.9615,2996.4
459.0343,120
459.0933,122.7
459.2487,306896.4
459.4178,726.3
459.4487,230.7
459.4747,169
459.596,477.5
459.8473,502.6
459.9916,100.2
460.0497,82.2
460.2305,182.3
460.252,66665.7
460.314,97.4
460.3227,521.8
460.3634,18.2
460.6243,493.1
460.7851,355.1
460.9508,288.5
460.9666,67809.7
461.2551,3807.2
461.3963,118.2
461.5651,483
461.6609,18.2
461.8634,118.4
461.9705,4330.8
462.0861,129.9
462.1722,191.7
462.2673,167
462.4385,188
462.4576,323.5
462.9344,585.7
462.9637,21590.4
463.2014,670.3
463.2874,111.1
463.3869,278.6
463.5562,444.2
463.6032,136.9
463.7331,53.9
463.8069,211.2
463.8175,615.6
463.9689,266.4
464.135,115.7
464.2096,372.8
464.5247,19.8
464.6636,831.5
464.7098,72.9
464.7303,419.6
464.7988,104.5
464.8233,133.9
464.8571,263.6
464.8704,647
464.9406,657.7
464.9787,8770.7
465.0181,148.6
465.1626,185.6
465.2553,158.8
465.4157,181.4
465.4303,19.5
465.4933,169.8
465.703,85.3
465.7871,104.9
465.8787,698.2
465.958,560.9
466.4015,139
466.6237,343.4
466.7287,1514.2
466.7763,20.2
466.8353,84.5
466.9333,112.4
466.9435,528.9
467.0282,259.2
467.2615,362.4
467.3334,385.8
467.4366,398.1
467.4808,360.9
467.6783,112.1
468.3085,2834.3
468.3569,137.1
468.3736,177.6
468.4639,247.2
468.4761,309.1
468.493,116.4
468.6062,529.4
468.6342,99.3
468.6769,244.9
468.7208,376.2
468.795,20.1
468.9111,499.2
469.0387,98.1
469.1405,55.1
469.212,109.2
469.2856,270.6
469.3294,69.1
469.3604,149.1
469.5054,785.9
469.7021,211.3
469.8547,299.8
469.9837,19
470.1242,280.1
470.5076,54.2
470.7495,103.8
470.8934,301.4
470.9239,14277
470.9956,3200.9
471.0808,17.2
471.1884,204.4
471.2851,333.2
471.426,101.2
471.5065,424.5
471.5818,101.9
471.6065,399.6
471.9195,19
472.3022,283.7
472.3271,293.5
472.3742,177.9
472.5497,360.4
472.6635,170.8
472.7101,20.6
472.8137,337.1
472.8278,252.3
472.9207,4513.9
472.9355,399
472.9862,346.6
473.1499,254
473.2644,3264.2
473.3054,118.5
473.3205,508.6
473.427,104.4
473.4921,311.2
473.5528,332.7
473.7845,537.4
473.8276,20
473.8563,484.3
474.1203,245.2
474.2675,450
474.294,440.5
474.3689,91.4
474.4098,228.3
474.4346,332.1
474.4514,212.1
474.5331,644
474.6532,186.7
474.8286,555.5
475.0387,660.9
475.2011,230.2
475.2226,12037.9
475.5859,104.2
476.1581,341.6
476.2267,1920.2
476.7357,121.6
476.7907,181.2
476.897,379.6
476.9406,38233.4
476.9999,111.2
477.2526,265.9
477.3809,103
477.6939,157
477.8667,553.3
477.9439,1720.9
478.0755,19.9
478.157,115.7
478.2926,859.8
478.3295,46192.6
478.3566,105
478.7851,99.9
478.8202,289.1
478.9378,11461.9
478.965,415.1
479.1797,347.4
479.218,162.5
479.3328,10289.1
479.3584,578
479.3794,388.5
479.3887,194
479.5823,247.6
479.7149,140.3
479.7278,91.1
479.9418,474.2
479.9873,17.4
480.0705,210.9
480.5805,18.2
480.6251,562.6
480.6675,218.7
480.8269,132.1
480.8483,271.4
480.9528,2080.7
481.0302,106.3
481.0915,113.9
481.1954,21.4
481.3647,450.4
481.4362,148.3
481.4753,269.7
481.9446,619.9
481.9485,624.6
481.9714,285.7
481.9919,151.9
482.1813,490.6
482.2113,90
482.2742,23
482.5311,154.4
482.7309,649.4
483.1067,522.6
483.2486,87152.6
483.437,496.5
483.9185,245.1
483.9819,307
484.252,19152
484.3756,176.3
484.5657,98.6
485.2642,79647
485.6001,188.2
486.1802,245.4
486.2677,12867.9
486.4243,350.2
486.5461,287.9
486.8981,1017.7
486.9694,699.9
486.9811,327
487.1509,21.3
487.2531,19.2
487.28,70613.8
487.3385,652.6
487.4865,258.4
488.075,166.4
488.2833,13077.7
488.392,180.9
488.631,497.9
488.8961,468.8
489.0266,188.4
489.0842,28
489.099,608.7
489.3537,1256
489.4607,622.2
489.4748,300
489.4956,21.3
489.5347,1163.3
489.5525,437.4
489.5638,359.3
489.6793,159.8
489.6927,175.7
489.7795,235.2
489.9444,640
489.9592,18.1
490.1288,456.6
490.2438,95.5
490.2908,7434
490.3278,383
490.481,679.5
490.7496,126.7
491.0327,20.7
491.315,190.3
491.3715,1315.1
491.6966,173
491.9616,20.2
491.9944,251.5
492.451,177.8
492.5647,563.1
492.8732,254.5
492.9148,4797.7
493.1547,286
493.229,343.7
493.4621,438.7
493.5049,94.9
493.5238,561.3
493.7454,194.2
493.8732,93.9
493.97,93.8
493.9923,18.7
494.0376,19.9
494.2771,283.5
494.2853,1068.8
494.3243,10204
494.5144,193.5
494.912,1933.7
495.3287,1289.7
495.3988,23.2
495.7834,314.4
496.0101,327.7
496.0249,100.7
496.3401,330368.2
496.3657,288.2
496.9301,386.2
496.9906,18.2
497.1516,591.7
497.3435,84357.5
497.4193,178.9
497.6522,188.2
497.747,265.8
497.9625,18.2
498.0695,315.8
498.2294,18
498.3471,6016.2
498.5333,564.7
498.6771,18.6
498.9053,133.5
498.9271,307.4
499.0464,255.8
499.1929,85.1
499.2225,1789.1
499.5105,100.9
499.6595,252.1
499.6759,284.6
499.6919,353.4
499.8215,195.4
499.8695,307
500.0325,256.9
500.1211,113.3
500.2763,787.9
500.311,796.1
500.34,130.5
500.8202,506.6
501.0679,121.1
501.2384,2432.8
501.259,860
501.2819,601.6
501.3889,249.8
501.5638,125.5
501.6991,95.6
501.7556,168.4
502.2431,967.1
502.3295,21706.5
502.5263,334.9
502.6826,612.3
502.7986,111.9
502.9892,533.2
503.1078,136
503.1986,93.1
503.2537,2286.7
503.3324,2006.8
503.427,99.8
503.724,724.8
503.9245,827.7
503.9692,18.9
504.1904,51.2
504.1989,552.2
504.3064,2263.8
504.3446,13189.2
504.3992,64.2
504.523,19.4
504.5867,21.1
504.6768,137.2
504.6832,300.7
505.0201,138.3
505.3093,170.5
505.3476,1321.5
505.6378,19.4
506.1119,392.8
506.1896,83.9
506.265,426.2
506.3099,18.2
506.3605,7846.5
506.3824,236.4
506.3967,469.1
506.5116,18.8
506.549,635.7
506.7794,175.5
506.8309,702.6
506.8913,5114.8
507.2486,11268
507.3634,942.7
507.7545,487.6
507.8938,425.9
508.1657,382.7
508.2407,152.8
508.2519,1595.7
508.2615,193
508.3059,129.9
508.3339,683.9
508.3781,690.9
508.7134,340.7
508.8874,1063.8
508.8976,182.8
509.0045,3160.1
509.1848,109.1
509.2144,140.7
509.2642,5225.1
509.3037,757.7
509.4956,1059.3
509.7027,144.4
509.7669,115.6
509.7828,496.2
510.0109,128.5
510.059,302.2
510.267,372.5
510.3244,125.8
510.3546,897.2
510.4745,20.3
510.521,118.1
510.6906,633
510.9018,537.3
510.9883,100.2
511.1248,43.2
511.2571,405.1
511.5271,666.6
512.1753,97.2
512.2747,20.5
512.5909,92
512.8947,371.7
512.9084,16244.3
512.9532,20.2
512.9747,179
513.1625,56
513.1763,22.9
513.252,145.2
513.4066,177.7
514.093,266
514.1085,114.3
514.1362,58.5
514.1745,23.2
514.2373,243.7
514.4833,140.4
514.5806,110.7
514.6588,1156.5
514.8006,406.1
514.8188,197
514.8495,141.7
514.9055,10150.7
515.0221,786.2
515.12,358.4
515.159,49.8
515.1626,50
515.1699,18.9
515.2022,617.1
515.2978,451.1
515.403,357
515.4985,551.6
515.518,237
515.584,116.7
515.6948,138.8
515.8303,19
515.911,321.6
515.9328,706.5
516.3067,17871.6
516.8605,161.9
516.9211,701.9
516.9541,400.3
516.9589,396.6
517.0361,89.7
517.3096,1502.2
517.3227,153.2
517.386,398.4
517.463,274.6
517.6668,21
517.9379,357
518.2747,422.4
518.3222,523557.1
518.6174,132.6
518.7417,470.7
518.8591,122.4
518.9253,29786.8
519.097,306.7
519.1491,553.8
519.1704,123.2
519.2421,83
519.3255,123517.9
519.4395,601.5
519.5014,584.4
519.6694,356.9
519.8466,717.6
519.8653,402.7
519.928,1500.1
519.9654,123.2
520.0372,394.5
520.1828,21.1
520.3292,14665.6
520.3402,82775.5
520.4124,63
520.4287,207.4
520.5084,558.9
520.6046,473.6
520.6351,19.8
520.6875,196.1
520.8367,362
520.9225,15598.2
521.1733,322.5
521.3205,524.4
521.3434,23145.5
521.3696,103.9
521.5469,135.1
522.0127,101.9
522.3558,95851.2
522.375,135.4
522.5152,173.4
522.92,1570.6
522.9374,6394
523.0345,292.3
523.3593,23029.9
523.57,738.6
523.6244,372.5
523.6474,258.2
523.7128,816.2
523.8036,269.2
523.9586,184
524.0065,910.6
524.0605,576.1
524.2744,509
524.3715,95766.1
524.562,133.5
524.613,118.8
524.934,1568
525.0055,620.7
525.2785,148.8
525.3358,328.7
525.3747,22851.4
525.4731,78.5
525.5733,108.6
526.229,164
526.3294,1378.3
526.3799,833.5
526.4043,116.7
526.4533,386.5
526.525,196.2
526.6228,169.9
526.9503,19.4
527.0926,368.4
527.1906,704.9
527.2628,751.3
527.3321,161
527.5929,226.2
527.7156,294.3
528.3245,419.7
528.4111,216
528.5279,99.8
528.5437,170
528.8584,237.4
528.8818,6086.5
528.9524,1790
529.0902,85.3
529.2484,709.5
529.2851,539.2
529.3326,465.2
529.4458,106.6
529.4582,301
529.5254,183.6
529.6071,112.1
529.7043,621.8
529.9344,83.4
529.9763,697.3
530.255,262.3
530.3592,1923.8
530.4069,126.6
530.7318,90.8
530.7684,832.6
530.787,166.3
530.8054,18.9
530.8554,103.7
530.8796,3735.6
530.9467,563.5
531.0856,148.2
531.2497,1865.1
531.2794,423.7
531.5689,245.1
531.6084,188.5
531.697,107.8
531.9806,447.4
532.2804,4163.9
532.3377,7986.5
532.763,635.2
532.9128,776.2
532.9317,98.7
532.9659,752.7
533.1063,472.2
533.2679,1156.9
533.3565,228.2
533.3817,301.6
534.0533,18.4
534.2962,127990.6
534.3168,763.6
534.3499,522.9
534.4587,158.1
534.6299,299.1
534.645,24
534.8993,16540.5
535.1296,432.9
535.1597,140.6
535.2994,33352.4
535.3311,122.3
535.4919,147.3
535.5433,150.9
535.6635,1001.3
535.7449,91
535.7573,127.7
535.9002,393.2
536.0077,422.2
536.052,301
536.253,250.6
536.2951,4079
536.3999,822.9
536.6429,257.8
536.7839,99
536.8964,9778.5
537.1014,625.1
537.1433,322.9
537.3059,135.6
537.3436,1751.4
537.8989,380.9
537.9249,79.9
538.0647,181
538.1907,155.2
538.3245,229.4
538.4598,374.8
538.8931,1012.4
538.9103,337.8
538.9326,1501.2
538.949,539.1
539.1126,182
539.1379,688.6
539.27,606.6
539.452,489.1
539.973,230.6
540.1111,294.8
540.2311,592.8
540.6795,168.1
540.8002,539
540.9076,348.9
541.1621,52.1
541.2239,18.7
541.2514,203.4
541.4431,547.1
541.456,406.2
541.7587,237.8
541.8353,64.8
541.9047,291.1
541.9322,136
541.9726,25.3
541.9995,88.7
542.3222,131737.5
542.3906,705.4
542.4114,362.2
543.203,150.7
543.2789,279.1
543.3069,83.8
543.3255,33744.3
543.4027,937.2
543.4337,406
543.4789,723
543.7473,741.6
543.7956,353.9
543.9615,19.2
544.1219,289.7
544.1656,464
544.2245,383.9
544.2735,70.6
544.3379,135411.6
544.3863,240.8
544.6858,20.9
544.8561,348.8
544.8773,313
544.9278,531.4
544.9482,2856
544.9906,177.8
545.0722,126.2
545.1685,184.5
545.25,18.3
545.3413,37115.9
545.6723,213.9
546.1188,348.7
546.3089,336.7
546.3535,133556.8
546.8534,696.5
547.1535,290.7
547.3569,32337.3
547.4797,20.3
547.5114,19
547.5542,275
547.585,429
547.7356,59.7
547.7486,106.4
548.0927,238.7
548.3039,285.1
548.3593,2119
548.7275,21.5
549.0095,85.5
549.342,369
549.6862,94.7
550.0685,457
550.2899,374.1
550.3513,492.3
550.4162,268.4
550.5484,156.3
550.6222,451.6
550.6731,272
550.7585,540.2
550.8729,2201.9
550.917,19.6
550.9461,227
551.1879,236.9
551.5399,640.2
551.6553,368.4
551.7387,349.6
551.9385,627.7
552.0997,107.4
552.2588,248.4
552.3172,124.9
552.4257,99.2
552.7336,52.1
552.8712,1227.6
552.9091,140.5
552.9568,178.5
553.0199,237.9
553.0648,110.3
554.2055,373.2
554.2825,659.2
554.3506,282.8
554.549,109.1
554.6934,222.6
554.8923,321.6
555.0241,697.1
555.0353,544
555.2902,56
555.3358,410.5
555.4051,501.6
555.4293,346.9
555.5907,328.3
555.6235,335.6
555.6319,226
555.9986,411.5
556.0257,79.4
556.2998,388.5
556.4929,138
556.6671,131.7
556.7915,438.4
556.9007,235.3
556.9945,106.4
557.1066,19.7
557.1915,140.1
557.3591,282
557.8276,97.7
557.8916,119.9
558.0793,178.2
558.0966,648.7
558.2962,32734.5
558.42,746.2
558.4996,96.7
558.6484,22.8
559.2997,7317.5
559.335,154.8
559.3538,280.5
560.1001,371.5
560.3118,36567.9
560.4738,674.6
560.9157,969.1
560.9478,838
560.9646,515.4
561.0786,123.1
561.1502,510.7
561.1638,19.8
561.3151,8200.8
561.4132,9924.3
561.4897,138.2
562.2113,543
562.3113,1171.2
562.3274,26350.3
562.4158,3092.6
562.5622,543.6
562.7231,56.8
562.7577,407.9
562.7719,282.3
563.0947,286.2
563.1837,372.6
563.2181,374.3
563.3313,6986.2
563.4283,4316.2
563.7,20
563.9537,161.2
563.9779,102.2
564.3251,1024
564.8509,704.1
564.9735,306.2
565.0417,999.2
565.0736,98.3
565.1314,125.4
565.2572,825.6
565.2982,21.2
565.3334,281.7
565.3735,212.1
565.504,506.6
565.6553,113.8
565.7191,19
565.7702,93.4
566.3223,16339.3
566.3489,604.6
566.4156,105.9
566.4341,111
566.7565,352.7
566.8467,577.6
566.9631,1075.6
567.325,1583.8
567.548,112.2
567.7443,166.9
568.229,115.6
568.3381,13180.8
568.3599,178.8
568.5018,389.8
568.6694,414.4
568.6962,109.7
568.7761,149.2
568.8101,28.7
569.0415,772.4
569.1241,692.7
569.3207,18.7
569.3416,1240
569.3934,23.4
569.508,225
569.7655,103.2
569.7809,179.9
569.8263,426.7
569.9816,754
570.0703,138.5
570.1714,81.2
570.2814,236.3
570.4232,120.9
570.589,110.9
570.7143,814.2
570.7572,19.1
570.8669,6185
570.925,17.1
570.9543,21.7
571.009,264.4
571.3953,297.7
571.5904,93.5
571.9054,146.2
571.9852,147
572.0414,729.1
572.1099,730.1
572.332,651.2
572.3701,1032
572.6647,583.2
572.8642,5525.4
573.007,114.4
573.1314,80
573.1651,138.3
573.1704,114.8
573.5419,153.9
573.5622,306.8
573.6241,19.3
573.8278,96
573.993,260
574.0219,118
574.0391,364.8
574.0756,264.5
574.1237,305.1
574.204,568.5
574.2837,1721.9
574.861,1039.1
574.8891,497.3
574.991,137.4
575.0212,192.3
575.0463,148.3
575.4622,171.8
575.504,15216
575.9232,402.8
576.173,112.6
576.2809,4210.5
576.4181,393.1
576.5066,2596.9
576.6911,112.2
576.7263,50.7
576.8549,652.6
576.8839,9334.4
577.1942,271.7
577.234,102.2
577.5201,1255.5
577.8885,821.2
578.0263,315.2
578.2796,789.3
578.3813,145
578.5988,21.8
578.881,8688.8
579.1449,387
579.3446,165
579.6305,337.4
579.8622,376.8
579.8845,365.8
580.0646,124.3
580.1375,355.1
580.4998,361.7
580.8783,1499
580.8964,1910.1
581.2215,125.3
581.3465,145.4
581.6295,389.9
582.0401,593.7
582.1408,142.4
582.2657,81.6
582.2955,1255.8
582.3622,172.6
582.3932,133.4
582.4245,180.8
582.4408,173.6
582.4551,1172.3
582.4765,367.2
582.4987,396
582.5484,987.2
582.5644,504.1
582.5906,110.8
582.653,882.6
582.672,843.6
582.778,363.9
582.8936,2098.4
583.2111,50.4
583.2558,2754.3
583.2991,398
583.3333,226.5
583.5416,18.4
583.8409,270.4
583.8558,121.1
583.8816,715.5
583.909,466.7
583.9784,576.4
584.045,204.6
584.1245,146.7
584.3141,873.9
584.6097,389.5
584.6421,112.7
584.7608,179.3
585.1014,236.5
585.189,170.6
585.2434,17.9
585.2716,4404.6
585.9127,107
586.3103,3753.2
586.3242,366.8
586.8415,2818.9
586.9126,1587
587.0343,385.6
587.2851,95.4
587.4572,148.9
587.6112,161.6
587.6592,158.6
587.8375,204.1
587.8663,549
587.9201,349.7
588.288,404.1
588.4563,103
588.7261,19
588.8382,1957.1
588.911,401.5
588.9594,51.5
589.1895,379
589.2403,231.8
589.4059,160.4
589.4419,652.8
589.7957,368
590.0091,396.6
590.0956,309.6
590.2683,702.3
590.3222,3044.4
590.7622,105
590.8327,306.9
590.852,174.5
590.8751,398.2
590.8814,389.4
590.9127,137.8
590.9237,456.4
591.053,132
591.3247,883.8
591.4809,683
591.5237,268.7
591.9143,285.3
591.9709,19.5
592.1087,353.3
592.2504,497.6
592.3371,898.3
592.5041,625.1
592.858,5051.8
593.165,443
593.3385,548.1
593.3652,316.1
593.9256,359.5
593.9382,528.2
594.0991,211.9
594.427,506.3
594.5367,546.4
594.5898,349.9
594.8551,5523.5
594.8744,670.1
595.2441,267.2
595.4454,111.3
595.6041,346.1
595.802,374
595.8576,297.6
595.8738,20.5
596.071,22.6
596.2659,925.2
596.2914,397.1
596.4918,395.6
596.8535,1936.9
596.8674,1169.7
596.9433,47.7
597.0481,518.1
597.1863,19.3
597.4547,5918.8
597.4862,13916.7
597.7492,19.8
597.8289,248.9
597.8424,152.8
597.953,402.9
598.2536,52.5
598.4225,120.6
598.4654,399.8
598.4899,3420.3
598.5833,96.3
598.5962,114.1
598.6296,104.4
598.7124,352.1
598.8039,297.7
598.8556,19.5
599.0158,364.8
599.3056,164.6
599.4665,575.3
599.474,598.8
599.5026,1729.5
599.652,129.8
600.0465,367
600.1674,99.2
600.3158,107.8
600.4507,23
600.5944,133.2
600.6533,96.1
600.7204,18.8
600.976,64.1
601.5177,1262.6
601.8092,231
601.9524,206.5
602.0368,360.9
602.0658,239.2
602.8155,96.1
602.8896,439.8
602.9079,714
603.5326,669.3
603.8128,57.8
603.87,121.4
604.1563,149.2
604.2253,65.8
604.458,299.2
604.5265,100.4
604.7886,109.2
604.9365,50.2
605.0566,102.7
605.1656,227.3
605.7399,659
605.7719,339.3
605.9948,343.9
606.3037,493.1
606.7958,178
606.8185,201.8
607.1714,10443.4
607.2135,536.9
607.703,161.8
607.7505,241.6
608.1752,1517.8
608.546,339
608.5682,588.2
608.8343,344.1
608.9217,237.5
610.4503,91.7
610.4997,136.4
610.6514,20.3
610.7657,715.1
610.7999,23.2
610.83,1936.8
611.1554,318.6
611.1719,19.7
611.2593,124.5
611.3747,711
611.4732,231.7
611.6743,301.4
611.8705,200.4
612.1224,568.2
612.5263,24
612.8138,722
613.0995,158.2
613.3509,743.7
613.4813,215.5
613.5934,346.1
613.9538,324.9
614.3245,192.6
614.436,184.4
614.9318,746.1
614.9955,365
615.4587,961.5
615.856,261.3
616.5136,19.9
616.6759,174.8
616.759,875
616.9368,327.1
617.0828,193.4
617.1586,81.9
617.4761,12801.5
617.7902,303.9
618.0015,425.8
618.4784,1695.6
618.5833,126.5
618.8502,120.6
619.2305,20.1
619.3422,21.9
619.4695,577.9
619.4918,8750.9
619.6643,130.3
619.6836,458.4
619.7138,164.6
619.8244,109.9
620.3435,236.4
620.4945,429
620.7198,315.1
620.8652,117.3
620.9567,24.5
621.4427,942.4
621.4475,1012.8
621.4558,1352.4
621.4863,3290.8
621.62,282.3
622.0718,314.2
622.3936,23.3
622.4488,400.9
622.4911,249.7
623.0028,472.1
623.1364,32694.8
623.1752,428.3
623.2035,422.6
623.2762,124.2
623.4279,181.1
623.4691,779.8
623.5029,3512.2
623.5386,605
623.7029,406.6
624.1401,5916.5
624.2698,135.8
624.4547,104.8
624.5118,282.3
624.7273,138.3
624.7502,496.2
624.9604,529.9
625.1262,93.5
625.1428,111.2
625.162,121.1
625.3612,551.3
625.4812,189.6
625.5443,108.8
626.3115,266.9
626.6012,849.1
626.8472,387.3
626.9079,206.6
627.3127,121.6
627.5358,308.9
627.6813,725.7
628.2107,620.5
628.5381,39.2
628.6282,111.2
628.9205,367
629.0635,157.4
629.1533,70708.5
629.3387,763.4
629.3612,181.5
629.5557,19.8
629.8547,20.1
629.87,367.9
629.8921,187.8
630.1356,174.1
630.1569,14036.1
630.445,535.7
630.9091,144
630.9251,243.7
631.1314,402.5
631.1576,1210.1
631.2315,156.5
631.268,365.5
631.2862,411
631.4684,266.2
631.7405,462.3
632.4325,230.5
632.5428,138.2
632.573,279.3
632.5915,19.9
632.9349,651.7
633.0538,342.7
633.4722,605.6
633.9339,62.2
634.0895,123.1
634.8435,3203.1
634.9788,173
634.985,167.3
635.0346,286
635.2636,419.1
635.5085,98.5
635.6275,597.2
635.9484,731.8
636.4146,629.2
636.4876,425.8
636.5806,797.7
636.6503,828.7
636.8392,3311.8
637.1972,149.1
637.2214,97.4
637.3865,561
637.4071,96.5
637.5559,428
637.7635,264.2
637.795,136.8
637.9143,575
637.9492,107.1
638.0588,517.8
638.1004,161
638.4201,100.2
638.773,151.4
638.8367,1494.5
638.8555,463.6
638.9343,21.1
639.2172,792.8
639.2576,364.7
639.3989,103.5
639.5762,311.7
639.5818,298.1
639.7228,162.6
639.7382,132.4
639.8141,498.9
640.1875,18.3
640.2064,678.7
640.3018,21.8
640.4242,305.2
640.6012,20.8
640.9877,18.6
641.0568,20.1
641.3916,532.7
641.442,264.8
641.4615,754.9
641.4766,19.2
642.296,691
643.1721,22.2
643.2164,313.5
643.4411,555.2
643.5945,281.6
643.6191,290.5
643.6483,519.8
643.7518,346
644.311,326.1
644.3821,174
644.5372,566.6
644.6426,20.8
644.7974,273.4
644.8719,302
645.1183,24228.5
645.3059,201.9
645.3207,644.3
645.4838,363.1
645.9895,238.8
646.03,199
646.1226,4011.6
646.4263,751.5
646.9592,21.5
647.093,357
647.1229,128.8
647.136,115.8
647.2958,489.9
648.0015,463.6
648.0915,143.3
648.1678,127.7
648.685,140.1
648.7603,708.6
649.1079,18.5
649.4823,209.9
650.0633,694.7
650.1359,20.2
650.1849,533.7
650.2344,144.8
650.4401,8115.6
650.6961,282.7
650.7517,152.6
650.8172,2183.4
651.0407,94.5
651.1352,62662.3
651.3319,21.3
651.5334,57.1
651.6045,303.3
651.8299,111.2
652.097,650.5
652.139,12065.8
652.238,315.8
652.2533,218
652.3203,168.2
652.5455,203.6
652.8136,3273.6
652.8311,102.1
652.8983,95.9
653.1111,1291.9
653.1414,1376.9
653.486,157.4
653.507,534.7
653.9032,451.4
654.1101,111.9
654.2918,317.8
654.5089,277.6
654.5439,975.4
654.5711,23.9
654.597,314.9
654.6198,243.9
654.8108,717.3
655.2696,117
655.6015,723.6
656.6621,93.7
656.7008,22.2
656.7612,642.9
656.7944,400.2
656.878,112.6
656.9042,544.1
657.0888,132.4
657.1436,241.8
657.6279,20.5
657.7245,407.8
658.2913,100.8
658.3695,770.8
658.4275,692.5
659.0086,186.6
659.382,19.9
659.6153,88.8
660.084,144.9
660.6304,244
660.881,168.5
661.0372,128.5
661.083,9794.1
661.4687,1969.8
661.7972,137.9
661.8671,143.6
662.0857,867.1
662.3503,548.4
662.9878,485.2
663.2492,297.2
663.2564,403
663.2637,316.4
663.4553,515.2
663.542,153.6
663.6613,134.9
664.1471,346.1
664.4693,2346.3
664.5593,112.2
664.7225,409
664.7386,195.1
664.7952,825.3
665.0042,111.4
665.1598,103.1
665.6637,203.5
665.6866,930.1
666.4458,119.5
666.4838,4765.7
666.5946,195
666.8555,232.6
666.9867,540.9
667.0998,27720.9
667.6018,425.7
667.6736,435.8
667.8322,620.9
667.8474,308.1
667.982,148.1
668.1037,3705.6
668.4156,179
668.4628,161.5
668.7901,488.3
668.8241,20.9
669.0826,131.6
669.1043,99.3
669.1184,152.7
669.8805,20.9
670.3237,122.1
670.6696,113.3
670.9229,101.8
671.0309,453.3
671.2966,154.7
671.5636,367.4
671.8396,18.4
672.2373,194.2
672.4218,6666
672.4608,281.3
672.5074,276
672.673,358.5
672.7347,590.9
672.8602,23.1
673.0543,322.3
673.0852,332
673.1171,57578.2
673.1984,310.8
673.4808,370.6
673.5286,818.5
673.704,98.7
674.1205,9777.5
674.1829,786.6
674.4316,645.4
674.6194,19.1
675.0925,114.5
675.1229,152.3
675.5441,11291.9
676.5472,2782.4
677.2455,223.7
677.313,316.7
677.7425,131.2
677.8533,348.9
677.8804,599.6
678.4265,286.2
678.4537,493.8
678.471,1111.1
678.5111,753.4
679.1983,124.7
679.2857,362
679.5269,136.3
679.7042,307.5
679.9186,548.4
680.4457,153.1
680.5995,469
680.8417,182.9
681.0941,479.5
681.1108,167.6
681.1605,79.7
681.3403,94.5
681.7029,19.2
681.7523,147.4
681.7991,130.3
682.0675,1266
682.5399,518.1
683.0662,2882.7
683.0741,2931.2
683.0916,101.6
683.1722,1281.4
683.2652,635.1
683.4512,1856.5
684.0274,95.8
684.091,395
684.1835,444.4
684.7679,263.2
685.0492,114.5
685.4366,5622.2
685.5868,557.1
685.6762,310.1
685.9464,170.7
686.4393,1394.3
686.5006,314
686.5788,21
686.74,19.1
686.7862,708.6
686.829,133.3
686.8804,764.5
686.9751,305.8
687.2124,576.3
688.1569,135.2
688.3958,1087.7
688.4177,4112.4
688.7711,21.1
688.9001,377.1
689.0814,18228.9
689.0913,15441.7
689.5596,4052.2
689.7988,382.3
690.0867,2371.4
690.0931,2303.2
690.1549,442.7
690.1723,137.9
690.179,148.4
690.1862,125.5
690.5383,441.2
690.7408,109.3
691.0672,148.4
691.0962,141.9
691.3412,638.8
691.5145,22.3
691.8943,182
692.3794,443.4
692.6267,201.9
692.7564,322.3
692.9401,251.4
693.4344,347.7
694.4053,159.7
694.7397,558
694.7995,801.6
695.0989,35945.9
695.4624,1212.8
695.5103,2967.5
695.5377,347.6
695.9459,267.2
696.1027,6942.7
696.2117,101.9
696.5129,992.9
697.0027,137.2
697.1261,21.1
697.4215,283.2
697.5266,17466
697.8022,214.9
698.1629,87.7
698.2514,275.5
698.3765,271.7
698.5299,6506.2
698.6411,405.5
698.6473,484.5
698.7594,78.9
698.8207,319.5
698.8709,337.1
698.9192,85.6
699.2842,437.7
699.532,764.9
699.6488,144.1
699.7416,96.2
700.1851,88.5
700.5794,142.6
700.6296,290.7
700.7195,271.2
700.8747,177.7
701.411,386.8
701.4966,366
701.56,28037.6
701.7091,17.7
701.8745,98.1
702.2599,403.3
702.3421,3820.1
702.3616,428.5
702.4263,218.1
702.5362,869.1
702.563,9982.7
703.3451,785
703.5758,85824.1
703.6301,339.5
703.6778,20.7
703.7254,20.3
703.7469,451.8
703.8903,21
703.9063,389.5
704.187,251.5
704.4484,3011.2
704.5214,790.8
704.579,33366.4
704.6425,361.5
705.0552,2622.4
705.2783,163.2
705.4513,968.8
705.4782,796.1
705.583,2818.8
705.6813,190.7
705.7913,229.9
705.8888,225
705.906,309.7
706.0274,89.5
706.1136,626.1
706.1949,21.7
706.3371,210.6
706.5391,3611.8
706.8116,980.2
706.9809,205.1
707.1097,261.1
707.2115,184.1
707.2954,462.1
707.3875,361.6
707.5431,608.7
707.6983,659
708.1322,436.2
709.5381,648.2
709.7768,264
709.7856,571.2
709.7915,592.1
709.9438,57.7
710.2448,106.8
710.5699,343.1
710.7253,152.6
711.0631,10813.8
711.0743,13944.5
711.2361,174.9
711.4735,139
711.5416,5096.8
711.7033,296.3
712.0784,1099.1
712.216,111.5
712.586,148.8
712.771,363.9
713.0526,131.9
713.158,333.4
713.2228,682.3
713.5016,1923.2
713.6175,18.2
713.6668,473.8
714.0401,18.7
714.1819,17.6
714.28,807.2
714.2999,204.5
714.3916,23.7
714.6185,22.7
714.6868,312.3
715.4487,268.8
715.8978,154.9
716.0421,20.9
716.1789,661.5
716.3196,420.2
716.9695,399.4
716.9942,18.4
717.0809,17310.5
717.1575,231.4
717.2845,302
717.7487,191.2
717.864,87.6
717.9843,488.4
718.0608,163.8
718.0835,1452.9
718.291,131.1
718.4752,146.5
718.5759,528
718.771,21
718.9556,20.8
719.0893,164.1
719.4412,487.8
719.466,686.5
719.4974,101.9
719.5688,668
719.7385,389.8
720.1157,92.4
720.3869,119.7
720.5549,444.4
720.5689,102.2
720.9234,405.9
721.0097,460.4
721.0631,144.5
721.0845,359.8
721.1994,751.3
721.4786,67763.8
721.5949,58.5
721.7335,357.7
722.2293,413.1
722.482,28197.2
722.6154,260.4
722.7983,317.5
723.0126,20.6
723.3513,186.5
723.4946,15376.7
723.5422,29860.4
724.3263,693.1
724.498,2291.7
724.5462,8985.5
725.25,129.9
725.5576,72809.3
725.597,323
725.6784,613.6
725.7281,499.1
726.314,17.8
726.4728,669.3
726.5055,1858.9
726.5312,712.4
726.5612,31081.5
727.0405,1658.7
727.2566,258
727.5172,185.3
727.563,4229.9
727.6611,359.2
728.5214,4463.5
729.1664,179
729.2731,21.8
729.3429,782
729.4756,471.2
729.5906,7053.8
729.8083,123.9
729.858,148.9
729.9254,681.4
730.0166,349.8
730.5387,16895.4
730.5941,1262.5
730.6944,138.3
731.0501,291.9
731.207,113.8
731.4969,113.6
731.5425,4604
731.6067,3715.6
731.9411,266.7
731.9652,758.7
732.0435,21.4
732.1727,426.6
732.48,1361.4
732.5098,156.9
732.5547,97448.1
732.6111,754.4
732.9597,116.6
733.0457,4797.9
733.0566,6805.2
733.2109,342.3
733.5582,44402.2
734.2394,320.8
734.4792,162
734.5712,10593.8
734.9184,96.4
735.0001,22.7
735.1473,325.2
735.5741,3520.1
735.6361,347.2
736.0575,284.1
736.4001,138.3
736.7701,196.3
736.8608,116.9
737.0237,236.8
737.1051,115.8
737.3595,237.5
737.4528,13768
737.543,92.4
737.9736,20.4
738.0218,235.9
738.3561,314.5
738.4552,965.8
738.8173,534.1
738.8948,420.1
738.9255,949.6
738.9578,263
738.9702,351.1
739.0631,8561.7
739.1425,269.5
739.4593,1015.2
739.5157,3855.2
739.5776,489.2
739.5871,540.8
740.0674,270.6
740.4438,194.6
740.5215,1125.1
740.5556,1076.3
740.8031,597.7
741.2728,198.8
741.4297,133.6
741.5318,7033.4
741.8643,109.4
741.9472,19.9
742.0902,158.1
742.3432,18.9
742.4428,481.8
742.4928,260
742.5357,3040.8
742.5751,16721.4
742.8303,599.5
742.8517,245.4
743.0026,262.8
743.3822,63.3
743.4825,699.3
743.5792,5538.7
743.7564,101.8
743.9259,330.3
744.0172,200.4
744.2276,55.4
744.5546,9071.1
744.5915,15800.5
744.666,483.5
744.717,99
744.7952,765.5
745.4789,16156.2
745.5595,1718.9
745.5947,2712
745.9765,277.2
746.2633,18.2
746.4825,5573.1
746.5212,576.6
746.5708,8631.9
746.6071,7631.3
747.4945,17280.5
747.5741,3394
747.6116,2012.5
747.8301,451.8
747.8731,215.5
748.0679,322.5
748.1276,130.2
748.3587,246.6
748.4974,6022.2
748.7376,110.6
749.0118,1201.8
749.2607,107.6
749.5108,9838.3
749.7136,107.1
749.7839,132.3
749.9955,589.2
750.1224,19.4
750.1898,532.4
750.2214,191.6
750.5487,831.1
750.9423,142.5
751.0575,115.9
751.2179,97.6
751.5224,121.7
751.5728,2451.3
752.521,12372.9
752.5783,618.8
752.9322,211.8
753.2017,109.7
753.2634,750.2
753.4806,18.3
753.5258,2405.6
753.5892,961.5
753.8971,23.6
754.537,69017.9
754.6428,90.9
754.7103,284.4
754.793,21.3
755.0259,3260.7
755.0383,3318.3
755.2997,131.6
755.4203,372.6
755.54,27155.8
755.8527,489.2
756.1297,684.3
756.2457,103.3
756.2661,134.9
756.3916,64.9
756.5546,68490.7
756.5862,854.7
757.2724,201.5
757.5579,26153.6
757.6203,544.5
757.9827,66.4
758.0023,446.8
758.3231,94.8
758.5214,663.6
758.5704,1423478.5
758.8943,125.9
758.9256,662
758.949,359.5
759.1765,151.3
759.368,137.3
759.5103,413.8
759.5738,614166.8
759.6364,735.2
759.7204,430.9
760.1008,111.2
760.1849,130.9
760.4804,162.2
760.5714,68326.8
760.587,467073.5
760.6381,373.9
760.7214,119.6
760.8031,77.9
761.0452,3434.4
761.1458,94.9
761.4551,360.4
761.5898,226946.4
761.7131,130.3
761.9402,171.2
762.2411,107.7
762.5927,51646
762.6254,408.2
762.6503,124.9
762.7636,183.9
762.8692,122.6
762.9643,199.5
763.2662,114.2
763.5947,5509.7
764.5563,2873.6
764.7245,198.5
765.2294,624.2
765.5425,20.1
765.5611,1551.4
765.7854,550.6
765.9525,542.6
766.5368,5230.3
766.575,28455.2
766.6103,141.5
766.8435,91.9
766.8964,22.4
767.4248,18.7
767.508,323.2
767.5396,657.6
767.5783,10036
767.6638,21
767.6825,315.3
767.7274,315.3
768.0927,289.2
768.1956,721.1
768.2583,256.8
768.3821,632.2
768.497,911.6
768.553,6173.7
768.5913,44231
768.7875,216
768.8363,852.2
769.114,132
769.2527,571.2
769.48,1904.4
769.5289,657.1
769.5944,19491.8
769.7266,694
769.8033,383.5
770.4876,492.3
770.5109,9436.1
770.5702,2220.1
770.6076,11881.6
770.7017,118.8
770.9296,171.5
770.992,5464.5
771.059,499.4
771.2229,70.1
771.2928,101
771.3174,736.1
771.416,490.4
771.5756,559.3
771.61,2562
771.9293,113.2
771.9974,808.8
772.0418,422.6
772.1529,299.9
772.3921,430.4
772.5021,535.6
772.5863,23864
772.6237,949.9
772.8406,461.4
772.9384,911.6
773.4178,608.4
773.5107,1328.1
773.5898,6914
773.6228,347.1
773.7212,119.4
774.3018,204.4
774.4458,103.8
774.4901,21.3
774.5153,103.7
774.5567,949.9
774.5852,275.3
774.603,2400.7
774.9092,404.3
774.9595,22.7
775.0533,1167.1
775.6049,714.1
775.9041,17.8
775.9666,19.8
776.0103,100.6
776.2972,86.4
776.491,680.5
776.5212,957.3
776.7548,681.3
777.0101,3256.3
777.1804,147.7
777.2658,707.2
777.2885,926.8
777.5445,1850.2
778.011,201.7
778.0172,213.8
778.0459,990.7
778.3923,22.5
778.5366,42807.6
778.5827,240.7
779.0599,115.5
779.5403,16359.2
779.5885,252.1
779.9634,148.3
780.426,1089.6
780.5525,815279.8
781.0832,155.8
781.1952,635.7
781.5558,358175.7
781.7051,255.4
781.7289,18.7
782.0266,143.8
782.1449,531.8
782.2115,305.1
782.2569,291.6
782.57,596566.4
782.6052,1018.6
782.8698,279
783.026,4522.3
783.0631,243.9
783.1079,57
783.268,723
783.4382,153.9
783.573,278458.8
783.6398,71.8
783.8268,113.1
783.9616,140
784.1612,338.8
784.4814,20.5
784.5866,438390.6
784.8292,98.9
785.5053,19.2
785.5896,208637.9
785.654,3869.7
785.9605,149.3
786.4041,209.4
786.5043,135.4
786.6024,390391.8
786.6552,573.8
786.9369,277.7
787.0472,353
787.3458,650.1
787.5759,70.9
787.6053,191810.5
787.672,478.2
787.7362,131
788.023,138.7
788.3304,21.5
788.4386,421.4
788.5575,3689.3
788.6055,34328.1
788.6216,18559.1
789.0391,688
789.3601,22.2
789.5499,1543.8
789.6227,12096.6
789.667,18.3
789.9817,21.4
790.0901,158.5
790.1151,155.2
790.2436,114.8
790.5735,18576.7
790.6241,1401.3
790.8192,754.9
790.8312,544.7
790.8697,110.9
791.05,583.9
791.1426,22.8
791.2186,150.7
791.3828,18.5
791.5758,6246.8
792.4944,449.5
792.5589,1510.5
792.591,15212.5
793.1423,417.3
793.1628,24.3
793.5944,5367.3
793.9278,138.9
794.1853,245.4
794.5103,3862.9
794.5425,129
794.5683,9272.7
794.607,40833.6
794.6795,443.7
795.0059,109
795.2083,253.6
795.2955,127
795.3185,190.2
795.358,836.7
795.4778,110.7
795.5139,1294.6
795.5744,973.4
795.6103,19048.8
796.5263,139971.9
796.5658,350
796.5864,4823.5
796.624,6074.1
796.7875,117.8
796.904,126.5
797.46,645
797.5297,62128.4
797.59,893.4
797.627,2281.8
798.3396,136.3
798.5435,33277.7
798.6026,1399.3
798.9062,19.6
799.1671,239.9
799.4057,136.7
799.5453,16288.6
799.568,475.7
799.6685,255.6
799.8807,94
799.9682,509.4
800.2693,304.9
800.3672,148
800.3902,451.7
800.7769,138.7
800.9106,411.3
801.0783,488.8
801.5283,395.8
802.0628,337
802.1442,141.4
802.3395,552.6
802.4779,21
802.5368,26900.5
802.6427,109.9
802.6986,718.2
802.8326,402.3
803.2028,104.4
803.54,13303.6
803.7814,325.6
804.0642,791.3
804.5524,231871.9
805.5559,105177.8
805.6027,292.7
805.6424,171.1
805.6817,397.1
805.7465,561.5
805.8479,136.6
806.015,59.5
806.5693,327361.8
806.7966,426
807.1791,341.2
807.5724,154654.5
807.7532,116.2
808.1445,210.6
808.4223,733
808.4866,156.6
808.5854,229386.7
808.9925,216.3
809.3383,136.5
809.5882,115107.3
809.6536,439.5
809.8514,95.6
810.0788,18.6
810.6024,129009
810.6576,364.9
810.6924,101.7
811.1327,18.8
811.6053,60632.1
811.6702,12284.1
811.872,658.1
812.0032,569
812.1066,538.7
812.2653,792.6
812.5604,421.1
812.6187,47428.2
812.6733,3275.1
812.7529,406.7
812.7968,89.6
812.8241,128.7
812.9598,332.9
813.4572,796.2
813.6213,24512.3
813.6858,7324.2
814.0581,20.4
814.2054,541.7
814.2757,361
814.3753,661.2
814.5088,755.4
814.5737,2108.4
814.6219,902.3
814.6891,2866.3
815.0332,586
815.4153,138.3
815.5719,1211.7
815.6927,119.4
816.0047,1952.2
816.0409,257.7
816.0969,114.9
816.5892,13793.9
816.6443,19.6
816.7013,324.7
816.8976,551.1
817.1206,464.3
817.3435,278.1
817.5498,335.8
817.5932,1656.1
818.0088,236.6
818.2632,19
818.3137,386.2
818.506,351.8
818.5712,115.5
818.6071,5377.3
818.8659,126.6
818.919,20.1
818.9448,659.3
819.4408,146.9
819.5142,1024.7
819.6085,316.5
819.7201,78.9
819.8399,264.9
819.9402,140.4
820.1201,406.5
820.5265,41643.7
820.584,435.3
820.6238,1316.3
821.4276,251.7
821.5297,17064
821.6256,154.7
821.8768,73.8
821.9206,336.8
822.0951,278.9
822.5426,33119.4
822.6392,762.5
823.0447,18.7
823.1542,19.1
823.5456,15482.1
823.5754,784.4
823.8127,270.7
824.5584,24318.2
825.561,12354.9
825.8072,389.5
826.061,607.8
826.5791,94.9
826.6958,510.6
826.7866,362.6
827.1929,515.1
827.4946,492.1
827.782,402.3
827.8825,629.9
827.9318,166.9
827.9917,582.6
828.0509,105.9
828.3906,144
828.5524,70223.7
828.7103,98.5
828.9065,200.8
829.2627,71.1
829.5559,31483.2
829.6389,341.6
829.8596,600.2
829.9323,19.5
830.104,207.8
830.4505,1233.8
830.569,41873.5
830.7775,146.2
831.0252,19.8
831.5715,19357.8
832.0795,819.8
832.3653,360
832.3951,541.3
832.5847,57214.7
832.7108,559.5
833.0011,95.3
833.0117,88.5
833.2936,996.1
833.4597,431.6
833.5106,545.5
833.5877,26487.2
833.984,361.4
834.3632,749.6
834.6014,38092.7
834.6471,19.8
835.094,367.3
835.2528,523.6
835.3244,600.1
835.6045,18685.6
835.6679,328.4
835.7563,1295.5
836.5151,504.7
836.5503,386.7
836.6185,5309.9
837.2598,373.2
837.3862,574.4
837.5664,45.8
837.6206,1522.8
837.8117,135.8
837.8325,106.1
838.0091,121.9
838.2002,104.7
838.5117,2431.9
838.7974,148.3
838.8648,813.3
839.1166,179.7
839.3515,93.2
839.793,180.5
839.9628,329.3
840.3056,259.8
840.4616,99.2
840.5019,470.3
840.7266,226.1
840.7516,1211.8
841.1901,394.7
841.4337,519.2
841.9413,878
842.2295,871
842.5019,165.5
842.8639,189.5
843.3333,534.8
843.5172,615.2
843.6568,20.2
843.7216,23.6
844.0032,53.8
844.0636,280.6
844.1062,139.9
844.351,129.8
844.4247,181.1
844.5257,7091.7
844.6216,1819.9
844.9864,588.9
845.2673,154.8
845.3466,561.4
845.5289,1674.2
845.632,200.5
846.0687,51.3
846.1013,1155.6
846.3685,368.3
846.4233,381.8
846.5422,3997.8
846.9162,421.4
847.0529,428.6
847.2801,880.8
847.3081,132.1
847.5451,793.8
847.713,21.6
847.8441,942.8
847.9704,622.7
848.5556,4786.8
848.6705,97.3
849.3542,114.5
849.5479,660.5
849.8181,84.8
849.8399,431.2
849.9422,81
850.0776,551.7
850.1829,133.9
850.2748,342.3
850.4256,370.9
850.5378,337.1
850.7929,150.3
850.8129,296.5
851.2515,829.6
851.5117,357.5
851.7881,199.7
852.0689,445.1
852.1164,582.5
852.1456,335.5
853.3132,126.3
853.4574,134.2
853.7073,105.8
853.9499,554.1
854.5246,799.6
854.5683,2047.9
854.6182,96.2
854.7495,122.3
854.9114,397.4
855.3448,17.6
855.5304,525.5
855.6798,431.6
855.7481,129.6
856.4602,428.6
856.584,6439.9
857.4931,19.6
857.5869,1105.5
857.7716,111
857.8677,20.8
857.9554,176.5
858.3614,645.9
858.385,475.9
858.4053,394.9
858.5529,101.4
858.5796,342.2
858.6007,119.3
858.7456,727.1
858.9589,100.3
859.7788,150.7
859.923,61.5
860.677,352.8
861.0832,814.6
861.1702,20.1
861.4077,1049.7
861.5756,245.1
861.6356,21.3
861.7576,91
861.8188,341.9
861.8736,1158.3
861.9315,141.1
863.2301,584.6
863.4256,19.4
863.5576,21.2
863.6791,201.5
863.8953,136.4
864.114,911.2
864.3487,451.5
864.8899,559.5
865.3089,748.7
865.4605,19.9
866.6743,641.4
866.836,1023.9
866.863,163.2
866.8863,333.7
867.1052,101.3
867.5737,353.6
867.9419,70.6
867.9868,154.9
868.4785,733.4
868.5024,145.9
868.7595,53
868.8311,680
868.895,55.6
868.9917,144.8
869.0677,19.1
869.3301,469.6
869.3786,410.9
869.767,142.4
869.8231,222.4
869.8433,617.5
869.8692,224.3
869.883,171.4
869.9631,536.9
870.0047,522.8
870.0466,1105.5
870.063,1579.6
870.1067,365.7
870.1715,2076.4
870.2133,2824.9
870.2641,2108.2
870.2812,2533.7
870.3058,2466.4
870.3244,2213.8
870.3483,1698.7
870.3798,1116.4
870.4312,681.7
870.4501,438.2
870.4849,710.9
871.6283,684.1
871.667,399.4
872.0848,517
872.1338,102.1
872.3819,328.8
872.7893,110.4
872.8242,624.3
873.8278,681.8
874.0656,625.1
874.1249,541.9
874.1945,131.5
874.6677,337.6
874.834,160.1
875.2302,1472.6
875.3495,112.9
875.3918,225.3
875.7579,97.1
876.6794,176.5
876.7642,125.8
876.8415,420.7
877.2067,836.2
877.6416,97.9
877.7698,836.1
878.0722,500.3
878.2745,54
878.2945,469.1
878.328,1898.7
878.3913,108.4
878.4046,95.7
878.8002,187.2
878.8693,22
879.7711,422.6
880.4783,475.9
880.6288,258.6
881.3406,497.4
881.828,95
882.891,570.5
883.3256,159.2
883.377,281.9
883.6066,185.5
883.8036,1012.1
884.2514,19.1
884.7944,109.3
884.8597,23.1
885.2905,85.8
885.3532,247.8
885.4151,945.1
885.7398,271.8
885.8929,178.9
886.025,1628.4
886.2004,365.9
886.343,275.2
886.6818,382.9
886.7572,163.8
886.788,682.5
886.9641,264.1
887.1483,283.2
887.218,487.3
887.3619,95.7
887.5765,527.8
887.7154,407.6
889.1956,869.5
889.4471,315.8
890.0265,23.8
890.0748,538.1
890.1283,596.4
890.5807,952.4
891.6454,318.9
891.7578,62
891.9897,60.7
892.1418,532.9
892.5736,333.8
892.693,125.8
893.34,112.8
893.5305,804.9
893.548,738.9
893.7891,254.5
893.9932,527.1
894.2061,351.3
895.335,1246.5
895.5012,397.2
895.7315,99.8
895.9775,89.7
896.3445,225.1
896.5357,248.3
896.6025,593.6
896.7434,140
896.7852,358.9
896.8876,822.8
897.0016,675
897.2664,447
897.5979,199.6
897.6681,127.1
898.2879,676.1
898.3924,256.3
899.6449,587.7
899.7701,990.5
900.0283,658.8
900.3861,1236
901.0806,427.4
901.6439,475.8
901.796,357.8
902.1686,70.4
902.2463,559
902.3732,1333
902.6144,430.8
902.9487,251.3
903.9582,49.5
904.0215,133.7
904.0573,205.5
904.0965,67.9
904.2647,22.6
904.4306,341.9
904.7869,646.8
905.124,103.5
905.6271,350.2
906.3607,333.9
906.535,21.5
906.6808,187.5
906.9008,145.9
906.9635,836.5
907.2793,378.9
907.4981,23.6
907.7322,273.4
908.2648,85.8
908.4503,101.9
908.5244,21
908.6422,782.6
908.8177,157.4
908.9988,17
909.1338,139.8
909.276,778.9
909.3707,1132.5
910.0263,973.4
910.0745,400.1
910.1308,126.3
910.2255,892.6
910.3281,146.4
910.3617,95.2
910.4234,461.5
910.808,208.9
910.9594,794
911.2389,568.4
911.7417,254.2
912.2925,133.5
912.9715,174.4
913.2469,54.2
913.3678,112.5
913.6709,106.5
914.1492,146.3
914.1903,324.8
914.2792,430.1
914.3588,463.8
914.4825,713.8
915.0789,252.5
915.3666,17.7
915.4499,1554
915.5483,459
915.6467,321.3
915.6635,350.8
915.6697,356
915.7181,858
916.4808,1111.5
916.5161,763.8
916.5765,360
916.9364,261.5
917.156,1089.8
917.3025,1361.9
917.3379,89.4
917.4872,116.8
917.6153,57.8
918.6569,79.6
918.8554,456.7
918.8836,140.3
919.0035,356.9
919.6226,156.7
919.8467,744.8
920.1255,534.6
920.2025,242.1
920.4324,108.9
920.4873,22.9
920.5983,153.6
920.6699,380.2
920.9234,597
921.0983,259.7
921.1333,84.2
921.1723,99.2
921.2962,188.2
921.3574,119.4
922.1651,338.1
922.4465,285.4
922.4961,412.5
922.6075,564.9
922.6781,128.3
922.7911,162.2
922.9007,137.2
923.3338,341.7
923.4982,369.1
923.6006,340.3
923.7673,384.2
924.6715,457.3
924.9864,145.7
925.2986,95.5
925.4912,116.2
925.8213,325.1
926.0164,171.2
926.3471,327.7
926.6589,616.4
926.6803,780.7
926.7211,205
926.873,55
927.4284,446.7
927.5782,370.2
927.7862,577.9
928.1585,54.2
928.597,1558.4
929.3456,145.1
929.5711,322.6
929.7139,583.2
930.3134,248.1
930.34,172.3
930.3957,109.8
930.9865,807
931.1146,712.6
931.1594,247.4
931.3908,95.3
931.8715,53.3
931.9858,104.5
932.108,499.7
932.1555,156.9
932.9633,589.6
933.7776,446.1
933.8156,239
934.9445,280.5
935.4881,260.5
935.5327,565.4
935.7854,380.9
936.1332,160.3
936.208,633.1
936.9446,116.4
937.6391,252
937.6639,168.9
937.7861,650.5
937.9747,401.5
938.1928,264.7
938.8011,851.3
938.8445,187.4
939.1975,483.2
939.2496,131.1
939.7128,163.7
939.8329,968.5
939.9273,289.4
940.6694,780.2
940.727,614.2
940.8196,709.8
941.0793,152.4
941.5855,547.1
941.7442,166.9
942.0128,965.7
942.8058,97
943.2303,1705.3
943.2912,215.8
943.4156,421
943.6337,110.4
944.1108,70.4
944.1496,527.1
944.2889,278.6
945.7594,432.3
945.9907,355.5
946.2911,108.4
946.4485,333.6
947.5608,327.4
947.7355,19.7
947.7934,448.6
948.0825,1778.4
948.3694,754.5
948.6192,180.4
949.2286,808.1
949.5362,575.6
949.6619,410.4
949.8717,479.3
949.9111,91.9
950.1796,182.5
950.2105,151.8
950.3713,110.2
950.8553,59.4
950.9457,145.3
951.7564,212.6
952.671,138.1
952.752,100.3
953.4835,417
954.5403,174.4
955.1677,350.5
955.284,20.8
955.7229,266.8
955.8793,656.3
955.9305,826.6
956.0611,1052
956.237,138.7
956.6157,448.5
956.7218,288.5
956.9145,98.1
956.9528,113.5
957.0899,24.4
957.2254,169.4
957.5181,109.7
957.6038,418.6
957.7894,51
958.1024,628.9
958.9241,179.9
959.3578,1488.3
959.4405,533.4
959.5069,144.3
959.7153,86.5
959.8593,391.3
960.1538,560.4
960.2044,863.1
960.5933,52.5
960.7327,95.1
960.7721,1182.2
961.0891,111.3
961.2347,195.4
961.4026,87
961.4321,208.9
961.7186,404.1
961.9101,56.6
962.0492,79.5
962.3472,145.7
962.6159,120.3
962.6931,23.7
962.7382,481.6
963.0628,226.9
963.2643,140
963.5506,182.7
964.1874,152.4
964.562,607.5
964.6757,118.1
964.9411,80.2
965.12,477.4
965.1413,20.8
965.1746,787.8
965.1904,801.6
965.4741,870.8
965.5264,415
965.6214,513.7
965.7692,282.2
965.9153,2071.5
966.6026,242.7
966.7625,18.7
966.9673,136.3
967.1363,21.4
967.2594,176.7
967.4959,96.9
968.3316,1124.7
968.5933,733.5
968.741,402
969.0801,689.5
969.0992,561.3
969.417,353.1
969.4463,567.6
969.4815,523.6
969.648,101.8
969.762,153.7
969.848,693.7
969.8611,801.4
970.1596,476.5
971.0359,150.3
971.255,669.3
971.3615,406.4
971.3885,347.8
971.7202,208.7
972.4065,1192.3
972.5085,778.7
972.9333,514.6
973.0304,919.6
973.1593,616.1
973.34,571
973.5423,364
974.9592,20.3
975.3951,654.9
975.5874,579.8
975.6734,666.7
975.9202,139.1
976.0696,330.8
976.176,584.5
977.3872,556.4
977.4177,728.5
977.5147,121.1
977.8522,114.6
978.0106,260.2
978.0424,368.5
978.3763,449.9
978.4564,101.7
978.5225,108.6
978.573,520.8
978.6345,156
979.3971,115.2
979.5062,82.7
979.9046,62.5
980.0641,921.9
980.7106,1800.9
980.7634,1810
980.9041,151.9
981.0912,811.3
981.1861,100.9
981.4978,177.9
981.8581,804.8
982.1617,336.5
982.2152,106.5
982.2776,805.3
982.5793,354.6
982.9681,561.4
983.3984,115.5
983.5997,85.5
983.8407,120.9
983.9418,388.7
984.2756,229.6
984.6026,256.4
984.6137,249.3
984.7894,194
985.2335,112.6
985.2848,414.2
985.6189,857.5
986.0034,91.9
986.2938,191.5
986.3304,133.5
986.4754,212
986.6121,170
986.8029,808.1
987.0559,618.7
987.0832,932.7
987.1261,133.7
987.1879,199
987.483,660.4
987.51,481.5
987.5429,469.6
987.811,21.8
987.8761,607.5
987.9818,450.6
988.8835,20.9
989.5485,435.7
990.0853,113.5
990.2528,18.7
990.4856,549.8
990.7566,78.6
990.7897,312.6
991.141,655.8
991.2624,138.4
991.8475,813.2
991.9747,715.2
992.0328,83.5
992.3459,58.3
992.5508,1077.9
992.6564,394
992.72,104.9
993.4116,400.7
993.442,101.1
993.5549,572.2
994.0657,161
994.3637,2145.8
995.1477,217.5
995.7449,435.6
996.0368,144.3
996.083,125.4
996.2374,106.6
996.8412,547.8
996.9919,158.1
997.2586,149.6
997.5208,97.2
998.2108,312.9
999.5816,117.3
999.7784,856.8
