SPECTRUM - MS,
806.RAW,
FTMS + p ESI Full ms [50.00-1000.00],
Scan #: 1-40,
RT: 0.01-1.97,
AV: 40,
m/z,Intensity

50.0099,138.7
50.0129,143.2
50.0132,157.9
50.0193,578.9
50.0225,756.1
50.0341,108.9
50.0396,303.5
50.0469,147.7
50.0554,507.8
50.0703,112.1
50.0876,17.3
50.0905,91.9
50.1006,697.5
50.1061,122.2
50.1311,128.7
50.1379,122.2
50.1483,94
50.1573,83.6
50.1733,314.2
50.1831,338.5
50.1965,106.5
50.2083,83.1
50.2146,98.6
50.2331,70.9
50.25,131.6
50.2606,121.3
50.2845,178.5
50.2872,257.5
50.2882,68.6
50.2914,545
50.3207,272.6
50.3243,16.1
50.3451,208.5
50.3603,731.3
50.3846,108
50.3874,84.9
50.3913,113.1
50.3981,16.3
50.4398,546.7
50.4413,81.6
50.447,145.7
50.4509,475.7
50.4616,192.5
50.4695,492.8
50.4845,89.7
50.4886,137.8
50.4974,445.9
50.5109,290.4
50.5118,425.7
50.5285,304.4
50.5622,133
50.5804,127
50.6109,195.6
50.6169,270.3
50.6171,360.4
50.6172,358.5
50.6176,17.5
50.6183,132
50.6207,22.1
50.6393,184.1
50.6483,140.7
50.6659,281.3
50.6844,584.9
50.6865,15.4
50.7145,75.1
50.722,113.8
50.7305,112.5
50.7417,149
50.7608,187
50.7739,109.7
50.7799,130.1
50.7854,657.6
50.7953,452
50.8049,130.3
50.8186,498.7
50.8228,34.6
50.8233,15.1
50.826,83.2
50.8425,337.2
50.8566,86.6
50.8717,275.3
50.8747,101
50.8809,74.4
50.8891,204.8
50.8945,482.3
50.9052,96.9
50.9111,441.9
50.9335,382
50.9362,289.7
50.9412,100.2
50.9452,90.7
50.9529,95
50.9553,88.6
50.9569,89.8
50.9752,77.1
50.9817,204.6
50.9858,148.6
50.9914,16.3
51.0012,150.8
51.002,237.4
51.008,124.7
51.0219,80.4
51.026,132.8
51.0447,127.6
51.0476,128.5
51.057,74.7
51.068,91.6
51.0734,22.8
51.0751,142.4
51.0865,103.1
51.1043,70.2
51.1062,169
51.1071,15.8
51.1159,102.2
51.1504,665
51.1898,82.6
51.213,275.3
51.2193,18
51.2332,492.7
51.2378,341.3
51.2648,16.7
51.2772,142.2
51.2807,16
51.281,604.1
51.3011,107.6
51.3075,131.3
51.3135,17.4
51.3463,121.4
51.3643,94.6
51.365,15.2
51.369,666
51.3699,17.3
51.3714,18
51.3797,96.2
51.4103,378.3
51.4195,18.5
51.4212,73.7
51.4294,74.7
51.4376,74
51.4392,91
51.4568,171.1
51.4815,16.3
51.4819,68.3
51.4961,881.4
51.5065,604.3
51.5084,568
51.509,406.8
51.5162,497.5
51.5165,128.6
51.5244,263.3
51.5586,181.9
51.5589,126
51.5742,158.4
51.5843,627.8
51.592,101.1
51.596,130.8
51.5971,17
51.6024,98.5
51.6603,126.4
51.6697,439.3
51.6821,359.4
51.6988,16.4
51.6997,164.1
51.7285,247.5
51.7358,487.6
51.7476,17.3
51.7521,143.1
51.7561,106.4
51.7629,155.4
51.7647,316
51.7686,426
51.7967,132.6
51.8324,345.1
51.8398,116.7
51.8424,94.6
51.858,733.5
51.8778,16.9
51.8858,359.4
51.9033,632.5
51.9049,235.6
51.9428,179
51.9587,17.4
51.9961,326.4
52.0177,497.8
52.0491,110.4
52.0586,187.5
52.0593,284.6
52.0625,75.1
52.1069,116.1
52.11,594.1
52.1191,120
52.1297,357.9
52.1405,83.9
52.1493,424.7
52.1528,186.7
52.1611,390.5
52.1809,89
52.2079,369.2
52.231,177.8
52.2362,184.8
52.2455,110.4
52.2527,405
52.2548,391.2
52.2625,117
52.272,114
52.2819,162.2
52.2896,427.7
52.2931,80.4
52.3111,118
52.3151,107.3
52.3272,505.2
52.3339,396
52.3517,376.4
52.4076,503
52.4146,271.9
52.4953,259.9
52.5042,147.2
52.5336,142.6
52.535,164.4
52.551,165.7
52.5547,319.4
52.5662,165.6
52.5799,15.3
52.5821,272
52.5841,321.3
52.586,458.6
52.5901,351.3
52.6023,100.4
52.6076,295.4
52.6103,102.9
52.6153,98.6
52.6281,94.9
52.6472,231
52.6492,108.9
52.6643,676.9
52.6732,88.5
52.6753,253
52.6956,17.4
52.7629,357
52.7695,15.7
52.7746,274.5
52.7837,362
52.7909,335.4
52.7915,798.8
52.7924,4795.2
52.7929,1134.5
52.7932,1902.6
52.7941,2950.6
52.795,3254.4
52.7961,37.5
52.7966,442.1
52.8006,470.2
52.8122,72.9
52.8304,143.6
52.8449,139
52.8563,114.5
52.8658,86.2
52.8723,75.2
52.8737,134.6
52.8863,369.7
52.9075,138.7
52.913,263.5
52.9167,134.6
52.9276,127.4
52.9368,116.7
52.9468,16.8
52.957,271.7
52.9807,271.5
52.9842,109
52.9928,496.1
52.9999,19.7
53.0409,82.6
53.044,149.3
53.0555,16.9
53.0592,283.2
53.0649,341
53.074,434.4
53.0863,402.4
53.0987,170.9
53.1044,257.1
53.1082,236.3
53.1229,334.4
53.1529,118.4
53.1826,15.9
53.1854,16.8
53.2099,662
53.2175,187.3
53.2376,90.9
53.2471,354.2
53.2587,96.2
53.2637,229.3
53.267,82.9
53.2701,156.6
53.2809,131.9
53.2816,150.4
53.3092,160
53.3117,159.1
53.3129,452.5
53.3198,17.2
53.3305,500.8
53.3584,127
53.3737,242.9
53.3885,531.6
53.3916,133.4
53.3944,177.3
53.397,114.2
53.4382,184.5
53.4449,443.5
53.4634,17.4
53.4684,398.2
53.4797,100.5
53.4872,17.3
53.5113,813.3
53.512,396.9
53.516,534.5
53.5215,659
53.5358,369.3
53.5407,83.3
53.5531,298.9
53.5731,18
53.5751,730.1
53.5765,637.9
53.5834,17.3
53.5986,67.5
53.6022,660.7
53.6066,126.8
53.6087,511.2
53.6091,136.3
53.6216,82.2
53.6312,136.3
53.647,117.1
53.6576,69.7
53.6602,102
53.6613,165
53.6628,416.5
53.6661,267.6
53.683,131.4
53.6834,535.3
53.6888,194.9
53.6933,314.6
53.7008,324
53.7335,113.1
53.7366,124.7
53.7399,74.9
53.7512,17.6
53.752,18.4
53.765,15.7
53.7667,86.2
53.7852,18
53.7921,517
53.8161,390.8
53.8195,339.6
53.8342,85.8
53.8355,92
53.8405,532.2
53.8418,245.6
53.8434,124.9
53.8461,512.6
53.8497,116.8
53.8634,314.9
53.864,495.8
53.8687,476.8
53.8801,21.5
53.8961,16.7
53.9251,614.5
53.9261,20
53.9442,497.9
53.9611,231
53.9707,95.3
53.9943,89
54.0113,320
54.0164,122.8
54.0166,124.4
54.0172,75.1
54.0329,423.1
54.0609,160.7
54.0724,158.8
54.0731,484.5
54.0736,122
54.0762,221.5
54.1041,97.5
54.1389,754.1
54.1492,77.3
54.1576,134
54.1599,564.4
54.1723,102.9
54.1747,257.4
54.2039,156.3
54.2075,331.3
54.2141,154.5
54.2219,413.1
54.225,448.6
54.2287,96.8
54.2617,76.9
54.2817,80.9
54.287,695.7
54.2913,435.7
54.2942,445.6
54.3055,549.7
54.3072,84.9
54.322,89.3
54.3416,186
54.3462,130.7
54.3617,90.5
54.3718,87.3
54.3738,16.8
54.386,548.9
54.3881,256.3
54.4135,702.5
54.4399,319.4
54.4447,104.6
54.4654,104.1
54.4671,332.2
54.4709,317.7
54.4829,81.7
54.505,735.2
54.5575,116
54.5595,514.1
54.5757,72.5
54.5804,153.8
54.6109,291.3
54.6185,78.2
54.6303,18.8
54.6337,143.3
54.6354,70
54.6443,510.8
54.6546,76.3
54.6754,103
54.699,389.4
54.7011,428.1
54.7068,82.2
54.7153,379
54.7253,15.3
54.7442,318.4
54.7483,379.9
54.7717,115.4
54.7796,141.8
54.7889,134.9
54.812,703.3
54.8446,281.2
54.8563,128.4
54.8571,96.6
54.8587,481.1
54.8752,69.9
54.8812,17.1
54.882,125.5
54.8852,87.7
54.8951,229
54.8971,124.4
54.898,328.6
54.928,123.6
54.9308,497.1
54.9389,138.5
54.9428,325.1
54.9505,318.1
54.976,210.3
54.9805,257.6
54.9917,624.6
55.0074,16.5
55.0239,245.8
55.0366,323.8
55.0367,308.3
55.037,80.1
55.045,331.5
55.0493,129.3
55.0524,118.2
55.0542,271.3
55.0761,242.3
55.0879,532.7
55.0933,111.4
55.0979,162.2
55.1049,91.4
55.1307,296.4
55.134,17.1
55.1361,74.7
55.1367,449.2
55.1843,262.5
55.189,303.4
55.1932,16.6
55.2108,143.2
55.2194,16.2
55.2226,579.3
55.2251,99.8
55.2294,449.7
55.2409,251.3
55.2415,687.6
55.2458,108.2
55.2486,100.7
55.2515,84.5
55.2698,71.3
55.3229,99.3
55.3426,475.4
55.3464,774.7
55.3527,364.2
55.3534,504.7
55.3594,103
55.3638,277.9
55.3966,109.8
55.4001,145.8
55.4042,377.1
55.427,310.4
55.4277,68.3
55.4283,15.7
55.4345,413.8
55.4366,98.9
55.4408,625
55.4584,651.2
55.4757,364.8
55.4935,106.6
55.4943,561.9
55.5112,95.3
55.5206,99.4
55.5407,132.9
55.5579,96.8
55.5749,16.8
55.6007,289.8
55.6112,102.2
55.6259,370.2
55.6282,253
55.6322,444.3
55.6381,185.6
55.6481,16.1
55.6531,415.3
55.6585,199.5
55.6769,146.6
55.6803,101.8
55.6833,123.9
55.7027,441
55.7186,181.3
55.7305,383.3
55.7409,161.8
55.7434,121.6
55.7595,655.8
55.7763,581.9
55.7766,144.7
55.7778,82.6
55.7929,325.7
55.8068,121.5
55.8091,78.1
55.8119,77.7
55.878,243.3
55.8808,102.3
55.907,93.2
55.9126,786.2
55.9398,610.4
55.9444,114.6
55.9468,164.7
55.9608,577.2
55.9871,168.2
55.9912,377.9
55.994,144.6
55.9958,94.7
55.9963,337.4
56.0198,208
56.0315,96.4
56.0349,465.1
56.0588,425.5
56.085,138.3
56.0851,135.3
56.0946,647.6
56.0959,140.4
56.1281,285.1
56.129,84.5
56.1297,411.9
56.1824,81.6
56.1898,229.6
56.2051,383.2
56.2084,145.8
56.2366,396.5
56.2379,654.2
56.2408,744.7
56.2426,355.2
56.2454,346.2
56.271,503.8
56.2968,84.7
56.3265,129.2
56.3298,299.2
56.338,89.6
56.3509,95.5
56.3602,130.2
56.3676,299.3
56.3727,84.9
56.3777,89.8
56.3807,144.8
56.4148,158.2
56.416,689.3
56.4319,291.9
56.4662,83.6
56.49,332.6
56.493,346.8
56.5005,348
56.5256,80.7
56.5406,287.3
56.5525,438.9
56.5595,17.9
56.5929,136.2
56.6074,114.7
56.6267,298.8
56.6313,144.8
56.6357,16.6
56.6471,74.4
56.6495,114.6
56.6552,162.8
56.6558,18.2
56.6752,19.3
56.7128,144.6
56.7229,96.2
56.7507,603.7
56.7704,762.2
56.7892,144.7
56.7952,142.9
56.7994,17.2
56.811,77.6
56.824,17.5
56.8428,97.4
56.845,327.4
56.8468,346.2
56.8556,123.3
56.8638,119.9
56.8813,146.2
56.8964,164.8
56.9079,73.5
56.9176,301.1
56.9182,468.1
56.9204,539.8
56.9265,19.3
56.9504,590.3
56.9595,335.9
56.978,18.4
56.9944,453.5
57.0002,103.5
57.0088,308
57.0097,105.4
57.0428,335
57.0601,86
57.0683,15.9
57.0691,334.7
57.0914,491.1
57.0988,123.3
57.1065,656.5
57.1294,138
57.1365,593.5
57.1488,259
57.152,562.8
57.1917,266.6
57.1925,643.1
57.2002,147.9
57.2155,72.4
57.2405,619.7
57.2416,343.8
57.2435,116.7
57.2501,135.4
57.2627,129.3
57.2651,272.2
57.2704,266.6
57.273,444.9
57.2771,123.4
57.2825,320.3
57.2918,423.4
57.2964,635.4
57.3001,575.6
57.3041,16.5
57.3114,74.6
57.3267,96.3
57.3333,15.9
57.3361,574.5
57.3402,279.1
57.3418,99
57.3459,205.2
57.3728,381.6
57.3755,70.2
57.3882,509.5
57.3988,144
57.4038,520
57.4278,152.4
57.4342,75.9
57.4385,77.2
57.4631,490.7
57.4633,599.2
57.5001,82.6
57.5014,385.7
57.5123,564.5
57.5135,79.9
57.5162,120.5
57.5332,327.3
57.5652,84.2
57.5689,156.1
57.5698,17.7
57.5806,78.4
57.5882,179.5
57.6229,124.9
57.6236,716.5
57.6369,641.3
57.6713,77.5
57.6929,922.9
57.7262,323.2
57.7266,468.1
57.7472,241.7
57.7557,97.8
57.7657,262
57.7697,106.2
57.7736,169.6
57.7797,18.2
57.7849,145
57.7885,355.6
57.7923,110.6
57.799,111.5
57.8132,242.1
57.8211,258.5
57.8243,25.1
57.8275,345.1
57.842,632.4
57.8582,15.7
57.8615,16.2
57.8741,114.4
57.8751,300.8
57.879,365
57.8811,438.6
57.8883,607.8
57.9132,332.3
57.9262,100.9
57.9739,272.1
57.9834,420.6
57.9999,148.1
58.0037,271.7
58.005,127.7
58.0116,480.5
58.0267,121.9
58.0303,290.7
58.0357,284.5
58.0377,226.3
58.0456,142.8
58.0709,72.7
58.0807,712.6
58.0973,244.3
58.1091,89.4
58.1114,199.8
58.1145,90
58.119,110.6
58.1419,15.6
58.1513,255.4
58.1581,109.2
58.1764,107.8
58.1991,630.1
58.2037,437.1
58.2113,16.7
58.2212,106.7
58.2236,118.2
58.2373,360.3
58.2715,489.4
58.2891,447.2
58.2897,107.9
58.3089,137.9
58.3103,290.3
58.3298,146.1
58.3348,274.8
58.3456,478.4
58.3662,352.9
58.3714,439.3
58.3798,18
58.4184,202.4
58.4661,429.8
58.4708,552.2
58.4728,415.2
58.4731,434.1
58.486,125.5
58.5333,110.2
58.5461,94
58.577,605.9
58.6098,140.8
58.6288,105.9
58.6343,430.7
58.6357,322.6
58.6373,161.2
58.6591,129.6
58.663,376.3
58.6654,300.7
58.6753,409.6
58.6831,80.3
58.6966,433.6
58.7469,17.3
58.7644,524.7
58.7674,100.6
58.7707,86.9
58.7775,166.2
58.7812,437.7
58.7852,124.5
58.7929,20.1
58.8241,787.9
58.8284,112.6
58.8291,137
58.8465,114.7
58.8492,113.3
58.8669,17.7
58.876,151.4
58.8876,421.1
58.8896,628.2
58.9051,338.6
58.9066,148.7
58.9123,82.3
58.9147,426
58.9596,166.3
58.9659,80.3
58.9784,17.1
58.9854,18.2
58.995,395.4
58.9969,587.7
59.0016,528.5
59.0054,245.8
59.0134,171.7
59.0368,386.1
59.038,130.8
59.0386,92.1
59.0577,132
59.0635,405.3
59.0855,90.7
59.0912,97.8
59.1002,134.4
59.1168,386.3
59.1211,122.7
59.1315,107.4
59.1781,196.7
59.1872,338.6
59.19,171.7
59.2142,484.3
59.2176,16.9
59.2435,221
59.2509,18.7
59.2677,75.5
59.2762,135
59.2979,623.3
59.3087,104.4
59.3632,606.2
59.3827,304.1
59.3975,334.2
59.4076,273.5
59.4089,18.6
59.4146,112.9
59.4501,119.6
59.4555,647.3
59.4589,155.2
59.473,80
59.4754,219.1
59.4891,330.3
59.4894,118.7
59.5029,17.3
59.5242,86.9
59.5399,74.5
59.546,91.7
59.5621,144
59.5712,558.9
59.586,111.2
59.5932,93.6
59.594,155.1
59.6082,230.2
59.6238,135.4
59.6242,89.1
59.6448,79.7
59.6475,88.2
59.6796,185.3
59.7039,78.8
59.7089,17.4
59.7173,385.8
59.7854,17.1
59.8038,98.8
59.8082,17.4
59.8272,193.9
59.8446,810.4
59.8538,107.1
59.865,474.7
59.8751,78.3
59.9035,156.1
59.9138,350.8
59.9259,157.2
59.9273,79.4
59.9405,204.7
59.9839,512.4
59.9851,800.2
59.9878,160.8
60.0076,363.6
60.0235,123.4
60.0242,20.5
60.0375,176
60.0437,18.4
60.0503,230.8
60.0664,15.7
60.1166,413.9
60.1201,133.1
60.1537,424.3
60.1574,283.6
60.1734,16.2
60.1769,395.1
60.1789,152.1
60.1821,342.3
60.1966,527.4
60.2029,105.2
60.2065,17.7
60.2096,317
60.211,93.7
60.2137,328.6
60.2315,126.2
60.2601,133.1
60.264,158.2
60.2768,434.9
60.298,17.9
60.3226,591.8
60.3267,579.3
60.3295,481.4
60.3376,197.5
60.3379,192.4
60.3386,267.9
60.3428,16.9
60.3652,252.8
60.3845,575.4
60.3934,823.6
60.4047,17.2
60.4055,192
60.4173,327.9
60.4194,215.5
60.4334,207
60.4531,209.5
60.4567,695.1
60.4662,72.4
60.4676,95.1
60.4698,552.4
60.4702,102.4
60.4721,73.9
60.5027,449.8
60.5048,231.4
60.5257,192.7
60.5272,306.8
60.5489,100.1
60.5645,958.2
60.5692,555
60.6219,200.5
60.6537,665.4
60.6975,483.9
60.7395,696.9
60.7441,609.5
60.7473,358.3
60.7518,16.4
60.7906,122.1
60.7921,17.7
60.7956,173.3
60.8012,223.1
60.8078,516.4
60.8111,81.3
60.8261,493.5
60.8394,344.9
60.8491,340.4
60.8678,88.5
60.8739,162.5
60.891,489.5
60.8922,266.2
60.9028,699.4
60.9208,305.6
60.9444,105.2
60.96,104.9
60.9664,17.1
60.9711,183.1
60.9738,746.3
61.0051,89.7
61.0128,542.7
61.0299,484.7
61.0549,204.3
61.0681,16.9
61.0707,578.4
61.074,108.4
61.1091,105.7
61.1153,116.8
61.1169,685.2
61.1257,225.5
61.1286,319.4
61.1317,232.5
61.1405,101.4
61.1451,350.1
61.1753,525
61.1827,424.8
61.1876,1101.3
61.188,154.9
61.1926,340.7
61.2307,342.1
61.2319,354.4
61.2358,209.2
61.2377,343.1
61.2544,207.8
61.2619,16.7
61.2699,312.7
61.3007,657.6
61.3037,114.7
61.3498,15.3
61.3633,109.7
61.3665,99.9
61.3706,146
61.3823,142.2
61.3937,768.6
61.4202,313.9
61.4663,130.4
61.4694,16.7
61.4803,129
61.4892,80.7
61.563,207
61.5837,16
61.6248,298.3
61.6256,575.9
61.6262,94
61.646,389.7
61.648,602.7
61.653,222.2
61.6555,458.8
61.6691,250.3
61.676,139.7
61.6873,90.8
61.6883,104.4
61.6903,137.7
61.7031,240.9
61.7634,409.5
61.7714,348.9
61.7938,22.9
61.8029,114.8
61.8201,175.5
61.8331,18
61.8375,224.3
61.8739,483.6
61.8999,271.5
61.9059,279.8
61.9082,144
61.9096,639.6
61.9121,92.2
61.9174,480.9
61.932,543.6
61.9991,97.8
62.0282,324.5
62.0357,71.4
62.0494,168.9
62.0575,80
62.0613,94.2
62.069,501.4
62.0713,165
62.0745,287.8
62.0754,138.7
62.0764,706.2
62.0797,190.2
62.0937,539.8
62.1026,150.3
62.1227,351.2
62.1312,469.7
62.1656,301.6
62.1719,165.9
62.1844,14.4
62.1906,126.3
62.2152,612.9
62.2387,678.1
62.2419,17.3
62.2437,287.7
62.2463,122.9
62.2472,145.5
62.2525,129.6
62.253,105.3
62.2568,321.4
62.2585,426.8
62.2628,75.7
62.2658,472.7
62.267,96.9
62.2718,282.9
62.2766,283
62.282,91.2
62.3061,285.1
62.3079,87.8
62.3097,329.8
62.3413,18.9
62.3479,118
62.3499,744.5
62.3542,762.9
62.3582,209.3
62.3622,17.2
62.3667,697.1
62.3727,878.8
62.3753,18.4
62.3798,614.2
62.3916,114.3
62.3933,98.3
62.4173,307.9
62.4212,79.3
62.4254,96.1
62.4272,113.2
62.4358,113.3
62.4392,538
62.4407,471.9
62.4531,21.9
62.4679,606.8
62.4785,17.7
62.4813,452.8
62.4909,510.2
62.5062,74.9
62.5134,635.4
62.5304,407.3
62.5393,207.2
62.5438,675.4
62.5679,232.7
62.576,680.8
62.5884,261.3
62.623,290.6
62.6409,136.7
62.6672,587.3
62.6759,654.8
62.6883,249.5
62.728,532.3
62.7339,556.1
62.7674,466.6
62.7702,77.2
62.7841,18.4
62.7955,360
62.7962,85
62.854,17.1
62.8647,128.9
62.8703,176.1
62.8789,205.2
62.907,110.7
62.9165,234.5
62.9174,128.5
62.943,16.4
62.9486,431.4
62.9569,126.1
63.0218,142.2
63.0349,157.7
63.0389,319.1
63.0407,430.8
63.0437,341.1
63.0458,19.3
63.0738,162
63.1029,208.6
63.1085,16
63.1171,677
63.1203,715
63.1324,617.5
63.133,129.4
63.1398,79.4
63.1471,599.5
63.1678,384.8
63.195,100
63.2078,79.9
63.2176,378.8
63.2217,152.3
63.2268,132.7
63.232,339.2
63.2808,148
63.2847,524.9
63.2863,220.1
63.3125,338.6
63.3488,18.1
63.3703,15.5
63.3822,589.5
63.3976,176
63.4256,178
63.4357,155.7
63.4373,105.1
63.442,469.9
63.4432,381.7
63.4591,464.6
63.4697,102.1
63.4791,619.5
63.4927,86.7
63.4942,365.2
63.5216,91.4
63.5367,20.2
63.5596,158.4
63.5601,498.7
63.5624,350.1
63.5656,135.3
63.5717,339.5
63.6201,670.2
63.637,120.6
63.6602,178.7
63.6609,165
63.673,105.9
63.6798,91.1
63.6851,355.8
63.6922,671.7
63.7047,111.3
63.7517,689.5
63.7742,132
63.7824,401.3
63.8017,83.6
63.8045,540.6
63.8116,83.2
63.8151,308.2
63.8297,16.3
63.8465,94
63.8512,432.9
63.859,426.8
63.8717,103
63.8728,110.2
63.8823,194.8
63.8824,216.9
63.8827,113
63.895,257.5
63.9035,305.2
63.9073,80.3
63.9084,385.5
63.9148,690.4
63.9209,609.6
63.9265,509.5
63.9444,556.7
63.9692,105.6
63.9969,202.8
64.022,343.7
64.0391,304.7
64.0498,16.6
64.0727,14.9
64.0855,169.8
64.0897,109.1
64.1016,319.9
64.1029,73.5
64.1406,98.3
64.1523,143.4
64.165,197.1
64.1663,76.7
64.1856,109.8
64.2257,399.8
64.23,18.6
64.2312,399.2
64.2387,758.7
64.2496,289.9
64.2718,534
64.2728,381.8
64.2871,20.2
64.3189,322.7
64.3478,404.2
64.3512,209
64.4092,78.6
64.4456,357.7
64.5096,191.6
64.5102,358.5
64.5211,772.7
64.5344,684.7
64.5451,95.3
64.5543,350.5
64.5605,477.1
64.5771,102.1
64.5781,145.8
64.5847,362.4
64.607,140
64.6132,138.7
64.6412,145.2
64.6611,485.3
64.6949,81.7
64.6961,242.3
64.7505,19.6
64.7683,157.5
64.7743,316.2
64.7966,395.1
64.7971,485.7
64.8015,482.3
64.8179,94.9
64.8274,833.1
64.8527,94.9
64.8541,150.9
64.8705,137.9
64.8723,744
64.8742,386.3
64.8758,201.8
64.877,17.9
64.8796,139.7
64.8858,506.5
64.891,223.2
64.8938,204
64.8959,509.3
64.9017,109.9
64.916,212.3
64.9583,117.9
64.9614,319.8
64.9709,17.6
64.9761,161.2
64.9857,17.9
64.9867,305.6
65.0054,703.8
65.0359,79.8
65.0516,470
65.0663,546.8
65.0759,657.9
65.0982,366.3
65.1006,250.4
65.1136,116.5
65.1742,15.9
65.194,18.9
65.213,349
65.2208,201.5
65.2467,123
65.2474,253.8
65.2774,302.4
65.2845,20.3
65.2853,205
65.2874,76.6
65.2927,115.9
65.3026,280.1
65.314,73.4
65.3421,159.7
65.3534,317
65.3834,195
65.3873,143.3
65.3923,198.6
65.4439,156.1
65.468,275.7
65.486,89.1
65.4916,17.8
65.5014,20.8
65.5149,147.3
65.5179,77.3
65.5225,1161
65.555,102.5
65.5627,21.4
65.5714,16.6
65.6059,15.8
65.6175,105.8
65.6182,400.9
65.6311,116.4
65.6356,351.7
65.6366,729.2
65.6374,117.1
65.6432,629.1
65.6622,225.3
65.6661,469.4
65.6748,397
65.6935,189.1
65.7022,435.3
65.7166,19.7
65.7321,363.4
65.7408,218.8
65.754,405.6
65.7543,116.8
65.7764,118.1
65.8095,308
65.8117,16.4
65.8324,265.8
65.8533,105.6
65.8752,205.1
65.8823,126.2
65.8914,172.3
65.8958,220.9
65.9308,543.9
65.9522,16.6
65.9589,104
65.9595,364.1
65.9673,616.3
65.9687,17.9
65.9756,84.6
65.9818,20.1
65.9906,76.9
65.9993,417.2
66.0008,98.9
66.0075,250.9
66.0103,304.7
66.0125,402.5
66.0336,148.1
66.0344,147.6
66.0402,18.5
66.0436,346.6
66.0452,607.2
66.0675,357.5
66.0696,79.3
66.0903,183.6
66.1006,167.1
66.1056,122.3
66.1132,124.7
66.1144,97.9
66.1203,110.4
66.1214,110.2
66.1334,17.2
66.1349,383.8
66.1633,246.8
66.1763,748.3
66.1857,112
66.1863,18.1
66.1996,361.4
66.2005,83.9
66.2054,97.6
66.2094,367.1
66.2113,290.4
66.218,308.3
66.2197,174.9
66.224,164.8
66.2305,823.9
66.2337,469.4
66.2541,328.9
66.2583,118.1
66.26,616.8
66.2666,18
66.2835,104.2
66.2939,483.9
66.2962,291.8
66.2977,140
66.3043,565.5
66.3303,330.3
66.3365,107.8
66.3572,579.1
66.3797,271.9
66.4128,18.5
66.4206,262.4
66.4321,17.9
66.4394,157.3
66.5045,311.9
66.5076,173.1
66.517,317.7
66.5238,146.2
66.5246,143.6
66.5272,236.5
66.5537,22.3
66.5672,16.8
66.5695,775.3
66.57,284.1
66.5717,78.5
66.6064,189.6
66.6107,144
66.6301,17.5
66.6402,580.8
66.6437,97.7
66.6488,107.2
66.6494,98.9
66.684,355.2
66.6873,18
66.7141,233.1
66.7375,94.1
66.7387,18.5
66.7516,140.4
66.7562,102.1
66.7625,451.2
66.7698,148.5
66.783,154
66.7964,742.3
66.8096,390.9
66.8429,17.3
66.8454,115.8
66.8551,131
66.8612,229.6
66.9111,93
66.936,103.9
66.9563,432.2
66.9624,174.5
66.9762,81.4
66.9804,102.8
66.9853,439.8
66.9969,117.9
67.013,212.4
67.0351,77.3
67.0463,182.5
67.0539,74.1
67.0543,380.9
67.0757,249.3
67.0814,207.4
67.0856,174.3
67.1057,21.3
67.1143,83.8
67.1185,89.1
67.1329,542.4
67.1415,84.8
67.2269,447.5
67.2402,336.1
67.2485,117.3
67.2673,103.5
67.2931,89.2
67.3247,147.5
67.3284,82.4
67.3397,751.9
67.3529,83.8
67.3611,344.6
67.3777,289.1
67.4052,630.1
67.4073,555.5
67.4102,17.1
67.4261,112.5
67.4322,17.8
67.4384,95
67.4585,163.6
67.4623,80
67.4635,239.4
67.4728,321.2
67.5045,338.5
67.5053,162.7
67.5166,81.9
67.5332,385.7
67.5577,19.2
67.5657,205.7
67.5726,17.9
67.5766,808.3
67.5801,160
67.5865,534.1
67.6295,308
67.6325,268.7
67.6457,392.2
67.6516,17.4
67.662,93.1
67.6639,171.8
67.6859,145
67.7114,633.8
67.7142,118
67.7186,147.9
67.7285,274.9
67.7317,19
67.7323,620.5
67.7567,80
67.7572,366
67.7617,152.5
67.769,417
67.78,414.1
67.7866,154.2
67.7871,338.4
67.793,155.8
67.801,110.8
67.8072,589.1
67.8125,269.1
67.8264,87.4
67.8738,408.9
67.8966,26.6
67.9061,88.9
67.9068,137.7
67.9224,269.3
67.9265,499.8
67.9357,485.5
67.9545,143.9
67.955,202.5
67.9868,19.8
68.0004,132
68.0099,118.4
68.0117,573
68.0321,574.4
68.0408,94.6
68.045,627.3
68.0634,178.3
68.078,287.3
68.084,228
68.1016,124
68.1293,114
68.1348,685.5
68.1371,103.5
68.1393,519.7
68.1413,378
68.149,148.9
68.1609,88.6
68.1616,103.5
68.2262,148.9
68.2274,115.5
68.2351,415
68.2469,385.4
68.2703,256.8
68.2784,157.1
68.2816,18.2
68.2955,135.7
68.3027,330.1
68.3082,416.6
68.3127,132
68.3222,16.4
68.3716,303.6
68.3749,168.5
68.3975,822
68.4403,94.6
68.4507,17.5
68.4626,886.6
68.4644,163.5
68.4851,442.6
68.4865,20.6
68.4982,16.2
68.5209,169.2
68.5431,91.6
68.544,152.8
68.5526,374.4
68.5835,658.6
68.5842,387
68.6029,18.6
68.6092,93.7
68.6247,309.4
68.6675,277.2
68.6688,428.8
68.6704,16.2
68.6931,247.2
68.6956,202.5
68.6964,600.2
68.7161,637.5
68.717,574.4
68.7438,694.1
68.7616,140.4
68.7713,104.6
68.7769,17.4
68.7893,279.7
68.8145,149.7
68.8264,140.4
68.8379,145.2
68.845,359.8
68.8569,319.5
68.8801,253.9
68.9014,110.8
68.9066,78.9
68.9216,16.2
68.9227,212
68.9333,124.6
68.9475,579.6
68.9636,655.6
68.9665,162.1
68.9994,297
69.0031,122.3
69.0075,245.1
69.0147,457.6
69.0185,672.9
69.0318,769.1
69.0708,123.4
69.0759,17.7
69.0899,487.3
69.1061,221.7
69.1096,19.1
69.1151,557.1
69.1268,152.6
69.1332,355.6
69.1349,221.1
69.162,349.1
69.1649,373.4
69.1714,750.2
69.1887,418.7
69.2068,164
69.2285,153.3
69.2296,943.6
69.2348,165.8
69.2434,141.7
69.2499,137.4
69.2572,233.6
69.2596,425.2
69.2616,99.8
69.2629,285.3
69.2644,93.5
69.2771,241.2
69.28,131.4
69.2848,593.3
69.2897,143.6
69.2906,889.2
69.2918,333.8
69.2974,410.8
69.357,632.7
69.3606,516.1
69.3613,444.4
69.3638,19.3
69.3663,123.1
69.3924,351.7
69.4065,213.4
69.423,20.7
69.4351,82.7
69.448,96.6
69.4482,118.8
69.4484,96.5
69.4571,149.3
69.4762,88.8
69.4789,23.4
69.4826,248.9
69.4918,21.3
69.5,97
69.5041,159.2
69.5061,792.9
69.5129,126.3
69.5195,265.4
69.5398,319.1
69.5404,243.1
69.5443,111.6
69.5595,522.8
69.5689,141.2
69.5734,242.7
69.5753,404
69.578,250.3
69.6061,114.1
69.6079,110.2
69.6103,528.6
69.6494,195.2
69.654,17.3
69.6659,177.5
69.6726,107.1
69.683,119.5
69.7189,206.9
69.7478,99.8
69.7516,234.2
69.7575,148.2
69.77,467.7
69.7862,150.1
69.8138,97.9
69.8477,107.5
69.8539,91.3
69.867,123.3
69.8768,83
69.8899,250.7
69.8901,310.6
69.8969,20.1
69.9031,383.7
69.9102,110.3
69.9206,112.8
69.9274,348.8
69.9313,586.5
69.9396,195.5
69.9639,748.5
69.9673,379.4
69.977,86.2
69.9891,196
69.9999,97.8
70.005,131.4
70.0175,209
70.0365,481.2
70.0391,114.8
70.0476,266
70.0647,683.1
70.0947,529.9
70.1078,17.1
70.1202,297.7
70.1214,18.4
70.1238,384.1
70.1303,216.8
70.1832,571.9
70.1936,162.5
70.2079,101.2
70.2149,514.8
70.2158,154.3
70.2717,269.6
70.2764,315.1
70.2877,532.8
70.3046,143.7
70.3825,138.3
70.3844,245.4
70.3972,198.2
70.4178,15
70.4256,87.5
70.4307,20.7
70.4407,89.4
70.4458,414.1
70.5519,206.1
70.5822,190.8
70.5876,113.2
70.5891,20.2
70.6226,320.2
70.6452,384.2
70.6627,161.7
70.6824,287.7
70.7202,633.1
70.7321,78.5
70.7455,560.9
70.7528,592.6
70.7669,179.9
70.8022,152.9
70.8061,305.7
70.8067,322.1
70.813,438.6
70.8301,283.7
70.8527,242.9
70.8593,80.1
70.8754,16.1
70.878,16.3
70.8949,536.3
70.9176,682.8
70.9196,173.2
70.9231,18.5
70.9469,154.9
70.9997,139.3
71.0043,536.8
71.0309,16.6
71.0424,202.6
71.0494,125
71.0571,134.3
71.0605,90.1
71.0656,144.1
71.0795,711
71.093,75.6
71.0971,445.8
71.1099,106.7
71.1327,17.8
71.1604,327.9
71.1795,572
71.1849,116.8
71.1863,587.7
71.1873,321.1
71.2087,366
71.2333,692.2
71.2562,107.7
71.275,72.3
71.3292,552.1
71.3456,293.2
71.3639,647.2
71.372,19.3
71.4005,531.6
71.402,143.7
71.4068,92.4
71.4299,87.3
71.4648,550.5
71.4989,94.1
71.5327,402.3
71.5775,16.7
71.5796,263.5
71.5913,124.2
71.5916,115.9
71.6179,337.2
71.6231,406.4
71.6441,99.8
71.6865,97
71.693,668.2
71.7009,240
71.7128,612.9
71.7193,18.3
71.7517,164.9
71.759,16.1
71.7761,249.5
71.7786,183.7
71.8024,440.6
71.8141,102.4
71.8169,196
71.8247,111.8
71.8287,192
71.8426,543.6
71.8615,102.4
71.883,435.8
71.9108,18.3
71.9128,589
71.917,565.9
71.9196,97.4
71.9208,267.9
71.9389,89.5
71.9401,88
71.9651,366.8
71.9861,116.5
72.0015,587.1
72.007,455.7
72.0154,121.5
72.0192,325.1
72.0257,156.6
72.0263,260.6
72.0413,351.8
72.0492,313.3
72.0648,307.2
72.0738,330.1
72.0805,216.8
72.0875,543
72.0995,21.1
72.1799,16
72.1885,105.6
72.1924,20.1
72.1947,517.5
72.2213,253.5
72.2238,18.7
72.2244,20.1
72.227,106.2
72.2279,19.4
72.2287,607.3
72.2299,1043.5
72.2311,2015.8
72.232,1407.6
72.233,3713.4
72.2339,1824
72.2345,1920.5
72.2351,1490.1
72.2357,1955.4
72.2368,2852.9
72.2374,4475.9
72.238,3156.1
72.2389,2466.2
72.2394,3826.8
72.2404,3081.5
72.2407,3077
72.2414,2867.9
72.243,3659.5
72.2441,1610.6
72.2451,1914.9
72.2459,1862.2
72.2465,2278.2
72.2475,2827.9
72.2484,963.1
72.2489,1937.7
72.2499,1747
72.2504,1411.8
72.2511,537.7
72.2514,559.1
72.2522,238.4
72.2532,232.5
72.2543,245.2
72.2595,112.6
72.2824,19.3
72.3246,723.3
72.3301,421.2
72.3314,211.9
72.36,370.3
72.3696,126.6
72.4087,107.3
72.4707,262.6
72.4804,373.4
72.4955,154.9
72.5137,483.4
72.5182,462.5
72.552,129.5
72.5562,280.2
72.5669,20.6
72.5837,110.3
72.5843,141
72.601,129
72.6292,322.9
72.6418,202.5
72.6799,669.1
72.6966,357.8
72.7067,17.4
72.7165,181.5
72.7336,296.5
72.7406,439.4
72.7424,448.6
72.7437,440.2
72.7537,147.2
72.77,150
72.7839,356.4
72.7845,19.3
72.8076,147.1
72.8198,375.5
72.8215,90.5
72.8363,135.9
72.8463,394
72.8681,313.5
72.9015,17.9
72.9553,329.1
72.9578,78
72.9731,92.2
72.9819,294.9
73.0025,551.3
73.0284,358.7
73.061,19.1
73.0757,443.3
73.078,292.1
73.1415,469.3
73.1472,209
73.1519,99.7
73.1527,144.6
73.1737,17.5
73.1795,17
73.1834,82.7
73.2113,752.3
73.2203,649.6
73.2218,553.8
73.2918,161.2
73.3017,355.1
73.306,138.7
73.3345,144.8
73.4077,269.3
73.4237,320.7
73.4417,146.7
73.4817,340.5
73.5176,361.2
73.5346,626.1
73.5399,376.4
73.5505,288.6
73.5569,286.6
73.5631,72.9
73.6041,270.4
73.6145,597.4
73.6348,544.9
73.6387,99.8
73.6524,238.4
73.6654,286.6
73.7176,16.9
73.7192,424.2
73.7397,110.1
73.7448,196.9
73.7556,17.2
73.7669,315.5
73.83,17.4
73.8443,610.6
73.8485,181
73.8764,101.4
73.8877,347.3
73.8928,100.6
73.8969,230.4
73.9218,17.4
73.9288,125.7
73.9424,816.8
73.9487,368.6
73.9554,539.6
73.9573,559.7
73.9584,184.7
74.0045,539.8
74.0115,130.3
74.0437,838.5
74.0524,17.4
74.0598,5231.3
74.0619,388
74.0716,262.9
74.084,429.9
74.0893,455.7
74.0988,431
74.1018,23.5
74.1171,107.8
74.1588,498.2
74.1755,330.5
74.1772,344.6
74.1933,16.7
74.1989,322.4
74.2005,360.1
74.2147,312.6
74.232,73
74.2437,148.1
74.2642,554.8
74.2686,202.7
74.3001,232.3
74.3225,177.8
74.3314,184.9
74.3367,222
74.3462,346.9
74.3548,480
74.3563,17
74.4036,195.1
74.4076,580
74.4132,178.4
74.4253,621.7
74.4397,146.6
74.4465,126.9
74.4482,384.1
74.4677,75.3
74.4918,348
74.5005,328.6
74.5047,18.3
74.5159,209.9
74.5182,533.7
74.5225,346.6
74.5656,658.6
74.574,98.9
74.5961,105.2
74.6132,367.1
74.6204,161.2
74.6409,195.7
74.6472,17.8
74.664,95
74.6831,90
74.7027,262.3
74.7041,117.9
74.7066,231.3
74.7103,105.4
74.7206,483
74.7297,492.6
74.7614,336.3
74.77,406.9
74.8025,283.1
74.8202,310.9
74.8205,220.1
74.8579,488.3
74.8681,393.3
74.8998,106.7
74.9231,119.6
74.926,628
74.937,238.1
74.9397,496.3
74.9493,19
74.9661,289.1
74.993,647.3
75.0006,646.1
75.0258,275.8
75.0336,82.6
75.0366,338.9
75.0479,362.2
75.0667,737.4
75.0731,96
75.0814,17.7
75.0928,357.1
75.094,21.7
75.1105,770.8
75.1237,658.6
75.1459,472
75.1475,487.4
75.1507,16.3
75.1584,123.7
75.1591,123.6
75.1651,100.9
75.1654,97.7
75.1833,102.9
75.1978,513.9
75.2288,118.3
75.2378,99.7
75.251,453
75.253,587.9
75.2743,155.9
75.2968,498.5
75.3032,118
75.3663,370.8
75.4047,132.3
75.4161,307.8
75.4335,77.1
75.4566,684.8
75.468,104
75.4737,89.4
75.487,297.2
75.4902,104.2
75.492,18.2
75.5012,526
75.5266,602.9
75.5299,345.4
75.5379,566.6
75.5942,240.4
75.6029,275.7
75.6222,211.4
75.6322,19.1
75.6356,93.1
75.6456,114.5
75.6578,1039.2
75.6645,292.3
75.6657,88.5
75.6818,323.2
75.6871,133.2
75.6967,110.3
75.6989,150.6
75.7003,87
75.7383,158.8
75.7843,568.6
75.8018,144.6
75.827,696.3
75.8448,585.9
75.8538,572.1
75.8884,86.1
75.8917,487.2
75.8986,16.2
75.8994,109.3
75.9182,234.5
75.9383,305.5
75.9884,104.5
75.993,335.3
76.0141,138.7
76.0649,774.9
76.1194,134.7
76.1372,480.8
76.1381,17.6
76.153,766.3
76.1763,107.2
76.1819,284.1
76.2017,199.8
76.2552,189.2
76.2759,734.4
76.2868,230.4
76.3035,515.8
76.3408,80.2
76.3491,435.8
76.3516,331.8
76.377,260.9
76.3863,132.4
76.4055,422.2
76.4795,88.4
76.5123,482.2
76.5144,445.8
76.5447,106.9
76.5503,600.9
76.5529,18.1
76.5928,214.2
76.6091,158.3
76.6219,18.8
76.6319,171.2
76.6373,272.3
76.6587,141.9
76.675,19.7
76.6974,267.7
76.6994,116.3
76.7049,87.5
76.7719,486.4
76.8015,152.1
76.8033,491.6
76.8118,110.6
76.8331,808.4
76.8556,178.9
76.861,233.9
76.8719,149.4
76.8893,105.8
76.9164,519.3
76.9571,18.5
76.9587,322.1
76.9793,247.5
77.0323,126.4
77.0343,22.8
77.0352,761.4
77.0383,118853.1
77.0394,43.1
77.0423,506.3
77.0532,20.5
77.076,343.9
77.0815,267.4
77.0875,154.9
77.0985,22.2
77.1076,91.7
77.1324,102.1
77.1565,155.3
77.1587,166.8
77.1645,640.2
77.1699,421.9
77.1704,472.9
77.1727,686.4
77.2032,104.9
77.2072,197.1
77.2081,154.3
77.2143,18
77.2445,16.3
77.2791,16.8
77.2991,158.2
77.3072,110.3
77.3182,136.8
77.3334,413.7
77.3389,448
77.3873,20
77.3887,484.9
77.3923,16.6
77.4099,198.7
77.4381,248.2
77.4596,232.6
77.4743,328.1
77.4754,486.9
77.4948,217
77.5142,82.4
77.5189,88.9
77.5343,91.3
77.5361,170.2
77.5723,268.2
77.5747,481.3
77.605,184.7
77.6185,102.6
77.6325,145.9
77.6373,167.5
77.6637,454.1
77.6721,152.5
77.6773,754.7
77.6869,489
77.6883,157.1
77.7333,281.8
77.7667,80
77.7919,124.1
77.8006,147.3
77.8318,494.6
77.8502,115.8
77.8614,19.1
77.925,79.2
77.9549,591.7
77.9607,109
77.9686,353.5
77.978,20.6
77.9942,78.5
78.0124,113.4
78.0154,464.4
78.018,280.6
78.0219,127.8
78.0417,3560.7
78.0513,99.5
78.0577,207.7
78.0765,398.3
78.1237,156.6
78.1245,152.3
78.1515,145.2
78.1689,16.4
78.1925,103.2
78.1979,83.9
78.202,600.4
78.2138,16.7
78.2213,180.2
78.2257,305.1
78.258,93.5
78.2673,189.7
78.2806,585
78.2915,209.4
78.3201,20.6
78.3425,157.9
78.3596,412
78.3664,153.8
78.3789,96.6
78.3829,281.6
78.3858,463.7
78.3931,16.3
78.4011,408.1
78.4161,104.7
78.4266,157.7
78.4287,295.5
78.4667,130.8
78.4722,180.6
78.5463,577.9
78.5557,179.9
78.5576,137.8
78.5589,326.1
78.5615,92.1
78.5837,476.8
78.6211,469.3
78.6439,154.9
78.702,106.9
78.7112,236
78.727,106.6
78.7306,639.2
78.7376,118.8
78.7778,202.2
78.7863,16.6
78.7992,309.7
78.8055,20.2
78.8069,472
78.8129,268.3
78.8421,371.8
78.8756,371.2
78.8886,508.8
78.9309,176.6
78.9553,343.2
78.9709,17.2
78.9968,217.9
79.0173,18
79.0319,17.5
79.0388,688.8
79.0523,19
79.054,2349.2
79.1084,139.2
79.1113,99.6
79.126,203.7
79.1397,86.5
79.185,371.3
79.1863,631.9
79.1919,232.1
79.2016,17.6
79.2315,138.1
79.2351,262.9
79.2473,358.2
79.2664,139.9
79.2759,192.7
79.2866,16.9
79.303,178.1
79.3046,17.3
79.3066,244.1
79.3091,180.2
79.3173,81.7
79.3608,159.7
79.3648,119.5
79.3685,134.2
79.3874,98.8
79.4112,18.5
79.4261,85.8
79.4606,78.6
79.4689,141.5
79.4902,329.1
79.5095,561.6
79.514,252.4
79.5438,18.3
79.5491,15.8
79.5523,88.8
79.5704,17.2
79.5816,147.7
79.5879,536.7
79.6267,344.2
79.6277,139
79.6333,98
79.6411,16.9
79.6527,668.3
79.6876,315.8
79.6946,82
79.7176,96.2
79.7204,154.5
79.7347,329.1
79.7425,17.3
79.7606,200.9
79.7759,173
79.8042,92.4
79.8099,901.6
79.8169,300.6
79.8518,129.4
79.872,100.9
79.9062,456.4
79.9208,123.1
79.9224,394.7
79.9401,16.3
79.9497,172
79.9515,446.5
79.9799,350.5
79.984,17.6
80.0313,20.5
80.0432,320.9
80.0457,438.1
80.0475,457.9
80.0572,20.5
80.062,150.7
80.0834,118.5
80.0879,98.6
80.109,142.1
80.1349,90
80.1494,17.8
80.1649,102
80.1779,106
80.2163,287
80.2283,335.4
80.2352,123.3
80.2589,185.3
80.2609,540
80.2663,90.7
80.2772,17.1
80.278,18.3
80.2821,17.5
80.2906,15.8
80.2962,118.9
80.3257,121.8
80.3611,345.2
80.3852,180.2
80.4002,214.2
80.4147,362.1
80.4154,308.1
80.424,107.9
80.4377,251.5
80.4459,341.1
80.4464,141.3
80.4544,85.5
80.4658,321
80.4714,103.1
80.479,264.4
80.4873,143
80.4983,197.7
80.5146,578.9
80.5387,149.6
80.5468,416.7
80.5536,102.3
80.5807,20
80.5938,153.4
80.5988,158.8
80.6115,23.9
80.6222,80.1
80.6318,19.4
80.6557,258
80.6671,18.4
80.6743,363.1
80.7329,97.2
80.7749,17.3
80.8039,93.5
80.8136,183.2
80.8309,633.1
80.8336,167.6
80.8511,200.9
80.8589,76.4
80.8625,234.3
80.9147,318.8
80.9204,225.4
80.9446,446.1
80.9476,53627.9
80.9551,86.1
80.9601,18.9
80.9779,794.6
80.9894,416.5
80.9946,288.9
80.9955,117.4
80.9983,151.6
81.0034,237.3
81.0697,996.7
81.0737,150
81.0877,319.4
81.091,466
81.0958,496.1
81.1012,590.2
81.1354,368.4
81.1379,1048.6
81.1391,1100.1
81.1398,989.8
81.1403,746.7
81.1406,639.8
81.1413,598.9
81.1417,778.2
81.1421,597.4
81.1466,22.3
81.1868,164.6
81.2302,123.8
81.2443,80.4
81.2534,156.1
81.2896,391
81.3143,264.4
81.3741,226.8
81.3756,17.4
81.3794,156.8
81.3943,16.4
81.4031,391.6
81.4417,92.9
81.4719,232.7
81.4878,18.2
81.5251,454.4
81.5666,197.2
81.5729,769.2
81.6019,385.7
81.6228,326.5
81.6285,252.4
81.6455,231.7
81.6579,290.4
81.6684,106.8
81.6703,16.6
81.6974,80.9
81.6991,127.9
81.7109,18.2
81.7121,234.3
81.7856,199.7
81.7889,439.2
81.8037,17.5
81.8101,130.6
81.8161,96.9
81.8369,278.2
81.8491,216.3
81.8704,188.4
81.8751,107.1
81.8853,121.6
81.8957,550.5
81.8988,480.5
81.9324,145.4
81.9564,141.8
81.9617,294.5
81.9705,20.8
82.0023,476.8
82.0185,24.2
82.0483,115.5
82.0808,464.7
82.1186,141.5
82.1254,86.9
82.1681,126.6
82.2136,108.5
82.2883,135.4
82.3185,18.4
82.3465,451.3
82.3605,371.6
82.4007,709.2
82.4264,186.1
82.5221,18.1
82.5233,513.9
82.5378,142.2
82.5751,156.3
82.5788,95.2
82.581,16.5
82.6366,161.8
82.6637,95
82.664,99.7
82.7183,130
82.7208,171.3
82.7549,211.6
82.7769,18.3
82.7829,214.9
82.7845,537.5
82.7908,17.8
82.8231,76.9
82.837,742.2
82.872,127.5
82.8825,302.4
82.8986,562.8
82.9107,296.3
82.9447,16497.2
82.9455,456
82.9529,623.5
82.9748,20
82.9955,155.5
82.9997,121
83.0047,94
83.0116,594.6
83.0209,89.2
83.0558,119.8
83.0774,345.8
83.0854,22.5
83.0879,192
83.0949,148.1
83.1117,131.7
83.1133,393.3
83.1317,1011.1
83.1355,94.6
83.1422,328.4
83.1682,744.4
83.1927,114.5
83.2034,19.6
83.2222,18
83.2312,251.2
83.2445,387.3
83.2572,187.3
83.2746,273.8
83.2866,292.5
83.2897,75.6
83.3423,148.2
83.3841,388.3
83.3896,182.4
83.4598,83.8
83.4755,110.6
83.491,134.8
83.503,113.8
83.5187,19.5
83.5312,177
83.5693,17
83.5759,17.3
83.6039,95
83.6134,145.4
83.6509,362.5
83.6847,232.8
83.6937,118.8
83.703,461.4
83.7045,350.1
83.711,158.3
83.7376,251.1
83.7401,168.6
83.7786,17.7
83.7944,217.6
83.7993,267.9
83.8122,373.4
83.8281,137.3
83.8285,148.1
83.8287,143.2
83.9207,124.7
83.9314,363
83.9697,18.8
83.9708,120.9
83.9744,348
83.9749,367.3
83.9751,251.2
83.9952,107.7
84.0056,102.1
84.0441,592.8
84.0778,93.6
84.0805,753.4
84.0828,101.1
84.0938,21.4
84.1238,119.2
84.1296,18
84.1506,274.6
84.184,17.7
84.1994,104.2
84.2022,20.5
84.2077,163.9
84.2116,500.5
84.2138,203
84.227,362.7
84.2404,574.1
84.2434,770.5
84.2565,15.6
84.2719,490.7
84.2832,331.7
84.2982,258.5
84.3093,144.9
84.312,354.2
84.3318,362.5
84.3402,342.7
84.3705,700.8
84.377,438.7
84.3867,319.7
84.3936,332.9
84.4375,205.2
84.4422,518.2
84.45,203.7
84.4535,426
84.507,436.6
84.5835,17.5
84.5881,124
84.5988,585.4
84.6339,19
84.6542,19.9
84.6962,18.1
84.7007,117.1
84.7111,111.9
84.7231,99.7
84.7457,147.1
84.7649,99.2
84.7715,343.9
84.7774,103.7
84.8032,18
84.8366,164
84.8681,592.6
84.9331,20.5
84.9381,107.3
84.9473,16.1
84.9495,88.4
84.9568,113.9
84.9595,21659.1
84.9653,159.3
84.983,147.9
84.9896,272.9
84.9983,102.5
85.0145,393
85.0282,4555.6
85.0395,197.4
85.056,490
85.0761,20.9
85.1106,94
85.1156,183.2
85.1367,125.4
85.1788,18.9
85.1917,124.9
85.2374,109.9
85.2476,99.5
85.2662,110
85.2862,428.4
85.3024,17.7
85.337,91.6
85.3838,194.9
85.4152,171.7
85.4309,510.2
85.4585,85.6
85.4668,617.1
85.4898,17.9
85.4947,336.7
85.5159,90.1
85.534,91.6
85.5397,17.6
85.5778,151.3
85.5955,191.2
85.6119,497.2
85.6237,81.9
85.6249,316.7
85.6753,374.6
85.7321,332.9
85.776,133.1
85.8127,451.2
85.8697,776.4
85.8709,326.7
85.8784,272.1
85.8964,98.4
85.9119,268.2
85.9541,601.9
85.9576,121.2
85.9895,90.3
86.0151,19.8
86.0177,651.8
86.0599,38946.9
86.0721,783.7
86.0962,94938.2
86.1136,777.4
86.1229,670.5
86.1729,229.1
86.1797,17.6
86.1928,95.2
86.2326,21.9
86.3015,138.6
86.3476,91.7
86.361,544
86.4031,81.2
86.4458,418.3
86.4535,197.4
86.4614,656.2
86.4934,506
86.5099,566.9
86.5159,75.1
86.5194,17.8
86.5339,140.7
86.5353,166.8
86.5405,558.2
86.572,181.6
86.581,80.5
86.5857,111.9
86.605,537.5
86.6067,178
86.6219,782.7
86.6327,118.4
86.6457,303.9
86.6518,156.9
86.6701,469
86.6872,319.9
86.6908,22.8
86.7331,235.6
86.7368,209
86.7661,462.4
86.8026,393.3
86.8209,18.9
86.8341,284.3
86.8444,431.2
86.8935,158.3
86.9052,146.6
86.9314,257.8
86.9466,275.4
86.9491,204.2
86.9765,529.3
86.9929,874.2
87.0184,102.9
87.0199,161.4
87.0237,152.8
87.0439,22.5
87.0769,374.8
87.0792,667.1
87.0996,574.9
87.1006,651.8
87.1135,402.5
87.1153,17.3
87.1558,96.6
87.1674,92.4
87.1698,219.6
87.1804,90.3
87.1833,98.8
87.2056,328.2
87.2205,530.1
87.2384,153.1
87.2452,177.4
87.262,17.1
87.3078,18.4
87.3149,636
87.3323,287.4
87.3595,537
87.3692,330.7
87.3886,493.7
87.4369,223.5
87.4478,151.5
87.4751,625.7
87.4848,210.9
87.4995,452.6
87.5889,18.6
87.5906,632.4
87.6402,207.6
87.6559,284.4
87.6623,115.7
87.6758,711.9
87.7675,202.9
87.7952,213.8
87.8324,546.3
87.8453,349.3
87.877,87.8
87.9142,225.3
87.9425,371.9
87.9438,748.6
87.959,178.8
87.9657,188.7
87.9796,469.2
88.0391,8413
88.0551,350.7
88.0758,122.4
88.0889,589.8
88.0904,351.9
88.1083,143.4
88.1261,294
88.1312,303.7
88.1389,17.8
88.1599,625.7
88.1665,90.3
88.1946,644.8
88.2097,101.7
88.2505,614.5
88.2824,499.7
88.2999,148.9
88.3076,71.8
88.3352,232.4
88.342,380.7
88.3828,238
88.3903,655.1
88.433,503
88.4332,536.7
88.4367,110.6
88.4866,146.4
88.5384,117.6
88.5618,106.6
88.5656,370.4
88.5839,24
88.5858,110.3
88.5894,195.5
88.6263,326.1
88.6434,255.8
88.648,420.3
88.6505,148.3
88.6648,18.6
88.6942,154.5
88.7659,345.4
88.8188,551.2
88.8636,100.2
88.8834,151.6
88.9185,17.5
88.9229,153
88.9282,783.6
88.9418,610.4
88.9426,663.2
88.9457,153.8
88.9617,842.3
88.9641,303.8
88.988,86.4
88.9915,329
89.0163,737.1
89.0519,73.2
89.0834,509.7
89.0939,85.8
89.1882,402.2
89.2127,203.1
89.2201,792.2
89.2309,17
89.2962,126
89.3063,654.5
89.3317,309.9
89.3348,348.6
89.3538,799.6
89.356,135.8
89.3661,522.4
89.3809,19
89.4038,286.3
89.4048,592.2
89.4189,17.7
89.4449,356
89.4712,131.2
89.4757,20.8
89.4791,398.7
89.4921,102.2
89.5108,18.3
89.5242,545
89.534,96.2
89.5361,139.3
89.5473,118.1
89.5973,120.1
89.6876,207.4
89.6989,124.1
89.785,214.6
89.829,200.3
89.8581,455.5
89.8969,17.1
89.914,17
89.9612,553.8
89.9753,353.7
90.038,116.1
90.0574,695.9
90.0909,371.5
90.0992,17.5
90.1422,95.1
90.1472,530.7
90.154,108.8
90.1586,439.4
90.1863,766
90.1899,219.8
90.2192,18.9
90.2207,151.7
90.2277,602.9
90.2477,878.5
90.2622,366.4
90.283,545.9
90.3009,667.3
90.3199,113.1
90.3319,294.2
90.346,405.1
90.356,811.5
90.3643,444.2
90.3952,381.2
90.407,450.5
90.4172,17.2
90.4294,623.9
90.4379,111.4
90.4428,181
90.4447,145
90.4716,295.1
90.5146,110
90.5265,234
90.55,756.4
90.552,850
90.5682,579.6
90.5764,157.9
90.5827,349.6
90.5952,279.1
90.6214,16.5
90.6249,333.4
90.6267,95.6
90.6464,101.3
90.6535,728.7
90.6953,361.6
90.7176,430.5
90.7359,681.8
90.8174,121.1
90.8234,24.6
90.8324,191.3
90.85,365.5
90.857,704.1
90.8882,95.3
90.932,99
90.9476,60.8
90.9596,394.4
90.9619,18.3
90.9764,8248.5
91.0052,124
91.0121,311.2
91.0206,641.9
91.0258,78.8
91.0453,554.1
91.0541,1888.5
91.0975,87.4
91.123,23.5
91.1694,221.1
91.1834,811
91.1937,124.8
91.198,346.2
91.2044,19.3
91.2186,200.1
91.2312,457.7
91.236,234.9
91.3144,133.3
91.3274,382.6
91.4071,465.4
91.4146,94.5
91.4199,141.4
91.4204,164.6
91.4207,197.5
91.4451,355.5
91.4516,752
91.4779,18
91.5051,172.8
91.5473,202.7
91.5733,343.1
91.5886,19.2
91.6042,614.2
91.6393,254.1
91.6835,661.5
91.6893,194.8
91.744,104.1
91.75,411.4
91.7666,668.5
91.7853,202.7
91.7995,96.4
91.8563,93.5
91.8728,19.3
91.8946,225.1
91.8971,154.3
91.906,430.7
91.9401,360.2
91.9739,20.3
91.9788,117.6
91.9836,520.6
91.991,568.4
91.9976,275.3
92.0002,17
92.0189,450.3
92.0493,31.7
92.0591,19.1
92.0768,634.7
92.1145,189.4
92.1202,147.5
92.1336,606.5
92.1386,363.5
92.1428,516
92.1474,364
92.1519,124.7
92.2064,372.5
92.2443,137.1
92.3329,400.4
92.3364,129.2
92.3378,224.8
92.3426,112
92.3618,314.7
92.3736,19.9
92.3826,355.5
92.3858,243.2
92.391,150.9
92.3926,709.7
92.3979,110.5
92.4215,375.9
92.4616,172.4
92.4743,241.9
92.488,122.7
92.4981,77.2
92.5289,381
92.5304,20.3
92.5956,546.6
92.6175,16.5
92.6236,258.3
92.628,99.1
92.63,18.1
92.6518,93.8
92.6548,102.4
92.6677,18.3
92.6764,83.5
92.6869,638.5
92.6918,86.4
92.6967,153.5
92.743,208.2
92.7693,84.7
92.7703,305.1
92.8615,324.3
92.87,546
92.8851,247.7
92.9034,412.9
92.9141,91.4
92.926,611.2
92.935,161
92.9892,20.2
93.0021,631.1
93.0126,562.7
93.0258,95.4
93.0337,273.4
93.0348,217.8
93.0519,91.8
93.0571,232
93.0697,40.9
93.084,639.6
93.0859,95.9
93.1103,319.3
93.1675,18.2
93.2077,122.9
93.2141,882
93.2179,365.4
93.2225,107.1
93.2283,641.4
93.2304,72.3
93.2387,420.2
93.2514,586.9
93.2775,269.4
93.2786,653.3
93.2835,455.8
93.2951,18.2
93.3358,183.8
93.3487,615.9
93.3531,223.7
93.386,318.4
93.3881,678.2
93.4265,91.2
93.4355,140.4
93.4762,568.9
93.4786,686.1
93.4995,560.6
93.512,377.7
93.5277,325.1
93.5309,130.6
93.5898,138.7
93.6049,348.1
93.6055,840.5
93.6375,21.9
93.6631,554.2
93.6742,347.9
93.6886,126.8
93.7345,100.7
93.748,18.4
93.7989,98.6
93.8115,97.3
93.8603,98.3
93.8698,163.1
93.8778,243.2
93.9256,734.4
93.9268,400.7
93.9421,148.2
93.9736,347.7
93.9912,365.8
94.0386,29.5
94.0412,57640.8
94.0974,87.6
94.1193,365.9
94.1391,666.1
94.1525,134.8
94.1639,372.5
94.1706,18.8
94.1795,558.1
94.1811,608.7
94.1843,783.6
94.21,635.8
94.2159,18.1
94.236,610
94.2368,183.1
94.2569,626.3
94.2838,84.7
94.2966,514.7
94.301,277.8
94.303,105.6
94.3717,148.1
94.3773,583.3
94.3859,124
94.3961,220.1
94.3977,105.7
94.4154,742.3
94.435,272.4
94.4663,481
94.4878,16.6
94.4936,22
94.5451,17
94.5765,228
94.5775,98.4
94.6296,143.7
94.6579,89.7
94.6798,78.9
94.681,85.7
94.7582,366.9
94.7638,374.2
94.7838,209.9
94.7918,168.9
94.8213,18.9
94.8258,161
94.8728,201.3
94.8828,354.5
94.8965,93.2
94.8994,325.9
94.9571,95.1
94.9611,92.5
94.9957,153.8
94.9975,219.3
95.0182,674.3
95.027,115.3
95.0289,420.9
95.0355,64.9
95.0446,1225.9
95.0463,92.2
95.0474,45.2
95.049,419827.4
95.0504,294.4
95.0515,66.5
95.052,102.6
95.0596,102.2
95.0623,24.8
95.0642,155.7
95.0853,327.1
95.1121,79.4
95.121,201.2
95.1354,215.7
95.1365,22.2
95.1866,113.3
95.1953,301.3
95.2726,475.3
95.3028,109.7
95.3045,230.7
95.3071,286.4
95.3151,509.3
95.3353,731.4
95.3374,344
95.3432,247.9
95.3607,658
95.3676,283.9
95.3808,558.8
95.3993,314.1
95.4014,86.5
95.4366,387.6
95.4429,241.8
95.4769,82.5
95.5118,17.2
95.5148,571.4
95.5458,336.6
95.5695,833.4
95.6312,20.8
95.6677,359.8
95.6814,519.1
95.7209,599
95.7235,81
95.7483,249.8
95.767,98.4
95.7718,309.2
95.8083,315.3
95.8101,225
95.8251,267.1
95.8507,160.9
95.8522,175.9
95.8543,178.7
95.8644,17.8
95.9429,328.2
95.9833,564.6
95.993,158.7
95.9969,333.1
96.0014,670.5
96.0524,19444.3
96.0552,18.8
96.0831,89.6
96.0864,87.2
96.1223,277.4
96.1426,18
96.1578,344.3
96.1812,215.7
96.1846,353.1
96.1892,227.7
96.2099,119.9
96.218,105.3
96.2334,21.5
96.2637,82.7
96.2753,91.2
96.2803,83.8
96.3007,735.5
96.3336,358
96.3651,172.4
96.3744,542.1
96.3839,110.3
96.3858,108.6
96.4117,335.8
96.4172,476.8
96.4441,369.7
96.4514,392.3
96.4691,693
96.5002,190.1
96.5079,122.2
96.5291,507.6
96.5321,417
96.5397,218.6
96.5567,778.4
96.5629,113.5
96.6053,377.1
96.6068,77.2
96.6392,287.8
96.651,360.8
96.6691,318.5
96.6805,800.2
96.6845,96.4
96.7189,448
96.7363,133.1
96.848,864.7
96.888,445.6
96.9149,81.5
96.9216,150707.6
96.9441,19.8
96.9608,101.7
96.9706,351.8
97.0075,205
97.024,359.7
97.0533,362.6
97.0557,52.2
97.0622,431.3
97.0646,19.9
97.0681,776.9
97.0693,513
97.0757,139.5
97.0982,216.3
97.1011,22
97.1133,247
97.1156,123
97.1338,104.3
97.209,261.2
97.2342,737.1
97.2479,199.3
97.2737,330.6
97.2767,18.6
97.279,464.2
97.3219,135
97.3287,17.7
97.3491,362.7
97.3526,118.2
97.36,150.5
97.3754,307.2
97.4108,171
97.4146,360.4
97.4434,91.5
97.4747,78.7
97.4828,506.2
97.5634,405.4
97.5721,135.7
97.578,93.5
97.6166,569.4
97.6175,395.6
97.6788,715.2
97.6842,16.8
97.6985,711.7
97.7143,511
97.7252,184.8
97.7363,221.9
97.7389,141.3
97.7464,614.2
97.7682,216.9
97.7699,114.9
97.7844,548.7
97.8183,143
97.836,312.4
97.8455,479.6
97.8609,141.3
97.8663,208.8
97.8766,101.7
97.8793,94.7
97.9125,114.8
97.9251,664.8
97.9275,402.5
97.9336,322.7
97.9392,478.1
98.0039,175.2
98.0513,357.7
98.0559,169.3
98.0683,225
98.0814,196.9
98.0979,527.4
98.1208,19.8
98.1829,238
98.1919,102.6
98.1934,82.5
98.2398,401.7
98.2558,18.3
98.2603,203.3
98.2632,271.9
98.2738,530.8
98.2965,149.3
98.3427,18
98.3723,18
98.3775,123.2
98.4036,35.5
98.4086,498.9
98.4112,17.8
98.4328,247
98.4409,127.9
98.4538,131
98.5229,207.2
98.5905,567.1
98.5976,685.3
98.6074,559
98.654,144.1
98.6937,225.2
98.7045,142.4
98.7286,19.4
98.7595,17
98.7612,289
98.7624,570.2
98.7921,88.1
98.7981,581.4
98.8222,555
98.8345,581.1
98.8608,450
98.8866,286
98.8985,17.8
98.9112,418.5
98.9131,87.3
98.9187,42641.7
98.9197,6788.2
98.9311,181.9
98.9383,171.6
98.973,119.1
98.9752,20450.8
98.9841,50.7
98.9932,619.1
98.9965,680.2
99.0054,386.6
99.0213,573.3
99.0246,172.2
99.0283,88.9
99.0661,198.4
99.0915,35.2
99.1088,94.9
99.1524,135.4
99.1723,361.4
99.2312,21.8
99.235,88.5
99.2367,172.8
99.2535,110.5
99.2832,232.3
99.3515,649.2
99.3555,351.1
99.3663,446.7
99.3728,19.4
99.3955,360.5
99.415,804.1
99.4914,17.5
99.4933,524.4
99.5006,215.3
99.5218,19.1
99.5422,646.8
99.5702,596.1
99.5973,350.8
99.6073,228.5
99.6101,111.4
99.6265,409.2
99.6485,144.1
99.6495,129.5
99.664,254.3
99.6736,362.9
99.6787,273.9
99.7004,16.1
99.7031,385.2
99.7351,492.6
99.7737,23
99.7796,124
99.8011,18.8
99.8118,286.2
99.8356,138.2
99.846,141.4
99.8484,17.4
99.8595,82.8
99.8838,147.9
99.9104,144.7
99.9161,19.4
99.917,353.7
99.9374,18.2
99.9453,327.7
99.9587,95.7
99.9727,18.9
99.983,142
100.0756,18.5
100.0842,521.3
100.1305,16.9
100.1463,95
100.1476,123.9
100.1973,108.7
100.2049,281.8
100.21,105.1
100.2413,372
100.2586,126.7
100.2763,114
100.3407,656.2
100.371,373.1
100.3756,399.9
100.3923,473.3
100.4139,85.6
100.4458,146.6
100.4473,236
100.4523,194.5
100.4597,271.6
100.4732,234.7
100.4775,20.4
100.4788,159.6
100.4852,19.3
100.4882,276.5
100.5354,475.9
100.5384,586.6
100.5407,284.7
100.549,16.4
100.5827,608
100.598,110
100.6196,17.5
100.6275,395
100.6293,190.3
100.6829,332.6
100.6926,158.6
100.7103,564.2
100.7139,20.6
100.7196,136.9
100.7207,217.9
100.7268,307.5
100.7437,357.4
100.7616,506.2
100.768,318.4
100.8198,519.5
100.8477,183.2
100.8509,172.9
100.8537,563.2
100.8941,824.1
100.9168,1200
100.918,491.8
100.92,188.4
100.9458,531.2
100.9524,22.2
100.9591,120.1
100.9899,348.8
100.9944,446.6
100.999,94.5
101.0038,20.9
101.0081,1448.7
101.0369,116.9
101.047,3046.7
101.0667,136.3
101.0708,812.5
101.0717,105.8
101.0939,287.3
101.1059,18.1
101.1201,17.4
101.1214,481
101.1336,18
101.1354,91.5
101.1598,708
101.1681,16
101.1842,82.1
101.2632,107.2
101.3098,292.4
101.3303,129
101.401,156.3
101.4139,116.5
101.4275,387.3
101.4562,233
101.4896,569.2
101.4989,165.9
101.5181,218.5
101.5616,146.7
101.5911,271.6
101.6198,321.8
101.6215,142
101.6292,408.7
101.6522,164.7
101.7433,104.6
101.7958,147.6
101.7997,84.8
101.809,724.5
101.8115,741.4
101.8193,120.1
101.8305,143
101.8519,670.5
101.8892,414
101.9036,256.1
101.9073,227.1
101.9333,87.3
101.9398,22.1
101.9636,21.9
102.002,18.6
102.0118,92.9
102.0125,445.7
102.0548,6229.9
102.0809,22
102.106,16.1
102.1322,132.4
102.1393,325.6
102.1474,376.6
102.1551,573.2
102.1708,283.8
102.1794,94.3
102.2151,472.9
102.2993,193.5
102.3031,166.3
102.3072,234.6
102.3141,478.4
102.3145,460.8
102.3658,683.5
102.3858,523.1
102.3934,113.8
102.4279,121.6
102.5317,790.1
102.5605,634.1
102.5731,112.1
102.5774,133.5
102.6334,18.7
102.6419,483.1
102.6641,84
102.6913,131.7
102.7012,108.1
102.7093,261.3
102.7139,404.4
102.7506,282.8
102.7762,330.4
102.8391,82.2
102.9062,286
102.916,741
102.9341,124.9
102.9354,648.8
102.9509,306.7
102.9525,351.9
102.9702,551.5
103.0335,112
103.0447,681.1
103.1414,17
103.1587,119.1
103.175,88.4
103.1876,797.6
103.2656,85.9
103.2734,92.7
103.3077,401.5
103.3605,20.4
103.3639,320.8
103.432,143.4
103.4505,83.2
103.4623,108.7
103.5133,352.5
103.5169,113
103.5221,264.1
103.5304,134.8
103.573,321.6
103.6075,140.6
103.6105,113
103.6852,559.8
103.6982,263.7
103.6998,125.8
103.7053,110.7
103.7197,710.6
103.7975,189.2
103.8077,86.4
103.8125,329.4
103.8604,274.4
103.9431,89.5
103.9797,319.1
103.9843,306.4
103.9905,287.3
104.0376,378.3
104.0401,107
104.0414,83.5
104.0838,111.8
104.1009,97.1
104.1025,242.3
104.1069,351924.9
104.1545,108.6
104.1621,549.9
104.173,86.1
104.2026,187.7
104.274,208
104.2884,343.6
104.2905,150.3
104.2989,125.7
104.3059,574.6
104.3373,101.7
104.3808,78.1
104.3859,207.2
104.398,19
104.4121,18.3
104.4401,111.9
104.4533,502.7
104.4776,111.2
104.4784,19.2
104.5159,375.5
104.5607,346.3
104.6006,324.8
104.6092,87.2
104.6642,94.8
104.7024,351.3
104.7138,124
104.8347,118.6
104.8427,791.9
104.8476,384.2
104.8643,755.2
104.9078,18.6
104.9208,18.2
104.9459,564.8
104.9545,677.5
104.9614,103.4
104.9633,180.9
104.9921,2685
105.0181,149.5
105.0446,38535.6
105.054,17.3
105.0698,29.7
105.1004,266.8
105.1103,13944
105.1264,20.6
105.133,18.4
105.1645,197.8
105.2322,409.1
105.2403,139.7
105.2464,350.8
105.2522,136.5
105.3017,93.2
105.3369,330.1
105.3697,414.4
105.3804,203.7
105.384,117.7
105.3854,17.1
105.4031,344.1
105.4178,309.7
105.4286,162.5
105.4542,338.8
105.4752,670.1
105.4773,22.1
105.5007,342.3
105.5193,294.8
105.5396,87.4
105.5629,135.7
105.5888,172.4
105.6205,127.6
105.6388,154.2
105.6433,155.4
105.6901,149.7
105.6959,86.8
105.7514,756.9
105.7765,109.6
105.7772,106.6
105.7814,442.9
105.8072,354
105.8407,118.2
105.8474,16.5
105.878,226.5
105.9435,18.4
105.9502,191
105.9768,16.8
105.9953,177.1
105.9986,109.5
106.0318,770.5
106.0353,547.5
106.0389,19.3
106.0401,20.6
106.0416,22
106.048,916.8
106.0577,272.7
106.0792,84.6
106.0858,112.2
106.0952,361.2
106.1009,20.2
106.1067,88.5
106.1329,106.3
106.1434,246.6
106.1588,184.7
106.18,163.4
106.1882,529.4
106.2156,371.2
106.2451,84.2
106.2591,119.9
106.2628,845.3
106.2875,83.8
106.2904,326.6
106.307,442.1
106.3222,407.4
106.3678,17.8
106.3721,241.3
106.3878,157.9
106.4029,225
106.4161,93.8
106.4452,563
106.5503,103.4
106.563,104.1
106.5883,144.9
106.5948,379.9
106.5976,523.2
106.6535,107.9
106.6705,686.9
106.6886,215.8
106.6915,90.4
106.7642,145.5
106.7662,335.3
106.7748,183.6
106.8646,102.9
106.8719,127.5
106.9026,240
106.9047,416.1
106.9473,664.1
106.9504,4640.9
106.9638,81.2
106.9918,48.8
107.0282,85.9
107.046,591.8
107.0492,1389.6
107.0585,627.1
107.0598,119
107.0854,125.3
107.1181,97.3
107.143,519.8
107.1878,219.4
107.1973,286.5
107.2413,780.4
107.2592,140.9
107.2604,80.4
107.2912,20
107.2983,586
107.3051,313.2
107.3198,93.1
107.3416,226.7
107.3437,237
107.3574,78.8
107.3711,174.9
107.3924,453.8
107.4273,163.9
107.4362,466.3
107.4403,426.2
107.5085,617.4
107.5201,22.6
107.5399,180.3
107.559,331.5
107.5814,620.6
107.5838,194.3
107.6143,555.7
107.6173,116.8
107.6311,153.1
107.6939,91.4
107.7042,356.2
107.7061,532.5
107.729,273.2
107.7394,505.6
107.747,80.7
107.7723,226.1
107.7756,493.5
107.796,256.9
107.8175,18.6
107.8301,201
107.8514,180.5
107.8782,344.7
107.8803,140
107.8849,292
107.9043,78.4
107.9426,449
107.9487,100.8
107.951,424.6
107.956,80.2
107.968,651.2
107.9936,97.7
108.0568,33.5
108.0694,108.7
108.0744,130.8
108.0795,177.5
108.0968,379.9
108.1149,20.6
108.1393,250.8
108.1445,373.5
108.1627,149.7
108.1665,344.2
108.2023,242.4
108.2033,276.5
108.2322,720.8
108.2529,104.9
108.2562,160.3
108.2618,109.1
108.3533,498.7
108.3614,300.7
108.423,612.3
108.4324,76.8
108.4363,837
108.4414,573.8
108.5162,192
108.5635,116
108.5886,15.9
108.599,619.9
108.6363,89.7
108.6424,92.5
108.6619,152.7
108.6835,292.1
108.7017,18
108.7078,83.9
108.7184,139.9
108.7405,345.5
108.7431,18.5
108.7497,20.8
108.7594,256.2
108.803,105.3
108.819,428.8
108.8213,19.2
108.8295,199.1
108.8384,72.2
108.8426,547.2
108.8554,169.3
108.861,450.6
108.877,296.1
108.8941,554.1
108.9089,123.8
108.9244,88.7
108.9382,296.1
108.9856,876.7
108.9896,810.3
108.9926,572.2
109.0039,90.7
109.0171,126.2
109.0324,437.3
109.0404,193.2
109.0465,191
109.0647,59666.7
109.0871,635.6
109.1011,116.2
109.1224,180.2
109.1911,258.9
109.1986,313
109.2171,19.1
109.2767,291.7
109.3021,483.4
109.3047,16.8
109.3127,18.4
109.3283,125.3
109.337,95.5
109.377,351.9
109.3861,160.3
109.4147,176.2
109.4628,141.8
109.4738,151.8
109.495,110.8
109.5103,90.5
109.5891,385.1
109.6017,182.1
109.6094,128.6
109.62,121.2
109.6279,20.9
109.6704,277.2
109.6933,503.2
109.6965,626.8
109.6995,185.9
109.7447,186.7
109.8181,324
109.8455,230.2
109.9285,562.6
109.9548,414.5
109.9914,124.9
110.0218,481.9
110.0423,329.6
110.0452,20.6
110.0584,172.6
110.0681,1493
110.0711,940
110.0943,509.6
110.0962,19.1
110.1433,99
110.1881,200.8
110.1919,287.5
110.3236,19.1
110.3332,118.5
110.3375,263.8
110.3435,155.9
110.3944,507.1
110.4535,552.1
110.5211,404.2
110.5296,200.6
110.5312,145.1
110.5402,197.8
110.5489,459.2
110.5567,400.3
110.6617,462.6
110.6956,227.3
110.7576,145
110.81,21.1
110.8405,181
110.8415,121.9
110.8482,100.4
110.8592,80.6
110.8602,302.4
110.8691,189
110.9334,19.8
110.9388,17.4
110.9528,99
110.9706,89.1
111.0232,309.6
111.044,355.4
111.0557,565.9
111.1065,352.8
111.1379,423.1
111.1402,200.1
111.1476,118.9
111.1747,18.7
111.1929,185.6
111.1995,198.6
111.2276,181
111.2362,252.3
111.2406,159.3
111.2944,18.1
111.3625,16.5
111.3899,19.7
111.4194,827.4
111.4368,725.5
111.4416,19.3
111.4716,345.4
111.472,342.3
111.5104,642.5
111.5172,582.5
111.5467,442.7
111.5724,20.7
111.6279,633.2
111.6428,752.4
111.6443,126.4
111.6655,151.9
111.6998,89.7
111.7057,95.8
111.7189,19.5
111.7418,21.9
111.743,73.4
111.7777,316.9
111.78,494.6
111.8089,774
111.812,279.6
111.8549,614.6
111.8592,463.9
111.8667,242.7
111.8684,139.4
111.8912,233.6
111.9046,81.1
111.9181,620.1
111.9937,225.3
112.0209,80.5
112.0234,18
112.0565,107.7
112.0624,131.7
112.0774,606
112.0995,27.9
112.1133,91.4
112.1514,397.2
112.2074,145.7
112.285,142.7
112.2877,258
112.2914,287.6
112.3212,339.3
112.3287,189.6
112.4074,89
112.4206,22.3
112.4258,198.7
112.4413,248.8
112.5254,18.5
112.5268,370.2
112.5383,164
112.554,177.2
112.6045,382.3
112.6262,134.5
112.6369,542.1
112.649,138.4
112.6496,158.4
112.6811,293.9
112.7372,86
112.8413,713.1
112.8551,209.8
112.8649,752.9
112.8772,521.3
112.8933,390.2
112.8956,372154.2
112.914,149.3
112.9248,104
112.9819,18.9
112.9874,535.6
112.9911,730.5
113.011,402.9
113.0242,104.8
113.1177,415.3
113.1249,123.2
113.1353,353
113.1725,230.5
113.1946,667.9
113.2181,21
113.2374,159.6
113.26,20.6
113.2682,153
113.2755,112.9
113.282,295.6
113.3632,326.3
113.3739,206.2
113.3792,504.1
113.3944,101.4
113.4217,507.6
113.4365,338.9
113.4612,645.9
113.4961,114.9
113.4978,295.7
113.5177,760.8
113.5203,18.8
113.5304,194.1
113.5547,727.3
113.5893,221.6
113.6119,82.4
113.6217,158.1
113.7028,186.1
113.7699,197.1
113.7783,94.6
113.8038,698.2
113.8286,104.4
113.8403,516.2
113.8621,249.6
113.8767,16.8
113.9086,131.5
113.9098,792.8
113.911,403.1
113.9194,394.3
113.9514,513.4
113.9997,215.5
114.0075,121.4
114.0096,415.5
114.0157,111.5
114.0549,54255.6
114.0661,247
114.0686,180.5
114.0976,687.5
114.2199,373.7
114.2287,23.4
114.2414,128.5
114.2428,341
114.2733,648.9
114.2888,502.2
114.2952,799.4
114.2972,703.1
114.3004,101.2
114.3147,507.7
114.3996,342
114.4632,158.6
114.5087,666.7
114.55,19.1
114.5546,218.5
114.5569,417.4
114.624,457.8
114.6332,730.7
114.6389,18.6
114.7363,145.3
114.7758,358.2
114.8714,470.6
114.8905,644.8
114.8927,118999.9
114.9152,198.6
114.9162,81.4
114.9515,488.9
114.9948,850.3
115.0001,482.9
115.0582,1588.6
115.1565,183.1
115.1801,716
115.1932,16.9
115.2315,269.4
115.2785,22.5
115.2984,348.4
115.3117,115.8
115.3584,214.8
115.4292,95.7
115.4725,208.5
115.5394,296.4
115.544,188.9
115.5728,560.3
115.5784,88.1
115.6219,304
115.6351,257
115.7257,102.6
115.8008,304.1
115.8022,88.4
115.8198,199.7
115.8791,18.2
115.9359,282.2
115.9686,18.2
116.0216,655.4
116.034,668.5
116.042,127.9
116.0481,126.2
116.0585,511.3
116.0632,340
116.0705,497.1
116.0797,247.1
116.0842,472.3
116.1318,424.5
116.1386,137.3
116.2478,169.6
116.2571,324.6
116.3036,701.8
116.3372,645.9
116.3594,112.1
116.382,197.5
116.5134,208.3
116.5857,363.3
116.6746,350
116.6821,104.1
116.7153,22
116.7813,18.3
116.7834,246.4
116.7991,255.4
116.8132,20
116.838,130.8
116.8407,423.9
116.8423,653.4
116.8511,106.4
116.8884,17.2
116.8908,8903.8
116.9162,571.7
116.9203,156.6
116.9308,115.7
116.9734,94
116.9829,304.5
116.9859,1226.2
117.0466,136.1
117.0488,17.9
117.0558,173
117.0698,21
117.0869,342.9
117.0946,705.6
117.1994,327.6
117.2035,78.7
117.2105,106.2
117.2192,195.7
117.2249,535.4
117.2534,687.4
117.2585,102.3
117.2682,288.6
117.2907,127.6
117.3001,392.7
117.4036,517.5
117.4237,897.4
117.4338,89
117.4367,76.6
117.4394,482.2
117.4471,564.4
117.4486,291
117.455,163.2
117.553,229.3
117.5642,544.7
117.5683,258.2
117.5912,562.6
117.609,342.8
117.6295,588.7
117.6351,18.3
117.6485,100.6
117.7189,301.8
117.7768,119.8
117.7986,234.3
117.8547,18.4
117.8725,305.3
117.9105,292.1
117.9325,284.1
117.9428,18
117.9485,459.3
117.9572,355.9
117.971,338
118.0012,207.9
118.0581,145.8
118.0584,145.2
118.0592,104.2
118.0784,495.6
118.0817,535.1
118.1023,250.2
118.106,719.8
118.1241,87.2
118.1638,107.9
118.1806,433.6
118.2005,173.5
118.2389,352
118.2832,18.5
118.3132,664.7
118.3832,303.7
118.4223,175.2
118.4581,133.5
118.4857,603.1
118.5208,22.5
118.5453,159.8
118.6031,143.2
118.6734,184
118.7552,455.9
118.7789,657.9
118.798,360.8
118.8721,682.7
118.888,352.4
118.8964,347.2
118.9512,159
118.9791,20.1
119.0384,611.4
119.052,217.9
119.0735,300.9
119.1336,153.2
119.1385,19.1
119.1423,214.4
119.1459,321
119.1548,99.8
119.1605,102.7
119.1692,485.3
119.1821,106.8
119.1849,18.7
119.2884,101.2
119.3078,160.2
119.3239,298.9
119.4163,378.4
119.4288,220.4
119.507,18.3
119.5524,305.6
119.6304,184.9
119.6541,365
119.6558,583.3
119.6643,157.6
119.6829,148.2
119.6848,17.1
119.7241,17.3
119.7279,146.4
119.7762,262.1
119.7909,101
119.8162,447.9
119.8255,109
119.8498,159.1
119.9106,136.4
119.9223,81.5
119.9482,159.8
119.959,118.3
119.9977,622.1
120.0031,2819.9
120.0094,129
120.0198,127.9
120.0389,568.2
120.0435,103.2
120.0655,353.9
120.0807,17509
120.0832,101.4
120.0941,18
120.1024,557.5
120.1129,182.6
120.1718,365.9
120.1738,625
120.1878,598.8
120.194,570.7
120.1975,321
120.2037,114.8
120.2465,85.1
120.3143,508.4
120.3174,549.2
120.3395,354.4
120.3514,260.3
120.3818,431.5
120.4811,276
120.5013,87
120.6361,84.7
120.6982,199.6
120.7314,660.8
120.7958,166.7
120.8167,237.1
120.8486,511.4
120.8845,81.4
120.9808,143.4
121.0076,399.6
121.0203,109.8
121.0284,374.1
121.0396,112.8
121.1012,132.9
121.1388,546.6
121.1495,92.6
121.1551,86.7
121.1673,278.1
121.1735,298.9
121.2456,451.6
121.2892,147.7
121.2991,206.7
121.3202,499.3
121.3346,386.7
121.3508,303.4
121.3665,193.7
121.483,348
121.5133,93.7
121.5477,216.8
121.5651,327.8
121.5757,19
121.6054,195.9
121.6419,257
121.7042,769.6
121.7357,224.8
121.7436,606.7
121.7455,16.1
121.778,288.4
121.7859,263.4
121.7984,564.1
121.8443,17.3
121.8948,131.4
121.915,104.2
121.9935,86.1
122.0051,266.9
122.0138,676.8
122.0386,18.5
122.0572,162.2
122.0626,219.2
122.0642,277.1
122.0812,413.7
122.1761,195.1
122.2304,585.1
122.2599,144.7
122.3098,17.1
122.3529,150.3
122.3653,140.9
122.3895,187.5
122.4113,350.6
122.4247,16.7
122.5154,21.6
122.5324,148.1
122.5811,175.6
122.5995,92
122.6338,79.5
122.7008,280.8
122.7395,147.2
122.7545,215.1
122.7877,19.2
122.8906,114.4
122.9154,139
122.9245,17322.9
122.932,123
122.9826,19.2
123.0077,520
123.0249,280.7
123.0285,227.5
123.0569,155
123.0628,147.1
123.065,199.1
123.0804,28
123.1041,390.9
123.1167,46.7
123.1226,317.1
123.1245,411.6
123.1457,121.5
123.1701,527.5
123.2398,95.9
123.2418,105.8
123.2585,715.4
123.2668,290.4
123.2696,661.8
123.2763,149
123.3269,320.7
123.3293,96.6
123.4093,297.1
123.4404,84.7
123.471,128.5
123.5995,697.3
123.6818,93.2
123.6925,237.8
123.732,645.1
123.7762,300.6
123.8253,609.4
123.8569,364.9
123.8627,105.8
123.8909,78.2
123.925,21.4
123.9625,595.8
123.9881,152.3
123.9962,99
124.007,193.9
124.0188,358.9
124.0347,378.1
124.0369,131.3
124.0536,83.8
124.0677,261.3
124.0896,357.9
124.1178,543.1
124.1552,1028
124.1609,112.2
124.2549,140.5
124.273,418.2
124.2817,25.4
124.3642,115.4
124.3701,374.8
124.3757,431.7
124.3982,596.1
124.4715,310.3
124.4853,313.1
124.4962,224.5
124.5154,169
124.5306,105.6
124.5709,292.2
124.6093,172.8
124.634,158.2
124.6741,24.7
124.7967,527.3
124.8267,123
124.9098,80.8
124.9226,1784.7
124.9366,108.9
124.9672,148.5
124.9892,116
124.9945,124.8
124.9998,6382.9
125.0056,365.9
125.0348,676.9
125.0389,288.4
125.0552,87.3
125.0596,27.9
125.1053,103.6
125.106,155.3
125.1064,143.6
125.1122,401.5
125.1593,449.1
125.1828,104.8
125.192,834
125.2156,106.7
125.2378,225
125.2454,365
125.3099,205
125.3356,19.8
125.4219,104.5
125.4486,194.4
125.4671,252.2
125.5829,126.2
125.6247,295
125.6601,538.8
125.6633,649.3
125.741,352.7
125.8765,170.2
125.8987,364.8
125.9537,245.1
125.9982,17
126.022,139
126.057,360.7
126.0663,138.5
126.073,332.5
126.089,503.3
126.1623,188.6
126.1714,112
126.2086,293
126.2324,275.7
126.2631,428.4
126.28,140.2
126.32,114.4
126.3308,344.5
126.3626,559.5
126.3818,19.7
126.4278,675.2
126.4359,796.4
126.4974,170.8
126.5161,17.3
126.5243,616.9
126.5339,91.4
126.5393,184.4
126.5429,136.9
126.5819,105.6
126.6042,156
126.6924,270
126.7015,118.1
126.717,17.6
126.7237,17.8
126.7475,554.3
126.7503,565.6
126.7803,459.8
126.8772,21.4
126.8989,169.1
126.9009,271.1
126.9457,371.4
126.9538,540.9
126.9564,524.1
126.9794,189.6
127.0345,359.1
127.0478,124.6
127.0794,346.4
127.0965,18.4
127.103,405.6
127.1405,342.8
127.1571,18.5
127.1824,20.2
127.2096,465.4
127.2311,278.2
127.235,216.6
127.2529,578.8
127.409,18.7
127.4257,172.5
127.4939,330
127.5288,173
127.5503,835.1
127.5963,542.9
127.6027,651.9
127.6187,154.4
127.6334,149.9
127.6875,93.6
127.6995,132.5
127.7562,245.1
127.808,86.7
127.8562,299.3
127.8754,572.3
127.9669,19.7
127.9734,207.2
127.9837,136.3
127.9889,136.8
128.0435,629.6
128.0563,16.1
128.1384,380.5
128.1435,173.4
128.2631,668
128.2728,519.9
128.2743,156.7
128.3261,22.6
128.331,123.5
128.3438,98.7
128.35,138.4
128.3716,446.2
128.3793,16.9
128.3868,299.8
128.3956,308.7
128.3981,121.6
128.4115,22.6
128.4222,127.3
128.4496,134.6
128.4782,115.7
128.5105,19.5
128.5303,297.6
128.5739,439.5
128.5955,522.4
128.6256,396.4
128.6345,351.1
128.6806,153.9
128.6925,192.5
128.7123,482.3
128.7286,159.9
128.7973,98.9
128.8089,382.2
128.8157,677.5
128.8305,19.6
128.8324,453.4
128.866,338.7
128.8674,16.8
128.8811,119.4
128.941,330.3
128.9461,339.4
128.9631,346.6
128.9641,177
128.9874,186.5
128.9894,118.2
128.9941,138.8
128.9952,17.9
128.9973,583.2
129.0032,945.4
129.0172,396.1
129.0275,300.2
129.0599,393.6
129.1022,2607.4
129.141,289.9
129.1442,17.7
129.1612,235.5
129.1859,85
129.2596,222.7
129.2735,380.9
129.284,91.2
129.2888,533.4
129.2994,472.6
129.315,1128.2
129.3167,125.5
129.3414,17.9
129.3544,323.9
129.4056,307.9
129.4172,84
129.4498,742.4
129.4834,159.5
129.4889,517.5
129.5196,478.5
129.6165,469.4
129.6355,17.9
129.6726,105.5
129.6764,193.3
129.6799,326
129.6818,122.4
129.7351,83.4
129.7369,128.4
129.7956,519.7
129.7978,102.6
129.8085,369.7
129.8223,185.7
129.8356,332.1
129.8745,476.7
129.8986,238.8
129.9018,442.7
129.9153,510.1
129.9667,97.1
130.0313,345.8
130.0499,2707.4
130.1097,95.2
130.1141,90.2
130.1819,475.6
130.2474,131.1
130.2517,109.5
130.2542,233.5
130.2832,108.3
130.2985,18.1
130.3066,16.7
130.3423,89.8
130.3554,218.7
130.3586,133.4
130.4152,449.9
130.432,98.7
130.5188,315.2
130.5831,90.2
130.6224,199.3
130.6367,131.5
130.6519,848.6
130.8202,17.9
130.8493,492.5
130.8761,237
130.8883,324.9
130.9063,87.5
131.0066,283.9
131.0097,360.4
131.0167,97.5
131.0305,164
131.0743,275.5
131.1004,323.9
131.1046,18.2
131.1261,359.9
131.1383,106.4
131.2624,463.5
131.2628,409.7
131.2845,314.2
131.4215,20.9
131.4508,83.8
131.4895,121.2
131.4918,107.9
131.5034,157.4
131.5279,651.2
131.5924,130.7
131.6145,162.1
131.6263,426
131.6436,149.1
131.6554,401.9
131.687,299.5
131.7149,105.5
131.7756,541.8
131.8078,197.4
131.9228,712.8
131.9276,331.8
131.9368,147.9
132.0032,24320.9
132.022,96.9
132.0655,97576.8
132.0767,4880.5
132.081,164.8
132.1168,155.6
132.3049,115.7
132.333,508.5
132.3376,138.6
132.381,109
132.4161,91.4
132.4796,477.1
132.52,117
132.5236,20.1
132.6135,548.3
132.7402,137.5
132.7631,135.4
132.8351,707.1
132.8482,90.6
132.8731,333
132.8796,19.2
132.9038,19.5
132.9512,654.2
132.9758,123.1
132.9872,1862.4
132.9889,106.2
133.0076,50.4
133.0147,366.1
133.0689,3120.2
133.0859,24.9
133.0972,10205.3
133.1013,19.7
133.1594,353.6
133.1701,341.4
133.1891,176.2
133.2687,479.9
133.2744,195.5
133.3647,300
133.3776,123.8
133.3809,935.7
133.3867,214.1
133.433,580.3
133.4574,124.3
133.5351,80.3
133.6196,100
133.6575,246
133.6902,658.2
133.7482,341.3
133.7548,384.9
133.7649,528.1
133.7672,167.1
133.7818,126.3
133.8181,21.2
133.8322,573.3
133.8584,156
133.9364,171.1
133.9872,171
134.0188,14399.9
134.0411,133.8
134.0446,214.6
134.0534,296.9
134.0613,126.7
134.0697,144.6
134.099,583.2
134.1641,24.4
134.1671,17.7
134.1863,124.5
134.1945,341.9
134.2541,19.1
134.2582,170.5
134.2651,356.4
134.2948,381.7
134.3064,102.7
134.3326,369.7
134.3464,117.8
134.4149,484.7
134.4993,148.4
134.5116,200.8
134.5222,19.6
134.6885,20.4
134.7012,19.5
134.7245,150.9
134.8141,338.6
134.8367,18.1
134.8407,18.4
134.8716,134.3
134.9047,278.2
134.9263,376.3
134.991,134.5
135.0028,56389.4
135.0056,89.4
135.0271,315.6
135.091,166.5
135.1166,24
135.1261,583.3
135.1506,103.6
135.2081,226.7
135.2352,183
135.3279,78.5
135.3895,20.2
135.4118,99
135.4534,537.7
135.5098,95.5
135.512,259.6
135.5373,554.3
135.5559,225
135.6346,113.7
135.6575,290.3
135.682,161.1
135.6898,322.8
135.7053,446.5
135.7148,603.4
135.7459,167.5
135.7898,354.4
135.8088,16.9
135.8119,451.8
135.8709,707.3
135.8724,100.8
135.8897,579
135.8936,80
135.9442,467.4
135.9606,658.6
135.977,1203.7
135.9956,94.7
136.0412,79
136.0451,79.2
136.0481,15832
136.0618,102.9
136.0661,171.5
136.0757,11412.7
136.0818,17.6
136.0849,356.9
136.0939,155.6
136.1032,408.1
136.2473,140.1
136.2773,219.2
136.292,136.7
136.3037,222.7
136.3533,248.1
136.3596,213.3
136.3801,88.9
136.4471,18.7
136.4608,179.6
136.4645,288.9
136.4765,544.5
136.5319,145.8
136.6234,116.9
136.6407,721.9
136.6476,169.4
136.6568,177.7
136.6589,118.7
136.6782,379.8
136.7152,93.6
136.7286,547.9
136.7808,362.2
136.812,99.4
136.8353,459
136.8375,79.6
136.8568,358.3
136.8676,161.1
136.8869,570.8
136.9311,1113.1
136.9371,293.7
136.9508,192.9
136.9624,210.3
136.9936,119.4
137.0055,530
137.0233,186.8
137.0847,19.1
137.1571,102.9
137.1593,353.5
137.1787,18.4
137.2829,607.8
137.3327,99.5
137.3837,821.7
137.4258,134.3
137.4424,407.4
137.5387,365.2
137.5532,643.2
137.5607,827
137.6722,96.2
137.7283,87.5
137.7414,20.3
137.8195,180.3
137.9028,667.9
137.9393,19.2
137.9423,85.2
137.9509,503.3
138.0073,324.8
138.0526,6458.3
138.0571,96.3
138.0662,74.3
138.1063,168.2
138.1796,163.5
138.1812,254.5
138.204,144.4
138.2571,399
138.2624,158.9
138.2697,514.5
138.2871,192
138.2878,393
138.3441,85.4
138.3477,107.4
138.3689,400
138.389,87.8
138.3953,239.1
138.4547,165.4
138.4616,150.5
138.4689,314
138.5291,666.4
138.5339,340.9
138.5394,17.7
138.5732,294.4
138.5845,18.6
138.5878,179.2
138.5899,134.7
138.7649,151.4
138.871,90.9
138.9064,2379.7
138.9093,151.9
138.9528,153.3
139.0395,114.2
139.0869,18
139.1099,566.3
139.1529,436
139.1616,84.5
139.1745,319.8
139.1812,531.7
139.1842,418.3
139.3196,406.9
139.3458,133.3
139.3571,79.3
139.3624,19
139.4223,295.5
139.4345,19.4
139.4613,127.5
139.5014,118.6
139.5085,935.8
139.5359,17.9
139.5636,698.5
139.7253,106.8
139.7765,102.3
139.7812,167.6
139.7887,17.6
139.8024,132.3
139.8278,592.5
139.8301,92.5
140.0165,1132.9
140.0601,492.4
140.0682,4845.2
140.0928,203.6
140.1065,562.3
140.1742,127.2
140.176,339
140.1776,107.4
140.205,184.7
140.2339,135.2
140.2655,682.3
140.2908,109
140.311,149.9
140.3191,18.2
140.3531,718.8
140.3803,91.8
140.5041,84.1
140.5211,178.8
140.5739,159
140.6212,137.9
140.6475,149.2
140.6511,86
140.6845,258.4
140.782,147.5
140.8005,20.3
140.8146,400.5
140.8406,333.1
140.8762,286
140.9034,594.5
140.9197,378
141.0005,15328.8
141.0336,95.7
141.041,106.7
141.0713,597.4
141.1041,349.1
141.1526,252.6
141.1745,410.5
141.1753,412.1
141.2142,373.6
141.2685,139.6
141.2705,646.7
141.2819,136.4
141.3083,644.5
141.3973,17.4
141.4346,314.8
141.4847,109
141.5016,19.1
141.5391,494.3
141.5887,408.9
141.6017,538.2
141.6743,86.7
141.6762,21.6
141.714,92.4
141.7584,103.8
141.7673,420.2
141.8039,791.6
141.8139,336.8
141.8711,497.9
141.8786,283.3
141.9097,732.8
141.9285,134.7
141.9543,105
141.9847,434.7
141.9963,580.7
142.0039,421.1
142.0614,505
142.0695,21.2
142.0737,114.5
142.0984,235.7
142.1835,405.7
142.1912,143.2
142.2016,192.4
142.3009,142.5
142.3165,177.6
142.3868,18.3
142.4441,95.5
142.534,257
142.5794,142.1
142.6063,81
142.6576,133.7
142.6661,84.8
142.6756,104.3
142.6987,19.6
142.7494,408.3
142.7844,217.7
142.7888,590.6
142.8643,278.5
142.8763,157.6
142.9005,361
142.905,94.4
142.9479,419.4
142.964,22.3
142.9963,339.3
143.0138,320
143.0187,978.7
143.0586,129.1
143.0603,20.3
143.0762,115.5
143.0815,447.6
143.1183,90
143.1307,229.7
143.1783,136.5
143.2067,316.6
143.2231,162.7
143.2821,684.9
143.2984,593.2
143.302,253.1
143.3065,135.4
143.3279,92
143.3625,108.6
143.3871,95.2
143.4085,173.8
143.491,124.2
143.5668,230.9
143.6762,110.6
143.6917,85.8
143.7083,101.3
143.7107,191.7
143.7384,339.7
143.77,104.6
143.7786,77.9
143.7896,132.6
143.8911,246.2
143.9177,221.3
143.9662,88.3
143.9969,220.5
144.0107,41.9
144.0173,116.3
144.0633,56.6
144.0801,344.8
144.083,842.4
144.1874,102.9
144.2028,534.5
144.2172,185.4
144.2487,141.6
144.2845,168.1
144.3329,161.3
144.3994,338.8
144.4878,103.6
144.6232,122.7
144.6835,176.9
144.8256,124.1
144.8379,254.9
144.9093,534.6
144.9808,6868.8
145.0203,16.2
145.0452,483.9
145.0471,674.7
145.0514,105.6
145.0821,172.4
145.1867,436.7
145.1911,19
145.1947,20.8
145.2065,118.4
145.3066,17.4
145.3295,158.1
145.3471,384.9
145.4255,195.5
145.5309,89.4
145.5504,526.2
145.5962,95.8
145.5978,158
145.6129,514.6
145.6181,18.2
145.6193,16.3
145.6578,139
145.7194,82.8
145.7545,115.8
145.7665,93.2
145.8415,583.4
145.8629,113.1
145.8736,20.8
145.9054,83.8
145.9355,185.5
145.9648,280.8
145.967,161.8
145.9768,88.1
145.9791,19.2
146.0125,4690.2
146.0189,15831.3
146.0227,340.7
146.0327,204.3
146.0384,18.3
146.1138,379.4
146.1164,298.4
146.1235,126.8
146.125,474.8
146.1351,127.8
146.2298,90.1
146.2604,146.7
146.3079,421
146.3167,279.5
146.362,21.2
146.3728,79
146.4762,351.3
146.5304,575.9
146.5449,82.7
146.5565,181.7
146.5719,325.8
146.6051,582.9
146.6568,143.9
146.7094,21.4
146.7693,104
146.8055,110.1
146.822,110.7
146.8447,147.9
146.8554,426.9
146.8577,453.8
146.8687,478.3
146.9362,198.8
146.9818,106340.8
147.0591,545.9
147.0764,37010.4
147.1128,26019.8
147.1171,347.9
147.1439,167.1
147.2092,21
147.2329,140
147.2714,250.4
147.3045,82.1
147.3204,17.5
147.3342,93.9
147.3668,105.6
147.3684,821.8
147.5811,121
147.6976,97.3
147.8316,19.1
147.8354,17.2
147.8683,313.9
147.953,914.6
147.9556,189.4
147.9735,112
147.985,477.9
148.0796,578.1
148.15,309.1
148.1569,18.5
148.1726,131.1
148.1824,18.3
148.1913,810.3
148.2111,166.4
148.2447,115
148.2688,162
148.2809,195.8
148.3471,517.7
148.3806,281.2
148.4151,221.6
148.4368,265.8
148.4567,162.2
148.532,1798.6
148.5663,528.9
148.6215,623.6
148.7032,585.9
148.7611,163.4
148.9108,512.6
148.9465,121.6
148.961,1379
148.9638,86
149,352.5
149.0021,486.2
149.0185,6835.8
149.0234,5675
149.0496,305.2
149.1076,176.7
149.1135,503.2
149.1324,20.9
149.1403,19.6
149.234,425.7
149.2577,562.5
149.2908,692.4
149.3281,551.9
149.4012,1026.2
149.4193,125.7
149.4581,555.7
149.5401,713.6
149.5595,567.3
149.5876,199.2
149.6219,175.2
149.6693,355.7
149.7337,264
149.7503,131.6
149.7967,387.8
149.8178,111.1
149.8319,214.7
149.99,335.3
149.9928,8106.1
150.0139,4923.9
150.0267,65.2
150.0342,570.5
150.0997,114
150.1022,83
150.1041,85.3
150.1477,339.5
150.1927,659.2
150.2142,115.3
150.2795,494.6
150.3375,453.1
150.3599,112.3
150.3852,17.9
150.4945,105.7
150.5218,275.8
150.5253,79.9
150.5351,435.2
150.5418,163.6
150.5612,84.8
150.6111,366.8
150.6165,569.4
150.6508,266.6
150.726,106.7
150.7292,501.5
150.7897,85.9
150.8247,288.9
150.8526,556.4
150.8617,155
150.9015,21.5
150.9768,31897.3
150.9841,278.6
151.0479,1974.2
151.0637,160.6
151.1265,100.5
151.1321,84.9
151.1582,683.9
151.197,105.3
151.2077,426.9
151.2288,16.9
151.2679,87.1
151.2771,17.1
151.291,565.3
151.3158,143.3
151.3812,89.5
151.4268,304.5
151.484,145.5
151.5252,148.5
151.5273,149.7
151.536,17.7
151.559,170.9
151.5741,195.7
151.5888,315.3
151.7267,526.2
151.7362,317
151.7553,148.1
151.7637,285.9
151.8476,378.9
151.8614,115.8
151.9084,20
151.9362,617
151.9423,513.5
151.9493,448.1
151.951,830.8
151.9683,179.8
152.0221,16417.8
152.0318,1188.5
152.1029,569.3
152.136,249.2
152.142,259.5
152.1574,278.2
152.2295,108.6
152.2432,19.1
152.2727,589.9
152.3346,19.3
152.3625,130.3
152.3899,103.9
152.3977,358.4
152.5091,98.6
152.5583,19.4
152.5627,18.6
152.5979,16.8
152.6104,330.2
152.6933,208.8
152.7971,95
152.8677,23.5
152.9117,586.8
152.939,239.3
152.9605,456.4
152.9655,86.4
152.9751,833
152.9914,20.4
153.0361,752.8
153.0495,21.1
153.0593,500.5
153.1022,230.9
153.2934,141.1
153.3426,404.7
153.3486,147.9
153.4019,124.2
153.5233,106.7
153.5589,613
153.5915,713.3
153.6478,87.7
153.8355,127
153.8606,105.7
153.8893,166.9
153.905,157.1
153.9797,170.2
154.0111,276.1
154.0431,90.6
154.0586,6741.1
154.2207,307.6
154.2237,596.9
154.2921,172
154.3027,92.4
154.3326,123.4
154.3585,312.8
154.3995,609.5
154.4197,19.1
154.4238,746.5
154.4333,525.1
154.4369,366.6
154.4517,168.5
154.4703,137.2
154.6519,376.2
154.7623,677.7
154.8056,197.4
154.8409,515.1
154.8646,312.1
154.8806,376.5
154.9084,679
154.916,273.8
154.9265,245.6
154.9418,61.2
154.9435,127.9
154.9621,514.8
154.9692,717.2
154.9822,125.6
155.0022,136.2
155.0392,135.8
155.0429,1020.7
155.0491,730.3
155.054,6105.4
155.073,89.3
155.1181,82
155.1376,113.1
155.245,127
155.3025,188.5
155.3131,116.4
155.3248,368.6
155.3924,669.9
155.3943,123.7
155.5044,194
155.5882,303.2
155.6034,147
155.6502,187.2
155.6642,355.5
155.7397,99.3
155.744,1008.9
155.7599,77.8
155.7636,589
155.8085,18.6
155.8226,1054
155.8314,137.3
155.8897,165.9
155.9386,130.6
155.948,772.2
155.9698,84.2
156.0421,3880.8
156.0503,83.4
156.0574,126.7
156.0768,40393.3
156.1239,410.6
156.1508,346.2
156.218,16.8
156.2216,356.9
156.2553,411
156.2637,348.3
156.2951,144.8
156.5138,676.4
156.5178,474.4
156.6022,20.5
156.6228,18.4
156.6343,19.3
156.6421,767.6
156.6535,153.7
156.6683,111.1
156.8766,699.4
156.9053,150.1
156.9341,1170.7
156.9551,668.8
156.9746,73.1
157.0801,159
157.0951,391.4
157.0973,228.3
157.1066,19.9
157.1085,147.5
157.1975,164.4
157.2048,103.4
157.2197,790.5
157.236,521.4
157.2583,333
157.2811,95
157.3426,82.6
157.3587,102.2
157.379,229.5
157.4011,685.6
157.4309,143.7
157.4991,307.9
157.5123,157
157.5213,312.9
157.5671,446
157.6265,514.5
157.6367,287.4
157.6953,556.4
157.7332,284.7
157.7675,17.3
157.799,398.6
157.8191,248.1
157.8518,192.7
157.8611,419.6
157.8825,338.1
157.8873,272.2
157.902,778
157.9286,292.7
157.9516,167.8
157.9806,127.7
158.0103,357.7
158.0272,3876.7
158.1467,320.1
158.1845,89.9
158.2128,528.7
158.2225,198.9
158.2597,145.7
158.3462,136
158.3519,171.4
158.4173,18.9
158.4297,428.3
158.4302,453.4
158.4623,547.1
158.5161,89.3
158.5393,142.9
158.6549,521
158.6806,87.6
158.6881,390.7
158.7989,816.5
158.874,203.1
158.8835,89.8
158.9278,718.9
158.9419,75.8
158.9641,12290.8
158.9965,13924.6
159.0262,596.3
159.0305,119.1
159.0767,111.8
159.0918,87.9
159.1169,23.7
159.1518,18.5
159.1733,624.4
159.2024,121.5
159.214,206
159.2467,391.7
159.2548,224.8
159.3182,602.8
159.3555,333.4
159.3659,589.5
159.3881,111.9
159.4438,141.5
159.482,274
159.5445,588.6
159.5482,349
159.6208,95.7
159.6331,336.3
159.6847,19.2
159.7507,267.1
159.7874,506.4
159.8327,312
159.8482,624.1
159.8897,171
159.9307,125.6
160.0136,606
160.023,89.4
160.0318,16.3
160.0345,11962.9
160.0509,379.9
160.0605,123900
160.067,336.1
160.0951,390.1
160.1003,683.2
160.1271,19.7
160.1438,84.8
160.1565,206.7
160.1628,212.3
160.2068,356.5
160.2384,87.8
160.2411,101.2
160.2945,110.2
160.4635,232.3
160.4962,119.4
160.5201,18.7
160.5381,122.7
160.6032,493.2
160.61,100.2
160.631,188.5
160.6767,422.9
160.6979,380.5
160.7329,132.5
160.7937,177.2
160.8613,718.5
160.9237,20.5
160.939,174.3
160.944,158.8
161.0185,483.5
161.0639,5281.7
161.1058,505.9
161.1074,87.5
161.1121,187.3
161.1184,112.2
161.1286,2561.7
161.1327,18.5
161.1633,17.9
161.1673,283.2
161.1863,346.3
161.202,21.7
161.2946,148.4
161.3427,466.7
161.3969,95.1
161.4333,635.5
161.4715,83.5
161.4777,231
161.6087,192.3
161.628,146.1
161.7263,486.2
161.7881,359.4
161.7944,318.1
161.8916,856.1
161.9029,471.7
161.9219,137.7
161.9549,77.7
162.0295,179.9
162.0454,374.7
162.0502,21233.9
162.0835,77.2
162.1125,984.7
162.1409,494.8
162.2145,106.3
162.2642,173.5
162.2698,83
162.3507,19.7
162.3676,115.6
162.485,523.7
162.5258,398.8
162.5616,464.2
162.6138,18.5
162.6811,100.8
162.7806,503.4
162.7844,404.8
162.8095,661.2
162.9041,373.1
162.9127,278
162.9557,2975.2
162.9708,538.6
162.9884,286.4
163.0155,5156.1
163.0344,875.8
163.0764,167.8
163.0892,158.6
163.1174,215.4
163.1737,632.5
163.2021,634
163.2752,122.8
163.3494,576.7
163.4116,339.4
163.4234,24.3
163.431,179.9
163.433,398
163.5008,21.5
163.5859,93.3
163.5977,133.8
163.6074,181.3
163.6206,627.7
163.6341,336
163.6443,91.8
163.7216,165.5
163.764,181.9
163.7772,679.7
163.8153,124.7
163.8366,456.5
163.9759,18.6
164.0237,228.5
164.0295,10687.9
164.0388,126.5
164.0543,350.7
164.0888,96.7
164.0997,23.8
164.1188,158.2
164.1529,87.2
164.266,354.8
164.3819,373.1
164.5484,112.5
164.6366,701.4
164.6383,141.2
164.6432,243
164.6816,95.8
164.7759,501.4
164.79,288.1
164.9058,332.3
164.9205,5049
164.93,17936
164.935,945.2
164.9385,116
164.9718,529
164.9925,2000.5
165.0012,152.3
165.0309,374.3
165.0413,214
165.0584,574.2
165.0735,17.9
165.091,686.2
165.1026,617.5
165.2016,368.2
165.2141,123.9
165.219,86.6
165.2782,133.4
165.3344,108.3
165.3512,276.3
165.4405,100.1
165.4488,135.3
165.4529,532.8
165.4581,511.8
165.4598,25.8
165.5048,150.1
165.5467,24
165.589,104.4
165.6177,377.4
165.692,325.1
165.7083,155.1
165.7832,137.9
165.8194,105
165.849,325
165.9668,1211.4
165.9791,579.2
165.9877,3414.8
165.9952,61.5
166.0035,494.1
166.0252,99.3
166.0517,596.9
166.0839,3311.1
166.0986,184.4
166.1118,85.7
166.2125,426.7
166.2232,795.3
166.2675,233.1
166.273,165.7
166.368,341.1
166.4562,329.3
166.4652,102.6
166.4711,18.8
166.5766,630.8
166.6378,382.5
166.6423,18
166.6699,599.4
166.6906,326
166.7062,17.6
166.7508,198.7
166.7533,742.8
166.8018,440.4
166.8712,334.3
166.8957,345.9
166.9152,605.9
166.9508,12056.8
166.9627,1146.1
167.0219,916.1
167.045,127.4
167.1611,611.2
167.1703,21.5
167.2205,597
167.2642,236.2
167.2749,86.5
167.3211,376.7
167.4221,325.4
167.4441,111.8
167.5445,150.6
167.6845,764.8
167.7413,487.8
167.7552,17.5
167.7838,618.8
167.8209,88.5
167.827,124.6
167.8503,82.1
167.9405,628.8
167.9428,216.4
167.9632,27.3
167.9782,412.9
167.9814,484
167.9945,2656.2
168.0074,569.6
168.066,321.3
168.0831,474.7
168.1053,513
168.1262,631.9
168.1695,113.3
168.1844,520.5
168.1942,135.1
168.2332,78.8
168.303,96.5
168.4053,526.6
168.4557,446.4
168.4615,20.6
168.4779,20.7
168.4871,104.6
168.5032,87.3
168.5436,92.1
168.5747,530.7
168.5993,235.6
168.6367,214.7
168.6925,104.1
168.7322,142.2
168.8883,119.8
168.938,17.2
168.9753,22.1
169.0281,465.9
169.0585,39527.6
169.065,503.8
169.0948,4421.9
169.0975,553.8
169.1003,275.3
169.1176,93.7
169.1543,144.4
169.1605,131.3
169.2363,733.4
169.3068,450.1
169.3484,173.7
169.3535,553.9
169.3971,158.9
169.4239,226
169.5634,19
169.6799,123.5
169.7079,266.2
169.7236,138.3
169.7342,173.8
169.7524,235.2
169.7842,640.3
169.7894,172.9
169.8707,158.2
169.8894,16.9
169.9859,3309.4
170.0184,114.6
170.0328,9947.8
170.0618,467.8
170.0781,80.2
170.079,84.2
170.0926,35170.9
170.1318,130.4
170.1372,199.9
170.1427,671.8
170.1489,579.8
170.2303,88
170.2408,129.6
170.2422,134.7
170.2785,161.9
170.3427,271.6
170.3777,123.6
170.4367,164.3
170.4437,103.7
170.51,93.3
170.5251,105.8
170.5898,111.5
170.6403,126
170.6497,321.5
170.6685,155.3
170.6879,109.9
170.8545,3413.3
170.8606,740.8
170.8636,716.6
170.8969,212.1
170.9272,171.3
170.9789,115.8
170.9863,19.7
171.0166,1139.9
171.028,548.2
171.0328,113.9
171.0532,756.9
171.0679,82.8
171.081,103.2
171.0958,458
171.1027,368.8
171.1411,163.4
171.1443,267
171.174,151.6
171.1883,171.9
171.2145,104.3
171.2399,274.1
171.2674,123.1
171.2747,101.8
171.3412,550.4
171.3836,90.5
171.4106,107.9
171.4887,380.3
171.5171,152.8
171.5709,77.3
171.5977,16.7
171.6063,262.2
171.6324,296.4
171.6343,253.1
171.7667,19.5
171.8008,204.1
171.8084,298.9
171.8186,370.3
171.8396,21
171.8699,609.5
171.9515,388.9
171.9804,148
171.9912,130.5
172.0133,21
172.0283,1062.2
172.0472,619.8
172.1078,119.3
172.1127,261.4
172.1725,540
172.1823,393.2
172.2558,299.6
172.2822,296.3
172.2953,167.3
172.3226,232.7
172.3288,157.9
172.4052,168.6
172.629,120.1
172.6502,324.3
172.655,654.9
172.7207,108.4
172.7863,328.5
172.8237,199.7
172.83,1046.7
172.8399,111.9
172.8514,1620.3
172.856,230.6
172.8859,167.2
172.9449,426.9
172.9772,336
172.9858,610.6
173.027,262.9
173.041,657.6
173.0673,239.1
173.1007,163.6
173.1514,18.6
173.1751,357.2
173.1915,393.7
173.1957,337.7
173.2334,194.9
173.26,18.9
173.3433,108
173.3539,720.8
173.4333,380.3
173.437,85.1
173.469,84.6
173.4775,118.8
173.5506,120.9
173.5816,817.6
173.6382,239.4
173.6433,548.9
173.6524,336.6
173.7314,759.9
173.8656,76.6
173.8899,394.2
173.9016,421.7
173.9617,237.3
173.9691,19
173.9977,243.6
174.1032,335.8
174.1123,17.5
174.182,106.4
174.1919,234.6
174.2158,358.2
174.2881,173.7
174.2926,619.3
174.3531,807.3
174.3676,476.6
174.3695,17.8
174.3804,226.4
174.5139,360.7
174.5353,163.3
174.5361,162.7
174.5378,133.3
174.5845,370.7
174.6034,114.3
174.7308,807
174.7445,348.4
174.7493,82.3
174.7789,327.3
174.846,119.9
174.8726,386.8
174.8922,359.5
174.8969,887.8
174.9382,5930.8
175.0153,107.4
175.0237,81.1
175.0342,11594.9
175.0456,4322
175.0578,684.4
175.1191,88087.8
175.1375,366.4
175.141,191
175.1459,348.8
175.1825,152.6
175.1988,99.8
175.2194,18.2
175.2325,163.6
175.2344,126.8
175.2644,111.4
175.4715,18.8
175.4762,134
175.5093,112.1
175.6165,366.8
175.6727,20
175.7501,147.2
175.8283,104.1
175.8975,17
175.9352,377
176.0085,6944.8
176.0302,18
176.0407,1581.8
176.0618,17.1
176.0659,25644.7
176.1033,863.4
176.1225,1560
176.2434,463.1
176.3293,22.1
176.3824,211.2
176.4293,458.8
176.4597,19.4
176.5123,162.3
176.6058,679.4
176.6378,318.8
176.6695,313.8
176.7428,96.5
176.8135,369
176.8556,279
176.8914,334.2
176.9315,21.6
176.9925,2920.8
177.0071,21.9
177.0248,4399.6
177.0407,115.3
177.0567,418.7
177.0612,6293.4
177.0873,1567.6
177.122,342.6
177.1473,596.6
177.1781,176.1
177.2278,614.7
177.2377,348.3
177.3413,832.1
177.3654,115.8
177.4115,345.2
177.5196,523
177.5648,359.2
177.6524,254.9
177.7835,125.1
177.8227,17.1
177.9436,126.8
177.9798,320.3
177.9887,318.5
178.0089,9189
178.0242,10451.1
178.0456,827.8
178.0588,5538.5
178.0723,234.6
178.1415,23.3
178.1854,1162.7
178.2439,113.4
178.2977,557.9
178.3697,136.1
178.3856,104
178.3984,208.8
178.5119,390.8
178.5344,303.4
178.6685,96.8
178.7063,95.8
178.7841,321.2
178.8071,126.4
178.8421,141.3
178.8484,17.8
178.9834,367.5
179.0553,132.4
179.1071,592.9
179.1952,92.6
179.2291,87.9
179.31,233.1
179.3433,96.3
179.3545,462.6
179.3618,315.8
179.4211,165.6
179.5123,20.2
179.5203,406.2
179.5514,243.8
179.6122,300.1
179.6701,519.9
179.7364,183.1
179.7719,20.6
179.8304,19.5
179.9259,168.2
179.9336,395.6
179.9956,780.1
180.0034,8405.8
180.015,279.9
180.0356,363.3
180.1135,469.5
180.1293,272.5
180.1378,190.2
180.1544,705.6
180.1563,110.1
180.1929,596.2
180.2203,153.6
180.2251,385
180.2275,279.1
180.2376,161.8
180.2485,207.9
180.2805,326.2
180.284,612.8
180.2955,137.7
180.3012,101.5
180.3138,104
180.4402,191.6
180.491,287.5
180.5039,154.3
180.5697,618.4
180.5839,623.1
180.6223,83.5
180.6297,530.5
180.6343,22.2
180.7689,168.8
180.829,498.2
180.8945,3433.1
180.9041,8596.7
180.9281,836.2
180.9867,355.8
181.0271,573.6
181.0285,454
181.0568,344.9
181.065,8190.1
181.1636,112
181.2565,158.4
181.2724,17.4
181.2991,100.7
181.3688,552.9
181.3816,104.9
181.3846,126
181.4207,16.7
181.4365,102.7
181.4529,92.4
181.569,96.3
181.5982,461.1
181.6137,144.5
181.6679,86.2
181.6795,111.8
181.7002,531.8
181.7735,154.3
181.8528,97.6
181.9105,124.5
181.958,163.5
182.0157,25.6
182.0426,31045.1
182.0579,375.8
182.0665,550.3
182.0774,290.5
182.1544,316.6
182.269,476.3
182.3119,172.9
182.3188,172.6
182.3301,566.6
182.3672,104.6
182.3751,18.2
182.3899,21.3
182.4301,253.2
182.4408,568.5
182.5489,191
182.619,272.4
182.6409,139.8
182.6511,352.7
182.6711,777.2
182.8437,90
182.879,324.9
182.8907,19.8
182.8998,390.6
182.9013,388.9
182.946,118.8
183.0004,189
183.0219,84.3
183.0446,1536.3
183.06,713.2
183.0685,130.4
183.0984,166.7
183.156,158
183.173,922.1
183.2057,165.6
183.2121,428.7
183.2174,380.5
183.2344,21.5
183.2884,177.5
183.2937,587.6
183.2976,121.9
183.5305,208.1
183.5443,479.8
183.6269,191.8
183.659,227.5
183.7284,897.1
183.7509,179.1
183.7555,368.1
183.8107,166
183.8195,338.8
183.8551,222
183.8929,150.7
183.9035,177
183.9227,502.2
183.965,1103.1
183.9792,319.2
184.0374,1001.2
184.0458,579
184.0517,189.1
184.0632,641.4
184.0735,4804567
184.0826,187
184.0938,17.4
184.1097,1351.2
184.1698,21.1
184.1823,809
184.1867,20.3
184.234,97.3
184.2482,113.2
184.3086,86.6
184.4581,20
184.4741,523.1
184.4799,19.9
184.495,170
184.5191,692.5
184.5518,361.6
184.5649,107.6
184.6702,88.2
184.7203,341.6
184.7312,205.7
184.747,91.3
184.7519,134.6
184.7717,259.1
184.8164,535.5
184.8807,18.4
184.9506,100.1
185.0325,34834.1
185.0705,10330.9
185.0768,225693.6
185.0966,19.1
185.1346,491.7
185.1468,304.3
185.1931,603.9
185.1955,569.2
185.3291,694.5
185.3721,395
185.4059,17.8
185.4144,775.4
185.6569,591.7
185.6596,142.3
185.685,105.6
185.7187,209.1
185.7216,23.9
185.928,550.7
185.9313,359.5
185.9356,317.2
185.9599,1544.1
185.9961,20.8
185.9977,22.1
185.9988,19.6
186.0777,29073.4
186.1001,435.7
186.2429,17.4
186.2832,305
186.3011,292.3
186.3091,613.8
186.3535,495.5
186.4279,97.2
186.61,697.4
186.6123,175.3
186.6991,453.7
186.9121,4491.7
186.924,660.6
186.939,611.2
187.0305,1071
187.0441,98.7
187.0579,4885.5
187.0715,2578.3
187.0794,17.7
187.1077,3229.3
187.1992,332.8
187.2216,154.2
187.2931,269.9
187.312,88.2
187.3639,182.3
187.3972,17.7
187.4504,232.9
187.4766,96.3
187.4877,863.7
187.4925,234.4
187.5206,310
187.6463,663.7
187.6591,552.2
187.6668,584.5
187.7776,125.2
187.7889,84.8
187.7986,225.7
187.8082,220.3
187.8338,18.5
187.8631,206.7
187.8943,519.2
188.0231,83.5
188.0349,467.8
188.0765,451.3
188.1439,513
188.2029,115.4
188.2356,212.9
188.256,640.1
188.2966,213.2
188.5969,92.5
188.7217,487.6
188.7961,101
188.8039,557.1
188.8437,17.9
188.9446,843.8
188.9661,550.9
188.979,124.2
189.0039,211
189.0071,638.3
189.0232,19.2
189.0613,738.8
189.0872,10829.1
189.1235,214
189.2661,334.7
189.2828,18.3
189.2977,783
189.3332,207.5
189.4201,20.7
189.4714,378.8
189.4753,18.5
189.6008,174.8
189.7199,114.8
189.8032,261.3
189.8371,553.9
189.8496,88.5
190.0025,236.5
190.0573,646.5
190.133,106.2
190.2185,137.1
190.2713,332.5
190.3894,132.7
190.4706,152.9
190.5047,111.7
190.5242,923.8
190.5302,18.7
190.5791,661.2
190.7037,575.2
190.7666,18.5
190.9123,1080.2
190.9171,102.8
190.9266,544.9
190.9447,98.1
191.0083,6369.6
191.0405,102121.2
191.0769,27759.5
191.1084,256.2
191.1759,19.7
191.1879,544.2
191.2236,164
191.2501,105.3
191.2773,279
191.3218,194.5
191.3664,575.3
191.5322,158.2
191.5839,153.9
191.5963,269.2
191.6566,115.7
191.7783,299.2
191.7897,578.1
191.9827,1080.2
192.0146,1916.2
192.0399,13516.2
192.0438,3157.4
192.0932,201
192.1158,269.3
192.2422,158.4
192.2561,240.7
192.3089,117.3
192.3124,19.2
192.3483,446.7
192.4022,161.5
192.5453,482.7
192.6367,130.5
192.8109,293.9
192.8194,165.3
192.8334,665.4
192.8397,156
192.9667,387.7
192.9987,2815.4
193.0353,1863.1
193.1181,95.2
193.1339,19.6
193.2172,359.5
193.2468,928.5
193.3007,116
193.5059,363.3
193.5564,20.9
193.5784,375.5
193.6014,132.8
193.6046,359.2
193.6823,18
193.6911,18.3
193.7004,20.8
193.711,84.6
193.7323,17.6
193.7449,110.5
193.7918,118.2
193.851,117.9
193.8623,18.1
193.9319,137.8
193.9982,1108.7
194.0051,1890.3
194.0103,599.2
194.0326,355.4
194.0384,560.2
194.1111,631.9
194.154,34.7
194.2319,281.8
194.2516,202.4
194.2596,374.5
194.2657,530.3
194.2815,370.7
194.3055,87.4
194.4353,491.5
194.4645,674.4
194.5065,338.8
194.5501,104.3
194.5756,161.9
194.5917,679.7
194.6645,646.8
194.7922,131.8
194.8769,447.3
194.8937,346.7
195.0372,576.3
195.0445,152.6
195.0625,18.6
195.1189,202.4
195.2295,914.2
195.2394,557.9
195.2608,292.8
195.3031,662.4
195.3266,129.1
195.3538,452.8
195.393,18.4
195.3999,446
195.4149,17.5
195.436,19
195.4423,622.9
195.6538,17.1
195.7141,570.9
195.8106,169.3
195.8488,396.8
195.928,124.7
195.9776,433.6
196.0329,290.2
196.0794,92.9
196.0889,191.1
196.1699,313.4
196.2355,84
196.3016,130.3
196.3533,355.5
196.4398,114.2
196.4442,111.6
196.4736,897.7
196.4889,237.1
196.5853,819.4
196.6748,536.6
196.8134,240.4
196.8528,129.6
196.8652,8030
196.8684,803.4
196.878,2178.3
196.8837,420.1
196.887,712.1
197.0152,21.9
197.0227,494.7
197.0627,346
197.0687,366.5
197.0743,315.9
197.0819,91.9
197.101,649.4
197.1167,701.5
197.1435,93.9
197.269,136.4
197.2813,83.5
197.3348,572.4
197.3555,370.2
197.45,546
197.4776,647.3
197.5883,254.8
197.5975,135.2
197.5996,399.8
197.6786,124.9
197.6858,119.3
197.7283,199.2
197.7903,342.1
197.9112,148
197.9709,624.6
197.9754,321.1
198.0076,568.6
198.0529,775.2
198.0851,4307.8
198.1013,327.6
198.1173,450.3
198.1269,151.7
198.1855,4966.2
198.2148,607.2
198.3654,129.4
198.4339,665.5
198.4792,557
198.5312,19.4
198.5502,785.9
198.5586,16.4
198.56,16.9
198.7231,130.4
198.8028,491.5
198.8107,482.5
198.8252,146.3
198.8623,6348.3
198.9404,17.4
198.9739,22.5
199.0164,24.9
199.0389,113.6
199.0691,939.4
199.0756,1908.8
199.0804,121.9
199.0856,652.9
199.1009,20.5
199.1162,358.1
199.1404,17.4
199.1796,622
199.1892,869.2
199.2237,746.2
199.2645,268
199.322,102.2
199.3502,247.5
199.4523,150.5
199.479,183.4
199.4953,23.1
199.5053,158.3
199.6485,22.6
199.6515,175.4
199.6715,166.6
199.6923,85.4
199.8292,447.2
199.8356,653.3
199.8508,333.2
199.8944,20.8
199.903,16.8
199.9344,358.7
199.9642,17.7
199.9765,595.3
199.9788,150.5
199.9909,27109.6
200.0367,1125.3
200.0408,17322.7
200.081,146.1
200.0864,11751.1
200.2575,17.8
200.2872,82.9
200.3247,16.9
200.3459,179.8
200.3535,115
200.4464,161.1
200.69,358.6
200.8136,19.7
200.8594,2212.3
200.8954,338.6
201.0138,321.5
201.0547,195.6
201.0872,442.9
201.0927,374.1
201.1823,117.8
201.2041,560
201.2515,117.2
201.3028,325.9
201.3204,364.1
201.3774,207.1
201.4142,723.8
201.4332,168.2
201.5804,506
201.6738,231.6
201.7694,122.6
201.8079,78.4
201.8424,149.3
201.8657,123.9
201.9265,94.1
202.0544,591.1
202.064,17.6
202.0725,500.5
202.096,516.1
202.1269,108.5
202.2161,372.3
202.2485,113.4
202.2573,323.5
202.35,90.8
202.3658,196.2
202.3709,110.9
202.3746,102.6
202.3871,925.4
202.4634,651
202.4696,14958.8
202.5543,96.4
202.5607,668.8
202.5963,715.9
202.6653,418.8
202.6722,133.5
202.7413,549.2
202.7929,814.8
202.82,179.2
202.9068,19.8
202.9248,350.9
202.9952,31.5
203.0324,1015
203.0398,22.6
203.0466,492.3
203.0528,1902287.6
203.077,5866.2
203.1091,87
203.1286,151.1
203.1506,514.8
203.179,1385.8
203.1875,226
203.3073,113.7
203.4273,486.9
203.4699,144.4
203.6498,304.2
203.7983,21.9
203.8661,236.6
203.8731,547
203.9454,36.4
203.9636,123.7
203.9678,17.8
203.979,110.9
204.0121,252.6
204.0246,39869.6
204.0562,103122.5
204.0865,1058.7
204.0988,92.5
204.2142,638.6
204.314,113.4
204.3325,162.2
204.3335,204
204.3343,183
204.3476,565.5
204.4613,224.3
204.4991,204.6
204.533,274.5
204.6006,116.4
204.607,327.2
204.7397,431.5
204.8095,201.5
204.8141,88.7
204.9004,21.1
204.9601,18.5
204.9962,34.1
205.0043,363.7
205.0282,94
205.0571,19078
205.068,1694.9
205.0811,319.4
205.0837,164.4
205.0926,665.6
205.0968,18.5
205.1134,359.4
205.2752,217.3
205.2907,97.7
205.3601,703.2
205.3784,19.5
205.4245,113.4
205.4274,531.8
205.4388,112.7
205.5101,368.9
205.5393,745.4
205.5641,205.9
205.7209,137.9
205.7769,125.4
205.8356,329.7
205.8579,133.6
205.899,126.3
205.9431,47.4
205.9849,94.4
205.9934,355.6
206.0556,988.8
206.1146,272.4
206.3511,94.4
206.455,104.1
206.6585,506.2
206.7737,524.8
206.7833,159.2
206.7871,281.8
206.8599,264
206.8687,21
206.8941,20737.3
206.9295,553.7
206.9821,2413.3
207.0145,60115.6
207.0443,2733.7
207.0508,11193.8
207.1105,112.2
207.2604,526
207.3454,227
207.3513,380.6
207.4666,121.2
207.4972,581.7
207.5655,529.4
207.6255,757.5
207.6344,87.6
207.7412,208.6
207.8164,182.8
207.9058,144.3
207.9373,568.1
208.0136,976.3
208.0176,569.7
208.0706,129.8
208.1876,820.6
208.1995,162.3
208.3513,392.1
208.412,98.9
208.4263,19.5
208.4661,19.5
208.4862,279.9
208.5402,19.2
208.7046,86.7
208.7293,505.5
208.8664,97.6
208.8911,13029.5
208.9553,40.7
209.0125,2283
209.1198,111.9
209.1452,382.4
209.2167,133.2
209.274,194.2
209.2749,145.5
209.2939,17.7
209.4952,96.7
209.5278,552.3
209.6039,302.5
209.6188,100.4
209.8268,17.9
210.0849,23.3
210.6446,21.2
210.6636,20
210.6891,589.5
210.7195,287.4
210.7879,160.1
210.85,81.1
210.8555,510.7
210.8605,331.1
210.8882,999.9
211.0381,103.2
211.0564,316
211.0642,195.7
211.0694,611.5
211.1036,125.3
211.1637,7131.6
211.169,18455.6
211.1739,27202
211.1778,26889.3
211.1803,22197.7
211.1839,12276.3
211.1987,97.3
211.3247,740.6
211.3908,221.8
211.4049,154.6
211.4887,169.8
211.5797,18.6
211.5894,611.6
211.6363,537
211.6702,123.3
211.713,19.7
211.7672,22.8
211.831,88.7
211.8684,555.1
211.8988,525.9
211.9322,133.8
211.9354,19.2
212.0129,117.9
212.0518,125.2
212.0696,18
212.0745,90.9
212.1021,175.1
212.1493,111.9
212.1528,110.6
212.3028,517.1
212.3163,405.3
212.4269,93.8
212.4598,22.8
212.479,363.2
212.6421,16.7
212.7778,93.7
212.8392,3010.4
212.8876,317.1
212.9123,385.2
212.9703,81
213.0077,349.5
213.0124,305.1
213.0131,317.5
213.0551,788.3
213.0751,1557.7
213.0871,121.8
213.1074,1004.3
213.1882,170.4
213.3482,365.8
213.3944,907.5
213.4029,553.1
213.6499,136.2
213.8497,831.7
213.8741,406.2
213.8987,368
213.9318,131.9
213.9622,48.4
213.977,481.2
213.9847,1134.1
214.0001,18.4
214.0063,582.2
214.0568,2774.6
214.0591,4572.6
214.0899,799.4
214.1436,771.3
214.1814,81.4
214.2146,596.1
214.3029,122.9
214.4427,17.4
214.4978,336.7
214.6105,335.7
214.616,550.2
214.6279,355.4
214.7353,304.9
214.8363,2939.2
214.8923,557.9
214.9179,956.5
214.9882,23.6
215.0523,685.7
215.0596,270.4
215.0932,65.4
215.1042,293.5
215.1393,453.8
215.1608,159.5
215.2196,292.8
215.2205,271.8
215.2887,174.1
215.2918,724.5
215.5943,298
215.7071,646.8
215.9017,604.4
215.9732,89.4
216.0148,8061.9
216.018,1190.4
216.0267,20.6
216.0376,239.2
216.2012,112.2
216.264,169.9
216.3715,18.9
216.398,203.1
216.455,565.5
216.4731,666.7
216.5206,645.2
216.5442,112.2
216.579,734.3
216.7111,433.1
216.7644,124.4
216.8945,427.1
216.8963,476.8
216.9061,189.4
216.9229,58032.6
216.9347,20.3
216.9845,22.2
216.9876,105.4
217.0145,20.3
217.0673,141.9
217.0893,102
217.1504,169.7
217.2027,220.7
217.3437,360.5
217.3879,102.7
217.4303,600.3
217.4344,431.6
217.4918,164.6
217.5397,240
217.5429,20.7
217.5578,109.3
217.6669,93.8
217.6991,357.3
217.7401,131.3
217.7703,200.5
217.9186,267.6
217.9395,646.8
218.0071,27.3
218.0156,20.4
218.0239,79.8
218.0472,332.5
218.152,73.7
218.1743,612.8
218.2285,351.1
218.2459,110.3
218.2617,336.8
218.294,26.1
218.3587,522.9
218.3618,567.3
218.4199,161.6
218.4465,188.5
218.516,240.9
218.6734,88.9
218.7827,212
218.7952,250.1
218.8101,17.1
218.92,15689.3
218.9875,115.7
219.0177,2193.2
219.0268,1670416.5
219.0403,361.8
219.0831,11937.9
219.2551,96.1
219.2955,165
219.3797,313.3
219.4396,189.7
219.456,78.1
219.4632,340.9
219.4888,142.4
219.5281,436.1
219.5528,598.3
219.5657,94.3
219.6836,352.7
219.7274,82.3
219.747,168.7
219.7926,464.4
219.8566,460.5
220.0301,87406.6
220.0615,23.2
220.067,6491.3
220.0821,823.5
220.1674,467.4
220.1893,81.7
220.1954,312.4
220.2784,124.3
220.285,130.7
220.2889,177.6
220.3314,133.8
220.3758,365.3
220.3976,884.1
220.4382,102.3
220.4601,439.6
220.8784,18.3
220.935,23.1
220.9453,604.1
220.978,745.6
221.0054,366.9
221.0169,266.6
221.0249,98451.2
221.031,15225.3
221.0513,1300.3
221.0712,245.2
221.0847,250.7
221.1167,258
221.1242,877
221.2478,617.3
221.315,397.2
221.3272,372.5
221.5434,109.4
221.5585,400.5
221.5738,171.9
221.631,682.7
221.6981,340.3
221.7483,147.3
221.9566,180.9
221.964,418.7
221.9839,5431.8
221.9889,153.1
222.0048,544.7
222.0281,2703.1
222.0759,20.6
222.0815,744.2
222.1276,174.3
222.1913,172.9
222.2633,243.5
222.2864,398.8
222.302,20.8
222.3591,118.4
222.5764,456
222.5911,99.3
222.6558,170.9
222.6578,227.6
222.6964,724.6
222.7015,277.2
222.8024,334.9
222.8064,207.3
222.868,17567.8
222.8793,1631
222.8891,925.5
222.8989,89.7
222.9351,395.3
222.9883,5973.2
223.0399,107.7
223.0501,692.4
223.1338,566
223.1525,123.4
223.1796,259.4
223.2011,406.7
223.2671,90.2
223.2689,89
223.405,394.5
223.4254,266.8
223.5843,340.2
223.6103,601.4
223.6268,90.2
223.7068,198.2
223.7471,128.5
223.7532,320.4
223.9009,98.5
223.9472,89.2
223.9534,101.9
223.9693,437.5
224.0294,1311.7
224.2021,569.8
224.3177,111.1
224.3596,461.4
224.4346,737
224.4709,575
224.568,109.7
224.7498,160.4
224.8369,679.9
224.8499,113.8
224.865,10344.5
224.8746,18.9
224.9389,156.3
224.9571,260.1
225.0355,565.6
225.044,364.7
225.0549,26006.5
225.0675,564.5
225.0726,493.4
225.085,572.8
225.1408,678
225.2819,139.5
225.3233,114.8
225.3814,218.9
225.4199,236.8
225.4367,356.3
225.7014,634.6
225.7654,192.9
225.7731,317.6
225.9519,21.7
226.0023,132.1
226.0064,2139.5
226.0243,8798.2
226.0453,7561.7
226.0582,497.7
226.0712,88.1
226.1386,100.4
226.1785,480.8
226.2621,389.5
226.3126,153
226.32,291.7
226.3585,111.9
226.3634,315.6
226.3668,372.7
226.3823,444.2
226.4129,317
226.5437,131.6
226.5725,372.4
226.6679,190.3
226.7094,334.7
226.7568,129.6
226.8135,140
226.8312,884.7
226.8918,222.7
226.904,137.7
226.9376,211.3
226.9517,51218.3
226.9591,603.5
226.9658,18.3
227.0252,569.8
227.0342,779.6
227.0434,682.5
227.0793,2170.6
227.0869,346.4
227.1111,21.5
227.1225,758.5
227.1819,468
227.1876,85.5
227.2058,242.6
227.3649,403.8
227.4109,18.9
227.4568,719.9
227.4926,165.9
227.5031,319.3
227.514,303.2
227.5609,167.2
227.571,652.5
227.6728,21.4
227.6961,157.2
227.811,409.6
227.8735,114.9
227.9546,768.5
227.9579,388.4
228.0006,314.6
228.0224,457.8
228.0604,489.4
228.0989,702.6
228.1286,128.3
228.1615,229.6
228.223,535.5
228.4688,93.6
228.7607,263.9
228.8134,692.9
228.8277,457.6
228.8345,284.8
228.8983,435.3
228.9473,203.7
228.9618,551.3
229.0132,498.3
229.0169,802.2
229.1116,595.3
229.1295,290.8
229.1439,122.9
229.1757,830.1
229.2145,139.2
229.2193,272.4
229.2463,296
229.3407,274.1
229.4434,84
229.5039,126
229.5293,606.4
229.5532,460.8
229.6634,20
229.7003,367.6
229.7343,635.7
229.8199,630
229.9573,373.8
229.9735,116.2
230.0207,488.8
230.0304,1220.8
230.1204,631.7
230.3749,287.2
230.4833,112.1
230.574,340.4
230.6355,102.6
230.6578,132.5
230.8101,468.8
230.9905,84.8
231.0785,118.3
231.0844,1087.5
231.1227,17.4
231.2621,19.8
231.3592,87.1
231.4243,492
231.4475,560.8
231.5065,91.1
231.5971,95.5
231.6153,96.5
231.6378,386.3
231.7791,100.7
231.8224,89.3
231.9524,19
231.9956,356.2
232.0003,571.7
232.0204,412.1
232.0444,92.5
232.1359,227.1
232.1524,157.7
232.1713,300.2
232.2802,18.7
232.3473,351.1
232.3506,608.1
232.3823,20.6
232.4016,553.8
232.4558,316.8
232.4963,209.9
232.5229,130.6
232.675,260.3
232.814,249.9
232.8969,45066.9
232.9025,418.3
232.9347,549.2
232.9857,1158.6
233.0105,515.5
233.0512,7168.6
233.0852,115
233.1157,183.2
233.1475,638
233.2111,92.6
233.2193,793.5
233.2434,247.9
233.2714,283.1
233.332,114.9
233.5397,136.2
233.5599,406.7
233.6178,862.3
233.6228,385.7
233.7913,25
233.9788,231.8
234.0415,119.6
234.2825,178.7
234.3013,381.5
234.3367,414.2
234.3485,331.8
234.3672,314.8
234.4049,19
234.4565,500.2
234.5035,332.1
234.6257,514.6
234.6391,88.7
234.6576,442.1
234.7389,314.4
234.8122,19
234.8937,10845.7
234.9263,82.5
234.9501,748.4
234.9817,10293.3
234.9981,134.7
235.057,4801
235.067,1167.8
235.0928,24305.7
235.1188,105.2
235.2555,162.5
235.3425,17.7
235.4024,246.6
235.6077,309.8
235.6828,23.4
235.8039,123.1
235.8209,509.4
236.0171,24.6
236.0264,524
236.041,1920.4
236.0719,42096.2
236.0901,147.3
236.0961,740.4
236.1569,252
236.2338,22.4
236.3107,344.7
236.3244,116.6
236.34,382.5
236.3851,95.8
236.4505,100
236.496,199.4
236.6098,228.9
236.6167,125.3
236.6284,366.4
236.7337,373.9
236.7694,481.1
236.8375,383.9
236.8795,343.7
236.8924,634.7
236.8985,115.1
236.9038,170.6
236.9148,112
236.918,90.7
236.9703,122.4
236.9778,19.9
236.9814,330.5
237.0607,83.1
237.0751,2210
237.2345,187.5
237.267,808.5
237.332,163.8
237.4321,113
237.5093,404.1
237.6801,199
237.7709,386.8
237.7734,761.3
237.7882,141.9
237.9432,231.4
237.9736,108.7
238.0677,546.6
238.0785,47.5
238.0846,379
238.2054,613.3
238.2492,18.2
238.2568,19.8
238.3742,634.5
238.4744,643.5
238.5118,17.8
238.5621,410.8
238.5717,84.5
238.6732,19.8
238.6798,292.3
238.7848,429.5
238.8178,369.7
238.842,7433.4
238.8529,834.7
238.8792,18.4
238.9284,114.6
239.0088,198.8
239.0425,315.6
239.0497,426.8
239.0598,208.4
239.0638,398.8
239.0757,86.7
239.2321,512.6
239.255,560
239.5014,313.1
239.5878,91.7
239.685,103.9
239.7808,342.1
240.0038,1724.4
240.0313,887.2
240.0999,201.2
240.1725,273.7
240.202,419.1
240.2447,100.6
240.2753,19.9
240.3242,20.5
240.3941,619.4
240.4256,211.6
240.6578,198.8
240.7301,531.8
240.7525,17.9
240.7651,615.3
240.8016,154.7
240.8059,817.2
240.8208,272.7
240.8385,1788.3
240.8501,627
240.9191,543.7
240.9548,2568
240.9674,2886.1
241.0512,158
241.1303,344.3
241.15,730.4
241.1768,136.5
241.1932,270.1
241.2277,584.9
241.3072,103.5
241.3156,802.5
241.3819,19.1
241.3873,637.5
241.5008,580
241.7084,316.9
241.7468,359.4
241.9159,19.6
241.9418,407.7
241.9492,541.3
241.9798,56.2
242.0011,350.8
242.0116,482
242.019,1807.2
242.0565,203.8
242.1419,638
242.1917,595.3
242.3412,90.9
242.466,151.4
242.5249,163.4
242.5284,340.9
242.5509,93.1
242.5792,19.4
242.5988,387.6
242.7348,22.7
242.7405,395.4
242.7942,686.9
242.875,673.5
242.9257,25427.1
243.0535,4679.3
243.0656,10643.4
243.0922,624.6
243.1261,235.3
243.1415,158.3
243.2261,18.4
243.285,109.9
243.2883,162.9
243.4079,221.7
243.4145,609.7
243.4589,135.4
243.5377,216.4
243.6012,443.3
243.6445,141.1
243.661,99.2
243.7391,116.4
243.8328,713.2
243.8368,462.6
243.8526,341.4
243.9369,632.5
243.9684,122.6
243.9729,189.2
244.0129,311.2
244.0458,285.4
244.0663,230.7
244.3423,18.8
244.3992,17.9
244.4051,110.2
244.4709,20.1
244.5793,197.6
244.5906,496.6
244.6859,306.8
244.6922,150
244.699,104.2
244.8708,5710.9
244.8906,105.5
244.9051,482
244.9241,1233.2
244.9844,159.2
245.0064,18.6
245.0189,745.9
245.0672,386.7
245.1633,192
245.2646,106.6
245.2879,433.3
245.3819,291.9
245.7319,133
245.7799,696.3
245.8967,377.6
245.9025,133.2
245.9171,476.2
245.9504,427.8
246.0014,264.4
246.0449,848.4
246.4335,95.6
246.4566,739.7
246.7578,328.4
246.8678,1647.7
246.8772,332.8
246.8892,19.3
246.9689,19.7
246.9903,138.8
247.0374,870.7
247.0577,894.3
247.0671,1339.8
247.0928,6750.1
247.1235,17.8
247.2079,105.6
247.2344,102.3
247.2482,368.6
247.2728,192.9
247.3051,635.2
247.3181,143.4
247.3219,324
247.4096,157.2
247.4483,172.8
247.5473,432.4
247.5617,112.6
247.5918,163.2
247.8085,748.1
247.8255,114.2
247.8859,133.2
247.9992,23.3
248.0094,100.1
248.0282,96.6
248.0481,639.4
248.0962,116.6
248.1243,14226.2
248.5226,22
248.5374,154.9
248.6142,112.1
248.6329,404.3
248.8193,697.4
248.8414,98.4
248.8647,352.5
248.8708,10287.9
248.8788,206.4
248.96,522
248.9716,104.5
249.0035,624.2
249.0161,2586.2
249.0345,19.1
249.0614,14215.5
249.0769,24.3
249.0976,20.7
249.1556,353
249.1933,391.1
249.2536,202.3
249.2985,346.9
249.3069,92.2
249.4511,346.5
249.5482,158.5
249.6102,19.7
249.648,19.4
249.8457,176.5
250.019,189.2
250.0878,536.9
250.1045,364.3
250.149,636.7
250.1819,435.2
250.2921,103.1
250.3355,138.9
250.3427,434.2
250.3702,367.2
250.3921,18.5
250.4058,273.2
250.4414,168.6
250.6331,19.1
250.6901,891.2
250.7612,576.4
250.7943,398.5
250.8288,265
250.8582,19.2
250.8679,2017.6
250.8858,564.7
250.9202,1173.2
250.9503,303.5
250.9556,4401.7
250.9716,123.9
250.9759,241.4
250.991,21.9
251.0008,122.1
251.0344,1397.9
251.0891,19.1
251.2171,542
251.236,118
251.3005,17.6
251.3216,100.7
251.3714,103.3
251.3799,639.2
251.6671,398.8
251.6818,101.3
251.7269,349.7
251.9092,682.2
251.9379,509.1
252.0113,341.2
252.0369,150.1
252.0459,86509.3
252.1367,93.4
252.2183,110.3
252.2831,19.7
252.344,29.1
252.6071,422.8
252.6201,96.6
252.6457,88.6
252.6829,437.6
252.7885,209.5
252.9175,1010.4
252.9381,643
252.9976,60.7
253.0112,106.7
253.0231,255.5
253.0436,143.7
253.0492,4033.7
253.0531,157.7
253.0561,449.6
253.1065,18.3
253.1398,113.8
253.293,492.9
253.2967,21.8
253.3316,681.9
253.4299,113.1
253.4381,330.4
253.4665,155.5
253.5928,22.4
253.7057,336.5
253.8002,362.5
253.821,610.2
253.8318,231.8
254.0072,104.8
254.0223,140.9
254.0441,2768.2
254.0698,30.7
254.1216,108.1
254.1502,460.2
254.1751,300.6
254.2897,728.2
254.3228,126.3
254.3502,704.5
254.4129,100.4
254.4245,696.9
254.4348,20.4
254.5206,80.7
254.5383,132.3
254.5592,129.8
254.5722,275.3
254.5767,334
254.5804,767.1
254.6395,19.2
254.6718,19.8
254.6899,788
254.8161,441.6
254.824,10004.9
254.8997,695.4
254.9057,19.2
254.9381,88.3
254.9966,22.8
255.0332,22593.8
255.0382,662.5
255.047,487.3
255.0682,85.1
255.1145,154.4
255.304,390.3
255.3445,113.5
255.3984,292.7
255.4151,165.1
255.4319,269.4
255.468,89.8
255.5334,214.1
255.6161,148.7
255.7653,153.6
255.7845,112.7
255.819,470.3
255.9005,137.1
255.9052,427.2
255.9519,213.8
256.0373,256.7
256.0525,710.6
256.0587,192
256.066,159.5
256.1747,436.6
256.2156,496.4
256.2917,194.1
256.3104,437.6
256.368,117.7
256.3947,509.8
256.4057,18.1
256.4328,424.8
256.5028,228.7
256.6834,195.4
256.7168,18.8
256.751,289.8
256.821,11694.4
256.8397,100.7
256.8954,22.1
256.9287,718.4
256.9399,88.5
257.0488,6715
257.0663,439.6
257.0748,57858.8
257.1071,182.2
257.2311,245.9
257.2816,318
257.337,533.9
257.3696,378.8
257.435,17.6
257.5106,416
257.7363,348.6
257.7957,426.5
257.888,235.7
257.9053,84.8
257.9382,134.3
257.9787,110.9
258.0013,956.4
258.0285,97
258.0743,201.4
258.0782,1516.4
258.1001,412.3
258.1105,15235
258.1455,113.9
258.3336,361.8
258.438,99.9
258.5026,141.2
258.6475,352.1
258.6943,638.7
258.7639,782.5
258.7985,949.6
258.8182,4399
258.8706,498.1
258.8922,244.5
258.8998,2958.1
259.033,488.4
259.0468,327
259.0538,534.5
259.2044,106.6
259.2408,100.1
259.336,390
259.4168,416.9
259.4695,418
259.5069,151.1
259.5866,150.8
259.6279,359.7
259.6543,779.5
259.6722,21.9
259.7103,394.3
259.8473,101.5
259.9063,19.4
259.9653,484.1
259.9896,366.5
260.0173,73.5
260.0266,952.3
260.1267,127.9
260.1542,171.8
260.2787,151.7
260.3636,326
260.4677,972.3
260.5413,260.6
260.6712,98.4
260.7405,17.2
260.7765,208.8
260.8011,344.2
260.8161,817.7
260.8448,2848.3
260.9492,6560.2
260.9538,139.8
260.9901,92.1
261.0462,126
261.1452,505.7
261.2692,628.7
261.4256,181.5
261.477,110
261.5334,571.6
261.6055,144.7
261.6381,109.5
261.6692,519.1
261.7412,238.5
261.8469,206.8
261.9198,162.1
262.0159,87
262.1576,134.2
262.2981,120.3
262.3634,581
262.3964,910.6
262.4768,20.3
262.6181,306
262.6285,85.9
262.7669,706.8
262.8443,416.8
262.8943,227.4
263.0137,403.5
263.0417,164.8
263.0856,4502.8
263.1423,947.4
263.3206,168.2
263.3511,125.4
263.3568,180.9
263.402,706.9
263.406,124.9
263.4251,168
263.4944,384.9
263.5149,125
263.5377,400.8
263.5611,303.8
263.7132,232.4
263.7312,149.8
263.9274,449
263.9922,318.4
264.0452,441.7
264.1074,163
264.1595,391.3
264.2078,119.7
264.239,418.2
264.2511,112.6
264.2876,101.6
264.509,280.5
264.5275,126.9
264.5368,191.7
264.5849,459.7
264.5999,308.3
264.8217,676.4
264.8448,1773.9
264.8529,5427.5
264.8715,149.1
264.9336,2268.7
264.9886,58.7
265.0166,325.3
265.0353,7850.3
265.0417,605.1
265.0475,2013.5
265.0677,340.1
265.3419,287
265.3787,250
265.4193,481.8
265.4424,444.8
265.4642,771.7
265.4901,118.1
265.4996,89.2
265.6906,21.9
265.8021,375.6
265.8945,247.6
265.8991,321.7
265.9098,431.3
265.9589,226.2
265.9787,20.6
265.9921,133.2
266.0055,184.2
266.035,748.4
266.0657,172.9
266.0965,242.7
266.1096,94.2
266.1248,516
266.1266,769
266.1987,284.7
266.4831,361.2
266.5622,136.3
266.5755,353.7
266.8498,6722
266.894,1643.8
266.9371,93.2
266.9731,206.9
267.0007,114.6
267.0135,118.9
267.0836,819.9
267.0896,184.4
267.183,503.7
267.2998,392.3
267.3146,512.5
267.3748,207
267.4459,89.1
267.4649,627.6
267.4988,105.8
267.532,135.7
267.6477,839.8
267.8231,87.6
267.8362,286.3
267.8843,737.5
267.9068,85.1
267.938,120.4
268.032,237.4
268.1672,99.2
268.1727,528.5
268.1816,320.3
268.2398,525.3
268.3697,543.5
268.4175,91.2
268.4266,144.8
268.443,170.5
268.4695,87.9
268.62,697.5
268.6265,80.3
268.6898,312.2
268.8149,246.7
268.8469,1291.3
268.8872,405.4
268.9187,194.9
268.9623,647.4
269.012,104.3
269.0293,1228
269.0334,509.8
269.0451,16957.8
269.0488,37226.4
269.058,555.6
269.0947,119.8
269.1113,16.7
269.1447,152.8
269.2079,108.6
269.2256,88.8
269.2818,552.6
269.3464,623.3
269.3698,97.1
269.4592,92.2
269.4793,435.6
269.5567,527.2
269.5679,328.6
269.5984,19.5
269.6117,118.3
269.6573,135.9
269.6962,821.3
269.7232,358.9
269.9805,848.8
269.9864,995.9
269.9875,1029.2
269.9941,2235.5
270.0039,800.5
270.025,864.1
270.0476,25826
270.0648,21
270.145,1806.3
270.2489,194.2
270.5234,152.8
270.5607,348.7
270.5847,233.6
270.7981,5406.2
270.8812,19.7
270.96,334.5
270.978,9808.5
270.9986,217
271.0053,163.2
271.0239,137
271.029,140.5
271.0508,1453.1
271.0778,587.1
271.0906,562.4
271.1427,472
271.3896,350.8
271.4099,478.9
271.4465,244.5
271.5073,21.4
271.5849,20.2
271.704,138.3
271.7818,358.3
271.9652,651.8
271.9814,658.1
272.0435,91.8
272.0806,332.5
272.2299,103
272.3526,175
272.5396,127.8
272.7062,287.8
272.7949,4931.3
272.8296,375.8
272.8479,536.1
272.8855,106.3
272.9489,20.5
272.966,593.2
273.0489,4811.7
273.0895,418.8
273.115,278.5
273.2962,118
273.4015,299.6
273.5339,314.1
273.6644,181
273.6876,99.5
273.7004,169.2
273.8869,591.5
273.954,421.1
274.0647,373.3
274.0693,241.4
274.0924,4226.1
274.1078,712.6
274.1559,1039.9
274.2244,110.8
274.2427,101.1
274.2918,20.1
274.4493,119
274.4716,19.1
274.6778,501.7
274.7646,379.9
274.792,2832.2
274.8041,846.4
274.8819,406.6
274.9283,18.9
274.9653,633.1
275.1445,533.5
275.2359,165.8
275.3487,665.7
275.3628,163.1
275.4143,175.9
275.4246,123.1
275.4446,332.9
275.5004,283.1
275.5956,103
275.8645,123.3
275.8738,136.9
275.9746,794.2
276.0036,100.7
276.0852,130.3
276.1242,304.2
276.1298,530.2
276.1911,92.6
276.2213,25.1
276.269,738.2
276.2884,491.6
276.418,611.4
276.4258,199.3
276.4868,756.6
276.5266,118.8
276.5587,336.2
276.6026,202.2
276.7761,357.9
276.8195,385.5
276.8807,319.1
276.9232,5150.1
277.0276,615.3
277.0518,286.1
277.0882,293.7
277.0996,183.9
277.2181,92.1
277.3452,311.2
277.4204,138.6
277.4423,823.9
277.5504,120
277.6966,698.6
277.7191,18.6
277.8662,230.3
277.9554,97.2
278.0007,23
278.0192,480.3
278.0867,434
278.1779,523.4
278.1886,102.7
278.2145,92.3
278.3021,127.8
278.3086,267
278.3472,132.9
278.8937,1373.4
278.9204,414
278.9698,539.8
278.9883,529.2
279.0568,36831.3
279.0956,136.1
279.146,395.5
279.2322,28
279.4049,212.3
279.4109,17.2
279.6007,105.9
279.6594,627
279.67,640.7
279.6974,20.1
279.8338,309.3
279.8441,20.2
279.8496,131.2
279.8618,197.6
279.8651,563.7
279.9528,95.2
279.9672,159.4
279.9859,90.6
279.9999,23.6
280.0161,332.5
280.0599,1133.2
280.288,455
280.3919,431.4
280.4503,617.4
280.6884,168.5
280.7717,99.2
280.8267,2930.5
280.8373,254.8
280.8419,22.6
280.8475,400.7
280.8698,280.5
280.9166,198.8
280.9359,522.4
280.9626,1677
281.0098,2290.1
281.0517,250.3
281.1734,581.5
281.2464,669.2
281.3541,441.6
281.662,561.7
281.691,602.1
281.7123,132.5
282.0146,583.3
282.0505,19.5
282.065,432.3
282.0888,788.5
282.1074,478.3
282.1265,108.3
282.1811,713.7
282.2505,465.9
282.2812,225.1
282.2894,78.8
282.3512,311.8
282.3912,325.7
282.4285,499
282.6826,115
282.8238,2826.5
282.8687,20.9
282.8724,167.8
282.9378,20.5
283.0055,285.8
283.0291,873.3
283.0654,62
283.2637,28.2
283.2827,115.8
283.4165,166.2
283.451,609.2
283.5796,142.5
283.6321,135.5
283.7351,414.6
283.8375,172.8
284.054,47.4
284.0621,438
284.0774,316.3
284.196,126.1
284.2098,557.3
284.2898,444.1
284.2958,21.4
284.3227,132
284.3823,141.4
284.4313,340.5
284.5423,583.5
284.6215,194.9
284.68,450.6
284.7984,121.6
284.8207,400.5
284.8429,479.7
284.9936,1201.5
285.0414,149.1
285.1239,1231.4
285.3449,19.9
285.3928,112.9
285.4627,497
285.4796,693.3
285.5676,17.7
285.6233,123.2
285.6995,263
285.7692,85.9
285.8004,436.3
285.8985,139.4
285.9835,21.7
286.0201,301.3
286.0961,118.5
286.1399,92.9
286.1451,186.2
286.1863,642.7
286.2739,381
286.4829,279
286.5087,656.2
286.533,19.1
286.5616,91.6
286.7092,211.3
286.772,3348.2
286.8019,399.1
286.9322,470
286.9518,2880.1
286.966,349.5
286.9988,54.7
287.0429,119
287.0556,37484.4
287.101,535.3
287.2185,92.3
287.2778,435.9
287.3693,180
287.386,161.8
287.4248,345.9
287.5048,615.9
287.6685,117.2
287.711,160
287.7351,223.9
287.7644,361
287.8015,382
287.8084,150.3
287.8984,242.1
287.9056,210
287.9205,475.4
287.9767,390.1
287.9964,420
288.0134,52.2
288.0587,1723.3
288.0834,487
288.1383,258.1
288.1558,31021.9
288.1953,361.7
288.4018,336.1
288.408,340.2
288.4652,79.4
288.5372,392.6
288.5753,129.4
288.6021,85.7
288.6216,367.2
288.7688,3425.2
288.7755,507
288.8734,675.4
288.8888,621.4
288.8953,3075.8
288.9028,4745.9
288.9105,5912.4
288.9227,10016.6
288.9305,16940.9
288.9374,13635.8
288.9449,12399.7
288.9484,13646.8
288.9525,15566.3
288.957,19869.3
288.9603,19011.6
288.9634,17295.6
288.9716,19826.7
288.9798,19414.9
288.9818,17982.3
288.9894,11953
288.9951,7319.3
288.9976,7032.1
289.0025,8146.4
289.0118,3081
289.0155,3291.4
289.0179,3090.6
289.0288,1105.2
289.0491,158
289.0555,223.1
289.0621,22.3
289.1424,314.6
289.1592,149.5
289.6179,408.2
289.7096,133.5
289.7462,19.1
289.8594,220.1
290.0105,19.3
290.0503,422.9
290.2542,323.5
290.2584,529
290.2709,634.7
290.3212,298.5
290.6083,107.5
290.6331,495.7
290.6454,464
290.7661,839.7
290.8481,326.3
291.0148,112.7
291.027,688.4
291.1622,143.5
291.5959,18.4
291.7193,99.3
291.7798,399.2
291.7838,24
291.8557,630.7
291.9485,87.9
292.0619,111.1
292.0798,182.4
292.1029,1563.5
292.401,324.6
292.5009,195.7
292.5194,109.7
292.5799,392.5
292.6296,310.8
292.7142,151.9
292.7481,153.5
292.8469,294.4
292.8562,22.4
292.9042,105
293.0725,2293.1
293.0984,621356.1
293.1791,2101.5
293.3203,18.9
293.6715,824.8
293.7466,540.3
293.7749,454.4
293.92,191
293.9819,588.2
293.9841,544.2
294.0955,1675.7
294.1018,54688.6
294.2244,240
294.9908,453.6
295.001,415.4
295.0315,543
295.1025,4035.2
295.1949,31512.7
295.3676,165.1
295.383,802.1
295.9655,528.4
295.9935,22.4
296.0097,786.2
296.0611,389.5
296.1054,167
296.1979,4149.9
296.2351,164.8
296.4151,792
296.5023,20.2
296.8001,601.2
296.8122,476.2
296.8599,205.2
296.9878,288.6
297.0146,574.3
297.121,224.4
297.274,320.7
297.2856,98.8
297.3562,19.6
297.3609,623.6
297.3984,20
297.4233,127.1
297.4285,18.7
297.5264,92.8
297.6213,160.3
297.7011,425
297.7488,861.3
297.925,119.4
298.0253,2386.9
298.0426,15490.4
298.0628,779.1
298.0983,21.8
298.1698,270.3
298.2781,357.1
298.8405,226.9
298.9867,119.4
299.0121,474.1
299.0235,2325.6
299.0457,1209.7
299.0618,18
299.0695,386
299.1203,18.9
299.1391,5500
299.191,315.9
299.2578,18.9
299.2703,130.9
299.3991,364.2
299.7197,291.6
299.8707,165
299.8746,102.9
300.0045,807.5
300.0384,265.1
300.0446,22.5
300.0491,39.8
300.0665,578.7
300.0755,413
300.1967,50.8
300.2351,527.5
300.3803,18
300.5235,679.4
300.589,103.2
300.8626,434.5
301.0388,18368.3
301.0778,564.6
301.122,721.9
301.1415,232.8
301.1455,291.9
301.2118,4045
301.3886,233.5
301.4234,479.5
301.5131,615.5
301.5325,705.1
301.5955,301.8
301.6227,680.4
301.7027,242.1
301.7191,109.3
301.8954,95
301.9555,314.8
302.0122,630.3
302.02,216.1
302.036,76.9
302.0643,5347.2
302.0732,71
302.2309,155.8
302.3026,814.8
302.4394,131.9
302.539,610.2
302.5422,480.7
302.6663,939.4
302.6984,287.3
302.7017,197.3
302.7077,107.9
302.8295,3015.7
302.8511,286.4
302.8819,101.4
302.9409,284.8
302.955,104.8
302.9701,1240.2
303.0274,18
303.0676,500
303.0745,265.7
303.0795,19.6
303.2092,411
303.2167,1702
303.5086,370.3
303.5214,693.4
303.5879,555.5
303.6149,81.2
303.7383,214.6
303.9095,151.7
303.9919,312.5
304.0599,176.3
304.0924,766.4
304.1669,88.3
304.265,682.1
304.2905,308.6
304.3874,573.6
304.5531,89.6
304.69,362
304.7433,649.3
304.7667,103.8
304.8263,1417
304.844,329.1
305.0502,20.8
305.0792,773.4
305.0909,81.7
305.2064,84
305.2326,713.8
305.3462,808
305.3751,206.9
305.4725,199.2
305.4996,485.2
305.5358,237
305.5784,519.7
305.635,141.8
305.8743,222
305.9941,560.1
306.0242,36.1
306.0954,137
306.1746,381.9
306.3171,193.6
306.7821,553.9
306.8297,616.2
306.8803,113.6
306.977,2490.8
306.9911,115
307.053,451.6
307.1047,113.7
307.2393,153.2
307.2531,198.4
307.3226,158.5
307.3874,537.1
307.4065,98.6
307.6403,145.7
307.7299,582.8
307.7675,373.8
307.8167,145.4
307.8614,754.8
307.9329,16.3
307.9479,609.9
307.9594,79.6
308.2867,112.5
308.4732,141.9
308.4967,354
308.5346,367.1
308.6106,135.5
308.6821,171.6
308.7206,192.4
308.8788,1463.5
308.9863,136.5
309.0066,405.6
309.038,3400.2
309.0828,2918.3
309.1344,243.4
309.4155,88.5
309.4852,118.4
309.508,198
309.9271,18.1
310.0395,96.7
310.2252,147.3
310.2889,125.5
310.3025,88.7
310.6789,524.4
310.8428,730.1
310.8759,1073
310.8924,602.4
311.0034,199.1
311.0103,1271.9
311.2329,872.7
311.2831,654.2
311.3551,106.5
311.4266,400.2
311.5875,701.5
311.6232,140.4
311.6964,521
311.7622,174.5
311.845,744
311.9972,155.7
312.0261,522.5
312.041,2477.8
312.0585,457.6
312.1123,183.9
312.1704,671.4
312.1778,142.2
312.2989,252.3
312.3358,403.8
312.52,828.7
312.6831,16.8
312.9145,383.9
312.9164,376.3
312.9714,116.5
313.0026,57
313.0104,211.4
313.0364,796.7
313.0851,117.7
313.1424,18.4
313.1799,210.6
313.2742,33838.2
313.2826,389.7
313.2984,142.4
313.5611,255
313.6059,483.1
313.6608,535.7
313.6738,744.2
313.6826,174.9
313.6845,152.8
314.0148,941.1
314.0914,116.4
314.1958,303.8
314.2777,4169.5
314.3735,226.9
314.385,270.4
314.4527,194.2
314.4861,370.5
314.5,311.6
314.677,121.5
314.7062,604.6
314.78,501.8
314.7997,290.4
314.837,4523.3
314.8734,480.2
314.9004,134.8
314.9239,101.9
314.926,103.6
314.9994,6558.5
315.0216,218.9
315.0451,946
315.0492,992.2
315.0555,8808.5
315.0593,3184.3
315.0617,3903.8
315.0669,19973.2
315.0698,25913.7
315.0734,17866
315.0804,7160230
315.0868,23021.4
315.0919,9282.9
315.0942,7146.8
315.0963,4802.5
315.0985,4702.8
315.1005,3170.6
315.1047,874.2
315.107,1130.3
315.1115,343.9
315.1132,433.7
315.1615,6368.6
315.1847,560.1
315.2423,125.6
315.2585,166.4
315.3239,6100.3
315.4433,385.6
315.4861,291.3
315.6113,351.1
315.619,721.9
315.6403,165.6
316.03,24
316.0532,54.3
316.0619,246
316.0692,1224
316.0777,40470.4
316.0838,746110.8
316.0938,138.4
316.1128,1300.9
316.2172,120.5
316.3258,622.1
316.3847,88.1
316.4689,404
316.48,175.3
316.5211,18.7
316.8026,220.7
316.8241,382.5
316.8434,233.9
316.9391,149.7
316.9656,88.4
316.9869,975.4
317.0014,414.5
317.0113,139.1
317.0562,548.1
317.0654,2592.4
317.0842,82475.9
317.0959,285.5
317.115,117.7
317.3316,287
317.4126,19.5
317.6424,189.6
317.7551,19.9
317.8272,94.1
317.9684,534.1
317.976,545
317.9858,684
318.0452,85.8
318.0754,22.8
318.0878,7948.7
318.1798,272.3
318.2753,151.1
318.3412,601.7
318.356,116.7
318.3756,112.3
318.7701,22.5
318.8036,3282.3
318.8315,84.3
318.886,377.9
318.8981,447
318.9556,157.4
319.1949,49232.3
319.2532,208.3
319.2841,269
319.4525,525.7
319.5082,20.7
319.5454,106
319.6491,89
319.9601,93.8
320.0053,365.9
320.0581,544.5
320.0637,370.4
320.0748,223.5
320.1985,6649.5
320.2591,1401.3
320.2891,80.6
320.3363,185.2
320.4871,17.1
320.6236,19.1
320.8009,3221.7
320.825,79.5
320.8392,879.4
320.9178,314.2
320.9629,728.6
320.9837,20.1
320.9997,89.2
321.0047,421.4
321.0768,400.4
321.1955,398.4
321.2106,67428.4
321.2622,95.8
321.2913,147
321.3795,37.3
321.4057,252.6
321.6108,418.3
321.6326,137.4
321.9597,344.9
322.0093,168.7
322.0599,360.9
322.214,11200.2
322.3346,113.8
322.5374,106
322.5858,485.2
322.8393,193.3
322.9314,414.5
322.9849,600
323.002,432.2
323.0123,23.1
323.0207,10015.4
323.037,286.6
323.1585,90.3
323.2263,4344.1
323.5227,538.5
323.6639,301.8
323.8708,714
324.0042,110
324.5475,2790.8
324.553,5238.8
324.5564,4808.4
324.5588,5125.4
324.5676,3734.1
324.6874,429.9
324.8083,1468.2
324.8531,1070.4
324.8925,532.1
324.9197,1118.7
324.9307,432.6
324.9639,493.4
325.0844,115.9
325.1464,95.8
325.2013,19.9
325.212,5663.8
325.2201,329
325.2753,19.9
325.2873,662.4
325.5345,500.9
325.6031,690.6
325.7589,324.7
326.0049,59.8
326.0595,748
326.2309,108.3
326.2887,20.4
326.3287,110.6
326.3847,392.1
326.4383,190.6
326.493,298.8
326.5773,19.5
326.6245,168.8
326.7793,1069.3
326.8669,738.9
326.9409,85.8
326.953,99.4
327.0157,3897.6
327.0519,2258.6
327.1407,76.2
327.177,436.6
327.2275,14803.5
327.5086,650.8
327.5225,637.2
327.8659,385.2
327.8827,563.4
327.8984,87.7
328.0251,115.5
328.0423,527.4
328.0723,136.8
328.152,89.2
328.1612,126.7
328.1979,95
328.2313,2009.5
328.3094,440.4
328.3717,19.2
328.4254,628.4
328.4383,826.4
328.574,280
328.6272,117.8
328.882,1111
328.96,720.8
329.0962,1057.3
329.2127,131.1
329.2324,163.6
329.3827,22.2
329.405,314.7
329.4397,151.3
329.5449,673.2
329.5561,94.2
329.6194,110.9
329.7553,543.5
329.7635,111.9
329.7719,529.7
329.8962,126.2
330.0592,178.7
330.0687,54.3
330.0787,93.5
330.1014,322.3
330.2592,94
330.3106,380.6
330.3449,142.6
330.3666,18.5
330.3941,19
330.4389,18.5
330.5115,131.5
330.5185,100
330.5918,162.3
330.714,335.9
330.7251,316.2
330.8238,103.2
330.8478,300.5
330.9882,24.8
331.0178,392.6
331.0456,136821.5
331.0544,977349.7
331.1128,100.5
331.1344,427.1
331.1419,254.6
331.1502,298.5
331.1913,515.3
331.4465,138.5
331.5776,660.4
331.7804,127.9
331.9056,180.4
332.0144,438.7
332.0484,9976.6
332.0577,90127.2
332.0787,382.9
332.5596,191.1
332.6079,115.8
332.7744,492.5
332.8139,755
332.8407,947.7
332.9239,88.5
332.9356,174.7
332.963,19.5
333.0525,56866.6
333.0581,10668.8
333.0773,89.5
333.1077,114.1
333.1378,157.5
333.1975,511
333.2828,95.8
333.3665,92
333.4089,457.9
333.8018,243.8
333.854,576.6
333.8597,341.4
333.8792,20.3
334.0559,4160.1
334.0621,286.6
334.0903,132.4
334.1051,354.8
334.1414,416.6
334.153,126.3
334.2502,132.6
334.283,20.6
334.3547,281.6
334.625,352.4
334.6827,19.2
334.838,1149
334.8916,293.1
334.9675,223.9
335.0385,615.2
335.051,24.8
335.1294,116.4
335.2966,109
335.4105,93.6
335.4759,410.6
335.6283,157
335.6337,291
335.909,308.2
336.0214,97.5
336.2806,564.3
336.355,393.1
336.433,255.9
336.6542,234.7
336.7515,119.7
336.872,173
337.0366,7687.5
337.0499,22953.2
337.0624,633377.1
337.2209,675.1
337.2302,118.4
337.2742,3558.6
337.3263,202.1
337.4692,18.3
337.6497,726.5
337.6694,1089.1
337.8074,120.1
337.9807,111.4
338.0152,129.8
338.0534,291.3
338.0657,57229.1
338.3016,149.3
338.3155,736
338.3423,40.3
338.3723,315.3
338.4745,892
338.4825,521.2
338.5089,124.6
338.5345,100.6
338.571,120.5
338.6155,654.2
338.6579,120.6
338.7342,20.1
338.7401,19.1
338.8064,551.7
338.8383,254
338.8537,388.5
338.9208,1558.7
338.988,330.5
339.0385,1772.1
339.0474,777.9
339.0663,5699.8
339.0819,17.5
339.29,4744.2
339.4147,396.3
339.4883,146.1
339.4945,231.6
339.6061,23.4
339.6578,107.7
339.8969,93.3
339.9527,173.2
340.0676,292.1
340.1134,184.6
340.1854,410.7
340.3764,228.7
340.7554,366.3
340.7826,701.5
340.8159,399.8
340.8288,415.2
340.9729,23.8
341.0071,583.1
341.0178,65.8
341.0313,86
341.1275,450.9
341.1328,594.6
341.2135,268.3
341.2738,19.2
341.3055,4072.6
341.3602,200.6
341.4021,106.7
341.4273,79.6
341.7703,145.2
341.9736,319.6
342.1563,95.7
342.4339,232.3
342.5425,579.6
342.8623,107.1
342.99,759.1
343.1838,84.3
343.1949,15260.1
343.2032,704.7
343.5239,536.2
343.647,195.3
343.8516,382.9
344.0817,767
344.1029,97
344.1758,634.3
344.3406,240.2
344.4948,173.2
344.6301,260.1
344.8011,308.4
344.878,676.6
344.9509,471.6
345.2106,4766.4
345.2553,151.7
345.2799,458.8
345.2899,17.6
345.3882,31.4
345.4304,353.6
345.503,350.6
345.5923,436.1
345.7579,659.7
345.845,19.8
345.9517,183
345.9845,1446.6
345.9962,342.7
346.026,630.8
346.2573,331.1
346.4858,592.8
346.5751,299.4
346.6029,395.4
346.6578,393.8
346.6746,183.6
346.8607,1093.7
346.8955,521.6
347.048,21
347.2371,175.2
347.2546,114
347.2778,162.4
347.645,207.1
347.8077,172
347.9696,514.6
348.1068,476.8
348.2808,89.4
348.3635,407.5
348.4154,18.2
348.5415,191.5
348.5619,295.6
348.6744,369.3
348.8137,851.9
348.8225,18.3
348.8357,1127.9
348.9342,766.7
348.9749,193
349.1223,149.4
349.1462,707.8
349.1549,210.5
349.1577,199.2
349.2068,686.9
349.2723,18.9
349.2948,173.9
349.6737,285.3
349.8078,514.6
349.8448,129
350.0185,1957.3
350.1031,772.8
350.2849,157.1
350.3394,379
350.4901,20.7
350.5839,519
350.7355,119.6
350.7471,289.6
350.7745,139.9
350.7983,92.5
350.8852,22.3
350.8995,933.8
351.092,379.9
351.623,126.8
351.7867,20.1
351.9379,541.6
352.0354,155.4
352.1669,153.4
352.1916,452.2
352.3101,889.5
352.3567,459.8
352.6226,171.6
352.8869,216
352.8979,1808.6
353.0275,140484.2
353.0364,190989.4
353.0512,24
353.1302,138.9
353.1998,215.8
353.5072,596.2
353.761,19.9
353.9377,16.9
354.0307,9844.2
354.0397,16447.9
354.078,957.5
354.4318,92.1
354.4943,105.6
354.5935,191.7
354.6747,511.8
354.8943,354.9
354.9195,449.7
355.0121,1884.7
355.0348,11043.9
355.0707,526.6
355.3174,377
355.3809,149.4
355.5946,100.1
355.6763,19.7
355.8099,317.5
355.902,178.6
356.0154,123.4
356.0403,243.6
356.061,18.8
356.1178,22.3
356.1971,112.7
356.4585,18.2
356.578,201
356.7568,440
356.7817,633.8
356.8007,362.1
356.8068,19.7
356.8293,22.6
356.8685,209.8
356.9967,18.2
357.009,1039.6
357.0225,954.3
357.0335,457
357.0988,498.2
357.4918,640.2
357.4998,162.4
357.5883,347.7
357.5959,20.9
357.6056,985.6
357.6259,672.2
357.6341,85.5
357.8817,310.2
357.8846,412.1
357.8873,393.9
357.9941,112.7
358.1008,606.3
358.1413,138.9
358.2927,167.2
358.3414,307.1
358.7103,233.4
358.8105,191.6
359.0077,527.7
359.0164,333.3
359.0319,12895.6
359.0444,349852.6
359.1694,142.4
359.1856,87.3
359.3979,19.3
359.4845,687.2
359.4955,146.1
359.5231,648.7
359.5527,821.1
359.5717,22.7
359.5894,304.9
359.6142,761.1
359.6285,1220.5
359.6354,163.3
359.6581,122.7
359.669,395.3
359.6805,691.7
359.6987,394.6
359.7151,391.8
359.7205,625.5
359.7276,124.1
359.7364,124.5
359.7467,260.4
359.7913,1066.5
359.877,110.3
359.8849,160.6
359.9359,405.4
360.0477,32576.3
360.1,409.2
360.1078,341.8
360.1659,88.8
360.2852,19.8
360.3244,353.2
360.539,857.2
360.8303,137
360.8592,166.8
360.965,416.5
361.0121,590.5
361.0206,3415.5
361.0293,355.8
361.0493,1307.3
361.0544,597.6
361.1936,149.4
361.2743,634.4
361.2888,100.1
361.3275,21.3
361.368,208.5
361.4337,560.7
361.7021,584.1
362.0368,607.3
362.1783,18.8
362.2578,178.1
362.6441,176.5
362.6541,17.5
362.7857,500.6
362.9269,1850.8
363.048,166.4
363.0785,298.6
363.0993,374.2
363.5993,123.5
363.6876,216.5
364.0065,554
364.0511,355.5
364.0641,319.8
364.3157,497
364.5367,269.8
364.5869,93.5
364.7062,16.7
364.7628,408.9
364.864,131.6
364.8993,19.5
364.9324,86.9
365.0472,113.2
365.1071,1465.5
365.1699,142.3
365.1897,211.6
365.1962,145.6
365.2052,308.1
365.2308,112.6
365.2699,20.3
365.3014,111.3
365.3419,302.5
365.3685,80.8
365.5371,641.8
365.5955,105.7
365.706,122.8
365.7223,486.6
366.1172,207.3
366.1408,601
366.3474,275.3
366.4362,22.3
366.4733,440.1
366.5072,98.3
366.5297,447.2
366.5952,167.5
366.784,457.7
366.8436,458.9
366.8508,446.9
366.8734,425.7
366.8857,307.3
366.9147,498.1
366.9634,96.4
367.1215,1065
367.1509,332.4
367.1954,2064.8
367.2908,142.8
367.4917,357
367.5254,22.4
367.569,268.7
367.6781,158.6
367.8516,21.5
368.0312,92.6
368.1047,164.8
368.3324,121.2
368.463,334.9
368.5606,534.7
368.9235,468.2
368.9924,2094.5
369.0014,14403.9
369.0103,6881.8
369.1315,106.5
369.1648,23.4
369.3189,664.4
369.3294,20.9
369.3518,178.6
369.4684,258.6
369.5406,495.3
369.6156,16.5
369.8162,120.9
370.0055,361.3
370.014,174.9
370.2471,114.5
370.441,614.2
370.4695,157.5
370.5419,191.8
370.5644,242.2
370.5813,471.1
370.6999,104.9
370.9759,156.4
371.0013,495.1
371.0179,19.3
371.1008,25.7
371.1395,471.9
371.1678,617.6
371.1988,307.1
371.3418,185.8
371.3527,555.1
371.5406,484.8
371.6852,382.6
371.7562,97.1
371.9134,135.9
372.1744,105.6
372.2174,18.3
372.4027,18.8
372.4472,246.7
372.7386,425.8
372.8596,21.2
373.0257,122.2
373.1058,278
373.159,322.2
373.1983,122.8
373.2074,405.7
373.5309,90.7
373.5366,204
373.5691,114.7
373.5809,212
373.6308,183.1
373.7305,111.7
373.8161,424.3
373.957,95.3
374.051,140.6
374.1943,130.9
374.3524,126.4
374.4005,138.3
374.4681,797.8
374.8746,272.7
375.0094,132332.8
375.0183,98514.6
375.0344,94.7
375.0603,248.2
375.1541,22.2
375.1784,528.2
375.531,403.3
375.5539,118.6
375.7363,188.7
375.7492,168.9
375.9268,400.9
375.958,209.8
376.0126,10052.5
376.0216,8979.5
376.187,659.9
376.231,572.9
376.3683,132.2
376.4381,540.3
376.4458,1369.7
376.4541,713.9
376.4743,388.3
376.5138,120.3
376.5538,17.7
376.5606,93.8
376.62,255.6
376.7256,196
376.7316,411.6
376.9941,1530.5
377.0168,2848.7
377.0427,641.2
377.2922,123
377.4369,19.5
377.5925,445.6
377.6698,335.2
377.8116,191.4
377.8539,624.4
378.1318,151.6
378.2155,777.8
378.2687,850.3
378.3349,342
378.7238,100.3
378.7543,21.5
378.8545,547.2
378.8672,668.3
378.8939,326.5
378.9566,113.6
378.9909,96.4
379.0026,479.3
379.0717,355.8
379.1291,524.4
379.2117,386
379.2732,433.3
379.283,948.1
379.3244,327.7
379.3383,53.8
379.4688,96.5
379.947,142.2
380.0495,647.3
380.3081,88.3
380.3994,411.5
380.7586,462.6
380.7701,825.7
380.927,92.4
381.0138,20307.8
381.0263,191789.1
381.3767,726.3
381.4435,301.3
381.8409,587.9
382.0147,381
382.0296,17302.8
382.2797,285.6
382.326,314.3
382.3828,732
382.7243,265.9
382.7592,331.1
382.7672,2502.9
382.8049,359.4
382.8483,387.3
383.009,377.7
383.0297,589.5
383.1166,304393.6
383.1925,99.6
383.2997,129.8
383.3539,20
383.4073,770.2
383.459,854.4
383.5353,182.3
383.6928,190.8
383.7724,195.2
383.9028,435.3
383.9332,335.8
384.1198,30551.4
384.1956,789
384.307,157.2
384.578,625.1
384.7637,776.1
385.1125,158.3
385.12,1472.5
385.128,22.1
385.1737,21.7
385.2151,221.1
385.2703,502
385.4952,123.4
385.5761,643.8
385.8339,124.3
386.1933,18.1
386.4012,130.3
386.6851,412.9
386.7801,323.6
387.0037,744.8
387.506,691.4
387.7714,175.9
387.969,541.5
388.2448,321.1
388.4083,180.4
388.5872,110.1
388.7126,1198.2
389.1783,145.2
389.2157,107.6
389.4522,612
389.5653,592.4
389.7681,546.9
389.8318,307.7
389.8459,76.9
389.9741,1590.4
389.9969,97.3
390.0856,936.4
390.1622,132.2
390.2029,537.3
390.5387,109.9
390.7101,358.9
390.7991,2200.8
390.8391,472.1
390.8604,1158.2
390.8722,902.9
390.8807,198.3
390.9019,17.6
390.9431,204.9
390.9744,13800.5
390.9833,20586
390.9924,9799.2
391.0257,149.7
391.4956,298.3
391.5772,364
391.9875,296.1
391.9954,179.9
392.0252,134.2
392.1371,367.9
392.1668,19.3
392.1893,735.2
392.2887,594.5
392.3266,140.4
392.5358,235.3
392.7963,1390.9
392.8334,142.6
392.8575,209.8
392.8614,217.7
392.8869,179.9
392.9667,99.5
393.111,177.8
393.2081,203
393.4384,444.6
393.5445,344.9
393.6171,446.8
393.7991,449.4
393.971,100.9
394.0124,356.4
394.0723,94.5
394.3552,409.9
394.5527,874.8
394.5687,407.1
394.622,87.9
394.7249,20.2
394.8854,19.5
394.8954,356.7
394.9693,252.9
395.0969,527
395.1599,20.9
395.1844,452.8
395.4081,129.3
395.425,91.2
395.6681,387.9
395.9489,86.8
396.0303,279.4
396.0985,189.6
396.2163,367.3
396.2255,153.8
396.3327,630.5
396.4328,161.9
396.4921,158.7
396.5069,351.4
396.5625,247.8
396.6013,618.7
396.7441,1291.9
396.8833,25.6
396.8957,417.3
396.9403,96.8
396.9606,683.8
396.9913,180485.5
397.0002,55692.1
397.029,155.1
397.3384,82.7
397.4253,336.2
397.5423,426
397.5885,155.7
397.5971,392.5
397.7475,365
397.8835,119.6
397.9544,108.1
397.9945,12373.3
398.0038,2775.3
398.2419,11045.1
398.3282,112.9
398.4892,97.7
398.628,181.7
398.6637,19
398.7412,3739.6
398.7622,917.6
398.9763,216.9
398.9858,484.1
398.9988,893.2
399.0142,445.5
399.0664,157.3
399.1473,128.8
399.5016,268.3
399.7571,116.5
399.7847,363.2
400.0319,222.9
400.0886,137.6
400.1258,239
400.1937,756.5
400.3622,285.9
400.5217,92.8
400.5339,23.9
400.7389,876.4
400.8282,1911.5
400.8975,110.4
400.9835,429.7
401.0513,195.6
401.1458,137.4
401.5789,22.2
401.6964,20.7
401.7657,81.3
401.8745,22.8
401.944,495.1
402.0129,98.7
402.2741,206.4
402.3285,218.5
402.6896,411.8
402.8248,1061.9
402.8877,18.6
402.984,692.7
403.0082,222847.9
403.0218,269.1
403.0862,184.3
403.2212,115.5
403.2508,130.1
403.28,128.8
403.2823,127.2
403.3891,534.7
403.3965,217.4
403.5337,22.8
403.6158,171.4
404.0115,20960.4
404.0521,129.1
404.0957,321.3
404.1962,126.7
404.3876,93.7
404.5601,17.5
404.5752,195
404.6856,391.8
404.7881,112.9
404.84,909.9
404.8845,635.3
404.9051,567.7
404.9631,205.6
405.0133,994.4
405.2331,429.7
405.2706,20.6
405.4362,96.8
405.616,669.7
405.6841,639.4
405.7816,119
405.826,264.3
405.948,134.1
405.9777,822.1
406.0262,21.1
406.3297,1240.6
406.3395,195.9
406.361,284.1
406.5655,636.3
406.684,820.9
406.7293,116.8
406.7724,1315.9
406.8591,113.1
406.9775,21.4
407.1152,343.2
407.18,291.8
407.2918,705.3
407.333,218.4
407.5704,510.4
407.5917,18.2
407.6291,112.1
407.71,96.7
407.8655,574.8
407.9501,421.4
408.144,20
408.2371,535.2
408.4197,303.4
408.636,534.9
408.6465,204.4
408.7701,1993.6
408.7842,92.8
408.8548,93.2
408.9486,212.2
408.9853,2502.3
409.3247,18.4
409.3439,356
409.4435,205.6
409.6437,145.8
409.786,576.3
410.2173,17.1
410.229,269.4
410.2723,106.8
410.4705,647.2
410.7914,20.7
410.81,594.2
410.8558,1325.8
410.8995,273.2
410.9698,26.9
411.3277,625.1
411.4504,372.5
411.7337,786.8
411.7694,944.2
411.78,441.5
411.9045,424.4
411.9548,541.5
412.0427,335.8
412.1002,107.2
412.1401,108.3
412.3044,419.4
412.3216,1132.6
412.8533,409.1
412.9191,134.8
412.9342,394.1
412.9651,27116.5
412.974,9986.8
413.2323,281.8
413.2668,3789.5
413.2914,22.3
413.3237,570.7
413.5068,626.9
413.8356,752.4
413.8546,181.3
413.9304,421.5
413.981,163
414.2157,406.1
414.2703,320.5
414.4615,88.7
414.7143,1358.3
414.8197,103.4
414.9627,1258.4
414.9988,767.7
415.0376,23.9
415.1355,831
415.222,975.4
415.3374,302.6
415.3997,111.1
415.7387,208.7
415.9841,476.9
416.0008,494.9
416.1356,12390.3
416.2145,25887.3
416.2431,661.3
416.2576,125.8
416.2765,86.5
416.7119,423
416.8015,1283.5
416.8277,21.1
417.0418,18.5
417.1971,293.9
417.2179,3113.1
417.3556,433.9
417.4015,343.6
417.4575,120.7
417.5741,496.4
417.6436,439.1
417.748,842
417.8594,124.7
417.9026,313.2
417.9436,252.8
417.9527,388.4
418.0335,136.4
418.5379,195.1
418.5571,494.5
418.7991,614.5
418.9305,247.9
418.9821,69780.3
419.0267,273.7
419.1315,373.6
419.2094,807.3
419.2562,658.3
419.3644,121.4
419.3828,297
419.4604,763.3
419.5305,18.2
419.6638,177.9
419.7757,114.4
419.7868,232.2
419.9517,637
419.9853,4779
420.0267,682.1
420.3694,192
420.6612,95.6
420.742,224.8
420.7591,90.3
420.814,446.7
420.8645,368.5
420.885,751.5
420.9223,659.4
420.9573,617.5
420.9802,1492
421.207,122
421.282,222.1
421.5028,462.7
421.5576,471.6
421.5772,23.8
421.6942,541.8
421.8385,127.1
422.0399,794.5
422.1586,138
422.304,77.1
422.3263,105.5
422.3763,125.2
422.7194,252.7
422.7534,94.4
422.7654,630.7
422.8453,127.3
422.9289,545.3
422.9365,18.7
423.0208,674.8
423.3062,25
423.3154,387.4
423.351,228.3
423.3772,197.9
423.7284,110.8
423.8623,351
423.9361,428.9
424.0234,638.3
424.0778,699.3
424.7443,949.4
424.799,380.6
424.9758,20.2
425.0873,548.2
425.1923,364.8
425.2279,531.3
425.2907,410.7
425.4432,18.9
425.8166,99.2
426.2518,95.3
426.3991,95.9
426.6033,22.6
426.6651,354.9
426.9056,148
427.1567,428
427.3189,19.1
427.6431,443.8
427.8824,552.7
428.0932,631.2
428.1085,679.2
428.1188,754.8
428.1789,180.8
428.1987,402.7
428.8275,1010.2
428.9269,378
428.9388,2025.5
428.9536,818.7
428.9647,161
428.9775,498
428.9972,487.7
429.0155,149.8
429.0893,268.4
429.2175,114
429.2496,84.7
429.2947,148.3
429.5235,23.5
429.671,196.8
429.6734,193.6
429.7943,350.5
429.8851,246.7
429.9316,459.6
430.0331,94.1
430.0826,217.1
430.0895,27.7
430.2344,138.3
430.6448,646.4
430.8364,370.4
430.8821,125.5
430.9155,771.6
431.0909,18.9
431.1662,94.2
431.2168,3143.5
431.2862,241.2
431.2947,103.6
431.5988,124.4
431.6538,29.8
431.6933,101.1
431.7921,22.2
431.9091,18.4
431.9986,90.4
432.0581,165.8
432.0859,296.2
432.2216,521.3
432.5112,176.3
432.6259,612.6
432.6943,363.6
433.171,624.1
433.3348,390.4
433.4397,282.3
433.5027,643.9
433.5624,100.8
433.8369,430.8
433.8486,696.2
433.9125,198.6
433.9686,743.2
434.2885,521
434.3602,21.7
434.4973,372.5
434.5419,250.5
434.6658,469.4
434.7773,202.9
434.8146,578.4
434.8233,555.4
434.956,9882.3
435.3824,537.5
435.5081,212.7
435.6768,18.1
436.0928,429.9
436.5287,459
436.6279,19.8
436.7012,346.8
436.8679,441.3
436.9481,705.5
437.0475,164.4
437.0591,85.1
437.1545,388.5
437.2001,143.6
437.2856,542.8
437.4139,89.1
437.6045,23.5
437.7142,102.8
437.7261,106.7
437.7538,301.8
437.8814,495.6
438.0084,470.6
438.1638,17.8
438.1978,616.7
438.2158,170.5
438.4776,308.1
438.7985,684.6
438.807,806.1
438.8204,307.7
438.9721,2220.5
438.9847,3067.2
439.0297,21.9
439.2043,446.9
439.5437,20.2
439.553,170.1
439.5901,137.5
439.601,21.4
439.9043,161.4
439.9742,344.7
439.9885,211.1
440.0529,112
440.1265,263.5
440.2854,123.1
440.4379,18.3
440.4708,367.2
440.724,619.4
440.7721,320.5
440.8358,112.6
440.9238,647.7
440.9691,659.3
441.2532,141.2
441.2982,309
441.5668,186
441.6236,333.1
441.7455,119.4
441.7623,19.6
441.8371,163.2
442.0562,198.6
442.3019,23.5
442.621,363.6
442.7223,1333.8
442.9518,98.3
443.1325,900.7
443.2455,588.2
443.364,566.8
443.4097,111.9
443.4607,576.3
443.5677,399.3
443.628,419.2
443.6897,299.3
444.0014,838
444.0179,300.2
444.1812,793.8
444.3519,340.3
444.5334,21.1
444.887,298.5
444.9634,478.8
444.9819,19
445.1563,88.8
445.2099,22
445.2347,1431.1
445.3091,583
445.3946,257.5
445.5969,120.2
445.6611,155.3
445.884,377.6
446.6244,219.4
446.6387,266.6
446.6533,170.9
446.6708,341.7
446.7472,87.4
446.9445,398.2
447.1349,339.1
447.5793,365.2
447.714,590.2
448.0808,661.4
448.2547,125.7
448.6677,419.5
448.9331,4067.3
449.1547,2056.6
449.176,784.7
449.1899,217.2
449.3569,18.5
449.7171,556.5
449.8665,118.1
449.8999,96.3
450.13,173.1
450.1579,377.9
450.3502,154.1
450.4525,451
450.5407,610.4
450.6839,84.2
450.7545,373.6
450.7922,269.6
450.8612,370.5
450.9307,1982.7
450.9513,508.4
450.987,689.9
451.1507,70.2
451.6335,200
451.8425,404.2
452.0035,206.6
452.0157,242.7
452.1535,23.1
452.5682,20.3
452.6442,700.1
452.7394,281.5
452.7521,1132.1
452.7871,105.4
452.9049,100.9
452.9317,115.7
452.945,637.3
453.174,1209.7
453.1952,110.7
453.2972,444.8
453.5942,140.2
453.6043,459
453.6756,416.3
453.8441,540.6
454.0133,19.6
454.1554,863.1
454.1979,254.5
454.3716,115.4
454.4908,387.3
454.747,253.4
454.8629,758.5
454.8976,202.1
454.95,40370.8
455.0149,19.4
455.1379,762.2
455.2785,118.8
455.4016,541.5
455.5662,134.6
455.7032,164.7
455.7816,276.3
455.8257,20.8
455.9537,1806
456.109,126.2
456.3265,131.3
456.3758,579.1
456.6995,443.8
456.7111,403.1
456.7367,120.1
456.9472,10581.9
457.2065,148.2
457.233,10716.2
457.365,100.3
457.4474,90.6
457.6013,582.9
457.8409,329.3
458.0147,988.7
458.1133,120.8
458.2169,4713.9
458.4722,266.2
458.6114,107.7
458.6526,570.7
458.6976,681.5
458.8784,280.6
458.9037,175
458.9615,920.3
458.9996,730.9
459.2238,469.4
459.2488,361862.2
459.3913,353.5
459.4352,20.6
459.543,214.1
459.7643,296.8
459.9232,211.7
460.252,76832.3
460.4385,102.8
460.4506,90.5
460.7257,556.8
460.7418,148
460.7825,193.3
460.8585,104.5
460.9399,21
460.9667,64278.1
461.218,393.5
461.2352,97.9
461.2545,6758.9
461.3144,120.3
461.458,141.1
461.8121,102.9
461.9703,4038.8
461.9841,572
462.0093,121.2
462.1138,22.7
462.3286,873.4
462.8181,17.8
462.8711,141.2
462.9639,18001.9
463.0098,543
463.1467,422.6
463.2022,794.5
463.2435,23.5
463.368,107.4
463.9666,510.6
464.0223,301.3
464.5499,119.6
464.5809,439.3
464.6924,174
464.7849,115.1
464.9786,7099.3
465.0103,389.6
465.1195,25.5
465.178,423.7
465.2072,619.8
465.3078,200.3
465.3786,584.3
465.3981,174
465.5953,353.8
465.7613,682.3
465.9826,881.5
466.0069,372.4
466.1398,228.3
466.2624,23.4
466.3975,205.9
466.5579,134.9
466.7293,456.3
466.945,534.1
466.9594,190.8
467.1174,688.5
467.1932,363.8
467.2644,124.6
467.4701,685.7
468.0262,175.7
468.0727,221.8
468.1728,90.1
468.2503,90.5
468.3094,866.4
468.3205,164.4
468.3649,123
468.7378,263.4
468.9372,555.3
468.964,399.6
469.0009,93.7
469.0119,21.1
469.1414,29.5
469.1933,94.9
469.3268,271.2
469.6561,882.7
470.0458,77.2
470.0589,438
470.1473,761.3
470.3186,318.7
470.6606,132.1
470.8299,514.3
470.847,94.5
470.8643,18.6
470.9239,16489.9
470.9559,656.4
470.9955,5045.9
471.175,84.7
471.413,542.4
471.4349,93.8
471.7807,234.6
471.8308,19.3
471.8976,405.9
471.9301,303.1
471.9436,380.5
472.088,687.9
472.3833,461.6
472.6168,494.1
472.9205,3482.7
472.9486,662.6
472.952,686.6
473.1609,121.7
473.2645,3521.7
473.3415,422.5
473.451,123.9
473.7659,96.5
473.8751,277
474.0238,500.3
474.1974,227.5
474.6964,116.3
475.0972,89.6
475.1303,109.1
475.1792,634.6
475.2226,14785
475.2438,465
475.494,239.1
475.7104,499.2
475.7201,169.7
475.9841,376.1
476.0819,325
476.2259,776.5
476.313,463.7
476.8989,232.5
476.9408,40269.4
476.9927,262.3
477.0383,298.5
477.176,108.3
477.2436,16.9
477.285,118.5
477.836,311.5
477.874,165
477.9013,554.3
477.9439,1976.1
478.1231,213.2
478.292,878.4
478.3297,51331.6
478.3804,437.3
478.4036,465.3
478.609,376.6
478.69,501.6
478.864,87.4
478.9134,682.6
478.9377,11563.1
479.1104,419
479.1551,105.7
479.333,9609.6
479.3997,98.8
479.4206,23.1
479.4636,112.8
479.4952,400
479.7273,797.1
479.7374,118.8
479.9408,425.6
480.216,384.8
480.2537,191.9
480.3454,1542.5
480.3667,376.9
480.4742,106.6
480.6618,94.6
480.9347,875.8
480.9522,3138.1
481.0394,97.5
481.092,94.1
481.2334,335.8
481.4323,145.5
481.5619,142
481.6701,119.8
481.7519,237.1
482.0942,20.7
482.3242,784.4
482.6553,17.7
483.1745,628.2
483.2488,71725.3
483.5133,127.7
483.6175,110.6
483.9192,423.1
483.9711,118.3
484.0313,308.2
484.0407,707.5
484.0573,839.9
484.2172,120
484.2521,13998
484.3659,476.2
484.3853,173.5
484.4929,17.6
484.5156,696.1
484.6477,488.9
484.7969,235
485.0161,92.8
485.245,300.3
485.2644,79802.6
485.4179,651.3
485.6312,193.2
485.6811,205.2
485.719,21
486.2416,253.1
486.2677,18862.4
486.5575,125.6
486.6742,599.5
486.7883,81.6
486.897,1296.2
486.9767,167.6
487.1529,22.6
487.2551,107.3
487.28,87432
487.3415,972
488.2407,142.2
488.2834,17762.5
488.4226,18.4
488.5326,96.1
488.6222,144.8
488.8299,128.7
488.8472,18.7
488.8955,418.1
488.9527,843.9
489.085,55.9
489.2287,124.1
489.3196,123.8
489.3442,278.3
489.3677,201.1
489.417,479.2
489.4332,547.5
489.4748,650.3
489.5135,591.7
489.5285,20.2
489.5996,19.7
489.6308,742.8
489.6523,110
490.1891,202
490.2624,721.1
490.2909,5482.7
490.3633,577.7
490.644,477.2
490.7263,150.6
490.8335,354.8
491.0629,19.4
491.1866,19.5
491.2016,451.3
491.3258,168.9
491.3715,2484.8
491.4336,209.5
492.3433,474.3
492.3734,423.3
492.5727,191.4
492.6504,113.8
492.8361,110.1
492.9148,4462
492.952,500
493.1235,221.6
493.3729,589
493.3888,112.6
493.4651,93.3
493.5024,170.6
493.5546,260.3
493.683,292.7
493.9298,341.1
494.0508,114.3
494.3248,7079.4
494.6765,283
494.912,2209.9
494.9719,291.9
494.9817,93.7
495.1002,123.2
495.292,202.9
495.3267,711.8
495.548,290.4
495.5664,580.6
495.5771,523.9
495.6038,222.7
495.648,21.1
495.6579,107.1
495.7104,96.3
495.7346,453.5
495.7545,269.1
496.0064,309.8
496.1131,189
496.3403,390045.1
496.4052,155.2
496.7144,111.2
496.8217,312.7
496.8929,23
496.9314,399.6
497.3436,94752.4
497.434,165.9
497.4991,146.5
497.5104,107.9
497.6057,472.1
497.9625,183.7
498.0128,372
498.1541,558.5
498.201,131
498.3467,5124.4
498.5387,142.2
498.6834,582.5
498.707,534.8
498.8661,98.9
499.2227,2097.2
499.3902,111.9
499.4477,1133.4
499.4643,19.7
499.903,235.9
500.1278,343.7
500.1674,391.4
500.2732,818.8
500.469,245.6
500.5666,518.6
500.6808,336.5
500.7801,285.3
500.8741,850
501.0299,118.2
501.0966,26.8
501.2386,2839.6
501.2644,786.5
501.3544,212.4
501.404,132.7
501.4557,295.1
501.6513,158
501.7433,685.7
501.7591,586.9
502.2603,281.1
502.3296,15385.3
502.9081,205.3
503.0388,18
503.1078,60.5
503.1855,522.6
503.2541,2961
503.2863,118.3
503.3332,888.5
503.4335,737
503.4505,519.1
503.4656,186.9
504.263,103.2
504.3065,6208.5
504.3449,6600.9
504.4465,815.5
504.7429,115.5
504.8862,186.7
505.0474,153.6
505.0958,530.1
505.2337,563.3
505.257,369.4
505.3149,114.6
505.5336,402.5
505.6357,417.8
505.6874,98.8
505.7949,84
505.9316,280.2
506.1151,257.1
506.1649,23.1
506.1756,188.9
506.2279,18.7
506.2642,653
506.3609,5000.8
506.6349,224
506.8917,2545.6
507.2488,19540.5
507.279,131.8
507.4912,164.9
507.5594,410.6
507.841,348.1
508.2521,2181.7
508.2691,85.5
508.3691,20.1
508.4018,115.7
508.7947,382.4
508.8893,1890.3
509.0044,1829.1
509.0238,143.8
509.0783,394.3
509.2643,11542.9
509.3134,188.5
509.6233,92
509.7194,379.7
509.7441,22.1
509.8804,102.2
509.9521,534
510.0069,104.8
510.0347,21
510.0583,131.2
510.1782,153.3
510.2322,556.4
510.2672,1102.2
510.3108,345.3
510.3557,5645
510.4053,755.4
510.499,98.2
510.8523,529.2
510.9321,128.4
510.971,412.8
511.1253,35.3
511.1923,669.7
511.3733,20.9
511.678,89.1
512.1972,369.4
512.2764,115.7
512.3359,1262.1
512.648,585.7
512.7478,465.8
512.788,616
512.8438,134.3
512.9085,17529.5
512.9878,105.1
513.0866,380.4
513.1704,115.6
513.2009,241.5
513.2129,91
513.3565,774.3
513.3933,446.6
513.4118,316.1
514.5781,114.4
514.8687,775.1
514.9053,9789.1
515.0221,387.7
515.0769,401
515.0876,138.8
515.371,784.3
515.4669,587.2
515.6017,106.2
515.7955,159.3
515.9998,234.3
516.0847,163.1
516.1604,179
516.3065,14477
516.5544,217.1
516.6139,757.5
516.9209,1274.2
517.2624,396.4
517.5311,272
518.1371,918.3
518.2989,386.4
518.3222,606986.1
518.4926,289.7
518.5384,194.8
518.6546,345.1
518.7427,373.5
518.7659,174.1
518.8257,105.9
518.9253,28106.1
519.2101,18.5
519.3256,144833.2
519.6072,92.1
519.8507,183.8
519.8871,88.6
519.9282,1139.9
520.0168,120.7
520.036,104.9
520.2066,373.3
520.2533,128.7
520.3291,14895.5
520.3403,68895.2
520.5087,115.5
520.9225,15516.7
521.2604,410.4
521.3437,16043.6
521.4368,731
521.913,399
521.9259,864.6
521.9362,285.7
522.277,550.3
522.356,95756.5
522.9195,2558.6
522.9375,6570.3
522.9698,337
523.0343,654.4
523.1001,177.7
523.1403,394.4
523.3595,20829.2
523.6811,183.8
523.8202,102.4
523.8513,337.9
523.9719,25.8
524.0026,319.3
524.0149,19
524.0687,586.3
524.2719,91.7
524.2987,23.6
524.3097,779.1
524.3477,699.9
524.3716,110033.8
524.4355,588.9
524.6166,111.7
524.6871,1113.3
524.8535,172.7
524.9343,742.3
524.9783,850.3
525.375,28763.9
525.3982,524.7
525.4156,118
525.9875,175
526.3296,2812.1
526.3786,1715.7
526.4228,95.3
526.5902,85.9
526.9205,415.6
526.9895,180.1
527.2197,380.6
527.2486,965.1
527.3472,203.6
527.4119,116.4
527.6386,541
527.7226,210.7
527.76,109.6
527.9616,469.8
528.0283,221.3
528.1645,19.2
528.1954,118.8
528.3258,204.1
528.3415,442.3
528.4937,393.8
528.8821,5627.7
528.9371,595.6
528.954,2694.6
529.1872,509
529.3273,196.8
529.7049,493.4
529.7386,109.7
529.7506,19
530.0407,204.1
530.2062,607.9
530.3214,792.7
530.3587,2047.4
530.5128,194.6
530.5942,357.1
530.663,275.5
530.784,530.1
530.8245,484.8
530.8795,3188.9
531.2214,2319.2
531.2488,2855.6
531.3666,655.6
531.6379,203.6
531.6645,104.4
531.7163,102.2
532.1792,382.8
532.2127,85.2
532.25,433.7
532.2805,1820.3
532.3116,317.5
532.3382,8243.6
532.4226,356.7
532.5684,20.1
532.596,521.4
532.6887,172.9
532.7004,141.1
532.878,443.7
532.9083,218
532.9665,1693.1
533.0981,770.6
533.2636,968.6
533.3407,949.4
533.5513,132.1
533.572,249.4
533.588,312
533.7644,145.8
534.0423,498
534.1548,463
534.2962,131476.7
534.3161,725.2
534.508,630.2
534.7425,208.1
534.8992,13154.4
534.9391,128.5
535.1886,155
535.2996,31873.3
535.5437,213.7
535.6395,126.5
535.9018,1046.8
536.2799,172.2
536.2958,5191.9
536.3756,381.8
536.4076,17.9
536.4988,115.7
536.7139,111
536.7858,142.4
536.8964,9996.5
537.1106,109.5
537.3428,1396.2
537.525,105.4
537.6515,120.6
537.6904,271.9
537.7343,1026.4
537.8019,115.8
537.8239,99.1
537.8986,429.8
538.1346,673.6
538.6892,112
538.7412,193.8
538.8942,827.3
538.9114,2317.4
538.9321,1851.2
538.9434,914.2
538.9626,139.2
538.9815,759.9
539.1304,163.7
539.2865,17.1
539.4329,95.8
539.5056,207.5
539.9178,157.4
540.2795,19.6
540.3716,84.4
540.5819,547.9
540.6031,414
540.9583,121.3
541.134,457.3
541.1716,123
541.4306,208.7
542.3223,98013.1
542.3857,439.4
542.443,533.4
542.5982,191.4
542.7173,141.4
542.7462,356.7
543.1931,597.8
543.3257,24197.7
543.4027,1261
543.5612,153.6
543.6664,19.9
543.7131,266.4
544.1576,116.6
544.1947,459.5
544.246,87.8
544.338,141990.7
544.3729,1014.2
544.5312,115
544.5636,273.7
544.8124,23.4
544.8552,537.8
544.9276,1006.2
544.948,935.2
545.0421,96.6
545.2789,845.7
545.3413,33076.4
545.4044,243.4
545.5823,105.8
545.6166,535.6
545.8418,155.7
546.3536,162001
546.4563,172.7
546.5164,328.7
546.6441,622.4
546.8685,17.5
546.9901,97
547.1814,708.3
547.2048,233.9
547.274,379.1
547.2946,185.1
547.3123,119.1
547.357,40200.4
547.4462,125.5
547.6942,543.4
547.7733,140.3
547.9253,513.1
548.2343,549.3
548.2526,413.6
548.2844,149.4
548.3116,1465.5
548.3602,4775.8
548.4589,17.3
548.563,257.6
548.8834,117.4
548.94,521.6
549.1777,543.2
549.3931,338.8
549.4223,588.3
549.7035,358.8
549.8072,240.6
549.9294,119.4
550.3337,83.7
550.3536,547.5
550.4651,142.5
550.6359,354.9
550.8735,2627.2
551.0929,184.2
551.1728,234.7
551.2817,410.9
551.5232,245
551.6216,739
551.8311,94.8
552.1487,697.5
552.8706,2224.8
552.9231,19.7
552.9987,101.1
553.0501,358.8
553.1872,797
553.2986,702.7
553.5632,91.2
554.351,186.7
554.4303,137.8
554.5003,215.4
554.6121,19.1
554.8678,418.9
555.1875,21.7
555.39,18.8
556.0261,88.5
556.0557,85.9
556.0986,20.9
556.5241,389.8
557.2852,369.8
557.3875,99.1
558.0939,723.5
558.2707,601.2
558.2962,23395.8
558.5106,122.4
558.7275,146.2
558.8764,19
559.1982,235.7
559.3005,2621.4
559.523,575.2
559.6276,19.4
559.9957,703.6
560.3119,27035.4
560.6886,20.9
560.7035,79
561.0801,640.2
561.3152,4408
561.4137,3664.5
561.752,113.8
561.8118,501.8
562.3276,28334.6
562.5214,508.3
562.7946,419.8
562.8781,875.7
562.9498,450.3
563.331,5747.5
563.4293,522.4
563.5426,148.2
563.6557,764.3
563.7407,132.9
564.1654,253.4
564.3029,511.3
564.3355,968
564.7286,23.3
565.1325,180.7
565.5893,148.7
565.7421,119.6
566.0237,20.3
566.3223,21756.3
566.3823,474.9
566.4363,306.1
566.5763,392.8
566.6703,339.5
566.7001,497.9
566.8477,937.8
567.2063,160.6
567.2644,195.7
567.3257,6056.7
567.4613,897.8
567.9508,436.7
568.2254,571.7
568.2456,839.3
568.3381,17243.4
568.3572,144.2
568.6038,162.8
568.699,301.7
568.8442,470.8
569.3419,3842.5
569.3734,519.3
569.4179,880.7
569.4548,568
569.6429,96.8
569.8658,461.1
569.9251,490.3
569.9832,170.9
570.122,123.6
570.2563,466.5
570.3543,730.7
570.488,128.8
570.5682,226.7
570.6071,519.7
570.7815,131
570.8672,5502.9
570.9069,335.4
571.0592,870.1
571.6163,158.6
572.1088,19.8
572.2509,119.9
572.4063,572.7
572.4405,923.1
572.6192,317.3
572.6252,431.4
572.6297,443.2
572.7009,575.3
572.842,679.2
572.864,6386.7
573.3536,164
573.5507,166.9
573.6006,373.7
573.6219,151.2
573.6907,104.5
573.7898,564.4
573.8684,371.6
573.9937,329.6
574.0462,94.2
574.2839,1745.8
574.52,580.5
574.6947,96.8
574.8479,451.5
574.8615,1007.5
574.8812,1097.4
575.1914,275.8
575.288,772.2
575.5043,12738.2
575.5821,567.3
575.7546,141.7
575.9217,157.5
576.0471,686.7
576.217,115.9
576.281,8363.8
576.3577,199.9
576.3883,319.7
576.4256,22.9
576.5086,922.6
576.8839,9466.7
577.0634,124.8
577.2702,109.7
577.349,516.9
577.3754,117.5
577.4176,536.9
577.4465,92.3
577.5186,764.5
577.614,564.3
577.8442,591.6
577.8717,195.2
577.8889,357.9
578.0263,117.6
578.0398,145.9
578.2782,681.8
578.383,115.1
578.5195,299.3
578.5275,313.3
578.7409,443.6
578.8812,7997.2
579.0775,960.9
579.2777,400.6
579.2909,20.1
579.5148,430.3
579.8858,380.6
580.1624,561.2
580.3019,113.3
580.5238,164.9
580.8787,2144.6
580.8958,2906.9
581.1345,699.2
581.2424,163.7
581.4937,157.7
581.5953,439.7
581.6612,327.5
581.6926,901.5
581.7294,137.8
582.1547,464.4
582.297,5204.6
582.3578,530.4
582.3685,93.7
582.3918,861.5
582.4257,1525
582.4437,175.6
582.4569,145.7
582.5144,323.1
582.5331,936.8
582.5658,92.7
582.5869,167.8
582.6065,233.2
582.6187,704
582.6524,262.9
582.6781,755.5
582.7035,750.7
582.7775,119.2
582.8917,1416.5
583.2558,1944.4
583.2722,448.9
583.3043,565.7
583.7682,137.7
583.8254,458
583.8964,146.8
583.9075,247.3
584.3111,1537.2
584.4629,579
584.4839,222.2
584.5506,200.5
584.9489,99.7
585.1898,128.2
585.2714,6172.8
585.315,812.2
585.4585,115.5
585.9576,939.2
586.2736,961.4
586.2926,99
586.3096,3429.7
586.3706,416.8
586.4212,19.9
586.4929,188.2
586.6382,359.7
586.841,1970.1
586.9139,1028.8
587.3146,729.4
587.4209,600.9
587.6273,323.1
587.9865,533.3
588.2036,116.5
588.3846,257.6
588.7497,599
588.791,98.8
588.8109,643.6
588.8379,2183.9
588.8527,241.3
588.8728,97.7
588.8963,318
588.9198,430.8
588.9515,87.9
589.2141,466.6
589.377,624.8
589.4131,799.6
589.4897,635.3
589.8736,631.8
590.0959,483.5
590.1849,155.8
590.2679,228.9
590.3228,4635
590.5741,229.8
590.6201,162.5
590.9255,545.1
591.0006,427.7
591.122,123.8
591.2582,146.7
591.9327,618.8
592.0697,452.3
592.1409,103.3
592.2553,812
592.4598,414.6
592.5039,277.7
592.7159,723.8
592.858,5999.1
593.0114,177.3
593.0946,19.3
593.2404,185.8
593.2679,20.6
593.5583,25.4
593.7067,547.6
593.7971,669.8
593.8189,327.6
594.0655,114.5
594.3012,121.4
594.8091,122.2
594.8552,6226.3
595.0343,874.7
595.0811,277.1
595.3567,105.7
596.2454,87
596.3931,546
596.5572,21.7
596.7936,396.7
596.8524,1696.3
596.869,356.9
597.0031,342.2
597.4477,4597.6
597.4862,10286.9
597.6258,500.8
597.8006,87
597.9317,845.7
598.4526,1561.6
598.4889,921.5
598.7146,665.1
598.8188,806.6
598.8867,119.5
599.1994,340
599.464,1774.7
599.5025,4470.4
599.5517,102.4
600.0005,20.7
600.2806,621.2
600.4281,83.7
600.4451,20.5
600.4645,823.6
600.4882,435.7
600.5062,731.8
600.7857,880.2
600.8144,627.7
600.8622,292.8
601.0537,419.4
601.1005,21.5
601.3628,132.6
601.5185,211.3
602.1775,136
602.2296,672.6
602.2973,832.4
602.487,256.9
602.5764,735.6
602.8863,491.4
602.9073,482.1
603.1519,176
603.3135,117.1
603.5354,390.1
603.8275,111.9
603.8574,246.7
604.022,91
604.0887,456.6
604.2272,451.6
604.3124,860.8
604.3554,182.3
604.5337,369.5
604.603,641.2
605.1148,577
605.4067,721
606.369,154.1
606.5557,375.7
607.0611,110.3
607.1714,8810.3
607.3765,243.5
607.4791,316.4
607.7543,238.5
607.8406,144
608.0871,570.2
608.1754,637.9
608.195,353.1
608.3391,691.2
608.8328,609.9
609.0283,900
609.5287,93
609.5586,112.4
609.7904,239.5
609.8961,97.6
610.0275,208.5
610.1228,655.2
610.2347,208.7
610.7603,328.2
610.8288,1727.8
610.8956,807.9
611.4796,579.6
611.7845,143
611.8512,101.9
612.0091,542.6
612.2218,18.8
612.4145,151.1
612.6056,830.2
612.8924,252.5
612.9839,20.2
613.1901,106.8
613.25,132.1
613.3203,1242.8
613.4514,229.3
613.456,221.9
613.4644,141.9
613.6874,23.4
613.721,382.2
614.1291,22.7
614.3257,99
614.4997,396.7
614.8388,929.3
615.0443,451.5
615.266,455
615.3929,219.6
615.4592,1570.3
615.4764,187.1
615.5684,359.8
616.083,138.7
616.1916,124.9
616.218,102.1
616.2335,491.7
616.352,116
616.6345,23.3
616.77,179
617.0374,216.9
617.0919,170.1
617.1435,168.9
617.2401,606.6
617.3463,316.5
617.4761,9711.9
617.5763,216.9
618.0153,149.5
618.3379,881.2
618.4778,2750
618.5702,106.2
618.9363,208.5
619.0079,111.9
619.1747,144.4
619.2606,171.5
619.4914,7505.1
619.5384,186.2
619.6812,110.3
619.8292,488.8
619.8532,247.4
619.8969,532
620.3166,118.8
620.4088,19.6
620.4951,1766.6
620.7243,118.5
621.0288,896.5
621.1987,291.5
621.4364,660.7
621.4552,1625
621.486,7583.6
621.7712,498.9
621.8341,20.5
621.8563,20.2
621.9338,187.4
622.4583,462.5
622.6502,724.8
623.0115,290.6
623.0671,253.9
623.088,88
623.1365,29624.5
623.186,717.6
623.4707,1545.8
623.4856,759.1
623.5025,4096
623.6444,99.9
623.7673,405.9
624.0697,119.2
624.1403,4913.6
624.1825,237.1
624.3472,690.3
624.3581,324.5
624.5071,730.1
624.8553,693.2
625.0099,153.5
625.1383,183.9
625.158,652.7
625.1853,137.7
625.4644,371.9
625.4808,216.9
625.5941,132.4
625.6621,288.8
625.9493,313
626.196,405.4
626.2671,182.1
626.9379,138.6
626.9706,355.7
627.2759,674.1
627.5355,754
627.8397,119.9
627.8472,119.5
627.8523,106
627.9074,195.2
628.0524,422.2
628.1094,494.2
628.348,141.9
628.3702,481.9
628.5381,749.5
628.8079,86
629.1534,65979.3
629.2069,208
629.6778,594.9
629.7494,243.7
629.901,229.8
629.9506,933.2
629.9827,211.6
630.0254,266.4
630.0927,200.1
630.1569,13991.9
630.4754,164.4
630.4938,168.3
630.5093,23.7
630.58,688.8
631.1301,382.6
631.1591,1405.3
631.4433,20.7
631.4575,407.4
631.5148,20.4
631.5497,165.2
631.6049,104.5
631.6733,21.7
632.1923,363.9
632.3543,828.4
632.6126,19.5
632.6356,704.6
632.8552,120.1
633.0631,18.3
633.0789,97
633.3999,89.1
633.4476,456
633.542,684.1
633.9659,442.6
634.1605,617.9
634.4118,137.6
634.4248,277.9
634.5791,287.5
634.7078,324
634.8433,2603.1
635.3803,131.8
635.5243,95.5
635.6368,20.8
635.9122,394.2
635.9513,567.4
636.0565,543.2
636.2679,290.8
636.6348,203.9
636.8401,3359.7
637.3701,99.1
637.5587,690.6
637.7343,109.9
638.0734,145.2
638.1435,84.9
638.4525,2314.5
638.5682,187
638.7097,121.9
638.8369,1279.7
639.2401,299.3
639.3167,96.4
639.4132,216
639.4293,151.4
639.454,462.1
639.9812,237.8
640.1013,95.3
640.424,24.3
640.4594,94.3
640.5048,258.8
640.5573,133
640.7329,113.7
640.8605,920.7
641.1808,385.8
641.2293,105.3
641.4296,425.1
641.5539,816.8
641.6753,275
642.0907,125.3
642.2654,406
642.4404,635.9
642.6629,97.7
642.8781,232.9
642.8847,352.8
642.8893,285.5
642.9877,190.1
643.2072,682.8
643.2571,118.3
643.3645,17.7
644.2066,245.1
644.2957,779.1
644.5359,147.3
645.1184,22437.9
645.1667,124.1
645.2959,529.4
645.4348,218
645.4398,252.4
645.4673,535.9
645.4843,125.3
645.8864,102.1
646.1223,4047.1
646.4911,917.5
646.5953,368.4
646.715,107
646.833,162
646.8697,543.9
646.9776,345.2
647.0598,510.6
647.0945,639.6
647.125,320.3
647.2225,368
647.2994,627.6
647.3676,83
647.3974,173.6
647.5106,116
647.6195,766.4
647.6482,381.3
647.7993,299.1
647.9521,559.7
648.2046,169.6
648.3821,362.5
648.7228,148
648.8468,142.7
648.8888,539.9
648.9593,210.1
649.079,448.5
649.1756,103
649.3941,687.8
649.4593,140.2
649.5185,917.5
649.5981,612.3
649.6451,575.4
649.734,443.4
649.8642,298
649.9229,916.7
650.0195,86.1
650.0316,499.8
650.081,282.6
650.4402,2072.5
650.4828,100.7
650.7346,92.5
650.8172,1973.3
651.0044,776.3
651.1353,60828.2
651.3568,727.9
651.4083,81.8
651.7505,86.9
652.0797,285
652.1391,11571.9
652.2183,335.9
652.4644,947.5
652.814,2332
653.1114,1372.8
653.1412,937
653.4794,127
653.9145,304.6
654.0304,134.2
654.0745,118.5
654.2901,822.4
654.2945,821.7
654.5595,354.4
654.6054,245.4
654.6141,276.3
654.8117,909.6
654.8564,450.8
655.128,765.8
655.2753,441.5
655.3518,505.4
655.5679,370.3
655.5996,107.3
655.991,96.6
656.2791,435.3
656.3349,20
656.3862,143.9
656.593,479.5
656.8178,634.4
656.8418,130.1
656.9686,19.7
657.1902,549.2
657.3538,118.4
657.5659,722.3
657.6272,465.2
657.6577,421.9
658.2231,119.2
658.4518,83.8
658.5474,112.5
658.7905,225.7
659.139,96
659.4378,584.9
659.4504,607.4
659.4764,572.1
659.8872,171.9
660.0202,246.5
660.3201,126.6
660.8326,352.3
660.8718,530.1
661.0831,12631.7
661.4691,696.6
661.5292,840.6
661.8344,19.6
662.0882,343.7
662.3197,25.1
662.4502,377.2
662.4751,317
663.2221,20.1
663.2371,136.7
663.392,829.2
663.456,796.4
663.5236,428.8
664.0599,859.6
664.1278,769.9
664.4678,2561.9
664.6378,153.9
664.7499,122.7
664.8183,749.1
664.9224,92.3
665.4371,333.1
665.4687,1406.1
665.7757,97.6
665.8178,20.4
666.3003,597.8
666.4848,5779.2
666.7581,25.3
666.792,445.2
667.1,27775.3
667.2457,340.8
667.3394,708.8
667.4884,1165.4
667.6145,528.6
667.7117,358
667.7958,104.9
667.8813,555
667.9975,163.4
668.1033,4115.2
668.4861,672.2
668.5523,134.7
669.0854,405.3
669.1066,431.5
669.4266,21
669.495,3216.1
670.0128,393.7
670.3289,18.8
670.6762,88.2
670.9025,567.7
670.9823,113.4
671.0868,613.2
671.2794,1022.6
671.4419,200.8
671.5566,115.7
671.7413,398.1
671.774,156.3
672.1684,18.8
672.2324,364.5
672.4216,2941.6
672.5642,108.7
672.5841,877.7
672.979,388.4
673.0035,18.8
673.1173,58561.2
673.5288,929.9
673.5629,781.8
674.121,10844.3
674.8642,523.6
674.8876,20.1
675.0341,295.9
675.0916,256.5
675.1105,479.7
675.1183,570.1
675.186,194.8
675.3883,88.2
675.4477,133.3
675.5445,21698.8
675.8429,291.9
675.9851,115.3
676.048,101.1
676.0794,20.2
676.2834,770
676.4378,149.2
676.5485,4957.2
676.6266,110.5
676.7399,175.1
677.2833,464.9
677.3482,110.4
677.5374,164.7
677.5738,205.1
677.594,714.9
677.8034,1005.3
677.8502,601.4
678.0336,195.7
678.1041,287.5
678.2492,185
678.3338,107.8
678.3507,773
679.1587,604.5
679.2196,147.1
679.3087,464.7
679.3235,753.5
679.6472,23.8
679.8245,103.8
680.1279,529.1
680.3703,116.8
681.4297,111.4
681.5809,126.2
681.6331,166.7
681.7293,733.8
682.0078,407.8
682.0654,630.9
682.2506,110
682.9298,126.7
683.0649,4886.1
683.2715,223.2
683.3547,125.7
683.4168,629.4
683.4507,1644.4
683.5482,215.3
684.0681,103
684.0915,770.2
684.1687,21.7
684.3667,193.4
684.476,173.7
684.605,175
684.6626,20
684.6861,92
684.8624,157.1
684.9168,548.3
685.068,843.9
685.1128,606.5
685.333,212.8
685.4374,4605.4
685.5804,379.9
686.0483,308.8
686.1761,127.2
686.44,2001.1
686.6138,564.1
686.8777,208.3
686.9484,18.2
687.1961,97.8
687.3629,401.5
688.2175,785.8
688.4187,1346.8
688.4567,122.4
688.6449,19.6
689.0817,19781.5
689.0903,16116.1
689.4239,779.2
689.5015,226.2
689.5608,5592.1
689.8385,734.9
690.0953,1856.7
690.2791,21.8
690.4299,959.7
690.4675,592.6
690.5632,1959.9
690.9298,521.8
691.0688,102.8
691.0891,717.8
691.4349,128.6
692.2446,87.2
692.3809,670.8
692.7849,584.9
693.0879,616.3
693.4341,562.6
693.4467,732.6
693.5989,102.3
694.1073,834.8
694.424,96.4
694.4957,251.6
694.6687,234.3
695.0635,19.3
695.0994,38605.5
695.292,121.7
695.4624,618.7
695.5115,4707.1
695.5608,162.8
695.7987,88.2
695.8187,775.4
696.034,357.8
696.1029,7449.6
696.4658,456.7
696.5155,1004.4
696.5916,20.6
696.929,23.3
697.3245,143.3
697.3847,383
697.5263,27982.9
698.0612,440.9
698.0914,395.2
698.2506,18.4
698.5297,7622.4
698.795,393.4
698.8185,360.7
698.8365,90.4
698.8545,441.8
699.0936,167.9
699.6802,799
699.7126,942.1
700.2755,451.6
700.4269,507.8
700.4574,109.6
701.0182,639.4
701.1971,348
701.4087,514.5
701.4806,125
701.56,50847.1
701.8893,163.4
702.0428,100.7
702.3433,1650
702.4102,224.4
702.5139,18.8
702.5642,18357.8
702.7083,290.9
702.805,478.1
702.9463,661.6
703.0582,480
703.2585,378.7
703.5295,492.8
703.5759,102437.2
703.7033,778
703.8595,143.4
704.3683,634.1
704.4488,5234
704.5793,38782.3
704.6389,20.1
704.6565,396.5
704.7903,345.2
704.8712,174
705.0563,3089.3
705.2284,213.4
705.5612,18.3
705.5816,3240.6
705.7379,109.3
706.011,504.3
706.5377,1135.5
706.64,719.2
706.6697,371.3
707.1709,737.3
707.4929,586.4
707.5265,573.4
707.6072,200.8
707.9168,19.2
707.986,169.5
708.0557,378.6
708.2135,93.2
708.4274,85.9
709.0387,113.2
709.3649,651.1
709.6488,554.1
709.8175,427.8
709.948,624.4
710.1592,401.8
710.3371,222.2
710.7714,1048.2
711.063,13917.5
711.0739,13046.6
711.1588,431.7
711.5125,18.7
711.5423,8612.3
711.7569,113.2
711.8842,104.2
711.9843,18.9
712.0693,824.8
712.1746,215.3
712.1922,756.9
712.3081,638.5
712.4318,194.3
712.5452,2286.6
712.6956,195
712.7265,479.8
712.9322,89.8
713.0881,503.5
713.5603,20.4
713.6193,142.2
713.8616,17.2
714.0136,22.8
714.2635,629.3
714.3195,1000
714.347,920.9
714.4315,638.8
714.9406,602.1
714.9692,123.2
715.1309,134.7
715.1689,903.4
715.7777,316.3
715.8597,20.8
716.3666,519.4
716.4454,749.9
716.6777,495.4
716.6834,496.9
717.0815,18814.3
717.1402,114.5
717.4376,140.9
717.5919,470.8
718.0848,2152.1
718.3523,22.1
718.5739,93.4
718.7994,183.7
718.9006,705.3
718.9268,327.8
719.1225,172.3
719.2655,149.6
719.4625,1026.5
719.6273,658.6
719.789,203.1
720.2315,170.1
720.4651,666.9
720.553,518.3
720.5897,571.3
720.8077,154.9
720.9052,97.2
721.4377,187.6
721.4791,59711.5
721.7165,20.9
721.9348,695.2
722.2439,175.5
722.3635,152.5
722.4223,252.5
722.4824,23750.4
723.2917,20.8
723.3078,172.3
723.4955,12063.9
723.542,50058.4
723.9105,325.6
723.9445,377.1
724.4978,2009.2
724.5457,19378.6
725.4781,19.6
725.5582,90916.7
725.5839,631.6
725.6351,109.2
726.5613,39554.8
726.9833,332.8
727.0291,2354.8
727.2998,643.2
727.5637,5207.8
727.8456,387
727.9027,20.3
728.117,675.2
728.273,296
728.5214,3390.6
728.6558,594.5
728.8371,515.9
728.966,447.6
729.0378,196.1
729.2458,395.9
729.5273,335.1
729.5916,22671
729.7174,1208.6
730.2064,385.1
730.3332,128.2
730.3764,662.7
730.4303,88.2
730.5014,312.2
730.5393,13250.8
730.5946,6380.6
730.654,303.4
731.0816,319
731.1403,642.6
731.3223,604.9
731.5263,379.9
731.5432,2122.9
731.6076,10693.1
731.6726,210
731.6861,456.4
731.7032,450.2
731.847,274.4
731.9498,20.1
732.0853,549.9
732.4855,124.5
732.5549,64111.2
732.6112,3007.8
732.7123,154.1
733.0451,6311.3
733.0568,7443.1
733.1258,300.1
733.5583,25106.2
733.8185,248.3
734.0229,92.6
734.0529,640.3
734.2412,596.1
734.3323,123.4
734.5715,7568.5
734.6265,593.5
735.3283,95.7
735.3696,322.5
735.4396,183.4
735.5741,1763.5
736.1447,177.7
736.2644,389.8
736.418,19.3
737.1081,738.9
737.2127,182.2
737.4532,9418.4
737.8458,480
737.9081,435.3
738.3891,782.4
738.4566,874.2
738.5035,118.3
738.7716,129.6
738.869,273.2
738.8859,779.2
738.9339,326.9
738.9586,463.7
738.995,951
739.006,878.2
739.0633,9968.1
739.1153,111.9
739.3001,140.3
739.399,443.9
739.468,2055.5
739.5165,5666.5
740.0658,243.6
740.1279,119.6
740.1955,532.5
740.469,426.6
740.5198,1679.5
740.6754,809.3
740.7581,768.2
740.7738,706.9
741.0683,100.9
741.5321,11372.4
741.5857,666.9
741.6557,236.4
741.7133,133.6
741.8253,215.7
741.8827,507.7
741.9528,18
742.195,19.3
742.5363,4160.8
742.5756,7552.6
742.9645,693.8
743.1072,392.7
743.5797,1693
743.9342,140.3
744.0979,145.2
744.3142,88.4
744.3814,19.9
744.5545,8912.1
744.5916,12646.7
744.9973,342.2
745.1793,557.8
745.2922,127.3
745.345,158.1
745.4791,24810.7
745.5059,388.7
745.5306,221.2
745.558,1890
745.5964,1196.4
745.751,22.8
745.9324,130.1
746.0172,195.8
746.0812,290.1
746.4819,8604
746.5713,6342.6
746.6071,2364.3
746.7271,21.1
747.0476,175.4
747.2259,530.8
747.385,21.9
747.4949,14476.7
747.5757,864.1
747.8684,383
747.9985,19.7
748.315,97.4
748.3941,355.6
748.4984,1510.3
748.5472,278.8
748.9869,268
749.0092,477.9
749.03,573
749.1864,647.2
749.4626,403.7
749.5096,3661.8
749.5705,273.2
750.058,86.9
750.1049,111.7
750.4383,160.4
750.5114,647.3
750.561,646.5
750.5952,691.9
750.6208,88.1
750.6672,293.2
751.1699,331.9
751.2501,145.1
751.5735,14495.6
751.6749,106.7
752.0304,23.9
752.2747,183.3
752.5216,14140
752.5771,2826.2
752.8505,742.6
752.9724,263.7
753.1737,441.5
753.2534,557.6
753.3617,395.2
753.4019,410.6
753.5258,2628.6
753.5888,2005.9
753.8123,106.6
754.0026,19.4
754.019,18.1
754.0424,115.4
754.2827,641.5
754.5375,48088.4
754.7902,24.1
754.8783,1269.8
755.0284,3113.7
755.038,2987.5
755.1479,209.7
755.2854,158.5
755.4896,96.4
755.5405,19245.1
756.0367,125.8
756.0567,645.2
756.257,115.6
756.425,117.4
756.5548,55370
756.7184,22.4
756.7991,515.4
756.8227,859.1
756.9363,90.2
757.076,133
757.132,99.5
757.2414,133.4
757.2572,124.8
757.3817,657.2
757.5219,260.5
757.558,23235.6
757.6228,2720.7
758.2014,92.7
758.2354,732.5
758.5706,1222232.1
758.6234,168.8
758.7407,115.5
758.9661,140.8
759.1035,149.3
759.2858,102.7
759.3936,711.3
759.4188,398.2
759.5047,734.6
759.574,537832.2
759.639,2089.2
759.8265,97.5
759.8521,246.2
760.0558,162.9
760.3063,167
760.3261,274.8
760.5873,420564.2
760.6436,129.6
760.7041,118
760.9755,374.8
761.0447,3675.9
761.1656,405.9
761.3594,293
761.4512,776.6
761.5899,205922.6
761.6418,342.5
762.2951,926.6
762.3626,92.3
762.5928,46115.5
762.6495,690.8
762.8693,202.5
763.1674,346.4
763.3271,19.7
763.5954,2241.1
763.7041,461.4
763.777,121.8
763.9578,18.9
764.0869,20.8
764.1641,89.5
764.3621,92.5
764.5586,2317.7
764.6579,350.3
764.7504,548.9
765.1537,143.8
765.3617,778.4
765.4835,518.2
766.0342,19
766.0968,141.8
766.2196,654.6
766.5367,5129.9
766.5756,29013.7
766.6267,193.4
766.7241,117.1
766.8421,232.6
767.1666,677.1
767.4843,117.1
767.5367,812.1
767.5783,12111.7
767.7224,846.2
767.7602,109.5
767.996,359.7
768.0715,1285.8
768.3619,134.5
768.5536,9765.5
768.5917,41417.2
768.73,469.9
769.0328,394.7
769.1949,603.1
769.2434,374.5
769.2951,690.8
769.4489,964.7
769.4783,6168.3
769.5559,1132
769.595,17460.7
770.5113,4549.1
770.5706,4309.4
770.608,3377.8
770.993,4181.9
771.315,91.1
771.4971,437.1
771.5157,747.3
771.5759,426.8
771.612,2396.4
771.8836,804.1
771.9944,428.4
772.1682,645.3
772.326,355.2
772.4388,304
772.5862,19470.5
772.6233,232.3
772.6535,426.4
773.0071,172.7
773.0646,87.5
773.3408,173.4
773.4051,121.1
773.5093,1141.3
773.5898,4783.7
773.6284,555.9
773.6523,99.2
773.666,147
774.2734,115.5
774.4011,172.3
774.4458,518.5
774.5104,107.2
774.5832,621.9
774.6038,2146
774.7348,109.9
774.8372,280.8
774.8631,447
774.9875,698.8
775.0893,432.1
775.3543,706.5
775.5056,630.8
775.6029,174.9
775.688,102.2
775.8607,194.4
775.8832,318.9
776.1057,733.3
776.3439,387.8
776.5204,2825.2
776.5425,17
777.0095,4668.6
777.085,738.6
777.5394,1552.2
777.637,610.6
777.6585,413.2
777.8297,627.5
777.9118,20.2
778.3775,302.5
778.5372,35000.1
778.7136,109.2
778.8182,80.1
779.1096,775.5
779.1917,105.4
779.5404,13527.2
779.5628,718.9
779.6434,623.6
779.6624,311.7
780.4206,646
780.5527,759392.5
780.7918,20.4
780.9834,251.2
781.0559,556.5
781.1587,171.3
781.1967,710.2
781.5562,348301.3
782.2061,231.8
782.3887,455.4
782.5703,729783.8
782.8542,127.5
782.945,389.6
783.028,3826.1
783.0781,89.8
783.5736,346284.5
783.7579,153
784.2278,459.7
784.2948,1964.3
784.587,405623.4
784.7917,104.2
785.59,198564.8
785.6545,6546
785.7596,219.2
786.0202,601.1
786.6027,296526.6
786.6579,580
786.8741,379.5
787.0459,195.7
787.2624,600.7
787.6056,143487.5
787.6685,486.8
787.8029,147.6
788.3091,112.9
788.3519,166.6
788.5041,537.6
788.5579,6808
788.5798,423.2
788.6054,22870.9
788.6215,14172.7
788.6748,108
789.0706,20.2
789.1518,197
789.1972,424.4
789.2851,96.8
789.4784,178.2
789.559,2603.6
789.6227,9888.9
790.1616,834.9
790.538,733.7
790.5737,20830.5
790.6248,345.2
791.0507,840.3
791.4909,164.8
791.5313,764.2
791.5766,5622.1
791.8473,327
792.1656,128.7
792.2091,110.6
792.4866,314.9
792.5537,1866.9
792.5913,12784.2
792.7214,24
792.9959,239.4
793.206,387.1
793.3085,210.1
793.3337,167.4
793.4601,398.7
793.5638,674.7
793.5943,5162.8
794.0512,138.1
794.0654,99.4
794.5126,2664.6
794.569,9581.6
794.6074,40038.2
795.1587,241.9
795.3758,218
795.5731,312.8
795.6108,19991.4
795.8386,176.7
796.3877,104.8
796.5266,116344.1
796.5863,9712.6
796.6236,5149.9
796.7727,332.9
796.9025,227.7
796.9804,343.6
797.1891,681.8
797.2842,738
797.4386,544.3
797.5299,50902.9
797.5898,1363.1
797.6253,1759.4
797.7181,1600.3
798.049,128.5
798.2185,146.8
798.344,156.5
798.3941,841.7
798.4334,97.5
798.5434,32505.2
798.6036,2062.4
798.6668,115.3
799.0008,588.7
799.1613,993.8
799.3508,119.2
799.4244,227.5
799.4857,117.6
799.5465,11919.8
799.603,556.8
799.6673,227.8
799.7995,236.9
800.1939,549.1
800.6276,343.1
800.6718,284.2
801.1553,662.4
801.4026,158.6
802.0443,828.5
802.3103,21.7
802.537,36398.2
802.66,874.3
802.9423,136.1
802.9585,415.9
803.4358,341
803.541,14362.7
804.0436,93
804.199,159.9
804.4131,746.9
804.5528,325280
804.7247,760.1
804.8796,202.9
805.2055,283.2
805.5561,149965.5
805.6425,732.8
805.7295,138.2
805.7642,439.4
805.9783,207.2
806.1776,180.4
806.3675,970.4
806.477,351.4
806.5057,135.4
806.5699,403101
806.7948,587.6
806.8535,256.1
807.2049,702.5
807.243,503
807.3629,121.6
807.4209,19.4
807.5732,192377.8
807.8791,178.3
807.9873,99.3
808.0288,175.2
808.1796,154.8
808.586,220240.2
808.6347,535.1
808.8565,141.9
809.589,115497.8
809.6522,97.1
810.6028,151232.7
810.7165,140.8
810.9843,486.7
811.3432,702.8
811.485,103.8
811.6055,80877.9
811.6705,10065.2
811.7942,212.6
811.9245,400.2
812.0443,1789.3
812.3357,905
812.4387,381.1
812.462,353.8
812.6196,41631.7
812.6729,3809.9
812.832,185.6
812.9642,95.8
813.0528,131.6
813.5621,193.6
813.6215,21360.3
813.6869,4040.8
813.74,347.3
813.912,497.9
814.0983,730.6
814.1626,383
814.1825,368.3
814.3491,420.5
814.3963,128.4
814.4841,179.4
814.5341,128
814.5749,2476.1
814.6232,1338.2
814.6891,1410.3
815.0287,675.1
815.1231,102.7
815.2848,454.6
815.5715,176.2
815.6005,372.4
815.7073,118.9
816.0298,601.5
816.1725,358.5
816.209,1575.5
816.5891,17903.9
816.6437,250.3
816.9412,545.2
817.592,4011.4
817.7396,904.5
818.1292,133.1
818.4438,159.8
818.5124,614.9
818.5689,692.1
818.6067,4360.2
818.745,660.4
818.7579,838.9
818.8606,745.6
819.3605,376.6
819.5113,355
819.6099,825.9
819.8199,658.2
819.8749,379.9
819.9687,339.2
820.0334,322
820.0918,175.2
820.3219,202.1
820.3647,21.2
820.5267,49041.9
820.5867,487.6
820.6243,1222.2
820.7625,438.3
820.8192,2066.6
820.8864,625.3
821.2963,144.8
821.4779,93.9
821.5297,22969.8
821.5888,143.1
821.6242,595.7
822.0904,209.3
822.2172,796.9
822.315,504.8
822.4395,788
822.5431,30971.8
822.6577,643.3
823.15,142.3
823.5466,12942.9
823.7772,201.1
824.1961,511.5
824.5584,18922.9
824.644,443.1
824.7645,733.4
824.8363,767.7
825.5622,5959.1
825.5944,218.7
826.0309,572.4
826.0546,664.8
826.2264,1225.1
826.5393,1386.2
826.9966,915.1
827.5244,1181.6
827.9983,18.3
828.2547,766.4
828.2938,1170.9
828.3324,98.6
828.3535,101
828.5528,112557.8
828.641,1169.6
828.7051,566.9
829.556,57055.1
829.919,106.3
829.9499,394.7
830.0725,420.8
830.1125,124.8
830.2887,121.7
830.3706,772.9
830.4136,203.7
830.5698,52539.2
830.7275,24.3
830.7593,172.6
830.9234,789.5
831.0691,99
831.1493,245.3
831.304,170.6
831.4014,23.6
831.4421,596.4
831.518,381.9
831.5723,26963.7
832.0575,164.5
832.1522,286.6
832.2746,20.9
832.585,71571.6
832.837,403.4
833.5879,36449
833.6524,1160.3
834.1676,1009.7
834.6021,44931.5
834.6869,247.9
835.3767,585.2
835.6051,20969.1
835.6906,272.3
835.7405,508.4
835.7634,155.5
836.2894,20.5
836.397,88
836.4672,19.3
836.552,245.4
836.6201,3129.9
836.7112,176.7
836.8368,177.9
837.0944,716.6
837.1284,702.7
837.5129,119.1
837.621,806.7
837.8039,904.4
838.3375,281.3
838.5185,770.4
838.5432,98
838.5716,20.9
838.9065,211.6
839.0665,92.2
839.2956,293.8
839.5491,359
839.8497,92.4
839.9388,134.9
840.2161,428.3
840.6925,130.7
840.7504,661.7
840.7959,585.7
840.8289,190.5
841.0034,174.8
841.5985,393.3
841.7222,273.8
841.7945,399.6
841.943,371.1
842.0707,889.1
842.1313,20
842.3091,966
842.5532,108.8
842.6165,132.5
842.6728,414.1
842.7272,350
843.5651,104.2
843.8308,968.1
844.5262,15668.3
844.6819,456.4
844.9328,20.2
845.0954,21.5
845.1257,1939.8
845.1571,87.1
845.2548,112.9
845.2822,599.4
845.5299,5036.9
845.6493,469.1
845.8977,1168.2
846.0345,500.5
846.0623,330.9
846.187,18.9
846.3141,163.9
846.5436,4712.1
846.6392,215.1
846.8788,326.7
846.964,468.4
847.5441,1562.4
847.637,322.7
847.9356,434.9
848.1486,200.9
848.1816,112.2
848.2103,761.1
848.3127,762.4
848.5573,5536.9
848.6669,398
848.9042,168.9
849.5479,609.6
849.5746,1878.6
849.8678,405.2
850.1353,860.5
850.2942,149.2
850.3771,162.4
850.4912,426.6
850.5617,524.7
850.9536,83.1
851.1541,1014.2
851.2447,283
851.5321,524.5
851.7813,276
851.8538,324.1
851.8719,520.8
852.0786,285.4
852.1073,380.9
852.2972,124
852.399,86
852.4472,196.9
852.6264,714.6
853.1829,365.1
853.4411,267.5
853.534,792.4
853.7794,2716.1
854.09,555.7
854.1329,206.8
854.3158,148
854.3535,97.7
854.5148,125.8
854.5687,3264.1
855.1549,24.2
855.3941,195.4
855.4328,490.1
855.5709,156.2
855.6713,105.3
855.6865,106.4
855.9136,388.3
856.3362,763.3
856.5855,8009
856.9063,184.3
857.2128,559.4
857.2662,498.4
857.3613,209.5
857.5885,1313.1
858.4953,118.8
858.5714,148.6
858.5997,255.8
859.3489,1091
859.5221,471.5
859.6811,141.9
859.7171,110.4
859.733,124.1
859.788,200.8
860.1686,149.5
860.2569,2192.9
860.293,358.9
860.4931,1320.2
861.1324,1008.4
861.2946,132.8
861.3994,162.6
861.8363,660.3
862.0095,165.5
862.131,131.1
862.2114,168.1
862.6034,100.6
863.0206,1286.5
863.3448,379.9
863.5311,555.9
863.7056,89.1
863.8349,122.6
864.009,135.8
864.425,257.3
864.5268,129.5
864.6832,182.7
864.7848,483.7
864.8537,215.2
864.9869,702.4
865.1472,379
865.4291,665.9
865.6713,572.1
865.955,217.3
865.9944,852.7
866.0774,775.4
866.1146,372.9
866.1974,18.8
866.3198,96.2
867.1528,416.6
867.2823,20.3
867.8964,1549.5
868.5348,95.9
868.5654,93.2
868.7983,118.2
869.3102,106.3
869.4326,1535.3
869.4897,766.4
869.6224,124.1
869.7055,2113.7
869.8609,24.7
869.888,1343.8
869.9621,617.5
869.9908,369.3
870.0344,22.4
870.0608,1198.9
870.0828,441.1
870.1176,756.4
870.172,1305.7
870.2059,1416.4
870.2251,2667.2
870.273,3476.5
870.3232,1500.6
870.3532,1577.2
870.3934,1296.7
870.4227,1254.5
870.4619,1640.2
870.4795,1888.5
870.5252,1403.5
870.6492,607.6
870.8241,1334.9
871.343,863.2
871.5547,526.7
871.8293,320.8
872.1822,213.6
872.5371,732.4
872.7366,118.9
873.2742,552.2
873.3902,381
873.7344,728.8
874.0499,115.5
874.4487,138.1
874.5584,723
874.6502,392.9
875.012,86.8
875.9403,353.2
876.8461,186.2
877.1516,308.1
877.2281,1309.3
877.3556,699.2
877.4381,1038
877.7923,161.1
878.6783,111.5
878.9078,321.7
879.15,89.4
879.4246,932.2
879.4841,22
879.5631,556.9
879.7791,248.4
880.4206,423.3
880.5159,310.9
880.6091,194.7
881.2478,122.4
881.3482,243.6
881.6627,210.2
881.8984,119.7
882.0541,1393.6
882.2334,269.6
883.3392,471.3
883.5911,250.5
884.0673,390.7
884.4593,163
884.6787,166.5
885.0135,600.3
886.8152,1023.7
887.0086,1713.2
887.1642,19.8
887.4262,113
887.9391,896.8
888.3133,619.7
888.5666,667.2
889.2476,175.1
889.3561,166.9
889.9205,161.2
890.0344,1842.2
890.1901,168.4
890.3308,213
890.4503,2112.8
890.5603,1449.8
890.7789,363
890.9676,537.2
891.0315,518.3
891.3107,189.9
891.6809,249.2
891.7679,287.2
891.9678,536
892.0049,235.8
892.1943,114.3
892.315,18.4
892.4652,878.2
893.2634,484.9
893.3532,113.8
893.3812,117.7
893.6234,687.1
894.0705,288.1
894.3523,822.8
894.4687,658.9
894.8333,133.8
894.9679,229.6
895.3969,394.3
896.1166,111.1
896.5364,1103.2
896.9492,632.9
897.0821,142
897.2277,118.6
897.4108,19.7
897.6652,22.3
897.7539,201.1
897.8269,1202.2
897.9682,169.5
898.7151,1349.1
898.7817,21.5
898.9285,124.6
899.3991,186.7
899.5764,402.3
899.7921,87.9
899.8436,256.6
900.1085,547
900.1166,532.9
900.161,485.3
900.2114,255.4
900.338,782.6
900.4554,1130.5
900.6452,556.8
901.0418,1736.8
901.2162,414.8
901.5275,114.8
901.8717,213.2
901.8991,658.9
902.1346,317.2
902.163,19.8
902.2216,189.9
902.3053,443.1
902.3485,838.5
902.673,84.1
902.9202,261.6
903.4809,694.5
903.6097,17.9
903.7789,106.7
903.9005,180.9
903.98,494.4
904.3492,107.7
905.0223,1008.3
905.1098,450.6
905.3299,395.9
905.4436,1241.3
905.489,213.5
905.7961,491
905.8281,824.9
906.1736,580.6
906.6082,1718.5
906.7735,1400.5
907.0325,550
907.1321,1160.2
907.1439,1162.6
907.2156,923.2
908.0474,783.6
908.3218,282.2
909.0134,1160.1
909.5742,1056.3
910.1261,551.9
910.1325,550.4
910.4742,132.3
910.892,1224.8
912.0902,159.8
912.5852,140.4
912.6586,281.2
912.9753,1992
913.0163,1438.7
913.1375,389.5
913.1891,122.6
913.4416,1177.6
913.9582,138.6
914.5127,647.7
914.7855,628.1
914.9156,939.8
914.958,592.1
915.1278,1103.8
915.3356,86.2
915.6361,822.5
915.7659,2306
915.8528,928.9
916.1676,530.9
916.5244,567
916.6394,129
916.9563,174.4
917.5021,612.5
917.5762,773.5
917.6355,87.1
918.499,452.7
919.2319,164.9
919.6381,701.3
919.7535,20.3
919.8063,473.5
919.9253,1031.8
921.1375,619.1
921.6512,213.6
922.0857,392
922.5932,125.3
922.9149,1025.9
923.3257,91.3
923.5518,18.6
923.6115,1185.1
923.972,916
924.0023,912.1
924.0324,618.9
924.0853,242.4
924.3129,836.7
924.4341,620.4
925.8638,348.4
926.2399,1158
926.2879,691.8
926.3102,311.9
926.4363,100
926.4755,402.3
926.7835,89.3
927.0905,1124.5
927.5739,447.8
927.642,311.5
927.8235,378.6
927.86,124.7
928.0413,467.4
928.1892,595.3
928.2943,103.4
928.83,1660.9
929.2832,1258.5
929.4144,555.9
929.8217,130.5
930.1079,491.7
930.2558,177.1
930.3685,644.1
930.4248,946.8
930.8348,112.5
930.8737,364
931.0114,750.8
931.1725,317
931.3542,837.3
931.4701,115.4
931.5099,1551.8
931.5704,788.9
932.1374,168.6
932.2011,1273.6
932.3545,418.5
932.4965,91.9
932.5247,96.3
932.6269,19.6
932.7928,487.3
932.974,85.3
933.0002,108.1
933.2008,796.7
933.8583,93.8
934.8755,553.2
934.9257,106.8
934.9504,138.6
935.119,1105.1
935.2471,20.3
935.5005,494.6
935.5758,113.9
935.8839,169
936.0887,196.2
936.3014,21.7
936.334,451.5
936.4745,92.4
936.5039,527.1
936.6316,157.1
937.0578,1688.3
937.3002,429.3
937.4029,157.8
937.4864,1507.8
937.8746,145.6
937.9152,194.2
938.0522,169.1
938.5868,120.7
938.7266,834
938.7981,731.6
939.0177,312.9
939.0613,349.8
939.9195,466.1
940.0704,603
940.357,793
940.4408,261.4
940.4971,838.3
940.5735,126.1
940.628,135.1
941.4278,351.3
941.4909,635
942.0826,526.9
942.4549,19.1
942.4872,440.2
942.5239,436.4
942.7067,993.3
943.0631,512.9
943.2268,292.5
943.3809,157.2
943.8168,99.8
943.8773,371.1
944.2397,95.4
944.617,591.8
945.1057,617.2
945.1989,721
945.2251,602.4
945.4651,686
945.7628,19.2
945.9195,395.4
945.9527,711.7
946.1129,861.8
946.3554,160.2
946.4869,772
946.9054,20.2
947.3568,810.5
947.6773,480.2
947.7865,1047.3
948.1305,587.9
948.2192,589.2
948.8042,277.3
948.8628,294.3
948.9128,525.3
949.0326,204.1
949.5693,935.8
949.8315,810.2
950.1692,1036.4
950.2436,116.2
950.2705,20.7
950.3602,361.1
950.5269,122.7
950.6721,1538.1
950.9104,17.1
951.0078,110.2
951.4159,143.1
951.5502,1243.2
951.7281,372.3
951.9605,212.1
952.0376,901.3
952.3196,110.8
952.607,149.1
952.6454,167.4
952.7645,923.5
952.8752,696.1
953.2283,378.2
953.2802,698.5
953.5118,639
953.5373,556.1
953.7047,172.4
953.7999,1031.7
953.9082,697.7
953.9936,890.9
954.0424,911.2
954.0767,24.3
955.3668,558.3
955.3873,670.9
955.6427,656.1
955.8119,621.7
955.8516,424.8
955.8848,484.1
956.0873,124.3
956.5109,2121.5
956.5687,451.6
956.6912,1019
956.799,509.2
957.0122,289.4
957.1407,90.1
957.2681,731
957.3134,350.7
957.4899,163.9
957.6849,680.5
958.0568,743.7
958.0989,454.9
958.2605,115.8
958.3583,83.8
958.3686,86
958.555,188.2
958.665,361.6
958.9926,19.2
959.1456,1028
959.1949,662
959.4699,1321.7
959.6399,173.1
959.9661,223.2
960.0884,629.7
960.2251,404.8
960.4223,20.8
960.495,260.2
960.5423,645.9
960.8107,1767.5
960.8637,479.4
960.9331,578.7
960.994,981
961.2509,779.8
961.4433,1152
961.7009,353.8
962.1851,1540.4
962.6403,305.7
963.1147,424.3
963.1605,1153.3
963.1901,1651.3
963.4402,664.9
963.7623,93.1
963.8015,162.7
964.396,1135.2
964.5789,19.3
964.8725,182.8
964.9307,722.2
965.1268,1417.8
965.1777,196
965.2063,919.7
965.2531,880.5
965.31,113.4
965.5778,495.4
965.5885,410.4
965.714,130.1
965.8088,282.9
965.9899,1078.2
966.0431,1497.9
966.1341,1292.7
966.3775,750.9
966.4338,344.7
966.9385,88.2
966.9917,2208.8
968.161,22.3
968.3422,566.7
968.7938,601.5
968.8865,251.3
969.0946,355.4
969.249,1359
969.5555,1216.9
969.572,1117.3
969.7151,514.4
969.8808,857.3
970.6804,678.9
970.8107,694.6
971.2759,871.8
971.379,1201.7
971.4609,369.6
971.6918,231
971.8004,98.2
972.1135,109.7
972.224,22.3
972.5019,312.3
972.5606,351.5
973.113,134.7
973.2801,489.1
973.3236,376.4
973.6144,803.7
973.6737,136
973.8791,387.4
974.0824,956
974.0989,1016.7
974.2906,104.5
974.3549,154.9
974.5385,1430.5
974.7474,687.3
974.9874,490.1
975.0526,647.1
975.1223,803.2
975.204,665.4
975.3711,559.1
976.1102,19
976.4934,282.6
977.3206,159.5
977.6963,516.4
978.1579,177
978.2034,103.6
978.2425,239.9
978.334,114.8
979.121,664.1
979.1651,207.6
979.3957,833.1
979.7363,648.5
980.5707,710.5
980.644,532.6
981.249,86.8
981.4817,521.6
981.9082,446.4
981.9895,315.3
982.3763,237.7
982.7067,715.1
982.8113,1557.1
982.9196,958.7
983.3156,2006.3
984.0027,334.3
984.0474,844.2
984.1347,112.4
984.3582,1258.7
984.6538,134
984.9377,135.8
985.6881,891.9
985.7226,93.7
985.7899,635
985.9895,118
986.1261,380
986.2613,896.3
986.3333,254.7
986.3895,575
986.6208,732
987.1885,122.3
987.6703,1216.1
987.8765,20.1
987.964,160.1
988.2473,151.5
988.4412,795.4
988.5955,313.6
988.8789,164.4
988.9345,640
989.05,105.4
989.0958,428.4
989.21,1028.9
989.5325,379.6
989.6134,417.2
989.7845,197.2
990.1373,994.9
990.3225,1084.3
990.5816,212.1
990.5883,213.7
991.0614,305.7
991.6784,179.3
991.766,111.9
992.13,459.2
992.4237,373.8
992.4819,104.5
992.5334,323.5
992.5775,23
992.6157,132.4
992.7756,449.6
992.9268,160.6
993.5409,85.5
993.9599,220
994.1193,634.7
994.309,841.2
994.5704,213.5
994.6642,156.8
995.4916,155.1
995.5104,154
995.5513,766
995.7505,1379.9
995.8763,1415.6
995.9186,669.6
996.2958,403.2
996.4998,470.5
996.8317,721.9
997.4408,1006.8
997.5628,135.6
997.7874,1316
997.8547,721.8
998.0437,105
998.9002,158.5
999.0493,690.8
999.0882,599.2
999.1372,153.8
999.4098,736.5
999.5695,127.1
