SPECTRUM - MS,
842.RAW,
FTMS + p ESI Full ms [50.00-1000.00],
Scan #: 1-40,
RT: 0.01-1.98,
AV: 40,
m/z,Intensity

50.0035,201.9
50.0149,131.2
50.0185,193.3
50.0195,65.5
50.0222,18.4
50.0333,419.1
50.0352,118.8
50.0575,97.3
50.0669,117
50.0724,668.1
50.0847,114.1
50.0917,276
50.1136,79.3
50.1151,493.9
50.1186,284.3
50.1987,324.5
50.2102,114.8
50.2221,17.7
50.2302,195.2
50.2308,16.3
50.2421,135.6
50.2487,567.9
50.2624,134.8
50.2648,376.9
50.2686,430.2
50.2725,96.2
50.2732,157.2
50.2739,362.7
50.2759,110.1
50.2776,107.9
50.2819,531.3
50.2842,188.1
50.2945,761.6
50.3013,86.4
50.3049,88.7
50.3072,209.4
50.3274,129.5
50.3311,17.9
50.3327,586.8
50.3398,132.4
50.3845,147.1
50.401,642.7
50.4189,93.1
50.4359,422.6
50.4374,137.6
50.4421,133.5
50.4497,272.8
50.4699,380.4
50.4971,19.7
50.5063,462.8
50.5277,653.3
50.5318,226
50.5341,273.4
50.5604,163.7
50.5731,220.5
50.5935,534
50.6119,90
50.631,129
50.6351,98.2
50.6798,154.3
50.6841,394.5
50.7173,97.6
50.7178,139.3
50.7324,330.9
50.7565,83.6
50.7567,91.5
50.7575,80.4
50.7601,19.9
50.7605,189.5
50.7737,64.1
50.7748,156.9
50.7847,131.6
50.7888,186.4
50.8085,344.8
50.8198,265.5
50.8395,417.3
50.8402,216.9
50.8587,70.4
50.8642,97.4
50.8651,16.9
50.8698,88
50.8773,97.9
50.8794,495.7
50.8978,400.8
50.9038,276.9
50.9108,103.4
50.9295,144.9
50.9361,214
50.9487,75.9
50.965,251.7
50.9685,613.5
50.9764,491.9
50.9802,76.6
50.982,170.8
51.0006,250.6
51.0015,140.6
51.0033,118.8
51.0219,16.5
51.0349,169.6
51.0682,17.2
51.0705,253.3
51.0783,88.3
51.0887,231.2
51.115,360.8
51.1274,333.3
51.128,361
51.1305,315.5
51.1539,121.3
51.1582,139.5
51.1656,93.8
51.1838,303.4
51.1854,79
51.1918,664.2
51.2,91.4
51.2134,18.3
51.2261,207.9
51.2298,228.2
51.2414,437
51.2583,15.8
51.271,281
51.2719,256.6
51.2761,136.2
51.2851,95.2
51.2918,85.7
51.3031,243.9
51.3047,16.2
51.3077,16.6
51.3142,18.8
51.3188,92.5
51.35,107.5
51.3507,184.4
51.3554,176.4
51.358,312.3
51.3592,66.3
51.3818,148.1
51.3864,472.1
51.3902,260.2
51.4303,41.2
51.4377,19
51.4438,18.7
51.4502,17.1
51.4596,17.5
51.4657,15.8
51.4729,311.9
51.4826,504.8
51.4956,107.2
51.5076,17
51.5247,369.9
51.5389,71.3
51.5411,313
51.5491,408.8
51.5684,77.8
51.5706,139.5
51.5825,225.2
51.5892,218.2
51.6013,91.6
51.6104,114.2
51.6136,249.4
51.6142,164.7
51.6166,297.2
51.6281,237.1
51.6393,21.9
51.6499,239.7
51.6565,237.2
51.6598,449.2
51.671,16
51.7126,38.2
51.7164,18.3
51.7201,335.7
51.7575,290.4
51.7723,402.6
51.7839,69.7
51.8165,401.9
51.8324,163.4
51.8536,498.4
51.862,264.4
51.8666,95
51.889,239.6
51.8983,20.1
51.9178,309.9
51.9208,315.1
51.9267,485.2
51.9316,16.7
51.9328,282.1
51.9386,165.7
51.9442,340.5
51.9629,86.8
51.9725,247.4
51.977,156.2
51.9794,88.5
51.9848,160.1
51.9989,660.4
52.0271,179.5
52.0429,434.7
52.0474,69
52.0483,85.5
52.0524,121.5
52.0607,326.7
52.0754,89.4
52.0775,201.3
52.0789,290.8
52.0797,16.8
52.0888,220.5
52.0929,140.4
52.125,305.4
52.1376,223.5
52.1441,121.3
52.1746,130.1
52.1834,336.1
52.2109,15.8
52.2156,94
52.2159,325.3
52.2396,91.9
52.2465,108.3
52.2487,23.4
52.251,212.7
52.2615,19.3
52.2624,119.8
52.2627,457.8
52.2669,381.3
52.268,18.8
52.2729,250.2
52.2756,222.6
52.2783,42.7
52.2866,171.8
52.2944,166.4
52.3021,413.7
52.3031,144.5
52.3106,513.3
52.3274,99.9
52.3467,66.7
52.353,374
52.3612,103.4
52.3642,436.2
52.3793,109.3
52.3872,65.1
52.3967,121.6
52.4125,513.6
52.4186,67.2
52.4346,639.7
52.4406,17.3
52.4431,471.3
52.4544,415.4
52.4704,365.9
52.4853,300.1
52.5128,142.6
52.5145,15.3
52.5388,250.1
52.5394,108.6
52.5405,560.2
52.5407,536.7
52.5454,131.3
52.5514,473.6
52.5544,247.1
52.5677,141.6
52.5693,16.9
52.5729,127
52.5745,342.9
52.5868,264
52.5914,99.5
52.5945,85.8
52.6018,116.4
52.6022,16.3
52.617,88.4
52.6184,171.1
52.6252,147.6
52.6342,17
52.6433,82.2
52.6443,16.5
52.6453,601.1
52.6529,93.2
52.6536,251.9
52.6738,337.3
52.6815,499.9
52.6908,16
52.7011,191.7
52.7019,108.2
52.7131,15.7
52.7468,111.6
52.7474,84.6
52.7652,159.3
52.7656,115.4
52.7761,673.5
52.7819,96.4
52.7872,27.6
52.7897,1929.7
52.7901,679.5
52.7906,565.4
52.7916,562.6
52.7923,889.5
52.7932,793.1
52.7938,284.9
52.7949,256.2
52.7955,224.1
52.8089,450.6
52.8095,346.4
52.8103,514.7
52.811,16.3
52.8182,128.8
52.8206,124.2
52.8257,257.6
52.8522,546.5
52.8702,315
52.8907,170.4
52.9124,139.8
52.9253,18
52.9465,534.2
52.9483,412.6
52.9507,102.5
52.9543,453.8
52.9665,185.6
52.9704,287.1
52.9785,17.8
52.9798,299.8
52.9866,104.2
52.9907,72.9
53.0003,423.9
53.0113,209.1
53.012,106.4
53.0232,100.1
53.0377,166.7
53.0434,37.9
53.0648,335
53.0693,666.6
53.0753,17.9
53.0794,279.9
53.0825,619.7
53.0963,371.5
53.0979,759.5
53.0992,98.7
53.1035,646.6
53.1061,74.1
53.1199,81.7
53.129,123.2
53.1361,17.8
53.1381,97
53.1543,398.1
53.1603,17.7
53.175,111.7
53.1888,37.1
53.2374,312.2
53.239,90.6
53.2434,750.2
53.2467,130.6
53.2518,91.6
53.2594,19.4
53.27,81.3
53.2764,339.7
53.2832,88.7
53.286,447.1
53.3111,151.5
53.3183,254.5
53.3322,333
53.3356,19.2
53.3463,135.6
53.3475,101.5
53.3549,527.1
53.3718,107.7
53.3786,573.5
53.3813,112.1
53.3846,634.5
53.4087,242.3
53.4254,359
53.4294,134.2
53.4505,229
53.4606,94.4
53.4691,198.2
53.4744,19.7
53.4781,253.8
53.4908,366.2
53.5097,294.7
53.5124,75.2
53.5313,116.7
53.5391,128.4
53.5633,176.9
53.5672,79.2
53.5906,384.4
53.5971,109.5
53.6045,332.8
53.6158,89.2
53.641,283.2
53.6424,108.7
53.6684,301.8
53.6974,156
53.7103,255.2
53.7215,352.4
53.7261,103
53.7283,171.3
53.7367,29.2
53.7373,14.7
53.7447,169.3
53.7651,86.8
53.7695,128.7
53.7722,69.3
53.7777,227.9
53.8013,441
53.8078,522.7
53.8302,120.7
53.8341,198.4
53.8391,323.6
53.8402,137.5
53.8492,193.3
53.8693,39
53.8744,252.1
53.8765,466
53.8802,125.6
53.9052,102.7
53.9087,413.6
53.9092,255.1
53.9102,17.3
53.9153,633.1
53.9305,146.3
53.9368,151.7
53.9425,173.9
53.9554,81.3
53.9557,174.2
53.9729,190.5
53.9829,296.2
53.9839,172.4
53.9962,98.9
53.9991,190.4
54.0072,504.8
54.0169,20.2
54.0175,40.6
54.0363,461.1
54.0416,297.3
54.0571,156.6
54.0974,126.6
54.1144,93
54.1199,137.2
54.1413,154.5
54.1511,487.5
54.1618,174.9
54.1857,16.9
54.205,91.4
54.2058,439.7
54.2184,67.9
54.2328,83
54.2333,77.6
54.2703,74.7
54.2733,475.5
54.2764,441.7
54.2788,126.2
54.2799,17.4
54.2926,281.5
54.2971,489.6
54.3046,40.9
54.3078,103.8
54.3225,471.9
54.324,373.2
54.3272,430.4
54.3298,597.4
54.3421,197.5
54.3438,510.8
54.3441,550.1
54.3478,424.1
54.3483,74.7
54.379,322.5
54.3856,159.1
54.4098,353.1
54.4152,111.3
54.4324,302.5
54.4401,71.3
54.448,18.5
54.4518,645
54.4569,208.6
54.4645,120.6
54.4683,16.3
54.4791,331.3
54.5035,101.5
54.509,152.4
54.5153,258
54.5159,335.6
54.5182,16.8
54.5347,16.3
54.5436,804.5
54.5528,111.4
54.5813,163.7
54.5934,192.8
54.6019,98.6
54.6146,101.9
54.628,381.2
54.634,17.3
54.6437,17.7
54.6544,19.2
54.6579,126.8
54.6709,129.5
54.6785,154.4
54.6884,271.3
54.7072,120
54.7096,257.9
54.7172,87.1
54.7255,280.6
54.7409,286.5
54.7431,18.2
54.7527,485.2
54.7892,105.1
54.8029,94.2
54.853,18.5
54.8964,78
54.9218,194.9
54.9234,454.3
54.9447,68.5
54.9459,116.1
54.9487,446
54.9525,300.9
54.9542,459.3
54.9595,323
55.0038,83.2
55.012,151.4
55.0227,163.4
55.03,225.5
55.0358,101.5
55.0481,73.8
55.0727,614.8
55.0891,251.3
55.096,115.4
55.099,484.4
55.1194,320.5
55.1331,281.9
55.1607,41
55.1939,83.2
55.2135,235.7
55.2278,19.2
55.2316,521.8
55.2373,145.8
55.2629,339.1
55.2642,16.5
55.2715,271.3
55.2733,16.8
55.2747,121.4
55.284,262.7
55.2959,88.4
55.2963,138.7
55.3366,308.2
55.3491,18
55.3666,66.3
55.3705,634.1
55.4054,108.8
55.4102,249.3
55.413,105.9
55.4341,194.3
55.4542,122.1
55.4684,476.1
55.4967,204.3
55.5278,100.6
55.5449,19.2
55.5518,158.5
55.5783,69.3
55.5844,589.3
55.5904,94.9
55.6062,294.3
55.6086,108
55.617,295.8
55.6259,356.7
55.635,157
55.6757,48.5
55.682,73.9
55.6836,100.7
55.6905,20.3
55.6983,15.4
55.7106,144.6
55.7126,154.6
55.7137,274
55.7315,17.7
55.7493,416.5
55.75,394.8
55.7539,18.6
55.7582,190.7
55.7603,183.8
55.7685,281.9
55.7968,473.3
55.8019,275.1
55.8131,314.9
55.8204,17.6
55.8631,251.8
55.8654,113.5
55.8661,144.5
55.8766,82.5
55.9141,85.9
55.9279,104.3
55.9375,74.1
55.9453,17.7
55.9478,112.2
55.9673,118.7
55.9865,305.9
56.0092,75.7
56.0105,107.7
56.013,74.4
56.0164,91.2
56.0289,16.6
56.0337,101
56.0493,82.5
56.0512,504.7
56.0575,261.2
56.0655,306.1
56.0788,444.5
56.0799,136.5
56.0877,182
56.0971,425.5
56.0996,143.9
56.1061,461.7
56.1085,419.3
56.1205,247.6
56.134,409.4
56.1362,34.8
56.1404,16
56.1646,68.3
56.1927,87.7
56.2299,160.2
56.2331,140
56.2362,94.7
56.2628,18.7
56.2758,85
56.2802,80
56.2816,75.1
56.3281,326.9
56.331,126.3
56.3457,19.9
56.3565,111.7
56.3594,441.7
56.3628,159
56.3667,306.3
56.4019,71.6
56.41,281.1
56.4119,147.2
56.4458,149.6
56.4527,127.2
56.4579,146.7
56.4591,18.1
56.4801,99.4
56.5125,347.4
56.5287,105.4
56.5291,87.2
56.547,126.7
56.5533,116
56.5618,149.7
56.5666,320.1
56.5683,185.9
56.576,462.5
56.5773,359.1
56.5888,405.5
56.5945,281.4
56.6006,329.4
56.6412,233.2
56.643,130.7
56.6529,16.1
56.6697,85.1
56.6992,160.1
56.7004,300.1
56.706,98.4
56.7278,17.7
56.7403,83.5
56.7487,84.1
56.7711,152
56.7839,77.2
56.7866,286.5
56.7893,97.6
56.7911,17.4
56.7965,37.5
56.8011,64.6
56.8058,582.7
56.8169,113
56.8294,131
56.833,229.4
56.8334,550.8
56.8345,83.7
56.84,390.1
56.8607,113.7
56.8741,465.5
56.8745,453.2
56.8764,177.2
56.8878,78.3
56.8935,463.9
56.9024,138.7
56.9104,92.8
56.9159,251.7
56.9181,303.7
56.919,98.4
56.9474,345.2
56.9562,79.6
56.9612,241.8
56.9746,84.4
56.9855,92.3
56.9919,15.4
57.0103,675.6
57.0215,302.4
57.0241,326.3
57.0457,474.8
57.0567,284.7
57.0753,75.9
57.088,105
57.0929,260.7
57.1061,183.3
57.1399,97
57.1428,109
57.1493,157.3
57.1544,293.1
57.1668,16.2
57.1718,17.7
57.1762,316.7
57.19,94.7
57.1983,215.6
57.2077,308.2
57.2161,39.5
57.2213,203.7
57.236,365.4
57.2533,65.9
57.2561,261.5
57.2713,125.8
57.2889,267.2
57.2907,335.5
57.3029,322.7
57.3075,717.3
57.3142,124.1
57.3524,74.6
57.371,78.1
57.3729,310.5
57.3733,308.5
57.38,72.2
57.383,533.4
57.4254,579.1
57.4319,380.6
57.466,16
57.4761,198.7
57.477,564.4
57.5108,314.8
57.5137,145.6
57.5294,122.5
57.5409,306.3
57.5439,163.3
57.547,349.4
57.55,76.5
57.5595,117.2
57.5663,86.2
57.5915,18
57.6409,84.4
57.6461,108.9
57.6488,136.1
57.6652,320.7
57.673,18.8
57.6776,68.4
57.6817,108.4
57.6845,15.7
57.6877,21
57.6957,367.5
57.7082,128.2
57.7098,98.1
57.7256,75
57.7453,43
57.7473,627.3
57.7658,94.4
57.7704,261
57.7728,608.6
57.7854,119.2
57.799,77.3
57.8035,379.4
57.8056,121.2
57.8094,137
57.826,178.4
57.841,247.6
57.8425,16.9
57.8634,131.9
57.8694,313.5
57.878,73.2
57.8807,239.9
57.8903,478.6
57.9032,532.7
57.9093,115.6
57.9201,426.2
57.9348,664.4
57.9447,17.9
57.9518,160.9
57.9685,100.7
57.971,91.1
57.9761,101.6
57.9886,440
57.9898,348.1
58.0015,184.7
58.0124,18
58.0133,195.4
58.0271,98.7
58.0552,87.2
58.0761,457.5
58.0838,268.7
58.091,158.5
58.1121,276.1
58.1163,93.3
58.132,262.1
58.1348,430.6
58.1384,154
58.1644,85.5
58.1647,96.9
58.166,162.5
58.1902,285.5
58.2032,16.1
58.2084,16.6
58.2245,109.5
58.2268,127.1
58.2342,633.5
58.2382,317
58.2515,72.4
58.2597,110.4
58.304,232.1
58.3104,553
58.3283,376.7
58.3516,147.7
58.3527,15.9
58.3574,229.1
58.3605,231
58.3681,129
58.3789,193.3
58.3806,76.7
58.382,576.9
58.4087,188.3
58.4101,91.2
58.4241,350.8
58.4334,448.1
58.451,78.1
58.4598,442.3
58.4749,17.9
58.5066,88.4
58.5105,342.6
58.5281,19.6
58.5305,325.4
58.5321,21.1
58.5344,36.7
58.5414,416.3
58.5476,338.8
58.5489,17.2
58.5618,18.8
58.5704,278.9
58.6293,355.8
58.6585,103.3
58.6604,129.8
58.6857,100.9
58.6861,89.3
58.6893,629.4
58.7002,144
58.7053,263.8
58.7248,458.6
58.7271,240.8
58.7291,337.6
58.7443,213.4
58.7455,238.9
58.759,468.1
58.7602,93.7
58.7666,18.1
58.7812,62.9
58.782,87.6
58.7872,125.6
58.7952,297.8
58.7983,82.8
58.8008,40
58.8037,14.3
58.8155,87.5
58.8468,175.7
58.863,689.4
58.8806,630.7
58.9009,444
58.9049,595.6
58.9073,105.9
58.9376,79.4
58.9466,424.8
58.9742,244.8
58.9803,394.6
58.9808,463.2
58.982,175.7
58.9895,107.5
59.0242,324.8
59.0304,17.1
59.031,16
59.0365,169.5
59.0407,264.9
59.045,20.5
59.0486,16
59.0663,147.4
59.0991,17.6
59.1073,337.1
59.1188,127.8
59.1388,44.8
59.1448,508.7
59.1511,39.7
59.1751,468.2
59.1754,469.7
59.1849,111
59.1891,804.3
59.2006,91.6
59.201,256.6
59.203,612
59.2045,17.9
59.2221,258.4
59.248,259.1
59.306,135
59.3486,15.8
59.3596,109.5
59.3607,79.5
59.3625,322.2
59.3767,253
59.3967,15.7
59.4091,15.2
59.4101,150.6
59.4106,363.5
59.4219,213.6
59.4317,259
59.4385,327.1
59.449,313.8
59.4644,571.8
59.4775,213.2
59.4799,16.3
59.4864,39.5
59.5065,289.9
59.5313,46.1
59.5325,100.4
59.5466,108.8
59.5508,474.3
59.5532,112.9
59.554,441.7
59.559,118.8
59.5678,424.7
59.5902,556
59.5955,399.3
59.6019,389
59.6046,118.1
59.6175,480.2
59.6326,286
59.64,120.1
59.644,84
59.6717,233
59.6883,42.9
59.6963,74.5
59.7204,338.4
59.762,124.4
59.7729,177
59.7808,200.4
59.7814,320
59.7913,140.8
59.7929,17.9
59.796,94.6
59.8106,18
59.823,92.1
59.8256,468
59.8378,325.6
59.8398,72.5
59.8624,294.6
59.8627,271.2
59.8682,622.8
59.8852,72.7
59.8874,319.9
59.8875,330.7
59.8915,118.6
59.9003,85.6
59.9166,281.6
59.9178,83.7
59.9531,96.2
59.9713,156.7
59.9789,39.4
59.9837,19.1
60.0059,91.3
60.0172,414
60.0242,278
60.043,268.8
60.062,310.5
60.065,518.8
60.0673,37.4
60.0727,15.6
60.0734,521.1
60.0752,76.7
60.0765,18.6
60.0956,209
60.1008,46.8
60.1035,19.2
60.1078,300.8
60.1376,20
60.1426,90.5
60.1446,502.6
60.1589,255.9
60.1898,77.3
60.1923,75.3
60.1964,525.5
60.2036,93.7
60.2364,95.8
60.2449,252.9
60.2838,113.8
60.2853,183.4
60.2976,17
60.3061,181.7
60.3196,199.8
60.3267,142.3
60.3656,353.6
60.3848,109.3
60.4027,510.2
60.4053,548.7
60.4307,259.9
60.4367,190.6
60.4543,526.3
60.493,470.5
60.501,75.8
60.5182,44.6
60.5191,160.4
60.5299,89.1
60.5325,18.3
60.5429,16.7
60.5786,84.7
60.5842,180
60.586,99
60.6014,284.4
60.6085,158.2
60.6382,16.8
60.6432,699.7
60.645,88.7
60.6679,263.1
60.6693,337.9
60.6738,961.6
60.6748,85.1
60.6971,143.5
60.7003,499.5
60.7036,211.4
60.7047,266.4
60.7222,573.3
60.7463,193.7
60.7718,16.1
60.7851,76.2
60.7973,102.1
60.8015,504.7
60.8028,99.8
60.8033,204.5
60.8037,662.6
60.808,408.7
60.8219,122.8
60.8329,19.4
60.8702,16.8
60.8746,140.7
60.879,446.5
60.8878,691.7
60.9241,314.9
60.9427,15.1
60.9602,77.6
60.9623,569.2
60.9783,384.7
60.9835,95.4
60.9866,529.1
60.993,397.1
61.0271,268.4
61.0451,110.1
61.0578,124.4
61.0632,140.7
61.0899,18.9
61.0966,530.9
61.0996,37.9
61.1131,556.8
61.1285,317.4
61.1295,503.3
61.1337,197.3
61.1352,198.4
61.1538,354
61.1723,17.7
61.1887,353
61.2146,551
61.2158,103.1
61.2355,593.4
61.236,288.6
61.2526,19.6
61.3035,119.5
61.3118,274.7
61.3194,17.1
61.338,141.8
61.3541,131.3
61.3598,80.3
61.3678,103.8
61.3858,248
61.4058,649.5
61.4124,422.4
61.4469,237.6
61.4486,710.3
61.4609,532.9
61.4629,343.1
61.4897,85.9
61.5322,103.4
61.5599,429.1
61.5622,17.1
61.5718,46.1
61.5737,116.9
61.5939,151
61.5991,636.6
61.5993,569.2
61.613,38
61.6254,118.6
61.641,107.4
61.6705,147.7
61.6727,440.2
61.6865,318.4
61.7157,96.5
61.7345,82.1
61.7663,91.1
61.7849,232.6
61.7967,314.7
61.8035,101.2
61.805,253.3
61.8146,459.8
61.8367,473.8
61.8506,17.3
61.8843,40.3
61.9022,325.4
61.9097,598.2
61.9208,121
61.9283,107.9
61.9384,509.9
61.9455,551.3
61.9499,117.3
61.973,406.9
61.9855,119.3
62.0053,288.4
62.0151,314.1
62.0226,506.1
62.0633,116.4
62.064,495.7
62.065,658.2
62.0872,148
62.0964,18.4
62.0986,312.1
62.103,471.2
62.1077,22
62.1258,403
62.1348,308.5
62.1616,141.6
62.1695,90.2
62.1716,136.8
62.1823,250.8
62.1915,366.7
62.1999,233
62.2014,311.8
62.2071,131.3
62.2088,298.9
62.2231,15.2
62.2303,572.8
62.2402,92.9
62.2444,84.9
62.3057,19.6
62.3253,125
62.3263,141
62.4084,17
62.4227,170
62.4308,144.8
62.4342,112.4
62.44,195.1
62.4405,156.5
62.452,156.3
62.4534,370.4
62.4613,18.9
62.4678,348
62.4699,495.3
62.4831,116.3
62.4899,535.8
62.5021,39.4
62.5178,437.4
62.5338,760
62.5378,139.2
62.5399,153.8
62.5409,351.5
62.5463,26.7
62.5497,390.4
62.553,510.7
62.5707,103.8
62.5841,132.7
62.5943,132.6
62.6094,102.2
62.6164,151.5
62.6229,490.2
62.7139,571.4
62.7227,261
62.7242,96.3
62.7673,299.5
62.7761,250
62.802,722.1
62.805,87.6
62.8094,591.2
62.8108,98.8
62.8252,106
62.8371,171.8
62.8417,15.4
62.8432,365.6
62.8521,18.3
62.8543,115
62.855,77
62.8846,155.7
62.9104,451.4
62.9223,244.9
62.9244,222.5
62.9306,531.3
62.9331,395.6
62.9369,130.3
62.9427,104
62.9436,43.6
62.9597,71.9
62.9724,621.4
62.9762,17.4
62.9923,488.8
62.9943,16.8
63.0148,446.6
63.0186,20.7
63.0295,467.6
63.0406,126.8
63.0484,315.5
63.0553,426.2
63.059,18.3
63.0708,91.5
63.0818,17.9
63.0877,283
63.0965,275.2
63.1022,145.2
63.1077,68.7
63.1166,713.6
63.1653,338.5
63.1666,459.8
63.182,190.8
63.192,540.4
63.1944,78.7
63.2019,267.1
63.2105,458.4
63.2388,227
63.2413,80.5
63.2589,309.2
63.2599,92.1
63.2615,72.8
63.272,249.3
63.287,601.6
63.2984,191.1
63.3045,111.7
63.3054,285.9
63.3094,129.4
63.326,125.4
63.3336,554.7
63.3758,356.2
63.4008,281.1
63.4017,84.9
63.4106,68.4
63.4204,193.9
63.4226,108.1
63.4474,677.8
63.456,83.8
63.4579,551.7
63.459,300.7
63.4769,17.7
63.488,116.7
63.4936,95
63.5119,95.1
63.5266,519.3
63.5329,183.4
63.5348,19.2
63.5489,465.1
63.5799,354.8
63.5819,153
63.5868,116.9
63.5886,147
63.5991,529
63.6031,286.6
63.6039,97.8
63.6068,130.5
63.6155,158.2
63.654,102.8
63.6732,415.3
63.6835,44.2
63.6953,662.2
63.7032,542.5
63.7363,476.9
63.7426,67.8
63.7437,243.2
63.7573,74.2
63.7795,106.3
63.8184,441.7
63.8278,298.5
63.8372,256.8
63.844,18.4
63.8462,17.5
63.8939,92.7
63.8948,123.8
63.9012,96.2
63.9072,168
63.947,567.9
63.9493,95.8
63.9563,425.5
63.9582,484.7
63.9651,164.2
63.9662,286.2
63.9796,20.6
63.988,117.4
64.0023,71.7
64.0058,188.3
64.0118,283.7
64.0124,107.8
64.0165,108.4
64.0202,764.1
64.0234,108.7
64.0288,19.8
64.0324,15.6
64.0415,389.8
64.0443,451.2
64.0593,335.1
64.0876,619.7
64.1018,153.9
64.1383,297.6
64.1682,443.7
64.1708,174
64.1721,572.4
64.202,165.1
64.2213,101.3
64.2582,303.1
64.2811,700.8
64.2875,402.7
64.306,257.9
64.3102,97.5
64.3151,538.3
64.3272,344.6
64.3362,96.7
64.3391,19.6
64.3433,45.7
64.356,218.4
64.3798,20.1
64.3862,39.8
64.3882,19.7
64.3976,344.8
64.4011,75.6
64.406,437.2
64.4162,273.1
64.4313,168.2
64.4331,85.6
64.4462,78.5
64.4585,449
64.4714,151.3
64.4811,100.1
64.4863,266.4
64.49,417.1
64.4982,168
64.5314,16.1
64.5379,139.3
64.552,91.8
64.5528,282.7
64.5621,116.5
64.5651,254.2
64.5797,100.4
64.6,97.7
64.6098,17.1
64.6117,351.1
64.6148,88.4
64.6188,189.6
64.6425,87.1
64.646,132.4
64.6539,17.4
64.6851,300.5
64.6902,111.1
64.7198,127.8
64.7235,276.8
64.7255,101.4
64.7313,315.6
64.7392,118.3
64.7523,85.7
64.7641,160.8
64.8048,18.2
64.8119,80.6
64.8292,199.9
64.8397,17.1
64.8492,268.6
64.852,293.8
64.864,333.6
64.8667,405.6
64.8717,647
64.8969,274.2
64.9543,479.3
64.9699,471
64.9749,131.3
64.993,129.1
65.0275,432.7
65.028,163
65.0642,454
65.0755,462.4
65.0827,17.7
65.0881,88.2
65.1125,360.7
65.1242,481.7
65.1338,174.2
65.1531,179.4
65.1548,541.3
65.1554,351.9
65.1729,244.7
65.1752,483.7
65.1816,78.7
65.1875,280.5
65.1912,655.2
65.1993,334.6
65.2582,188
65.2608,663.6
65.2777,90.3
65.282,109.5
65.2832,40.7
65.2851,100.5
65.2889,245.7
65.2971,566.4
65.3407,530.8
65.3621,300.2
65.3677,483.4
65.3892,276.1
65.4275,106.6
65.4375,515.3
65.4488,108.7
65.4729,311.1
65.4735,136.5
65.4887,269.6
65.4948,306
65.501,103.5
65.52,309.8
65.5239,45.5
65.5292,307
65.5602,100.4
65.5713,544.9
65.5769,163.5
65.5786,556.1
65.6044,464.9
65.6205,21.7
65.6224,324.8
65.6258,670.3
65.6472,44.2
65.659,17.5
65.6783,384.2
65.6924,17
65.7022,202.7
65.7032,527.1
65.7176,169.9
65.7472,675.7
65.7514,16.7
65.7623,396.1
65.7629,20.9
65.7918,431.8
65.8073,83.2
65.815,140.8
65.8159,17.4
65.8273,236.6
65.8415,37.3
65.846,44.8
65.8657,203.7
65.8746,418.5
65.8934,298
65.8949,216.3
65.9151,342.7
65.9197,159.1
65.9294,16.6
65.9419,446.3
65.9549,42.2
65.9679,429
65.9697,371.9
65.9914,105.2
66.0132,19.2
66.0167,136.5
66.0193,77.9
66.0397,345
66.0439,526.6
66.0618,85
66.077,196.8
66.0902,304.2
66.0929,17
66.0952,78.1
66.0958,464.1
66.1,210.4
66.1033,523.4
66.1048,232.4
66.105,239.5
66.1225,724.7
66.1233,20.3
66.1245,17.2
66.1321,96.3
66.1369,17.8
66.138,286.4
66.1399,95.1
66.1504,153.8
66.1737,74.3
66.187,151.8
66.1878,167.4
66.1979,99.4
66.2412,547.1
66.2431,42.6
66.2438,394.9
66.2479,315.1
66.2627,432.8
66.2694,87.3
66.274,464.2
66.2845,391.2
66.2944,314.6
66.3017,155
66.3116,411.5
66.3128,17.6
66.34,208.7
66.3411,444.1
66.3464,17.6
66.3515,126.3
66.3669,513.4
66.3772,335.2
66.3966,467.5
66.4167,463.6
66.4238,156.1
66.425,204
66.4495,587.2
66.457,114.9
66.4692,507
66.4696,447.5
66.4721,40.8
66.4737,187.9
66.4776,152.2
66.4837,92.2
66.5179,700.8
66.5231,525.7
66.5438,204.9
66.5457,107.8
66.5565,286.5
66.5626,357.9
66.5926,180.8
66.6071,345.8
66.6082,304.7
66.6106,262.8
66.6154,248.7
66.6211,20.5
66.6217,17.1
66.6362,456.5
66.642,151.9
66.6442,128.6
66.6624,91.1
66.6644,366.4
66.6672,368
66.6679,168.7
66.6799,137.6
66.6874,18.9
66.7058,80.9
66.7351,296.8
66.7438,17.6
66.7762,508.6
66.7782,20.6
66.7981,95.6
66.801,92.2
66.8022,452.2
66.8161,119.2
66.8231,348.9
66.8483,241.4
66.8527,91.5
66.8598,20.7
66.8988,340.2
66.9212,174
66.9236,558.2
66.9261,349.4
66.9393,91.7
66.9399,312.5
66.9621,249.3
66.9707,299.6
66.9725,130.7
66.9905,114.3
66.9924,511.4
66.9975,101.1
67.001,119.3
67.0039,522.2
67.0066,44.5
67.0076,441.2
67.0351,78.3
67.0354,130.2
67.0355,122
67.0453,563.7
67.0539,50.2
67.0634,653
67.0723,189.9
67.0897,134.9
67.1121,19.9
67.151,467.6
67.1588,523.1
67.1756,320
67.1829,140.5
67.1846,711.8
67.2034,96.4
67.211,212.2
67.2132,91.8
67.2234,279.3
67.2442,404.1
67.2704,15.9
67.2728,154.1
67.2805,234.8
67.2911,584.8
67.2997,245.6
67.301,195.2
67.3055,228.6
67.3112,103.3
67.3195,767.4
67.3551,282.5
67.3929,276.8
67.3942,145.4
67.3966,405
67.3973,524.8
67.4169,81.3
67.4396,270.6
67.4503,16.5
67.4601,18.1
67.463,46
67.4679,456.7
67.4708,194.1
67.4882,221.8
67.5032,197.7
67.5319,266.4
67.534,417.4
67.5481,555.1
67.5729,17.7
67.5749,470.6
67.585,17.9
67.5926,114
67.5981,16.8
67.6309,96.9
67.6366,157
67.6522,141.8
67.6837,16.8
67.7273,372.4
67.729,87.5
67.7296,228.4
67.7387,452
67.7467,18
67.7498,42.9
67.7595,106.5
67.7908,86
67.7919,482.8
67.7964,119.4
67.8001,16.9
67.8097,259.4
67.8133,149.5
67.8316,658.8
67.8447,16.1
67.8474,82.6
67.861,266
67.8846,99.8
67.9097,161.8
67.9248,115
67.9408,165.1
67.9468,77.8
67.9765,17.6
67.9779,248.7
67.9863,205.6
67.9892,181.8
68.0091,216.7
68.0227,259.1
68.0304,358
68.0418,79.9
68.0636,100.8
68.0983,84.1
68.1011,311.5
68.1048,107.3
68.1143,333.2
68.1307,212.8
68.1626,292.8
68.1875,144.2
68.1897,78.4
68.1996,172.4
68.2006,20.2
68.2024,73.9
68.2086,114.5
68.2714,537.4
68.322,377.4
68.3394,370.7
68.3493,257.1
68.393,116.6
68.4087,376.4
68.423,79
68.4369,125.2
68.4504,274.1
68.4531,72.6
68.4572,126.4
68.4714,23.5
68.4841,193.6
68.505,160.3
68.5157,524.3
68.5251,273.9
68.5272,253.4
68.5296,135.1
68.5375,182.5
68.5479,77.7
68.5511,143
68.5522,176
68.5596,80.6
68.5627,170.7
68.5675,268.3
68.5696,117.7
68.5812,637.7
68.5818,98.5
68.5933,87.1
68.6008,381.5
68.6082,132.3
68.6399,297.6
68.6592,481.8
68.6663,517.8
68.6676,496.8
68.6746,377.6
68.6924,290.4
68.7,16.9
68.7142,81.1
68.7349,203.9
68.7368,17.1
68.7394,369.8
68.7402,401.8
68.7545,99.1
68.787,186.3
68.8064,96.5
68.8198,493.2
68.8401,16.4
68.8434,193.7
68.8609,688.8
68.8741,17.5
68.8883,266.4
68.897,84.5
68.9095,153.9
68.915,42.1
68.9195,358.5
68.9337,42.9
68.9486,172.1
68.9592,17.7
68.9861,367.6
69.0007,17.1
69.0179,18.9
69.0482,74.8
69.0532,136.9
69.1028,18.4
69.1034,410.4
69.1064,254.6
69.1187,79.5
69.1237,388.8
69.1297,331.8
69.1587,433.5
69.1637,394.1
69.1754,89.6
69.1792,82.7
69.1817,16.6
69.1886,41.8
69.1932,405.8
69.2059,308.2
69.2072,356.6
69.2308,205.9
69.2587,78.6
69.2869,78.2
69.2889,18
69.3014,100.6
69.3108,327.6
69.3781,19.7
69.3797,139.6
69.4014,122
69.4078,254.8
69.423,84.5
69.4265,159.1
69.4656,519.6
69.4692,132.9
69.4809,190.3
69.482,20.1
69.4983,99.6
69.5097,73.1
69.5135,144.3
69.5294,128.9
69.5322,18.6
69.5488,442.1
69.56,378.9
69.6362,41.8
69.6414,100.3
69.6458,190.1
69.6476,101.6
69.6563,354.3
69.668,315.5
69.6784,369.8
69.7072,125.6
69.7182,180.2
69.7308,631.1
69.7424,543.5
69.7632,254.9
69.7691,270.5
69.7775,114.1
69.7812,374.5
69.8518,172.5
69.8818,716.5
69.8919,102.6
69.9574,357.2
69.9838,131.9
69.9845,91.3
69.9939,505.3
69.9977,99.4
70.0064,306.6
70.0354,166.8
70.0459,286.4
70.0648,92.6
70.114,87.4
70.1217,17.6
70.1336,18.6
70.1419,200.3
70.1576,16.3
70.2082,212
70.2101,44.8
70.2111,71.8
70.2124,87.6
70.2248,17.1
70.2678,443.3
70.2816,371.9
70.2857,19.1
70.3043,417.8
70.3266,83.2
70.3362,136.9
70.3433,554.4
70.348,87.5
70.3703,556.7
70.4138,269.2
70.4445,632.3
70.4623,385.5
70.4683,93.5
70.4862,287.6
70.491,139
70.4919,643.6
70.4947,131.7
70.5013,330.9
70.5593,279.6
70.5786,15.6
70.6173,337.5
70.6224,199.3
70.6448,135.7
70.6599,348
70.6873,75.3
70.7037,116.3
70.7411,57
70.7572,132.2
70.7712,92.4
70.7724,320.3
70.7734,353.8
70.7804,201.5
70.7833,217.6
70.7836,236.6
70.7913,164.3
70.7996,94.9
70.8539,440.1
70.8924,614.3
70.9046,263.4
70.9141,164.9
70.9309,368.3
70.936,601.6
70.9519,101.9
70.9553,147.3
70.9655,101.6
70.9675,86.5
70.9751,305.1
71.0008,214.6
71.0061,90.3
71.0104,216.6
71.0209,169
71.0268,192.4
71.0399,183.4
71.0517,115.1
71.0539,225.1
71.0573,116.5
71.0681,17.2
71.0777,255.1
71.088,210.1
71.0896,286.3
71.1025,162.9
71.1254,99.2
71.1295,529.5
71.1367,597.8
71.1393,112.3
71.1423,105
71.1679,263.9
71.1849,121.8
71.1958,118.5
71.2262,609
71.2417,220.4
71.2489,146
71.2572,95.1
71.2829,142.8
71.2876,154.9
71.3137,265.2
71.3177,490.6
71.325,196.3
71.3293,120
71.3364,328.2
71.3401,94.1
71.3451,17.2
71.3477,113.6
71.3548,89
71.3571,185.7
71.3884,16.7
71.3896,540.6
71.3952,83.9
71.3991,141
71.4221,294.4
71.4307,312.8
71.4487,219.4
71.4533,136
71.4559,136.7
71.4698,71
71.4708,219.1
71.472,443.3
71.4756,139.6
71.476,701.8
71.5412,304.9
71.5493,17.5
71.5552,298.6
71.5564,289
71.571,308.5
71.5902,92.4
71.6052,104.7
71.606,75.3
71.6077,513.3
71.6145,86.1
71.6205,16.6
71.6223,45.1
71.6245,159.6
71.646,243.1
71.65,715.6
71.6531,127.3
71.6667,70.7
71.69,127.9
71.6922,544.1
71.7148,401.2
71.7161,19.7
71.7199,157
71.733,365
71.7543,45.8
71.7732,178.3
71.8397,362
71.8425,302.8
71.8573,99.8
71.8621,481.4
71.8837,121.7
71.919,171.1
71.929,141.7
71.9532,371.3
71.9678,18.7
71.9891,442.4
72.0045,81.3
72.0052,166.7
72.0102,259.5
72.0154,360.1
72.0163,723.5
72.026,485.2
72.032,304
72.0421,77
72.0589,46.1
72.0753,318.8
72.0804,564
72.0895,317.9
72.1221,81
72.123,76.3
72.1235,102.3
72.1504,112.5
72.1514,308.2
72.1686,643.5
72.1726,178.8
72.1774,81.9
72.1776,78.4
72.1825,378.5
72.1956,94.9
72.2162,128
72.2168,271.5
72.2175,16.6
72.2185,398.8
72.2191,400.2
72.2203,149.4
72.2207,289.2
72.2214,378.5
72.2221,934
72.2235,1429.8
72.2244,1646.5
72.2251,1019
72.2258,1478.7
72.2263,771
72.2268,462.1
72.2278,1614
72.2288,908.7
72.2295,1354.6
72.2302,1187.9
72.2308,2159
72.2312,1893.8
72.2324,3595.5
72.2337,3809.1
72.2345,2420.1
72.2349,2167
72.2357,2747.2
72.2363,2234.8
72.2371,2704.2
72.2381,3004
72.2388,2653.9
72.2403,1080.9
72.2407,1170.1
72.2413,818.7
72.2421,509.8
72.2433,731.2
72.2443,493.2
72.2456,306.9
72.247,229.5
72.2478,428
72.2506,125.4
72.2528,290.3
72.2538,160
72.2871,93.1
72.326,367.7
72.3289,119.7
72.3529,498.3
72.3775,429
72.3787,208.5
72.3803,104.2
72.3974,243.1
72.4161,17.3
72.458,506.6
72.4783,123.2
72.4912,356.7
72.5002,65.1
72.5334,583.3
72.5356,484.6
72.5379,408.9
72.545,125.6
72.5674,630.2
72.5715,204.6
72.5864,504.3
72.6123,126.6
72.6145,316.1
72.6241,126.7
72.6278,242.5
72.6454,684.4
72.6539,746.2
72.6644,173.9
72.6974,687.5
72.6992,297.6
72.7265,561.6
72.7271,270.4
72.7368,93.9
72.7403,598.8
72.7502,99.4
72.7644,348.5
72.7696,177.7
72.7963,518.6
72.7992,79.4
72.8088,428.5
72.8114,395.6
72.8357,342.8
72.8439,283.7
72.8725,350.9
72.8893,140.3
72.9109,144.8
72.9364,143.3
72.9762,84.7
72.9885,505.5
73.0036,297.9
73.03,18.8
73.0381,423.4
73.0554,331.2
73.0725,412.1
73.0921,92
73.1015,563.2
73.118,299.6
73.1319,147.7
73.1483,19.2
73.1584,541.2
73.1657,147.1
73.179,82.7
73.1964,343.5
73.2079,106.8
73.2092,39.5
73.2203,120
73.241,421.1
73.2526,237.6
73.2635,145.1
73.2641,580.1
73.2692,16.3
73.2845,101.9
73.2964,271.9
73.313,323.8
73.318,144.3
73.3225,81.2
73.3322,16.6
73.3403,78.3
73.3425,542.1
73.3555,245
73.3579,386.8
73.3709,508.3
73.3788,16.4
73.3803,257
73.3959,17.8
73.4085,425.7
73.4493,380.2
73.459,236.7
73.4808,218.7
73.4955,451.6
73.4967,73.1
73.5024,125.8
73.504,70.3
73.5131,592.9
73.5224,443.7
73.5967,134.5
73.6074,166.4
73.6093,356
73.6284,271.3
73.6593,101.2
73.6634,18.4
73.6726,136.5
73.7206,490.5
73.7281,156.3
73.7293,299.7
73.7502,18.7
73.7558,130
73.7658,15.5
73.7726,308.3
73.7871,161.4
73.7974,320.5
73.8052,308.6
73.8222,425.3
73.8326,83
73.843,316.3
73.8442,165
73.8951,139
73.8999,165.5
73.9378,80.6
73.9434,90.2
73.9716,124.4
73.9849,597.6
73.9954,256.3
74.0238,240.3
74.0321,22.3
74.0329,18.4
74.0374,19.1
74.0422,570.5
74.0598,4434
74.0704,369.5
74.0768,150.3
74.0999,306.2
74.1194,83.6
74.1357,146.5
74.1391,95
74.1549,16.2
74.1662,20.1
74.1702,317.1
74.1834,184.6
74.1914,71.2
74.2049,106.1
74.2117,110.5
74.239,150.3
74.2439,212.7
74.2616,550.6
74.2874,78.4
74.2982,507.7
74.2998,20.3
74.3213,497
74.346,286.1
74.3679,22.5
74.3962,302.3
74.3985,102.4
74.4051,18.2
74.4142,65.5
74.4205,143.7
74.4252,542.1
74.4675,582.6
74.4714,129.6
74.4785,79.6
74.481,305.2
74.5016,20.8
74.5545,451.9
74.5746,96.8
74.5763,16.5
74.5846,292.1
74.592,111.9
74.6102,739.7
74.6452,188.3
74.6458,106.7
74.658,117.1
74.6643,571.4
74.6855,214.9
74.6906,85.2
74.694,161
74.7217,138.1
74.7405,501.9
74.7688,192.8
74.7759,374.8
74.7807,109.9
74.787,387.2
74.7881,109.4
74.8063,464.6
74.8224,534.7
74.8504,324.6
74.8609,74.2
74.8631,45.2
74.879,101.1
74.9137,47.6
74.9664,135.1
74.9732,495.6
74.9779,19.5
74.983,344.4
74.9877,491.6
74.9899,18.2
75.009,202.4
75.0233,118
75.0264,137.4
75.0337,347.4
75.0353,38.7
75.0641,410.9
75.076,303.9
75.0844,86
75.0997,148.2
75.108,307.7
75.1202,633.8
75.144,82.2
75.145,87
75.1475,41.1
75.1548,127.3
75.1698,188.5
75.1874,365
75.1903,283.5
75.2043,84.1
75.2981,152.9
75.3069,84.9
75.3084,88.9
75.3174,644.2
75.3288,422.6
75.33,45.9
75.3497,17.7
75.3577,446.4
75.3733,482
75.431,265.1
75.438,545.7
75.4442,117.7
75.4463,77
75.4489,124.4
75.4543,80.6
75.5139,262.6
75.5281,97.7
75.5361,91.2
75.5393,18.7
75.5506,17.7
75.5555,291.9
75.5694,73.3
75.5962,268.1
75.6022,234.8
75.6168,88.1
75.6296,644.6
75.6376,188.5
75.6539,105.5
75.6645,519.4
75.684,17.2
75.6926,16.7
75.6997,263.6
75.769,232.3
75.7738,723.1
75.8151,160.9
75.8171,281.5
75.8252,133.6
75.8332,79.8
75.8429,458.3
75.8535,516.1
75.8551,218
75.8648,593.3
75.8651,555.8
75.8856,597.5
75.9051,529
75.9267,141.1
75.9317,508.1
75.9329,316.2
75.9367,294.5
75.9379,245.2
75.9496,447.5
75.9539,140.5
75.9646,17.3
75.9683,150.2
75.9718,99
75.9985,522.4
76.0025,467.8
76.0083,582.2
76.0165,356.1
76.0277,106.9
76.0687,197.7
76.0782,84.8
76.0943,372.8
76.1284,269.7
76.1652,299
76.1853,17.7
76.1981,461.1
76.2109,115.6
76.2289,142.6
76.2314,304.2
76.2385,316.4
76.2407,108.1
76.2535,302.3
76.2856,342.3
76.2973,81.3
76.3233,124.1
76.3363,213.4
76.3621,97.6
76.3657,166
76.3687,83.4
76.3711,21.7
76.3946,100.4
76.4005,84.5
76.4459,38.1
76.4627,182.5
76.4757,106.3
76.5077,194.5
76.5293,82.9
76.5322,128.4
76.5479,286.3
76.5498,400.6
76.5835,273.9
76.5861,83.9
76.6202,18.1
76.6246,747.6
76.6301,21.2
76.6332,251.2
76.6344,151.2
76.6354,17.2
76.6781,386
76.6853,270.5
76.7029,17.7
76.7073,17.6
76.7297,197.2
76.7329,176
76.7595,560.6
76.7621,132.9
76.7674,388.5
76.7856,74.8
76.7871,125.1
76.7883,461.4
76.791,159.3
76.8008,84.9
76.8046,317.8
76.8064,18.8
76.8149,317.1
76.8258,290.7
76.861,427.4
76.8661,123.9
76.891,587.9
76.9268,81.2
76.9312,260.4
76.9351,211.7
76.9355,99.2
76.9446,207.6
76.9561,174.4
76.967,109.8
76.9749,294.1
76.981,558.1
77.0115,394
77.023,146.4
77.033,332.8
77.0342,139.6
77.0353,306.7
77.0383,121009.5
77.0693,275.6
77.0715,188.9
77.1263,474.4
77.1521,211.7
77.1893,17.2
77.2008,284.2
77.2165,216.3
77.2249,19
77.2547,252
77.265,241.5
77.2979,465.6
77.3105,78.6
77.3484,335.1
77.3754,82
77.3892,104.4
77.3993,18.8
77.4014,101.9
77.4069,142.3
77.42,594.2
77.4237,257.5
77.4263,286.5
77.427,458.2
77.4851,728.3
77.5142,506
77.5282,171.9
77.551,338.4
77.5584,168.9
77.5703,563.8
77.5846,291.6
77.5859,139.1
77.5866,199.5
77.6312,179.4
77.6699,106.7
77.7112,196
77.7315,106
77.7483,405.7
77.7667,296.7
77.7692,16.6
77.7725,41.7
77.7991,95.4
77.8027,199.6
77.8097,329
77.8217,162.6
77.8244,328.7
77.8689,422.9
77.8751,371.9
77.8956,670
77.9513,306.4
77.968,96.6
77.9759,175.2
78.0264,17.4
78.034,267.6
78.0369,583
78.0417,3716.3
78.0467,109.5
78.0527,88.9
78.072,664.8
78.0788,18.8
78.1016,552.1
78.1388,476.6
78.1439,622.4
78.1475,436.5
78.1485,194.5
78.1513,17.4
78.1622,96.8
78.166,265
78.2043,17.8
78.2299,249.8
78.2415,271.1
78.2502,248.8
78.2648,646.4
78.2788,197.5
78.2931,264.3
78.3019,264.8
78.3069,370.2
78.3167,395
78.337,19
78.3407,362.7
78.3434,510.9
78.3537,95.5
78.3581,18.1
78.3644,135.5
78.3792,164.1
78.3885,290.4
78.4411,163.2
78.4609,16.9
78.4852,123.4
78.4912,487.2
78.4963,137.5
78.499,127.6
78.5095,388.2
78.5272,310.5
78.5385,135.6
78.5408,90
78.549,176.5
78.5515,145
78.5587,404.4
78.5672,75.2
78.6393,181.7
78.6504,78.3
78.6572,23
78.6809,308.8
78.7083,51.1
78.7337,18.1
78.7435,404.9
78.745,92.2
78.7613,545
78.7754,19.5
78.7862,90.2
78.8144,65.2
78.8318,196.8
78.8599,427.2
78.8737,131.7
78.883,339
78.8957,351.1
78.9042,19.7
78.9047,15.8
78.9151,311
78.9168,213.6
78.9867,413.6
78.9924,517.9
78.9968,175.5
79.0307,93.9
79.0321,131.7
79.054,1816.3
79.0589,158.7
79.0621,170.7
79.1379,528.8
79.1385,107.1
79.184,246
79.1993,95
79.1997,92.7
79.2053,137.3
79.2284,452.1
79.2294,333.9
79.2413,116.9
79.2752,110.5
79.3092,147.2
79.3153,159
79.3162,92.5
79.3218,109.1
79.3279,409.9
79.3429,110.3
79.3473,322.8
79.3916,464.4
79.4045,294.6
79.4193,296.4
79.4334,99.4
79.4461,128.7
79.5337,93.6
79.5433,520.2
79.5595,287
79.5684,548.3
79.579,129.7
79.5976,608.8
79.6063,475
79.6227,18.7
79.6495,80.3
79.6617,434.9
79.6711,326.1
79.6777,637.1
79.6962,19.3
79.6995,482.2
79.7102,128.8
79.7448,299.8
79.7713,18.8
79.7752,19.3
79.7832,125.4
79.7947,19.7
79.7952,341.3
79.7969,108.3
79.8017,217.5
79.8344,110.7
79.8546,129.5
79.8849,144.5
79.8874,605.4
79.9726,229.2
79.9798,388.3
80.0007,69.2
80.0043,176.9
80.0573,44.4
80.0628,205.7
80.0836,328.6
80.0888,326.2
80.1041,531.3
80.105,429.5
80.106,395.4
80.1161,78.8
80.1168,114
80.1364,632.3
80.145,180
80.1503,286.2
80.155,133.4
80.1643,16.5
80.1759,84.2
80.1787,39.3
80.182,17.9
80.188,347.3
80.1975,296.2
80.1989,116.8
80.2224,81.6
80.2252,117.8
80.2345,248.2
80.2359,273.3
80.2416,112
80.2534,102
80.2676,400.5
80.2769,329.7
80.2975,311.5
80.2995,255.4
80.3068,212.2
80.3203,74.3
80.3403,21.4
80.3476,231
80.3508,88.6
80.365,369
80.376,288.4
80.3861,16.2
80.4762,18.9
80.4858,181.8
80.5123,124.4
80.5155,131.2
80.5169,92.7
80.5667,129.1
80.5911,180.8
80.5918,491.9
80.5932,94.5
80.6671,154.3
80.6714,315.2
80.6784,402.5
80.6946,271.5
80.7051,284.3
80.713,21.7
80.7155,380.1
80.7221,333
80.7281,94.1
80.8016,265.7
80.8033,134
80.8249,205.6
80.842,517
80.8652,344.2
80.9085,199.4
80.9108,167.5
80.9416,290.5
80.9476,60642.9
80.9503,271.5
80.9552,88.6
80.9652,85.9
80.966,80
80.9701,155.7
81.0066,16.5
81.0669,329
81.0696,1032.3
81.0857,190.1
81.0908,127.8
81.0939,105.2
81.1392,115.5
81.1403,1384.9
81.1414,2446
81.1423,1268
81.1434,511.7
81.144,184.8
81.145,567.7
81.1457,169.6
81.1463,244.4
81.1756,381.7
81.1856,141.1
81.1984,250.4
81.2085,514.7
81.2248,149.5
81.2303,248.3
81.2543,115.3
81.2615,370.1
81.2685,102.9
81.2719,85.2
81.2822,145.9
81.2977,198
81.2998,17.1
81.3021,255.5
81.3046,183.7
81.3412,274.8
81.352,148.6
81.3546,98.4
81.3599,79.9
81.3696,124.8
81.3786,17.3
81.4595,396.7
81.4602,587.4
81.4769,476.7
81.4787,235.5
81.481,306.9
81.4841,95
81.4861,318.6
81.521,122.4
81.5793,155
81.6041,200.7
81.6153,96.7
81.6202,17.9
81.6448,205.2
81.6598,345.9
81.6884,115.6
81.7264,206
81.7383,363.8
81.7467,17.9
81.7604,185.1
81.7843,516.2
81.7987,450.8
81.8274,149.5
81.8318,46.7
81.8457,208.1
81.8468,77.7
81.8484,96.2
81.8888,83.7
81.8911,98.6
81.8968,192.6
81.9103,107.4
81.9177,291.4
81.9222,305.1
81.9365,122
81.9631,344.8
81.9887,100.7
82.0046,72.6
82.0193,88.2
82.021,486
82.044,74.3
82.0493,280.9
82.0719,105
82.0772,241.5
82.1018,134.1
82.1366,237.4
82.1633,114.9
82.1748,163.3
82.2008,109.3
82.2082,426.3
82.2601,104.2
82.2619,193.3
82.2702,207.4
82.2812,150.9
82.291,179.9
82.2944,170.5
82.2949,101.2
82.3229,17.6
82.3393,285.3
82.3529,401.3
82.3592,151.8
82.3848,41.2
82.4201,153.5
82.4367,119.8
82.448,349.7
82.4589,144.9
82.4702,152.3
82.4711,68.1
82.4734,517.2
82.4748,220.5
82.4884,450.9
82.5073,766.4
82.513,541.2
82.5372,348.2
82.5605,48.1
82.5842,18.4
82.5939,96.8
82.6057,656.7
82.6134,266.4
82.6159,390.8
82.6201,102.3
82.6226,19
82.6405,415.9
82.6878,92.9
82.7038,275
82.7079,511.5
82.7229,79.9
82.7287,345.8
82.7449,223.5
82.779,825.7
82.7824,195.6
82.7833,73.4
82.7996,41.6
82.8604,139.1
82.8669,299.2
82.892,16.9
82.9329,553
82.9371,130.1
82.9447,17139.9
82.9621,17.2
82.988,316.3
82.99,21.2
83.0116,477.4
83.0368,39.7
83.0642,241.6
83.0681,155.2
83.0733,277.4
83.0776,102.2
83.0975,139.8
83.0998,122.3
83.1309,19.6
83.1583,110.7
83.1648,302.5
83.2136,659.4
83.2263,274.8
83.2298,39.4
83.2339,261
83.236,304.3
83.2866,171.2
83.3163,356.9
83.3436,97.5
83.3484,370.7
83.3491,107.6
83.3505,66.6
83.3607,20
83.3806,18.9
83.3816,41
83.3887,572.5
83.4464,145.5
83.4984,425.2
83.4997,219.8
83.5566,75.4
83.5588,85.7
83.5724,111.6
83.5799,132.1
83.5918,320.7
83.593,350.5
83.6038,312.2
83.6096,229.4
83.6725,164.5
83.6749,670.1
83.7011,19.5
83.7036,74.5
83.7333,522.2
83.7969,21.4
83.8007,174.6
83.8037,580.6
83.8186,85.4
83.8479,528.5
83.8553,23.4
83.8597,299.6
83.8619,344.2
83.8771,263.5
83.8905,348.6
83.9185,491.9
83.9487,162.2
83.9721,106.6
83.9865,261.8
84.0011,494.5
84.0109,17.2
84.0269,506.6
84.03,39.2
84.0441,1187.2
84.0579,262.1
84.0692,320.4
84.0806,77.4
84.0916,17.6
84.165,118.3
84.1696,332.7
84.1885,332
84.1948,92
84.2001,325.7
84.2019,107.4
84.2182,340.4
84.2294,341.2
84.2322,17.9
84.3355,136
84.3435,19.9
84.3551,105.2
84.3598,137.5
84.3728,698.3
84.3748,500.7
84.3756,101.8
84.3845,131.6
84.3883,934.1
84.4421,104.1
84.4459,277.9
84.4659,75
84.4667,125.6
84.4686,394.8
84.48,255.8
84.4994,421.4
84.5257,361.6
84.5351,116.3
84.5426,493.2
84.5538,212.6
84.5567,261.4
84.5698,158.2
84.6137,204.8
84.627,214.3
84.6606,76.7
84.6715,277.5
84.6778,679.5
84.6955,168.7
84.7095,390
84.713,228.7
84.7149,283.4
84.7227,95.6
84.7705,186.6
84.7886,18.6
84.798,223.5
84.823,288
84.8402,99.9
84.8642,207.5
84.8763,245.1
84.8995,568.5
84.926,127.6
84.9359,252.3
84.9547,15.9
84.9595,21320.9
84.9606,161.5
84.9619,323.2
85.0192,472.7
85.0223,214.1
85.031,362.5
85.0409,150.5
85.0427,104.4
85.0749,42
85.0957,101.3
85.1331,423.3
85.1481,269.1
85.1485,250
85.2859,174.9
85.2946,19.1
85.348,459.7
85.3643,490.2
85.3714,17.7
85.3866,17.7
85.3932,93.1
85.395,729.7
85.4265,266.2
85.4762,571.1
85.4814,360.7
85.5153,90.2
85.5201,119.4
85.5245,502
85.5264,403.6
85.5307,142.5
85.5353,516.3
85.5501,466.9
85.5591,147.8
85.5613,91.7
85.5815,340.4
85.6237,144.2
85.6392,151.4
85.6436,274.1
85.6915,69.1
85.7008,141.5
85.7518,18.7
85.7565,129.1
85.7741,589.8
85.8007,149.1
85.8009,166.3
85.8014,113.1
85.8138,412.5
85.8237,144
85.8572,161.3
85.9297,544
85.9356,464.9
85.9591,125.4
86.0275,314.6
86.0546,122.7
86.0599,41182.6
86.0609,350
86.0655,626.7
86.0872,17.2
86.0939,17.4
86.0962,91082.5
86.1076,18.9
86.1363,75.6
86.1373,261.7
86.1595,512.3
86.1662,447.7
86.1871,118.3
86.2059,177.3
86.2162,73
86.2171,345.2
86.2251,407.9
86.2671,593.2
86.2866,456.3
86.3083,438.6
86.3448,17.6
86.4007,419
86.4048,88.9
86.4336,144.9
86.4385,308.7
86.5043,70.1
86.5301,317.2
86.5496,349.3
86.5599,87.9
86.5857,514.5
86.5926,24
86.5998,17.5
86.6016,600.1
86.6251,137.4
86.638,329.8
86.6413,470.9
86.6457,145.2
86.6547,349.6
86.6934,317.2
86.7014,151.6
86.7417,486.3
86.7604,178.8
86.782,696.4
86.7964,141.2
86.8002,329.3
86.8025,638.8
86.8085,121.6
86.8122,406
86.8315,81.7
86.8457,308.3
86.8464,120.8
86.8642,208.3
86.8682,468.8
86.8798,183.2
86.8892,210.9
86.943,604.7
86.9635,335.5
86.983,42.9
87.021,102.3
87.0283,184.2
87.0725,248.5
87.113,552.4
87.1438,153.2
87.1455,440.7
87.1557,190.8
87.1684,16.4
87.2096,20.1
87.2336,447.1
87.2555,397.5
87.3012,179
87.3049,276.5
87.334,17.1
87.3357,262.8
87.3499,733.6
87.3635,338.1
87.3693,304.7
87.3835,17.3
87.4139,512.7
87.4318,309.1
87.4769,266.5
87.4923,21.7
87.5855,511
87.5864,208.4
87.6535,271.3
87.6698,134.9
87.697,97.6
87.7238,139.3
87.7277,298.4
87.7561,15.3
87.7629,101.1
87.7885,191.9
87.8108,462.9
87.8291,466.9
87.8373,565.9
87.8577,74.3
87.9064,219.4
87.9197,115.6
87.9284,310.1
87.9341,18.3
87.9483,44.8
87.9738,102.9
87.9853,317.5
87.9895,21.5
87.994,152
87.9972,146.8
88.0023,416.7
88.0391,8103.5
88.0554,418.5
88.113,324.9
88.1183,265
88.1616,18.7
88.1856,291.5
88.2181,675.1
88.2195,72.9
88.22,67.8
88.2367,17
88.2794,287
88.2939,17.1
88.3431,115.9
88.3624,19.1
88.3643,331.7
88.3905,90.2
88.3915,199.4
88.4138,94.9
88.4781,446.8
88.4801,43.5
88.4896,135.5
88.4915,639.8
88.4933,544.2
88.5118,16.4
88.5604,200.6
88.5717,75.9
88.5777,305.9
88.6024,110.8
88.6051,254.8
88.617,445.3
88.6177,353.8
88.6814,91.4
88.6905,45
88.6917,81
88.7117,133.5
88.7341,83.7
88.7705,91.4
88.7882,296.3
88.8007,586.4
88.8016,108.2
88.8257,402.3
88.8393,402.1
88.8501,99.1
88.8516,644.6
88.8558,177.5
88.8563,266.2
88.8565,273.9
88.8571,43
88.8922,400.5
88.9206,73.2
88.9275,18.2
88.932,940.5
88.9334,127.4
88.9524,20.2
88.9532,247.3
88.9548,378.3
88.9576,18.5
88.9715,334.6
88.992,165.3
88.9935,40.8
89.009,52.4
89.0177,330.5
89.0198,191.2
89.0504,42.3
89.0934,94.5
89.1622,91.6
89.1715,394.9
89.1762,473.3
89.2151,85.4
89.3332,270.4
89.3372,267
89.3493,109.2
89.4024,616
89.4203,92.7
89.4238,800.4
89.4323,186
89.4776,171.1
89.4833,21.1
89.4895,501.8
89.4941,267.9
89.5004,39.2
89.5296,267.3
89.5437,270.3
89.5472,112
89.566,154.5
89.5695,224.9
89.5709,363
89.5799,16.5
89.5846,47.7
89.5948,263.7
89.6382,101.5
89.6423,837.7
89.6429,164.4
89.6675,18.6
89.6904,277.4
89.6913,84.5
89.7101,512
89.7329,278.4
89.7349,227.8
89.7444,109.1
89.7492,17.5
89.7546,515.2
89.7557,197.5
89.7588,280.8
89.7789,218
89.8062,607.1
89.8092,437.7
89.8174,456.9
89.8254,81
89.8339,551.3
89.8694,16.4
89.8856,205.2
89.9161,205.4
89.9175,17.9
89.9554,17.7
89.9939,609.9
90.079,521.9
90.081,185.9
90.0826,472.5
90.0899,346.2
90.1619,102.6
90.188,20
90.2099,497
90.2272,109.7
90.2446,305.6
90.277,17.6
90.3005,725.1
90.3225,87.3
90.3883,114.4
90.3983,169.1
90.399,528.4
90.4245,18.3
90.4653,74.5
90.4737,304.3
90.5126,567.9
90.5169,426.9
90.5234,250.1
90.5443,200.1
90.5561,80.5
90.5788,164.2
90.5866,462.9
90.5895,281.2
90.599,259
90.6257,484.8
90.6526,19.2
90.6591,416.9
90.6611,74.2
90.6674,176.1
90.677,323.8
90.7176,88.9
90.7237,411.6
90.7784,40.6
90.8058,153.5
90.8205,103.2
90.8218,159.5
90.859,289.5
90.8672,40.8
90.875,96.9
90.8948,21
90.9184,621.3
90.9336,93.1
90.9374,48.5
90.9438,325.6
90.9474,108.9
90.967,130.7
90.9765,11818.3
91.0056,73.1
91.0265,146.6
91.0285,629.4
91.0541,2084
91.0824,589.9
91.0972,289.3
91.1034,219.5
91.1149,331.3
91.132,301.7
91.1389,18.5
91.2062,334.4
91.2253,19.8
91.2331,159.4
91.2342,21.1
91.2973,246.2
91.3018,495.7
91.3105,536.1
91.3261,15.3
91.3454,204.4
91.3815,500.9
91.3898,508.5
91.3902,249.7
91.3936,16.9
91.4046,315.5
91.4071,110.2
91.4122,538.4
91.4162,97.6
91.4419,349.3
91.4711,137.6
91.5377,137.6
91.5464,579.2
91.5674,81.2
91.5839,280.9
91.5979,116.6
91.6292,204.9
91.6492,73.1
91.6521,333.2
91.6601,111.6
91.6792,223.4
91.6952,98.2
91.7073,103.7
91.7389,584.7
91.7623,19.9
91.8213,150.7
91.8259,48.4
91.8423,169.1
91.8466,115.4
91.8714,179.3
91.8717,198.5
91.8721,127.8
91.8923,552.8
91.8931,736.1
91.9033,320.6
91.9106,20.1
91.9178,134
91.9806,93.2
91.9898,114.9
92.0192,94.3
92.0226,276.4
92.0394,456.1
92.0444,183
92.0495,22.5
92.0514,17
92.0555,319.4
92.0579,43.7
92.1612,614.6
92.1636,214.4
92.1673,305
92.2266,194.7
92.2392,699.4
92.2406,97
92.2977,378.8
92.3153,328.8
92.3574,268.7
92.362,287.8
92.3684,232.1
92.3762,51.8
92.3767,456.1
92.3773,466.9
92.3945,17.3
92.4004,671.6
92.4231,143
92.4284,482.7
92.4296,321.2
92.4689,18.8
92.4868,733.1
92.5466,271.9
92.5874,19.8
92.6031,626.4
92.6396,41
92.6473,583.7
92.6539,79.7
92.6666,507.4
92.6856,115.3
92.7181,235.7
92.7439,72.3
92.7676,324.2
92.7732,152.2
92.7955,391.1
92.8027,163
92.8061,73.8
92.8109,468.4
92.8135,152
92.824,190.7
92.8362,632.8
92.8427,85.4
92.8609,785.9
92.8686,103.1
92.8838,164.1
92.8932,633.1
92.9121,130
92.9726,20.5
93.0125,553
93.0334,120.9
93.0658,207.1
93.0697,29.1
93.0864,496.5
93.1637,226.6
93.1846,278.4
93.2029,122.9
93.2097,645.5
93.2119,15
93.2356,82.6
93.2418,370.1
93.284,242.7
93.2907,201.4
93.2927,104.4
93.3225,537.4
93.4186,152.4
93.4279,609.9
93.4315,112.2
93.437,131.7
93.4746,375.1
93.4786,512.8
93.4818,591
93.488,80.1
93.5074,305.3
93.5276,135.1
93.5468,262.3
93.5505,16.5
93.583,373.6
93.6341,103.1
93.6386,101.5
93.7127,192.6
93.725,89.8
93.7322,92.9
93.7423,190
93.7714,376.8
93.8696,541
93.8712,17.6
93.8736,238.1
93.8757,135.9
93.892,333.6
93.9096,330.4
93.9141,79.8
93.9337,110.5
93.978,16.1
94.0214,295.5
94.0396,133.6
94.0412,55870.7
94.0422,81.2
94.0469,291.7
94.0768,407.6
94.1326,160.1
94.1461,168
94.1578,101.7
94.1725,128.7
94.2083,17.6
94.2331,363.7
94.2444,394.1
94.2522,78.7
94.3006,163.2
94.3222,18.4
94.3277,139.7
94.3311,115.8
94.3911,320.4
94.3961,83.3
94.3987,390.1
94.4276,95
94.431,332.5
94.472,550
94.5022,70.3
94.5534,105.9
94.5682,396.7
94.6801,151.9
94.6818,467.3
94.7391,329.2
94.7734,20.7
94.7753,149.9
94.7933,554.9
94.8114,661.1
94.8139,699.2
94.8332,134.8
94.8603,257.3
94.8806,108.5
94.8843,16.3
94.8951,198.4
94.9734,19.4
94.9786,106.5
94.9817,18.3
94.9871,165.4
94.9931,262.1
94.998,17.3
95.0085,50.1
95.0192,27.4
95.0267,93.4
95.0356,17.6
95.0433,599.5
95.0446,1060.5
95.0455,38.2
95.049,426572.9
95.0506,191.8
95.0519,82.6
95.0545,19.4
95.0556,17
95.0559,20.8
95.0563,19.3
95.0624,29
95.0787,46.8
95.0853,246.1
95.0871,529.5
95.0999,89.5
95.113,102.7
95.1218,147.3
95.1239,16.9
95.1664,47.9
95.1842,17.9
95.235,130.5
95.271,540
95.2789,448.4
95.3039,124.8
95.3316,532.5
95.3372,410.2
95.34,18.1
95.3436,89.6
95.3487,668.7
95.3577,278.9
95.4109,17
95.4123,530.5
95.4145,282.8
95.4244,75.1
95.4387,95.9
95.4481,144
95.4486,157.8
95.4488,138.8
95.4707,66.7
95.5121,21.9
95.5192,142.9
95.5429,327.6
95.567,16
95.5868,222.8
95.6055,480.1
95.606,462.3
95.6135,389.3
95.6195,483.3
95.661,241.9
95.6708,129.9
95.6773,259.8
95.6957,19.3
95.7005,151.5
95.7152,484.2
95.7197,368.8
95.7493,38.2
95.754,165.8
95.7587,403.5
95.7638,339.8
95.777,92.3
95.8104,109.7
95.8129,120.6
95.8361,41
95.8492,251.9
95.8682,17
95.8795,128.6
95.8844,89.3
95.8908,349.4
95.9,19.5
95.9796,146.8
96.0067,168.1
96.0412,371.2
96.0523,21195.7
96.0629,136.5
96.0806,18.9
96.1029,109.1
96.107,16.1
96.119,125.4
96.1207,551.7
96.1235,659
96.1589,326.7
96.1703,401.3
96.2257,244.7
96.2301,540.5
96.2496,129.8
96.3158,485.7
96.401,77.9
96.4139,463.4
96.4198,177.5
96.4303,297.1
96.4418,222.2
96.4547,102.6
96.4562,573.1
96.458,116
96.4958,16.9
96.5147,125.9
96.5444,112.2
96.5584,141
96.575,125.8
96.6067,98
96.6281,508.7
96.6354,308.6
96.6436,194.8
96.6543,19.3
96.6648,22.1
96.7009,194.7
96.712,44.4
96.7163,509.6
96.7738,143.5
96.8033,17.6
96.8498,264.4
96.8605,634
96.8831,18.4
96.8958,165.2
96.9087,71.8
96.9158,162
96.9216,165789.1
96.9374,177.7
96.9545,16.1
96.9551,15.6
97.0073,201
97.0104,24
97.0299,20.3
97.0511,652.7
97.0531,61.3
97.0553,524.6
97.068,114.8
97.0847,118.3
97.101,24
97.1251,472.8
97.143,258.9
97.1493,273.5
97.2001,102
97.2265,536.5
97.2329,366.2
97.2357,19.2
97.2621,359.6
97.283,118.1
97.2913,188.9
97.3271,496.9
97.3467,17.8
97.3487,306.4
97.3539,21.2
97.3569,82.7
97.4004,296
97.4045,46.9
97.4172,47
97.4609,269.1
97.5036,101.6
97.5287,20.1
97.5722,544.2
97.5773,20.6
97.5984,329
97.612,92.9
97.6314,142.7
97.6946,88.9
97.7055,18.3
97.7537,194.3
97.7632,252.8
97.7814,401.4
97.7911,163
97.7937,109.5
97.8008,397.2
97.8408,140.3
97.8562,113.5
97.864,19
97.8708,370.1
97.873,490.9
97.9153,105.7
97.9196,99.4
97.9376,104
97.9904,274.4
97.9919,260.7
98.0779,87.4
98.0928,134.1
98.117,287
98.185,528
98.2151,382
98.2286,288.1
98.2467,249.3
98.2489,109
98.2608,255.7
98.2905,315.4
98.2972,414.6
98.2987,110.3
98.3153,113
98.3324,601.6
98.3761,257
98.4535,80.3
98.4713,87.1
98.4876,346.4
98.521,126
98.5323,84.4
98.5343,424.4
98.5467,216
98.5779,18.2
98.5947,323.3
98.6219,182.7
98.6412,116.2
98.6764,48.1
98.684,355.8
98.6972,228.1
98.7157,124
98.7267,18.3
98.7326,17.3
98.7664,126.4
98.7719,161.9
98.782,292.4
98.8362,676.2
98.8474,206.1
98.86,195.3
98.9187,51636.8
98.9197,9477.1
98.9239,17.8
98.9311,232.3
98.9319,650.9
98.9594,619.1
98.9752,19195.2
98.9781,69.5
98.984,85.4
98.9954,918.8
99.0127,275.2
99.0235,468.8
99.0248,76.7
99.0258,367
99.0333,384.8
99.0417,118.5
99.0872,191.2
99.1742,17.2
99.185,483
99.1934,394.6
99.2402,406
99.2443,18.7
99.2655,581.3
99.2735,98.2
99.2849,106.4
99.2908,316.8
99.3,669.8
99.3071,145.9
99.3443,128.2
99.3752,43
99.3781,166.1
99.3924,482.5
99.4201,17
99.4288,269
99.4322,295.7
99.4527,17.1
99.4797,19.1
99.4853,92.1
99.4905,311.8
99.4923,458.4
99.512,51.4
99.5602,112.6
99.5635,365.1
99.576,464.9
99.5862,303.3
99.5897,77.8
99.6366,640.7
99.6859,426.3
99.7268,293
99.736,77
99.7388,141.5
99.7552,403.1
99.7834,212.4
99.8025,18.7
99.8614,140.6
99.8672,457.8
99.8917,160.1
99.954,200.7
100.0139,753
100.0707,108.7
100.082,146.3
100.0915,502.8
100.1828,90
100.2003,640.5
100.2334,103.6
100.2355,90.2
100.2429,84.2
100.2555,209.4
100.3427,98.5
100.3573,261.7
100.4116,19
100.4143,469.7
100.5124,727.9
100.5149,160.3
100.5462,318.9
100.5857,273
100.599,96.2
100.6051,18.4
100.6154,298.9
100.6345,373.2
100.6648,161
100.6726,506.2
100.7025,18.6
100.743,103.8
100.772,556.6
100.7945,458.8
100.8273,452.9
100.8596,299.1
100.8605,306.2
100.8776,515.2
100.9045,245.9
100.9168,1950.4
100.9317,450.2
100.9779,117.9
100.991,21
101.0083,1038.2
101.0142,280.3
101.0166,74
101.0245,300.1
101.047,2798.2
101.0708,2534
101.0733,39.4
101.0857,442.5
101.1051,246.1
101.114,601.9
101.1557,357.5
101.1719,76.4
101.1749,18.5
101.202,102.9
101.2169,488.6
101.2465,17.7
101.2777,138.5
101.2941,410.9
101.2952,154.2
101.3192,613.6
101.3227,443.9
101.336,83.6
101.3401,513.9
101.3493,372.2
101.3541,194
101.3776,408.9
101.3967,728.9
101.4169,16.5
101.4642,207.5
101.4907,17.5
101.5301,636.9
101.5577,19.8
101.5743,510.3
101.6385,279.1
101.7012,168.3
101.7918,330
101.869,441.4
101.8987,215.6
101.9136,18.2
101.9309,364.5
101.9601,225.9
101.9612,17.8
101.9633,161.3
101.9743,166.3
102.0164,471.7
102.0188,187.4
102.0431,534.3
102.0529,535.1
102.0548,6945.9
102.0838,232.6
102.0988,521.9
102.1035,19.7
102.1129,22.5
102.121,208.4
102.1691,104.8
102.1876,150.5
102.2005,539.7
102.2353,186.3
102.2475,206
102.3036,202
102.3137,170.1
102.3153,125.1
102.3215,175.5
102.3229,350.6
102.3269,352.5
102.3803,296.5
102.4148,706.1
102.4401,406.4
102.4849,124.5
102.488,105.9
102.5032,173.7
102.6011,101.6
102.6337,355.8
102.704,91.8
102.7244,340.8
102.7336,563.7
102.8026,81.6
102.8207,43.8
102.8369,341.6
102.8514,19.2
102.8693,108.8
102.8777,432.7
102.882,500.5
102.8857,591.4
102.8886,652
102.9417,443
102.9426,164.9
102.9446,625.3
102.9649,209.7
102.9701,549.6
103.0415,16.1
103.054,672
103.081,239.8
103.0919,454.1
103.0943,146.5
103.1061,487.3
103.1117,324
103.1132,305.8
103.128,44.5
103.1318,333.3
103.2151,270.1
103.3061,134.9
103.3074,180.9
103.3126,351.9
103.365,380.2
103.3881,131.7
103.3966,275.3
103.4065,308
103.4106,159.9
103.4265,349.6
103.4526,347.6
103.4774,418.6
103.5708,39.9
103.6037,341.3
103.6322,554.8
103.6647,538.4
103.6862,78.5
103.7195,69.2
103.7404,627.3
103.8031,456.6
103.833,286.2
103.8629,23.4
103.8896,36.9
103.9301,282.9
103.9489,441.8
103.9555,44.6
103.9758,128.5
103.981,444.9
103.9979,106
103.9989,259.4
104.0057,213
104.0092,316.3
104.0373,20.1
104.0398,99.1
104.0569,189
104.0654,75.8
104.0724,106.1
104.0971,595
104.1069,426265
104.132,18.5
104.155,315.9
104.1603,174.5
104.1719,96.9
104.2053,115
104.2103,234.9
104.2438,674.6
104.25,126.3
104.2569,121.5
104.2943,91.4
104.3108,17
104.3263,99.5
104.3595,604.2
104.3956,371.8
104.4082,266.9
104.4701,17.4
104.5086,580.8
104.5127,22.7
104.6251,38.3
104.6344,192.5
104.6702,683.1
104.708,255.6
104.7319,209.4
104.7688,362.3
104.7904,263.1
104.8841,92.4
104.9075,460.2
104.9221,110.4
104.9317,22.6
104.9632,197
104.9839,654.5
104.9922,2862.4
105.0022,105.9
105.0446,41082.5
105.0535,169.5
105.067,352.9
105.101,188.9
105.1102,15999.1
105.1114,75.1
105.1179,258.6
105.1312,17.2
105.1741,247.8
105.2004,108.6
105.2278,324.5
105.2315,107.4
105.2699,46
105.2779,173.6
105.2906,373.2
105.3379,132.9
105.3632,669.1
105.4127,234.7
105.4192,17.7
105.4239,18.1
105.4353,329.3
105.458,118.1
105.4622,389
105.4681,321.3
105.4923,161.6
105.5218,85.2
105.527,74.9
105.5336,18.7
105.5485,177.8
105.5568,258.3
105.5895,218.7
105.6083,42.2
105.6169,457.3
105.6266,89.3
105.6333,150.5
105.6447,161.6
105.649,110.2
105.6794,109.1
105.7273,90.4
105.7512,772.2
105.7794,17.2
105.8443,292.4
105.8475,389.2
105.8508,83.7
105.8583,101.4
105.8803,146.1
105.8842,17.5
105.9099,571
105.9315,561.3
105.9414,210.2
105.9435,645.8
105.957,108.4
105.9622,361.3
105.968,367.6
105.9722,259.3
105.9904,138
106.027,98.7
106.0416,23.2
106.048,1160.2
106.0648,18.4
106.0916,18.8
106.1135,352.1
106.1155,490.2
106.2181,95.9
106.2278,666.1
106.2396,164.9
106.2559,93.7
106.3208,111.2
106.3418,289
106.362,17.9
106.3834,112.1
106.3858,20.3
106.3968,132.7
106.4164,350.8
106.4702,87.7
106.4971,135.4
106.5072,241.8
106.5767,258
106.5989,393.2
106.6361,171
106.6554,606.4
106.6575,174.3
106.6728,200.5
106.6735,230.4
106.6896,603.3
106.7104,661.8
106.721,652.9
106.7334,263.2
106.746,438.7
106.7914,254
106.8123,286.1
106.8389,129.6
106.8571,17.1
106.8698,139
106.8763,85.8
106.8897,144.3
106.9053,549.1
106.9114,270.2
106.9297,289
106.9505,3923.3
106.9723,106.1
106.9834,109.1
106.9918,141
107.0032,396.8
107.0166,120.4
107.023,17.7
107.024,193.9
107.0282,59.2
107.0355,92.9
107.0401,206.5
107.049,556.5
107.052,17.3
107.0854,76.6
107.0867,77
107.1147,275
107.1318,152.2
107.1358,821.2
107.1504,284.4
107.1738,102.4
107.204,433.5
107.2229,98.8
107.2296,17.2
107.2372,40.7
107.2441,225
107.2453,72.3
107.2472,285.3
107.2482,98.2
107.277,17.9
107.2802,21
107.2889,99
107.3843,317.7
107.4035,93.5
107.4448,152.5
107.4952,103.9
107.5542,17.4
107.6138,469.6
107.6168,85
107.6313,86.3
107.64,143.9
107.6695,266.2
107.6737,101.6
107.6934,151.4
107.7462,590
107.7526,212.4
107.7605,199.8
107.861,365.5
107.8739,18.9
107.8937,809
107.9208,117.7
107.9274,291.5
107.9459,181.2
107.968,343.6
108.0004,313.7
108.0655,415.7
108.0679,186
108.0856,417.4
108.1139,479.4
108.1212,15.9
108.1596,18.5
108.194,104.1
108.2694,536.9
108.2832,20.3
108.2945,18.6
108.3609,139.4
108.3961,711.9
108.412,174.6
108.5038,211.2
108.5241,386.3
108.538,138.4
108.5485,186.2
108.5671,303.7
108.5763,136
108.6458,584.4
108.6877,251.4
108.7071,170.7
108.7152,199.1
108.7476,122.1
108.7569,348.5
108.7891,21.3
108.7908,494.2
108.8664,105.6
108.9298,130.5
108.9457,581
108.9547,628.1
108.9787,17.8
108.9857,19.5
108.9904,250.9
108.9994,790.9
109.0287,264.8
109.034,104.4
109.04,297.4
109.0647,57442.7
109.0841,390.1
109.101,82.7
109.1055,153
109.108,194.2
109.1115,46
109.1136,163.7
109.1177,334.9
109.1255,296.1
109.1312,592.5
109.17,70.9
109.2116,272.1
109.2405,41.9
109.2468,125.4
109.2709,80.1
109.2873,170.2
109.3026,154.1
109.3118,20
109.3532,98.8
109.3543,101
109.3695,129.7
109.388,395.6
109.4021,684
109.4106,100.2
109.4341,85.1
109.4492,259.6
109.4583,454.9
109.5251,332.8
109.5468,93.6
109.5836,197.6
109.6191,21.2
109.6306,19.4
109.6509,17.8
109.6911,556.7
109.8035,20.1
109.8252,578.1
109.8305,324.3
109.8598,480.5
109.8669,118.4
109.8742,72.4
109.8778,171
109.8805,203.5
109.9911,109.9
110.0434,321.4
110.0575,41.1
110.059,86
110.068,2262.8
110.0701,221.4
110.0711,240.2
110.0959,17.5
110.1017,105
110.1183,250.7
110.1214,451.9
110.1279,250.1
110.1808,505.9
110.185,138.9
110.1952,427.3
110.2131,17.8
110.2759,103.3
110.2827,110.4
110.314,148.2
110.3157,119.1
110.3343,18.4
110.3475,88.9
110.349,105.4
110.3673,115.5
110.3772,16.6
110.4366,260.9
110.4748,684.8
110.5025,160.3
110.5418,112.9
110.5576,570
110.6062,149.2
110.6448,211
110.6484,166.8
110.6829,262.7
110.7202,18.2
110.7728,306
110.7828,84.2
110.7855,110.2
110.7919,83.1
110.8096,275.5
110.8465,454.8
110.8536,494.7
110.9259,185.3
110.9265,171.6
110.9324,137.7
110.9752,482.5
110.9829,510.7
111.0231,345
111.0439,283.7
111.0773,163.4
111.144,283.7
111.1525,306.7
111.1693,495.3
111.1767,302.9
111.191,384.7
111.205,623.4
111.2154,292
111.2446,550.3
111.2489,222.8
111.3335,558
111.3776,80.8
111.3823,121.2
111.3994,87.2
111.4621,90
111.5004,22.6
111.5139,98.5
111.5284,218.1
111.5348,18.6
111.5401,137
111.5783,72.7
111.5936,474
111.6191,520
111.621,364.1
111.6624,105.4
111.6795,122.4
111.7248,407.1
111.8499,99.6
111.8878,79.4
111.9028,22
111.9322,263.2
111.9482,215.8
111.9717,17.8
111.9793,15.6
111.981,19.1
112.0648,106.7
112.0754,175.5
112.106,310.6
112.1139,149.6
112.124,602.1
112.1842,19.4
112.2012,160.6
112.2126,144.6
112.2477,122.7
112.3054,95.2
112.3114,357
112.3204,501.6
112.4699,127.5
112.4946,309.3
112.5366,656.9
112.5663,202.1
112.5684,129.7
112.6637,118.8
112.6918,530.9
112.7242,83.1
112.7357,136.2
112.7609,282.6
112.769,103.9
112.7817,17.4
112.7871,669.9
112.8098,20
112.8157,99.8
112.8205,403.5
112.8314,124.6
112.85,549.8
112.8531,205.1
112.8639,18.1
112.8686,414.5
112.8956,466063.2
112.9166,91.7
112.9533,107.1
112.9577,464.7
113.0538,17.1
113.0624,18.3
113.0944,164.7
113.1133,110.1
113.1278,653.8
113.1319,176.8
113.1547,571.8
113.1593,79.5
113.1849,86.3
113.2144,112.4
113.227,277.9
113.2423,87.5
113.4041,121.1
113.4265,91
113.5016,246.6
113.6256,130.8
113.7638,90.3
113.7672,131
113.7777,306.3
113.8217,259.5
113.8291,213
113.8327,677.5
113.8414,613.1
113.8685,95.8
113.8797,17.3
113.9534,45.1
113.9768,43.1
113.9868,142.9
114.0011,307
114.0549,58491.9
114.0661,1866.3
114.0906,575.4
114.1287,336.3
114.1834,249.5
114.2147,115
114.3051,284.8
114.317,160.2
114.3253,73
114.3309,50.4
114.409,82.4
114.429,253.9
114.4327,288.6
114.462,135.9
114.5591,100.8
114.5851,84.8
114.5963,475.7
114.6294,305.3
114.6318,141.7
114.6689,105.8
114.7416,519
114.7505,311.7
114.7616,330.8
114.8032,130.4
114.8406,461
114.8484,149.8
114.8803,109.3
114.8884,495.7
114.8927,143677.4
114.921,18.9
114.9532,95.4
114.9586,144.3
114.9603,105
115.016,39.6
115.0308,675.9
115.0378,192.1
115.0583,737.1
115.0778,456.5
115.0845,18.7
115.0953,547.9
115.1037,357.4
115.1128,517.9
115.1231,115.4
115.1584,272
115.1727,20.4
115.1863,183.2
115.2047,163.5
115.2352,98.2
115.2412,98.7
115.2724,17.4
115.2841,374.1
115.2942,280.1
115.3052,91.3
115.3098,18.3
115.3711,21
115.3843,367.5
115.3858,143.5
115.391,306.2
115.4428,508.4
115.4663,17.6
115.5086,41.6
115.5141,276.2
115.5474,707.7
115.55,274.5
115.5627,98
115.5866,367.2
115.619,627.7
115.6593,350.7
115.6719,16.9
115.717,83.9
115.7551,131.7
115.7885,224.6
115.7897,280.6
115.8009,208.1
115.8033,18.9
115.8391,638.1
115.8607,308.9
115.8849,642.7
115.904,258
115.951,18.3
115.9593,357.3
115.9729,509.2
115.9802,18.1
116.0313,80
116.0329,110.2
116.0414,96.4
116.0469,329.8
116.0705,2011.9
116.0895,90.3
116.1044,83.2
116.216,189.2
116.266,97.3
116.3211,496.6
116.3259,383.2
116.3357,346.3
116.3405,70.8
116.4034,289.6
116.4043,309.8
116.422,115.7
116.4239,354.7
116.4648,271.1
116.4823,17.1
116.4909,339
116.4969,249.8
116.5127,17.4
116.526,130.2
116.5578,16.4
116.5748,161.1
116.5974,484
116.6467,366.2
116.6925,108.9
116.7339,126.2
116.7698,94.5
116.7703,98.7
116.7753,70.7
116.7908,169.1
116.8092,20.6
116.826,535.7
116.855,271.1
116.86,332.6
116.8908,14799.5
116.9024,595.2
116.9858,1086.2
117.0142,372.6
117.0258,127.5
117.0319,105.5
117.0378,141.5
117.0698,20
117.0753,148.8
117.094,167.5
117.1152,19.5
117.2229,445.1
117.2291,199.6
117.2598,280.5
117.3515,18.8
117.372,612.1
117.3762,386.2
117.3987,496.3
117.4295,310
117.4428,175.8
117.4698,20.2
117.4827,185.7
117.537,589.7
117.5587,76.8
117.5907,16.6
117.5932,311.6
117.6938,131.4
117.7352,101
117.7864,262.5
117.8235,199.3
117.8552,484.1
117.8623,99.8
117.8673,182.9
117.9797,194.9
118.0063,138.1
118.0507,494.9
118.0874,417
118.0978,424.6
118.1219,273.8
118.1338,544.5
118.2041,17.3
118.2393,19.9
118.2597,274.9
118.2698,84.1
118.2917,399.9
118.3083,184.2
118.3357,300.9
118.3427,242.5
118.3739,246.4
118.3918,15.3
118.3962,345.8
118.4349,552
118.4381,17.2
118.4842,146.8
118.5036,316.5
118.5048,382.1
118.5111,624.7
118.5161,128.1
118.5263,313.7
118.6241,181.2
118.6293,289.8
118.702,101
118.7459,345.6
118.8021,123.2
118.8327,217.5
118.8361,19.5
118.8933,163.5
118.8993,19
118.9232,91.3
118.9263,115.2
118.9551,22.7
118.9893,305.2
119.0189,48
119.0281,328.1
119.036,157.8
119.0418,77.9
119.0564,153.7
119.0603,334.3
119.0629,95.9
119.0649,327
119.0727,151.1
119.0744,361.2
119.0847,339.8
119.0881,700.8
119.1118,200.8
119.1946,123
119.2153,120
119.227,338.2
119.2361,148.8
119.2572,100.3
119.3013,141.5
119.3852,201.9
119.3928,17.2
119.4097,290.9
119.4387,17.6
119.4867,456.8
119.5299,74.2
119.6823,93.5
119.7334,714.9
119.8558,308.2
119.8581,101.5
119.8616,399.8
119.8724,108.6
119.895,135.7
119.9259,88.7
119.9534,46.4
119.9682,657.8
119.9885,325.7
120.0031,4892.1
120.0625,22.3
120.0656,1254.1
120.0729,42.1
120.0807,21862
120.1003,411
120.1545,126.6
120.1912,610.9
120.2234,267.9
120.2391,398.5
120.2444,416.2
120.2731,538.4
120.2984,560.1
120.3015,126.7
120.3073,19
120.3466,391.1
120.3554,485.7
120.4146,293.7
120.4609,138.1
120.4669,129.6
120.4746,18.8
120.4866,18.5
120.4933,404.1
120.5281,536.1
120.5426,346.8
120.6106,129.8
120.6577,548.1
120.6723,129.6
120.7141,112.7
120.7257,132
120.7863,203.1
120.8513,71.5
120.89,40.6
120.892,129.1
120.925,17.3
120.9615,93.3
120.9663,340.7
120.9781,136.9
120.9807,122.5
121.0075,293.2
121.0283,323
121.0396,76.5
121.0711,16.9
121.0839,430.4
121.112,190.4
121.1223,52.5
121.1273,493.8
121.1293,159.8
121.1824,81.3
121.2141,252.3
121.2247,273.3
121.2451,258.2
121.3006,17.6
121.3032,514.3
121.3098,567.8
121.3256,126.5
121.3316,143
121.3384,102.1
121.3617,81.4
121.3781,157.4
121.4418,83.8
121.5059,122.8
121.5312,158.4
121.5978,114.5
121.6682,169.1
121.7684,98.6
121.7837,195.9
121.7863,223.4
121.8477,525.2
121.8732,491.7
121.9097,289.4
121.9657,171.7
121.9731,261.9
122.0191,92.8
122.0714,20.6
122.1422,398.3
122.2194,179.7
122.2234,82.9
122.2239,78
122.2501,76.4
122.2621,308.9
122.2923,79.6
122.3538,87
122.4308,151.6
122.4723,268.5
122.4783,542.9
122.5083,903.7
122.5341,201.3
122.562,370.1
122.582,134.7
122.599,214.7
122.6343,22.2
122.6583,443.1
122.733,401.6
122.8252,285.3
122.8374,90.1
122.8457,149.6
122.8638,18.1
122.9245,25610.9
122.9328,262.7
122.9352,86.5
122.9617,106.6
122.9668,19.8
123.0427,20.8
123.0722,550.6
123.0805,17.2
123.0969,17.8
123.1153,479.7
123.1167,19.5
123.2761,123.9
123.3087,97.9
123.4231,595.8
123.4822,232.2
123.5627,201.9
123.5637,16.7
123.5812,382.9
123.5942,111.2
123.6187,276.8
123.6352,254.4
123.6928,158.1
123.7267,150.1
123.7433,87.7
123.7897,126.9
123.8079,81.1
123.8562,431.1
123.8665,73.6
123.8882,299.7
123.8948,380.7
123.9008,129.1
123.9073,471.8
123.9128,21.5
123.9154,76.2
123.9737,102.8
123.9921,306.8
124.0245,215
124.0265,123.4
124.0468,197.1
124.076,470.5
124.1509,457.3
124.1619,187.7
124.186,73.3
124.1969,377.7
124.2171,104
124.2544,101.1
124.2569,500.6
124.2616,79.7
124.2743,145.9
124.309,572.4
124.3227,16.8
124.3724,639.5
124.406,15.6
124.4645,649.3
124.5284,321.5
124.5322,16
124.5492,84.9
124.5784,18.9
124.5836,569.1
124.5991,203.7
124.632,462.5
124.6522,17.7
124.6999,19.6
124.7453,23
124.7731,107
124.7981,677.8
124.8273,106.7
124.8393,44.9
124.8429,270.4
124.8668,74.9
124.9014,467.9
124.9207,18.3
124.9226,3119.9
124.928,103.1
124.9325,70.2
124.9393,160
124.9826,18.3
124.9854,146.7
124.9998,9058.3
125.0055,439.3
125.0388,183.4
125.0599,117.9
125.0682,77.8
125.1278,17.5
125.1386,41.3
125.2318,318
125.259,172.4
125.2731,446.7
125.2804,396.4
125.3066,276.1
125.3302,123.5
125.3609,22.6
125.3627,108.9
125.3663,318.9
125.4137,325.3
125.4426,247.1
125.449,297.4
125.4533,125.6
125.4551,297.8
125.5069,361.1
125.5565,387.8
125.5891,119.9
125.59,79.4
125.6375,483.3
125.7434,25.7
125.8,523
125.8323,634.5
125.8606,18.1
125.8786,251
125.9408,631.3
125.971,299.3
126.0106,43.6
126.059,112.6
126.0761,89.5
126.1119,106.8
126.1168,510.8
126.1634,499.1
126.1677,160.1
126.1853,561.7
126.2112,556.6
126.2161,245.8
126.2444,107.8
126.3476,144.4
126.3581,203.9
126.3684,370.8
126.5837,547.8
126.6484,403.1
126.7121,104.2
126.776,100.6
126.8153,86.1
126.8495,19.6
127.0093,549.8
127.0441,362
127.0477,94.5
127.0616,212.4
127.0748,18.8
127.0948,178.2
127.106,156.9
127.1122,121.2
127.1244,17.5
127.1347,109.8
127.1357,108.1
127.1542,17.9
127.1649,323.4
127.1889,184.5
127.2091,16.9
127.2287,17.1
127.2534,651.5
127.3028,154.5
127.321,97.5
127.3336,109.5
127.37,447.4
127.3756,373.7
127.437,85.9
127.4502,325.2
127.4954,241.9
127.4992,88.3
127.5392,207.7
127.5936,19.7
127.6053,231.4
127.645,380.6
127.6654,577.4
127.704,109.2
127.759,84.6
127.765,175.1
127.7904,75.5
127.8725,43.4
127.9011,460.4
127.9178,124.3
127.9326,134.5
127.9733,80.5
127.9954,484.9
127.9973,43.6
128.0031,458.4
128.0331,501
128.0578,18.4
128.0846,17.3
128.1095,474.4
128.1902,102.3
128.1937,21.8
128.2054,368.4
128.2623,447.9
128.3598,18
128.3664,365.1
128.3898,20.2
128.4301,141.7
128.4323,117.1
128.4352,20.2
128.4489,649.7
128.5332,398.5
128.5917,309.2
128.6909,337.3
128.7222,194.6
128.735,112.5
128.7389,45.2
128.8244,94.7
128.8335,87
128.8587,149.4
128.8659,316.8
128.8868,521.2
128.9219,443.7
128.9334,633.2
128.9427,19
128.9468,198.8
128.9598,22.9
128.9664,451.5
128.9788,162.8
128.986,25.6
129.0657,763.7
129.1021,1607.1
129.1327,339
129.1352,141
129.1735,236.1
129.1895,332
129.1934,201.2
129.2146,146.1
129.2931,280
129.3747,284.3
129.413,147.4
129.44,131
129.4562,555.9
129.5115,128.5
129.5244,998.2
129.5314,21
129.6129,355.9
129.6156,330.8
129.6376,151.2
129.7403,322
129.7646,309.3
129.7665,747.1
129.7956,104.1
129.8406,18.1
129.8433,506.3
129.8532,241.8
129.9152,284.4
130.0498,10024.7
130.2303,188.7
130.2448,301.3
130.2849,19.6
130.3016,20.4
130.3201,607.6
130.4051,387.7
130.4193,99.9
130.4354,91.7
130.496,357
130.5124,179.4
130.562,136.7
130.5967,172.1
130.6534,593.7
130.8313,233.7
130.8469,387.6
130.8961,567.5
130.9329,1109.9
130.946,282.7
130.9502,290.2
131.0017,802
131.031,97.1
131.0794,495.3
131.081,366.5
131.1102,205.1
131.1297,91.6
131.1848,21.9
131.1897,814.4
131.2059,572.3
131.2901,83.6
131.308,96.1
131.3121,281.4
131.4282,184.9
131.492,17.3
131.4983,319
131.5146,210.8
131.5684,480.5
131.5782,321.4
131.6729,112.8
131.6813,153.9
131.6886,24.2
131.6945,175.4
131.7082,93.1
131.8148,711.6
131.8215,75.2
131.8416,365.3
131.9611,89.5
131.9679,78.2
132.0032,22605.1
132.0655,98688.9
132.0718,507.6
132.0767,1279.9
132.0963,17.8
132.137,374.1
132.2101,479.5
132.2177,714.1
132.2229,573.4
132.2586,189.7
132.2829,147.7
132.3108,19.9
132.315,668.7
132.3248,144
132.378,97.1
132.3984,500.8
132.4113,19.6
132.5352,413.2
132.5389,47.9
132.5513,49.2
132.5675,357.3
132.6029,299.5
132.6655,471.9
132.6863,84.9
132.7143,628.6
132.8367,331.5
132.887,676.5
132.9027,33.8
132.916,18
132.9282,143.7
132.9872,2535.2
132.9964,155.9
133.0032,86
133.0056,19.1
133.0086,43
133.0362,521.1
133.0433,426
133.0689,4133.1
133.0719,817.7
133.0787,532.2
133.0971,10519.2
133.099,601.3
133.1173,146.6
133.1651,190.8
133.1928,96.1
133.1945,368.7
133.2128,313.7
133.2366,509.9
133.2409,574.5
133.2676,18.8
133.2723,101.8
133.2946,473.7
133.2959,696.8
133.3119,140.2
133.3362,390.7
133.404,508.7
133.4285,143.5
133.4879,111.1
133.519,85.7
133.5221,321.4
133.5252,106
133.5273,649.7
133.5563,134.5
133.605,18.3
133.7083,405.9
133.7307,44.3
133.8018,114.9
133.8035,445.2
133.8533,158.5
133.881,330.1
133.8827,18.4
133.9245,343.2
133.9379,321.9
134.0126,87
134.0188,10166.4
134.0496,17.1
134.1145,512.8
134.1224,183.4
134.1548,146.7
134.1893,20.1
134.1993,590.9
134.2863,146
134.2904,335.7
134.292,276
134.2937,18.4
134.3075,238.5
134.3435,185.2
134.3733,97.2
134.3767,22.6
134.4144,182.4
134.4512,111.4
134.4915,520.3
134.4933,261.8
134.5546,91.9
134.61,159.2
134.6396,19.2
134.7739,172.9
134.8198,227.5
134.8393,45.5
134.8601,43.8
134.8621,625.4
134.8801,17.5
134.8834,248.2
134.9181,616
134.9671,239.1
134.9965,45.3
135.0028,68391.5
135.0191,474.2
135.0196,604.7
135.0202,539.3
135.0237,281
135.0563,87.1
135.0635,484.9
135.0936,497.5
135.1168,42.7
135.2131,350.1
135.2175,325
135.2857,113.7
135.3341,298.9
135.3452,108.3
135.3536,121.3
135.3737,840.9
135.4029,133.9
135.4585,334
135.5209,208.4
135.5447,17.7
135.5765,81.2
135.5958,555.9
135.5979,96.4
135.6152,184.8
135.6243,123.1
135.6811,506.7
135.7005,160.2
135.7104,278.6
135.7338,147.9
135.7513,17.2
135.818,581
135.829,125
135.854,334.9
135.8637,166.5
135.8741,390.9
135.9337,259.4
135.951,701.5
135.9642,520.8
135.9771,3468.9
136.0064,438
136.0466,767.4
136.0481,13933.1
136.0616,69.8
136.0757,17567.3
136.1447,79.8
136.2092,19.7
136.2298,103
136.2538,190
136.3342,19
136.3639,108.5
136.3762,256.1
136.3835,184.9
136.3927,151.5
136.4287,192.5
136.4596,88.9
136.4796,319.7
136.4865,47
136.4927,325
136.4967,19.1
136.5142,126.2
136.5205,154.4
136.5391,332.2
136.7518,184.8
136.76,466.2
136.7936,142.7
136.8128,111.5
136.9186,45.1
136.9311,2059.4
136.985,507.1
136.9988,256.4
137.023,121.6
137.0596,23.7
137.0731,20
137.0934,350.5
137.1066,164.9
137.152,265.5
137.1729,166.2
137.1875,403.6
137.1957,18.3
137.3774,95.3
137.3886,599
137.3944,283.2
137.4068,272.9
137.4401,573.8
137.4652,492
137.4877,308.4
137.5122,20.3
137.533,171.1
137.5709,650.4
137.5825,500.2
137.7084,296.4
137.7179,135.6
137.7234,112.9
137.7298,153.2
137.7313,19.7
137.7364,52.5
137.7511,281.1
137.7634,373.3
137.8116,81.9
137.8334,551.1
137.8583,161.7
137.8736,515.3
137.9005,402.1
137.9018,90.8
137.9112,347.3
137.9135,103.9
137.9412,104.2
138.0301,346.8
138.037,104.8
138.0526,3908.8
138.0643,107
138.066,22.9
138.1125,101.4
138.1534,626.8
138.1768,516
138.1805,19
138.2748,81.4
138.2793,155.6
138.3244,98.1
138.3914,103.2
138.4374,457.4
138.505,99.5
138.5706,117.9
138.5848,319.7
138.5939,322
138.6187,536.2
138.7293,94.2
138.7702,24.1
138.8631,114.4
138.8845,123.5
138.9065,4311.8
138.9423,455.5
138.9529,158.2
139.0131,20.6
139.0463,143.2
139.0964,91.3
139.1018,484.8
139.112,313
139.1148,20.4
139.1963,521.1
139.1985,102.4
139.2994,42.5
139.3021,145.6
139.3964,614.8
139.4822,163.6
139.5391,554.5
139.6209,709
139.638,20
139.6591,21.7
139.7066,135.9
139.8654,104.9
139.9691,213.4
140.0023,592.2
140.0164,1227
140.0536,227.4
140.0682,2213.7
140.0727,631.3
140.0758,162.7
140.0834,519
140.1109,538
140.1118,521.4
140.146,875.7
140.149,31.6
140.1733,100.7
140.1796,247.9
140.241,107
140.2507,571.6
140.2617,181.7
140.2866,114.2
140.2887,636.5
140.3304,362.9
140.3518,543.6
140.4341,18.6
140.4686,175.3
140.5214,105.3
140.5432,229.9
140.5461,182.5
140.5576,182.6
140.5755,106.5
140.621,103.3
140.7103,845.3
140.8366,192.1
140.8772,101.7
140.9034,1729.4
140.9249,398.1
141.0004,16144.7
141.0036,324
141.0198,25.6
141.0518,169.8
141.0699,165.3
141.1352,590.5
141.1921,80.3
141.1951,141.5
141.2002,761.6
141.3238,17.1
141.3465,20.4
141.3599,46.6
141.5146,81.3
141.5693,344.9
141.6155,18.7
141.638,245.4
141.6647,42.6
141.7048,95.5
141.716,119.4
141.7212,195
141.7546,84.9
141.7734,648.4
141.7976,264.9
141.9157,22.6
141.9373,370
141.9728,149.3
142.0038,383.1
142.0089,302.3
142.0176,105.1
142.0475,502.1
142.0735,47.3
142.1117,287.3
142.1155,78.4
142.1227,18.2
142.1594,576.1
142.185,18.7
142.2157,430.2
142.3678,83.7
142.4061,172
142.448,132.9
142.5804,500.8
142.5926,232.5
142.629,437.3
142.6546,70.7
142.6771,253
142.7209,191
142.7251,768.8
142.7545,445.9
142.7667,109.1
142.7715,101.1
142.8556,329.1
142.9007,353.7
142.9048,107.8
142.9386,8851.6
142.9962,239.2
143.0189,1583.1
143.0728,708.5
143.0816,525.1
143.124,123.1
143.1421,496.3
143.1439,351.2
143.1505,273.3
143.1783,20.7
143.2601,273.4
143.2826,277
143.3147,95.2
143.322,134.9
143.358,18.5
143.3846,146.3
143.4112,162.5
143.4257,42.1
143.4315,288.1
143.4377,80
143.4556,314.2
143.4594,20.5
143.5075,342.2
143.5495,122.4
143.6212,81.5
143.6895,19.9
143.7688,92
143.7984,371.4
143.8132,476.9
143.8157,83.8
143.8817,682.7
143.9405,298.3
143.9474,208.9
143.9611,442.1
143.997,33.9
144.0166,139.1
144.0761,257.6
144.0807,167.5
144.1049,20
144.1323,439.5
144.1361,110.2
144.1384,420.8
144.1799,89.4
144.1841,91.1
144.1972,109.8
144.2011,18.1
144.208,639.9
144.2106,319.4
144.2671,367.6
144.3282,424.8
144.3414,18.2
144.3854,450.2
144.4041,563.9
144.4558,17.8
144.5312,133.7
144.5461,470.9
144.5569,18.3
144.5607,430.6
144.5989,246.1
144.6091,145.8
144.634,308.3
144.6958,334.4
144.7432,304
144.7991,381.2
144.818,509.6
144.8968,264.5
144.9232,40.3
144.9244,330.4
144.9295,264.3
144.952,695.1
144.9615,17.5
144.9808,3768.2
144.9968,175.9
145.0058,88.4
145.0614,151.5
145.0638,438.3
145.101,17.6
145.123,263.8
145.1345,151.4
145.1564,17.6
145.1884,273.8
145.2111,212.4
145.2399,533.3
145.2526,257.4
145.3517,38.5
145.3606,327.7
145.3898,134.7
145.3953,279.2
145.4636,89.9
145.6047,196.9
145.628,722.8
145.6836,486.3
145.7033,192.2
145.7096,21
145.7472,252.7
145.8092,49.9
145.8254,330.9
145.9054,336.6
145.9124,188.8
145.9611,136
145.9672,178
145.9696,23.2
145.9794,203.2
145.9841,139.9
145.9908,20.6
145.9956,165.3
146.0125,3628.8
146.0189,13075.3
146.036,89.2
146.0495,310.4
146.0707,102.1
146.0974,96.4
146.1693,232.5
146.1878,503.9
146.2245,18
146.2654,481.7
146.3188,18.4
146.3424,124.7
146.409,143.5
146.4135,83.6
146.4766,17.7
146.5473,127.7
146.5567,501.1
146.6188,16.6
146.69,409.7
146.7477,305.6
146.764,115.7
146.8119,100.7
146.8458,582
146.8737,144.8
146.8784,103.8
146.8895,135.7
146.9207,337.5
146.9237,580.1
146.954,336.8
146.9818,91474.1
147.0416,131
147.072,96.9
147.0764,60373.2
147.1128,27385.6
147.1167,131.2
147.1321,121.6
147.1337,378.5
147.1776,319.1
147.1966,257.1
147.2252,422.8
147.239,391.6
147.2504,1345.5
147.2585,303.3
147.2757,306
147.288,293.6
147.3377,213.8
147.3744,106.9
147.4131,830.3
147.4158,158.7
147.4201,317.3
147.4244,291.1
147.4396,21.3
147.5418,114.5
147.5549,147.3
147.582,22.4
147.7362,121.8
147.7434,183
147.7467,21.8
147.8363,258.3
147.8461,196.4
147.8812,196.7
147.9017,604.8
147.9571,470.3
147.985,373.2
148.0799,283.8
148.0834,240.6
148.1427,337
148.1519,145.2
148.1868,294.2
148.1994,17.8
148.221,277.4
148.2884,505.8
148.2912,22.8
148.3207,22.2
148.4153,100.8
148.4317,439.2
148.4347,136.6
148.4477,152.2
148.5303,712.3
148.5322,3292.9
148.5671,107.6
148.5781,161.3
148.5788,153.4
148.5842,255.1
148.5888,150.4
148.6464,112
148.6793,330.4
148.747,115.1
148.8149,18.6
148.8248,554.1
148.8324,127.5
148.8396,110.3
148.8774,103.3
148.9611,1150.3
148.9832,188.1
149.0025,56.8
149.0185,3261.7
149.0233,5265.1
149.0448,21.5
149.1184,347
149.1325,109.6
149.1733,18.3
149.19,20.2
149.2753,90.5
149.3032,105.2
149.3496,629.9
149.3539,215.8
149.4366,221.1
149.4645,179
149.5654,314.2
149.5927,683.9
149.64,110.5
149.6888,47.6
149.6905,644.7
149.7548,98.4
149.7714,94.8
149.7806,164.7
149.791,293.2
149.7966,46.4
149.8394,86.3
149.8587,148.5
149.8878,19.1
149.9065,138.3
149.937,85.2
149.9709,80.6
149.9928,5944.4
150.0138,6824.7
150.0232,285.8
150.0262,247.4
150.1804,149.7
150.1876,18.3
150.1996,283.9
150.2074,435.8
150.222,275.8
150.2607,324.9
150.4044,727.1
150.4362,316.4
150.4806,105.7
150.5601,20.3
150.5917,427
150.5979,17.9
150.7387,711.2
150.7427,470
150.8826,396
150.9451,158.5
150.9601,472.6
150.9768,44428.1
150.9841,278.9
151.0129,475.4
151.0479,2991.5
151.0501,400.5
151.0802,262.7
151.138,331.6
151.2121,21.2
151.2187,190.2
151.2409,149.1
151.3324,397.2
151.3738,176.8
151.3825,94.8
151.4006,173.2
151.5103,668.8
151.5445,89.1
151.555,251.4
151.6587,136.7
151.7134,18.4
151.756,290.5
151.7667,19.2
151.8529,105.2
151.869,368.1
151.9298,18.9
151.9463,89.2
151.9511,1072.2
151.9536,85.7
151.9639,119.9
151.9688,18.2
151.9749,281.4
151.9802,592.2
152.0021,455.1
152.0221,15085.3
152.0319,3417.8
152.0355,218.3
152.0805,103.1
152.1277,299
152.1638,609.4
152.1674,18.1
152.1802,370.1
152.3233,150.1
152.3884,373.5
152.4925,18.4
152.6322,19.7
152.66,207.5
152.7019,230.3
152.7262,176.6
152.7312,75.5
152.7596,26.8
152.902,672.8
152.9559,18.6
152.9749,1876.4
153.0428,619.5
153.0571,272.7
153.1117,87
153.1362,379.8
153.1571,607.7
153.3015,17.6
153.3676,137.3
153.4176,523.8
153.4487,519.1
153.4797,271.4
153.543,140.5
153.5914,310.8
153.6216,217.5
153.7393,158.2
153.7411,445.6
153.7941,385.6
153.8339,453.7
153.8547,334.8
153.9378,413.6
153.9422,380.2
153.9537,42.8
153.982,83.1
154.0111,539.1
154.039,98.4
154.0588,1204.4
154.0769,193.2
154.1497,243.4
154.185,434.9
154.2072,160.1
154.3026,130.5
154.3198,22.9
154.3279,102
154.4211,164.6
154.423,451.6
154.4253,489.1
154.4339,109.1
154.436,148.7
154.46,403.7
154.4965,161.9
154.5763,102.3
154.5942,18.3
154.6638,129.8
154.6941,396.7
154.7145,692.8
154.8435,234.4
154.9074,121.4
154.9115,154.5
154.9416,673.8
154.969,2175.6
155.0178,210.5
155.0398,375.9
155.0427,1032.3
155.0474,484.1
155.0492,121.5
155.0539,6083.8
155.0791,1082.8
155.0955,81.9
155.1062,344.7
155.1247,131.7
155.1501,279.9
155.1671,82
155.2323,293.4
155.2727,640.4
155.3515,346.6
155.4564,144.5
155.4891,848.2
155.4978,234.3
155.5244,85.5
155.5861,17.6
155.5912,292.8
155.6086,75.4
155.6286,257.9
155.6884,251.9
155.7256,323.8
155.7327,163.5
155.7473,99.9
155.7883,221.3
155.8408,106.9
155.8678,182
155.9051,227.6
155.9862,546.6
156.0422,2425.9
156.049,222.3
156.0511,44.7
156.0573,132.9
156.0652,17.9
156.0768,45017.7
156.0991,79.6
156.1117,116.1
156.1569,53.8
156.1836,192.9
156.2247,376.6
156.3144,344
156.3478,330.8
156.3601,361.3
156.3885,137.5
156.4234,297.4
156.4988,322.6
156.5241,139.2
156.5466,92.4
156.5676,294.6
156.5709,389.2
156.5789,17.6
156.5954,127.6
156.6072,40
156.7046,267.5
156.7108,376.1
156.7383,76.2
156.7531,19
156.7648,155.9
156.7932,300.8
156.9131,270.6
156.9379,130.7
156.9485,268.8
156.9744,56.2
156.9773,121.8
156.981,90.3
157.0153,495.3
157.0224,155.9
157.0288,331.3
157.0321,215.7
157.0649,324.2
157.0709,356.8
157.0972,404
157.1217,132.6
157.1248,152.1
157.2257,142.9
157.2665,234.3
157.2968,46.3
157.3385,105.3
157.3891,171.5
157.4273,191.4
157.4396,119.7
157.4609,90
157.4858,105.7
157.4984,168.1
157.5086,440.1
157.5402,44.6
157.6203,272.9
157.6244,364.4
157.6314,79.3
157.6341,537.4
157.6846,111.2
157.7107,512.6
157.7187,273.3
157.7986,262.7
157.8034,334.2
157.9101,21.8
157.9169,653.4
158.0147,438.9
158.027,3096.5
158.0545,480.8
158.0669,19.1
158.2022,314.4
158.2067,174.1
158.3322,250.8
158.3612,22.5
158.4873,43.4
158.6393,404.2
158.6977,528.2
158.7219,144.4
158.7447,17.2
158.828,131.8
158.9277,2297.8
158.9641,14853
158.9714,102.6
158.9965,11839.4
159.0304,59.1
159.0441,175.3
159.0727,110.8
159.0748,16.7
159.0764,481.8
159.0917,627.1
159.1093,74.7
159.1152,198.9
159.118,206
159.1484,20.9
159.1956,475.2
159.227,161.5
159.4209,304
159.4419,20.7
159.4832,104.7
159.5128,336.4
159.5536,257.3
159.6288,315.4
159.6678,283.8
159.7188,486.8
159.7208,205.6
159.8397,573.9
159.8497,85.6
159.8558,80.8
159.8787,17.6
159.888,136.2
159.8925,121.2
159.9044,542.1
159.9542,166.7
159.9889,93.5
160.023,53.7
160.0346,10589.4
160.0605,120769.6
160.1589,550
160.1852,610
160.2726,100.6
160.3084,523.7
160.3622,339.9
160.4691,130.5
160.4872,198.7
160.5667,192.4
160.6529,588.5
160.681,84.2
160.7726,44.5
160.7865,325.8
160.8392,270.7
160.8986,77.8
160.9184,20.4
160.9768,123.5
160.9905,24.1
161.0168,695.9
161.036,233
161.0639,5596.1
161.0835,346.2
161.0963,27.2
161.1286,2160.2
161.1326,481.3
161.1436,492.2
161.1957,517.5
161.2239,177.1
161.3089,147.1
161.348,316.2
161.3697,179.6
161.3722,204.9
161.5126,98.8
161.6495,655.8
161.7088,209.1
161.7655,146.1
161.796,105.8
161.9021,134.3
161.9177,198.8
161.9266,431.5
162.0077,100.7
162.0374,24.2
162.0502,15916.8
162.076,253.4
162.1423,42.8
162.1584,122
162.1656,16.8
162.1914,95.5
162.352,23.1
162.36,343.4
162.3996,255.6
162.5095,277.5
162.5536,124.4
162.626,203.9
162.6426,178.4
162.6518,87.1
162.6548,118.9
162.6586,514.3
162.7165,340.5
162.7185,154.1
162.7768,724
162.8378,85.5
162.8472,17.9
162.9523,445.9
162.9556,2244.5
162.9706,871
162.9839,134.9
162.9982,274.7
163.0113,158.4
163.0126,276
163.0155,2110.3
163.0462,192.3
163.0574,388.9
163.1119,242.2
163.1182,47.9
163.1481,27.6
163.1952,586.3
163.2921,340.7
163.3116,202.9
163.3178,247.5
163.3482,18.3
163.3583,230.8
163.3837,42.8
163.4556,92.2
163.4842,286
163.5586,559.8
163.59,116.1
163.6159,153.1
163.6355,104.4
163.6451,188.7
163.649,586.3
163.6539,168.5
163.6588,295.4
163.7379,237.8
163.7409,179.4
163.8264,374.1
163.8421,346.8
163.872,525.3
163.9524,345.7
164.006,157.2
164.0233,182.2
164.0269,502.3
164.0295,12918.1
164.0605,81.5
164.1784,339.9
164.1809,327.1
164.1856,365
164.1882,18.6
164.263,131.1
164.2687,140.1
164.2844,416.4
164.2996,493.5
164.3302,18.2
164.3471,182.6
164.3788,322.7
164.3831,318.8
164.479,243.1
164.5519,289.3
164.6588,83.7
164.68,285.5
164.6968,173.8
164.7357,91.5
164.7651,19.1
164.8201,315.2
164.8701,73
164.8823,533.8
164.9206,6668.6
164.9301,19455.5
164.9352,868.4
164.946,89.1
164.9731,670.2
164.9925,592.5
165.0798,19.8
165.0911,1009.8
165.1397,113.9
165.2024,642
165.2853,379.5
165.359,97.6
165.3977,135.7
165.5815,632.3
165.6062,178
165.6647,219.3
165.6763,22
165.7067,190.9
165.7095,602.3
165.7243,298.9
165.7534,86.9
165.7986,144.3
165.8338,115.1
165.843,17.5
165.8841,89.4
165.9433,417.4
165.9668,1589.7
165.9789,1372.2
165.9878,6574.7
165.995,100.6
166.0135,461.4
166.0506,205.1
166.0594,417.1
166.0721,511.6
166.1026,365.4
166.1362,365
166.1714,306.5
166.2381,324.6
166.2688,188.4
166.2783,20.3
166.4123,276.2
166.4212,252.8
166.5941,230.1
166.6153,615.4
166.6481,108.1
166.6569,300.6
166.7813,500.8
166.8187,183.8
166.8587,819.1
166.8657,480
166.8743,431.3
166.9082,338
166.9302,125.6
166.9508,15694.8
166.9602,356.1
166.9628,702.9
167.0218,5477.1
167.0349,211
167.0791,108
167.1713,87.8
167.1777,116.7
167.1986,572
167.2243,93.5
167.3298,303.6
167.3492,196.5
167.3521,18.3
167.3847,154.6
167.4081,93.1
167.4492,112.3
167.4859,17.5
167.5099,858.2
167.6046,118.8
167.6243,138.2
167.6264,17.2
167.6531,18.8
167.662,437.1
167.6645,836.5
167.6731,137.7
167.7317,92.5
167.8164,109.1
167.9635,52.1
167.9945,2795.8
168.0058,741.6
168.0608,280.2
168.0916,20.1
168.1229,106.2
168.1291,317.4
168.1451,310
168.4098,17.2
168.4845,468.4
168.5696,166.3
168.6139,352.1
168.6274,197.5
168.6401,507.1
168.6741,159.7
168.7333,87.8
168.7606,500.9
168.7641,334.8
168.8137,301.4
168.8606,86.2
168.9489,868.8
168.9748,18.3
169.0121,636
169.0171,23
169.0379,171.5
169.05,374.9
169.0555,275.7
169.0585,57170.6
169.0649,817.1
169.0707,18.3
169.086,204.1
169.0947,2442
169.0972,519.9
169.1185,200.7
169.1252,203.2
169.1725,215.5
169.193,23.5
169.2817,219.2
169.3221,446.8
169.3562,561.4
169.3649,125.4
169.4324,80.2
169.4446,334.5
169.5025,80.2
169.5396,18.2
169.6287,268.5
169.6544,248.4
169.6792,129
169.7452,269.3
169.771,286.6
169.7865,279.1
169.7908,88.5
169.826,113.1
169.9206,51
169.9225,176
169.9462,93
169.9858,1012.7
170.0328,5299.1
170.0759,156.1
170.0925,9502.1
170.1143,276.6
170.1448,609.2
170.2743,281.2
170.2935,280.2
170.3381,432.4
170.3727,101.9
170.4063,334.2
170.4153,298.8
170.4187,86.6
170.4313,155.2
170.4702,118
170.4806,153
170.5601,506.5
170.5666,138.6
170.5851,144.7
170.6055,137.2
170.7586,112.4
170.7692,104.1
170.7789,174.1
170.7818,131.2
170.8544,5598.8
170.8991,214
170.9187,107.6
171.0167,540.4
171.0279,527
171.0533,346.2
171.0828,21.1
171.1566,123.1
171.1592,475.2
171.2081,18.8
171.2397,300.8
171.2543,289.5
171.273,323.4
171.3416,18.4
171.347,105.6
171.3764,345.4
171.3989,447.1
171.4242,172.2
171.49,98.8
171.5262,417.5
171.5609,134.3
171.6015,276.5
171.6371,19.2
171.6742,334.3
171.699,212.4
171.7531,18.4
171.7581,137.3
171.7733,91.8
171.814,312.2
171.8567,17.8
171.8594,358.1
171.9246,97
171.9376,592.6
171.9735,146.4
171.9773,131.7
172.0283,1902.1
172.044,92.7
172.1531,145.2
172.1949,416.5
172.2657,709
172.32,272
172.3459,357.6
172.3747,116.3
172.4041,106.1
172.4172,103.7
172.4588,530.3
172.4788,206.6
172.481,120.6
172.5442,125.9
172.5964,167.1
172.5991,227.8
172.6289,90.2
172.6363,370.5
172.6842,196.7
172.7361,458.4
172.787,678.2
172.804,20.8
172.8516,1932.7
172.8755,464.7
172.9374,155.8
172.9523,29.2
172.9561,21.6
173.0276,512
173.0963,596.7
173.1045,504.2
173.1545,289.6
173.2233,542.2
173.2905,351.3
173.3143,668.9
173.4022,115.5
173.4069,99.4
173.4586,272.9
173.4674,371.6
173.4879,74
173.5752,82.1
173.5916,201.2
173.6189,123.6
173.6307,615.6
173.6916,93.4
173.7017,18.5
173.7045,145.1
173.7136,20.8
173.7236,118.5
173.732,142.5
173.7851,506.9
173.8222,212.8
173.8324,81.2
173.8392,472.9
173.8682,605.3
173.9683,89.4
174.0094,459.8
174.0299,21
174.0997,18.2
174.1121,146.1
174.1392,360.1
174.1448,82
174.2333,89.8
174.2462,734.6
174.308,453.5
174.3222,490.9
174.3418,453.2
174.4453,19.3
174.4533,17.6
174.5015,304.2
174.5111,80.7
174.5891,446.3
174.6256,302.3
174.6793,540.3
174.6984,91.6
174.7106,171.4
174.7592,180.7
174.7743,309.5
174.7844,81.6
174.8093,74.3
174.8391,145
174.8868,642.6
174.8983,222.1
174.9381,6791.5
174.9513,83.1
174.9695,124.2
174.9812,20.7
174.994,728.5
175.0108,83.3
175.0158,99.1
175.0343,9923.8
175.0456,1974.1
175.1063,157.4
175.1191,83389.1
175.26,516.4
175.265,383
175.2819,257.4
175.4228,239.2
175.5699,105.2
175.6066,118.7
175.6083,465.2
175.6741,334.8
175.6801,88
175.7584,612.5
175.7855,118.1
175.7919,168.7
175.7993,18.5
175.8209,185.4
175.8394,571.4
175.8534,345.3
175.8592,860
175.8603,1032
175.919,312.6
175.9972,498.6
176.0085,4532.8
176.0128,624.4
176.0408,523.2
176.0571,92.2
176.0659,26943
176.1031,1736.9
176.1224,2923
176.1506,17.3
176.2334,141.2
176.2812,43.2
176.4197,17.1
176.4886,460.2
176.5748,271.6
176.6084,302.1
176.7511,19.2
176.7734,123.1
176.8209,165.8
176.974,451.6
176.9925,543.3
177.0082,541
177.0248,5894.9
177.0611,8468.2
177.0694,933.2
177.0751,333.2
177.0872,2179.7
177.1424,408.1
177.1734,111.1
177.3304,135.3
177.395,137.4
177.5196,106.3
177.5449,706.5
177.7117,125.7
177.7776,210.4
177.7819,17.8
177.8644,273
177.906,97.6
177.9233,259.2
177.958,120.5
177.9944,214.2
178.0088,9179.2
178.0208,467.8
178.0242,9247.3
178.0337,723.3
178.0536,425.7
178.0589,2975.5
178.1147,491.8
178.2075,218.4
178.244,396.8
178.2575,144.1
178.3128,181.9
178.5404,19.2
178.5673,21.8
178.6183,383.2
178.8628,93.1
178.8787,98.1
178.9284,313.9
178.9712,213.3
179.0482,20
179.0754,573.7
179.1741,268.6
179.2127,335.5
179.3214,99.8
179.3608,455.4
179.4443,348.5
179.4779,99
179.4992,362.7
179.5125,17.8
179.5321,230.4
179.5389,547.9
179.5805,532.4
179.5906,444.5
179.5965,591.8
179.5996,84.2
179.7255,81.6
179.7652,347.4
179.7749,321
179.8617,478
179.9222,17.6
179.9836,446.7
180.0035,10099
180.1128,320
180.1229,91.3
180.1403,302.7
180.1562,350.9
180.1659,244.4
180.1731,481.5
180.2147,261
180.2555,359.5
180.3053,200.1
180.3829,122.7
180.4311,366.4
180.499,544.3
180.531,335.9
180.5993,204.2
180.6877,102.7
180.7486,702.4
180.7619,280.7
180.7916,485.3
180.794,467.8
180.8403,360.7
180.8707,97.3
180.8916,105.1
180.8946,3081.7
180.9041,12127.4
180.9575,2314.1
180.9869,19.7
181.0263,157.5
181.0376,75.1
181.0446,177
181.065,7697.8
181.1707,118
181.4423,179
181.449,18.8
181.4626,413.1
181.5238,552.6
181.5994,300.1
181.6125,89.5
181.6727,331.4
181.703,89.7
181.7132,69.4
181.7253,95.5
181.7516,403.9
181.7613,84.6
181.7993,137.7
181.8094,20.4
181.8293,348.1
181.9165,76.6
181.9616,848.7
181.9794,182.9
182.0129,97.2
182.0155,51.1
182.0314,503.3
182.0426,32815.3
182.0472,346.7
182.2315,19.6
182.2691,278.8
182.3044,206.8
182.4305,112.9
182.4491,516.3
182.4909,109.5
182.6288,18.1
182.6915,25.6
182.7476,305
182.9023,23.1
183.0046,316.3
183.0444,2177.6
183.0504,188.3
183.085,327.6
183.1008,452.2
183.2348,161.4
183.2461,215.9
183.2857,478.4
183.2894,159.2
183.2993,493.1
183.3049,172.9
183.3238,89.8
183.3561,486.2
183.3584,340
183.3851,186.7
183.4838,151.4
183.5422,279
183.5831,159.8
183.7286,317.7
183.7488,99.1
183.8379,315.2
183.8783,87.2
183.9473,494.3
183.9646,800.9
184.0374,783.6
184.0663,1528.1
184.0689,2205.3
184.0735,3954522.8
184.0813,240.4
184.0835,285.9
184.1095,641
184.1823,425.9
184.241,228.5
184.2794,218.5
184.2845,95.3
184.2898,88.9
184.2999,92.7
184.3602,405.1
184.464,334.5
184.4795,20.3
184.4838,95.8
184.5095,294.6
184.5603,649.8
184.6836,108.2
184.7496,100.4
184.7512,114.2
184.8489,287.1
184.8955,325.6
185.0234,902.6
185.0325,57172.6
185.0704,8557.8
185.0768,181253.1
185.0795,2657.5
185.0835,272.3
185.116,91
185.1228,524.3
185.1729,496.7
185.2946,298
185.341,322.9
185.3439,302.6
185.3538,154.2
185.3934,88
185.4364,129
185.5462,353.9
185.6218,164.3
185.6293,404.1
185.6349,153.6
185.6545,258.9
185.6912,104.4
185.7404,753.3
185.7605,468.2
185.813,21.1
185.8777,353.3
185.8967,321.4
185.8994,326.6
185.9036,487.3
185.96,1423.5
185.9986,328.9
186.0152,550.2
186.0174,136.2
186.0358,746.7
186.0573,580.7
186.0777,22864.1
186.087,301.9
186.1175,587.6
186.1235,236.2
186.1383,81.8
186.144,101.5
186.1864,248.7
186.2019,225.5
186.2364,307.8
186.2461,103.2
186.3798,181.8
186.4358,106.7
186.5118,316.6
186.6658,98.5
186.6674,104.1
186.7078,283.2
186.7238,349.1
186.7945,294
186.8287,289.2
186.9122,3514.7
186.919,17.8
186.9317,140.8
187.0002,286.3
187.0132,366.6
187.0201,572.2
187.0306,1204.9
187.0353,41.3
187.0479,1949.6
187.0578,4354.1
187.0715,2093.1
187.087,277.4
187.093,135.7
187.1079,6930
187.1966,561.7
187.38,425.3
187.3891,165.2
187.4158,517.1
187.5042,134.1
187.5509,167.8
187.5745,127.4
187.5857,16.9
187.6964,138.3
187.7308,82.5
187.7704,124.2
187.7731,86.9
187.9452,352.1
188.0612,483.6
188.0692,329.6
188.2148,18
188.2394,524
188.2586,82.7
188.3537,264.6
188.5158,436.5
188.5426,568.7
188.6046,496.7
188.6305,127.5
188.6891,556.2
188.7181,104.8
188.8243,20.8
188.8358,43.3
188.8731,134.2
188.883,304.8
188.9035,109.5
188.9212,164.8
188.9449,684.2
189.0074,710.9
189.0236,325.5
189.0613,1873.2
189.0872,10300.4
189.106,84.5
189.1144,270.3
189.1355,130.2
189.1402,17.2
189.1433,90.6
189.169,498.4
189.1927,72.8
189.2126,578.7
189.2757,247.1
189.286,622.2
189.3199,603.9
189.3815,244
189.3931,136.8
189.4179,16.6
189.5011,555.8
189.5108,17.8
189.5581,17.2
189.5659,301.9
189.6666,19.2
189.7751,374.7
189.8127,152.6
189.8601,196.2
189.9311,138.9
189.9574,19.9
189.9781,125.7
190.0638,131.2
190.4528,530.2
190.568,142.4
190.6369,291.3
190.6646,74.2
190.6857,471.2
190.726,132
190.7592,105.9
190.8256,82
190.8804,19.8
190.912,1377.1
190.9444,158.8
190.9552,19.4
190.9581,526.7
190.9772,89.9
190.9841,412.4
191.0083,6899
191.0192,45.7
191.0307,46.8
191.0405,170601.7
191.0768,25515.1
191.0927,599.7
191.1833,22.4
191.2837,113
191.3571,498.6
191.4346,110
191.5191,18.1
191.6222,156.5
191.7255,102.4
191.7747,102.4
191.789,146.3
191.8013,113.3
191.9008,231.9
191.9316,141.9
191.9796,17.9
191.9829,432.7
192.0399,15725.3
192.0438,6332.8
192.0803,813.5
192.1922,264.3
192.206,380.4
192.2101,244.1
192.2316,143
192.2444,368.2
192.2655,132.4
192.2856,129.2
192.3161,81
192.535,357.6
192.6095,100
192.6584,289.9
192.6711,18.6
192.6765,101.6
192.8569,131.1
192.9612,436.7
192.9989,5649.7
193.0352,3589.9
193.0641,477.6
193.1455,146.6
193.1588,20.1
193.2177,337.4
193.2693,298.9
193.3449,298.2
193.3512,306.7
193.3631,89.8
193.5145,92.6
193.5248,472.1
193.5288,122.3
193.6034,616.4
193.6337,228.2
193.6914,163.5
193.7848,487.5
193.8116,427.5
193.9983,1341.3
194.005,1771.1
194.0102,123.6
194.0327,655.9
194.038,367.2
194.0744,176.3
194.1542,108.3
194.2687,18.7
194.2833,1232.3
194.3032,422.7
194.352,477.3
194.4467,121.9
194.5,271.5
194.6545,337.1
194.6572,378.8
194.6826,139.1
194.7039,538
194.7355,377.5
194.757,516.8
194.7942,346.9
194.9122,18.9
194.9323,16.8
194.9617,320.1
194.9914,99.1
194.998,18.9
195.0287,614.4
195.044,445.7
195.0589,532.1
195.0863,97
195.0912,645.1
195.1551,107.9
195.1757,209.9
195.227,159.6
195.2576,18.7
195.2601,83.8
195.2783,88.5
195.308,100.2
195.3095,130.9
195.3102,139
195.3182,19.9
195.5064,387.4
195.5552,144.3
195.6022,17.2
195.6089,18.3
195.6245,225.8
195.7346,343.5
195.7706,186.9
195.954,17.8
195.9575,92.7
195.974,19.9
195.9774,385.4
196.0793,103.8
196.1196,322.8
196.1697,342.2
196.2042,82.6
196.2069,76.3
196.237,297.3
196.2846,82.3
196.292,272
196.3259,88.4
196.3438,314.9
196.4145,202.1
196.4292,559
196.46,108.1
196.4953,165
196.5578,679.2
196.695,363.8
196.6997,138.3
196.7126,315.9
196.849,323
196.8653,6895.3
196.8686,754.6
196.8782,2074.4
196.8838,342
196.9206,16.3
197.0238,227.8
197.0785,82.7
197.0855,527.2
197.1012,1651.2
197.1327,20.6
197.1766,215.1
197.2024,209.4
197.2522,111.3
197.3075,44.6
197.3395,219.2
197.375,139.5
197.401,345.6
197.4388,177
197.4925,87.2
197.5244,655.4
197.574,262.6
197.6052,136
197.6623,282.4
197.6697,266.9
197.9008,19.9
197.9749,424.1
198.0017,44.5
198.0074,160.3
198.0393,645.4
198.0851,6329.9
198.1494,296
198.157,19.4
198.1854,6451.3
198.2677,107.5
198.2959,215.9
198.3011,232.8
198.4591,151
198.4865,46.3
198.5098,154.4
198.521,620.5
198.7966,442.2
198.8623,7272.9
198.8878,553.9
198.9739,115.2
199.0171,20.3
199.0691,620.6
199.0756,2304.2
199.0804,100.5
199.089,169.3
199.0933,75.5
199.1182,411.1
199.1696,203.7
199.1743,296.1
199.1888,253.3
199.1965,387.9
199.2609,18.6
199.3283,242.2
199.3384,148.2
199.3434,434.5
199.3884,108.4
199.4883,76
199.5963,210.6
199.7374,102.1
199.7523,504.1
199.821,703.3
199.8309,135.4
199.8506,18.4
199.8634,94
199.9557,18.1
199.9908,25774.1
200.0116,21.3
200.0304,302.4
200.0408,19677.8
200.0473,471.2
200.062,98.2
200.0692,122.2
200.0904,443.1
200.0963,10527.2
200.1172,216.1
200.1464,45
200.1812,91.9
200.1907,25
200.1972,308.1
200.2095,99.6
200.272,325.3
200.2885,118.8
200.3011,26.1
200.3469,87.1
200.4846,364.7
200.5368,122.2
200.5721,189.6
200.5888,264.3
200.5914,757.2
200.5956,347.6
200.738,707.6
200.7512,645.6
200.8087,238.6
200.8497,111.6
200.8524,188.5
200.8593,898.6
200.8691,343.2
200.909,175.4
200.9523,311.2
200.9881,121.3
201.0015,490.4
201.0085,91.1
201.0549,641.3
201.0871,692.9
201.1084,111.4
201.1237,358
201.2203,85.3
201.2259,611.9
201.2308,104.8
201.2405,500.2
201.2739,338.4
201.3132,648.2
201.3368,203.8
201.3526,109.8
201.3724,377.7
201.5207,25.7
201.5886,655.9
201.6299,311
201.7249,96.7
201.7892,358.6
201.8051,107.3
201.8651,17.9
201.9603,232.1
201.9894,958.1
202.007,301.6
202.0438,20.2
202.0683,264.7
202.0847,20.9
202.1319,87.8
202.1728,621.8
202.2473,136.9
202.458,198.9
202.4667,141.7
202.4718,22271.7
202.5555,104.3
202.5649,318.8
202.5718,137.6
202.5798,273.4
202.6103,254.6
202.6161,138.1
202.6257,93.1
202.6755,162.7
202.7269,654.1
202.7384,346.3
202.7557,18.8
202.7698,437.8
202.8193,22.1
202.8332,474.2
202.8831,77.4
202.9781,512.4
203.0045,19.8
203.032,1327.5
203.0528,1492861.8
203.077,7180.2
203.1135,533.2
203.127,17.9
203.1375,673.4
203.1601,18.6
203.2123,18.7
203.2852,271.6
203.3074,176.7
203.3133,514.5
203.3749,102
203.378,100.4
203.4116,420.7
203.5254,307.9
203.5829,272.2
203.6809,21.8
203.7815,103.2
203.8123,309.2
203.8387,768
203.8814,292.9
203.8927,166.9
203.8994,81.1
203.918,129.2
203.9458,32.6
203.9537,42.3
204.0099,331.8
204.0177,189.7
204.0246,36297.6
204.0561,82135.2
204.0607,273.2
204.0629,514.6
204.0798,136.6
204.0868,1405.8
204.1338,344.4
204.1478,160.8
204.2732,133.7
204.4712,346.6
204.6586,104.3
204.7385,507.3
204.8528,86.3
204.8571,131.5
204.8957,185.1
204.9469,20.2
204.9602,22.9
204.9828,537.4
205.0019,687.2
205.0076,17.4
205.0271,469.1
205.0571,14352.3
205.0838,73.4
205.0926,306.6
205.0972,1642.8
205.1014,646.7
205.112,518.1
205.1685,348.4
205.3642,92.4
205.4998,357.7
205.5364,16
205.6344,99.4
205.6986,414.6
205.7462,42.5
205.7558,119.7
205.825,207.2
205.8283,287.4
205.8855,213.8
205.9053,17.7
205.9415,440.2
205.9801,45.4
206.016,149.6
206.0564,420.7
206.0677,18.4
206.1526,323.5
206.2041,93.7
206.3483,257
206.3977,99
206.4268,606.4
206.4374,199.2
206.4433,132.5
206.4692,101.5
206.5597,18.1
206.5905,326.2
206.6268,24.1
206.6975,102.9
206.7195,291.7
206.7435,229.1
206.8757,88.3
206.8941,20110.1
206.9615,17.8
206.9821,4096.8
207.0144,109215
207.0272,510.6
207.0379,80
207.0444,2176.9
207.0508,11391.3
207.0554,407.9
207.0683,16.6
207.0903,134.2
207.1007,172.8
207.1375,20.4
207.1521,505.7
207.3222,140.5
207.3343,17
207.4662,368
207.489,158.2
207.4972,20.2
207.5026,140
207.5458,201.9
207.6645,211.6
207.7663,120.7
207.8257,125.7
207.8604,533.7
207.929,424.6
207.9504,101.5
207.993,132.1
208.0139,2118.6
208.0177,4422
208.0545,763.8
208.1645,20.7
208.1812,17.9
208.247,279.5
208.2495,131
208.2655,265.9
208.2883,127.8
208.3377,48.6
208.3622,105.1
208.5248,671
208.6749,517.9
208.6937,145.6
208.7327,691
208.771,636.9
208.7766,171.3
208.8146,17.5
208.8423,117.2
208.8832,23
208.8911,14320.5
208.9074,102.4
208.9356,687.5
208.9559,17.4
208.9803,358.6
209.0126,5366.9
209.1351,499.3
209.1639,136.6
209.2024,371.8
209.2063,260.1
209.3047,19.7
209.4078,799.3
209.5899,23.2
210.3184,20.2
210.6358,279.8
210.6591,131.1
210.7914,455.7
210.8669,42.3
210.8878,415.1
210.9246,168.2
210.976,225.9
210.979,45.9
210.9925,343.8
211.007,265.2
211.0438,89.1
211.0565,664.2
211.0693,1474.8
211.1185,308.3
211.1448,2195.2
211.1489,5420.5
211.1524,5909.4
211.1594,26348.5
211.1632,31399.7
211.1687,15402.6
211.1714,15318
211.1895,492
211.2333,271.2
211.3102,328.8
211.3495,272
211.4011,466.8
211.4073,183.5
211.4146,465.2
211.4979,616.5
211.5128,417.5
211.5401,185.7
211.5968,295.5
211.8475,441.4
211.8905,96.8
211.9342,245.1
212.0167,112.4
212.0235,24.9
212.0742,101.8
212.1097,256.2
212.1477,20.2
212.2916,179
212.3223,161.2
212.3515,93.3
212.4487,471.4
212.5239,82.3
212.5438,106.5
212.556,452.4
212.5618,221.4
212.5865,185.7
212.6205,84.4
212.7072,213.1
212.7112,347.8
212.7806,180.5
212.8393,3014.8
212.8746,178.6
212.9117,179.5
212.9245,119.5
213.0549,2169
213.0749,956
213.0782,147.3
213.0953,92
213.1553,173.2
213.253,19.8
213.3449,77.8
213.3537,505.9
213.4455,92.2
213.6097,315.2
213.6122,88.1
213.6306,270.7
213.6693,107.3
213.6837,562.7
213.7202,192.2
213.734,621.4
213.8721,103
213.9619,39.7
213.9847,557.2
214,354.2
214.0591,4927.9
214.0652,207.7
214.0898,916.3
214.1964,127.2
214.2993,325.1
214.3193,431.1
214.4639,49.7
214.4741,255.6
214.5307,109.4
214.6298,85.1
214.6879,107.9
214.7793,145.7
214.8308,298.5
214.8362,2312.7
214.8512,21.5
214.9177,2073
214.9824,165.9
214.9882,20.3
215.0165,117.4
215.0279,150.1
215.0406,463.1
215.0931,37.2
215.1655,88.6
215.2108,20.5
215.2302,19.4
215.5075,326.9
215.7803,320.6
215.8413,85.2
215.8918,282.3
215.9652,242.5
216.0148,11457.5
216.0512,35.5
216.0748,92.7
216.1108,562.1
216.1362,18.1
216.1647,143.6
216.1902,42.3
216.2483,91.1
216.2754,21.5
216.3583,193
216.3853,126.3
216.4578,142.7
216.5333,88.6
216.6211,118.6
216.7304,594.7
216.7958,203
216.7993,155.9
216.8893,473.1
216.923,53410.1
216.9846,22.7
217.0185,71.3
217.082,625
217.1705,164.6
217.199,141.9
217.2516,361.6
217.3598,603.7
217.4406,146
217.4911,280.1
217.5434,95.9
217.5676,281.3
217.6618,281
217.6663,17
217.7957,354.4
217.7979,92.2
217.8077,81.4
217.8692,318.9
217.8939,349.4
217.9143,313.9
217.9629,344.5
217.969,301.4
217.9797,44.8
218.0066,42.4
218.0156,29.2
218.0909,19
218.1215,112
218.1522,573.2
218.2227,402.6
218.2295,451.6
218.3454,631.1
218.4608,490.7
218.7402,88.9
218.7474,99.3
218.8412,213.6
218.92,17291.8
218.9397,20.1
218.9747,278.1
218.9771,76.3
219.0178,1250.7
219.0268,1595553.3
219.0721,88.4
219.0831,12872.7
219.1443,153.3
219.1475,308.6
219.3165,308.6
219.4082,278
219.4711,20.6
219.5938,935.3
219.6082,21.8
219.7133,674.7
219.8036,20.1
219.8178,23.9
219.9001,297.2
219.9982,452.1
220.0073,150.1
220.0301,80691.6
220.0671,10443.4
220.1456,41
220.1675,424.4
220.2997,95.1
220.3407,222.5
220.3541,134.4
220.3963,97.8
220.4041,219.9
220.4085,21.2
220.4511,217.6
220.6621,282
220.675,162.7
220.6824,142.2
220.7809,190.3
220.8089,346.6
220.8156,491
220.9033,101.6
221.0122,356.5
221.0249,98695
221.031,13115.4
221.0512,1884.5
221.0566,337.6
221.0846,303.5
221.0878,421.7
221.1026,275.8
221.1054,115.5
221.1225,136.2
221.266,683.5
221.2905,406.5
221.3111,19.1
221.3831,109.2
221.4371,84.9
221.5729,97
221.6002,293.3
221.7649,670.9
221.8333,275.8
221.8439,105
221.8942,189.4
221.9459,529.1
221.9564,205
221.9746,310.6
221.9838,1357.8
222.0283,3673
222.0839,19.2
222.0883,220.9
222.0959,114.2
222.1059,85.3
222.3383,22
222.3481,18.4
222.364,344.6
222.3736,20.2
222.458,275.4
222.4828,238.5
222.4855,18.3
222.8364,180.2
222.8589,270.4
222.868,16565.4
222.8793,843
222.8887,1525
222.903,84.8
222.9884,12697.7
223.0242,578.6
223.0366,546.6
223.064,23.7
223.0985,360.8
223.1695,17.1
223.1832,91.6
223.2452,728.4
223.2616,459.2
223.284,282.4
223.32,90.8
223.3879,151.8
223.44,453.4
223.5093,494.1
223.5665,319.1
223.5926,101.4
223.5963,109.7
223.6521,119.7
223.6768,21
223.712,209.5
223.8163,212
223.8464,90.1
223.9534,46.2
224.0952,121.8
224.1034,333
224.1457,87.2
224.2087,652.2
224.2275,140.5
224.3432,660.3
224.4378,109.3
224.4528,687.1
224.5216,75.2
224.5502,80.5
224.5778,211
224.6849,117.8
224.7962,298.6
224.8395,292.8
224.865,10770.4
224.9349,585
224.9568,23.1
224.9869,525.3
225.0549,26457.2
225.0857,610.8
225.1052,163.5
225.1452,509.9
225.2162,453.3
225.2302,568.8
225.6577,460.7
225.7063,461.8
225.7972,369.9
225.8212,450
225.952,23.4
225.9812,21
225.9919,449.4
226.0015,22.5
226.0064,1150.9
226.0243,10589.5
226.0453,7658.6
226.0555,88.1
226.0578,174.8
226.0846,332
226.0977,389.7
226.1438,251.9
226.1507,155.3
226.1947,302.6
226.2668,20.2
226.3861,232
226.4098,108.3
226.4448,198.4
226.51,113
226.5149,177.3
226.5554,145.9
226.6635,145.2
226.6818,246.7
226.7511,19.5
226.8145,41.8
226.8621,1008.8
226.9517,52414.2
227.0144,288
227.0307,581.4
227.0345,886.3
227.0428,223.6
227.048,454.1
227.0599,133.2
227.0793,1226.2
227.0865,293.5
227.1107,489
227.165,410.5
227.1806,504.4
227.1905,100.5
227.2634,101.1
227.2683,586.6
227.357,200.8
227.4062,507.4
227.4635,75.2
227.5211,21.8
227.5482,17.6
227.6253,363.9
227.7059,385
227.7363,100.8
227.9474,273.3
227.9548,846.1
228.0004,1635.6
228.0086,156.3
228.0193,152.1
228.0225,787.3
228.036,150.1
228.0871,338
228.1048,102.5
228.2029,236
228.2766,118.1
228.3964,325.5
228.5457,43.7
228.554,19.8
228.5769,92.4
228.6391,216.3
228.6862,157.1
228.8135,304.1
228.8518,378.7
228.9233,373.4
228.9542,682.3
228.9917,798.6
229.0271,565
229.0496,111.2
229.0945,623.3
229.119,753.8
229.1281,130
229.35,280.6
229.3963,85.6
229.5478,107.7
229.588,544.9
229.7017,101
229.7131,240.5
229.7622,175.3
229.7739,237.4
229.9108,149.5
229.936,612.8
229.957,441.7
229.9688,165.8
229.9982,19.9
230.0334,253.9
230.0656,210.1
230.0938,258.8
230.1029,255.3
230.1138,812.5
230.1333,601.5
230.184,19.3
230.2271,183.2
230.3596,970.5
230.418,312.1
230.4543,347
230.6583,18
230.6955,127
230.7158,385.4
230.7573,528.2
230.8104,476.9
230.9451,16.6
230.9925,720
231.1671,501.7
231.1952,546.5
231.2243,301.4
231.3741,76.3
231.4663,18
231.5374,535.9
231.5575,285.5
231.5804,190.1
231.6563,141
231.8277,107.8
231.9953,318.9
232.0104,297.8
232.0219,68.6
232.1399,354.9
232.1785,445
232.2065,19.9
232.4979,49.5
232.6515,620.4
232.7678,260.1
232.8544,256.1
232.8969,47384.6
232.9213,18.4
232.9348,265.1
232.9858,3467.1
232.9944,494.8
233.0012,140.2
233.0511,6924.8
233.4134,503.6
233.6434,19.1
233.6511,90.5
233.6554,21.7
233.6649,396.9
233.7086,19.1
233.7953,82.8
233.8747,378.4
233.9136,175.6
234.0237,1125.4
234.0536,21.5
234.0876,145.9
234.1237,707
234.15,109.9
234.1888,528.8
234.3137,370.1
234.3739,675.2
234.3999,592.1
234.4599,357.2
234.5787,170.6
234.5896,79.9
234.6836,132.7
234.8938,10869.1
234.9817,4833.7
235.057,6180.3
235.0669,1308
235.0928,28172.6
235.1788,83.1
235.2927,114.1
235.3144,197.9
235.3273,159.1
236.0411,6495.3
236.0584,324.9
236.064,30.7
236.066,20.6
236.0718,43516.8
236.0961,867.8
236.1644,127.7
236.168,435.2
236.2078,393.5
236.2688,200.5
236.2933,431.6
236.3269,17.1
236.3379,519.6
236.3446,289.4
236.3546,281.3
236.4171,112.7
236.4367,85.7
236.4586,193
236.6287,179.4
236.6652,831.2
236.734,257.3
236.7734,119.2
236.8001,174.6
236.9238,545.5
237.0532,227.9
237.0599,26.4
237.0708,53.2
237.0752,1471.2
237.0977,113.5
237.3229,145.3
237.3567,214.1
237.4346,140.3
237.4817,144
237.5452,389
237.5881,148.4
237.5923,97.7
237.6815,18.1
237.7488,446.3
237.9989,384.4
238.0676,543.1
238.0779,24.7
238.1364,314.1
238.1575,125
238.1875,149.1
238.3254,479.4
238.4015,331.8
238.4715,174.6
238.5737,148.3
238.5906,90.6
238.6649,166.8
238.6788,21.6
238.8012,536.9
238.842,6713.2
238.8536,721.7
238.863,440.9
238.8949,347.1
239.0498,104.1
239.0641,158.2
239.0684,731.7
239.1129,370
239.115,666.5
239.1158,638.7
239.2505,87.8
239.3369,41
239.4356,131.5
239.478,359.8
239.4973,163.2
239.625,368.8
239.7499,666.8
239.8073,16.5
239.8488,398.8
239.8906,20.3
239.9167,228.6
239.9224,133.7
240.0315,543.7
240.058,479.3
240.0685,18.8
240.0998,1141.8
240.2656,168.8
240.3673,188
240.4164,403.3
240.4292,377.9
240.4777,45.9
240.491,311.4
240.6623,771.9
240.6934,496
240.7499,91.3
240.8227,21.7
240.8389,3569.7
240.8954,238.7
240.9548,2718.4
240.9675,2196.5
241.0316,819.3
241.0506,153.6
241.2669,93.2
241.2874,550.3
241.301,121.6
241.3355,335.6
241.3489,151.7
241.3545,359.4
241.3815,145.9
241.4112,20.2
241.4229,345.7
241.4757,101.5
241.5536,354.1
241.9797,100.6
241.9982,1869.4
242.0193,3421
242.0569,473.1
242.0848,289
242.0976,252.6
242.2056,94.2
242.2792,269.6
242.3011,17.9
242.3517,89.7
242.4494,485.4
242.4549,536.3
242.4873,490.8
242.51,325.2
242.5155,91.2
242.527,85.6
242.7316,331.4
242.8403,241.4
242.9111,155.4
242.9257,26061.4
243.0329,271.9
243.0533,6281.9
243.0656,9875.3
243.2249,100.7
243.2705,281.2
243.4237,130.5
243.5783,20.1
243.5909,214.3
243.6364,304.2
243.7511,118.6
243.8504,152
243.9288,797.4
243.9629,167.7
243.9692,97.2
243.9727,208.7
244.0125,341.4
244.0285,262.7
244.0498,51
244.0556,627.3
244.0852,216
244.2089,76.8
244.2257,19.3
244.2318,21.6
244.3008,323.7
244.3339,151.1
244.4289,130.7
244.507,658.2
244.598,821.1
244.6133,442.5
244.6677,17.4
244.6731,342.6
244.6929,476.9
244.7888,24.9
244.8709,8870.7
244.8928,347.5
244.9237,1299.6
244.9536,399.3
245.0214,242.6
245.0267,333.4
245.0332,537.1
245.0426,176.5
245.0774,62.2
245.0811,102.6
245.099,204.1
245.1449,372.6
245.209,92.2
245.4927,530.2
245.5172,54.1
245.5385,149.1
245.5495,508.8
245.5616,202.8
245.57,167.9
245.5808,482.8
245.6004,160.5
245.617,74.7
245.6566,160.3
245.6717,96.3
245.7055,441.6
245.8027,197.8
245.8102,340.1
245.8345,570.9
245.8556,381.2
245.9533,19.9
245.9883,21.3
246.0014,256.4
246.1537,48.5
246.2062,367.3
246.2446,269.5
246.2835,539.3
246.2874,152.6
246.3188,17.4
246.4293,160.4
246.4386,42.7
246.5414,257.9
246.5755,132.7
246.6372,676.3
246.7844,1059.3
246.8327,18.3
246.8679,955.9
246.9716,255.4
247.0164,117.5
247.0369,410.3
247.0456,678.5
247.0509,168.3
247.067,1743.9
247.0928,7080.6
247.1434,46.3
247.153,299.4
247.1587,470.5
247.1889,112.8
247.2565,481.2
247.2793,89.2
247.2952,93.3
247.355,197.6
247.3764,20.6
247.3923,363
247.4012,17.2
247.4726,531.1
247.4909,79.6
247.5056,517.5
247.5866,90.9
247.6696,113
247.743,18.4
247.7556,77.8
247.7682,479.4
247.7991,99.8
247.8006,127.7
247.8022,101.4
247.8542,234
247.9183,738.8
248.0077,87.2
248.0172,136.9
248.0698,106.5
248.0962,56
248.1244,23113.3
248.2559,112
248.26,262.3
248.2994,96.4
248.3188,554.4
248.4575,408
248.719,778.8
248.7247,279.4
248.8116,353.2
248.8511,241.6
248.8708,13089.7
248.9599,1422.1
248.9851,45.4
248.9899,376.2
248.9989,387.5
249.0165,935.1
249.0613,18955.4
249.0692,545.7
249.1066,143
249.1134,587.1
249.1274,47.2
249.3472,522.2
249.4764,350.8
249.5224,827.5
249.6488,619.1
249.6766,19.6
249.7588,310.9
249.785,129.9
249.8563,151.6
249.8759,436.7
249.9952,218.1
250.012,747.9
250.0511,21.5
250.225,235.7
250.3035,629.5
250.3947,451.4
250.4293,526.6
250.6818,340.7
250.7043,19.5
250.7307,18.1
250.868,2625.5
250.8752,228.1
250.9204,1597.7
250.9351,112.2
250.9482,198.2
250.9556,1460.1
251.0006,97.6
251.0343,1664.2
251.0666,19.7
251.1087,18.3
251.2336,104
251.2527,177
251.4532,288.8
251.4955,19.8
251.5783,135.1
251.6919,197.6
251.7134,87.6
251.7735,256.3
251.7813,147.5
251.8856,19.6
252.0365,727.4
252.0458,94413.8
252.0703,348.9
252.242,586.9
252.2868,114.5
252.2955,294.1
252.3056,777.9
252.6361,24.7
252.7655,271.1
252.9076,669.8
252.9174,2033.5
252.9973,35.5
253.0491,5421.5
253.1272,107.8
253.3858,295.7
253.4291,533.1
253.445,645.4
253.5721,86
253.7448,110.8
253.7778,19.8
253.8758,145.7
253.8961,282.7
254.0077,86.5
254.0434,2216.7
254.0583,88.6
254.0698,26
254.3562,440.1
254.3572,443.7
254.3942,151.5
254.4027,124.1
254.47,77.2
254.5966,124.5
254.674,84
254.6886,151.6
254.7373,498.2
254.8161,2085.3
254.824,10887.2
254.8352,596
254.8526,149.6
254.9925,19.3
255.0332,21499.7
255.0466,515
255.0493,91
255.1819,85.4
255.2005,339.7
255.2073,400
255.2928,348.9
255.3653,236.4
255.4794,209.7
255.5401,482.2
255.5549,20.3
255.5955,378.1
255.8413,495.7
255.8917,152.9
255.978,1248.1
256.0307,123.6
256.0585,102.2
256.0672,323.7
256.1107,138.2
256.1324,159.1
256.1924,20.8
256.2125,176.3
256.3232,92
256.7517,77.4
256.7909,103.3
256.8045,44.8
256.8129,1495.8
256.8211,12157.1
256.9288,1122
257.0008,167.4
257.0394,757.8
257.0488,5213.1
257.0656,1011.1
257.0748,55295.4
257.0861,270.7
257.1462,422.7
257.2706,373
257.3233,422.2
257.4054,495.1
257.4594,289.2
257.6014,17.3
257.6188,180
257.6215,285.6
257.6613,135.6
257.6716,219.2
257.7652,102.5
257.7871,116
257.8264,156.2
257.8369,634.7
257.8488,106.2
257.9926,472.2
258.0289,81.8
258.0381,138.3
258.0539,21.2
258.0783,2615
258.0927,139.9
258.1105,17071.9
258.1521,531.9
258.2022,79.9
258.2375,111.6
258.3571,190.9
258.4835,569.8
258.6883,291
258.7237,572
258.7943,345.6
258.8006,754.7
258.8182,5327.2
258.8996,4245.5
259.0281,702.4
259.0856,205.3
259.2472,233.6
259.322,539.8
259.3425,329.6
259.4012,197.2
259.4936,234.1
259.5642,465.6
259.6013,724.4
259.6583,750.5
259.7857,42.2
259.845,92.6
259.9113,82.8
259.9357,229.9
259.9453,81.4
259.9865,134.7
260.0171,84.3
260.0263,24.4
260.0498,90.9
260.1675,90
260.2873,78.6
260.2907,370.4
260.3187,105.6
260.3209,142.2
260.3222,134.9
260.4193,324.8
260.4819,330.8
260.5491,578.8
260.5921,18.8
260.8152,872.4
260.8226,142.5
260.8449,4112.5
260.9492,6748.9
261.0467,254
261.0772,19.4
261.435,177.1
261.5032,19.4
261.536,511
261.6021,664.3
261.667,193
261.7052,18.1
261.7168,414.9
261.841,216.7
261.8709,121.6
262.0817,1841
262.0918,131.1
262.3048,173.5
262.3438,122
262.397,182.2
262.4215,485.5
262.5789,146.5
262.6007,82.2
262.6454,527.9
262.6642,183.2
262.7161,204.3
262.7523,174.6
262.8347,107.3
262.8419,1405.2
262.9463,928.9
262.9865,20.6
262.9995,175.1
263.032,160.6
263.0855,4125.4
263.0914,134.4
263.2732,483.2
263.2915,304.3
263.4981,331.8
263.6596,141.2
263.7148,113.9
263.9621,329.1
264.0631,49.1
264.3607,127.1
264.4164,416.9
264.4677,276.4
264.6038,235.1
264.6756,174
264.6844,177.1
264.7428,384.5
264.8055,530.5
264.8529,7537.2
264.9337,2595.5
264.9482,214.3
264.9732,959.9
264.9775,283.6
264.9889,311.3
265.0106,298.4
265.0166,339
265.0233,894.3
265.0354,11074.6
265.0478,3060.9
265.1274,282.9
265.1575,45.3
265.3274,215.1
265.4684,129.5
265.7112,510.2
265.8251,321.1
265.8404,122.2
265.894,538.9
265.9091,709.6
265.9332,617
265.9779,20.2
266.1503,397.8
266.1747,19.6
266.3267,343.1
266.7588,119
266.8089,171.8
266.8499,6431
266.8944,2238.5
266.9124,22.4
266.9669,114.7
267.0133,106.7
267.0992,18.7
267.122,213.1
267.1465,107.8
267.269,98.4
267.3504,229.6
267.3939,17.6
267.4821,148.4
267.5087,123.7
267.5137,283.3
267.5453,18
267.6186,475.4
267.6235,303
267.6718,127.2
267.7028,289.3
267.8447,494.3
267.9257,19.1
268.0096,603.9
268.0319,187.2
268.2923,168.2
268.3086,123.5
268.4486,681.4
268.4663,102.7
268.5584,211.3
268.6868,391.6
268.709,263.3
268.847,2267.2
268.8601,294.4
268.865,1961.9
268.8916,1920
268.9047,451.7
268.9107,641.7
269.0119,85.6
269.0312,504.1
269.0371,136.1
269.0452,16486.7
269.0488,31780.2
269.1042,19
269.1246,630
269.1512,484.5
269.1571,171.3
269.3374,21.2
269.3548,486.7
269.467,106.5
269.5893,349.3
269.7392,149.3
269.8256,133.7
269.9484,133.7
269.9939,1003.8
270.0249,849.5
270.0378,294.8
270.0475,27722.2
270.0716,472.4
270.0768,272
270.1452,2837.7
270.2489,450.9
270.3022,175.2
270.613,480.8
270.6271,432.9
270.6676,191.5
270.798,4716.2
270.8736,553.5
270.9782,13955.5
271.0119,518.8
271.0244,436.5
271.036,283.8
271.0511,993
271.078,1040
271.0904,962
271.125,44.2
271.1336,20.2
271.4049,209.2
271.4337,151.2
271.454,311.6
271.4671,131.3
271.4861,173.6
271.5486,280
271.5542,87.8
271.5642,144.1
271.6791,182.1
271.9525,698.8
271.9631,318.2
272.0433,196.8
272.0804,284.8
272.1826,102.2
272.3233,110.2
272.3622,90.5
272.4846,18.8
272.4913,45.5
272.6626,112.1
272.795,6509.5
272.8035,675.2
272.8621,99.6
272.8887,564.7
272.9449,650.5
272.9574,550.5
273.0487,4958.5
273.0799,17.6
273.1122,179.7
273.1263,413.1
273.2107,512.2
273.2687,327.4
273.4005,280
273.4023,290.6
273.4042,243.6
273.4881,162.1
273.5304,159.2
273.5458,306.6
273.5506,753.3
273.68,19.7
273.6974,167.5
273.8372,420.1
273.8414,535.9
273.8779,79.5
273.8939,46.4
273.922,94.4
273.9624,341.7
273.9854,318.6
274.0333,474.7
274.069,169.5
274.0925,3174.8
274.5194,244.5
274.5987,179.8
274.7922,2437.6
274.8822,632.5
274.9087,100.4
274.916,56.6
275.0021,569.8
275.3113,325.3
275.3223,616.6
275.3328,61.1
275.3352,96
275.3367,98.1
275.3418,194.9
275.5501,127.4
275.5708,867.2
275.8156,92.9
275.9616,376.7
276.0033,126.1
276.0175,45.7
276.0367,321.8
276.0421,592.3
276.0846,216.9
276.1354,343.8
276.1631,131.4
276.2423,449.9
276.2473,429.7
276.2717,213.9
276.3948,128.3
276.4623,314.8
276.4753,364
276.5554,328.8
276.6326,350.1
276.7237,429.4
276.7577,17.6
276.8272,105.2
276.8997,335.7
276.9232,5972.4
276.9464,423.6
276.9803,227.4
276.9858,575
276.9954,707.9
277.1018,90.2
277.1216,99.7
277.1739,163.3
277.2401,104.8
277.2719,17.3
277.309,498.5
277.3744,359
277.3782,23.3
277.4983,21
277.5263,117.3
277.6203,227
277.6254,333.3
277.7086,92.2
277.7294,327.2
277.755,18.3
277.7946,126.7
277.8247,282.4
277.8354,100.8
278.0002,28.5
278.019,472.3
278.0392,84.3
278.0619,485.8
278.145,542
278.2101,94.3
278.2197,394.7
278.2976,282.8
278.732,178.6
278.847,522.1
278.893,2206.8
278.9154,677.9
278.9172,699.7
278.9202,558.9
278.9766,162.6
278.9873,1157.5
279.0151,180.4
279.0215,21.4
279.0568,32601.3
279.0722,95.9
279.0866,417.5
279.3094,105.8
279.3641,312.4
279.4744,146.7
279.847,768.5
279.8612,272.7
279.8992,20
280.0161,219.3
280.0283,21.9
280.0601,1389.2
280.0928,556.4
280.4217,145.1
280.4716,23.9
280.575,533.9
280.648,90.7
280.6625,19.9
280.6743,146.5
280.8269,2493.1
280.8383,389.7
280.8476,327
280.9623,592.7
281.0094,2662.8
281.0516,279.8
281.0689,306.7
281.1934,21.2
281.2039,202.3
281.305,132.1
281.3629,459.1
281.3679,144.1
281.6465,381.1
281.7022,314.9
281.753,112
282.0148,146.8
282.0256,570.6
282.0506,27.4
282.0647,353.9
282.0754,874.6
282.107,121.8
282.1395,23.2
282.2174,196.8
282.2928,112.7
282.3979,358.2
282.4579,260.2
282.6883,263.8
282.7544,169.5
282.8238,2714.3
282.9001,354.5
282.9919,95.9
283.019,99.1
283.0278,528.8
283.0547,284.9
283.0965,390.2
283.1421,107.5
283.1697,107.1
283.44,105
283.4616,97.1
283.4793,94.9
283.4941,280.1
283.5878,91.4
283.6662,88.1
283.7521,21.1
283.7996,147.1
283.8551,115.3
283.9724,18
284.0402,17.6
284.063,188.1
284.1328,19.2
284.1371,174.5
284.2439,149.8
284.2664,528.3
284.294,332.3
284.3522,110.9
284.4346,96.2
284.452,90.9
284.6523,334.5
284.7149,225.6
284.7614,89.1
284.8037,112.4
284.8211,349.9
284.9066,587.6
284.9399,113.8
284.9589,90
285.0101,384.5
285.0208,343.1
285.0399,112.7
285.061,20.1
285.0993,277.6
285.1159,371.5
285.1696,282.6
285.258,113.3
285.3009,577.2
285.3048,20.3
285.4935,19.3
285.7614,145
285.784,171.9
285.9233,24
285.9891,743.3
286.0129,123.7
286.0198,152.2
286.0529,45.6
286.0959,25.6
286.1876,386
286.2201,412.8
286.3584,112.3
286.3885,80.3
286.412,111.6
286.6579,21.4
286.6761,582.6
286.7586,17.8
286.7719,2077.9
286.8492,101
286.952,6688.9
286.9708,264.5
286.9987,70.8
287.0128,146.3
287.0556,37173.9
287.0665,176.6
287.1012,350.6
287.1781,536.1
287.2085,143.2
287.2351,299.8
287.2437,50.2
287.3774,127.8
287.6331,203.5
287.7246,171.1
287.7871,48.7
287.8786,20
287.8858,22.4
287.968,156.9
287.9966,1179.8
288.0141,27.6
288.0585,2172.3
288.0848,111.3
288.1343,92.9
288.1558,45537.7
288.1917,172.5
288.7691,3566
288.8607,423.2
288.8658,2099.8
288.8815,4481.4
288.8862,4529.7
288.896,10415.2
288.9054,12623.8
288.9127,17291.7
288.9182,21182.2
288.9216,21689.2
288.9264,16389.3
288.9331,19759
288.9398,16951.7
288.942,16663
288.9479,16580
288.9494,16577.1
288.959,10216.6
288.9631,9562.1
288.9741,3269.6
288.9848,1004.4
288.995,22.9
289.0392,117.8
289.0624,23.6
289.1591,3731.6
289.2192,19.9
289.2476,105.3
289.5461,99.5
289.5648,317.1
289.6183,155.5
290.0758,519.6
290.1275,244.6
290.2422,225.9
290.2457,531.3
290.357,265.9
290.3627,109
290.4001,271.5
290.7536,18.2
290.7664,479.5
290.8558,481.5
290.9389,426.4
290.9512,674.3
290.9631,445.1
291.0082,197.7
291.027,2617.3
291.0676,86.7
291.3351,21.1
291.34,91.4
291.5077,485.7
291.6132,564.1
291.6352,226.9
291.6469,512.2
291.6818,105.5
291.714,723.6
291.7633,595.2
291.8081,537.4
291.8447,597.7
291.9303,19.5
291.9346,44
292.0601,152.6
292.0796,259.6
292.1033,1591.2
292.1077,339.1
292.1348,164.9
292.1426,281.1
292.3873,246.2
292.4704,212.1
292.6491,93
292.8689,365.8
292.8839,420.9
292.8856,633.2
292.897,1064.5
293.005,386
293.0725,1993.8
293.0984,480058.8
293.1791,2850.8
293.197,305.2
293.3129,18.2
293.3215,140.8
293.3584,271.2
293.3669,263.2
293.4144,686.3
293.4974,16.9
293.5721,102.6
293.5955,116.2
293.6243,118.4
293.7106,20.6
293.7469,104.2
293.7748,18.2
293.8535,120.6
293.8727,141.5
293.9012,293.3
293.9123,246.6
293.9216,104.8
294.0418,460.1
294.0957,1756.5
294.1018,44247.9
294.1533,22.7
294.2571,524.3
294.2791,459.1
294.3184,300.1
294.424,336.4
294.468,216
294.5641,18.3
294.6092,628.6
294.7736,22.8
294.8678,815.2
294.9392,110
294.9907,616.4
295.0308,1484.6
295.0447,375
295.1025,4783.3
295.1949,18426.4
295.2182,104.7
295.2503,346.2
295.3829,20.4
295.4012,499.6
295.4186,447.5
295.5078,85.7
295.5658,225.7
295.7276,392.9
295.8429,81
295.8687,292.6
295.9933,18.6
296.0351,222.7
296.0434,479.4
296.0658,332.9
296.3085,19.5
296.3919,171.4
296.4885,203.8
296.5149,115.5
296.5723,122
296.7905,370.3
296.8006,477.5
296.8122,584.6
296.8254,124.8
296.8381,496.6
296.8465,208.4
296.9828,87.3
296.9876,279.8
297.053,682
297.1303,154.6
297.1511,111.4
297.2002,113.2
297.2852,480.6
297.3832,110.1
297.4075,260.9
297.4791,254.3
297.5036,166.3
297.5995,343.2
297.6439,149.6
297.7117,163.1
297.7865,158
297.7934,87.7
297.8379,463.2
297.8805,119.1
297.8903,40.8
297.9024,254.8
297.9515,106.6
298.0098,395.8
298.0253,1380
298.0425,16184.6
298.1207,159
298.2091,359.6
298.2528,231.7
298.3372,224
298.4831,198.3
298.4929,23.2
298.5206,685.4
298.758,90.3
298.7983,366.1
298.8097,17.7
298.8975,19.7
298.9861,290.9
299.0232,3008.6
299.0458,657.5
299.1394,7228.3
299.3402,434
299.368,358.6
299.5033,734.3
299.725,372.9
300.0046,754.1
300.0386,179.9
300.0487,31.2
300.0753,561.7
300.0954,522.1
300.1963,52
300.3901,292.6
300.5054,386.9
300.5105,147.5
300.5613,357.6
300.6773,142.9
300.6891,263.6
300.6983,303.5
300.7236,116.1
300.7855,133.9
300.8184,381
300.8702,612.2
301.0388,20753.6
301.1416,366.7
301.1813,87.8
301.2981,655.5
301.3619,342.6
301.4652,105
301.5183,241.2
301.5882,22.2
301.7994,97.6
301.9527,538.8
301.9633,746.5
301.997,128.4
302.0124,1471.2
302.0198,192.4
302.0354,33.9
302.0641,5598.2
302.0739,51.3
302.2036,448.8
302.23,522
302.3072,140.1
302.3737,503.1
302.5048,466.8
302.6604,278.6
302.6665,241.5
302.6762,24.2
302.6831,817.6
302.6904,160.6
302.6977,337.3
302.7147,419.5
302.7458,389.8
302.7883,19.4
302.8294,4350.8
302.8351,222.2
302.8549,119
302.8642,131
302.9256,1010.5
303.0675,488.6
303.0771,21.3
303.0822,266.8
303.1422,371.3
303.2166,19
303.237,307.5
303.2426,408.6
303.2501,237.6
303.3112,115
303.6524,195.5
303.704,560.1
303.7298,17.7
303.7734,427.4
303.801,134.9
303.8319,182.2
303.8566,21.6
303.9267,633.2
304.0098,443.5
304.0598,209.4
304.089,152.5
304.118,653.7
304.2212,722.6
304.2613,536.9
304.362,19.2
304.4119,135.4
304.4949,102.9
304.56,213
304.6207,657
304.7348,327.8
304.7428,485.2
304.8267,1412.5
304.8522,478.3
304.8965,1640.6
305.0053,243.5
305.0134,638.2
305.2165,641.6
305.2328,697.4
305.3577,21.7
305.4675,290.6
305.4875,167.3
305.6567,577.1
305.7185,149
305.9124,337.3
306.085,526.1
306.0956,111
306.1055,281
306.1614,647.4
306.1933,121.4
306.3556,170.1
306.511,90.1
306.5304,131.3
306.5378,96.5
306.8424,749.2
306.8549,108.9
306.9273,173.2
306.9577,1196.3
306.9775,4891.8
307.0276,90.7
307.1396,108.5
307.248,148.9
307.272,111.8
307.2953,465.8
307.5678,359.4
307.7393,474.4
307.7677,341.8
307.843,243.1
307.8523,147.2
307.9329,106.3
307.9941,113.3
308.1094,204.4
308.1268,17.3
308.1625,539.9
308.2833,19.6
308.5338,95.5
308.5784,115.9
308.5879,87.3
308.642,518.2
308.7623,307.4
308.842,475.7
308.8793,3349.9
308.932,535
308.9859,355.5
309.0064,451.2
309.0377,2432.6
309.0511,370.4
309.0769,110.6
309.0826,1622.8
309.0905,169.3
309.1022,112.6
309.1588,491.5
309.2986,794.4
309.4341,476.1
309.4796,384.6
309.6563,141.8
309.8818,532.9
310.009,20.9
310.3659,465.2
310.5419,183.7
310.5523,267.1
310.6123,693
310.752,862.3
310.7591,88.2
310.7899,92
310.8762,2192.5
310.9133,627.4
310.971,774.6
311.003,173.8
311.045,105.1
311.1213,339.3
311.1922,18.5
311.3156,381.6
311.3487,340.2
311.5405,273.4
311.5987,698.2
311.715,116.6
311.762,86.6
311.7891,19.9
311.8877,193.8
312.0343,111.1
312.0408,1709.9
312.178,137.5
312.2749,413.8
312.4036,377.8
312.4792,18.7
312.7833,302.4
312.8029,331.5
312.8469,109.9
312.8584,1210.7
313.0022,106.4
313.0356,734
313.1691,19.4
313.2587,170.1
313.2742,36443.8
313.2849,287.6
313.3186,332.1
313.3453,21.4
313.616,474
313.6314,114.6
313.828,166.6
314.0148,305.3
314.0467,120.2
314.0911,152.6
314.1287,248.6
314.2774,4339.4
314.3256,104.3
314.3679,97.3
314.4018,629
314.4425,533.5
314.4623,145.1
314.4658,149
314.5231,621.9
314.5599,545.2
314.5958,102.1
314.6622,116.9
314.6663,299.3
314.6749,216.5
314.7016,442.5
314.7802,592.3
314.8374,3765.5
314.9868,335.3
314.9993,4884.3
315.0119,219.4
315.0211,237.1
315.0264,156.9
315.0403,346.5
315.0432,372.3
315.0525,4196.1
315.0554,7026.8
315.0595,2956.4
315.0617,3665.2
315.0642,4050.5
315.067,19237.1
315.0697,25468.7
315.0733,16643.8
315.0804,6862179.5
315.0867,23966.4
315.0899,13575.5
315.0942,6482.1
315.0965,6471.5
315.0984,5070.3
315.1003,3051.6
315.1027,2214.5
315.1091,1110.5
315.1108,654.7
315.1132,479.3
315.1155,618.4
315.1193,270.3
315.1302,153.7
315.1323,146.4
315.147,126.9
315.1614,4221.9
315.2762,137.9
315.3237,4485.2
315.487,808.8
315.5458,178.6
315.6197,206.8
315.8414,80
315.8796,213.5
315.8925,677.4
316.0529,35.6
316.0687,1894
316.0776,37579
316.0837,721484.1
316.0986,119.1
316.1124,1115.6
316.299,45.9
316.4135,150.9
316.4209,17.8
316.6327,442.5
316.7396,165.3
316.802,117.6
316.8107,166.9
316.987,2720.1
317.0565,559.9
317.0654,2655.5
317.0717,90.8
317.0842,79076.8
317.3315,18
317.3939,287.8
317.5375,105.8
318.0813,164.9
318.0879,7266.1
318.1207,102.8
318.1437,140.1
318.3472,531.7
318.3579,169.5
318.3628,150.3
318.478,273.6
318.8037,3413.4
318.8684,139
319.1498,153.1
319.1949,29919.2
319.3098,398.3
319.5163,122
319.6369,101.6
319.9258,289.6
320.0352,317.4
320.0664,209.4
320.0746,224
320.1044,110.1
320.1654,438
320.1759,86
320.1985,2023.4
320.2151,130.3
320.2588,1392.8
320.3114,275.9
320.431,138.2
320.5973,120.9
320.5987,113.7
320.683,21.7
320.7901,344
320.8007,2191.2
320.8207,17.1
320.8381,222.9
320.9053,496.7
321.0526,131
321.0937,331.4
321.1082,309.9
321.1448,520.1
321.1516,321.5
321.2106,32434.5
321.2623,64.5
321.3954,18.1
321.4051,593.5
321.4421,20.4
321.5355,21.6
321.5649,297.3
321.5936,184
321.671,121
321.8236,645.4
321.8569,120.4
321.8803,344.9
321.8874,22.3
322.0088,191.7
322.0438,429.2
322.0688,452.3
322.0792,327.7
322.2051,121.9
322.2138,4742.8
322.271,581.1
322.2987,107.8
322.3197,18.1
322.3946,561
322.42,502.5
322.4751,21.9
322.5381,53.9
322.6172,318.3
322.6638,18.3
322.7477,177.5
322.7998,384.4
322.8116,921.2
322.8552,152.4
322.876,151.7
322.8873,837.7
322.9316,1373
322.9513,539.7
323.0208,10560.6
323.1126,123.5
323.1709,43.9
323.1815,18
323.2259,706.6
323.2781,20.7
323.4606,228.5
323.6549,18.4
323.9235,269
324.0034,173.4
324.0393,341.1
324.041,427.8
324.0437,347.1
324.1145,436.8
324.3576,536.5
324.4279,249.6
324.4806,517.3
324.5509,843.2
324.5618,4803.5
324.5649,4796.7
324.5695,5382.4
324.5857,800.2
324.59,522.2
324.6007,112.3
324.6601,326.6
324.7374,407.6
324.8091,414.8
324.8531,898.8
324.8867,808.8
324.9288,454.1
324.9353,116.3
324.941,532.3
324.9787,118.4
325.0022,1131.9
325.2051,372.3
325.3938,17.8
325.4202,100.4
325.4369,293.9
325.5347,99.8
325.654,143.9
325.6836,133.5
325.7612,565.6
325.8073,364.1
325.868,340.9
325.9198,707.4
325.9518,209.5
325.9797,137.8
326.0045,23.3
326.3113,388.3
326.3348,83.5
326.3527,348
326.3612,530.8
326.6629,17.1
326.751,95.3
326.7801,320
326.8444,18.8
326.8503,969.1
326.9166,21
327.0156,8981
327.0257,130.9
327.0367,116.4
327.052,2739.5
327.0747,346.8
327.2275,2863.1
327.5282,290.6
327.5917,17
327.6262,17.9
327.7276,115.3
327.7672,49.6
327.9575,105.9
327.9646,19.5
328.0147,784.2
328.1373,265.8
328.396,110.9
328.42,299.5
328.4328,532.5
328.58,306.3
328.6869,273.1
328.6967,200.5
328.8469,736.7
328.9448,524.9
329.0639,669.6
329.0959,1242.5
329.1547,111.2
329.2231,115
329.6609,545.3
329.8048,86.9
329.8868,107.1
329.9848,444.6
330.0075,302.3
330.059,141.7
330.1329,163.4
330.3302,130.9
330.4447,403.1
330.7533,441.2
330.9874,22.5
331.0193,2433.3
331.0456,136329.8
331.0543,1006666.4
331.0656,286.7
331.0811,325
331.1194,650.7
331.1414,152.9
331.3869,535.1
331.6519,17.5
331.7534,17.6
331.834,227
331.881,377.3
331.949,23
331.9892,111.6
332.0483,9690.1
332.0577,90317.8
332.0933,489.6
332.2647,192.6
332.3882,209.3
332.4221,441.5
332.6318,233.9
332.6825,377
332.7522,296.3
332.809,21.2
332.8394,586.5
332.9118,119.1
332.9606,1868.1
332.9806,281.9
333.0015,180
333.0525,57324
333.058,10149.6
333.2117,112.7
333.2457,87.6
333.3007,45.6
333.3371,269.5
333.4929,137.6
333.5733,17.7
333.6643,320
333.7264,444.3
333.9197,393.9
334.0278,483.5
334.0557,4539
334.0641,240.8
334.0903,83.5
334.6608,90.9
334.8371,570.8
334.8986,110.4
334.9187,658.1
334.9806,215.3
335.0075,130.5
335.0384,602.6
335.1026,19.1
335.3786,344.1
335.5148,123.2
335.5853,87.6
335.6435,183.9
335.6834,18.5
335.7172,97.6
335.7756,93.6
336.1455,271.6
336.2495,173.1
336.4399,365.9
336.4614,550.6
336.8341,388.6
336.9324,336.1
336.9385,451.5
337.0366,9046.9
337.0499,20228.4
337.0624,588767.6
337.1014,246.3
337.2743,6611.4
337.281,139.3
337.3976,92.1
337.5373,286.2
337.5607,97
337.7387,88.7
338.0499,571.2
338.0657,53201.7
338.1248,404.8
338.145,193.5
338.3026,163.9
338.5959,130.2
338.7851,488.6
338.7922,497
338.8178,107.2
338.9213,1223.1
338.9628,19.2
339.0383,1539.6
339.0476,1473.7
339.0663,5001.3
339.0926,484.1
339.1785,277.4
339.2899,6665.5
339.3028,231.1
339.3199,318.7
339.3531,87.6
339.4049,385.6
339.4911,19
339.6032,99.5
339.6672,116.3
339.676,150.1
339.8467,577
339.8814,860.7
339.9112,19
340.081,592.7
340.1018,228.9
340.1774,102.1
340.4918,306.4
340.5042,602.4
340.7378,100.6
340.7588,17
340.7828,569.4
340.8515,160.5
340.8802,290.1
340.9032,515.2
341.0082,117.5
341.0186,689.4
341.2149,273.2
341.2792,442.1
341.3054,3664.9
341.4607,281.3
341.5066,46.4
341.6201,839.9
341.6265,156.2
341.6766,206.4
341.6991,102.8
341.7385,118.1
342.0153,74.3
342.0521,287.7
342.0682,21.9
342.1587,163.4
342.1816,377.9
342.606,106.7
342.7637,92.8
342.8688,638.3
342.9461,182.6
342.9896,2475.8
343.0255,768.4
343.0745,110.1
343.1949,19185.9
343.3113,471.6
343.6623,519.3
343.7563,316.4
343.9503,109.1
343.9561,314.3
344.1524,370.7
344.1986,2686.9
344.2372,140.9
344.4645,150.4
344.4911,273.3
344.5475,124.6
344.5627,185.1
344.6523,177.5
344.667,166.7
344.7206,314.7
344.7715,112.2
344.8671,577.6
344.9877,20.4
345.0267,181.4
345.0701,218
345.1939,17.7
345.2122,180.5
345.2353,293.4
345.392,168.2
345.5575,500.6
345.5744,471
345.8081,20.3
345.8481,21.3
345.9704,355
345.9847,1446.9
346.0251,728.1
346.1646,117.1
346.4678,128.2
346.716,135.1
347.0154,19.6
347.1095,299
347.2022,569.3
347.3708,349
347.5251,521.4
347.6703,770.9
347.6738,882.4
348.0247,18.1
348.047,340.8
348.1115,551.3
348.1211,636.5
348.2304,201.6
348.3698,125.1
348.4749,554.5
348.5843,80.6
348.7473,252
348.7655,119.1
348.8041,549.4
348.8296,22.6
348.9627,21.7
349.211,419.2
349.2485,416.2
349.2673,355
349.6803,611.1
349.8883,124.2
349.9426,106.1
350.0136,22
350.0931,373.9
350.3031,136.3
350.3271,736.6
350.3552,20.2
350.3682,24.1
350.405,103.7
350.7967,19.9
350.8045,161.1
350.8128,442.4
350.9145,336.7
350.9505,661.1
351.7513,366.5
352.0221,642
352.0286,162.8
352.0505,98.6
352.0579,154.6
352.1072,550.6
352.1243,325.1
352.4224,80.7
352.4313,338.2
352.8981,1113.8
352.9613,264.5
352.9949,138.1
353.01,515.8
353.0275,127911.4
353.0363,187999.8
353.0736,476.2
353.1825,567.4
353.1898,438.3
353.323,344.3
353.3679,141.1
353.3905,134.8
353.4529,20.7
353.6654,296.9
354.0305,10316.3
354.0397,17310.4
354.0853,204.6
354.2217,622.6
354.2328,520.9
354.3253,19
354.3846,128.9
354.396,267.8
354.4264,373.1
354.6161,92.7
354.6262,22.9
354.6763,132.5
354.6857,179.2
354.7609,524.6
354.7761,76.2
354.876,19.8
354.895,652.8
354.9108,582.1
354.962,77.4
355.012,2081.8
355.0347,11837.8
355.0704,809.6
355.0836,494.3
355.4603,291
355.5298,415.9
355.7742,144.7
355.8633,119.6
355.9846,377.1
356.015,80.7
356.0411,967.5
356.0694,30.9
356.1013,18.6
356.1168,154.9
356.1288,238.6
356.1948,366.5
356.3465,188.1
356.3959,84.3
356.4075,178
356.5549,496.9
356.7849,39.5
356.8259,520.3
356.8494,95.1
356.8546,728.8
356.8714,577.7
356.9419,565.2
356.9644,552.6
357.0087,861.4
357.0203,289.5
357.0671,61.5
357.309,627.3
357.4185,22
357.4391,21
357.5846,486.9
357.6,945.4
357.6379,141.7
357.725,80.9
357.8828,22.3
358.008,88.3
358.0621,157.5
358.1141,491.5
358.2147,463.7
358.2898,105
358.466,201
358.5707,161.1
358.8032,137.6
358.871,200.8
358.8995,19
358.9506,377.1
358.9789,240.3
359.0076,536.8
359.032,13964.8
359.0443,305270.8
359.1243,83.5
359.2382,98.3
359.423,103.5
359.4398,580.9
359.48,328
359.4888,123.4
359.5126,414.3
359.5655,17.4
359.6066,166.5
359.652,1488.1
359.6621,166.9
359.6765,601.5
359.6935,1453.7
359.7118,502
359.721,100.1
359.7796,670.2
359.7898,324.3
359.7971,138.8
359.8192,508.3
359.9512,413.2
360.0477,26691.6
360.097,71.2
360.2898,357.2
360.3241,350
360.6584,110.3
360.6713,481.7
360.7527,325
360.8402,582.7
360.8494,92.7
360.9391,18.4
361.0205,3783.6
361.0291,616.5
361.0483,727.6
361.1395,338.4
361.2741,533.1
361.3282,26.2
361.507,19.8
361.5335,420.4
361.806,139.7
361.9585,410.1
362.2871,290.7
362.4518,434.1
362.8145,453.8
362.9267,2185.2
362.9458,103
362.9521,109.7
363.0572,17.8
363.0863,297.9
363.1028,540.2
363.1097,17.6
363.2331,22.5
363.413,79.7
363.4348,454.7
363.8149,272.5
363.8975,168.5
363.9366,482.6
363.9988,757.6
364.0937,230
364.1136,19.8
364.3086,124.2
364.3596,18.8
364.3727,194.2
364.4029,371.3
364.4104,171.4
364.4259,154.2
364.5734,112.6
364.8045,473.8
364.8404,330.9
364.93,338.7
365.004,247.1
365.0392,98
365.2028,534.4
365.2526,460.1
365.2631,686.8
365.3449,124.1
365.4217,143.3
365.5306,18.7
365.5586,22.9
365.8941,338.4
365.9317,111.1
366.14,641.3
366.5389,501.4
366.6063,107.3
366.8677,95.7
366.874,385.6
367.0489,19.9
367.072,141.5
367.0972,484
367.1114,510.8
367.1218,523
367.1958,874.8
367.4317,692.4
367.7648,285.4
367.8556,336.4
367.9567,125.4
368.1124,94.2
368.1291,22.1
368.3164,99.1
368.3759,466.8
368.3927,504.4
368.4591,518.3
368.4686,376.3
368.5162,291.4
368.5796,299
368.7019,130.8
368.8717,1342.5
368.907,566
368.9925,5153.5
369.0014,15837.5
369.0104,6909.9
369.2111,1048.7
369.3118,20.1
369.3502,162.7
369.5118,20.7
369.5828,420.7
369.7047,760.2
369.8047,108.7
369.8611,520.3
369.956,413.8
369.9719,89.7
369.9994,85.5
370.207,272.5
370.3274,248.3
370.4347,153.6
370.5096,393.4
370.6278,162.5
370.7424,464.8
370.8802,139.2
370.9995,335.2
371.2032,133.9
371.4712,597.7
371.8027,400.3
371.9263,634.3
372.5335,20.9
372.6788,25.8
372.8085,97.2
373.2195,293.6
373.2274,85.9
373.5218,295.3
373.7318,248
373.7657,287.4
373.9964,92.2
374.0104,322.2
374.2304,165.8
374.2862,127.3
374.3193,474.2
374.3346,43
374.7354,520
374.7627,111.8
374.8693,132.6
375.0094,123762.1
375.0183,92891.8
375.0305,96.4
375.2174,295.8
375.2769,804.5
375.3263,131.9
375.3959,222.8
375.5642,162.3
375.7354,115.4
375.8415,476.9
375.9413,218
376.0126,7233.7
376.0216,8440.2
376.0397,460.8
376.0421,546.5
376.1873,322.9
376.4489,1229.5
376.6389,562.9
376.66,102.5
376.7487,292.2
376.7784,96.2
376.9363,222.6
376.9946,1100.7
377.0165,4414.3
377.3139,93.3
377.3608,238.8
377.3702,575.1
377.5318,800.6
377.7693,91.7
377.9126,54.2
377.9479,105
378.0012,73.4
378.1094,321.1
378.1215,839.2
378.1777,328.3
378.3345,389.1
378.4429,95.8
378.51,353.4
378.7578,295.4
378.8558,297.7
378.9005,1170.6
378.9758,317.8
378.9869,394.1
379.1525,292.4
379.3772,143.7
379.4682,93.8
379.687,103.7
379.8623,17.7
379.8883,580.7
379.9111,19.1
379.9476,703.4
380.0358,648.2
380.0435,472.5
380.3346,185
380.4048,19.1
380.4359,160.8
380.4619,169.6
380.478,353.8
380.5792,358.1
380.6663,481.1
380.7702,986.3
380.979,311.8
380.99,38.8
381.0137,20050.9
381.0263,171686.1
381.3876,41.3
381.4217,17.9
381.4394,256.7
381.5575,96.7
381.6334,145.7
381.6524,44.2
381.7627,115.7
381.962,17.7
381.9719,141.3
382.0164,364
382.0295,14032.9
382.1576,347.4
382.3313,161.6
382.5832,341.9
382.7674,3225.4
382.8053,22
383.0123,300.4
383.0423,144.2
383.1166,211694.7
383.1836,481.3
383.4829,363.9
383.5053,147.1
383.5574,282.9
383.5811,334.6
383.8593,646.4
383.9672,109.9
383.9799,238.5
384.0547,392.5
384.1198,24939.8
384.1964,81.3
384.2844,271.6
384.6998,21.8
384.7642,1121.2
384.8432,454
384.9226,301.3
384.9463,160.4
385.0137,124.5
385.0637,102.7
385.1235,375.1
385.1593,95.1
385.2542,197.8
385.3345,19.5
385.6891,139.5
385.9897,310.8
386.3165,353.4
386.3309,102.5
386.4093,98
386.4253,577.2
386.5001,429.6
386.5398,379.6
386.6834,178.4
386.7282,178.9
386.9366,48.4
387.0032,1172.2
387.0702,587.2
387.0878,359.5
387.198,46.5
387.2442,17.6
387.2833,288.5
387.3086,172.9
387.4832,295.3
387.5264,293.3
387.7364,20.4
387.7429,95
387.8448,585.4
388.1871,640.8
388.2231,259.3
388.2438,158
388.4933,221.9
388.5148,18.5
388.5639,377.5
388.7131,952.7
388.8922,82.3
388.9367,18.4
388.9429,210.4
388.9853,728.9
389.2432,772.6
389.2958,375.2
389.4321,365.1
389.6877,74.8
389.8124,576.6
389.8639,484.9
389.9127,277.1
389.9738,911.7
389.9819,619
390.0115,357
390.1032,512.4
390.1175,206.9
390.1569,375.9
390.2069,304.2
390.2384,41.8
390.3155,20.1
390.3783,523.4
390.7985,2217.6
390.8481,23.6
390.856,286.5
390.8771,138.7
390.8887,318
390.926,78
390.9743,13242.2
390.9832,18856.4
390.9922,10452
391.0507,115.3
391.1255,93.3
391.1457,17.1
391.1586,801.8
391.182,430.4
391.3591,410.6
391.3752,225.4
391.5034,377
391.5119,20.3
391.6763,305.8
391.8229,103.1
391.8945,215.5
391.9195,282.6
391.927,96.4
391.9898,519.7
391.9961,211.6
392.017,516.6
392.0503,232.4
392.2596,293.8
392.3464,20.2
392.4577,353.8
392.5025,95.7
392.5203,374.5
392.6507,245.6
392.6705,99.8
392.7071,273.1
392.7298,519.9
392.7961,3496.2
392.8554,188.7
392.9594,34.8
392.9838,97.6
393.0878,19.7
393.3796,272.9
393.4005,148.8
393.6129,23.4
393.6897,269.5
394.0479,409.9
394.1471,572.9
394.3372,267.3
394.3913,706.4
394.4561,17.9
394.6245,42.9
394.6436,19.1
394.6537,297.5
395.0097,445
395.4179,454.9
395.6526,43.5
395.8474,586.6
395.9562,203.4
396.469,542.9
396.6591,615.2
396.6965,18.6
396.7444,1782.3
396.9278,248.9
396.9537,23.8
396.9675,392.2
396.9913,175279.4
397.0002,53341
397.2804,171
397.349,210.5
397.5454,175.1
397.607,582.4
397.8638,18.5
397.9945,14687.6
398.0034,2366.1
398.1584,165
398.2035,1883.1
398.242,8193.1
398.2885,365.6
398.5304,366.7
398.5477,53.1
398.6478,339.6
398.7414,3708.9
398.9761,75.2
398.9977,1040.9
399.1324,454.1
399.2457,303.4
399.2656,129.7
399.3045,311.8
399.4203,138.7
399.472,351.2
399.5784,170.7
399.5924,193
399.6785,189.9
399.6949,497.2
400.0989,465
400.1058,312.9
400.1183,120.4
400.1905,41.8
400.2181,49.6
400.3891,190.7
400.4061,121.7
400.4492,461.2
400.5038,41.6
400.5579,201.8
400.6792,106.7
400.7054,357.1
400.7387,544.7
400.8282,1801.4
400.9216,140.2
401.019,311.7
401.1385,116.2
401.2127,612.5
401.2591,352
401.3906,159.2
401.4251,126.2
401.4771,95.9
401.5519,411.6
401.7425,597.4
401.9774,421.9
402.0294,128.5
402.145,307.8
402.2321,24.4
402.3049,334.2
402.3966,285.3
402.6024,284.1
402.6772,139.7
402.6865,301.7
402.7945,19.1
402.8249,776.5
402.9802,19.5
403.0082,216967.6
403.0935,336.5
403.1957,121
403.2675,361.2
403.3308,91.3
403.3859,20.2
403.4057,349.7
403.6168,143.9
403.658,146.2
404.0115,20134.5
404.0309,94
404.1194,420.5
404.2852,77
404.5172,423.9
404.5515,102.3
404.6869,489.5
404.709,604.1
404.8294,191.3
404.8596,697.1
404.8717,243.9
404.9229,487.3
405.0386,154.5
405.181,661.3
405.3171,19.9
405.4096,77
405.5917,150.7
405.6205,151
405.763,101.3
405.8142,116.9
405.9478,795.2
406.2875,514.3
406.3052,108.3
406.3296,1312.8
406.3815,258.6
406.523,443.4
406.6667,115.6
406.7732,2413.7
406.829,98.1
406.957,202.3
407.0582,89.3
407.3327,283.2
407.3987,553.2
407.6155,174
407.6352,203.7
407.64,156.3
408.1831,573.8
408.2869,17
408.2933,100.2
408.3342,21.4
408.7059,93.4
408.7704,1381.2
408.792,271.1
408.9017,294.5
408.927,553.2
408.9847,3326.5
409.1108,121.1
409.1457,173.6
409.1837,84.9
409.247,111.8
409.4847,21.4
409.7304,20.8
409.8928,85.6
409.8999,96.2
410.0864,554.7
410.536,227.7
410.5916,293.9
410.6153,19.6
410.6277,225.8
410.7675,1124.7
410.7847,663
410.8571,1084.6
410.9707,334.7
411.0412,1047.9
411.1702,115.4
411.2502,21.9
411.2565,258.3
411.343,124.1
411.5121,236.2
411.8448,703.4
411.9421,311.6
411.9676,641.9
412.1544,347.9
412.2245,892.7
412.2516,166.3
412.262,530.4
412.3214,1798.8
412.4418,310.8
412.5628,105.7
412.668,275.3
412.854,415.7
412.8905,23.4
412.9653,26638.2
412.9741,10603.8
413.07,285.4
413.2667,3979.5
413.3251,284.5
413.3883,756.4
413.622,47.9
413.6305,80.5
413.7087,206.9
413.745,280.5
413.9031,222.5
413.9632,643.4
414.009,268.6
414.1062,21.9
414.1213,147
414.2699,733.5
414.4506,535.1
414.5316,190
414.7146,492.4
414.7514,373.2
414.8098,104.7
414.9155,82.4
414.9735,225.2
414.9858,206.4
414.9972,706.6
415.0052,343.3
415.0127,111.7
415.037,48.1
415.2075,305.4
415.2229,794.3
415.3978,337.2
415.4836,20.5
415.603,442
415.82,88.2
415.8634,105.6
415.9912,19.3
416.0669,281.8
416.1356,9445.3
416.2145,39675.7
416.2963,203.8
416.4843,52.3
416.6189,46.8
416.6607,180.4
416.7112,373.9
416.8022,1113.8
416.9073,597.5
416.9559,397.8
417.0373,183.2
417.1961,579.6
417.2178,4806.8
417.2523,106.9
417.3633,822.5
417.674,94.3
417.8499,17.3
417.917,407.5
417.993,82.2
418.0081,310.1
418.1865,169.3
418.2094,356
418.4805,99.2
418.5003,191.3
418.608,338.9
418.6359,579.2
418.7693,512.5
418.7989,567.1
418.9338,50.2
418.9437,116.5
418.9821,72919.3
419.1465,527.1
419.2726,105.8
419.7945,311.4
419.8683,306.2
419.9853,4712.4
420.0391,38
420.0957,166.4
420.1198,327.8
420.2456,19.5
420.3737,131.7
420.4928,42.2
420.602,268.5
420.6956,395.3
420.7693,109.5
420.8249,107.8
420.8656,636.4
420.886,740.8
420.9579,2198.7
420.9805,2307.5
421.0094,81.5
421.04,419
421.163,472
421.3102,105.3
421.3995,380.2
421.6186,141.8
421.9192,383.1
421.9453,117.9
422.014,135.1
422.0273,138
422.2056,401.2
422.2621,107.2
422.3035,97.4
422.4547,83.1
422.578,382.4
422.8161,122.1
423.3055,19.2
423.6448,18.4
423.8157,99
423.8968,774.5
424.026,147.7
424.0681,162.3
424.1546,641
424.7036,139
424.7436,916.8
424.9528,424.5
425.014,298.7
425.0298,46
425.173,101.3
425.1889,116.3
425.4876,166
425.6058,18.8
425.6775,222.4
426.0468,87.4
426.0969,120.8
426.1409,301.1
426.376,103.9
426.8298,856.2
426.9336,175.8
427.2737,308.3
427.3705,23.8
427.7022,179.6
427.7712,279.8
427.8733,120.9
428.2331,110.6
428.3778,475
428.4139,118.8
428.5594,18.9
428.634,102.9
428.7767,407.4
428.7999,171.8
428.9391,995.3
428.9618,1592.3
428.9721,842
428.9878,792.8
428.9967,100.9
429.0418,118.2
429.0891,234.6
429.2015,291.5
429.2398,399.6
429.3796,375.2
429.6763,137.5
429.7439,850.4
429.8009,148.8
430.0881,40.1
430.1157,240.5
430.419,326.3
430.4987,266.5
430.5178,139.3
430.5882,384.8
430.611,515.9
430.6225,446.2
430.6984,447.8
430.8549,43.9
430.9142,2373.4
430.9487,352.1
430.9931,348.3
431.0319,17.5
431.0674,86.1
431.2171,2448.1
431.2576,19.7
431.4391,346.4
431.7014,20.5
432.0552,22.6
432.1171,80.1
432.2527,18.4
432.5246,372.7
432.5942,138.5
432.6094,212.3
432.6806,182.4
432.6943,305.2
432.7402,17.8
433.189,149.3
433.5968,86.3
433.6889,93
433.7261,504.5
434.2472,213.1
434.6257,76.3
434.6681,648.3
434.9563,12702.3
434.9828,46.6
435.2721,127.3
435.2837,289.7
435.4262,44.8
435.6884,18.4
435.8302,542.3
435.8681,18.8
436.6922,219.1
436.892,775.1
436.9547,362.2
436.9713,228.5
437.2043,1350.3
437.6303,475.2
437.6704,320.5
438.1573,537.5
438.1968,1168
438.3019,18.1
438.4671,19.3
438.6751,141.6
438.7512,543.8
438.7685,556.4
438.8223,146.6
438.8474,19.1
438.8815,227.8
438.9298,20.6
438.9725,4061.7
438.985,3241.6
439.1537,153.9
439.2046,210.9
439.2278,120.3
439.3077,319.4
439.7161,146.9
440.0556,120.7
440.3259,100.9
440.486,505.4
440.5333,20.7
440.6133,433
440.7259,940.9
440.7511,89.8
440.9355,162.5
440.9693,1437.5
441.0249,720.7
441.0622,521.7
441.0909,461.6
441.1001,110.9
441.1389,142.8
441.298,276.8
441.6463,518.2
441.7764,507.3
441.9395,85
442.1289,308.7
442.3014,44.9
442.6432,332.5
442.6579,222.2
442.7424,344.1
442.9134,328
443.2532,1198.3
443.401,17.6
443.4654,407.4
443.5555,83.4
443.5836,185.4
443.6425,277
443.94,593.2
443.9476,147
444.0888,117.7
444.107,95.5
444.1858,106.4
444.1976,52.8
444.5068,125.6
444.7823,211.3
444.855,85.6
444.8901,318
445.0328,85.1
445.2171,92.9
445.2327,1088.9
445.2689,909.3
445.3501,100.8
445.4131,139
445.4884,169.6
445.6643,229.4
445.7195,115.1
446.0979,109.7
446.1125,85.5
446.1245,469.9
446.2923,644.7
446.3114,575.5
446.3828,358.6
446.4645,666.7
446.4824,19.4
446.5173,93.9
446.5483,264.5
446.6485,23.1
446.6702,598.5
446.8875,1061.4
446.9166,314.2
447.4286,19.3
447.6869,570.3
447.8643,112
448.0398,225.2
448.11,131.8
448.6679,1040.3
448.7471,88
448.9331,5241
449.0011,328.4
449.0426,309.5
449.1544,2009.6
449.1716,164.3
449.2038,302.6
449.2378,652.6
449.336,215.2
449.4799,21.7
449.4914,427.6
449.6377,509.9
449.7027,387.7
450.158,372.3
450.2987,676.1
450.3983,785.2
450.6524,565.9
450.931,1262.3
451.0382,137
451.1501,119.7
451.2801,436.2
451.3325,710.4
451.3973,199
451.4413,397.6
451.4512,298.7
451.4687,189.7
451.63,574.6
451.9232,487.7
452.1192,440.5
452.1925,222.2
452.3563,43.9
452.4216,83.4
452.4554,320.8
452.5274,486.2
452.6475,280
452.869,179.8
452.9054,21.3
452.9436,734.3
452.9947,505.4
453.0506,31920.7
453.2185,290.9
453.2558,148.8
453.5097,830.4
453.5644,402.8
454.054,2356.2
454.1934,486.2
454.2334,130.8
454.5058,379.1
454.5425,147
454.8148,418.7
454.95,39479.8
455.3845,521.3
455.4949,135.6
455.8813,541.9
455.9537,2137.3
455.9976,22.9
456.3342,17.4
456.5589,177
456.6814,261.4
456.7007,1561.6
456.7573,19
456.9472,9734.4
457.233,14337.8
457.293,870.6
457.4074,256
457.4395,97.5
457.5167,300.4
457.5801,111.2
457.971,206.5
458.3087,106.7
458.6959,861.4
458.7854,618.6
458.884,127.8
458.9623,1053.3
458.9881,159.2
459.0446,153.9
459.0904,105.5
459.128,313.6
459.2487,326653.9
459.2708,207.7
459.456,428.2
459.5599,95
459.9941,78.9
460.0712,192.6
460.1196,255.9
460.1461,231.1
460.252,67557.2
460.3172,189.4
460.464,112.4
460.5927,20.4
460.6245,92.9
460.8337,589.4
460.9668,63276.2
460.9865,548
461.0179,77.1
461.1419,127.9
461.2236,129
461.2549,4527.8
461.782,138.2
461.7955,224.9
461.949,480.4
461.9701,5272
462.0535,508.8
462.2744,23.4
462.3319,677.6
462.4617,495
462.6434,396.7
462.6595,420.8
462.7471,381.7
462.9639,17776.8
463.0718,361.4
463.0966,160.5
463.4217,167.1
463.5769,19
463.6795,324.4
463.9671,484.5
463.977,620
464.0922,122.3
464.9789,8312.3
465.1186,527.2
465.2482,118
465.3858,295
465.4583,595.7
465.5401,105.5
465.7883,104.5
465.8988,50.8
466.0234,476.3
466.1894,21.7
466.5727,501.1
466.6756,86.1
466.7163,228.4
466.7287,914.5
467.1199,19.3
467.2188,606.3
467.2292,430.1
467.4855,408.5
467.6777,43
467.7205,94.9
467.9171,364.2
467.9282,458
468.427,185.9
468.4798,110
468.7511,356.6
468.7593,469.3
468.822,237.7
468.9604,22.2
468.9708,20
469.0246,31287.8
469.1634,2940.9
469.3138,125
469.4203,172.3
469.4998,418.8
469.5229,475.2
469.5783,108.7
469.5915,156
469.8654,104.4
469.9068,408.1
469.9576,592.3
470.0289,1877.1
470.372,251.4
470.5794,145.3
470.614,504.4
470.9238,15827.4
470.9565,1333.9
470.9955,3062.1
471.0227,342.6
471.1121,47.5
471.285,1134.3
471.6801,278.2
471.7107,503.7
472.0064,217.5
472.0205,340.6
472.102,18.9
472.1483,151.7
472.2492,509.9
472.3573,91.9
472.5408,93.6
472.673,86.4
472.8198,137.2
472.8811,195.9
472.9001,156.4
472.921,4410.6
472.9347,440.4
472.9592,18
473.0499,425.7
473.2002,375.7
473.2212,504.6
473.2421,161.1
473.2643,1221.3
473.3213,108
473.6322,355.3
473.772,300.4
473.8309,46.2
473.9262,405.7
474.0292,372.5
474.3963,101.4
474.5034,137.1
474.6712,294.4
475.0496,133.5
475.2225,14426.5
475.2428,716
475.4995,233.7
475.596,17.8
475.8583,362.2
476.1245,611.7
476.2261,1233.3
476.3122,676.8
476.3765,92.8
476.5234,22.6
476.5393,111.5
476.9151,83
476.9407,39292.5
477.1317,134.7
477.1474,237.9
477.322,17.8
477.3322,467.3
477.4987,553.3
477.8288,106.5
477.8705,494.8
477.9207,312.5
477.9437,1095.4
478.0107,96.1
478.3296,41198.4
478.373,269.9
478.4106,348.5
478.4705,141.5
478.5649,101.5
478.8122,493.3
478.9212,42.3
478.9379,11124.4
479.3328,5664.4
479.6644,104.5
479.6786,426.5
479.7639,45.1
479.8407,179.2
479.9714,112.7
480.0439,114.7
480.3332,123.7
480.345,1568
480.4124,153.1
480.4424,18.9
480.7987,620.1
480.8656,150.9
480.9523,2478.7
481.0913,104.4
481.422,394.7
481.7313,783.6
482.1245,51.8
482.191,368.4
482.2396,98.7
482.3096,109.8
482.3243,1408
482.3608,1280.6
482.5833,259.6
482.7639,20.4
482.7941,19.9
482.9323,20.3
483.1121,442.3
483.1947,404.7
483.2487,82380
483.5131,189.4
483.563,388.1
483.636,110.3
483.9149,158.8
484.2519,17605
484.5934,104.4
484.634,204
484.7275,850.2
484.7503,583.6
484.825,142.9
485.1381,129.8
485.2643,99990.8
485.3415,276.1
485.6147,22
485.7977,170.5
486.0146,308.9
486.2675,26121.5
486.4715,634.7
486.5145,371.1
486.801,195.8
486.8295,92.8
486.8979,1996.3
486.9709,975.5
487.0153,565
487.1514,285
487.1697,199.9
487.2252,301.2
487.2799,62981.6
487.3941,145.2
487.447,144.7
487.4573,773.9
487.5697,217
487.7142,18.1
488.1856,313.2
488.2833,11056.1
488.2956,294.3
488.494,553.2
488.5998,188.6
488.688,229.3
488.9524,541.5
489.0859,59.7
489.3257,19.8
489.338,71.3
489.3662,20.2
489.4271,571.3
489.4975,21.3
489.523,92.4
489.534,641.7
489.5496,24.6
489.6247,728.6
489.6873,293
489.9062,98
490.253,119.1
490.2911,3717.2
490.3712,159.9
490.7405,307.5
490.7855,436.3
490.8353,332.9
490.8673,74.1
490.8726,78.7
490.9269,324.1
490.9456,181.9
491.0319,427.9
491.197,446.8
491.3523,327.7
491.3705,1008.7
491.5075,526.5
491.5853,133.5
491.6902,324.1
492.4255,16.9
492.453,268.1
492.5562,708.3
492.7219,149.8
492.8721,125.2
492.9149,4282.8
493.1825,473.4
493.1966,295.6
493.3057,167.5
493.5696,19.6
493.7114,19.5
493.9589,217.1
493.9941,19.6
494.285,459.5
494.3245,14881.8
494.4266,72.6
494.4433,568.4
494.4579,333.5
494.6288,235.4
494.818,809.5
494.9118,3482.1
495.1819,269.3
495.3375,17.8
495.6731,586.7
495.9618,396.5
495.9669,349.8
496.0506,417.6
496.3402,433978.8
496.5364,104.1
496.6891,755.7
496.908,300.1
496.9306,846.9
497.0366,355.7
497.0586,172.8
497.2103,16.6
497.2408,351.4
497.3435,103317.5
497.7976,303.9
498.3466,10403.2
498.4965,120.7
498.5769,615.1
498.6987,19.4
498.9279,836.4
498.973,245
499.2224,2400.9
499.3471,932.3
499.5489,112.8
499.7831,172
499.901,255.2
500.0617,196.4
500.1476,103
500.3129,303.3
500.3245,52.3
500.5277,105.4
500.5745,21.3
500.5895,18.6
500.6821,430.1
500.9442,398.6
501.0625,339.8
501.2383,3441.1
501.5591,551.5
501.6108,215.7
501.9322,111.6
502.1896,454.9
502.2197,350.4
502.3293,13269.5
502.9884,593.9
503.108,127.1
503.1199,227.5
503.2179,40.6
503.2536,1921.7
503.333,452
503.3627,348.8
503.4392,23.5
503.5216,23.9
503.5634,158.3
504.1034,508.3
504.2534,46.8
504.3064,3681.9
504.332,286.2
504.345,12072.1
504.3693,428.7
504.4058,276.2
504.4378,186.3
504.4668,282.2
504.5059,88.4
504.6297,531.2
504.6748,171.4
504.7522,695.5
504.7757,643.1
504.8185,529.4
504.9144,640
505.423,289.5
505.9493,143.9
505.9614,505.4
506.1034,22.5
506.1876,18.3
506.3613,3608.1
506.5718,355.7
506.7083,45.1
506.8916,5958.1
506.96,626
507.0709,382.1
507.1174,282.6
507.1408,21.9
507.2487,24345.1
507.6464,109.7
508.01,368.8
508.0723,395.8
508.187,177.5
508.252,6208.2
508.3482,22
508.38,243.7
508.4083,623.1
508.5182,270.7
508.6737,421.6
508.7127,448.8
508.8889,1954
508.9017,80.6
508.9383,21.3
508.9776,20.5
509.005,2157.3
509.0435,225.9
509.1524,266.3
509.1701,337
509.2634,3712.9
509.3546,80.4
509.5457,105.7
509.6374,20.4
509.7483,354
509.9245,292
510.3556,4971.1
510.5697,17.7
510.6683,235.9
510.8483,197.7
510.8882,18.5
510.9337,849.2
510.9466,100.2
511.1736,128.9
511.4638,621.2
511.5712,344.8
511.8558,457.4
511.8696,118.5
512.1946,109.7
512.399,562.4
512.4628,322.8
512.4746,469.6
512.6082,425.9
512.6603,446.8
512.9087,17399.4
513.2514,542.7
513.2792,164.3
513.4428,18.9
513.7053,20.3
513.8203,39.6
513.9121,495.4
514.0718,401.6
514.1665,19.5
514.2049,330.5
514.2865,43.2
514.331,546.4
514.4343,291.9
514.5101,107.7
514.5319,19.6
514.5741,401.3
514.6586,1027.3
514.7023,409.4
514.748,108.2
514.7677,82.3
514.8824,85.1
514.9056,10046.9
515.0838,152.4
515.182,243
515.2222,561.1
515.3304,550.1
515.3899,568
515.4635,318.9
515.7519,99.1
515.9896,49.9
516.1875,361.2
516.2337,267.4
516.3067,19633.5
516.4578,22.6
516.5508,21.5
516.5693,212.5
516.6571,780.2
516.8226,304.1
516.9025,1477.3
516.9492,961.9
516.9665,279
517.1071,97.6
517.2787,563.1
517.3109,3988.9
517.3355,502.6
517.3892,652.2
517.5475,95.9
517.6151,115.4
517.7581,377.1
517.922,377.3
518.2117,599
518.3222,561561
518.4225,20.6
518.622,273.5
518.6542,441.2
518.7111,518.8
518.7394,520.1
518.838,53.5
518.9254,27149.4
519.1911,92.7
519.3255,140612.1
519.5202,96.1
519.8005,269.9
519.8961,86.2
519.9291,1723.6
520.3294,14518.8
520.3402,93048.4
520.6238,244.2
520.6816,19.8
520.698,82.1
520.9225,15412.7
520.9426,17.7
520.9919,87.3
521.025,104.7
521.2744,402.6
521.2996,106.3
521.3437,22416.4
521.5784,186.8
521.8461,154.1
521.8626,161.8
521.9254,463.2
522.1217,560.6
522.2738,624.3
522.3559,141383.8
522.4129,143.3
522.612,276.5
522.9188,1060.5
522.9373,5584.7
523.1991,127.4
523.2232,828.4
523.2579,414.2
523.3592,40244.5
523.5408,80.3
523.6345,262.3
523.788,526.6
523.8133,327.9
523.9754,19.8
524.0132,527.3
524.0185,686.3
524.0391,997.4
524.0594,427.7
524.3716,108525.3
524.4849,536.6
524.5605,295.4
524.6553,307.2
524.694,130.8
524.8672,292.8
524.9303,680.9
524.9786,361.3
525.0869,354.6
525.3747,26154.5
525.6623,1021.9
525.6706,316.8
525.8801,221.4
526.085,186
526.1852,145.1
526.3002,289.3
526.3296,3913.5
526.3762,668
526.6196,50.8
526.685,380.6
526.9257,81.4
527.3463,592.5
527.5223,313.4
527.6456,98.1
527.6653,250.2
527.6891,288.4
527.9742,95.5
528.2543,367
528.3375,19.9
528.3954,432.8
528.4078,142.3
528.4283,467.3
528.5438,236.4
528.6006,80.1
528.8826,7524.7
528.9536,1873.8
529.1,19.4
529.2072,83.5
529.2424,211
529.2624,322
529.338,208
529.4861,23.6
529.538,409.5
529.6908,655.7
529.7689,108.5
529.8192,608.7
530.0132,561.2
530.2681,309.7
530.359,1410
530.5038,196.5
530.5832,152.4
530.8003,149.2
530.8615,212.7
530.8798,5409.8
530.951,348
531.2494,1834
531.3313,19.9
531.3727,376.9
531.3992,165.7
531.5282,316.9
531.567,240.9
531.779,506.7
532.1423,303.7
532.2184,178.1
532.28,2676.9
532.3376,5660
532.3737,315
532.6746,101.8
532.9159,833.8
532.925,145.1
532.9649,1266
533.0313,320.2
533.2759,139.9
533.3412,1217.6
533.4187,18.9
533.5204,505.4
533.5298,43.3
533.6199,100.5
533.7769,447.9
534.0352,448
534.047,436.5
534.2962,145032.6
534.3171,568.9
534.4295,19.8
534.8994,13899.4
535.273,190
535.2996,35554.3
535.3214,101.3
535.4121,132.6
535.768,20.2
535.9035,759.1
536.2946,7858.3
536.3431,473.9
536.5121,532
536.5444,717.5
536.7517,20.7
536.8524,479.4
536.8965,8459.8
536.9106,354.7
537.0239,20.2
537.0787,189.3
537.2402,578.8
537.3434,172.5
537.519,16.4
537.5905,337.7
537.7243,574.5
537.7931,257.1
538.186,336.7
538.5092,645
538.8938,538.2
538.9114,2649.7
538.9316,866.5
539.3913,20.1
539.7379,402.3
539.7834,285.7
539.8128,434.2
539.9395,537.3
540.1816,20.5
540.4331,213.6
540.5206,294.8
540.9074,625.5
541.1942,401.8
541.5604,17.2
541.602,572.4
541.6307,588.7
541.9236,102.9
542.247,749.2
542.3222,122673.9
542.3859,329.4
542.4018,644.7
542.5052,18.9
542.6432,118.2
542.6618,339.3
542.722,109.6
542.7739,73
542.8652,397.7
543.3059,115
543.3254,30477
543.3871,95.2
543.7229,603.7
544.1737,344.6
544.2736,1517.2
544.2969,326.3
544.338,185794.4
544.42,395.3
544.5829,150.1
544.8568,1302.4
544.9484,1454.7
545.0181,23.4
545.0939,147.1
545.2908,59.4
545.3035,280.9
545.3414,45802.4
545.4328,739.6
545.5317,144.8
545.8828,394.1
546.013,368.1
546.1332,187.3
546.183,23.2
546.3535,130644.8
546.5193,288.3
546.572,391.1
546.7462,96.4
546.7719,492.4
546.8548,530.3
547.146,19.9
547.2342,351.1
547.3569,35954.5
548.1191,517.2
548.1603,353.2
548.3103,391.1
548.3599,3649
548.6306,159.4
548.7293,237.4
548.7769,139.8
548.8894,18.3
548.9037,275.7
549.0533,101.5
549.1887,448.6
549.2857,104.5
549.4571,476.2
549.7098,170.4
549.9847,609.4
550.0661,509
550.7436,519.5
550.7621,652.2
550.8134,486.5
550.8733,3629.6
551.0879,126.4
551.099,19
551.1443,92.1
551.6375,362.4
552.3627,197.7
552.5578,570.1
552.6816,160.4
552.8705,2291.6
553.1649,215
553.2196,272.8
553.511,112.1
553.7143,109.9
553.791,325.7
553.829,549.5
553.8595,100.7
553.9411,663.8
554.1687,293.1
554.3029,19
554.3624,564.2
554.4919,27.9
554.8892,433
554.9022,369.8
554.9972,191
555.4322,142
555.4898,728.2
555.6625,125.7
555.8641,211.7
555.8989,756
556.2268,24.6
556.2737,68
556.4283,441.5
556.8334,84.7
557.5417,363.5
557.7296,20.6
558.1267,720.4
558.1517,620.8
558.2962,32538.8
558.8114,94.1
559.2998,4774.7
559.3182,586.4
559.365,90.8
559.4726,699.2
560.0297,365
560.3118,42703.4
560.5692,92.5
560.6445,510.8
560.9329,559.5
560.9477,535.1
561.1436,231.5
561.2133,409.8
561.2202,166.2
561.3155,8921.4
561.4129,3505.9
561.6655,188.4
561.7181,22.1
562.0046,157.3
562.1184,174.3
562.1615,90.4
562.3127,1352.5
562.3274,28959.6
562.4001,162.8
562.5716,110.6
563.3309,6599.8
563.4296,1808.6
563.7249,364.9
564.1679,23.2
564.2819,19.6
564.8508,559.7
564.9182,317.5
564.9807,640.9
565.0052,355.2
565.0422,1081.1
565.1315,510.6
565.1534,206.9
565.4501,203.4
566.3223,37509.5
566.3569,314
566.5331,43.4
566.6563,96.2
566.7598,138.8
566.8471,720.6
566.8876,523.5
566.9643,473.3
567.3255,8253.7
567.5473,111.5
567.7267,381.2
567.8666,494.7
568.027,430.1
568.0488,444.2
568.0987,25
568.1383,21.1
568.2147,102.9
568.3097,62.4
568.3378,8398
568.4785,622.4
568.6448,460
568.7448,20.1
568.7932,20.8
568.8299,382.1
569.4389,20.1
569.6992,130.1
570.1063,197.5
570.1289,145.7
570.4025,299.7
570.4541,22.8
570.5056,101.5
570.5963,410.1
570.8675,5799.6
571.0004,326.1
571.8512,429.7
572.3041,528.5
572.3685,909.5
572.6032,301.4
572.6886,532.7
572.8645,6141.2
573.5452,265.3
573.7383,152.7
573.8393,207.7
573.996,248.5
574.0013,298.1
574.1521,197.1
574.2381,786.6
574.2839,2662.6
574.4616,366.7
574.7595,508.9
574.8627,1300.5
575.2512,116
575.5037,5257.2
575.8047,380.9
576.2396,673.8
576.2812,7991.5
576.298,362
576.5086,710.1
576.7602,19.5
576.7925,304.4
576.8137,154.8
576.8841,9757
577.0947,106.9
577.2845,428.6
577.396,98.8
577.4221,266.3
577.4638,120.9
577.5094,333.6
577.5191,66.8
577.6955,308.3
577.7474,235.9
578.0449,405.5
578.0967,538.2
578.279,845.4
578.7429,178.2
578.8812,7819.4
578.9736,133.8
579.0228,85.4
579.0366,110.9
579.624,305.8
579.899,326.6
580.1353,536.4
580.8239,566.2
580.8786,2297.2
580.8963,2535.6
581.889,638.2
582.0079,117.1
582.026,349.8
582.2173,308.9
582.2962,8741.6
582.3486,89.1
582.3629,208.9
582.3895,19
582.4417,105.3
582.5356,729.5
582.5655,372.5
582.5795,722.8
582.623,366.2
582.6424,745.3
582.6714,20.1
582.6885,529.8
582.708,103
582.7308,680.7
582.7644,772.6
582.7786,140.6
582.8069,414.9
582.8928,1569.4
582.9524,187.6
583.1174,144.8
583.2556,642.6
583.2998,1680
583.3609,18.4
583.8617,1103.9
583.8737,440.1
583.8989,158.9
584.3116,434.3
584.4201,134.9
584.4414,557.9
584.5076,207
584.8209,352.3
584.8603,21.6
584.9036,900.7
584.9395,144.5
585.0671,104.9
585.1041,187.8
585.1321,537.5
585.1894,158.8
585.248,155.1
585.2712,4866.4
585.4726,377.7
585.5295,200.9
585.6788,98.2
586.3103,4840.2
586.3539,136.5
586.3609,149.6
586.7195,385.9
586.8416,3128.3
586.8938,629.5
586.9131,644.2
587.0376,591.5
587.4027,208.1
587.4793,622.2
587.5246,23
588.1325,153.1
588.3588,97.9
588.3729,193.3
588.4294,490.7
588.7393,342.6
588.8382,2543.8
588.9125,522.2
588.9784,555.7
589.6925,21.2
589.938,258.5
589.9586,50.7
590.0092,632.7
590.0663,491.6
590.322,4716.5
590.413,405.3
590.6757,158.5
590.6882,53
590.708,515.3
590.8363,1173.9
590.8613,221.1
591.017,85.6
591.3275,769.3
591.455,18.8
591.7176,166.1
591.7397,21.2
591.7869,380
591.9815,122.6
592.1877,113.5
592.2533,535.6
592.3377,655.8
592.4684,104.7
592.6128,181.4
592.7303,23
592.8584,4724.1
592.9617,20.8
592.9845,417.8
593.0847,169.5
593.6169,194.6
594.0675,234.7
594.4668,497.1
594.8556,6735.5
594.9021,207.1
594.9345,321.8
594.9814,94.3
595.0811,129
595.1631,20.6
595.8068,563
595.8573,83
596.2735,201.7
596.3103,429.5
596.3374,494.4
596.3977,347.5
596.654,81.5
596.7877,648.9
596.8527,2319.2
596.8691,555.3
596.9325,145.2
596.943,506.1
597.0551,20.6
597.4566,2519.8
597.4861,5956.1
597.8888,185.5
598.0608,266.7
598.2337,415.1
598.453,697.9
598.4641,880.2
599.318,472.3
599.3267,639.6
599.4574,1022.3
599.4739,690.1
599.4789,701.3
599.5024,1595.7
599.7742,488.9
600.0534,20.9
600.2835,504.2
600.4653,1061.7
600.5951,21.9
600.7597,356.3
600.9734,540.5
601.5301,19
601.7411,410.5
602.2744,213.7
602.2982,1029.8
602.4625,304
602.5263,102.3
603.0682,268.1
603.2886,148.2
603.438,23.8
603.5,295.5
603.5379,515.2
603.6915,119.7
604.312,510
604.3318,307.3
604.5415,532.9
604.5758,327.2
604.8556,87.3
604.8835,456.9
604.9784,331
605.0357,345.3
605.2994,48.5
605.3625,721.1
605.5025,181.5
605.8252,288.9
606.499,594.7
606.8232,313.7
606.872,109.8
607.002,118.8
607.1713,9883.8
607.2902,127.3
607.3004,19.9
607.6059,93.3
607.6373,44.8
607.7166,315
608.1619,105.9
608.1751,1645.5
608.2516,19.2
608.4021,401.1
608.8321,1126.1
608.846,24.7
609.1086,87.7
609.3949,93.2
609.5296,152.7
609.6463,119.7
609.6529,238.6
609.6767,383.7
610.1663,358.1
610.3373,768.5
610.829,1885.5
610.8662,227.4
611.0846,116.7
611.5392,118.9
611.6138,107.3
611.7354,111.8
611.8706,278.6
612.1205,817.7
612.1694,311
612.5483,20.8
612.5661,113.2
612.7817,265.1
612.8277,460.2
612.8674,311
612.9558,106.3
613.0991,448.5
613.1251,148
613.3688,574
613.4481,316.5
614.07,26.1
614.2849,122.1
614.4576,113
615.3495,462.9
615.4546,606.4
615.9226,104.3
615.9707,103.8
616.0141,159.6
616.3281,367.3
616.6542,126.6
617.4759,6721
617.9406,156.6
617.9608,110.7
618.0558,285.4
618.1381,98.9
618.5832,97.9
618.7482,471.7
618.8408,201.8
619.289,232
619.4916,8001.2
619.5384,243.5
619.7735,370.1
619.9392,157.1
619.9554,95.7
620.179,386.9
620.2036,399.3
620.3687,269.2
620.4942,713.7
620.6876,562.4
621.3126,18.8
621.4478,2285.9
621.4865,4880.6
621.6266,338.7
622.6451,143.9
622.7838,93.3
623.1037,58
623.1364,32147.7
623.3128,789.3
623.47,128.2
623.5001,639.1
623.5408,286.8
623.9066,425.5
624.1408,5920.9
624.2005,135.7
624.6991,643.8
624.7431,309.8
624.7816,334.9
624.9186,342.4
625.1419,425.9
625.4735,201.6
625.7574,18.6
627.1305,136.1
627.1511,51.2
627.2807,222.3
627.5358,1334.9
628.093,214.8
628.265,145.3
628.3081,19.7
628.3325,141.1
628.539,58.5
628.6666,93.6
628.8253,367.9
628.8616,84.6
629.1534,72017.5
630.0291,614.4
630.05,351.7
630.1571,13758.2
630.3495,91
630.4599,357.8
630.4899,516.5
630.98,22.5
631.1293,430.8
631.1585,1703.2
631.2842,282.7
631.4206,47.8
632.0028,447.8
632.0426,109.8
632.1323,850.7
632.3939,116.7
632.5781,220.8
632.9553,350.2
632.9898,104.1
633.4048,21.8
633.457,101.5
633.4931,106.1
633.5945,662.6
634.0357,296.6
634.0552,388.6
634.1033,436.9
634.493,112.1
634.7406,94.7
634.8426,2978.5
634.9656,149
635.1884,184.3
635.4602,613.3
635.9484,113.9
635.971,21.5
636.223,492
636.4694,292.5
636.8404,3522.2
637.0779,25.2
637.9845,100.4
638.4395,339.5
638.837,1271.6
638.8866,131.3
639.2802,18.9
639.4395,630.6
639.5371,107.3
639.5867,20.6
639.9289,966
639.9985,549
640.0923,19.8
640.3449,506
640.6443,324.7
640.7226,593.2
640.8736,531.7
640.9291,133.4
640.9402,138.8
641.0151,428.1
641.0336,146
641.1681,359.6
641.2724,133.7
641.3485,80.6
641.6122,20.2
642.0336,359.1
642.3921,303.8
643.1265,468.6
643.4603,346.8
643.5856,144.3
644.033,119.1
644.0741,150.2
644.4885,92.7
645.0092,129.9
645.1184,25157.7
645.3218,1678.7
645.4411,133.8
645.4844,296.3
646.012,487
646.122,4440.9
646.3284,99.6
646.4884,208.3
646.6832,350
646.6905,519.2
646.6967,519.7
646.9323,1295.2
647.0182,18.9
647.0346,317.3
647.0939,862.3
647.1249,697.2
647.5043,99.9
647.6009,160.4
647.8263,111.5
647.918,19.4
647.9306,270.2
647.9839,153.6
648.1549,802.5
648.3379,311
648.5814,652
648.6474,142.8
648.8627,210.5
648.9974,103.8
649.0047,273.2
649.0101,272.4
649.3875,370.3
649.4403,314.3
649.6378,491.8
649.8892,384
649.9316,20.5
650.0266,206.6
650.3293,252.2
650.4397,1506.6
650.4902,92
650.6085,150.9
650.7302,465.1
650.8152,1935
651.1352,57743.9
651.2737,19.2
651.4431,91.9
651.6861,410.9
651.9399,103.7
651.986,134.7
652.1022,44.2
652.139,10955.4
652.4341,108.2
652.6564,456.2
652.7293,19.3
652.8146,2734.4
653.0646,233.4
653.1119,764.8
653.141,613.4
653.241,109
653.3907,523.8
653.4109,159.5
653.5603,132.7
654.3022,167.6
654.3542,27.2
654.4679,404.1
654.5919,503.7
654.6071,368.8
654.8116,834.1
654.9121,99.6
654.9529,24.6
656.0391,906.2
656.1264,21.3
656.1556,594.7
656.1997,20.6
656.4795,155.5
656.5282,112.1
656.8332,411.3
656.9003,397.9
657.1469,19.4
657.2344,365.4
657.287,315.7
657.5277,69.8
658.207,18.6
658.2792,606.2
658.6347,42.3
659.1185,565.7
659.2921,820.6
659.8761,531.9
659.9005,135.8
659.9369,1046.2
660.0747,160.3
660.2127,122.2
660.4422,748.9
660.6236,190.2
660.7471,270.6
660.7546,471.2
660.9127,241.9
660.9443,19.6
660.9736,133.9
661.0832,10541.4
661.3868,143.5
661.4281,326.8
661.9249,86.8
661.9998,19.8
662.0565,106.2
662.086,1129.7
662.4446,770.8
662.5461,108.9
662.6264,545.4
662.863,464.3
662.9313,529
663.3397,129.5
663.4547,178.8
663.6064,471.4
663.7293,19.7
663.8795,425.5
663.9331,731.8
664.0745,233.1
664.1124,209.8
664.2024,21.6
664.3925,298.6
664.4671,2304.4
664.481,391.2
664.5894,516.7
664.8415,225.5
664.945,321.4
664.9493,321.7
665.4757,167.3
665.5905,101.1
666.2804,103.9
666.3978,93.6
666.484,4637
666.5957,325
667.0729,367.2
667.1,26656.7
667.2892,591.4
668.104,4758.8
668.2914,182
668.6642,163.3
668.7872,430.1
668.8873,601.2
669.0818,197.4
669.1084,301.5
669.1936,117.5
669.3376,145.6
669.644,404.5
669.8403,57.5
669.9402,283.7
670.2427,500.7
670.289,759.3
671.225,186.7
671.4411,102.5
671.4744,130.1
671.5898,142.7
671.6458,146.9
671.7412,58.2
671.9209,403
672.0038,499.9
672.1045,90.6
672.4653,109.2
672.4845,336.2
672.638,305.7
672.9182,50.2
673.0202,547.8
673.1172,53659
673.3047,577.1
673.5303,982.5
674.1211,9498.7
674.2613,386.4
674.286,91.7
674.5628,90.5
674.5963,116.6
674.6754,516.7
674.6971,186.9
674.9054,116.8
675.0325,195.6
675.0939,263.9
675.1217,634
675.1657,501.5
675.5442,11400.9
675.562,134.8
675.799,17.7
675.8192,18.1
675.9853,19.8
676.1234,147.4
676.3539,379.5
676.463,346.3
676.548,3912.9
677.4545,294.9
677.6997,339.1
677.8518,745.3
678.2354,52.5
678.2495,287.2
678.5298,495.7
679.0192,96.4
679.0444,537.1
679.0755,118.1
679.152,665.8
679.1785,396.9
679.3128,170.4
679.3437,354
679.5936,242.5
679.7633,18.5
679.8236,91.4
679.8772,57.9
679.9013,105
679.9517,363.7
680.0114,677.9
680.1668,84.1
680.4235,332
680.5754,340.9
680.7152,148.8
681.046,288.8
681.5177,93.3
681.6695,459.6
681.8033,327.9
681.8489,1042.6
681.8912,597.5
682.0655,565.5
682.173,249.9
682.4942,46.7
682.5602,283.9
682.6489,608.7
683.0654,4973.6
683.1597,60
683.1768,319.4
683.4507,713.1
684.0756,169.5
684.1387,125.2
684.9253,606.4
684.9742,767.6
685.0265,523.7
685.2265,409.5
685.3948,194
685.4369,4827
685.8896,176.2
686.1263,186.1
686.2225,188.5
686.4396,726.4
686.513,217
687.2239,677.1
687.2958,521.2
687.3165,448.2
687.3693,406.1
687.5225,191.1
687.8406,149.4
688.1528,20.4
688.3926,547.3
688.4232,144.4
688.5109,273.4
688.8336,393.3
688.8846,381.3
689.0816,18907.7
689.0905,16032.9
689.4955,430.1
689.5398,370.5
689.5601,2903.8
689.9677,818.7
690.0668,133.3
690.0951,1891.7
690.7245,107.4
690.9626,175.3
691.0672,136.8
691.0892,533.2
691.2723,392.2
691.5402,19.4
692.5283,101.4
692.7198,681.6
692.8018,525.1
692.8786,610.8
693.0149,397.3
693.1022,307.3
693.5498,42.1
693.916,146.9
694.0159,21.7
694.1601,21.7
694.2952,373.8
694.365,19.1
694.3894,100.2
694.4664,18.8
694.604,109.8
694.8116,498.3
695.003,301.5
695.0992,32727.9
695.3352,523.4
695.3847,460.9
695.4609,410.2
695.4913,159.7
695.5119,1634.2
695.7289,72.6
696.1024,6430.5
696.1922,198.8
696.3804,381.5
696.9317,342.7
697.0783,94.1
697.11,219.2
697.1984,95.8
697.5265,10937.8
697.5579,278.4
697.9876,189.6
698.0788,372.1
698.1026,260.9
698.2443,98.1
698.5294,3383.6
698.7634,88.9
698.9411,943.8
699.0371,24.5
699.1376,21.6
699.1531,151.8
699.1949,373.7
699.4803,114.5
699.6393,132.9
699.9635,120.3
700.1828,322.7
700.9272,200.6
701.4565,560.7
701.5381,104.8
701.5602,32842.9
701.6466,728.3
702.3424,5137
702.564,9816.2
702.8412,193.4
703.0158,756.6
703.0521,586.6
703.319,127.8
703.3442,930.9
703.5759,72364.7
703.8155,215.6
703.8737,648.8
704.0119,476.2
704.1709,395.9
704.4309,96.7
704.4475,777
704.579,29071.9
704.6771,112.4
704.8887,744.4
705.0566,4017.4
705.4641,400.3
705.544,23
705.5825,1817.3
706.1609,391
706.2287,143.4
706.4223,392.5
706.5388,930.3
707.0364,112.3
707.0993,325.8
707.375,1089.4
707.6289,251.8
707.7013,113.1
708.0529,232
708.1086,178.3
708.7328,303.3
708.8359,122.2
709.2458,20.6
709.4778,292.5
709.8405,333.8
710.0097,70.9
710.3772,656.1
710.5797,55.8
710.7044,490.8
710.7427,643.7
710.7738,457.2
711.0208,79.3
711.0634,9949.5
711.074,12092.3
711.1616,119.4
711.4597,139.6
711.5431,1168.8
711.6155,284.9
711.6973,366.7
711.7374,19.4
711.8803,102.5
711.995,18.5
712.0772,1427.3
712.1076,410.5
712.2079,476.9
712.4727,497.5
712.5454,696.1
713.3468,163.6
714.0278,335
714.171,179.1
714.2175,94.4
714.7375,692.4
714.9304,596.7
715.7274,336.1
715.8191,677.7
716.071,78.6
716.086,65
716.1408,77
716.2546,89.5
716.5861,411.2
716.6345,281.5
716.6469,283.1
716.7797,511.1
717.0464,424.9
717.0814,15797.5
717.2404,222.8
717.3053,162.7
717.428,316.6
717.9046,243.8
717.992,142.8
718.0847,1553
718.2046,113.3
718.2745,974.4
718.3528,97.6
718.5739,311.5
718.7061,104.7
718.8364,167.2
718.9432,195.7
719.4021,486
719.5278,286.4
719.7645,287.4
719.9828,199.7
720.4297,574.4
720.5171,485
720.5914,714.8
721.0136,347.4
721.4786,35646.6
721.6097,161
721.6921,348.7
721.7923,101.5
721.8338,307.7
721.8821,149.5
722.2237,19.1
722.2872,141.8
722.4821,14444.8
722.5263,347
722.5537,246.2
722.6872,139.7
723.16,127
723.2588,107.7
723.4015,521.4
723.4943,11643.7
723.5422,26507.3
723.6295,282.7
723.7641,113
723.9172,586.1
724.3479,160.2
724.4971,2755
724.5456,9997.5
724.7633,208.1
725.0847,100.1
725.1145,224.3
725.2281,335.6
725.443,386
725.5064,722.9
725.5579,53321.5
726.1775,484
726.1817,493.1
726.193,332.2
726.5611,22718.4
726.6008,451
726.7729,178.9
727.028,1649
727.152,84.2
727.564,667.5
727.7227,367.2
728.4825,336.5
728.5186,534.5
729.0459,17.1
729.0978,363.3
729.2648,580.9
729.4103,235.8
729.5915,10586.3
729.6172,142.6
729.6881,381.1
729.7373,17.8
730.0625,154.6
730.5382,6345.3
730.5942,3452.9
730.7537,490.1
730.9298,48.4
731.0934,135.8
731.2755,107.8
731.3668,476.7
731.6077,4270.5
731.9991,585.5
732.0605,24.4
732.2713,121.3
732.3169,79.2
732.5549,53879.1
732.6103,1023.1
732.6525,160.2
732.7357,124.8
732.8544,338
733.0061,86.3
733.0453,5817.8
733.0563,5944.1
733.5583,21712.1
733.827,21
733.9304,96.9
734.0498,554
734.0832,245.9
734.4474,138.2
734.5713,8405.6
734.7175,166.8
734.9183,552
735.0275,179.2
735.0875,59.9
735.5742,1799.2
735.6213,273.1
735.7031,104
735.751,578.9
735.8734,994.4
736.1891,617.4
736.2271,47.9
736.5817,136.5
736.6312,352.3
736.6927,431
736.7788,377.9
736.914,422.4
736.9713,123.1
737.2198,493.8
737.4535,5568.2
737.5305,168.2
737.6171,529.2
737.8428,981.5
737.8994,263.5
737.9385,251.7
738.0335,88.5
738.0672,707
738.1691,362.5
738.4101,145
738.9277,420.4
738.9603,576.3
739.0633,8140.2
739.2617,590.8
739.4589,1037
739.4659,1039.8
739.5161,2651.9
739.9235,549.2
740.4245,146.2
740.4666,213.9
740.6062,306.9
741.0897,152.4
741.532,4910.4
741.6486,186.3
741.9801,435.9
742.5758,12737.1
742.9054,162.7
742.9489,109.6
743.4201,457.9
743.4651,851.4
743.5194,117.7
743.5788,2559.4
743.6221,344.9
744.0147,228.7
744.1584,152.8
744.3157,20.9
744.5549,4702
744.5917,12895.4
744.7602,377.2
744.993,430.5
745.0476,106.1
745.1912,356.2
745.479,25320.4
745.5496,164.9
745.5953,2663.8
745.6211,545.4
745.8341,231.9
746.2793,307.4
746.36,84.5
746.4822,8021.8
746.5707,4628.8
746.6075,5481.4
746.8241,416.5
746.88,475.9
747.0644,224.2
747.3552,83.7
747.4947,4272.5
747.5754,734.2
747.6108,776
747.7777,337.4
748.0305,18.4
748.2429,381.1
748.2707,477.4
748.418,139.8
748.4994,373.6
748.5883,424.8
748.6837,585.7
749.0125,1217.6
749.1547,107.4
749.3728,320.1
749.3841,394.9
749.5104,1128.8
749.6679,23.7
749.8922,669.7
750.007,415.1
750.4309,18.9
751.3591,187.7
751.5739,4599.3
751.6896,749.8
751.8708,444.6
752.1213,108.9
752.1806,356.3
752.521,7840.5
752.6466,597.7
753.0857,628
753.1812,649.1
753.3007,100.6
753.4763,85.5
753.5254,1301.3
753.5908,1643.4
753.7773,1104.6
754.1121,21.2
754.1283,106.6
754.3878,93.3
754.4502,515.7
754.5371,37997.2
754.587,502.4
755.0264,4166.5
755.5408,12848.4
755.6218,112.3
756.0451,169.2
756.0868,670.4
756.308,475.6
756.3622,419.5
756.5547,43318.2
756.8845,179.4
756.9019,390.1
756.9817,25
757.0609,479.6
757.1212,359.3
757.4337,535.6
757.5111,112.2
757.5582,19343
757.6227,717.9
757.8159,535.3
757.8725,94.9
758.243,537.2
758.5706,857238.3
758.9485,879
759.0876,126.1
759.3013,491.2
759.4542,355.1
759.5741,374385.2
759.6381,816.9
759.7051,20.2
760.3682,559.9
760.5869,447927.3
760.6419,440.3
760.8119,842
761.0448,1533.8
761.2801,867.2
761.3085,369.1
761.4512,2449.8
761.5029,570
761.5899,210123
761.6966,814.5
762.3616,80.2
762.453,551.9
762.5929,49362.5
762.8916,93.3
762.9358,418.5
763.1549,577.5
763.2003,118.3
763.4204,20
763.4731,119.5
763.595,3760.3
763.6648,613.4
763.8213,200.8
763.9639,102.4
763.9912,108.2
764.0463,62.4
764.152,105.3
764.22,87.4
764.3029,433.2
764.3437,321.2
764.5574,1868.9
764.5845,97.6
764.6832,47.7
764.9756,1242.9
765.0073,87.3
765.0387,292.6
765.1659,549.5
765.4168,148.1
765.5616,667.9
765.9599,555.4
766.0202,45.1
766.3113,562.8
766.3453,551.9
766.5356,895.8
766.5755,39112
766.769,642.4
767.1128,109.2
767.1634,92.1
767.4219,436.5
767.5013,321.9
767.5787,16553.3
767.7317,19.5
767.8827,20.7
767.9719,189.5
768.0421,577.7
768.1365,1075.5
768.1565,669.4
768.4113,113.8
768.4934,716.8
768.5547,5020.6
768.5916,50020.4
768.639,110.1
768.8205,105.7
769.478,2869.6
769.595,21935.2
770.478,798.4
770.5114,3280.1
770.5724,1195.7
770.6086,5772.8
770.6358,88.6
770.7526,738.6
770.9926,7169.6
771.4961,542.9
771.6102,2166.3
771.7416,53.1
771.779,115.8
772.0076,60.9
772.2005,348.5
772.2575,56.8
772.4066,20.3
772.5005,519
772.5642,863.9
772.5863,12268.2
772.6235,1200.4
772.7052,844.1
772.7862,47.9
772.8167,445.2
773.1815,382.8
773.3059,203.5
773.3331,75
773.5068,347.5
773.5881,2626
773.6267,162.3
773.8185,80.1
773.9322,359.3
774.1656,707.5
774.2007,303.7
774.2555,286.4
774.4323,112.9
774.5262,126.9
774.6031,1674.5
775.0555,667.1
775.6051,313.7
775.6416,743
775.7171,831.9
775.8298,381.4
775.9934,202.5
776.3344,227.5
776.4026,686.7
776.5212,1789.7
776.7175,365.4
776.7709,50.8
776.8726,530.7
777.0091,4544.5
777.0731,119.6
777.2422,373.2
777.324,403.9
777.3861,947.9
777.5438,715.6
778.5371,22593.2
779.2997,206.7
779.4586,307.2
779.5001,113.4
779.5398,8635.1
779.5607,640.3
779.6085,554.6
780.0011,314.6
780.209,125.3
780.5527,471250.4
781.5561,213359.5
781.7043,532.7
781.909,181.2
782.4471,218.6
782.5702,725542.1
782.6038,236.3
783.028,2084.3
783.1043,225.8
783.2355,310.3
783.5737,339036.8
784.4273,105.5
784.5032,498.4
784.5874,226901.3
784.6227,118.6
785.2587,19.4
785.3475,610.8
785.5902,116155
785.6544,3733.5
786.6026,213574.9
786.6568,1256
786.7781,20.3
786.9359,763.8
786.9672,379
786.9872,517.6
787.0645,90.2
787.3961,53.6
787.4426,23
787.6056,102050.2
788.1894,301.1
788.3198,355.5
788.557,10166.4
788.6054,14228.7
788.6205,12590.7
788.6731,976.4
788.6946,197.6
788.9905,1004.4
789.0431,95.2
789.2132,21.7
789.5603,3695.8
789.6218,6294.1
789.7098,553
790.0434,764.6
790.1569,503.4
790.4812,956.6
790.5738,19495.4
790.6231,601.3
790.7819,590
791.5766,8797.9
791.644,17.9
791.7739,241.9
792.3554,123.2
792.4315,105.2
792.5537,876.8
792.5913,15778
792.6511,26.5
792.7095,228
792.81,277
792.8716,400.9
792.9849,1310.7
793.0974,23.5
793.4031,46
793.5221,479.1
793.5447,518.5
793.5952,4925.3
793.9159,287.6
794.156,244.7
794.5107,1797.7
794.5698,4706.4
794.6073,53668.6
795.0924,582.5
795.5136,672.9
795.5704,651.5
795.6106,24626.6
796.0597,88.4
796.1301,561.3
796.2353,21.7
796.3612,551.9
796.5265,84990.7
796.5867,6557.5
796.6247,4733.9
796.6994,377.1
797.5298,37088
797.5886,480.9
797.6267,1748.7
797.9349,188.7
797.9565,18.9
797.9872,18.5
798.0288,128.8
798.3998,245
798.461,346.8
798.5429,36269.4
798.5996,146.9
798.6462,266.2
798.8176,125.7
798.9979,379.9
799.207,833.6
799.5458,14172.1
799.6052,449
799.6346,102.5
799.6704,868.1
799.8477,148.9
799.9088,1373.3
800.2606,240.1
801.1836,390.1
801.6975,191
801.7931,365.1
801.8182,816.7
802.0225,93.5
802.0948,1165.4
802.4953,564.1
802.537,22862.4
803.2803,156.9
803.4366,730.5
803.5398,5677
803.5653,447.5
804.2841,19
804.3009,118.3
804.3652,23.4
804.5527,284781.3
805.0871,588.4
805.1073,88.5
805.2185,120.7
805.5559,135055.1
805.8315,493.8
806.0407,541.8
806.2431,755.1
806.2927,434.7
806.5702,262614.3
806.6873,428.8
807.3031,161.7
807.5159,22.7
807.5733,126686.2
807.9374,166.2
808.2959,483.5
808.5863,191175.6
808.6431,92.1
809.0923,108.6
809.3889,95.4
809.589,98489.1
809.6531,612.2
809.7431,580
809.7658,512
809.903,490.8
809.9711,151.6
810.1379,55.2
810.5356,120
810.6028,140488.8
810.692,102.3
810.9305,354.5
811.5215,184.7
811.6057,70716.7
811.6701,9583.5
812.2385,508.4
812.2565,418.1
812.478,687.9
812.5621,208.9
812.6049,6155.1
812.6211,11399.8
812.6733,3180.2
812.8975,20.2
812.9764,214.9
813.5027,566.1
813.5441,702.5
813.6224,6553.5
813.6859,6804.7
813.9402,128.2
814.0192,212.1
814.098,93.6
814.2919,156.7
814.5735,1673.7
814.6236,637.6
814.669,153.8
814.6901,2975.1
815.0488,994.8
815.1025,1117
815.2005,293.1
815.3179,196
815.3739,248.9
815.4444,96.1
815.8127,586.2
816.1932,731.1
816.23,318.3
816.5575,68.5
816.5894,17325.6
816.7507,541.8
816.9103,107.8
817.0997,675.5
817.1489,410.3
817.5922,7210.6
817.7738,52
817.8832,19.3
818.0381,588.6
818.2187,628.8
818.512,1414.6
818.5648,927.2
818.6053,2804.6
818.9152,108.2
819.197,128.3
819.3109,415.6
819.4326,758.9
819.6082,784.6
819.6711,345.6
819.7427,250.1
819.7701,580.1
819.8905,1486.3
820.4048,21.5
820.5265,53620.4
820.5831,1450
820.6231,934.3
821.2704,462.7
821.4553,329
821.5299,23072.5
821.6845,136.4
821.7163,19
822.3387,721.1
822.5432,15287.2
822.6397,455.2
822.7015,129.8
822.8049,43.3
823.388,304.1
823.4363,1432
823.5457,6515.1
823.5692,356.1
823.8384,570.7
824.1227,636.6
824.3849,470.9
824.4436,681.9
824.5582,8832.8
824.6525,65.7
824.7017,139.4
824.7868,370.1
824.9259,177.4
825.2216,50.9
825.3241,394.2
825.5612,2851.5
825.6733,445.2
825.8675,926.1
825.9318,267.4
826.0344,42.4
826.0993,631.4
826.5061,369.9
826.549,1385.3
826.7329,493.5
827.1785,889.7
827.7456,211.3
827.8183,358.9
828.5526,75642.2
828.7739,22.1
828.9895,437.3
829.4423,873.8
829.5203,109.4
829.556,36065.4
829.6392,280.2
829.6955,1581
829.822,920.2
829.9499,415.7
830.1662,330.2
830.4288,347.5
830.5693,54721.9
830.6001,53.4
830.7264,656.9
831.0669,822.9
831.2236,140.9
831.5721,29232.3
831.9546,461.7
832.0575,662.2
832.2663,20.5
832.5849,58956.7
832.7617,379.8
832.8243,288.7
832.8879,144
833.0996,209.1
833.2655,488.4
833.292,598.5
833.5881,27895.8
833.652,277.2
833.8105,199.6
833.949,402.3
834.0438,98.7
834.603,20333.4
834.7331,646.6
834.9662,552.5
835.0969,390.4
835.605,8922.5
835.6711,1432.2
835.7274,767
835.762,698.3
836.0364,560.1
836.093,254.2
836.5621,109.9
836.5954,151.4
836.6196,6096.6
836.9824,916.5
837.0439,518
837.0706,640.3
837.3353,18.6
837.5276,154.4
837.6223,1482.2
837.6946,56.3
837.8159,826.6
838.4017,767.4
838.5116,799.6
838.5897,157.1
838.8107,561.4
839.3284,105
839.3918,101.7
839.5162,611.6
839.8738,771.3
839.9206,245.9
840.2365,862.1
840.3805,192.1
840.6528,109.1
840.6881,337.2
840.7568,866
840.783,1541.8
840.8039,878.1
840.9505,628.5
841.5051,177.8
841.7531,525.7
841.7913,1002
841.9885,937.8
842.3533,17.8
842.6815,470.7
843.1663,208.5
843.5246,230.5
843.8466,184
844.527,13528.8
844.6145,131.3
844.6788,393.1
844.8893,46.7
844.9892,240.2
845.1703,2452
845.4734,204.3
845.5302,4783.9
845.6322,841.3
846.417,91.3
846.5023,123.4
846.5434,6647.9
846.6925,537.3
847.2088,119.3
847.5458,928.6
847.5684,155.1
847.9331,811.7
848.1355,151.8
848.3873,18.5
848.4626,478.3
848.4823,575.3
848.5575,4108
849.0608,963.7
849.1068,112
849.2401,193.2
849.3259,542.5
849.354,123.8
849.5589,1281.4
850.0872,54.1
850.3256,1280
851.2593,606.7
851.2866,1108.7
851.4732,430.1
851.6266,228.3
851.8582,847
852.2155,20.5
852.2757,109.3
852.338,182.4
852.3955,24.8
852.4509,175.7
852.4984,147
852.5801,127.2
852.64,470.4
852.9199,117.2
852.9496,123.3
853.355,20.5
853.5936,128.4
853.6718,882.5
853.9378,343.4
854.2513,322.4
854.5681,561.2
854.7055,219.9
854.8592,651.4
855.5703,288.5
855.7714,21.8
855.9136,101.7
856.0819,106.1
856.1619,189.1
856.2273,435.3
856.2971,528.8
856.584,2859.9
857.0757,197.5
857.1713,680.1
857.4663,595.7
857.5087,386.5
857.5868,1122.4
857.6543,180.5
857.7147,750.5
857.8544,49.6
857.8789,69.2
858.1527,223.3
858.2252,196.6
858.4934,238.1
858.6307,104
858.7182,47.8
858.9069,493.8
859.0402,366.9
859.0908,54
859.218,57.7
859.2363,63.3
859.6896,419.9
859.9179,113.1
859.9366,117.7
859.9661,1216.6
860.2205,180.5
860.3597,286.2
860.7248,548.8
861.1005,128.2
861.3084,122.9
861.4366,407.2
861.5417,434.3
862.2137,503.1
862.2868,410.8
862.5129,320.6
862.5985,343.1
862.6674,514.7
862.6952,868.8
862.8098,672.1
863.0536,22
863.2964,18.3
863.5361,597.3
863.636,97.2
864.4735,971.4
864.5494,577.2
864.8808,510
864.9242,327.9
864.9904,599.5
865.1846,135.3
865.6046,645.9
865.7268,703.7
865.8213,764
865.9,20.2
865.9321,19.9
866.0875,150.8
866.3801,18.7
866.538,174.7
866.5793,303
866.7703,292.7
867.2246,440.1
867.8387,62.5
868.1249,1362.4
868.3963,63.4
868.5469,69.8
868.5738,60
868.6692,97.1
868.7303,306.3
868.8879,96.4
869.0401,392.6
869.2789,323.1
869.3934,831.7
869.4855,442.1
869.5155,49
869.7329,135.8
869.8191,607.4
869.8616,980.7
869.9012,579.3
869.965,264.9
869.9945,824.6
870.0463,231.2
870.0854,370.9
870.145,1830
870.2023,1069.2
870.2216,880.5
870.2442,2146.9
870.2721,2455
870.3054,2714.5
870.3442,1220.9
870.3861,2748.3
870.4221,2325.8
870.4824,2031.5
870.5119,1159
870.5518,216.3
870.6033,184
870.9051,19.4
870.9945,226.1
871.0275,636.9
871.0552,745.4
871.1008,21.6
871.2921,95.1
871.3836,308.1
871.5832,27.5
872.1052,889.5
872.1729,24.5
872.3634,92.6
872.4608,517.3
873.1291,95.4
873.2731,1337.5
873.4433,322.8
873.4683,19.9
873.542,913.8
873.8166,71.5
873.937,645.3
874.3585,73.9
874.4133,679.5
874.4805,361.2
874.6452,49.7
874.9338,245
875.1859,182.7
875.3775,549.9
875.7373,188.7
875.8611,824.4
875.987,881.4
876.1079,372.2
876.3381,184.3
876.5909,617.2
876.6755,183
876.812,54.9
876.8923,1186
876.9338,380.5
876.9585,476.7
877.243,348.9
877.4799,93.6
877.5474,68.6
877.6149,345.2
877.6618,43.8
877.7049,211.8
877.8851,97.4
878.1349,81.1
878.1857,364.8
878.3374,465.3
878.3722,99.6
878.5674,101.4
878.7766,281.7
878.9074,1271.2
879.0025,445.7
879.7021,61.2
879.9487,572.8
880.1925,970
880.4699,198.7
880.6617,313.5
881.157,194.3
881.307,374.3
881.5256,766.2
881.5773,101.5
882.0698,180.2
882.2674,965.7
882.4141,619.3
882.6186,294.1
882.645,125.1
882.9876,1060.7
883.3864,185.2
883.4992,145.6
883.8266,174.6
884.0045,316.4
884.0411,22.8
884.173,55.3
884.5796,356.9
884.7001,549.4
885.2279,235.9
885.6683,378.8
885.7395,549.7
886.1412,446.3
886.1731,570.7
886.4645,822.4
887.0439,194
887.3362,77.7
887.4699,355.6
887.8423,365.9
888.2137,65.7
888.3165,173.6
888.6619,49.4
888.8942,339.4
888.9969,292.6
889.1853,20.2
889.325,22.7
889.3948,382.5
889.7265,455.9
889.7439,398.8
889.7724,722.1
890.0415,514.5
890.1388,208.6
890.2505,157.2
890.3234,24.2
890.3702,95.2
890.4553,478.8
890.6139,26.2
890.8089,201.2
890.9469,450.7
891.0769,479.8
891.507,52.9
891.7689,52.7
891.9138,599.6
891.9417,433.7
892.095,395.2
892.1426,274.2
892.1729,629.2
892.493,1148.9
892.5891,109
892.6466,231.4
892.7522,372
892.8071,736.5
892.9576,122.8
893.0295,803.2
893.0851,200
893.1577,1756.3
893.7789,824.6
893.8601,527.9
893.897,111.1
894.0487,632.5
894.3477,249.3
894.5845,598.7
895.3803,207
895.9166,540.4
896.2124,107.6
897.3674,615.9
897.4096,571.9
898.0146,25.6
898.3947,98.8
898.8387,18.3
899.2451,429.7
899.5765,110.6
899.8576,659
900.4103,223.5
900.5682,1116
901.0474,587.8
901.0922,708.4
901.2047,450.5
901.4457,76.6
901.4995,1394.7
901.5912,46.7
901.657,66.9
901.822,193.5
902.4464,250.3
902.5628,764.6
902.8958,195.9
903.4014,689.1
903.4299,74.9
903.5399,18.3
903.8185,276.2
904.175,532.7
904.4712,106
904.5953,19.2
904.648,270
904.7788,540.6
905.1466,118.3
905.4151,213.2
905.552,326.2
906.0514,138.5
906.5349,19.4
906.8569,357.8
906.8826,593.1
907.0823,296.4
907.2818,1713.1
907.3628,203.7
907.411,153.3
907.705,177.5
907.7995,681.8
908.0174,49.4
908.139,1709.3
908.294,766.4
908.5382,186.8
908.6578,927.7
908.7552,413.3
908.8276,701.2
908.9619,50.3
909.485,186.8
909.6061,66.6
910.5804,57.2
910.6115,46
911.0718,132.2
911.1131,103.6
911.1786,708.8
911.2592,501.4
911.6201,657.2
911.7243,484.9
911.9317,21.5
912.4575,59.8
912.6635,20.7
913.0367,624.2
913.2619,120.6
913.6418,181.5
913.6933,55.7
914.0818,1182.2
914.196,122.8
914.4998,540.5
914.7778,1481.7
914.8626,598.8
915.3465,588.5
915.5631,324
915.6463,515.3
915.7145,124.9
915.9645,399.5
917.1513,907.9
917.2384,18.9
917.4615,171.4
917.5002,447
917.5821,439.1
918.5508,995.2
919.0067,448.3
919.8724,410.6
919.9225,218.9
919.9853,973.4
920.5542,612.7
920.6419,425.8
920.8263,93.4
920.95,142
921.1141,739
921.5732,155.1
922.0712,750.1
922.2696,19.1
922.5419,1048.9
922.6406,301.8
922.7638,604.9
923.0474,577.4
923.3735,90.7
923.4004,505
924.3802,81.7
924.7154,989.1
924.8871,366.2
924.9583,534.8
925.2496,101.8
925.4688,234.6
925.5411,375.2
925.6825,490.2
925.9454,21.4
926.0004,1638
926.1696,138.4
926.235,397.4
926.6598,402.8
926.7087,160.2
926.7646,334
926.8525,884.4
927.2736,560.1
927.636,1049.2
928.0192,672.8
928.0618,299.3
928.5005,67
928.5412,117.6
928.8658,233
928.9632,501
929.229,52.8
929.3549,723
929.3878,455.1
929.429,226.8
929.4667,777
929.5046,427.4
929.7403,402.3
930.1228,166
930.2294,540.7
930.465,986.6
930.4993,199.1
930.5595,380.6
930.7488,646.5
930.8648,414.7
930.9788,615.4
931.0919,436.5
931.3971,356.6
931.6936,266.1
931.7282,110.3
931.7951,160.1
931.8669,642.9
932.1986,118.9
932.5033,150
932.667,727.9
932.8214,303.6
933.0083,18
933.3068,569.9
933.5075,636.3
933.6873,452.3
934.104,313.5
934.2558,87.2
934.2739,85.2
934.4586,1567.8
934.5041,66.9
934.5746,763.9
934.9286,835.9
935.1472,136.6
935.2314,420.3
935.2847,114.5
935.4639,677.8
935.5093,21.6
935.6531,155.8
935.7244,45.8
936.0851,70.4
936.1803,56.5
936.859,762.7
937.2058,96.9
937.2456,617.5
937.4334,708.8
937.9316,707
938.9666,120.6
939.1448,595.4
939.4779,407.3
939.6924,824.5
939.785,354.4
940.0487,161.4
940.0875,129.8
940.1791,707.2
940.2291,861.3
940.3702,358.8
940.4477,527.3
940.4846,230.8
940.6052,53
940.8518,112.6
940.9089,173.5
941.0196,350.7
941.1249,104.2
941.1752,365.8
941.4072,79.1
941.4847,136.5
941.6894,242
941.855,676.2
943.165,123.3
943.2284,1095.5
943.4225,23.2
943.8981,841.6
943.9116,808.3
944.3148,94.2
944.3946,251.4
944.6517,668.9
944.6966,419.2
944.7686,56.4
944.9858,609.7
945.1207,154.8
945.4681,200
945.68,441.4
945.7428,96.8
945.944,851.9
945.9902,632.5
946.0546,336.7
946.0707,375.9
946.5731,566
947.114,382.8
947.338,112.3
947.739,504.6
947.791,189
947.8654,688.6
947.9394,102.5
948.0465,21.9
948.0837,91.8
948.2263,1840.1
948.3396,245.8
948.4564,64
948.6718,305.6
948.7198,341.3
948.7704,115.5
948.8842,424.7
949.0455,368.5
949.1182,119.3
949.306,78.3
949.7495,1097.3
949.9409,52
950.1462,652.6
950.1675,93.1
950.2773,23.6
950.3224,86.9
950.3655,660.3
950.438,155.7
950.4787,541.1
950.9259,17.9
951.0569,495
951.1502,141.1
951.6055,478.2
952.0151,781.1
952.1271,274.2
952.2276,129
952.362,854.6
952.518,49.6
952.7563,132.6
952.9956,165.7
953.051,430.1
953.2738,120.5
953.5944,270.6
953.7599,491.4
954.2432,63.9
954.6556,165
954.8256,555.4
955.0396,969.3
955.2275,67
955.2605,93.1
955.3415,515
955.3889,1578.4
956.1581,642.9
956.2213,450.2
956.543,142
956.5755,736.2
956.8722,511
956.9472,130.8
957.4711,158
957.6723,923.1
957.7843,547.5
957.8835,621.2
958.1251,372.4
958.4105,684.6
958.925,220.6
959.0446,456.4
959.2013,183.1
959.2673,173.2
959.4562,295.7
959.4839,989.7
959.9486,1077.8
960.1785,198.5
961.287,208.9
962.1278,161.5
962.1649,24.2
962.2541,444.3
962.5237,138.8
963.1526,471.7
963.6025,334.7
963.6371,1481.2
963.7121,367.7
963.85,504.6
963.9949,352.5
964.0142,246.5
964.0876,206.8
964.2615,520.9
964.4066,1344.8
964.773,368.8
965.137,589.4
965.1674,629.8
965.1908,716.3
965.2093,1035.7
965.2416,413
965.3181,406.9
965.6537,1068.6
965.9101,451.3
965.9966,108.6
966.1784,92.1
966.2259,733.5
966.2624,19.7
966.3513,321.3
966.4782,1024.8
966.798,352.9
966.9219,122.1
966.9869,47.7
967.2659,1979.3
967.2997,231.9
967.4816,501
967.599,196.1
967.698,545.5
967.7583,605.6
968.7968,118.7
968.9699,533.5
969.3355,465
969.4089,1013.8
970.039,21.6
970.6005,46.6
970.8092,645.7
970.8452,141.5
970.9884,111.3
971.0304,62.9
971.5673,357
971.6763,96.5
971.7776,652.6
972.7565,348.8
972.8195,88.3
972.9678,527.6
973.0201,1695.8
973.1478,490.7
973.1825,486.5
974.4988,1030.4
974.8631,602.5
974.9363,982.9
974.9695,371.8
975.1595,576
975.219,80.3
975.279,122.5
975.4961,666.8
975.825,292.3
975.9167,854.9
975.9764,1099.1
976.1572,809.4
976.2428,42.8
976.3019,429.6
976.3867,19.2
976.5469,769.2
976.8704,495.4
976.9065,315
977.2585,463.1
977.2966,1892.7
977.4873,95
977.9712,541.7
978.1634,497.8
978.275,128.2
978.4667,2253.3
978.5811,70.7
978.9829,564.6
979.447,284
980.027,159.1
980.1617,305.3
980.4955,398.5
981.1454,545.6
981.5575,498.4
981.7957,143.6
982.1093,1469.7
982.4061,760.6
982.4718,449.9
982.7787,199.2
983.0554,822.1
983.1033,96.2
983.2567,871
983.328,1306.6
983.7389,18.9
983.9021,110.9
984.0612,663
984.0838,909.6
984.3263,150
984.3675,79
984.4866,695.3
984.5717,2348.4
984.6131,53
984.6925,2084.2
984.9033,363.6
985.6223,191.4
985.7133,425.7
985.8723,403.4
985.9745,177.8
986.1321,337
986.3118,138.2
986.5034,123.3
986.7075,140.5
986.9796,321.6
987.2322,119.8
987.5045,172.1
987.7262,460.7
987.9412,1136.6
988.0035,397
988.2689,938.8
988.6753,338.6
988.8283,864.5
988.9316,130
989.0609,541.8
989.1017,301.7
989.1432,184.7
989.4431,662.7
989.6498,637.4
989.866,141.8
990.0363,161.8
990.2261,598
990.3048,204.8
990.3788,725.2
990.4376,146
990.4698,704.6
990.504,914.9
990.7074,699.8
990.7763,796.6
990.9908,463.5
991.1245,1028.8
991.3908,17.7
991.4384,226.1
991.8061,1272.1
991.9116,47.8
991.9545,653.9
992.0375,747.2
992.3948,629.1
992.4908,718.6
992.7233,329.7
992.7364,367.5
992.7791,119.1
992.8072,561.2
992.9134,116.6
993.2682,613.3
993.6431,564.9
993.8252,112.1
994.2795,202.1
995.481,1153.1
995.8344,247
995.8845,598.8
996.0238,898.6
996.9147,472.5
996.9424,20.5
997.2102,683
997.5098,317.1
997.6578,484.6
997.6914,617.1
997.8887,365.7
998.0019,18.9
998.4513,85.3
998.6926,88.7
998.8745,43.4
998.9508,486.8
999.3905,110.8
999.4275,772.4
999.5169,1353.4
