SPECTRUM - MS,
876.RAW,
FTMS + p ESI Full ms [50.00-1000.00],
Scan #: 1-40,
RT: 0.01-1.97,
AV: 40,
m/z,Intensity

50.0175,84.7
50.0248,366.8
50.0383,80
50.04,263.8
50.0483,17.2
50.063,161.9
50.0701,93
50.073,260.8
50.0845,80.9
50.0999,18.4
50.1097,502.7
50.125,259.8
50.1303,513.2
50.1366,100.6
50.1425,159.4
50.1606,54.9
50.1657,183.6
50.1742,364.9
50.1825,808.8
50.184,685.8
50.1873,524
50.2074,151.1
50.2405,506.8
50.2434,231.1
50.2558,113
50.2641,92.2
50.2664,491.7
50.2824,115.2
50.327,18.7
50.3309,101.9
50.3399,88.6
50.3427,113.1
50.3445,17.3
50.3544,156.1
50.37,321.7
50.3742,86.1
50.3801,207.8
50.4013,514.1
50.4359,261.2
50.4521,92.6
50.455,1018.7
50.4641,548.3
50.4666,98
50.4796,192.2
50.4811,15.8
50.5022,287.4
50.5147,728.5
50.5315,176
50.5703,219.3
50.5725,66.1
50.5785,611.2
50.5858,116.2
50.5863,16.6
50.5886,482
50.5934,302.7
50.6167,282.5
50.6316,181.8
50.6369,259.7
50.642,242.6
50.6595,161.9
50.7005,19.1
50.7306,57.8
50.732,254.3
50.7365,148.6
50.7965,17.5
50.8066,350.8
50.8178,20.7
50.8388,96.7
50.8446,89.7
50.8553,704.6
50.8776,17.2
50.8821,444.7
50.8948,228.1
50.9509,278.5
50.9537,133.1
50.9644,384.2
50.9661,700.2
50.9677,266
50.9695,122
50.9827,625.2
50.9832,15.2
50.9938,17.4
50.9992,18.6
51.022,156.3
51.0547,127.7
51.0549,425
51.0663,720.1
51.0839,126.4
51.0923,107.9
51.0932,128.3
51.1095,361.4
51.1248,18.8
51.1372,20.6
51.1515,104.5
51.1539,18.1
51.1561,17.3
51.1587,116.4
51.1657,122
51.1679,84.1
51.1722,85.6
51.1738,17.7
51.1997,399.7
51.2172,17.8
51.2259,112.3
51.2286,284.2
51.2302,96.1
51.2462,126.4
51.2605,678.1
51.2811,311.2
51.307,98
51.3137,665.4
51.3143,61.1
51.3242,117.3
51.3249,164.6
51.3739,172
51.399,140.2
51.4216,18.2
51.4282,92.9
51.4473,18.4
51.4475,272.7
51.5067,72.8
51.5125,362.4
51.5152,237
51.5163,81.8
51.519,218.3
51.5337,603.8
51.5715,490.1
51.5797,144.3
51.5834,50
51.622,19.6
51.6255,264.6
51.6438,89.7
51.6537,95.7
51.684,14.3
51.684,14.1
51.6988,514.1
51.7005,257.5
51.7134,113
51.7202,145.3
51.7429,326.2
51.7496,285.9
51.7547,98.6
51.7694,114
51.7861,295.7
51.7936,180.6
51.8017,246.9
51.8174,291
51.8215,211.1
51.8269,140.4
51.8292,306.2
51.831,384.4
51.8321,150.4
51.8421,124.2
51.8485,106.8
51.8595,460
51.8742,224.4
51.8819,198.7
51.8866,140.7
51.8976,85.4
51.9204,113.6
51.9242,100.2
51.9249,191.8
51.9449,143.1
51.9557,306.7
51.9636,261.6
51.9766,181.1
51.9797,142.3
51.9834,17.6
51.9952,430.7
52.0047,295.3
52.0092,53.4
52.0114,517.5
52.0258,122.9
52.037,363.6
52.0412,133.8
52.0496,204
52.0947,116.8
52.0989,104.3
52.1077,239.3
52.1117,729.5
52.1283,122.2
52.1285,126.6
52.1344,167.7
52.1413,137.9
52.1518,47.4
52.1678,16.1
52.1811,335.6
52.1827,714.4
52.1952,187.4
52.2005,107.5
52.2068,206
52.214,420.8
52.2332,185.8
52.2373,103.7
52.2385,82.7
52.2413,536.6
52.2499,23.5
52.2598,382.5
52.2652,722.9
52.2752,101.6
52.2765,645.5
52.2898,310.5
52.2952,88.6
52.3218,222.6
52.3261,282.2
52.3296,677.1
52.3312,255.2
52.3435,102.7
52.3478,166.6
52.3548,123.2
52.3567,373.3
52.3712,152.2
52.3772,75.9
52.384,14.8
52.3857,16
52.3942,182.6
52.4186,169.5
52.4207,294
52.4289,263.2
52.4385,130
52.439,438.6
52.4553,595.1
52.4632,123.3
52.472,323.2
52.476,430.3
52.4839,87.1
52.492,359.7
52.5058,176.5
52.5218,280.8
52.5328,311.5
52.5406,20.3
52.5411,161.8
52.5473,348.8
52.5491,181.3
52.5728,18.5
52.5847,448.7
52.5862,110.8
52.6107,98.6
52.6213,86.3
52.6223,184
52.6391,202.2
52.6401,323.2
52.6441,387.4
52.6476,157.9
52.6897,308.1
52.6937,145.5
52.7015,96.3
52.7192,650.9
52.7267,115.1
52.7554,110.6
52.7599,128
52.7634,47.9
52.78,18.7
52.7858,409.9
52.7906,431.8
52.7913,1031.6
52.7928,898.8
52.7935,3233.7
52.7943,3282.7
52.7956,521.9
52.7959,342.3
52.7964,382.8
52.7969,735.1
52.8113,112.9
52.8205,114.8
52.828,457.5
52.8286,159.1
52.8309,16.9
52.8317,755
52.8362,670.6
52.8464,235.8
52.8561,250.7
52.8947,338.2
52.9046,14.4
52.9121,156
52.9145,430.8
52.9181,298.6
52.9204,410.1
52.954,16.7
52.96,17.1
52.9613,344
52.9621,94
52.9635,140.8
52.9866,89.9
52.9957,17.8
53.0044,415.6
53.0057,107.8
53.0078,738.1
53.0083,191.8
53.0252,106.1
53.032,107.3
53.0368,511
53.0559,436.2
53.0631,125
53.0996,95.1
53.1199,736.6
53.1254,367
53.1439,264
53.1535,92.1
53.161,327.4
53.1766,173.5
53.1784,75.7
53.2106,157.4
53.213,90.9
53.2255,353.9
53.2486,158.1
53.2617,378.1
53.2628,53.4
53.2725,16.5
53.2777,75.7
53.2958,78.4
53.2967,356.3
53.3093,56
53.3177,109.3
53.3428,176.7
53.3458,64.6
53.3687,142
53.3767,84.6
53.3976,112.2
53.405,118.2
53.4176,253.4
53.4226,525.6
53.4379,18.7
53.4598,48.7
53.468,71.9
53.4755,408.7
53.4797,202.7
53.497,302.9
53.5464,684.4
53.5591,117
53.5718,530.1
53.5757,124.4
53.5913,293
53.5939,110.1
53.603,56.9
53.6138,69.8
53.6153,194.4
53.6211,106.7
53.6392,284
53.6453,94.7
53.65,249.9
53.6567,73.9
53.6593,18.1
53.6673,100.4
53.6878,178.6
53.7207,101.5
53.741,96.4
53.7438,510.3
53.7709,131.8
53.794,562.9
53.798,105
53.8151,547.5
53.8336,105.4
53.8407,380.7
53.8523,503.9
53.8614,330
53.8622,193.3
53.8778,244.5
53.8973,498.8
53.8996,131.4
53.9201,242.8
53.9292,196.9
53.9384,313.1
53.9474,243.5
53.949,112.6
53.9619,266.9
53.9668,490.4
53.9839,154.3
53.9883,71.8
53.9986,441.5
54.0291,90.1
54.035,198.7
54.0688,338
54.0693,97.5
54.0702,165.5
54.0953,158.1
54.1014,76.6
54.1023,75.9
54.1076,79.6
54.1092,102.4
54.1285,95.5
54.1558,127.3
54.1581,100.3
54.1627,17.2
54.1652,407.2
54.1728,108.6
54.176,325.7
54.1795,145
54.1918,529.8
54.204,100.6
54.2092,523.8
54.2153,106.4
54.2164,210.7
54.2199,81.6
54.2371,552.8
54.2449,249.5
54.2513,70.8
54.2546,175.6
54.2574,311.9
54.2578,83.3
54.2764,460
54.2798,468.1
54.284,45.7
54.287,362.7
54.2995,81.8
54.3077,192.6
54.3319,68.3
54.3407,366.4
54.3417,120.1
54.3429,372
54.3435,658.8
54.344,259.6
54.345,121.3
54.3525,18.4
54.3594,197.4
54.3667,330.8
54.3759,552.8
54.4025,148.7
54.4041,62.4
54.4062,345.7
54.4135,339.2
54.4188,461.4
54.425,483.8
54.4528,866.3
54.464,322.2
54.4816,621
54.5093,121.9
54.5151,15.8
54.5187,222.1
54.5293,653.6
54.54,189.1
54.5441,146.2
54.5565,91.8
54.5579,15.9
54.5588,558.5
54.5848,276.1
54.5865,215
54.5913,84.9
54.6097,136.8
54.6134,162.9
54.6167,210.2
54.6219,179.9
54.6257,83.7
54.6446,440.8
54.6468,367.7
54.6494,167.1
54.654,94.7
54.6814,16.7
54.6937,17
54.7016,102.2
54.7333,88.5
54.7384,20.1
54.7522,15.6
54.7577,130.9
54.7617,285.7
54.7678,350.6
54.7943,200.8
54.8208,103.8
54.8255,513
54.8312,93.8
54.8373,121.9
54.8572,81.6
54.8586,99.9
54.8649,110.1
54.8691,133
54.8818,241.3
54.9209,105.3
54.9258,110.2
54.927,100.6
54.9476,99.3
54.9545,270.3
54.9723,271.3
54.9781,112.7
54.988,107.1
54.9899,468.3
55.0004,19.5
55.0144,87
55.0188,129.4
55.04,368.9
55.0458,415.5
55.0549,375.4
55.0576,561
55.0659,17.4
55.0732,127.9
55.0914,92.2
55.0927,126.1
55.1003,162.9
55.1068,335.2
55.1143,295.4
55.1217,468
55.1269,664.3
55.1342,389.4
55.1419,142.4
55.1752,267
55.1809,19.6
55.1971,604.5
55.2169,398.7
55.2345,366.7
55.2349,162.7
55.2483,618.8
55.2506,619.1
55.255,271.9
55.2822,83.7
55.2871,165.1
55.2918,112.1
55.298,139.1
55.3024,286.8
55.3106,113.2
55.3181,20.5
55.3295,19.2
55.3393,159.7
55.3417,221
55.3432,521
55.3736,255.3
55.3789,423.5
55.384,279.7
55.3883,858.8
55.3937,628.3
55.4085,17.2
55.418,117.3
55.4339,264.1
55.4398,112.2
55.4509,153.2
55.4614,20.4
55.4677,111.9
55.4747,422.5
55.4814,467.5
55.4837,475
55.4845,421.2
55.5254,170.5
55.5344,217.3
55.5389,18.8
55.5559,330.5
55.5639,17.3
55.5651,15.4
55.5682,194.6
55.5866,119.4
55.6022,118.6
55.6109,638.5
55.6311,16.5
55.637,202.2
55.6402,84.4
55.6462,271.3
55.6512,651.4
55.6676,97.7
55.702,94.9
55.7096,140
55.7411,217.9
55.7419,15.6
55.7526,273.1
55.7538,178.3
55.7882,443.2
55.7898,18.9
55.8003,195
55.8034,52.8
55.8104,635.4
55.815,186.5
55.8159,153.1
55.8308,17.4
55.8414,161.7
55.8795,433.7
55.9068,377.7
55.9093,184.8
55.9207,89.3
55.9257,19
55.929,532.2
55.9432,101.3
55.9676,15.5
55.9694,110.3
55.9766,119.9
56.0047,207.8
56.0096,406.1
56.0138,131.9
56.0219,110.4
56.0492,71.2
56.057,416.2
56.0762,138.4
56.0823,344.6
56.0844,156.4
56.0862,89.9
56.0869,217.9
56.1242,231.2
56.1263,335.6
56.131,277.5
56.1345,97.4
56.1451,495.3
56.1466,544.4
56.1609,512.8
56.1612,509.3
56.1713,98.4
56.1812,503.9
56.22,804.8
56.2231,378
56.253,305
56.2642,267.5
56.2668,18.6
56.2707,619.4
56.2712,16.9
56.2816,214.5
56.2962,342.5
56.3019,113.6
56.3208,319.9
56.3275,108.7
56.3342,115.6
56.3423,677
56.3591,20.1
56.3688,16.5
56.3787,235.3
56.3852,17.5
56.4009,251.1
56.4164,366.5
56.4494,413.1
56.4895,19.2
56.5019,251
56.5044,110.7
56.5262,225.5
56.5292,319.5
56.5447,78.9
56.5451,376
56.5522,276.3
56.559,588.5
56.5619,16.2
56.5669,278
56.646,125.6
56.6484,100.1
56.655,304.8
56.6644,350.2
56.6699,255.2
56.6703,294.4
56.6756,67.6
56.7152,18.7
56.7269,170
56.7312,251.8
56.7437,392.5
56.7616,206.8
56.7731,278.5
56.7808,276
56.7893,630
56.79,209.1
56.7999,184.2
56.8166,67.7
56.8275,123.8
56.8322,150.8
56.8465,161.4
56.8714,209.5
56.872,202.7
56.8788,108.3
56.8984,113.2
56.8995,155.8
56.9287,102.1
56.9357,82.6
56.9382,725.8
56.944,16.6
56.9624,236.7
56.9741,200.8
56.9919,131.6
57.0096,324.2
57.0162,446.9
57.0265,409
57.0461,181.6
57.0685,96.9
57.0767,120.8
57.0868,424.6
57.0919,205.8
57.092,186.4
57.0925,167.9
57.0992,67.9
57.1204,47.4
57.1206,49.3
57.121,354.6
57.1272,366.4
57.1303,766.6
57.1321,117.2
57.1399,113.1
57.1509,113.2
57.1545,72.1
57.1614,213.2
57.2096,308.7
57.2122,95.4
57.2542,112.3
57.2596,16
57.2693,262.8
57.2755,87.6
57.2842,92.1
57.2875,170.5
57.2963,119.5
57.3081,109.2
57.3092,96.9
57.315,106.6
57.3285,447.6
57.3446,254.4
57.3461,21.1
57.3521,141.9
57.3737,388.7
57.3812,109
57.4148,721.6
57.447,190.2
57.4481,268.6
57.451,120
57.4559,114.9
57.4589,94.5
57.461,18
57.4685,354.1
57.4697,263.3
57.4852,240.6
57.4867,347.6
57.4875,421.1
57.4894,125.4
57.4907,146.2
57.4971,482.9
57.4976,163.9
57.5069,353.2
57.5129,258
57.5196,260
57.5503,131.1
57.5533,289.6
57.5593,458.9
57.569,344.4
57.6014,51.9
57.6027,357.2
57.6131,613.6
57.6254,18.1
57.6533,91.4
57.6568,418.8
57.6584,134
57.6624,109.9
57.676,17.5
57.721,296.5
57.744,129.8
57.7524,474.6
57.7729,269.9
57.7802,242.3
57.7874,272.4
57.7905,80.6
57.7969,399
57.8202,190.1
57.8461,284.5
57.8553,17.1
57.8582,256.2
57.8676,15.8
57.8742,124.1
57.8779,199.8
57.8846,119.1
57.9153,17.8
57.9189,121.1
57.9365,246.2
57.9526,104.3
57.9663,195.8
57.9875,201.9
58.0053,670.8
58.0195,116
58.0248,54.2
58.0275,127.2
58.0426,125.2
58.0559,237.8
58.0629,128
58.0633,187.4
58.0737,267.6
58.0804,136.8
58.0851,59.9
58.0998,105.4
58.1015,560.5
58.1029,574.3
58.1197,333.7
58.1435,173.5
58.1456,138.1
58.1727,185.5
58.1799,193.7
58.182,17
58.1856,335
58.1962,16
58.2,572.5
58.207,249.2
58.209,159.6
58.2153,51.1
58.2273,285.2
58.2453,91.1
58.2516,62.1
58.2861,117.5
58.3153,253.9
58.3321,15.8
58.3566,210
58.3677,179.3
58.3713,58.8
58.3843,18.2
58.3932,136.7
58.407,383.5
58.4107,113.5
58.4176,156.5
58.4696,464.3
58.5131,143.2
58.5218,89.9
58.5387,20.8
58.5392,410.7
58.5442,265.8
58.5545,16.1
58.5667,343.6
58.5777,303.8
58.5996,162.8
58.6006,66.4
58.6028,196.7
58.6133,90.2
58.6303,126.2
58.7188,329.5
58.7283,22.4
58.732,243.8
58.7333,123.8
58.7374,265
58.7387,110.4
58.7565,366.6
58.7719,281.2
58.8015,178.6
58.811,102.5
58.8326,89.6
58.8355,120
58.8384,294.9
58.845,114.1
58.8469,183.9
58.8815,213.7
58.8846,222.4
58.8867,93.4
58.8892,200.9
58.9009,61.7
58.9146,265.8
58.919,307
58.9324,75.8
58.9328,128.7
58.9407,245.6
59.006,24
59.0161,21.7
59.0416,155
59.0578,66.7
59.0624,124.3
59.0805,541.8
59.1002,355.4
59.117,282.9
59.1341,298
59.144,102.1
59.1475,573.4
59.161,213.7
59.1728,16.6
59.185,18.9
59.1863,192.6
59.2076,110.9
59.2101,292.2
59.2163,116.3
59.2303,15.9
59.2357,120.5
59.2369,114.1
59.238,89.1
59.245,153.8
59.2483,408.7
59.2692,704.1
59.2724,318.4
59.2808,226
59.2864,17.9
59.2942,105.2
59.3144,110.3
59.3221,84.4
59.324,106.6
59.3306,148.4
59.3363,565.9
59.3412,657.1
59.3427,545.4
59.3538,124
59.3634,15.3
59.384,242.8
59.3875,486.2
59.3898,288.3
59.413,456.5
59.4369,372.3
59.4505,106.5
59.4533,14.8
59.4666,274.1
59.4821,582.2
59.4879,129.7
59.4982,208.6
59.5001,17.6
59.5137,267
59.5255,778.6
59.5589,18.2
59.5614,80.8
59.5726,286.6
59.5852,22.1
59.5869,244.8
59.6084,100.3
59.6187,531.6
59.6191,189.7
59.6211,76.6
59.6256,698.5
59.6343,343.4
59.6379,389
59.6522,15.4
59.6532,414.8
59.669,328.8
59.6925,264.8
59.6954,503.1
59.7035,371.4
59.7062,240.7
59.7131,91.7
59.7224,17.2
59.7476,141.3
59.7591,323
59.7624,18.8
59.7687,111.5
59.776,350.3
59.7888,253.1
59.7924,215.8
59.8001,632.1
59.8018,216.5
59.8204,50.6
59.8343,572.5
59.8422,157.3
59.8521,467.9
59.8803,137.4
59.8866,226.8
59.903,552.5
59.9032,548.1
59.9103,171.8
59.919,110
59.9226,17.7
59.9388,146.1
59.9404,367.3
59.9448,179.2
59.9648,711.6
59.9703,211.8
59.9944,267.2
60.0017,488.7
60.0171,400
60.0288,290.8
60.0467,393.2
60.05,51.3
60.0623,137.2
60.064,17.3
60.0695,77.7
60.0722,291.8
60.0756,282.8
60.0816,374.3
60.0862,171.1
60.0886,184.5
60.089,218.2
60.0903,17
60.1078,469.2
60.1134,22.1
60.1248,162.6
60.1279,252.7
60.1374,94.8
60.1747,760.2
60.1897,102
60.1941,82
60.219,80.5
60.2467,685.7
60.2537,345.9
60.257,96.8
60.2693,336.7
60.2753,427.3
60.2769,378.8
60.3073,121.2
60.316,351.5
60.317,576.5
60.3195,14.8
60.321,21.1
60.3245,185.9
60.3279,101.1
60.3293,189
60.3305,699.4
60.3331,116.3
60.3348,52.6
60.3365,15.3
60.3429,319.6
60.3497,85.9
60.3574,204.6
60.3642,78.9
60.3657,303.2
60.3719,231.5
60.3962,260.1
60.4061,423.5
60.4121,91.6
60.4256,87.2
60.4261,260.6
60.4419,521.1
60.447,68.2
60.4509,378.4
60.4767,15.2
60.4799,635.9
60.4909,478.5
60.5051,95.2
60.5231,387.1
60.5347,528.7
60.5358,146.2
60.5435,101.6
60.5469,116.2
60.5488,426.8
60.5501,80.4
60.5513,458.2
60.5622,134.4
60.569,81.8
60.5711,187
60.5718,17.7
60.5922,155.4
60.5966,116.2
60.6045,56.9
60.6138,82.8
60.6372,387.7
60.6378,101.5
60.6527,14.7
60.6564,140.3
60.6819,539.2
60.6837,16.7
60.6973,88.6
60.7079,16.9
60.7128,222.6
60.7164,106.7
60.7211,565.1
60.7396,419.1
60.7422,133.5
60.752,85.5
60.7534,320.6
60.7616,424.4
60.7731,87.4
60.7752,264.7
60.7789,386.1
60.7817,444
60.7828,107.9
60.7899,120.6
60.7963,354.7
60.8296,732.9
60.8304,140.1
60.8342,168
60.842,268.2
60.8426,93
60.862,841.4
60.872,299.8
60.8849,80.6
60.891,167.6
60.9347,144
60.9415,200.9
60.9521,295
60.9745,439.1
60.9902,553.4
60.9906,122.4
60.9912,364.9
60.9932,456.1
60.9949,86.2
60.9982,189.1
61.0026,437
61.0058,89.2
61.0259,431.7
61.028,15.9
61.0292,471.2
61.0391,173.4
61.0406,106
61.0416,111.3
61.0448,239.7
61.0683,435.3
61.0783,266
61.0821,111.7
61.1007,261.4
61.1031,159
61.1133,182.5
61.1291,108.5
61.1351,16
61.1441,249.2
61.1484,684.7
61.1587,215.7
61.1915,82.3
61.2097,267
61.226,108.8
61.228,17.3
61.2306,552.4
61.2366,116.4
61.2407,334.4
61.2475,238.1
61.2658,274.5
61.2686,203.7
61.2737,55
61.2754,353
61.2775,20.5
61.2873,282.7
61.2885,115
61.2892,150.2
61.299,156
61.3061,206.1
61.3125,529
61.3253,16.9
61.369,432
61.3766,158.4
61.3799,397.8
61.386,298.6
61.4078,169
61.4121,262.1
61.4236,66.2
61.4555,18.7
61.4658,141.8
61.4802,122.2
61.4829,191.1
61.4862,70.9
61.4927,189.7
61.5286,184.6
61.5289,106.4
61.5662,129.2
61.5839,92.7
61.5862,299.2
61.5891,133.5
61.6024,86.9
61.6041,332.9
61.6045,17.5
61.6087,19.8
61.6134,160.3
61.6277,274.9
61.6309,826.6
61.6371,149.1
61.6395,128.1
61.6532,279.2
61.6566,194.9
61.6607,404.5
61.6651,90.7
61.6778,238.9
61.6797,17.5
61.6855,16.3
61.7067,111.7
61.7211,108.9
61.723,256.4
61.7275,176.9
61.7562,91.9
61.7568,120
61.7646,71.4
61.7852,92.9
61.8141,129.8
61.8182,584.2
61.8269,190.5
61.8332,101.5
61.8459,17
61.8524,67
61.8559,242.4
61.8833,474
61.8857,350.2
61.9044,166.8
61.9065,111.6
61.907,574.3
61.9083,571.3
61.9438,677.9
61.9459,72.6
61.9748,307.1
61.9825,18.7
62.0033,115.2
62.0112,389.2
62.0401,312
62.0873,651.8
62.0904,18.8
62.0968,129.8
62.1028,77
62.1172,88.8
62.1182,80.9
62.1482,333.8
62.1552,90.8
62.1581,16.6
62.1841,363.2
62.1958,562.9
62.2032,827.6
62.2193,465.1
62.2248,99
62.2371,298.7
62.2549,700.7
62.2721,91
62.2729,112.9
62.2737,614.2
62.2798,169.9
62.304,18.7
62.3069,695.9
62.3293,19.1
62.336,160.5
62.3693,232.4
62.3714,168.6
62.373,186.2
62.3744,104.6
62.3867,394.5
62.3876,173.9
62.3996,138.2
62.403,85.2
62.4289,299.4
62.4294,97.8
62.4327,55.1
62.4352,490.7
62.4597,564.1
62.5182,649.7
62.5318,58.3
62.5368,92.8
62.5404,157
62.5665,472.2
62.5873,110.3
62.5975,91
62.6054,87.9
62.6085,131.1
62.6111,653.4
62.62,109.7
62.635,379.8
62.6569,151.6
62.664,116
62.6686,85.6
62.6694,71.1
62.6849,55.9
62.6918,83.4
62.7293,114.2
62.7642,245.3
62.7744,257.8
62.7861,148.1
62.7882,662.1
62.7998,144.4
62.8267,843.9
62.8727,17.1
62.8738,630
62.8821,249.6
62.903,216
62.9069,461.7
62.9487,16.7
62.953,18.5
62.9786,282.9
62.9827,332.9
62.9884,128.9
63.0169,156.1
63.0226,432.7
63.0382,96.3
63.0471,128.4
63.077,87.9
63.0857,155.8
63.0902,92.8
63.0965,186.5
63.1188,297.2
63.1265,84.8
63.1281,19.6
63.1293,214.6
63.1518,18.8
63.1622,226.1
63.1661,412.5
63.1796,57.7
63.209,236.3
63.2237,468
63.2415,253.3
63.2697,87
63.2745,88.6
63.279,746.8
63.2833,355.2
63.2999,168.3
63.3071,111.2
63.3116,744.7
63.3366,204.9
63.3407,310.2
63.3604,423.4
63.3698,205.1
63.3739,288.4
63.3926,182.1
63.3956,50.6
63.3999,398.9
63.4017,109.2
63.4062,90.5
63.4107,288.5
63.415,230.4
63.422,149.8
63.4263,184.5
63.4325,326.7
63.4517,267.2
63.4575,183.4
63.4732,17
63.4833,291.4
63.4842,155.3
63.4919,68.7
63.4931,120.2
63.4942,162.5
63.5126,17.2
63.5315,373.3
63.5449,16.5
63.5595,17.7
63.5668,91.1
63.5684,94.4
63.5949,17.2
63.6034,239.4
63.6219,603.3
63.6404,131.7
63.6409,653.9
63.6586,309
63.6946,94
63.697,528.6
63.7132,164.5
63.7609,100.4
63.7658,115.6
63.7675,109.5
63.7693,167.5
63.7705,90.8
63.8145,410.6
63.8149,413.1
63.8167,17
63.8277,344.3
63.8371,17.8
63.8811,17.2
63.8911,392.5
63.8937,283.5
63.9197,91.5
63.9388,167.8
63.9452,272.2
63.9491,628.3
63.9523,329.2
63.9818,232.3
64.0107,213.3
64.0342,723
64.0403,199.9
64.0528,495.4
64.0562,213.8
64.0604,304.7
64.0724,111.4
64.0878,387.3
64.0965,421.2
64.138,145.9
64.1426,154.8
64.1764,760.8
64.1833,18
64.1918,18.9
64.2227,285.5
64.2388,332
64.2653,456.4
64.2726,666.6
64.3255,123.6
64.3504,113.8
64.3533,111.6
64.3695,82.8
64.3799,371.6
64.3833,114.8
64.3879,135.7
64.3942,120.3
64.4072,266.4
64.4079,18.2
64.4095,123.8
64.4193,362.7
64.4255,282.9
64.431,161.7
64.4366,49.8
64.4391,239.6
64.4633,260.2
64.4832,18.5
64.4966,269.2
64.5055,19.2
64.5189,633.6
64.5219,86.6
64.5231,86.1
64.5244,535.5
64.5297,59.9
64.532,104
64.5378,119.6
64.5434,147.5
64.5484,382.8
64.5728,239.4
64.5797,310.6
64.583,19.1
64.5957,110.5
64.601,384.8
64.6499,566.7
64.6717,212.5
64.6724,87.9
64.6834,93.8
64.6865,223.2
64.7299,206.9
64.7511,655.6
64.7858,631.3
64.7937,711.5
64.8132,102.6
64.8237,347.1
64.8252,17.2
64.8384,288.5
64.8403,117.4
64.8447,547.1
64.859,392
64.881,126.1
64.8945,150.4
64.9115,340.4
64.9189,127.1
64.9349,700.9
64.9679,118.6
64.9844,406.9
65.0049,85.2
65.0101,81
65.0238,16.6
65.0264,624.6
65.0271,286.8
65.0278,822
65.0303,100.9
65.0334,18.3
65.0408,297.5
65.0533,351.6
65.0555,452.3
65.071,132.3
65.0822,572.1
65.0864,248.6
65.0874,203
65.0923,50.3
65.1017,853.6
65.1072,181.9
65.1122,146.4
65.1401,129.1
65.1423,773.3
65.1463,93.3
65.1579,107.3
65.1762,89.6
65.1922,270
65.1951,115.3
65.1961,116.3
65.2079,736.2
65.2471,19.6
65.2588,135.3
65.3077,186.3
65.3382,108.7
65.3451,109.6
65.3633,545.9
65.3864,465.6
65.3902,369.6
65.3927,477
65.3934,105.4
65.3946,145
65.3971,142
65.3993,510.5
65.4122,224.4
65.4144,456.5
65.4203,98.9
65.4324,216.9
65.4606,639.7
65.4665,395.5
65.4886,168
65.4978,395.3
65.5044,681
65.5383,222.8
65.5503,89.1
65.5565,18.6
65.5888,289.1
65.5957,129
65.6161,74
65.6169,125.3
65.647,229.4
65.6475,320.5
65.6539,587.2
65.6853,510.1
65.6887,540
65.7053,133.1
65.7242,383.3
65.765,18.1
65.7777,466.5
65.7876,21.3
65.7894,192.8
65.7963,183.2
65.8022,697.3
65.8099,18.9
65.8135,397.1
65.8238,350.5
65.8276,335.4
65.8338,172.7
65.8711,459.7
65.8745,152.7
65.8825,151
65.8837,715.7
65.8898,19.1
65.8903,63.6
65.8916,641.1
65.8965,301.3
65.9148,17.6
65.9228,251.9
65.9285,155.7
65.9365,55.9
65.9422,94.2
65.9453,733.5
65.9538,21.1
65.9761,161
65.9779,463.7
66.0083,355.6
66.0187,189.7
66.0329,113
66.035,147.8
66.0415,168.5
66.0456,303.5
66.051,472.2
66.0532,172.3
66.0676,137.4
66.0854,95.4
66.0906,151.9
66.1129,155.7
66.1151,97.2
66.1436,119.7
66.1651,16.5
66.1714,312
66.193,97.4
66.1954,262.5
66.2171,19.6
66.2177,764.7
66.245,387.3
66.2886,289.7
66.3018,454.7
66.3158,538.9
66.3355,568.9
66.3387,95.1
66.3424,20.7
66.3503,55.1
66.3867,171.8
66.387,720.9
66.4014,481.3
66.4039,119.3
66.428,87.7
66.4301,63.5
66.4409,128.9
66.4499,133.9
66.4608,458.7
66.472,236.4
66.5132,17.1
66.5383,271.1
66.541,20.2
66.5471,308
66.5718,16.2
66.5786,124.1
66.5987,547
66.6058,18.6
66.6087,17.9
66.6132,317.7
66.645,263.8
66.6473,130.3
66.6523,73.5
66.6576,119.5
66.6581,643.9
66.6837,133.1
66.6864,347.6
66.6937,261.6
66.7112,476
66.7214,348.5
66.7238,320.8
66.7293,98.1
66.742,153.2
66.7569,372.5
66.7572,354.6
66.7759,21.7
66.7773,18.5
66.7844,533.4
66.7879,232.4
66.8018,563
66.8117,487.4
66.8145,250.3
66.8205,596.3
66.8308,164.5
66.8426,233.5
66.8612,106.5
66.8627,157.5
66.8792,173.2
66.8837,70.1
66.8918,461.9
66.9035,606.2
66.9057,268.5
66.9111,283.4
66.9397,405.7
66.9446,93.7
66.9553,298.4
66.9635,19.3
66.9667,18
66.9826,257.7
66.9832,68.8
67.0053,92.5
67.0091,18.3
67.0324,102.3
67.0329,160
67.0498,529.2
67.0539,190.5
67.055,265.2
67.0645,344.7
67.0723,243.3
67.1074,170
67.1197,143.3
67.1205,91.8
67.1588,292.8
67.1657,278.3
67.1727,108.1
67.1734,153.4
67.1768,19.7
67.1988,124.1
67.2,201.4
67.226,583.4
67.2301,22.7
67.2452,743.8
67.2476,710.8
67.2524,282.9
67.2739,750.9
67.2865,18.6
67.2932,135.4
67.2943,17.1
67.3016,410.3
67.3473,361.1
67.352,635.1
67.3619,19.7
67.3849,714.7
67.3923,25.8
67.3981,374.5
67.4009,15.6
67.4376,243.1
67.4448,16.6
67.4577,388.4
67.4658,322.6
67.476,136.1
67.4854,97.1
67.4958,217.4
67.4976,130
67.5011,102.2
67.5043,592.6
67.5282,667.3
67.5354,225.3
67.5394,384.4
67.5444,519.2
67.5759,316.6
67.5807,18.1
67.5835,334.4
67.5842,123.4
67.59,632.2
67.5988,80.5
67.6047,391.2
67.6176,19
67.6191,210.3
67.6243,355.2
67.6471,516.7
67.6515,739.1
67.6574,140
67.6743,74.2
67.6822,159.9
67.7094,419.6
67.7171,16.4
67.7711,147.8
67.8029,55.7
67.8184,170.6
67.8468,381.4
67.8476,17.8
67.8648,107.1
67.8706,200.2
67.875,213.8
67.8902,19.4
67.8995,258.6
67.9375,156.6
67.9452,655.6
68.0032,183.4
68.0254,251.4
68.0692,737.9
68.0787,249.4
68.1101,276.7
68.1255,264.6
68.1283,470.9
68.1533,63.9
68.1546,156.6
68.157,16.5
68.1638,94.9
68.1771,316.1
68.2158,405.1
68.2245,112
68.2681,202.5
68.2727,290.8
68.281,293.3
68.3004,381.7
68.3009,106.6
68.315,482.8
68.3202,262.8
68.3289,327.4
68.3471,416.8
68.3649,324.6
68.3888,216
68.3897,17.3
68.3918,653.3
68.3924,698
68.3993,73.2
68.4076,18.6
68.4144,169.1
68.435,630.1
68.4422,54.4
68.4693,17.1
68.4799,162
68.4908,83.9
68.508,364.5
68.5169,440.1
68.5276,170.3
68.5304,385.9
68.5329,169
68.5456,866
68.5583,293.8
68.5713,272.1
68.5983,84
68.6185,265.8
68.6199,164.3
68.649,74.6
68.6593,188.7
68.6706,17.2
68.6791,327
68.6811,21.9
68.6828,188.6
68.7022,322.4
68.7372,178.6
68.7771,330.2
68.7823,167.6
68.7995,196.9
68.8436,106
68.8679,107.1
68.8918,133.7
68.913,264.5
68.9238,302.1
68.9243,21.3
68.9266,227.4
68.9432,337.9
68.954,364.7
68.9758,77.2
68.9878,147.4
69.0059,80.2
69.0138,377.4
69.0329,159.7
69.0332,147.1
69.0485,120.9
69.0534,435.9
69.0634,411.8
69.0696,20
69.0852,247.7
69.0951,91.3
69.0983,116.1
69.1064,698.8
69.1138,623.3
69.1202,71.7
69.1308,619.6
69.1634,336.6
69.1694,444.6
69.1951,92.6
69.1997,629.8
69.2116,124.3
69.2211,445.9
69.2249,169.7
69.2527,814.6
69.2666,180.6
69.2719,208.7
69.2762,684.1
69.2803,102.3
69.283,121.1
69.2884,15.9
69.3219,308
69.3436,606.5
69.3447,287.4
69.3586,492
69.3767,179.8
69.3785,71.8
69.3895,256.8
69.4,179.4
69.409,621.8
69.4123,156.8
69.414,132
69.4519,393.7
69.4704,110.1
69.5006,361.3
69.5277,250.4
69.532,255.9
69.5377,157.5
69.5515,125.2
69.569,129.3
69.5778,244.6
69.5906,127.4
69.5925,93.7
69.6081,187
69.6332,667.7
69.6479,204.9
69.6524,369.5
69.6875,17.9
69.7018,309
69.7038,372.3
69.7044,17.2
69.7158,164.5
69.7221,115.4
69.7349,133.6
69.7622,741
69.7866,161.8
69.7913,17.5
69.7959,183.6
69.8167,166.1
69.8184,757.5
69.823,17.2
69.826,189.2
69.8364,224.9
69.8524,493.6
69.8696,574.1
69.8766,138.9
69.9015,335.1
69.9121,17.5
69.9414,486.3
69.9481,549.4
69.9897,595.7
70.0257,376.9
70.0275,493
70.0301,198.2
70.0408,164.5
70.0526,194.5
70.0586,99.8
70.0604,605.3
70.0648,294.8
70.0889,23.2
70.0928,83.9
70.0964,157.8
70.1351,216.2
70.1483,205.1
70.1544,442.6
70.1773,600.9
70.1858,353.6
70.2081,213.2
70.2369,387.9
70.2448,134.4
70.2571,79
70.2681,18.4
70.2735,117.7
70.2824,125.9
70.3111,88.4
70.339,124.5
70.3551,206.5
70.3622,101.4
70.3981,131.8
70.4139,146.5
70.4226,527.7
70.4315,255.7
70.4335,72
70.4377,344.3
70.4684,132.2
70.4951,108.8
70.4963,15.9
70.5035,110.8
70.5051,396
70.5264,88.7
70.5623,49.3
70.5852,328.1
70.5928,146.8
70.5982,176.9
70.6058,227.8
70.6221,17.5
70.6535,90.8
70.6877,99
70.6971,114.5
70.706,114.2
70.7147,71.4
70.7195,189.4
70.7578,91.2
70.7823,373.8
70.7832,177.8
70.7988,107.7
70.8001,215
70.8019,249.2
70.8124,314.1
70.8169,115.1
70.8328,498.6
70.8459,387.4
70.8999,112.8
70.9236,262.2
70.9347,88
70.9414,198.9
70.9448,245.6
70.9509,123.7
70.9528,304.2
70.964,106.1
70.965,571.9
70.9831,130.8
70.9892,129.5
70.9966,102.9
71.0006,247.3
71.0054,615.8
71.0088,435.5
71.0103,468.9
71.0372,1093.2
71.057,136.4
71.0583,84.5
71.0596,446.3
71.0793,15.6
71.0836,231.3
71.0943,94.5
71.1111,360.4
71.141,224.1
71.1421,139.1
71.1726,511.5
71.1792,188.6
71.2039,445.6
71.2047,115.8
71.2131,787.8
71.2244,353.9
71.2299,73.1
71.2787,508.7
71.3048,63.2
71.3228,471
71.388,99.4
71.3966,255.2
71.417,288.5
71.4481,154.4
71.4877,303.4
71.494,91.1
71.5081,128.4
71.5398,124.3
71.5506,18.1
71.5864,17.3
71.5877,211.1
71.6085,369.9
71.6402,326.1
71.6498,124.3
71.6572,316.9
71.691,133.3
71.6982,200.6
71.7064,21.9
71.7323,228.5
71.7657,271.7
71.7704,254.3
71.799,115.8
71.8016,497.6
71.8054,346.4
71.8087,425.8
71.8089,398.9
71.8092,274.5
71.8107,478.9
71.8149,302.5
71.8193,130.7
71.827,154.6
71.8277,16.1
71.8379,355.6
71.9091,242.8
71.9166,487.2
71.9202,98.4
71.9334,18.3
71.94,54.1
71.9598,130.6
71.9635,910.3
71.988,218
71.9991,209.5
72.0192,17.8
72.0279,352.5
72.034,718.7
72.0631,468.6
72.0805,229.7
72.0818,99.5
72.1082,320.8
72.1221,502.7
72.193,182.4
72.2212,809
72.2224,1451.5
72.2231,1714.8
72.2234,1033.6
72.2239,3527.2
72.2255,1413.6
72.2264,2048.5
72.2275,610.5
72.2283,1484.7
72.2289,2018.3
72.23,2038.5
72.2308,3531.3
72.2315,988.2
72.2322,2393.6
72.2336,3319.2
72.2344,2152.6
72.235,1671
72.2359,2315.1
72.2376,1807.8
72.2384,1557.6
72.2394,1903.2
72.2397,2040.1
72.2402,1565.7
72.2412,2028.4
72.2416,1431.9
72.2423,404.9
72.2434,1454.9
72.244,526.4
72.2446,457.5
72.2451,1063.9
72.246,357.5
72.2472,467.6
72.2482,635
72.2494,170
72.25,149.4
72.2505,39.6
72.2519,147.7
72.2531,22.5
72.2692,140.9
72.3024,53.9
72.3106,381.3
72.3228,117.7
72.3306,390
72.3359,97.9
72.342,103.9
72.3461,20.4
72.383,122.8
72.393,200.9
72.4222,295.6
72.4241,17.5
72.4327,802.3
72.4333,289.8
72.4438,213.8
72.4473,523.9
72.4665,171.3
72.4707,95
72.4807,311.5
72.5022,90.5
72.5416,538.1
72.5554,610.2
72.5692,176.9
72.5747,184.9
72.5818,156.8
72.5834,55.1
72.6136,263.5
72.6167,16.6
72.6237,196.4
72.6374,206.4
72.662,105
72.6669,18.5
72.7519,301
72.7696,692.2
72.7863,59.1
72.8058,20.8
72.8526,271.7
72.8645,359.6
72.8687,84.4
72.8757,211.6
72.8829,202.2
72.892,220.8
72.9028,93.1
72.958,296.5
72.9781,115.1
72.9972,95.9
73.0027,481.5
73.003,476.4
73.0076,202.3
73.039,146
73.0447,345.3
73.0936,238.2
73.1176,156.8
73.1203,137.8
73.1324,88.5
73.1588,195.7
73.1684,264.8
73.1691,202.2
73.2082,305.8
73.2251,90.9
73.2525,108.7
73.257,129.3
73.2616,86.7
73.262,180.3
73.2686,131.7
73.2867,200.6
73.2942,124.6
73.3276,691.9
73.3366,122.4
73.3385,119.8
73.3561,174.7
73.3569,224
73.3666,88.5
73.3682,16.9
73.3753,582.4
73.3797,97.7
73.4015,294.6
73.4458,678.7
73.4492,110.5
73.4779,297.7
73.51,18.2
73.5112,173.7
73.5147,142.4
73.5285,19.3
73.531,17.6
73.5367,98.7
73.5389,18.3
73.5543,747.9
73.5726,126
73.5881,181.2
73.6144,19.1
73.619,21.8
73.6299,292.7
73.6307,90.4
73.6313,239.9
73.6378,124.2
73.6402,122.2
73.6452,253.3
73.648,367.7
73.6654,186.2
73.6911,124.7
73.6949,447.6
73.7267,91.9
73.73,169.8
73.7469,236.1
73.763,507.7
73.791,94.2
73.8629,243.9
73.8816,109.7
73.8842,322.7
73.8945,264.9
73.9039,221.2
73.911,17.7
73.9218,641.7
73.9261,17.5
73.9491,21.1
73.9542,221.3
73.9569,523.7
73.9723,143.5
74.0105,311.1
74.027,909.9
74.0306,95.5
74.0311,268.6
74.0386,304.9
74.055,477.2
74.0558,17.6
74.0598,4783.8
74.0769,19.1
74.0798,117.3
74.0838,359.4
74.099,79.5
74.108,434.9
74.1236,351.6
74.1436,81.8
74.154,244.6
74.1739,140.6
74.1753,98.2
74.2084,611.4
74.212,447.1
74.2423,652.8
74.2642,177.6
74.2809,720.5
74.2933,253.7
74.3208,290.6
74.3268,91
74.344,712.7
74.3452,329.1
74.3781,16.5
74.3851,211.3
74.4034,120.5
74.4167,330.3
74.4707,178.6
74.4745,245.7
74.4755,312.6
74.4773,78
74.4851,193
74.4879,156.7
74.491,509.7
74.5009,167.3
74.5045,660.5
74.5101,130
74.518,16.7
74.5259,286.4
74.5567,317.9
74.5613,192.7
74.5644,20.1
74.5732,125.8
74.5764,106.6
74.6471,130.1
74.656,107.8
74.6684,187.6
74.67,502.7
74.6708,632.9
74.6913,537.6
74.6959,92.7
74.7013,200.2
74.7292,18.3
74.7355,159.1
74.7454,133
74.7504,732
74.7586,126.4
74.7795,290.8
74.7818,344.2
74.7825,227.6
74.7866,372.3
74.8069,376.8
74.8204,17.7
74.8286,98.5
74.8492,334.8
74.8614,113.4
74.8624,514.5
74.9065,419.3
74.9108,102.1
74.9208,275
75.0149,67.4
75.0227,19
75.0476,21.9
75.0583,113.7
75.0753,53.4
75.078,189.2
75.0866,202.6
75.0961,113.6
75.1089,146.4
75.1212,260.3
75.129,604.6
75.1398,180.1
75.1471,91.6
75.1567,183
75.1781,119
75.1919,154.2
75.1945,287.3
75.2095,106.4
75.2115,52.9
75.2139,18.1
75.2238,154.8
75.2428,390.8
75.2678,100.2
75.2697,583.9
75.2924,21.1
75.2948,1139.6
75.3024,73.1
75.3027,110
75.3076,18.1
75.3123,114.8
75.3189,105.4
75.332,121.3
75.3522,319.4
75.3983,330
75.4014,270.5
75.4115,125.7
75.4225,105.6
75.429,16.8
75.4428,102
75.4519,200.8
75.528,160.3
75.5406,325.1
75.5559,109.4
75.5609,357.6
75.5641,152.9
75.5733,142
75.5774,52
75.5852,156.9
75.6014,316
75.6085,399.2
75.6158,314.7
75.6175,74.7
75.6226,553.4
75.6646,137.8
75.6673,187.5
75.6894,234.7
75.7131,18.1
75.7235,464.8
75.7282,265.5
75.7643,287.3
75.8151,567.5
75.8299,255.9
75.835,18.5
75.8383,108.5
75.8494,324.2
75.8613,107.9
75.8826,99.4
75.8882,458
75.891,126.4
75.8937,72.7
75.9191,109.9
75.9253,76.7
75.9266,476.8
75.932,62.6
75.941,392.5
75.944,468.9
75.9565,19.2
75.9688,152.9
75.9731,395.7
75.9858,493.2
75.988,18.8
75.9921,283
76.0289,55.6
76.0698,204.8
76.0737,311.8
76.0983,19.9
76.1157,18.4
76.1188,127.5
76.1251,552.9
76.1994,111.1
76.2149,423.9
76.221,270.1
76.2229,585.5
76.2472,404.5
76.2752,168.5
76.2784,82.1
76.284,241.9
76.3086,84.8
76.332,88.8
76.3381,344.6
76.3481,360.9
76.3695,498
76.3775,833.4
76.3933,278.5
76.4087,381.5
76.4214,115.9
76.4337,159.5
76.4374,181.2
76.4569,136.7
76.4619,128.8
76.4909,19.6
76.5043,67.8
76.5548,243.4
76.5559,265.4
76.5944,82.9
76.5953,134.5
76.6288,125.2
76.6529,658.7
76.6551,306.6
76.6664,106.5
76.6806,565.2
76.6988,695.5
76.7041,652.4
76.7083,309.2
76.7424,123.9
76.7427,122.9
76.7668,750.9
76.7691,218.9
76.7749,107.6
76.7805,163.1
76.7836,91.3
76.8354,541.4
76.839,521.4
76.8498,568.9
76.8532,105.8
76.8589,123.1
76.8699,442.8
76.8811,117.2
76.8848,83.6
76.8891,16
76.9249,95.2
76.9308,272.3
76.9383,703.6
76.9582,19.2
76.9808,16.6
76.982,421.5
76.9897,152.5
76.9936,663.2
77.0025,292.7
77.028,127.7
77.034,122.5
77.0353,1320.5
77.0369,23.1
77.0383,119236.1
77.0508,314.5
77.075,206.9
77.0951,516.6
77.1004,78.8
77.1118,278.3
77.1143,84
77.1344,500.9
77.152,144
77.1616,494
77.1951,158.5
77.1995,354.2
77.2746,419.5
77.2858,94
77.2861,94.3
77.3466,172.5
77.3676,267
77.3692,18.2
77.4037,327.6
77.4121,317.7
77.4153,83.6
77.4173,88.9
77.4197,120.1
77.4558,84.6
77.4566,263.3
77.4836,81.7
77.4853,98.9
77.4863,111.7
77.4897,229.4
77.5026,189.7
77.5354,18.6
77.5432,255.2
77.5471,122.5
77.5496,110.5
77.6012,115.3
77.6026,119.5
77.6387,317.1
77.6611,54.8
77.682,212.5
77.712,220.9
77.7168,117.5
77.735,110.5
77.7512,236.8
77.7816,430.4
77.786,622.5
77.7867,124.3
77.7871,169.8
77.8219,295.6
77.8245,286.7
77.8411,705.8
77.8487,436.9
77.8842,94.1
77.9229,186.7
77.9404,743.8
77.9628,133.5
77.998,268.5
78.0004,209.1
78.011,119.9
78.014,74.8
78.0417,3859
78.0485,163.3
78.0579,762.7
78.0901,415.3
78.111,262.6
78.1213,216.1
78.1257,490.7
78.1438,190.7
78.1473,338.1
78.1533,20
78.2038,216.7
78.2077,15.3
78.2158,783
78.2198,312.7
78.2488,267.3
78.2518,75.6
78.2529,151
78.2771,98.6
78.2791,109.8
78.283,151.1
78.298,49.2
78.2996,165.9
78.3088,132.6
78.3191,136.2
78.3314,359.3
78.3484,200.9
78.4006,473.6
78.4172,630.2
78.4344,743.7
78.442,229.3
78.4438,165.8
78.4486,376.4
78.463,171.7
78.4678,380.8
78.4704,267.4
78.4993,98.7
78.5037,474.8
78.5335,18.4
78.5383,143.6
78.5523,173.3
78.5629,782.5
78.5654,457.5
78.5696,114
78.5896,516.8
78.6007,195.2
78.6079,504.9
78.6121,464.9
78.6237,364.6
78.6278,709
78.6728,70.7
78.6847,705.9
78.6855,19
78.6957,371.3
78.7779,22.8
78.7821,67.4
78.7844,445.9
78.8166,175
78.8804,104.2
78.9095,101.7
78.917,157.4
78.9185,18.1
78.9214,81.8
78.9285,662.5
78.9447,108.7
78.9494,607.4
78.962,108
78.9834,56
78.9915,122.7
78.9968,207.6
79.0049,327.9
79.0323,34.7
79.0369,88.2
79.054,1786.7
79.0557,559.6
79.0687,19.2
79.0811,200.4
79.1067,146.1
79.1079,16.8
79.1163,141.4
79.1321,160
79.1362,84.7
79.1476,129.4
79.154,313.9
79.1561,255.2
79.1769,163
79.1809,357
79.2339,16.6
79.2494,168.5
79.2665,90.5
79.2779,88.7
79.293,667.3
79.2974,234.2
79.3243,165.6
79.3638,121.5
79.3743,305.6
79.3804,583.1
79.3855,200.8
79.3915,63.4
79.3926,306.7
79.3967,72
79.4243,167.5
79.4329,315
79.4634,317.6
79.4703,17.6
79.4917,652.8
79.4945,478.1
79.4965,94
79.518,52.5
79.5605,119.3
79.5656,292
79.6493,177.7
79.6524,162.5
79.6585,15.4
79.6771,321.5
79.6814,144.8
79.6832,139.1
79.7044,75.6
79.744,17.2
79.7537,324.1
79.7566,97.7
79.7746,383.9
79.777,350.6
79.7936,20.5
79.8046,18.1
79.83,96.7
79.9262,525.2
79.9356,166.7
79.939,121.6
79.9798,406.9
79.9901,274.9
80.0145,91.9
80.0222,141.8
80.0283,124.7
80.0528,729.9
80.0595,489.8
80.0905,94.7
80.1065,638.2
80.1329,112.1
80.1487,157.5
80.211,516.6
80.2441,737.6
80.2746,101.5
80.3086,258.4
80.3276,247.7
80.35,18
80.3618,174.5
80.4104,337.1
80.4122,107
80.4167,266.9
80.4837,236.8
80.4898,248.5
80.5002,127.9
80.5113,366.3
80.5346,20.6
80.5456,283.8
80.567,594
80.5797,111.1
80.5804,99.7
80.6082,595.8
80.6132,127.6
80.6201,139.7
80.646,175.4
80.6504,107.2
80.6539,261
80.6948,126.3
80.699,94
80.7216,765.3
80.7435,380.3
80.7581,111.1
80.7845,435.1
80.8028,476.2
80.8193,581.3
80.8256,419.4
80.8295,611.2
80.8655,162
80.8695,82.4
80.8789,483.2
80.9286,252.5
80.9454,599.7
80.9476,59217
80.9647,465.9
80.978,123.2
80.9893,643.9
81.0118,570.9
81.0347,135.2
81.0358,107.4
81.0519,110.2
81.0608,277.8
81.0697,1478.4
81.0958,124.8
81.0996,105.6
81.136,315
81.1375,405
81.1381,968.1
81.1388,546
81.1392,502.6
81.1403,1317
81.1412,1009.5
81.1426,261.3
81.1435,146.8
81.1444,209.6
81.1456,264.6
81.1546,19
81.168,425.4
81.172,297.2
81.1817,438.7
81.2504,133.6
81.261,180.8
81.265,18.5
81.2715,55
81.2899,214.5
81.2944,127.7
81.3127,702.9
81.3362,77.8
81.3454,126.8
81.3571,266.6
81.3637,533.7
81.3865,114.9
81.3905,119.8
81.4092,53
81.4145,15.9
81.4325,182.7
81.4638,98
81.4748,319.9
81.4939,115.9
81.5134,96.9
81.5188,131.9
81.5281,443.5
81.546,493.1
81.5527,21
81.5844,755.8
81.5857,590.8
81.5898,211.5
81.6021,166
81.6092,426.1
81.6135,311.3
81.6387,19.4
81.6403,18.6
81.6639,604.2
81.6694,330.1
81.6798,155.4
81.6963,273.6
81.7063,450.3
81.7229,19.1
81.7279,226.5
81.7491,293.8
81.7502,141.8
81.8425,358.2
81.8547,88.4
81.8613,130.3
81.8874,69.8
81.8941,471.5
81.9125,55
81.9169,299.1
81.9303,92
81.9751,18.4
81.9876,202.8
81.9974,563.9
82.0111,97.4
82.0364,259
82.0385,17.5
82.0394,156.3
82.0666,258.9
82.0675,352
82.0696,159.3
82.0731,19.7
82.0997,326.6
82.1041,74.6
82.1061,361.1
82.107,112.6
82.109,101
82.1367,559.3
82.1676,19.6
82.1911,245.9
82.198,263.6
82.2098,92
82.218,191.1
82.2321,353
82.2364,309.4
82.2451,119.1
82.2487,451.1
82.26,123
82.2665,184.8
82.2676,61.2
82.2695,306.9
82.2747,305.5
82.3051,89.6
82.3204,380.3
82.3239,316.8
82.3376,87.1
82.3393,337.2
82.364,323.4
82.3829,190.7
82.4863,75.5
82.4942,289.6
82.5169,777.6
82.5624,248
82.5655,174.8
82.5826,487.6
82.6087,197.8
82.6547,581.7
82.6639,282
82.675,342
82.6778,194.4
82.7061,512.3
82.778,683.1
82.7956,17.3
82.8015,124.2
82.8238,130.8
82.8252,204.8
82.8418,642.6
82.8491,19
82.8713,107.7
82.8853,351.7
82.8909,17.4
82.9006,147.9
82.9202,780.8
82.925,135.6
82.9429,65.6
82.9447,16077.1
82.9716,100.9
82.9893,675.9
82.9913,161
82.9984,760.2
83.0051,143.5
83.0166,409.3
83.0256,93
83.0644,197
83.0826,283.1
83.0854,64.8
83.0888,292.5
83.0911,511.2
83.1122,16.2
83.1169,118.5
83.1182,168.9
83.1218,110.4
83.1565,88.8
83.1696,121.6
83.1874,409.8
83.2348,297.1
83.2476,621.7
83.2774,122.3
83.2934,20.7
83.3341,125.1
83.3399,108.7
83.343,392.2
83.3523,200.1
83.4072,70.4
83.4075,70.3
83.4228,90.5
83.4463,19.5
83.4507,97.4
83.4704,69.4
83.4732,17.2
83.501,52.3
83.5021,297.2
83.5336,92.3
83.5595,372.7
83.581,96.3
83.5881,16.4
83.5909,56.4
83.6013,352.4
83.6049,18.1
83.6057,161.5
83.6097,286.2
83.651,17.1
83.6567,634.2
83.6584,132.7
83.6674,102.8
83.6775,148
83.6939,83.1
83.7075,335.2
83.7107,117.4
83.7333,228.5
83.7375,16.9
83.7433,181.1
83.746,601.1
83.7471,96.1
83.7672,426.8
83.7726,265.6
83.7739,281.4
83.7788,251.9
83.7915,300.7
83.8062,221.9
83.8072,156.2
83.83,106.8
83.8461,191.9
83.856,16.3
83.8766,605.7
83.8838,138.2
83.8858,95.8
83.8911,54.7
83.9099,17.7
83.9125,178.5
83.9375,191.4
83.9609,17.9
84.0116,748.7
84.0131,163.3
84.017,430.9
84.0211,603.5
84.0257,16.8
84.0268,20.4
84.0296,136.9
84.0331,55.1
84.0418,608
84.0442,1084.4
84.0462,103
84.0475,329
84.0518,73.1
84.0679,171
84.0695,137.8
84.1005,472.6
84.1112,166.1
84.1195,237.8
84.1431,502.2
84.1439,498.5
84.1842,101.7
84.1912,16.1
84.2006,629.8
84.2117,658.5
84.2193,129
84.2325,96.8
84.2401,246.9
84.2933,686.2
84.3145,138.6
84.3174,123
84.3227,122.8
84.3386,689.6
84.3393,60.4
84.3472,113.7
84.4148,156.9
84.4296,416.9
84.451,156.5
84.4777,316.7
84.4828,104.2
84.5333,19
84.5451,365.8
84.5576,207.5
84.5735,256.8
84.5927,458.8
84.5958,17.1
84.5968,262.5
84.608,166.1
84.6105,66.4
84.6115,120.7
84.6236,19.7
84.642,190.3
84.6639,209.5
84.7484,19.8
84.7566,55.9
84.7574,109.6
84.7632,307.5
84.7836,514
84.7856,246.9
84.8116,87.4
84.8202,152.3
84.8257,438.7
84.8473,228.6
84.8643,18.3
84.8691,15
84.8809,180.3
84.9027,183.3
84.905,622.8
84.9126,127.9
84.9324,17.6
84.945,279.1
84.9478,395.2
84.949,108.5
84.9595,19367.4
84.9729,523
85.0018,161
85.0042,156.3
85.0199,127.5
85.0268,685.6
85.0282,866.7
85.0421,111
85.0639,533.2
85.0724,153.4
85.0739,22.6
85.1002,161.8
85.1038,126.9
85.1057,83.1
85.1142,790.2
85.155,250.7
85.1905,199.3
85.2108,100.8
85.2364,201.8
85.2482,304.7
85.2743,116.5
85.2764,249.8
85.281,441.6
85.2929,86.4
85.3033,122.6
85.3314,215.9
85.3688,19
85.3835,95.8
85.3909,18
85.4183,375.4
85.4702,51
85.5246,588.1
85.5428,18
85.5476,676.4
85.5486,112.8
85.5624,371.3
85.5669,811.2
85.5942,329.2
85.6062,256
85.6247,84.6
85.6256,168.8
85.6281,500.7
85.6359,111
85.6517,128.2
85.7029,19.3
85.7051,83.1
85.7316,418.7
85.7368,112.1
85.7382,737.9
85.742,315
85.7545,55.3
85.8056,93.9
85.8184,104.3
85.8365,790.1
85.8585,658.2
85.8703,417.7
85.8764,131
85.8851,18.8
85.9017,305
85.9809,108.4
85.9878,97.7
85.9924,233.3
86.0043,368.4
86.0366,476.8
86.0396,109.9
86.0476,577.3
86.0529,22
86.0599,41277.9
86.0772,341.7
86.0963,97912.1
86.2133,574.4
86.2267,775.4
86.3501,455.7
86.3529,441.7
86.3536,294.5
86.3719,350.4
86.3883,621.3
86.4139,831
86.4525,287.6
86.5113,290.4
86.5366,567.3
86.5436,499
86.5549,131.2
86.5587,590.3
86.5967,573.8
86.6207,144.5
86.6577,135.2
86.6757,265.3
86.6974,307.2
86.7068,186.2
86.716,457.3
86.721,483.7
86.7328,83.4
86.7719,128
86.8121,154.9
86.8159,127
86.8203,288.8
86.8283,272.2
86.8564,115.9
86.9133,504.5
86.953,131.5
86.9587,483.4
87.0258,405.7
87.0573,652
87.0691,222.6
87.0725,232
87.0732,217.3
87.0996,1100.8
87.1105,341.1
87.1136,145.6
87.1413,167.3
87.1805,21.9
87.1872,72.5
87.2119,372.9
87.2132,221.2
87.2331,291.2
87.2409,95
87.276,81.5
87.3072,246.3
87.3424,352.4
87.3469,18.2
87.3676,267.9
87.3703,54.7
87.4,20.3
87.4223,219.9
87.4312,121.1
87.4458,486.3
87.4597,130.4
87.4857,269.4
87.506,354.7
87.531,102.3
87.5846,262.1
87.5852,244.8
87.6001,415.2
87.6008,150.6
87.6281,317.2
87.6301,397.3
87.6654,694.2
87.6672,343.2
87.6716,135.2
87.6882,73.2
87.6899,490.2
87.7278,121.7
87.7411,87.3
87.7457,472.1
87.7573,17.8
87.8042,432.3
87.8224,198.3
87.8538,124.2
87.8707,98.7
87.9005,59.9
87.9069,164.2
87.9101,738.5
87.9178,134.2
87.9225,308.1
87.9328,219.7
88.0037,723.9
88.0068,298.6
88.0094,88.4
88.0173,110.6
88.0215,122.9
88.0336,15.9
88.0392,8179.8
88.0624,503.2
88.0967,277.5
88.1212,681.8
88.1638,17.5
88.1743,763.9
88.1952,529.8
88.2112,378.6
88.2267,544
88.2669,359.3
88.2864,355
88.2972,581.6
88.3131,17
88.3206,160.8
88.3297,373.8
88.3585,95
88.3855,23
88.3902,98.2
88.3922,558.4
88.4065,21.4
88.4094,600.9
88.4382,237.7
88.4613,133.8
88.4881,248.2
88.5132,431
88.5538,132.8
88.5614,190.8
88.5707,533.8
88.6089,150
88.6281,220.1
88.6304,701.7
88.6782,87.7
88.684,252.3
88.6951,153.9
88.7035,18.8
88.7043,599.2
88.7051,82.2
88.7134,85.2
88.7785,94.3
88.7813,111.3
88.8007,18.2
88.8571,251.5
88.9267,53.3
88.9277,119.4
88.9338,179.9
88.9455,144.6
88.9543,221.6
88.964,118.4
88.9685,19.9
88.9834,209
89.0114,455.3
89.0253,17.8
89.0595,26
89.0649,17.3
89.0708,126.9
89.107,96.1
89.1131,399.5
89.1177,18.2
89.1278,102
89.1935,816.1
89.1962,66.4
89.229,141.3
89.2335,18.9
89.2859,20.2
89.2951,337
89.3212,191.1
89.3232,112.9
89.3321,189.6
89.35,289.2
89.3698,146.1
89.3898,158.6
89.3989,351.6
89.4034,397.8
89.4042,193.3
89.4064,163.4
89.4074,17.9
89.459,134
89.512,125.8
89.5291,19.3
89.5356,129.6
89.5403,429.2
89.573,103.1
89.6447,417.4
89.6666,54.9
89.6964,354.6
89.6973,86.2
89.8089,238.6
89.8118,18.1
89.8156,330.1
89.8321,470.2
89.8515,89.4
89.8599,260.9
89.8846,21.1
89.885,19
89.8854,19.6
89.9038,125.3
89.9041,160.2
89.9044,116
89.9064,216.8
89.9162,124.6
89.9337,57.8
89.9667,118.9
89.9737,132.7
89.9832,88.7
90.0006,691.6
90.0082,225.6
90.0212,233.8
90.0334,395.6
90.0714,267.3
90.0924,18
90.1083,133.4
90.1112,293.7
90.138,216.5
90.1697,296.7
90.1911,496.6
90.1953,410.6
90.1978,113.9
90.2404,104.2
90.2536,301.7
90.2751,112.3
90.3445,459.5
90.3504,123
90.3677,244.4
90.389,19.3
90.393,160.2
90.4039,18.1
90.4153,17.1
90.4226,19.2
90.429,483.5
90.4519,120.7
90.4543,17.5
90.4557,21.2
90.4821,97.1
90.4862,588.1
90.5182,330
90.522,677.7
90.5251,266.6
90.5362,548.5
90.5471,107.3
90.5544,308.9
90.5683,83.2
90.5807,317.3
90.6111,17.9
90.6387,248.6
90.6564,456.9
90.6665,188.9
90.6919,18.8
90.6972,117.5
90.7245,181
90.7374,945.1
90.7389,110.6
90.7628,313.6
90.773,135
90.7974,299
90.8006,406.9
90.8038,317.1
90.8051,139.5
90.8119,109.2
90.8324,92.4
90.8342,490.3
90.8625,95.7
90.8756,775.9
90.8784,136
90.8803,346.1
90.881,731.3
90.886,273.1
90.9291,20.3
90.9444,400.3
90.9476,104.8
90.9751,388.6
90.9765,10191.1
90.994,258.8
91.0019,820.3
91.0029,121.7
91.036,294.7
91.0438,205.7
91.0511,137.3
91.0541,1631.4
91.0605,123.5
91.1371,21.5
91.1587,629.9
91.1739,635.5
91.1866,17.6
91.2035,169.9
91.2043,122.7
91.2092,253
91.2641,493.6
91.2724,340.6
91.2766,280.1
91.2973,316.7
91.3042,15.9
91.3051,290.9
91.3451,217
91.3799,17.2
91.3825,330.5
91.4132,480.9
91.4568,299.3
91.4845,57.3
91.5127,502.7
91.5171,404.1
91.538,291.6
91.5664,121.9
91.5694,140.3
91.5715,341.4
91.6055,139.6
91.7143,365.6
91.734,225.2
91.7358,476.7
91.7434,122.6
91.7555,486.8
91.7611,591.8
91.7752,468.4
91.7901,359
91.7912,244.8
91.7917,89.1
91.8116,133
91.8215,274.6
91.8262,858.1
91.8584,258.9
91.8769,200.9
91.9177,17
92.0141,365.8
92.0268,19
92.0494,36.5
92.0751,415.7
92.0831,18.9
92.1614,140.5
92.2241,413.5
92.242,78.3
92.3059,408.7
92.3522,79.6
92.4368,141.4
92.4592,18.7
92.4695,232.4
92.5195,93.2
92.5481,152.5
92.5956,294.8
92.6003,19
92.6213,436.5
92.6357,415.1
92.722,98.5
92.7685,19.7
92.7696,378.7
92.7784,107.6
92.7832,508.2
92.784,133.9
92.7954,318.3
92.8255,151.2
92.9291,18.1
92.9593,19.4
92.9737,292
92.9784,145.1
93.0126,591.7
93.0143,20
93.0219,698.5
93.0298,545.2
93.0573,48.2
93.0699,429.9
93.0753,183.6
93.0848,745.1
93.1598,480.5
93.1661,495.6
93.169,141.8
93.2194,102.5
93.224,489
93.2501,17.6
93.2794,141.6
93.2883,59
93.2916,80
93.2939,326.8
93.3622,725.8
93.3631,85
93.4011,120.9
93.428,411.3
93.4469,300.6
93.4542,125.7
93.459,516.7
93.4676,199.1
93.5695,102.1
93.5896,323.1
93.6256,163.3
93.6409,23.5
93.6529,19.4
93.6564,135.7
93.7111,341.8
93.713,17.4
93.7698,111.1
93.7777,300.6
93.7809,165.5
93.842,303.2
93.8913,148.2
93.9122,18.2
93.925,211.7
93.9315,280.8
93.9386,124.3
93.9476,424.3
93.9662,555.3
94.0144,20.9
94.0339,114.6
94.0412,55789
94.0432,20.4
94.0475,327
94.1662,287.8
94.1935,341
94.2038,114.3
94.2238,88.1
94.2243,89.9
94.2275,396.8
94.2335,821.1
94.2549,156
94.2665,96.8
94.2821,22.1
94.2897,239.7
94.3021,124.9
94.3028,434.9
94.3231,17.3
94.3769,252
94.381,711.8
94.3848,146
94.3926,384.6
94.4424,256.8
94.4564,20.1
94.4947,18.9
94.4997,101.4
94.5581,398.7
94.6283,128.1
94.651,17.6
94.6684,55.1
94.6707,90.2
94.6789,179.3
94.7169,94.1
94.718,292
94.7458,157.8
94.7597,122.1
94.791,94.5
94.7948,161.3
94.8075,191.5
94.8091,84.2
94.8102,164.3
94.8131,152.6
94.8165,388.1
94.8419,267.4
94.8471,300.8
94.8488,667.8
94.8644,241.2
94.8673,137.7
94.9047,302.7
94.9258,677.1
94.9387,407
94.9798,258.3
94.9924,97.8
95.0014,146.2
95.0086,24.9
95.0291,617.5
95.0316,486.5
95.0356,30.3
95.0446,1278.3
95.047,95
95.049,422689.9
95.0504,259.3
95.0508,151.4
95.0511,125.9
95.052,36.7
95.0524,24.8
95.0541,31.4
95.0853,1175.6
95.1083,669.3
95.1125,168
95.1241,311.9
95.131,737.4
95.1477,407.6
95.1509,134.6
95.1693,22.3
95.2357,141.8
95.2384,238.9
95.2641,60.7
95.2863,188.4
95.2898,832.2
95.3038,189
95.3474,106.4
95.3485,666.6
95.3495,435.2
95.4031,234.1
95.404,169.1
95.4413,92.6
95.4581,412.7
95.4983,166.4
95.5166,628.4
95.5483,164.4
95.5993,103.4
95.6078,714.3
95.6098,100.6
95.6165,237.8
95.6581,230.5
95.6819,370.5
95.6835,493.8
95.7006,357.7
95.7252,55.3
95.7419,133.5
95.7529,337.4
95.7584,497.3
95.8089,274.2
95.8215,365.7
95.8228,138.2
95.8533,20.3
95.8826,542.9
95.9191,116.5
95.9305,124.5
95.9387,675
95.9416,98.1
95.9443,812.2
95.9476,176
95.9674,110
95.9927,265.5
95.9959,15.9
96.0378,133.8
96.0524,21207.7
96.0637,668.9
96.0807,114
96.0964,561.1
96.1329,213.4
96.1401,269.9
96.1709,40
96.1841,475.2
96.1993,61.6
96.2035,569.5
96.239,90.8
96.2478,54
96.2774,137.4
96.2886,372
96.2924,93.5
96.2949,149.9
96.3265,600.1
96.3904,18
96.3912,277.4
96.4421,16.6
96.5526,162.5
96.5578,145.6
96.5666,88.3
96.5705,20.4
96.574,335.8
96.5767,450.6
96.6261,243.6
96.6528,166
96.673,16.9
96.6811,588
96.6985,16
96.6994,20.3
96.7237,561
96.7334,116.3
96.7357,118.8
96.7446,418.1
96.7797,428.7
96.8191,139.4
96.8316,103.4
96.8865,95.8
96.9059,180
96.9171,52
96.9217,175341.2
96.9472,267
97.0075,263
97.023,17.4
97.0533,247.5
97.0557,70.2
97.065,18.6
97.1001,119.1
97.1197,683.4
97.1222,19.2
97.1284,85
97.1611,346.2
97.2208,126.6
97.2351,330.5
97.243,376.6
97.2467,274.5
97.2513,136.8
97.2771,126.2
97.3341,362.3
97.3418,130.7
97.3881,18.1
97.4157,450.7
97.4206,265
97.466,544.7
97.4927,610.5
97.5049,325.4
97.528,560.2
97.5443,110.7
97.5646,490.4
97.6088,113.2
97.6106,97
97.6118,158.9
97.6159,213.1
97.6442,302.7
97.655,162.7
97.6581,93.4
97.6604,116.8
97.6629,238.4
97.6679,99
97.6694,107.9
97.7084,614.2
97.7099,290.4
97.7193,137.9
97.7382,17.7
97.7434,498.7
97.7535,18.8
97.7603,306.6
97.7982,143.1
97.8179,185
97.8734,245.1
97.8771,329.1
97.9209,273.3
97.9271,226
97.9412,203.2
98.0049,134.6
98.0207,777.7
98.0393,92.9
98.0827,102.8
98.1271,101.8
98.134,307.8
98.208,270.3
98.2641,108.7
98.271,174.1
98.3204,558.8
98.3302,328.8
98.3305,328.4
98.3464,19.6
98.3555,449.4
98.3638,369.5
98.4015,267.5
98.4238,122.8
98.4315,146.5
98.4582,28.4
98.4747,128.4
98.4761,371.1
98.4845,210.7
98.4905,19.6
98.4913,129.3
98.4997,545.7
98.5395,90.6
98.6335,425.2
98.6362,126
98.6495,183.4
98.6572,166.3
98.6673,202.3
98.6836,738.7
98.7184,93.7
98.7513,168.2
98.7578,104.5
98.7593,16.7
98.7658,17.3
98.7809,211.3
98.7845,99.6
98.8019,365.3
98.8244,115.3
98.8325,291.1
98.835,76.2
98.845,324.1
98.8737,337
98.8791,207.9
98.8901,154.2
98.8996,590.8
98.9187,49489.8
98.9198,9457.4
98.9448,91.1
98.95,116
98.9565,150.3
98.9752,15145.2
98.984,117.2
98.9958,117.3
99.0213,221
99.0471,468.4
99.0552,587.8
99.1604,20.1
99.1742,86
99.1927,151.9
99.1968,278
99.1979,361.8
99.2276,167.1
99.2454,429.6
99.2709,89.3
99.284,446.1
99.3329,18
99.3408,270
99.343,127.8
99.3736,120.9
99.4384,104.2
99.4396,197.7
99.4924,406.4
99.5042,126.1
99.5687,118.2
99.612,623.2
99.619,120.3
99.6263,135.1
99.6648,283.5
99.6929,180.8
99.6954,280.9
99.6982,147.4
99.7033,461.2
99.7137,242.5
99.7175,229.7
99.7191,19.1
99.7366,18.8
99.7419,132.7
99.7636,764.2
99.7751,20.6
99.7783,749.3
99.7886,263.5
99.8307,694.5
99.8343,372.3
99.8519,388.1
99.9085,88.8
99.9362,298.7
99.9479,212
99.9747,303.9
100.0127,314.1
100.0274,604.4
100.0466,148.3
100.0494,166.5
100.0633,388.5
100.0638,590
100.0644,716.8
100.0757,26.4
100.0917,188.8
100.1118,334.5
100.1858,380.1
100.1935,513.9
100.2088,125.9
100.2116,99.5
100.2966,665.6
100.3425,551.5
100.3451,86
100.3483,110.3
100.3728,168.5
100.3948,225.4
100.4057,20.2
100.42,253.6
100.4387,807.3
100.4469,287.7
100.477,378
100.4945,484.9
100.5317,316.5
100.5545,250.4
100.5604,386.8
100.6143,138.8
100.6428,303.9
100.6651,60.5
100.708,396.1
100.7112,85
100.7217,88.9
100.728,144.3
100.7295,102.8
100.7477,126
100.7496,19.7
100.8196,21.8
100.8811,207.2
100.8819,189.7
100.8898,177.6
100.9009,60.5
100.9169,2013.5
100.9327,290.1
100.9985,122.7
101.0027,134.6
101.0082,636.9
101.0402,168.9
101.0471,2551.4
101.0709,333.2
101.0751,128.5
101.0894,158.9
101.1476,122.5
101.178,100.4
101.2102,434.7
101.2225,100.6
101.2296,60.4
101.2653,398.4
101.2728,344.8
101.3144,175.3
101.3342,97.8
101.3356,93.3
101.359,305.5
101.4046,174.5
101.478,689.2
101.4843,187.2
101.5004,283.2
101.5582,125.1
101.583,157
101.5844,211.3
101.6004,254.6
101.6176,90.2
101.6625,103.6
101.6782,121.4
101.7202,722.5
101.7406,109.2
101.764,91.1
101.7745,128.6
101.7923,124.9
101.7989,408.9
101.8236,856.9
101.8405,203.6
101.8573,20.7
101.8646,527.4
101.8798,21
101.8948,255
101.9078,115.7
101.9175,128.8
101.9699,864.8
101.9817,262.4
101.9906,218
102.018,644.3
102.024,355.4
102.025,168.5
102.0456,111.7
102.0549,5619.1
102.0622,250.5
102.0673,38.6
102.0846,133.9
102.1276,204.8
102.167,95.2
102.288,20.8
102.2951,107.5
102.3976,557.1
102.4513,121.5
102.4564,87.8
102.5207,18.2
102.542,93.1
102.5632,79.6
102.5748,19.3
102.577,441.1
102.5791,184.5
102.5825,109.7
102.6818,750
102.7723,111.5
102.7987,188.5
102.8295,228.8
102.8336,15.8
102.8594,599.5
102.8796,286.4
102.9004,146.1
102.9118,424.5
102.9702,499.6
103.0044,213.3
103.0062,55.8
103.0503,24.6
103.0522,130.2
103.0541,483.8
103.071,144
103.0954,155
103.1551,19.7
103.1621,250.6
103.1761,209.7
103.204,88.3
103.2134,152.1
103.2156,16.3
103.2169,18
103.244,17
103.2804,251
103.2876,104.2
103.2909,127.7
103.4015,152.5
103.4227,191.4
103.4258,285.7
103.4404,139.1
103.4586,205.3
103.4798,365.3
103.4833,18.9
103.4899,270.4
103.5205,160.8
103.533,182.3
103.5428,295.5
103.5684,292.9
103.5736,55
103.6005,17.7
103.6097,99
103.6327,386.6
103.6515,451.8
103.6577,717.2
103.6667,289.6
103.6711,153.5
103.6812,362
103.7009,368.8
103.7057,19.5
103.7221,424.5
103.7263,279.1
103.7564,93.6
103.7708,113.3
103.7869,118.3
103.7949,771.6
103.7997,404.8
103.8492,238.9
103.8516,508.6
103.9078,55.1
103.915,15.4
103.9418,286.7
103.9483,121.3
103.9686,91.4
103.9844,181.4
103.9929,186.2
103.9969,58.3
104.0177,161.5
104.0214,83.3
104.0323,271.1
104.054,159.9
104.0694,385.6
104.0763,75.7
104.098,58.9
104.1069,447276.7
104.1294,331
104.15,17.6
104.1701,246
104.2501,665.2
104.3156,242.8
104.3422,347.4
104.3425,355
104.3431,364.7
104.3796,262.3
104.4025,91.7
104.4115,58.1
104.4351,200.9
104.4382,19.2
104.4532,90.9
104.4757,15.6
104.4801,111.7
104.562,271.9
104.5809,416.1
104.6114,132.4
104.6316,170.5
104.6403,19.2
104.6463,92.9
104.6655,123.8
104.703,225.9
104.7253,19.1
104.7282,519
104.7508,355.9
104.753,615.5
104.7872,19.6
104.7946,123.3
104.8247,299.3
104.8381,382.6
104.8399,98.9
104.8654,278.6
104.8924,313.2
104.9315,18.2
104.9633,159
104.9921,1532
105.0035,42.2
105.0227,107.8
105.029,17.1
105.0333,17.3
105.0446,41005.4
105.0608,103.4
105.065,19
105.0797,100.4
105.1103,16378.3
105.1268,103
105.14,113.2
105.1541,323.8
105.168,197.9
105.1881,601.4
105.1955,462.4
105.2145,262.6
105.25,119
105.2572,18.2
105.2678,17.2
105.2778,287.1
105.2807,86.5
105.3162,477.7
105.3811,17.7
105.3902,129.3
105.4186,19.9
105.4534,153.9
105.4571,170.8
105.469,93.6
105.4731,166.3
105.4796,317.5
105.4883,324.9
105.512,366.8
105.5785,140.7
105.5861,97.9
105.6006,250.7
105.6266,106.9
105.6441,53.3
105.6855,227.7
105.6963,480.9
105.6995,18.1
105.7017,400.6
105.7204,108.6
105.7472,155.1
105.7687,436.5
105.8194,18.7
105.8708,785
105.8853,103.7
105.8911,95.6
105.895,268.5
105.8993,189.9
105.935,861.1
105.941,85.2
105.9675,410.3
106.0071,633.5
106.0203,644.5
106.0241,758.8
106.0341,778.5
106.048,823.5
106.049,440.5
106.074,207.9
106.0882,108.9
106.1019,366.3
106.1089,138.2
106.1305,235.7
106.1521,495
106.1896,259.7
106.2062,257.4
106.2599,342.4
106.2656,131.3
106.284,207.2
106.3045,152.9
106.3363,287.4
106.3421,803.3
106.3472,121.2
106.349,207.8
106.3548,183.3
106.3778,19
106.3952,91.6
106.4228,246.6
106.5194,505.9
106.6648,113.5
106.6672,137.5
106.6798,367.4
106.6888,105.4
106.712,568.4
106.7367,122.6
106.768,378.1
106.7898,550.3
106.7966,260.9
106.8123,19.7
106.8164,115.5
106.8858,211.9
106.9244,773.4
106.9488,316.4
106.9505,5222.7
106.9644,134.3
106.9738,150.9
106.9919,112.6
107.0283,88.1
107.0327,18.1
107.041,252.1
107.0491,688.4
107.0852,189.9
107.0937,595.7
107.1086,106.3
107.11,373.9
107.1122,476.6
107.1336,261.4
107.15,90
107.1977,579.5
107.1992,86.2
107.2284,21.4
107.2427,331.3
107.2566,120.2
107.2928,304.8
107.3299,716
107.3481,237.8
107.3721,92.8
107.3956,109.5
107.4105,111.1
107.4269,218.3
107.4533,365.5
107.4568,756.2
107.4753,19
107.5117,375.3
107.5156,205.9
107.5176,121.9
107.5324,68.9
107.546,171.9
107.5784,150.2
107.6067,541.9
107.6544,201.2
107.7631,18.9
107.8478,386.6
107.8692,119.1
107.8791,84.9
107.8842,368.6
107.8939,177.2
107.9485,240.4
107.9558,19
107.9714,17.7
107.979,498.2
107.9811,147.1
108.0233,270.1
108.0583,16.6
108.1391,99.5
108.162,331.7
108.177,96.5
108.1806,248.1
108.2139,306.2
108.288,174.1
108.3125,103.9
108.3158,329.4
108.3513,132
108.383,308.1
108.3842,19.6
108.3879,100.8
108.4157,77.5
108.4288,603.2
108.4362,611
108.4454,97
108.5093,122
108.5152,561.6
108.5342,111
108.5557,459.6
108.5655,317.5
108.5827,186.1
108.6362,18.2
108.7299,144.7
108.7398,144.1
108.7447,253.7
108.7603,366
108.7694,256
108.7771,143.5
108.827,73.6
108.8512,467.7
108.8586,18.1
108.8683,818.8
108.8848,643.2
108.9257,369.7
108.9322,398.3
108.9418,101.9
108.9822,16
108.9914,18.4
108.9983,858.2
109.0647,60258.2
109.0663,59.3
109.0979,316.5
109.1011,156.2
109.1123,19.2
109.1186,175.8
109.1676,564.5
109.1935,260.1
109.1941,256.4
109.2077,20.4
109.2154,110.2
109.2549,116.6
109.3114,289.3
109.323,132.7
109.35,366.9
109.377,166.2
109.3997,180.2
109.407,114.4
109.4336,207.7
109.4551,346.1
109.4561,533.4
109.4952,124.8
109.4965,148.9
109.5145,83
109.5161,235.4
109.5266,250.9
109.5469,180.6
109.5587,203.6
109.5988,17
109.6547,18.2
109.6625,93
109.6672,113.9
109.6741,102.5
109.6817,94
109.7405,328.9
109.7782,350.3
109.8338,94.6
109.935,359.1
109.9937,118.8
110.0011,161.3
110.014,122.1
110.0363,22.8
110.0681,2205.2
110.0712,814.4
110.0803,446
110.1097,201.1
110.1705,149
110.1814,435
110.186,299.4
110.2317,198.3
110.2529,169.6
110.2764,515
110.2853,591.5
110.2888,343.3
110.2918,165.3
110.3957,675.9
110.3999,310.3
110.445,18.5
110.4492,306.9
110.5238,90.5
110.5531,158.1
110.6677,197
110.6984,282.1
110.7057,115.3
110.7269,301.5
110.7477,474.8
110.7529,96.2
110.7704,392.9
110.7719,148.9
110.8349,564.2
110.8736,156.4
110.8894,116.8
110.9017,17
110.9374,114.2
110.9459,769
110.9814,155.1
110.9835,290.5
110.9871,149.9
111.0232,379
111.044,309.7
111.0545,330.9
111.0897,411.6
111.1255,86.8
111.142,59.6
111.19,513.8
111.23,181.2
111.2612,300.1
111.2722,173.4
111.2745,312.8
111.2858,21
111.3049,153.4
111.3133,412.3
111.3553,341.5
111.3583,177
111.3847,359.2
111.454,87.2
111.4718,99.8
111.506,95.3
111.5896,576.6
111.6318,424.8
111.7242,263.5
111.7386,19.8
111.7956,117.1
111.8076,178.2
111.8101,255.8
111.8471,268.9
111.8653,318.3
111.8914,149.3
111.8976,158.6
111.9685,461.5
111.9814,672.6
111.9978,584
112.007,96
112.0187,316.6
112.0687,696.1
112.071,286.8
112.1027,172.7
112.1345,377.6
112.1827,121.1
112.1924,581.4
112.2243,99.4
112.227,290.9
112.2487,166.9
112.3519,91
112.362,721.9
112.4061,96.4
112.4097,170.8
112.4322,430.4
112.4523,186.7
112.4743,471.3
112.4814,261.1
112.4907,313.1
112.4992,19.2
112.573,522.2
112.601,88.2
112.6243,429.4
112.6267,255
112.6282,179.3
112.6475,116.7
112.7362,282.2
112.7521,274.5
112.7877,18
112.8459,325.3
112.8819,311.8
112.8831,527.9
112.8847,154.5
112.8957,496399.5
112.9146,664.2
112.9182,181.3
112.9365,80.9
112.9901,318.1
112.9932,134.9
113.0127,277.7
113.0383,684.6
113.1031,129.9
113.1196,213.3
113.1212,101.1
113.1299,459.5
113.1389,317.6
113.2529,358.1
113.2562,122.4
113.2625,18.9
113.2942,19.3
113.3634,783.2
113.4168,548
113.4303,407.5
113.4527,385.1
113.487,608.8
113.5441,122
113.5559,144.9
113.5987,301.2
113.6202,82.8
113.6971,21
113.7199,392.2
113.7316,59.8
113.7463,130.4
113.7953,17.8
113.7978,139.1
113.8099,123.9
113.8685,15.8
113.8722,267.7
113.8912,142.1
113.9947,206.1
114.0182,329.7
114.0218,123.3
114.0549,57571.3
114.0574,220.7
114.0654,20.8
114.14,668.3
114.1682,770.7
114.1917,99.3
114.2222,120.6
114.2789,100
114.2846,336.2
114.3024,278.2
114.341,342.4
114.3501,116.6
114.357,594.9
114.3613,630
114.3871,189.2
114.4105,19.2
114.4142,19.5
114.4231,358.1
114.4373,100.3
114.4941,218.5
114.5074,20.4
114.6072,389.3
114.6096,98.3
114.6161,20
114.6221,378.5
114.6868,19.7
114.7296,149.2
114.7546,312.6
114.7883,131.7
114.793,183.3
114.7956,107.7
114.8211,315.6
114.8431,102.9
114.8531,323.5
114.8928,153033.6
114.899,501.4
114.9003,471.1
114.9036,133.9
114.9425,80.6
114.9884,639.2
114.9925,20.2
114.996,378.4
115.0123,676.8
115.0164,249.3
115.0484,266
115.0526,20.8
115.0559,218.4
115.0583,877.4
115.0599,347.4
115.0866,650.6
115.1972,222.2
115.1997,141.3
115.2291,131
115.2648,91
115.3049,113.5
115.3067,450.7
115.331,183.5
115.3884,232.3
115.4015,607.5
115.4194,527.1
115.4238,320.6
115.457,78.7
115.4591,16.7
115.518,484
115.5186,374.7
115.6085,241.3
115.6261,577.4
115.6298,101.9
115.633,114.7
115.6692,610.1
115.7001,467.1
115.7126,17.7
115.7207,357.9
115.7338,81
115.7621,285.7
115.7783,113.6
115.8085,232
115.8235,452.4
115.8379,704.2
115.8889,217.2
115.9183,127.4
115.9212,184.9
115.9255,303.4
116.0706,3814.2
116.0899,82.9
116.093,58.2
116.1491,122.5
116.1592,415.2
116.2098,190.9
116.2432,416.8
116.2874,18.4
116.3147,118.4
116.3521,119.2
116.4296,18.7
116.437,452.9
116.4655,86
116.4833,436.2
116.506,192.4
116.6113,597
116.6256,17.9
116.7572,108
116.759,174.8
116.762,68
116.7674,359.1
116.7915,150.7
116.7999,728.1
116.8261,369.3
116.8549,455.1
116.8811,214.9
116.8909,17301
116.9272,91.8
116.944,416.4
116.9566,118.2
116.9582,503.9
116.9859,1752.2
116.99,378
117.0012,65.6
117.0606,391.9
117.0745,721.3
117.0877,107
117.1123,99.5
117.1316,344.8
117.1458,388.9
117.1646,156.7
117.191,613.8
117.1948,688.8
117.1993,530.7
117.2004,145.1
117.2152,775.8
117.2445,597.2
117.2455,54.3
117.2551,101.6
117.302,114.2
117.327,17
117.3473,17.3
117.3584,274.7
117.4166,403.2
117.4388,259
117.4681,312.8
117.4819,86.2
117.5112,300
117.5292,428.2
117.5346,16.4
117.5544,659.8
117.5693,19.8
117.6573,708.8
117.6624,368.4
117.6889,93.2
117.7023,215.9
117.7073,91.9
117.7109,167.6
117.7517,336.7
117.7536,338
117.8241,203.6
117.8397,162.9
117.8431,455.6
117.8475,16.2
117.8599,737.6
117.8881,97
117.9124,146.5
117.9128,135.2
117.9159,213.3
117.9215,95.1
117.9677,134.1
117.9731,483.7
117.9804,83.6
117.99,326.7
118.0275,21.1
118.065,738.1
118.0868,128.6
118.1056,539.7
118.1222,537.8
118.1586,130.4
118.1737,152.6
118.1742,158.1
118.1839,146.9
118.1994,160.1
118.2041,260.4
118.267,458.7
118.3132,261.8
118.3611,119.7
118.3914,260
118.3939,321.8
118.4026,1046.2
118.4149,268.6
118.4177,313.7
118.4961,235.1
118.5384,270.4
118.5548,142.3
118.5756,161.1
118.5958,116.8
118.6039,712.6
118.6824,205
118.7434,18.5
118.8035,94.2
118.8191,171.8
118.8323,549.1
118.8399,332.3
118.8723,327.7
118.888,149.8
118.9267,691.7
118.9966,395.9
119.0011,390.3
119.0189,84.9
119.0301,162.8
119.0686,544.1
119.09,366.2
119.1062,106.3
119.1935,279.5
119.2044,185.6
119.2302,560.9
119.2427,322.3
119.3827,102.5
119.4116,104.4
119.4169,254.7
119.4416,22.9
119.4848,22.7
119.4976,562.2
119.5253,512
119.5496,104.3
119.5823,99.8
119.6072,129.9
119.6099,110.2
119.6694,55.6
119.6781,132.4
119.7034,117
119.7137,311.5
119.7187,126.4
119.8043,169.5
119.8083,251.2
119.8176,19.2
119.8683,336.2
119.9808,438.1
120.0032,6057.5
120.0155,145.7
120.0185,17.9
120.0332,340.7
120.0374,168.4
120.053,84.3
120.0656,446.5
120.0807,14484
120.0888,499
120.1294,757.8
120.1638,146.2
120.1672,173.2
120.1749,230.3
120.1768,274.6
120.2618,76
120.2766,214.2
120.2786,259.9
120.3194,20.4
120.3267,92.6
120.3386,332.7
120.3507,18.1
120.3714,437.7
120.3795,59.4
120.3976,194.6
120.4259,133.3
120.4994,289
120.5304,133.3
120.545,465.5
120.5884,346.3
120.5968,273.9
120.6055,18.8
120.6344,169.3
120.6724,16.6
120.7232,849.9
120.733,393.4
120.7483,18.5
120.7683,320.7
120.8024,172.1
120.814,125.2
120.8158,128.8
120.8632,17.9
120.9366,95.9
120.9434,399.9
120.9516,19.7
120.9803,138.8
120.9809,140.9
121.0076,331.5
121.0172,275
121.0228,217.8
121.0246,17.5
121.0285,389.2
121.0396,39.7
121.084,67.2
121.0894,312.6
121.0907,908.6
121.1012,69.9
121.1214,79.6
121.175,16.3
121.1962,108.9
121.2643,452.5
121.3167,88.2
121.3187,98
121.401,272.9
121.4174,313.5
121.4293,444.1
121.4691,35.6
121.5023,336.4
121.5605,311
121.5802,266.9
121.5837,16.7
121.5988,261.1
121.6051,697.2
121.6246,139
121.6469,431.8
121.6755,315.3
121.692,373.8
121.7017,87.5
121.7146,92.5
121.7887,114.7
121.7996,262
121.861,214.1
121.8786,227.7
121.9061,133.8
121.913,141.9
121.9327,110.1
121.9522,446
122.0072,171
122.0194,417.2
122.0456,450.3
122.0747,561
122.0835,226.2
122.0962,290.9
122.1075,656.4
122.1096,431
122.1656,169.1
122.18,481.8
122.2416,284.7
122.2817,156.4
122.2899,79
122.2973,129.7
122.3109,111.2
122.3179,129.4
122.3571,437.4
122.3671,124.6
122.3798,227.8
122.4226,134.3
122.4259,476.9
122.4363,136
122.4526,378.4
122.5208,161.7
122.554,122.4
122.556,187.7
122.5576,152.3
122.573,317.6
122.6277,320.8
122.6558,243.1
122.6997,70.3
122.7853,294.8
122.7959,101.9
122.8333,76.2
122.8997,109.4
122.9027,18.1
122.9074,860.9
122.9172,645.7
122.9245,22939.9
122.9916,23.8
123.0403,263
123.0804,52.1
123.0894,128.6
123.0995,402.8
123.1166,163.2
123.1702,633.7
123.1921,281.2
123.2133,426.2
123.2577,122.9
123.2593,59.3
123.3397,489
123.3919,138.2
123.4026,310.8
123.4466,19.3
123.4645,370.8
123.4693,118.3
123.4935,266.8
123.5158,326.6
123.558,107.1
123.5627,353.5
123.5695,266.2
123.5936,634.6
123.6487,164.7
123.7151,149.7
123.7247,18.2
123.7707,20
123.8075,125.5
123.8103,185.9
123.8233,145.3
123.8365,183.6
123.8698,467.2
123.9891,624.6
124.0069,384
124.0286,80.4
124.0348,387.2
124.1165,173.2
124.213,83.1
124.2286,205.5
124.2378,112.6
124.2503,335.9
124.2519,847.9
124.2754,95.2
124.295,18.4
124.3127,139.8
124.356,102.5
124.379,19.8
124.4114,344.5
124.4148,127.1
124.4427,198.2
124.4464,320.5
124.5305,115.9
124.5755,75.9
124.5834,288.5
124.6374,666.6
124.6705,18.3
124.7597,328.9
124.8107,171.5
124.8284,240.8
124.8484,223.8
124.8814,103.1
124.9138,108.2
124.9226,3781.1
124.9551,115.9
124.9835,72.2
124.9849,790.6
124.9866,231.7
124.9998,6449.6
125.0056,307
125.0087,18.8
125.0364,340.1
125.0389,217.6
125.0427,97.1
125.0594,218.9
125.0657,427.3
125.0911,149.4
125.1073,217.7
125.1158,18.1
125.1264,319.1
125.1605,272
125.1789,175.5
125.2457,19.8
125.2515,353.9
125.2816,123.2
125.3327,242.5
125.3433,19.1
125.3641,160.9
125.4005,277.4
125.4081,163.2
125.4392,275.3
125.4583,380.3
125.4647,303.6
125.502,130
125.5963,356
125.6042,619.6
125.6226,869.7
125.6282,143.3
125.6994,258.2
125.7166,171.1
125.7824,19
125.8394,131.9
125.8494,132.7
125.8814,379.5
125.8941,276
125.8997,294.8
125.9152,243.7
125.9171,399
125.9702,678.7
125.9921,150.2
126.0537,17.9
126.0652,105.8
126.0813,18.3
126.1465,256.7
126.1609,18.6
126.1912,54.1
126.2993,133.3
126.3477,781.4
126.3805,18.2
126.4172,83
126.4281,118.4
126.4336,126
126.435,143
126.4455,205.5
126.4633,102.6
126.481,20.8
126.5538,122.1
126.5842,18.3
126.6037,134.1
126.6471,18.5
126.6666,374.6
126.6741,206.9
126.7435,132.8
126.8147,279.1
126.8416,405.1
126.853,16.8
126.8688,139.1
126.9052,18.3
126.9092,213
126.9125,140.5
126.9275,397
126.9712,189.7
126.9973,120
127.0009,87.9
127.0067,772.3
127.0477,149
127.0639,167.7
127.0711,17.4
127.103,366.4
127.1144,255.8
127.1171,306.1
127.152,280.6
127.181,180
127.1864,259
127.2056,108.3
127.2178,437.5
127.2273,708.1
127.2317,154.9
127.3664,199.8
127.3841,94.5
127.4101,103.3
127.4387,734.5
127.4705,456.9
127.5128,77.5
127.6191,310.9
127.6452,179.7
127.6778,287.4
127.7118,17.9
127.7374,91.3
127.7625,523
127.7775,314.2
127.8586,21
127.8707,219.7
127.8996,17.3
127.9121,471
128.026,127.8
128.0449,59.1
128.1241,134.5
128.1306,471.7
128.1438,221.9
128.1579,99.8
128.1622,254.3
128.1921,636.1
128.2482,174.1
128.2785,390.4
128.2828,261.9
128.296,178.5
128.3124,121.5
128.3263,48.8
128.3684,98.1
128.4123,235
128.4946,261
128.5239,272.8
128.5269,51.2
128.5394,263.4
128.6556,623.5
128.6728,338.9
128.7153,17.6
128.7431,484.9
128.7486,70.4
128.7701,812.6
128.8038,144.5
128.8144,300.8
128.8722,434.3
128.8967,89.2
128.9545,138.1
128.9621,101.8
129.0031,1019.6
129.0544,82.3
129.1022,112.4
129.1649,138.5
129.2278,158.8
129.2553,97.7
129.3397,300.3
129.3473,606.8
129.3578,124.2
129.3939,18.2
129.3992,109
129.4717,403.9
129.5131,237.6
129.5517,422.5
129.622,171.8
129.6456,20.5
129.6778,17.5
129.7306,378.9
129.7359,447
129.7771,173.9
129.8358,19.1
129.8381,19.5
129.8533,100.7
129.89,80.5
129.9192,162.6
129.925,193.4
129.9299,89.2
129.9349,18.3
130.0038,406.7
130.0053,144.4
130.0499,6118.6
130.0652,78.2
130.071,82.2
130.093,174.9
130.1281,545.7
130.171,137
130.2043,549.9
130.233,275.5
130.2708,284.4
130.387,183.1
130.3995,143
130.4193,164.1
130.4386,19
130.4609,95.3
130.5071,98.4
130.5175,98.1
130.5418,92.4
130.5608,104.8
130.5683,116.9
130.7086,100.7
130.7391,759.4
130.7411,117.3
130.7445,620.7
130.7613,317.7
130.7629,19.3
130.795,247.6
130.9005,92.5
130.9475,141.7
130.9566,107.3
130.9763,21.3
130.9847,19.3
131.0012,83.5
131.0042,406.1
131.008,342.8
131.0184,126.1
131.051,162.7
131.1184,144.8
131.1208,144.1
131.1784,60.3
131.1883,328
131.2578,493
131.2703,280.4
131.3123,422.6
131.3326,443.1
131.3394,58.7
131.3445,19
131.3549,117.5
131.386,502.1
131.4571,153.7
131.4596,692
131.5032,200.3
131.5155,107
131.5496,205.1
131.5638,209.5
131.6109,24.3
131.6626,129.2
131.6662,17.7
131.6964,16.8
131.7455,103.9
131.7821,601.6
131.7839,617.3
131.8018,99.6
131.8027,95.6
131.8195,293.2
131.8427,313
131.8538,350.8
131.9122,17.9
131.9615,283.7
131.9642,169.6
132.0032,25340.5
132.0556,380.8
132.0609,195.3
132.0655,99390.8
132.0697,256.4
132.0813,189.7
132.0963,367.4
132.0999,22.9
132.1064,179.1
132.1388,17.8
132.1654,334.2
132.1773,102.8
132.222,409.5
132.2738,268.3
132.3405,95.2
132.4087,779.9
132.4707,18.5
132.4818,463.7
132.489,261.9
132.5003,283
132.5226,134.9
132.547,208.9
132.5536,658.9
132.5602,123.4
132.5977,492
132.615,101.4
132.6173,57.7
132.6346,94.4
132.6453,18.3
132.6658,134.3
132.6816,19.5
132.6877,384.1
132.6938,273.6
132.7242,206.7
132.7289,214.4
132.761,99.2
132.7761,319.1
132.7825,101.9
132.7994,311.3
132.8012,106.4
132.9029,43.4
132.9074,120.6
132.9395,259
132.973,281.9
132.9872,1993.8
132.9994,146
133.0033,58
133.0082,703.2
133.0544,670.4
133.0689,3277.2
133.0972,20337.5
133.1012,32.4
133.153,110.5
133.2779,77.4
133.289,670.4
133.2926,94.8
133.4649,217.6
133.4703,351.5
133.5618,138.4
133.5954,16.8
133.6389,85.3
133.6703,239.7
133.6802,596.7
133.7335,26.4
133.807,337.8
133.8085,884.3
133.831,169.5
133.8995,170.4
133.9578,20.9
133.9791,798
134.0056,53
134.0189,15939.5
134.0264,191.2
134.0358,304.1
134.0743,100
134.0825,20.1
134.1231,296.4
134.141,110
134.1754,18.8
134.2076,79.7
134.2392,344.6
134.2993,155.9
134.3041,19.2
134.318,421.9
134.3232,431.9
134.3742,82.8
134.416,501.2
134.4526,100
134.4913,470.8
134.5084,249.6
134.5247,256.6
134.548,878.5
134.6696,637.6
134.702,165.6
134.7161,495
134.7331,134.8
134.7497,168
134.7567,163.3
134.7814,108.6
134.8136,397.7
134.8227,560.8
134.8285,19
134.9206,19.2
134.9394,381.3
134.9966,54.8
135.0029,70779.2
135.0234,24
135.0469,465.3
135.1168,66.3
135.1206,269.7
135.1304,109.5
135.1345,191
135.1431,206
135.1549,497.2
135.2091,19.1
135.2247,784.3
135.2397,89.4
135.2423,130.5
135.2645,381.1
135.3261,775.9
135.3278,273.5
135.3519,148.2
135.4031,281.2
135.4342,309.3
135.5434,304.4
135.5728,151
135.6179,194.1
135.6194,109.6
135.6357,256.5
135.6418,142.7
135.6731,217.5
135.6976,150.2
135.7082,356.5
135.7462,331.6
135.7737,535.4
135.8048,297.3
135.8215,752.8
135.8248,104.8
135.8734,134.9
135.9714,166.6
135.9772,3462
136.0063,839.3
136.0138,490.1
136.0482,4452.3
136.0548,623.5
136.0564,103.8
136.0757,11048.5
136.093,140.6
136.1957,127.7
136.2514,277.5
136.253,90.1
136.2734,114.3
136.2918,559.7
136.3772,313.6
136.3789,19.3
136.4755,216.9
136.5745,97.9
136.6262,451.1
136.6294,557.8
136.6739,321.9
136.7005,299.8
136.7081,22.5
136.7929,87.2
136.8131,21.2
136.8489,17.2
136.8649,586.2
136.8707,639.1
136.8734,454.2
136.9311,580.6
136.9459,138.2
136.9734,224
136.9791,129.5
137.0598,32.5
137.0908,50.3
137.13,656.6
137.1553,70.4
137.1657,182.8
137.1799,22.7
137.1935,305.6
137.2123,79.5
137.2252,231.1
137.2474,361.2
137.2574,179.7
137.3068,62.1
137.4,129.2
137.4691,137.1
137.5008,18.2
137.5365,19.2
137.5386,129.4
137.5511,171.3
137.5632,97.6
137.5785,178.6
137.5841,365.5
137.6556,187.2
137.6602,16.4
137.6687,125
137.7676,249
137.7807,161
137.8055,128.8
137.807,184.2
137.8314,100.4
137.8339,405.8
137.8587,275
137.9117,100
137.9751,125.3
137.993,91.9
137.9991,488.6
138.0401,585.6
138.0447,100.7
138.0526,5128.8
138.0665,27.4
138.0728,123.7
138.0898,92.3
138.143,115
138.1486,480.3
138.1559,18.2
138.167,610.3
138.183,98.8
138.189,259.3
138.2836,90.1
138.3018,305.4
138.3126,667.2
138.337,185.7
138.4317,647.7
138.4749,135.3
138.5109,18.9
138.5887,156.1
138.6635,363.6
138.7501,20
138.773,534.5
138.8302,130.9
138.8648,159.6
138.8846,67
138.8947,412.7
138.9066,5365.5
138.9622,19.8
139.0986,251.1
139.1021,254.9
139.1095,54.4
139.209,451.4
139.2689,141.3
139.2952,177.1
139.3521,713.1
139.383,652.4
139.405,129.6
139.4429,656.9
139.5194,370.4
139.5945,142.8
139.6033,205.7
139.6513,274.8
139.6923,370
139.7012,254.7
139.7417,466.1
140.0095,239.5
140.0165,1205
140.0546,733
140.0655,54.1
140.0682,4107.1
140.1153,156.4
140.1381,177.7
140.1943,176.1
140.2131,53.4
140.2193,110.3
140.2729,454.4
140.3464,124.2
140.3803,250.5
140.391,17.6
140.4956,419.1
140.5375,384
140.5394,151.4
140.5447,753.5
140.5478,121.4
140.5518,315.7
140.5917,752.4
140.5945,382.2
140.6422,122.2
140.704,118.4
140.7261,132.9
140.7839,143.9
140.9036,2136.7
140.9634,92.2
140.9684,285.1
140.9735,691.2
141.0005,15946.5
141.0207,1019.5
141.0337,258.8
141.0358,847.5
141.0473,289.4
141.0632,108.8
141.0764,589.4
141.1182,18.1
141.1328,140.1
141.1624,292.6
141.165,244.5
141.2456,62.3
141.3194,187.1
141.3714,161.6
141.3919,124.3
141.4558,108.7
141.5336,340.2
141.5537,85.7
141.5837,110.3
141.6982,136.1
141.7024,255.1
141.7402,424.2
141.7933,53.8
141.8327,168.2
141.9246,17.1
142.0039,439.8
142.0173,202.7
142.0345,534.1
142.0604,317.4
142.0736,29.2
142.1108,360.7
142.1125,19.4
142.1299,98
142.1464,290.8
142.1711,324.4
142.2953,99.6
142.3384,267.1
142.3939,124.4
142.5023,396
142.5481,106.7
142.5853,613.8
142.659,76.3
142.662,153.1
142.692,22.1
142.7013,733.2
142.7607,302
142.8502,437.2
142.9024,302.9
142.9079,883.1
142.9384,447.1
142.9476,423
142.9602,501.1
142.9748,395.9
142.9964,248.3
143.0137,805.8
143.0189,1711.1
143.0385,216.6
143.0609,364.3
143.0816,254.7
143.0987,302.6
143.1249,54.5
143.1601,19.6
143.2313,110.8
143.3033,330.7
143.3541,446.6
143.3697,402.3
143.4453,89.4
143.5839,118.3
143.5916,103.6
143.6015,262.6
143.7684,130.5
143.7791,116.4
143.828,89.9
143.8307,276.4
143.8476,231
143.9066,203
143.91,387.6
143.9402,266.7
143.9536,162.8
143.9895,718.8
144.0187,107.5
144.0634,24.5
144.1044,109.2
144.1263,174.3
144.1367,157.8
144.167,773.1
144.1893,18.9
144.2653,345.8
144.3361,238.2
144.4014,273.2
144.4055,287.7
144.4444,21.5
144.5041,131
144.6334,141.8
144.6483,569.3
144.6799,126.1
144.6925,197.2
144.7135,19.3
144.733,334
144.7675,136.2
144.7993,134.9
144.8935,22.9
144.9113,852.6
144.9291,474.2
144.949,161.5
144.9809,2501.8
144.9957,106.8
145.0046,143.6
145.0097,305.9
145.0147,55
145.033,443.3
145.2108,55.4
145.2346,628.5
145.2467,20.7
145.2643,105.2
145.2815,312
145.3474,302.3
145.3727,420.4
145.4333,411.8
145.462,284.2
145.5024,321.3
145.5794,153.8
145.591,126.8
145.673,19.1
145.713,414.5
145.8088,263.1
145.8382,509
145.8706,177.2
145.8765,119.5
145.8796,104.4
145.9669,115.7
145.97,183.3
145.9807,478.5
145.9897,17.1
145.9993,773.2
146.0126,4396.9
146.0189,16954.4
146.0364,76
146.0837,118.2
146.159,493.5
146.2136,127.5
146.3297,140.3
146.3381,107.1
146.3468,18.7
146.3799,49.8
146.3852,20.6
146.4063,148.5
146.4751,423.2
146.4757,462.5
146.4955,65.5
146.5138,349.9
146.5231,398.5
146.5406,199.3
146.6088,221.7
146.6266,97
146.7057,17.4
146.7464,104.8
146.7505,20.2
146.8047,526.5
146.8129,87.3
146.8481,18.9
146.9152,289.8
146.9201,747.8
146.9634,725.9
146.9818,107734
147.0089,432
147.0765,50844.3
147.0807,19
147.0957,766.1
147.1129,21044.9
147.1158,102.3
147.1166,214.2
147.1201,214.5
147.1242,364.2
147.1631,493.2
147.1683,55
147.1704,306.1
147.1725,96.4
147.1947,279.8
147.226,271.3
147.2445,544.9
147.2599,343
147.2758,415
147.3287,144.8
147.3525,190.1
147.3578,98.5
147.3991,117.4
147.5803,472.7
147.6158,250.7
147.6571,738.9
147.6967,746.7
147.7063,24.9
147.8604,147.8
147.8873,119
147.9071,558.6
147.9131,235.8
147.9303,56
147.9851,382.2
148.0175,454.2
148.0762,259.4
148.0798,490.6
148.1116,552.4
148.133,146
148.213,147.3
148.2656,169.4
148.2895,202.4
148.3048,730.6
148.3247,653.8
148.4108,445.6
148.4477,271.7
148.4752,448.9
148.5321,2666.8
148.5462,90.7
148.6108,136.7
148.6418,124.8
148.6645,282.4
148.6662,100.4
148.7179,19.1
148.7412,306.6
148.7889,18.7
148.7912,555.2
148.8148,173.9
148.8313,218.4
148.8989,599
148.9165,122.1
148.9435,113.2
148.9613,1063.8
148.9712,60
148.9827,273.8
148.9947,19.7
149.0026,47.6
149.0186,2569.8
149.0234,4866.4
149.0401,53.2
149.0427,160.3
149.0448,34.2
149.1204,314.4
149.1338,703.8
149.1906,116.2
149.2537,21.8
149.3676,317.9
149.3816,267.5
149.3931,460.2
149.4119,314.8
149.4227,439.1
149.5398,305.6
149.5725,198.5
149.5927,134.1
149.6224,169.7
149.6246,744.6
149.6796,724.2
149.7005,141.6
149.7139,116
149.8056,105.7
149.8426,711.8
149.8673,124.9
149.889,23.2
149.9235,96.8
149.9518,195.9
149.9665,185.8
149.9928,11890.5
150.0054,19.5
150.0138,6046.8
150.0213,626.9
150.0267,127.5
150.0427,304.7
150.0835,479.5
150.1369,298.6
150.1396,448
150.1914,61.3
150.2027,92.6
150.2331,117.3
150.315,115.2
150.3731,20.3
150.4121,730
150.4931,691.2
150.5507,298.1
150.556,58.7
150.5643,342.7
150.6181,102.5
150.6583,286.6
150.7053,433.7
150.8095,98.8
150.8603,156.5
150.8941,468.4
150.8963,324.2
150.9716,112.9
150.9769,43886.2
150.9842,264.8
151.0477,468.9
151.1046,215.9
151.1338,133.9
151.2669,148.8
151.2803,585.1
151.287,21.4
151.3425,654.9
151.3525,20.6
151.4782,175.1
151.5259,445.9
151.6153,72.6
151.6738,593.3
151.7586,171.1
151.7853,162.4
151.8622,673.5
151.882,293.9
151.9344,161.3
151.9454,19.5
151.9478,20.3
151.9511,374.2
151.9799,387.5
152.001,142.6
152.0067,134.5
152.0222,9018.5
152.0319,2871.8
152.0419,140.4
152.0744,707.8
152.1089,412.7
152.1214,132.8
152.1395,566.7
152.1466,412.2
152.1605,247
152.1897,354.6
152.2107,50.5
152.3385,139.6
152.3841,321.2
152.4431,401.3
152.546,111.4
152.5894,59.3
152.6158,176.3
152.6442,373
152.6935,20.3
152.7835,238.6
152.7878,124.9
152.7924,132.5
152.8535,101.5
152.926,64.9
152.9749,771.2
152.9999,107.9
153.0016,188.5
153.1239,82.9
153.1636,285
153.1686,88.8
153.1738,252.8
153.2011,241.2
153.2436,674.4
153.2734,20.3
153.3017,206.2
153.3288,115.7
153.35,151
153.3523,162.5
153.4009,19.1
153.4041,169.4
153.4127,228.2
153.4497,680.5
153.4622,197.4
153.5007,217.2
153.5544,16.4
153.5556,16.7
153.5675,19.1
153.5802,190.8
153.5984,253.7
153.6171,342
153.6262,585.7
153.6478,630
153.766,584.7
153.7897,236.1
153.8578,211.4
153.9427,115.5
154.0114,309.5
154.0205,386.7
154.0266,932.7
154.0389,159.6
154.0509,70.1
154.0573,110.6
154.1017,91.4
154.1206,19.4
154.1444,623.5
154.1773,138.1
154.199,386.6
154.2474,107.5
154.3661,90.9
154.3873,69.6
154.4204,343.8
154.4328,503.9
154.4463,130.7
154.4552,53.7
154.4983,423.3
154.7427,17.7
154.7507,97.2
154.8044,80.2
154.841,237.7
154.9,276.9
154.9076,121.5
154.9417,891.3
154.9445,165.1
154.9468,497.1
154.9692,452.3
155.0237,88.2
155.035,105.3
155.0427,1093.6
155.0493,195.8
155.0541,5783
155.0792,717.8
155.1948,78.4
155.2144,106.6
155.2583,528.7
155.2635,19.3
155.3138,514.5
155.3475,17.5
155.3726,301.4
155.3907,127.5
155.4401,144.7
155.4568,121.2
155.4843,119.8
155.5216,122
155.5358,310.9
155.6866,19.1
155.7464,19.2
155.7524,663.1
155.8222,405.8
155.8459,633.4
155.8745,296
155.9153,150.4
155.9613,79.9
155.9932,142.8
156.0271,95.8
156.0423,6520.3
156.0574,30.6
156.0768,49244.9
156.1783,391.3
156.1937,173.1
156.1959,17.3
156.2233,795.9
156.3353,132.4
156.3371,440.1
156.5481,93
156.5614,264.2
156.6452,313.2
156.7007,105.5
156.7653,19.5
156.7841,20.6
156.8084,20.2
156.8537,510
156.878,350.9
156.9163,146.2
156.9744,90.2
157.0237,89
157.0652,101.9
157.0726,758.9
157.0802,396.4
157.0973,280.3
157.1512,342
157.2232,145.3
157.2248,756.2
157.2268,18.7
157.2334,19.9
157.2395,126
157.2524,128.8
157.3773,87.9
157.4538,170
157.5612,112.7
157.5807,757
157.6725,150.6
157.7995,135.4
157.8039,304.6
157.8403,149.8
157.8454,129.1
157.8662,130.7
157.8692,18.5
157.8878,52.6
158.0126,846
158.0271,3498.1
158.0403,387.3
158.0854,353.9
158.1053,129
158.2453,430.2
158.303,284.7
158.3529,17
158.4002,449.8
158.4089,132.1
158.5178,245.7
158.5608,441.4
158.7438,137.6
158.8059,18.8
158.8102,100.9
158.8259,17.2
158.8335,107
158.8862,129.9
158.9138,104
158.9278,808.5
158.9368,108.3
158.9456,114.6
158.9642,13871
158.9688,96
158.9966,6365.9
158.9994,16.7
159.0112,47.6
159.0305,148.4
159.129,512.9
159.1503,128
159.196,430.3
159.2434,150.2
159.2752,125.9
159.3308,131.4
159.3611,20.4
159.3658,106.2
159.368,588.2
159.3726,383.8
159.3912,187.2
159.4072,306.5
159.4144,193.1
159.4177,335.7
159.4463,61.4
159.4736,84.9
159.4979,20.7
159.5204,410.1
159.5243,717.6
159.5261,625.6
159.5352,284.8
159.5946,135.5
159.6263,110.8
159.654,98.9
159.6695,735.7
159.6788,134.5
159.7136,326.5
159.7616,191
159.7647,57.9
159.7996,602.7
159.8115,580.1
159.8391,1018.4
159.8512,167.7
159.8634,56.1
159.8775,310.1
159.8962,18.6
159.9091,136.4
159.939,231.2
159.9828,235.5
159.9983,349.4
160.0021,96.8
160.023,39.2
160.0278,612.1
160.0346,17498.9
160.0606,120095.3
160.0639,111.6
160.0766,135.2
160.175,107.2
160.2213,21.7
160.2542,210.6
160.2591,205.3
160.2948,92.7
160.3051,173.6
160.3302,362.1
160.3454,199.4
160.4136,157
160.4594,392.2
160.5676,138.3
160.5818,263.1
160.5855,455.2
160.612,431.3
160.64,104.2
160.689,91.6
160.7121,55.1
160.7479,164.6
160.7876,150.3
160.8375,182.9
160.8422,241.6
160.8979,557.9
160.9196,96.9
160.9848,59
161.0188,478.1
161.0382,328.1
161.0431,190.6
161.0639,4745.6
161.0801,116.8
161.0824,445.7
161.1124,563.8
161.133,548.1
161.2051,17.2
161.2678,118.7
161.271,364.8
161.2917,523.5
161.2963,18
161.3224,409.9
161.3541,109.4
161.3822,222.8
161.3944,200.8
161.4748,128.6
161.5072,199
161.5235,117.6
161.5986,18.7
161.6237,323.3
161.6698,212.6
161.703,21.2
161.7083,200.3
161.7238,21.5
161.7789,143.8
161.7961,59.8
161.8182,266.5
161.8597,271.5
161.9465,221.2
161.9607,85.9
161.9773,231.9
162.0064,178
162.0243,119.5
162.029,111.1
162.0416,101.6
162.0503,17238
162.0896,16
162.1363,25
162.1402,216.4
162.1951,19.9
162.2409,124.7
162.3343,886.8
162.3549,200.6
162.3571,118.1
162.3988,126.8
162.4664,247.9
162.4946,118.4
162.5586,373.6
162.5932,255.9
162.6734,96.3
162.6874,174.3
162.708,541.7
162.7218,100.5
162.735,324.3
162.7489,102.5
162.8353,231.3
162.8822,515.9
162.8962,110.2
162.9214,288.3
162.9296,114.2
162.9377,249
162.9558,2225.9
162.9951,380.9
163.0073,226.8
163.0156,1760.6
163.0463,407.7
163.0739,283.5
163.0878,107.7
163.0986,204.4
163.1115,229.3
163.1174,334.7
163.2186,140.4
163.2276,163.3
163.2573,157.2
163.2844,456.2
163.2965,549.7
163.465,122.4
163.6387,114.5
163.6447,154.4
163.6512,555.2
163.6588,92.9
163.6652,891.3
163.7076,300.1
163.7266,678.1
163.8099,435.3
163.892,213
163.9224,78.3
163.9317,560.4
163.9427,16.8
163.9796,274.9
164.0295,12532.4
164.0363,292
164.0704,18.3
164.0795,17.3
164.0871,321
164.1773,19.1
164.1828,101.6
164.2739,431.3
164.3282,296.3
164.4325,216.6
164.5333,244.9
164.6259,101.4
164.6382,136.8
164.6642,102.3
164.7263,269.5
164.7498,107.5
164.8103,95.2
164.835,350.9
164.9207,4875.3
164.9301,12974.5
164.9352,3528.3
164.9909,318.1
164.9927,1006.2
165.0283,569.5
165.0547,100.9
165.0619,414.8
165.0912,1059.5
165.1129,275.5
165.1137,273
165.1221,17.8
165.1379,125
165.2529,85.3
165.2797,531.8
165.4461,115.6
165.4518,99.5
165.4539,334.3
165.5697,398.5
165.626,581.5
165.671,186.7
165.7093,129.8
165.753,406.1
165.8213,118.3
165.8481,477.7
165.8908,89.5
165.9484,138.5
165.9669,1855.9
165.9788,1077
165.9878,7328.2
165.9952,44.1
165.9979,99.1
166.0113,123.8
166.046,92.7
166.084,2523.3
166.1962,224.3
166.3491,88
166.3977,19.5
166.5013,115.2
166.5078,87.7
166.5232,808
166.5651,19.4
166.6223,290.2
166.717,344.9
166.7248,324.9
166.7395,680.1
166.7463,101.5
166.7745,621.3
166.8794,18.9
166.9509,18305.7
166.9927,135.3
166.9979,440.5
167.0219,4172.9
167.0675,112.3
167.1083,115.6
167.1483,107
167.1549,504.6
167.1974,103.6
167.2178,17.6
167.2334,124.7
167.2555,95.7
167.2821,119.5
167.2913,112.4
167.3654,128.5
167.3728,294.3
167.3883,130
167.4044,358.8
167.4188,90.9
167.4305,789.6
167.4835,19.5
167.5027,86.6
167.5173,327.9
167.5596,315.8
167.5953,78.9
167.7273,18.4
167.7306,444.1
167.7638,86.2
167.7769,105.8
167.8271,140.5
167.851,233.7
167.8581,304.4
167.9006,306.1
167.9062,426.2
167.9394,390.8
167.9947,2524.3
168.034,18.1
168.1068,151.7
168.1818,18.9
168.2084,218.6
168.2106,74.1
168.2687,249.1
168.3076,261.4
168.4478,200.9
168.4743,407.6
168.4916,179.1
168.5083,630.6
168.5584,19.1
168.5747,157.2
168.5808,204
168.6915,327.7
168.7623,18.6
168.7717,20.1
168.8406,128.9
168.8666,226.5
168.8882,262.6
168.949,2271.5
168.9578,78.5
168.9613,57.3
168.9812,230
169.0177,17.6
169.0585,47909.4
169.065,1100.9
169.0708,643.1
169.0951,481.9
169.0972,88.9
169.1083,84.6
169.1232,442.4
169.1406,143.9
169.1766,182.2
169.2079,18.5
169.252,142.2
169.2614,280.2
169.2776,302.8
169.2873,112.1
169.3897,629.6
169.4893,93
169.5193,235.5
169.6167,340
169.6629,142.3
169.6811,282.8
169.7252,690.8
169.741,137.2
169.7971,260.3
169.8325,538.5
169.841,893.5
169.8848,313.2
169.9176,704.6
169.9656,992.2
169.9858,703.9
169.992,20.1
170.025,353.8
170.0328,890
170.058,327.3
170.0926,3928.7
170.1012,609.4
170.2287,539.1
170.2492,185.8
170.2693,137.1
170.6088,282.8
170.7317,97.8
170.8239,100.3
170.8545,4144.7
170.8581,18.8
170.8987,142.2
170.9935,84.2
171.0142,303.1
171.0168,957.2
171.0281,511.7
171.0338,146.3
171.058,669
171.1376,604.8
171.1561,552.2
171.1739,62.9
171.1892,15.8
171.2015,459.8
171.2059,113.3
171.243,719.3
171.2688,402.5
171.3789,601.9
171.4628,684.9
171.5029,92.3
171.6219,240
171.74,214.4
171.7608,260.5
171.7894,393.1
172.0028,1029.4
172.0284,391.1
172.0501,372.6
172.0677,148.1
172.0689,321.9
172.0903,131.4
172.1039,347
172.1091,493.8
172.1491,101.4
172.1932,228.2
172.2805,74.9
172.317,115.2
172.3371,18.7
172.3708,140.6
172.3949,527.6
172.4091,101.2
172.4155,220.3
172.4484,326.1
172.4877,21.4
172.5383,224.2
172.5956,151.1
172.6064,415
172.6214,304.7
172.6505,281.3
172.6997,94.8
172.7045,377.6
172.7476,102.3
172.803,226.5
172.8367,243.5
172.8515,2676.7
172.8945,612.5
172.9503,136.5
172.9764,214.7
173.0269,283.9
173.03,875.3
173.0922,18
173.0965,156.9
173.1014,801.2
173.1844,123.2
173.2043,630.6
173.2612,136.5
173.3883,347.2
173.5345,89.9
173.5669,662.9
173.7034,139.5
173.7078,583.4
173.7122,94.5
173.7233,554.4
173.7436,114.1
173.8354,18.3
173.8482,107.8
173.8751,20.4
173.9528,475.9
173.9891,649.4
174.0504,1271.2
174.208,291.3
174.2163,16.8
174.2298,92.4
174.2414,119.6
174.3475,83.1
174.4576,692.1
174.4706,168.2
174.5585,500.7
174.5669,436
174.5949,74.6
174.6029,124.7
174.6262,155.6
174.8194,319.1
174.8786,138.5
174.9382,4713.2
174.9951,180.7
175.0343,8297.5
175.0426,419.1
175.0455,3985.3
175.0579,815
175.0814,90.4
175.0897,225.3
175.1062,348.3
175.1191,89528.6
175.1221,434.3
175.1375,18
175.1518,17.9
175.1612,294
175.3424,599.6
175.37,139.5
175.4969,199.2
175.5688,17.7
175.6325,122.8
175.7627,213.1
175.7918,325.4
175.8345,149.4
175.8663,18.6
175.9432,330.5
175.9517,111.2
175.9879,140.2
176.001,223.8
176.0086,10706.1
176.066,30313.4
176.0769,97
176.0937,72.8
176.0968,478.7
176.103,953.3
176.1225,1964.2
176.2169,102.2
176.2545,121.7
176.3066,411.4
176.3529,103.4
176.3597,19.5
176.5338,104.4
176.5361,320.5
176.5512,506.7
176.5762,286.7
176.6329,62
176.6423,240.5
176.678,116.2
176.7178,56
176.7649,154.8
176.8037,842.1
176.8728,347.3
176.9562,752.8
176.9668,279
176.9928,905.8
177.0074,20.1
177.0105,656.8
177.0249,4744.7
177.0558,139.4
177.0612,10112.6
177.0872,2089.1
177.1571,622.8
177.2632,76.5
177.2641,75.4
177.2825,137.9
177.3066,133.3
177.3148,19
177.3294,558.1
177.3638,406.6
177.4418,100.2
177.5388,594.1
177.6433,703.2
177.649,273.5
177.7573,584.2
177.7828,94.4
177.8221,204.5
177.856,414.6
178.0089,8002.2
178.0243,11012.7
178.0589,4882
178.2587,277.3
178.2961,256.8
178.3083,57.7
178.3843,331.4
178.4488,231.2
178.4746,20.8
178.4803,189.3
178.52,154.7
178.5733,138.3
178.6643,52.6
178.8053,458.9
178.8274,120.9
178.9233,241.2
178.9406,283.5
178.9635,121.9
179.0043,196.2
179.0071,146.8
179.0496,247.4
179.0655,155.6
179.0954,116.6
179.1461,85
179.1478,292.1
179.1628,646.2
179.1941,521
179.2184,310.5
179.319,641.9
179.338,254.8
179.3726,157.1
179.418,740
179.4752,107.2
179.4864,464.6
179.4941,325.5
179.5052,139.3
179.5585,196.3
179.6301,165.7
179.6783,139.6
179.6909,383.5
179.7307,114.8
179.7392,17.4
179.7997,124.3
179.811,174.2
179.8179,17.8
179.8868,133.9
179.9668,119
180.0036,8929.1
180.0555,17.7
180.1022,19.5
180.1951,17.6
180.2533,60.2
180.3318,440.5
180.4846,620.6
180.5738,192.8
180.631,131.1
180.7538,168.6
180.8671,350.4
180.8811,415.8
180.8889,25.6
180.8946,3350.8
180.9042,6052.8
180.9342,126.6
180.9474,343.4
180.9575,1240.2
181.065,7991.4
181.0926,17.5
181.1045,135.4
181.1082,274
181.1158,22.6
181.1575,315.3
181.2975,111.4
181.3154,134.2
181.4406,17.5
181.5085,478.6
181.5301,274.2
181.556,16.6
181.6665,298.7
181.6748,262
181.7403,233.6
181.7987,102
181.8067,133.7
181.8465,106.1
181.8881,296.2
181.9618,383.2
182.0127,334.6
182.0155,23.7
182.0426,33987.9
182.058,399.1
182.0809,430.2
182.2072,170.3
182.2338,185
182.311,135.2
182.3508,348.3
182.3984,106.3
182.4088,120
182.4369,133
182.447,140.9
182.4811,137
182.5727,339.2
182.5938,123.5
182.6138,106.3
182.618,683
182.6867,68.2
182.7714,527.8
182.9027,22.4
182.9194,85.3
182.9624,327.1
183.0447,2233.5
183.0985,545.8
183.1864,367.2
183.2327,161.2
183.2713,707.5
183.3121,55.2
183.3917,67
183.4133,117.7
183.5234,608.6
183.6484,283
183.6788,94.1
183.7532,166
183.7566,408.1
183.7768,173.4
183.8367,325.7
183.8516,235.5
183.8687,135.6
183.8889,189.4
183.9267,273.5
183.9648,736.9
183.9877,18.4
183.9925,23.1
184.0373,731.5
184.0408,910.8
184.0735,4407766.5
184.1075,758.6
184.1096,1099
184.117,255.1
184.1467,17.9
184.1538,111.3
184.1705,150.3
184.1821,1590.1
184.2329,19.3
184.262,89.8
184.2843,561.9
184.3159,127.5
184.3799,307.9
184.4346,131.1
184.4523,103.9
184.4622,366
184.5086,421.9
184.522,549.5
184.5438,544.1
184.7031,762.3
184.7281,192
184.7332,208.7
184.7652,111.6
184.8371,151.8
184.8404,356.6
184.8755,344.2
184.9192,18.3
184.9379,28.1
184.9636,139.5
185.0025,481
185.0325,54273.9
185.0544,209.1
185.0705,8741.9
185.0769,204949.7
185.0796,4519.6
185.0924,692.2
185.2427,542.2
185.429,463.4
185.4629,67.5
185.4945,148
185.589,418.5
185.8419,337.9
185.849,53.4
185.8667,134.6
185.9193,610.6
185.9601,2313.2
186.0359,400.7
186.0777,28695.5
186.1017,286.8
186.1329,363.5
186.2651,231.8
186.2692,385.3
186.2793,17.4
186.4355,262.9
186.4795,530.2
186.5028,641.8
186.8327,22.4
186.8355,124.5
186.8414,372.8
186.8557,151.7
186.9121,1863
187.0266,203.3
187.0307,2060.5
187.0435,119.5
187.0579,10414.3
187.0716,1925.2
187.1078,1227.8
187.1147,190.1
187.2224,577.9
187.5269,604.4
187.5743,463.4
187.7375,716.2
187.848,144.6
188.0024,280.9
188.0118,90.2
188.0329,191.8
188.0354,433.6
188.0605,333.8
188.0629,896.1
188.0684,494.7
188.0796,25.7
188.1361,553
188.1847,113.2
188.1921,98.1
188.2107,330.6
188.2786,288.5
188.2857,648.1
188.3678,215.5
188.3899,212
188.4134,141
188.4174,739.9
188.4402,224.2
188.5269,132.7
188.566,421.9
188.5857,100.6
188.635,365.7
188.7103,377.1
188.7369,105.2
188.7757,339.8
188.8162,141.8
188.8701,175.5
188.8764,200.7
188.8838,221.3
188.9454,717.9
188.9828,281.4
188.9853,543.2
189.0179,421.9
189.0501,320
189.0615,2349.3
189.0872,8149.1
189.1844,387.3
189.2889,480.1
189.348,150.9
189.3824,195.1
189.4035,281.6
189.4298,354.3
189.5103,772.9
189.5922,74.3
189.7026,69.9
189.7403,183.9
189.8007,236.8
190.0469,95.6
190.0558,18.1
190.0672,50.5
190.0987,20
190.1112,143
190.118,631.9
190.2349,767.4
190.2356,736.5
190.2399,139.8
190.2637,650.6
190.4118,168.6
190.4427,193.2
190.4741,19.3
190.481,873.6
190.5852,99.3
190.6196,284.8
190.6276,99.7
190.811,283.1
190.9122,1582.8
190.9158,190.8
190.9448,65.4
190.9676,123.9
190.982,421.1
191.0044,293.4
191.0083,6391.7
191.0164,456.4
191.0317,418.3
191.0406,144819.2
191.077,20601.7
191.1665,146.3
191.4376,439.8
191.5018,56
191.506,436
191.58,260.7
191.6093,19.4
191.6636,108.8
191.7727,452.2
191.861,635.4
191.9258,424.5
191.9538,317.5
191.9827,1323.5
192.04,12872.5
192.0439,3725.8
192.0584,114.6
192.08,337.1
192.2469,137.3
192.2767,159.8
192.3124,228.1
192.3585,21.4
192.4558,268.2
192.6741,791.1
192.6917,430.7
192.7473,121.3
192.7552,651
192.8579,180.9
192.9621,413.9
192.9738,146.4
192.9801,397.3
192.9867,19.3
192.9989,5680.4
193.0353,4027.5
193.0546,120.4
193.0839,297.3
193.1647,337.5
193.2008,167.1
193.2115,160
193.242,206
193.2895,128.4
193.5186,17.3
193.5554,178.9
193.6265,19.1
193.6412,20.2
193.655,142.3
193.6799,18.4
193.6869,349.1
193.7623,547.9
193.8057,71.4
193.8796,20.3
193.9872,304.1
193.9984,2472.9
194.0051,634.5
194.0105,961.5
194.0328,3980.6
194.0379,269.3
194.1323,148.5
194.1545,45.9
194.1797,231.8
194.3616,483.7
194.3709,82.7
194.3991,22.2
194.427,326.4
194.5311,207.7
194.5575,208.4
194.569,52.4
194.5956,120.7
194.6061,514.5
194.7152,118.5
194.7195,379.2
194.8038,19.5
194.8575,488.6
194.9404,279
195.0043,312.4
195.0628,168.6
195.0799,257.8
195.088,23.2
195.1082,215.8
195.1124,19.9
195.1518,77.4
195.2244,167.3
195.3167,21.4
195.4329,105.9
195.4515,89.9
195.5,132.3
195.6116,441.9
195.8435,118.6
195.887,19.8
195.9777,492.4
196.0792,60.2
196.1368,272
196.1699,380.2
196.2775,51.4
196.3142,235
196.3185,77.9
196.3228,138
196.3886,539.4
196.5437,20
196.6228,716.6
196.7748,389.3
196.8654,6565.7
196.8688,1238.4
196.878,1263.3
197.0024,95.7
197.0143,20.7
197.0238,120.9
197.0715,402.7
197.0926,19.4
197.1013,2101.4
197.1678,95.5
197.2003,381.5
197.2087,750.5
197.3093,132.4
197.3346,363.2
197.5247,133.8
197.5463,471.1
197.6051,335.7
197.682,108.2
197.6862,340.1
197.7371,233.1
197.7504,581
197.8431,485.9
197.9491,21.2
197.9869,17.4
197.9942,385.2
198.0102,118
198.0532,389.2
198.0616,343.8
198.0852,6342.7
198.0891,106.8
198.1855,5187.5
198.2067,293.9
198.2143,125.5
198.2179,92.8
198.2319,339.8
198.234,18.1
198.3279,164.9
198.3539,495.6
198.3985,243.8
198.5776,278.2
198.7626,187.2
198.8371,72.6
198.8624,8160.4
198.9552,101.7
198.9738,58.8
199.0067,17.4
199.0113,19
199.017,152.4
199.0219,19.4
199.0396,92.6
199.0692,842.2
199.0757,1224.7
199.0805,97.5
199.0905,354.9
199.1636,257.1
199.1889,223.2
199.3467,20.6
199.433,18.6
199.4531,17.5
199.4656,219.7
199.5404,93
199.5946,233.6
199.6582,138.8
199.6798,18.5
199.7258,94.7
199.7692,136.2
199.8089,149.9
199.9669,24.5
199.9909,29970.7
200.0349,402.1
200.0409,19549.4
200.0647,175.4
200.0875,10647
200.1591,163.1
200.1898,278.1
200.2001,18.8
200.268,239.4
200.3011,210.1
200.3519,126.9
200.4219,18.9
200.4497,277.5
200.5333,19.8
200.6274,470.6
200.659,147.9
200.6607,483.5
200.6703,135.7
200.6737,375.2
200.7675,18.5
200.8294,17.9
200.8594,1496.1
200.9046,240.6
200.9514,397.9
201.0148,500.6
201.0412,19.2
201.0482,18.8
201.0549,354.4
201.0728,19.1
201.0873,529.7
201.096,141.4
201.1236,86.2
201.1514,391.2
201.1657,283.3
201.2086,19.1
201.3111,390.9
201.3632,323
201.3665,405.4
201.5714,479.2
201.7535,294.8
201.7582,20
201.9383,302.6
202.0605,459.6
202.0955,745.8
202.2523,18.2
202.2665,92.1
202.3018,17
202.324,17.2
202.3345,162.4
202.3819,16.9
202.386,148.1
202.4127,21.2
202.4531,135.3
202.4675,16077.7
202.5334,356.8
202.5342,386.7
202.5371,428.6
202.5672,187.9
202.616,466.9
202.6259,491.3
202.7624,58.5
202.7738,324.7
202.7966,17.9
202.8636,66.2
202.8784,300.4
202.8863,1150.8
202.9804,875.7
202.987,139.5
203.0083,348.8
203.0164,22.4
203.0321,4473.2
203.036,430
203.0529,1281635.9
203.0679,947.6
203.077,5872.7
203.0931,698.1
203.1218,142.4
203.1281,299.2
203.308,294.2
203.3208,182.5
203.3413,118
203.3999,324.5
203.4452,111.3
203.4487,159.5
203.4935,20.2
203.526,121.5
203.5777,684.8
203.585,714
203.7481,322.3
203.871,110.6
203.8825,395.9
203.9178,154.4
204.0246,35457.7
204.0423,55.1
204.0474,106.7
204.0562,66368.2
204.0868,513.1
204.218,22.8
204.276,296.1
204.3621,175.4
204.4511,247.9
204.4772,102.8
204.5718,253.4
204.6326,286.1
204.6841,185.2
204.7216,218.2
204.821,19.8
204.9441,129
204.9727,256.6
204.987,745.2
205.0022,667.2
205.028,339.5
205.0344,123
205.0571,10418
205.0685,25214.4
205.0839,126.8
205.0976,326.5
205.1736,187.8
205.2424,188.6
205.3009,293.3
205.473,336.4
205.4802,114.6
205.5043,102.5
205.5069,176.8
205.5234,71.9
205.6527,19
205.6801,442.5
205.714,743.2
205.7732,144.7
205.8566,19.1
205.928,140
205.947,79.4
205.973,286.4
206.0018,92.7
206.0557,2340.8
206.2689,357
206.2741,215.6
206.3567,102.1
206.4784,427.9
206.5117,477
206.5365,292.5
206.6123,580
206.6797,290.6
206.6936,317.5
206.7046,210.9
206.7525,344.2
206.7646,19.8
206.8942,18425.7
206.9823,2955.5
207.0108,60.2
207.0145,94013.8
207.0381,278.1
207.0441,1780.9
207.0509,9846.2
207.0662,179.2
207.1213,881.6
207.203,305.7
207.2495,197.5
207.2503,200
207.4213,20.6
207.4662,519
207.4926,76.4
207.5183,23.2
207.5509,168.5
207.5944,218.2
207.682,129.8
207.7198,204.6
207.726,285.6
207.7371,271
207.7454,18.3
207.7513,291.1
207.7528,390.5
207.7536,365.2
207.817,17.6
207.8305,91.7
207.8818,22.4
207.9059,142.7
207.9251,106.1
207.9417,21
208.0043,187.2
208.014,3353.3
208.0179,1878.1
208.0344,161.8
208.1623,310.3
208.2258,18.1
208.3906,152.9
208.4345,150.5
208.4595,110.1
208.6096,16.9
208.6469,21.4
208.7318,519.3
208.7672,348.8
208.7997,323.3
208.8038,748.3
208.8105,503.2
208.8835,94.7
208.8912,12986
208.9189,166
208.9554,45.5
208.9901,462.6
209.007,18
209.0126,4851.9
209.0396,546.8
209.1053,209.7
209.1434,348.4
209.2033,18.5
209.2099,490.2
209.2985,111.6
209.3486,329.8
210.1847,17.6
210.676,326.9
210.6865,413.6
210.7088,190.5
210.7103,168.1
210.7122,50
210.7566,114.9
210.7606,177.2
210.8072,333.6
210.8611,19.5
210.888,740.3
210.8955,350.5
210.915,204.6
210.9826,126.6
210.9907,202.6
210.9943,56.1
211.0539,704.4
211.0568,213.4
211.0692,294.2
211.0728,180.7
211.1278,60.6
211.1669,17135.2
211.1732,26232.2
211.1776,28324.3
211.1817,14414.6
211.1853,8199.7
211.1895,4510.2
211.1932,964.3
211.3042,90.3
211.3165,583.3
211.4432,260.3
211.5243,63
211.5317,294.9
211.5515,587.4
211.6149,280.2
211.7596,429.2
211.8086,318.7
211.885,22.9
211.9875,768
212.0228,18.4
212.0743,135.3
212.1081,806.1
212.2852,228.6
212.3146,503.5
212.3198,288.3
212.4156,129.3
212.4316,354.7
212.459,293.3
212.4881,292.9
212.5757,655.8
212.5911,934.2
212.5997,20.1
212.7229,137.1
212.8395,2439
212.8623,98.4
212.8705,437
213.0549,1400.4
213.0752,823.3
213.1339,606.9
213.1626,142
213.2008,228.3
213.2125,78.3
213.2579,19.8
213.3405,172.4
213.3617,116.8
213.4328,434
213.4458,120.7
213.5141,435.7
213.5928,144.2
213.6817,57.7
213.7083,18.8
213.8905,192
213.9195,106.5
213.9623,125
213.9849,485.2
214.0248,170.3
214.0356,85.4
214.0591,7145.6
214.0692,800.3
214.09,883.9
214.1193,218.7
214.2402,139.3
214.3237,118.9
214.3489,21.2
214.3664,107.7
214.4662,215.8
214.4701,699.9
214.5455,19.5
214.556,704.7
214.596,322.9
214.6335,287.1
214.6717,199.4
214.7685,140.8
214.7843,864.2
214.7907,20.3
214.8364,2335.9
214.8865,408.9
214.918,129.2
214.9846,459.3
214.9988,121
215.0384,317.2
215.0708,119.7
215.0797,267.5
215.0932,23.6
215.2379,344.5
215.3324,188
215.3476,220.9
215.3529,19.1
215.3622,857.9
215.492,198.9
215.5108,110.4
215.5463,120.8
215.7378,365.4
215.788,474.5
215.9003,53.3
215.965,326.2
216.0149,13561
216.0335,18.2
216.0415,336.5
216.0594,134.4
216.0877,127.8
216.1139,533.4
216.1434,352.9
216.1704,91.5
216.2505,276.4
216.5064,19.6
216.6182,110.1
216.6333,300.9
216.6487,336.2
216.682,378.7
216.7209,262.9
216.8045,111.7
216.812,18.7
216.8334,851.5
216.8407,197
216.8905,571.7
216.9066,275.4
216.923,51729.6
216.9331,58.2
216.94,320.3
216.9851,20.3
217.0188,20
217.0273,23.6
217.0488,246.3
217.0571,92.8
217.1005,57.1
217.1489,321.4
217.2382,599.6
217.2985,501.5
217.3283,520.6
217.3552,130.6
217.3853,263.2
217.4253,657.2
217.4404,183.9
217.4627,120
217.4967,16.9
217.5427,54.7
217.568,96.6
217.8297,357
217.8771,297.5
217.9219,18.7
217.9811,333.3
218.0002,145.4
218.007,26.8
218.0562,104
218.0716,184.2
218.0955,404.8
218.1043,446.9
218.1086,165.5
218.1146,458.9
218.1519,33.5
218.1846,95
218.2205,117.9
218.2367,305
218.2732,157
218.3258,387.1
218.4801,135.1
218.5838,20.5
218.6266,147.8
218.9057,614.9
218.9201,13730.2
218.9404,19
219.0183,712.8
219.0269,1479772.3
219.0537,274.2
219.0832,12454.8
219.1085,197
219.2378,134.2
219.2456,128.5
219.3988,230.1
219.4473,332.1
219.5257,18.1
219.5419,150
219.5517,93.9
219.5793,417.3
219.5828,433.5
219.6076,114
219.6613,385.5
219.717,309.2
219.7521,330.7
219.8001,814.8
219.8388,86.9
219.8753,69.7
219.9098,187.2
219.9373,397
219.9983,340.5
220.0302,83030.1
220.0673,10921.9
220.1006,739.2
220.1676,426.9
220.1772,143.7
220.1894,348
220.2614,659.6
220.2641,126.9
220.2659,115
220.4581,553.8
220.4594,410.7
220.477,237.4
220.5113,223.9
220.5697,115.1
220.6266,479.2
220.7469,147.6
220.766,192.5
220.867,536.2
220.9676,269.2
221.0041,318.1
221.0108,166.3
221.025,89723.7
221.0311,13987.3
221.0425,14575.7
221.0513,682.7
221.0845,336.6
221.0881,197.3
221.1276,419.4
221.1338,80.1
221.16,255.7
221.1707,23
221.1759,734.2
221.2409,228.6
221.2525,16.9
221.2723,17.1
221.2898,134.4
221.4902,101.3
221.4971,20.5
221.5087,691.4
221.5589,20.8
221.6067,300.3
221.6723,339
221.6913,763.2
221.75,677.3
221.9129,62.3
221.9269,116.3
221.9568,240.6
221.984,1988.8
222.0051,184.5
222.0285,1722.7
222.046,465.2
222.0689,80.1
222.0897,256.2
222.1784,838.1
222.2018,20.5
222.2295,104.4
222.2638,279.8
222.2644,269.3
222.2869,102.9
222.2979,88.3
222.3261,203.2
222.4052,277.4
222.4486,752
222.4769,93.4
222.4986,239.2
222.5253,242.7
222.623,93.2
222.6506,158.4
222.7692,100.9
222.7841,18.6
222.8681,18864.3
222.8795,983.7
222.9217,108.4
222.9315,126.8
222.9543,17.4
222.9885,10440.5
223.025,902.7
223.0379,599.3
223.0909,53.3
223.2948,657.3
223.3874,18.3
223.4371,129
223.4972,277.6
223.518,203.8
223.521,89.6
223.5539,166.3
223.5706,107.3
223.5931,115.5
223.6686,309.6
223.877,19.4
223.9066,167.6
223.9419,222.3
223.9534,48.5
224.0296,2112.7
224.0397,142.5
224.104,577.4
224.1143,58.9
224.1355,140.2
224.14,189
224.141,194.9
224.2398,184.9
224.2732,468.3
224.3159,533.4
224.3198,407.3
224.3566,170
224.359,187.5
224.4114,205.7
224.4741,419.8
224.504,120.5
224.6074,198.7
224.6332,201.9
224.6786,114.2
224.683,196.9
224.7423,370.8
224.8139,455.6
224.8652,8457.6
224.8856,523
224.8926,705.5
224.9333,261.3
224.9406,243.5
224.9936,677.6
225.055,23433.5
225.0852,182.4
225.1065,224.5
225.1208,697.1
225.2124,160.6
225.2664,316.4
225.4022,25.1
225.4256,152.7
225.5038,377.1
225.5137,154
225.7936,231.2
225.8269,169.8
225.914,56.5
225.9793,68.1
225.9911,389.4
226.0026,82.6
226.0065,1219.1
226.0244,11070.8
226.0455,7153.3
226.0585,158.6
226.1278,126.7
226.1474,19.9
226.16,65.8
226.2293,17.9
226.2526,443.2
226.293,95.3
226.3444,21.5
226.5022,275.1
226.5173,123.7
226.526,53.6
226.7067,228.6
226.7383,148.4
226.7608,502.5
226.7758,102.9
226.8215,17.3
226.8621,669.1
226.9518,50361.2
226.9717,696.3
226.977,137.8
227.0277,387.3
227.0343,936.5
227.0434,741.8
227.0795,1808.1
227.0866,295.8
227.2725,137.6
227.3123,20.9
227.3587,134.5
227.501,265
227.5193,202.8
227.7968,272.6
227.8279,56.8
227.8817,612.1
227.9548,787.6
227.9764,19.8
228.0005,302.9
228.0225,753.6
228.1557,378.5
228.3096,519.5
228.3244,302.2
228.6361,448.4
228.6688,20.7
228.6995,18.4
228.7141,710.7
228.7598,321.4
228.8303,141.1
228.8735,353.2
228.9676,19.7
229.0447,105
229.0579,405.6
229.1181,445.7
229.1415,200.3
229.2022,746
229.2371,172.1
229.2734,471.3
229.2932,146.5
229.3483,222
229.7214,222.9
229.758,142.7
229.8509,283.6
229.9153,158.2
229.9347,493.4
229.9572,370.1
230.0022,123.7
230.0189,720.9
230.0335,262.4
230.1565,410.9
230.2595,92.4
230.3088,156.9
230.3856,288.4
230.5247,127.1
230.5982,284.2
230.6446,20.5
230.6516,278.1
230.6902,125.1
230.716,166.4
230.7535,216.1
230.7827,19.4
230.7956,311
230.8105,405.7
230.833,366.4
230.8509,433.1
230.9138,329.7
230.9676,389.9
230.9787,659.7
230.9905,74.3
231.0347,20.3
231.0563,211.5
231.0845,1067.6
231.1735,187.9
231.2352,22.3
231.3067,505.3
231.363,327.8
231.4934,341.5
231.6934,223.9
231.7784,203.6
231.8542,314.7
231.9959,840.1
232.0224,20.3
232.15,169.2
232.1812,17.4
232.4268,16.9
232.4599,86.9
232.4635,121.8
232.5867,211.6
232.5956,99.8
232.6071,366.2
232.6958,211.4
232.7074,96.6
232.7247,520.6
232.7965,97.2
232.8367,140.3
232.8509,243.2
232.8554,18.3
232.865,18.2
232.8906,19.4
232.897,44421.3
232.9079,361.2
232.9855,1309.8
233.0322,269.8
233.038,219.9
233.0427,298.3
233.0512,7525.6
233.0636,597.7
233.0812,602.2
233.1131,127.5
233.1159,17.5
233.2308,198.6
233.2445,106.2
233.2888,91.7
233.3028,169.5
233.5117,393.2
233.5839,375.1
233.712,221.6
233.7238,404.4
233.7284,17.4
233.7532,791.5
233.8754,171.4
233.9356,92.2
233.9668,19.8
234.013,279.5
234.0217,160.2
234.0261,269
234.0794,153.2
234.2018,22.6
234.2181,274
234.2248,84
234.2613,253.2
234.3242,219.1
234.3463,418.9
234.4276,118.5
234.4743,547.4
234.8939,10855.4
234.9818,5722.4
235.0155,95.7
235.0361,315.1
235.0572,5621.2
235.0668,845
235.0928,24714
235.1476,17.7
235.1984,18
235.2083,242.1
235.2129,107.3
235.296,109.6
235.3647,241.9
235.417,127.2
235.4308,437.7
235.5368,789.9
235.6712,213.2
235.7603,122.8
235.8691,1135.6
235.9001,137.1
235.9453,258.4
235.9704,424
235.9791,146.2
236.0005,16.8
236.0041,409.9
236.0173,29
236.0411,6310.9
236.0445,93.7
236.0719,42705.7
236.0767,16.3
236.0962,956.6
236.1734,21.3
236.274,216.4
236.2983,352.3
236.32,316.7
236.424,132
236.4348,95.5
236.4544,364.2
236.5437,358.7
236.5529,73.6
236.6092,118.3
236.6946,527.7
236.7802,18.5
236.843,195.2
236.8833,148.7
236.9835,125.3
237.0568,253.7
237.0689,23.5
237.0753,1537.5
237.1005,296
237.1084,114.1
237.1198,546.6
237.231,326.3
237.3193,491.2
237.3504,457.3
237.4972,118.1
237.5045,337.5
237.6254,81.5
237.843,374
237.9064,150.2
237.9796,17.3
238.0633,130.4
238.0677,1209
238.0786,24.7
238.1113,20.4
238.1394,177
238.1769,100.1
238.2467,91.3
238.404,18.3
238.5009,92.7
238.6133,444.1
238.6915,263.1
238.7206,250.9
238.7438,119.3
238.8421,7078.4
238.8534,1060.1
238.9385,942.2
238.9758,152.5
239.0092,941.2
239.0131,20.5
239.0343,92
239.0497,110.5
239.0541,496.4
239.0684,252.2
239.1474,171.4
239.1601,793.5
239.1675,96.5
239.33,451.9
239.3333,548.4
239.4313,342
239.4453,75.7
239.6252,154.4
239.678,97.8
239.723,105.7
239.7555,131.5
239.8083,243.4
239.9279,398.7
239.9556,56.8
240.0037,1019.4
240.0971,18.5
240.1004,558.6
240.1267,362.7
240.1578,354.1
240.2171,323.4
240.2308,18.3
240.2763,404.7
240.2891,177
240.3685,118.6
240.4054,468.6
240.4168,208.2
240.4286,347.1
240.5341,20
240.5664,399.8
240.5731,152.3
240.5813,261.4
240.589,123.1
240.5983,520
240.6728,301.8
240.7038,474.4
240.8074,20.2
240.8267,294.5
240.8392,2227.6
240.8471,19
240.8556,214.6
240.8871,410
240.9078,354.2
240.9393,133.4
240.9549,1956.3
240.9678,1888.5
241.0129,197.8
241.0477,241.7
241.0842,442.3
241.1302,273.9
241.2229,250.6
241.2984,727.9
241.3049,20.5
241.3107,17.1
241.3283,19
241.609,556.5
241.7176,18
241.7608,19.3
241.8556,105.3
241.939,116.6
241.9795,553.6
241.9985,2535
242.0195,3495.4
242.1321,100.9
242.1895,80.8
242.2093,118.2
242.2725,326.3
242.3201,64.4
242.3469,96.1
242.4124,212
242.6334,143.4
242.6421,245.3
242.7434,137
242.8395,178.6
242.8529,276.9
242.9162,96.6
242.9258,26716.3
242.9364,19.7
242.968,444.7
242.9745,473.5
242.982,20.8
242.9935,93.9
243.0535,5917.4
243.0656,11092
243.0808,125.6
243.0988,136.4
243.1051,16.3
243.1086,188.6
243.187,333
243.2927,317.8
243.3809,21.1
243.3893,758.1
243.4089,174.4
243.4879,103.3
243.5049,733
243.5158,137.3
243.5503,114.8
243.6504,345.2
243.7017,354.5
243.7058,178.7
243.7225,130.9
243.7515,403.8
243.7649,143
243.8549,17.1
243.8658,132.2
243.8825,755.4
243.8984,61.2
243.9731,222.5
244.0128,310.9
244.0318,158.3
244.0496,158.8
244.1735,1023.8
244.2011,1010
244.245,441.4
244.2566,273.8
244.294,284
244.4259,491.2
244.4616,261.2
244.5298,848.8
244.6476,283.5
244.6631,216.9
244.7002,155.5
244.7283,19.9
244.7872,314.6
244.8135,108.9
244.8709,3880.3
244.8907,286.4
244.9178,690.9
244.9239,799.9
244.9519,376
245.074,20.2
245.1311,108.8
245.1686,318.6
245.2262,314.3
245.2294,76
245.4784,118.3
245.4881,19.4
245.5293,320
245.6076,280.3
245.6405,354.1
245.6688,819.4
245.743,397.8
245.8516,122.7
245.9024,106
245.9593,442.3
246.0015,242.4
246.0108,31.9
246.0277,406.8
246.033,770.2
246.0875,181.4
246.0969,99.9
246.1573,122.4
246.1786,541.8
246.2847,290.2
246.4386,550.7
246.4471,130
246.5496,242.4
246.6094,411.9
246.6602,145.6
246.7324,257.6
246.7716,143.9
246.7734,127.6
246.7749,123.6
246.7833,845.2
246.8467,422.6
246.8566,96.6
246.8673,770.4
246.8815,1186.8
246.9744,496
247.0104,139.8
247.0371,1878.8
247.0586,474.4
247.0674,956.6
247.0929,6999.5
247.1083,19.7
247.1742,341.5
247.2662,346.2
247.3356,20.8
247.3813,133.3
247.4203,609.8
247.4502,238.6
247.4836,326.2
247.5231,199.8
247.5382,446.4
247.601,389.2
247.649,116.2
247.8332,481
247.8787,125.7
247.939,162.7
247.9836,271.1
247.9939,260.8
248.0336,428.2
248.0417,154.9
248.0554,170.3
248.0967,147.8
248.1244,19728.2
248.1519,547
248.1556,106.6
248.3389,366.4
248.3674,19.7
248.4692,203.1
248.4998,222.7
248.5033,677
248.7884,198
248.7973,143.1
248.8182,19.7
248.8709,11526
248.9499,490.3
248.9599,1246
248.9808,500.2
248.9872,115.4
248.9994,397.3
249.0166,387.3
249.0615,16070.2
249.0894,18.8
249.1184,154.9
249.1295,645
249.1308,656.8
249.1355,102.5
249.2766,154.3
249.3369,185.9
249.3441,178.6
249.3642,20
249.4819,104
249.5996,99
249.6034,628.3
249.6216,477.1
249.6784,145
249.7612,17.9
249.8305,20.1
250.0273,291.8
250.0514,24.7
250.0653,403.5
250.1782,3108.3
250.2017,105.7
250.2824,376.8
250.5358,427.7
250.5756,113.3
250.804,516.6
250.8448,683.5
250.8679,3909
250.9206,1134.8
250.9559,2955.2
251.0012,283.4
251.0339,487.4
251.34,107.8
251.3683,238.1
251.373,303.1
251.392,287.5
251.4216,778.6
251.5288,79
251.6036,18.9
251.7285,444.6
251.8011,418.1
251.863,624.5
251.9769,94.8
252.0314,356.3
252.037,151.2
252.0459,96189.8
252.2335,188
252.2989,408.1
252.5342,271.5
252.5373,172.5
252.6022,16.8
252.6358,17.1
252.7157,109.7
252.9179,790.7
252.9705,157.5
252.9979,42
253.035,54.6
253.0393,529.2
253.0492,8452.9
253.0558,129.2
253.0735,154.6
253.0799,139.7
253.1235,248.4
253.1466,18.5
253.1881,415
253.2549,336.8
253.303,19.1
253.5198,348.6
253.6618,160.7
253.8512,107.8
253.8586,205.3
253.9224,708.5
253.9479,292.6
253.9558,243.8
253.9723,370.1
254.0441,4139.9
254.0696,20.8
254.1798,832.7
254.3182,115.7
254.3589,304.9
254.3763,254.7
254.412,302.8
254.4371,307.9
254.6583,321.8
254.816,1376.8
254.8242,9790.6
254.9559,189.7
255.0333,20782.2
255.0468,464.8
255.0588,581.3
255.0646,20.4
255.1045,213.7
255.3313,393.3
255.3606,675.3
255.4894,287.4
255.5033,103.7
255.7473,673.2
255.7841,103.8
255.8089,206.8
255.8716,535.4
255.9786,1112.3
256.0369,295.8
256.0514,22.2
256.0587,125.9
256.1411,109.1
256.1555,240.2
256.3677,145.3
256.3862,20.5
256.4228,112
256.7052,60.6
256.7337,263
256.8212,14109.3
256.8379,101
256.8861,20.4
256.9693,409.7
257.0489,5918.1
257.0645,764.9
257.0748,55541.9
257.1049,325
257.1702,828.3
257.2902,92.2
257.4739,240.6
257.4813,519.7
257.7764,312.1
257.8044,791.6
257.9413,271
257.9632,682.5
257.9761,132.2
258.0104,344.9
258.028,543.1
258.0745,246.8
258.0781,2029.4
258.1105,20143.6
258.1644,320.8
258.1929,70.5
258.2514,59.2
258.5116,168.8
258.5361,296.5
258.6766,255.1
258.8183,4741.9
258.848,109.9
258.8998,5096.3
258.9683,18.8
258.9927,382.6
259.1626,200.5
259.2058,132.7
259.3156,458.8
259.3938,103.4
259.5068,260.3
259.5889,331.5
259.6229,434.6
259.7773,122.5
259.9018,199.8
259.9656,1234.3
259.9753,541.5
260.0171,31.1
260.0645,250.6
260.1629,612
260.1673,116.2
260.2886,148.2
260.4915,374.4
260.503,142.9
260.5161,142.8
260.8032,147.8
260.8161,659.5
260.8322,531.5
260.8451,3187
260.898,737.2
260.9247,120.8
260.9494,6326.5
260.9549,248.1
260.977,562.5
261.0464,135.9
261.1541,159.5
261.1759,289.6
261.2354,721.2
261.3827,367.9
261.5033,20
261.521,144.3
261.7382,314.4
261.807,125.4
261.8416,399.8
261.8955,60.9
261.9239,482.8
262.0401,431.5
262.0629,68.9
262.0818,872.2
262.1143,20.9
262.1561,22.1
262.3585,352.4
262.4371,88.2
262.4621,124.1
262.5403,600.8
262.5629,246
262.5983,19.8
262.6272,63.1
262.7005,229.3
262.9918,119.7
263.02,98.7
263.0852,4249.7
263.2323,107.8
263.4494,18.7
263.6132,236.8
263.7857,20.7
263.9636,345.3
264.0501,373.9
264.0751,310.1
264.3537,372
264.392,21.1
264.3991,124.8
264.414,320.1
264.4734,552.4
264.4767,77.5
264.5762,266.3
264.7183,111.5
264.8389,158
264.845,1730.9
264.8528,6280.7
264.9338,3938.9
264.9735,826.7
264.9887,4254.7
265.0158,493.3
265.0237,592.8
265.0354,10121.9
265.0479,1672.3
265.123,871.6
265.1762,97.4
265.2855,325.6
265.3037,493.4
265.3515,118.4
265.3754,410.9
265.4448,302.5
265.5709,21.9
265.8495,132.5
265.9248,132.9
265.9782,19.9
265.9924,153.8
266.0253,486.9
266.0834,246.1
266.1433,147.6
266.2299,146.5
266.2429,101.8
266.2524,21.9
266.3346,188.3
266.3861,154
266.4818,194.1
266.4965,405.1
266.6179,239.8
266.771,214.6
266.7782,527.2
266.8501,5467.5
266.8945,1813.6
266.9049,761
266.9703,390.4
267.0134,143.1
267.0335,275.8
267.0594,835.7
267.0766,96.1
267.0926,355
267.1054,349.8
267.1207,129.9
267.1244,217.3
267.1927,306.9
267.2054,292.7
267.3512,366.9
267.3644,254.5
267.439,203.6
267.5187,134.5
267.6898,413.2
267.7282,292.1
267.8851,124.5
267.9281,530
267.9471,1152.3
268.032,185.1
268.1992,264.4
268.2032,325.6
268.5329,139.9
268.5802,21.9
268.5886,20.5
268.6026,59.9
268.809,98.1
268.828,101.3
268.8471,1156.2
268.8648,1165.9
268.892,889.4
268.944,407.1
269.0124,63.4
269.029,1187.5
269.0344,142.2
269.045,16337.1
269.0489,37229.6
269.086,239.1
269.1763,117.1
269.2714,158.6
269.2805,314.7
269.481,226.1
269.5218,19.1
269.8223,286.8
269.8507,133.3
269.935,17.2
269.952,27.4
269.9941,2089.7
270.0251,880.3
270.0476,23851.7
270.0528,620.2
270.0647,23.7
270.0876,232.2
270.1455,1578.1
270.5734,89.6
270.6424,915.1
270.798,4387.8
270.8368,226.1
270.8586,349.7
270.862,717.3
270.9573,214.9
270.9782,12521.7
271.0242,461.8
271.0279,40.4
271.052,799
271.0648,120
271.0782,868.7
271.0903,1236.8
271.1195,19.1
271.273,813.2
271.3888,435
271.6851,199.9
271.7079,408.2
271.7885,183.6
271.9086,223
272.0435,188.8
272.0807,276.4
272.1292,152
272.1333,89.2
272.2586,18.6
272.2701,573.4
272.295,446.3
272.3237,401.4
272.3402,121
272.3866,116.2
272.4732,121.8
272.6443,378.2
272.6502,18.3
272.7952,6269.7
272.8114,481
272.9449,1065.9
272.9561,105.9
272.9957,710.8
273.01,690.5
273.0489,4152.7
273.1491,345.5
273.1731,460.7
273.2762,909.4
273.2804,470.3
273.3938,122.2
273.3994,484.3
273.474,146.7
273.5852,128.2
273.6426,659.2
273.6841,98.5
273.7847,207.7
273.9352,172.2
273.9628,6143
274.0694,180.6
274.0923,1786.7
274.1038,60.4
274.1268,124.8
274.1901,309.7
274.2729,189.3
274.2968,187.5
274.3112,18
274.3429,98.2
274.3895,224.5
274.398,108.7
274.4168,423.2
274.4271,318.2
274.4312,163
274.5076,140
274.6338,870.3
274.7094,145.7
274.7922,2154
274.8673,137.6
274.8748,572
274.8817,445.2
274.8948,591.2
274.9582,387.7
275.1358,187.5
275.2262,508.7
275.2301,467.9
275.3031,111.8
275.3183,140.8
275.3787,422.7
275.4193,340.2
275.5159,314.4
275.5369,98.8
275.5412,321.6
275.6113,102.9
275.7024,832
275.7227,340
275.7265,102.8
275.752,278.1
275.8954,132.3
275.9104,529
275.9241,62.6
275.9395,1450.7
275.9919,555.7
276.0037,60.2
276.0849,137.2
276.0896,99.2
276.101,258.1
276.1406,168.5
276.1486,18.3
276.5386,256.3
276.5708,21.8
276.5918,299.2
276.6283,178.5
276.7095,140.3
276.7448,762.4
276.7542,128.5
276.9234,6115.5
277.04,437.8
277.0668,234.8
277.0897,17.4
277.1268,22.2
277.2308,21.6
277.3474,236.4
277.4993,180.8
277.7983,56
277.9368,275.1
277.9575,347
278.0193,510.9
278.1655,20
278.2943,19.5
278.3004,292.5
278.3225,18.2
278.3535,76.7
278.4959,107.3
278.536,319.1
278.545,356.3
278.8016,142.9
278.8941,926.4
278.9201,854.3
278.936,89.2
278.9879,383.9
279.0022,348.3
279.0284,350.5
279.0568,33675.3
279.1296,106.9
279.2126,316.4
279.2678,921.3
279.3695,140.4
279.4599,359
279.6025,605.8
279.6403,132.3
279.8012,696.3
279.8345,116.7
279.8523,496.4
279.8683,120.5
280.0163,269.3
280.0601,186.7
280.3994,566.1
280.4395,136.1
280.5173,127.7
280.6958,602.1
280.8177,199.7
280.8271,2682.1
280.8458,119.1
280.8606,701
280.8955,114.5
280.9988,378.1
281.0094,522
281.0184,18.9
281.0515,159.4
281.1048,139.6
281.1404,391.6
281.2009,269.2
281.2203,148.4
281.2791,57.9
281.5419,106.4
281.5571,725.8
281.7464,83.7
281.751,51.6
281.7527,50.9
281.7967,22.2
281.8014,174.8
281.8725,118.4
281.9263,20.7
281.975,22.1
282.0005,227.7
282.015,219.7
282.0251,350.7
282.065,534.1
282.182,20.8
282.2676,220.8
282.3761,85.4
282.4395,262.4
282.6325,243.8
282.6508,245.1
282.6561,91.2
282.7043,125.2
282.8242,2684.1
282.9017,52.8
282.9034,55.3
282.9057,22.9
283.018,659.5
283.0285,993.2
283.0666,426.5
283.1186,262.7
283.1681,336.8
283.3798,20.8
283.4106,141.3
283.4627,163.5
283.4997,459.4
283.6015,17.7
283.6084,719.3
283.7531,155
283.7714,177.1
283.7792,20.5
283.8687,99.4
284.0031,351.7
284.0509,47.6
284.0633,157.7
284.0812,449.8
284.1505,19.6
284.1655,19.7
284.2171,125.6
284.2578,19.3
284.2924,246.6
284.4619,97.8
284.7825,422.3
284.8211,2038.8
284.9138,129.4
285.0161,389.2
285.0226,110.8
285.0653,20.3
285.1237,1078.5
285.1291,95.7
285.2764,275.2
285.3671,152.3
285.5731,505.2
285.6174,357.5
285.6225,17.7
285.9299,125.7
285.9606,19.6
285.9683,1421.3
286.0198,585.6
286.043,20
286.0584,184.3
286.0966,60.6
286.1587,167
286.1783,708.4
286.1798,716.8
286.1941,500.6
286.2683,124.4
286.5438,186.6
286.6404,154.5
286.7676,118.7
286.7722,2538.1
286.8173,196.7
286.9423,303.2
286.9521,7018.1
286.9761,138.5
287.0109,16.9
287.0176,727.5
287.0556,33781.3
287.225,195.6
287.3169,19.1
287.3623,125.5
287.4041,20.4
287.4267,435
287.6247,92.3
287.6918,197.2
287.8492,636.4
287.9147,624.9
288.028,67.3
288.059,722.2
288.0736,661.5
288.085,100.7
288.1559,29557.8
288.3433,133.3
288.3586,288.5
288.4828,301.9
288.5102,359.9
288.5228,389.3
288.5353,183.7
288.6346,18.6
288.7692,3533.1
288.8465,155
288.8588,533.3
288.8638,296.6
288.8766,5003.7
288.8826,4603.9
288.8902,9348
288.8937,10328.1
288.8976,10832.3
288.9096,12694.6
288.9135,13530.9
288.9191,13696
288.9238,13448.7
288.9267,16004.9
288.9321,19904.3
288.9376,14215.7
288.946,19261.6
288.9534,13303.3
288.9584,9942.8
288.9646,12867.4
288.9706,8198.1
288.978,5885.2
288.9842,6907.9
288.993,2396.7
289.0054,231
289.0094,568.4
289.0515,150.7
289.0621,64.1
289.1248,387.5
289.1342,95.5
289.1592,1505.2
289.3072,606.9
289.3917,83
289.5413,18.8
289.5476,428.4
289.6144,233.7
289.6709,112.6
289.7695,507.3
289.9291,454.3
290.0004,100.4
290.0248,285.8
290.0572,145.4
290.1006,58.1
290.1217,22.8
290.2283,207.4
290.2376,504.6
290.2632,395.4
290.3206,124
290.339,728.9
290.3734,71.8
290.5179,195.6
290.5233,142.6
290.5983,300.6
290.7259,133.5
290.7659,1089.7
290.7961,254.4
290.8387,93.3
290.8442,431
290.8526,148.1
290.8705,142.6
290.9102,168.7
290.9944,22.1
291.027,1798.4
291.1349,545.5
291.2544,491.5
291.3379,89.5
291.4753,460.3
291.5802,634
291.5932,18.4
291.6569,60
291.7371,718.7
291.8446,388.7
291.8877,230.8
291.9999,292.6
292.0367,159.7
292.0788,318.6
292.103,95.2
292.2989,236.1
292.5937,140.3
292.6368,57.2
292.6455,136.4
292.8467,309
292.8504,308.6
292.8771,460.7
292.8975,1601.4
292.9093,774.2
292.9404,561.8
293.0057,551.7
293.0196,827.1
293.0343,188.5
293.0726,2332.5
293.0985,471473.2
293.15,137.8
293.1644,230.2
293.1793,1150.1
293.3002,473.6
293.4295,21.4
293.4849,764.7
293.5514,143.6
293.5612,196.1
293.6489,175.1
293.7529,416
293.7821,97.4
293.7909,137.5
293.8782,105.2
293.9639,101.4
293.9806,441.5
293.999,645.9
294.0067,480.1
294.0148,343
294.0957,1449.3
294.1019,42755
294.1855,104.8
294.3009,439.3
294.3688,140.7
294.3903,20.7
294.4079,518.9
294.4451,310.8
294.4872,22.5
294.5775,591.9
294.6179,124.6
294.6578,979.8
294.6668,334.1
294.681,859.9
294.8471,968.1
294.9909,608.9
295.031,1889
295.1025,3337.1
295.1497,22.2
295.1599,96.5
295.1657,99.3
295.195,26029.3
295.2288,601.6
295.2784,103.7
295.3839,244
295.4734,338.9
295.5434,367.6
295.5699,369
295.6343,259.3
295.7247,122.5
295.8253,75.5
295.8523,236.2
295.9023,344.4
296.0097,671.3
296.0158,322.3
296.0667,391.5
296.1981,1819.5
296.5936,112.2
296.6075,76.9
296.6663,22.5
296.7514,199.5
296.7848,265.1
296.8218,301.4
296.8543,195.1
296.9766,460.1
296.9878,259.1
297.016,268.7
297.0325,337.6
297.1489,334.4
297.2582,320
297.3757,143.2
297.5325,189.7
297.6119,52.8
297.6743,512.3
297.7172,797
297.8971,18.9
297.9982,84.7
298.0256,1929.5
298.0426,16977.2
298.3784,783.2
298.3947,153.7
298.4289,16.5
298.5438,132.7
298.6704,86.3
298.7991,95.8
298.8097,463.5
298.9156,106.3
298.9409,102.6
298.9684,159.9
298.9751,467.8
298.9868,194.6
298.999,788.5
299.0238,647.5
299.046,630.3
299.087,276.3
299.1397,6430.7
299.1534,98.5
299.1651,348
299.1953,1228.6
299.2453,287.7
299.2584,580.1
299.3141,514.3
299.4322,637.5
299.4408,445.6
299.4485,503.7
299.4769,377.3
299.5917,103.9
299.6888,258.8
299.8141,19
299.8723,215.5
299.9001,20.8
299.9493,111.3
300.0044,966.3
300.0302,184.8
300.0385,207.9
300.0515,782.8
300.0753,874.8
300.1095,468.3
300.1377,407.8
300.1434,99.9
300.1968,23.6
300.2062,134.3
300.3275,465.2
300.3431,300.3
300.3936,382.3
300.3957,321.4
300.4994,496.7
300.7372,72.1
300.7911,281
300.8056,393.3
300.9235,436.2
300.9374,20.7
301.0389,18862.2
301.059,488.4
301.1416,229.4
301.1535,531.7
301.212,1449.4
301.2879,221.2
301.377,191.6
301.3979,317.5
301.4805,654.9
301.6198,61.6
301.6892,508.1
301.694,148.1
301.7386,82.1
301.7455,302.7
301.9541,365
301.9939,2378.7
302.0123,1537.5
302.02,156.5
302.0298,316.2
302.0359,32.2
302.0422,160.3
302.0521,22.6
302.0644,5292.7
302.0732,34.1
302.112,294.9
302.1196,83.2
302.1339,20.5
302.2199,311
302.3012,554.6
302.3334,236.8
302.398,20.2
302.6188,744.1
302.6409,176.3
302.6666,432.6
302.6824,512
302.6844,701.6
302.7076,805.6
302.8141,333.7
302.8298,2625.1
302.88,503.7
302.9835,20.1
303.0677,515.3
303.0874,150.6
303.1129,397
303.1188,20.1
303.1258,192.9
303.2175,1746.4
303.2838,208.2
303.3796,156.7
303.5414,593.5
303.5998,322.3
303.7226,605.1
303.9735,197.4
304.0598,181.7
304.0933,1525.6
304.1409,144.8
304.1649,332
304.3157,870.6
304.3682,226.2
304.4074,433.5
304.5054,296.7
304.5571,524.3
304.6752,318.9
304.7206,138.6
304.7348,182.2
304.7659,610
304.79,126.6
304.8021,86.9
304.8268,1260.2
304.8969,325.2
304.9819,166
305.1701,266.6
305.2633,758.8
305.2951,461.4
305.3446,456.9
305.5441,146.5
305.6502,125.5
305.7408,270.8
305.7596,427.7
305.7795,121.2
305.7963,253.4
306.025,27.1
306.0958,146.3
306.1144,159.1
306.4455,467.3
306.5897,255.2
306.9585,2554.7
306.9774,2941.5
307.0185,1050.1
307.0253,111
307.1203,167.4
307.1494,472.3
307.1632,548.9
307.1924,97.3
307.2137,758.5
307.3033,591.7
307.6101,125.9
307.6582,146.9
307.7106,388.2
307.7228,127.7
307.9583,724.2
307.9706,19.8
308.0073,130.5
308.0296,318
308.0391,385.3
308.231,387.1
308.6176,19.6
308.6565,293.6
308.8674,344.1
308.8796,2020.4
308.9147,131.9
308.9437,803.1
309.0066,455.9
309.038,4905.8
309.0829,2067.8
309.2678,117.8
309.2879,122.8
309.5503,495.9
309.5844,182.6
309.6606,260.9
309.8307,350.8
309.8932,356
309.9113,157.3
309.9683,123
310.0218,231.3
310.146,452.6
310.2551,196.9
310.3445,260.6
310.3839,536.6
310.4736,19.5
310.4913,98.5
310.5212,339.9
310.6859,419.5
310.7005,444.3
310.8765,1601.6
310.9462,109.9
311.0032,144.5
311.196,158.8
311.4829,626.6
311.5114,113.5
311.5173,24
311.9134,21
311.9838,959.9
312.0412,2630.7
312.2402,139
312.2579,347.8
312.2717,210.4
312.663,155.4
312.786,708.6
312.8247,220.1
312.8663,208.3
312.874,351.4
312.8814,19.9
312.9638,20
313.0025,91.7
313.0776,682.4
313.2742,37423.6
313.336,138.7
313.4538,66.4
313.4689,563
313.5197,21
313.6537,61
313.7197,534.1
313.7933,124.3
313.8393,349.7
313.8447,367.8
313.9673,756.4
313.9997,938.9
314.0151,340
314.0913,152
314.1525,166.6
314.2586,91.1
314.2776,4007.4
314.3685,257
314.3831,295.9
314.5727,107.2
314.6042,107.7
314.6102,194.2
314.6728,221.4
314.7038,229.5
314.7064,209.9
314.7093,273.5
314.7633,116.3
314.7801,944.7
314.8073,56.1
314.8374,4284.6
314.8603,104.5
314.8714,318.6
314.9005,153.1
314.907,135.4
314.9828,133.8
314.9869,662.2
314.9993,4979.8
315.0193,312
315.0259,185.4
315.0342,260
315.0477,1078.7
315.0555,6350.1
315.0597,3399.2
315.0618,4447.4
315.064,4702.9
315.0669,18972.8
315.0699,28024.1
315.0733,17173.1
315.0805,7252049
315.087,26818.1
315.0887,14762.3
315.0922,10562.2
315.0944,7141.4
315.0965,6846.8
315.0985,4594.9
315.1007,2886.8
315.1028,2141
315.1046,889.6
315.1094,265.9
315.1113,316.9
315.1139,188.3
315.1155,277
315.1199,372.7
315.1219,420.4
315.1388,182
315.1614,4438.9
315.1804,140.6
315.2023,344.5
315.2603,318.7
315.3238,5631.7
315.4863,562.1
315.6127,99.6
315.6498,18.9
315.8416,18.1
315.935,201.4
316.0023,203.4
316.0533,59.3
316.0685,1441
316.0777,39390.3
316.0838,754328.9
316.0953,316.8
316.3076,380.4
316.3501,92
316.4995,143.4
316.5377,21.1
316.6752,186.8
316.744,607.8
316.7883,285.1
316.7937,362.7
316.8545,19.7
316.8914,19
316.9041,19.4
316.9871,2924.5
317.0034,314.3
317.0562,502.8
317.0656,1973
317.0843,87751
317.0998,735.2
317.1491,187.6
317.2537,240.4
317.7002,373.6
317.7687,109.5
317.934,276.6
317.9864,1129.6
318.0878,9002.9
318.1014,17.8
318.1902,102.4
318.3193,19
318.4832,365.8
318.6884,316.2
318.7737,393
318.8037,2058.9
318.8506,212.1
318.9123,100.3
318.9547,20.3
318.9841,745.4
319.0509,87.1
319.1568,290.8
319.195,41361.3
319.2231,689
319.2412,307.5
319.258,116.5
319.3167,461.5
319.475,338
319.4852,19.5
319.6264,20.7
319.6586,249.1
319.7033,308.8
319.7204,528.9
319.7446,19.8
320.0751,174.3
320.108,480.2
320.129,129.1
320.1518,159.6
320.1642,226.4
320.1982,6323.9
320.2105,188.8
320.2589,1720.9
320.3254,17.7
320.3945,445
320.4735,752.1
320.6081,137.5
320.7299,120.3
320.8002,436.8
320.9206,88.3
320.9607,431.9
321.0226,150.3
321.2106,46328.9
321.2625,85.4
321.366,74.3
321.6186,97.6
321.6824,20
321.9873,20.4
322.0091,149.1
322.0743,102.8
322.1636,145.1
322.1791,121.4
322.2139,7783.5
322.6303,781.5
322.7664,124.3
322.8029,468.9
322.8129,618.9
322.8319,618.2
322.902,402.1
322.9145,253
322.9515,294.2
323.0208,11363.5
323.1032,727.1
323.1347,387.8
323.2261,2087.1
323.2588,22.2
323.358,262.4
323.4311,19.4
323.5814,109.1
323.5935,176.1
323.6444,112
323.869,413.6
324.002,1641.6
324.0247,397.2
324.0545,181.9
324.0988,156.6
324.1306,96.4
324.2052,566.2
324.4573,334
324.4625,648.8
324.5132,125.9
324.5388,812.1
324.544,299.7
324.5574,5200.9
324.559,5221.6
324.5725,1531.7
324.5788,629.4
324.5837,669.2
324.6115,269.4
324.6769,344.5
324.7328,391.7
324.7854,79.4
324.809,823.4
324.8324,20.5
324.8534,2169.6
324.9195,819.8
324.9774,55.6
325.0492,134.3
325.0571,792.4
325.1181,20.1
325.212,3439.7
325.2927,105
325.5189,255.4
325.5852,357.4
325.6898,17.5
325.7277,122.3
325.8641,139.4
325.9985,279.6
326.0043,56.7
326.3091,17.2
326.4835,154.8
326.5346,272.3
326.652,18.7
326.6991,123.8
326.7269,126.8
326.7658,669.3
326.8058,342
326.844,253.7
326.8504,2018.9
326.9926,160.5
327.0158,7547.8
327.0523,2117.7
327.0766,118.6
327.1387,704.1
327.2177,530.6
327.2276,8796.9
327.4171,19.2
327.4221,348.4
327.463,583.9
327.5499,330.9
327.8341,214.8
327.9804,181.8
328.0158,1109.8
328.0328,59.9
328.2306,830.6
328.369,290.9
328.4099,630.8
328.4271,333.5
328.4424,341
328.491,194.4
328.5259,19.1
328.5716,543
328.6073,102.8
328.8326,469.7
328.8466,394.5
328.9035,704.8
328.9749,171.9
329.041,386.6
329.0833,18.3
329.0959,830.7
329.1577,190.4
329.2435,620.6
329.292,57.5
329.5658,134.4
329.7482,629.5
329.7627,138.9
329.7691,168.4
329.7843,94.5
329.9367,547
329.9721,489.9
330.0595,165.9
330.0683,17.4
330.3303,52
330.3681,233.9
330.835,553.9
330.8477,55.8
330.8684,612
330.9763,283.8
331.0192,1124.9
331.0255,777.6
331.0456,119016.3
331.0544,1035240.3
331.1048,16.6
331.1409,151.9
331.2772,20.2
331.316,254
331.35,85.8
331.4129,20.8
331.4749,333.3
331.534,85.8
331.8079,223.6
331.8556,160.4
331.861,409.1
331.9824,21.1
332.0022,140.4
332.0483,8071.8
332.0578,96305.8
332.3749,132.8
332.5412,156.8
332.5941,495.7
332.7733,17.9
332.8099,720.4
332.8403,445.1
332.9614,660.1
333.0525,59849.6
333.0582,10453.2
333.101,294.1
333.2675,394.6
333.3074,135.9
333.4202,305.6
333.4629,379.4
333.5448,385.7
334.056,5214.5
334.091,99.7
334.2123,568.7
334.3684,441.4
334.5654,515.4
334.572,395.7
334.7772,542.2
334.8132,83.5
334.8374,358.9
334.8629,701.8
334.9395,276.4
334.9649,18.1
334.996,75.4
335.0384,635.4
335.0572,365.3
335.2164,112.6
335.2614,477.5
335.5328,128.7
335.5481,159.6
335.5726,185.4
335.5931,167.8
335.6739,133.6
335.7435,20.9
335.8245,133.1
335.9405,218.6
335.966,97.1
335.9731,182.4
336.027,345.7
336.1979,155.2
336.2129,127.7
336.247,364.8
336.3836,307.6
336.3959,145.8
336.5582,544.9
336.7444,536.6
336.8308,422.3
336.8791,467.6
336.9636,201.3
336.9945,322.5
337.0367,7762.3
337.05,21026.2
337.0624,571300.4
337.1777,582.9
337.235,844.9
337.2744,10105.7
337.6447,493
337.7838,318.5
337.935,173.7
338.0329,97.6
338.0488,170.6
338.0658,52502.4
338.3696,352.1
338.4435,18.7
338.5161,327.4
338.6048,413.7
338.6453,317.3
338.6758,61.9
338.6913,234.4
338.8215,76.8
338.9215,925.7
338.9466,82.5
339.0388,1591.1
339.0474,1098.4
339.0663,3538.3
339.0954,92.7
339.1209,121
339.2511,6639.4
339.29,7278.7
339.4678,328.9
339.5284,455.6
339.6563,219.9
339.9063,281.1
340.033,20.9
340.0616,307.4
340.0688,102.3
340.0931,619.9
340.2571,23.2
340.293,769.8
340.6526,69.7
340.6752,362.4
340.783,502
340.8635,688.8
341.0186,26.9
341.0428,140.7
341.1081,370.1
341.1283,399
341.182,336.6
341.2725,649.2
341.2843,549.9
341.3057,5494.9
341.3638,762.7
341.3713,237.2
341.4529,201.6
341.6929,618.2
341.7825,322.8
341.7929,665.4
341.8432,20.3
342.0155,1223.3
342.0547,118.3
342.119,132.8
342.3752,193.2
342.6263,179.2
342.823,17.6
342.8694,839.4
342.9894,1507.5
343.0263,711.2
343.1162,18.6
343.1769,176.8
343.195,16431.2
343.2136,398.2
343.6309,102.9
343.7346,126.2
343.9874,106.2
344.1985,484.6
344.5689,455.4
344.7073,831.3
344.768,118.6
344.8417,311.4
344.9256,144.9
344.9621,548.2
345.0585,435.8
345.2108,1325.2
345.2334,126.6
345.3673,489.2
345.545,213.9
345.5554,19.1
345.7718,21.5
345.9068,628.1
345.9841,18598.5
346.0212,275.3
346.0384,376.4
346.1563,59
346.3009,476.6
346.3068,120.3
346.6466,273
346.6923,151.7
346.748,95.2
346.8186,130.4
346.9885,222.6
347.168,499.1
347.1776,742.1
347.1881,153.4
347.2349,400.6
347.2827,18.5
347.3314,158.1
347.347,229.7
347.3877,188
347.4358,257.4
347.508,794.7
347.8659,19.4
347.9409,301.6
348.0113,614.3
348.0281,20.3
348.0724,166.1
348.3457,273.3
348.3604,105
348.3937,215.2
348.4213,92.8
348.4576,357.9
348.4718,110
348.5323,450.1
348.7626,272.2
348.8141,475.6
349.0183,1384.8
349.1114,269
349.1873,103.3
349.2739,329.1
349.3087,308.4
349.3598,18.4
349.4756,191.8
349.4884,101.9
349.5362,126.6
349.6509,17.5
349.68,322.8
349.7421,428.2
349.8042,427.5
349.8162,278
349.943,103.6
349.9591,388.3
350.0188,427.5
350.0784,432
350.1447,111.3
350.1987,20.6
350.214,701.1
350.2513,144.6
350.283,625.6
350.302,521.1
350.4952,115.1
350.7299,401.4
350.7471,86.1
350.8998,520.5
350.9317,124.4
351.0147,177.1
351.0937,337.2
351.2701,297.2
351.3146,89.3
351.3369,267.2
351.4371,398.7
351.5422,378.1
351.5619,453.9
351.6824,132.8
351.6965,514.9
351.9497,138.2
352.0012,19.2
352.0481,20.8
352.3042,140.6
352.4711,384.3
352.8984,1125.3
353.0275,119105.4
353.0364,188429.1
353.1099,410.3
353.4566,19.9
353.5323,171.2
353.6023,245.6
354.0159,18.3
354.0306,8922.3
354.0397,17217.5
354.1763,203
354.3965,788.3
354.4066,429.8
354.433,330.4
354.5232,589.2
354.5863,307.4
354.7516,100
354.8951,1117.4
355.0122,1938.2
355.021,101.7
355.0346,11318.8
355.0582,1007.5
355.0707,399.2
355.4704,202.5
355.6642,61.2
355.9691,349.3
356.0156,124.6
356.069,26.5
356.1779,170.9
356.215,23.3
356.386,22.4
356.5064,260.9
356.5153,19.7
356.7881,88.5
356.8793,125.4
356.9348,494.9
357.0091,933.1
357.0208,173.1
357.0678,36.4
357.1461,261.8
357.2091,675.5
357.2511,218.3
357.2857,299.1
357.3302,120.9
357.4743,530.1
357.5802,163.4
357.5947,159.4
357.6172,321.9
357.822,335.5
357.8728,18.1
358.0088,75.1
358.0212,573.6
358.1298,354.4
358.1578,358.5
358.3539,112.4
358.3788,21.6
358.3976,278.3
358.5849,117.2
358.7569,316.1
358.7629,653.2
358.7868,359
358.8271,441.7
358.9171,55.3
358.9244,651.9
359.008,593
359.0319,10109.3
359.0444,302682.6
359.0655,138.1
359.2569,433.7
359.3737,178.8
359.5278,209.6
359.5443,20.1
359.5743,822.7
359.604,575.2
359.623,153.3
359.6302,97.9
359.6402,298.4
359.6444,250.8
359.655,122.3
359.6681,695.3
359.6885,1075.8
359.7001,367.5
359.7212,21.5
359.7294,137.4
359.7369,213.6
359.7909,168.9
359.7984,139.5
359.8366,105
359.8733,153.5
359.8961,154.8
359.9038,366.2
360.011,48.2
360.0269,60.5
360.0478,26958.8
360.0673,195.8
360.29,317.2
360.3243,11638.4
360.4187,435.1
360.4392,341.2
360.4681,134.4
360.5684,66.1
360.7878,352.8
360.8517,818.4
361.0075,201.5
361.0207,3798.2
361.0486,1678.1
361.1151,78
361.1426,345.6
361.1801,143.6
361.1863,286.4
361.2744,669.1
361.3279,22.2
361.3726,197.2
361.4421,677.6
361.5245,19.3
361.5299,59.6
361.8925,389.7
361.9582,4706.8
362.1283,211.9
362.1862,305.6
362.2697,209.3
362.4079,107.3
362.4263,423.8
362.4774,260.2
362.5094,315.5
362.5209,109.8
362.7008,137.8
362.7851,369.4
362.8425,130.8
362.9272,1820
363.2347,20.9
363.2771,143.6
363.3736,22.7
363.6973,713
363.998,254.2
364.1966,92.2
364.2757,388.4
364.3765,277.5
364.5354,18.1
364.5602,84.3
364.6651,623.9
364.6925,93.4
364.7461,171.1
364.8006,383.3
364.8547,317.8
364.8903,556.2
364.9167,310.5
365.0163,109.9
365.0666,330.2
365.1072,389.6
365.2582,384.9
365.3837,525.8
365.4625,549.2
365.527,100.6
365.7556,724.8
365.8346,213
365.9596,149.8
366.063,55.4
366.1397,302.5
366.192,490.9
366.5399,227.7
366.5513,301.4
366.5583,714.5
366.6102,19.3
366.6636,329.3
366.7282,95.4
366.8413,21.7
366.8766,543
366.9151,664.6
367.1216,3405.8
367.1687,168.1
367.1954,2229.3
367.2583,179.9
367.3714,217.4
367.4562,341.6
367.6195,354.3
367.9913,136.2
368.2194,522.5
368.2392,151.7
368.6871,20.9
368.7605,179
368.7825,519.4
368.8717,290.4
368.9922,2786.4
369.0014,13388
369.0103,7800.8
369.304,19.7
369.5357,137.4
369.7156,99.6
369.8052,121.5
369.8793,652
369.9192,197.5
369.997,236.2
370.0053,185.1
370.0254,120.8
370.0536,187.9
370.0826,106.9
370.2702,426.1
370.3421,163.8
370.3535,106
370.6343,565.5
370.808,172.2
370.8282,100.4
370.9586,125.7
371.0002,912.3
371.042,655.1
371.2197,105.6
371.4715,155.7
371.6698,254.1
371.6826,302.5
371.8071,22.3
371.9341,131.2
372.0973,496.5
372.1303,96.1
372.1725,597.3
372.3036,555.3
372.4502,360.7
372.5056,312.5
372.5673,124.2
372.6222,105.2
372.7385,452.5
373.1229,332.3
373.4255,134.5
373.4743,111.9
373.5246,368.3
373.8124,456.9
373.8586,211.6
374.0469,340.9
374.1235,640.2
374.613,136.7
374.6691,136.8
374.7366,308.2
374.8285,19.3
375.0095,111224.2
375.0184,94279.7
375.2619,363.2
375.333,612.9
375.7333,513.1
375.8828,89.3
375.9375,304.2
376.0129,6808.7
376.0218,9109.3
376.0439,22.4
376.2534,225.8
376.2982,3621.6
376.3081,359.4
376.3531,727.1
376.46,951.9
376.6144,564.4
376.6702,354
376.7099,228.5
376.9413,361.6
376.9949,813.6
377.0166,3378.9
377.0459,21
377.1696,772.4
377.2235,174.4
377.2441,74.2
377.2715,622.6
377.369,146.9
377.6835,418.1
377.8944,93.2
378.0278,16.9
378.1797,61.7
378.3195,673.7
378.335,396.5
378.5603,466.1
378.6154,553
378.6594,347.5
378.851,112.1
378.9288,599.4
378.9907,56.5
379.0011,267.9
379.0761,22.5
379.1293,345.1
379.2207,307
379.2794,134.8
379.3378,20.8
379.3449,183.3
379.4849,328.4
379.5115,731.5
379.521,723.3
379.7205,54.5
380.0915,316.4
380.1392,428.5
380.1557,107.5
380.1654,264.7
380.3113,83.4
380.6335,152.2
380.7628,155.9
380.87,406.5
380.8844,301.6
380.9078,160.1
380.9898,26.2
381.014,20239.9
381.0264,179112.5
381.0531,173.1
381.0659,278.2
381.079,373.1
381.0992,566.1
381.2888,179.9
381.3695,58.5
381.4379,145.7
381.5511,280.8
381.8409,21.3
382.0167,484
382.0298,14904.8
382.1858,155.4
382.2297,199.7
382.2635,103.4
382.3723,188
382.5811,18.6
382.7185,18.3
382.7676,1618.3
382.83,202.7
382.8877,359.5
382.9672,254.7
383.0323,134.7
383.1167,184443.4
383.1591,758.6
383.2265,18.6
383.4862,372.7
383.4958,96.1
383.5171,752.6
383.5275,127.5
383.6293,20.3
383.7405,64.8
383.868,20.1
383.9938,100
384.0373,19.4
384.0681,185.2
384.1201,19960.7
384.1837,126.2
384.1878,57.9
384.2099,676.5
384.2195,24.6
384.2713,19.3
384.314,18.7
384.3634,474.5
384.6756,127.3
384.7645,1329.3
384.8342,265.6
384.8425,100.7
384.9412,22.1
384.9848,280.3
385.0439,306.5
385.0608,223
385.1208,1450.7
385.1733,572.7
385.4355,456.9
385.5934,311.2
385.7127,499.5
385.9795,2804.9
386.0346,336.4
386.0533,147
386.3856,479.8
386.4802,69
386.5317,18.9
386.5936,726.1
386.7394,106.4
386.8136,197.9
386.9416,183.9
387.0035,807.1
387.3787,102.5
387.4641,168.2
387.495,86
387.6258,62.6
387.7554,21.2
387.8493,318.8
387.8919,706
387.9721,395.2
387.9779,137.2
388.0604,155.1
388.217,374.7
388.3975,406.7
388.4175,90.7
388.5179,576.7
388.5916,99.1
388.6578,22.8
388.7124,401.3
388.7612,22.4
388.7742,339.4
388.9164,131.1
388.9438,212.6
388.9781,108.1
389.0663,127.7
389.2358,207.5
389.2462,24.5
389.2882,261.6
389.3895,598.4
389.5801,160.1
389.6314,382.1
389.7277,547.6
389.8897,324.6
389.974,19567.5
390.0215,508.5
390.0713,103.6
390.2532,123.4
390.2921,638.7
390.4381,114.4
390.456,330.5
390.71,658.5
390.7907,989.5
390.799,1771.9
390.8297,143.6
390.8385,166.1
390.8506,525.9
390.8793,424.2
390.9425,17.1
390.9742,9289.7
390.9833,18793.4
390.9923,10623.9
391.0066,141.9
391.0246,127.1
391.1184,20.7
391.2091,333.9
391.2932,306.6
391.3188,20.6
391.4371,203.2
391.4554,324.1
391.4744,118.2
391.6545,117.8
391.8696,100
391.9787,453.4
391.9866,270.2
392.1384,344.7
392.1842,447.7
392.2174,724.2
392.2322,101.5
392.2911,134.9
392.3783,167.7
392.6055,250.3
392.6728,67.2
392.7724,307.6
392.7963,2201.4
392.9655,538.9
392.9821,780.1
393.1052,18.8
393.3572,331.7
393.3633,289
393.4561,300.8
393.654,381.5
393.6623,75.4
393.9531,207.9
394.1742,21.6
394.1914,77.9
394.3063,18.5
394.4708,78.4
394.524,122.3
394.7561,680.9
394.7934,1000.1
394.8522,19.8
394.9148,168.3
394.9763,654.7
395.1418,200.4
395.2901,85.6
395.3198,19.2
395.4166,393.8
395.4749,21.1
395.8874,313.9
396.0283,372.7
396.1788,301.9
396.2225,404
396.2312,685.4
396.3258,156.8
396.3561,301.6
396.7444,1030.9
396.842,534.6
396.8848,204.4
396.9663,132.7
396.9733,454.2
396.9914,160998.3
397.0003,53420.9
397.1259,119
397.3624,403.5
397.6155,19.1
397.7527,663.9
397.8656,102.5
397.9242,260.4
397.9384,60
397.9947,12029.4
398.0038,3266.3
398.0818,140.1
398.2039,379.9
398.2421,6255.6
398.2612,169.6
398.4458,95.3
398.7063,184.8
398.7418,2434.2
398.7625,1976.1
398.9765,48.2
398.9988,864.3
399.2451,345.4
399.3604,1061.3
399.5886,456.4
399.6451,314.4
400.0703,385.5
400.1599,184.1
400.2536,152.7
400.4526,286.9
400.4824,282.7
400.72,98.1
400.7388,1383.2
400.7597,271.2
400.7723,699.7
400.8276,869.3
400.8368,932.7
400.87,348.9
400.9011,289.6
400.9722,105.9
401.0459,169.6
401.4682,18.5
401.6916,166.1
401.9538,265.5
402.1588,264.7
402.5133,167.2
402.7115,319.3
402.8256,1336.2
403.0083,230651.6
403.3919,22.1
403.5504,135.2
403.7989,274.2
403.8964,408.8
403.9414,304
403.9859,715.4
404.0116,20225.6
404.6605,126.5
404.6782,150.8
404.687,378.6
405.013,1664.9
405.1295,132.8
405.8713,254.5
405.9479,11476.8
406.0599,120.6
406.1024,124.8
406.1335,83.8
406.3298,1264
406.3649,682
406.548,276.6
406.6841,552.1
406.7737,1264.3
406.8002,195.7
406.9523,137.5
407.1409,98.1
407.3302,372.9
407.5169,306.2
407.5637,18.8
407.7514,113.8
407.8943,283.5
408.0435,908.9
408.113,837.5
408.3094,1322.1
408.643,130.1
408.6998,382.2
408.7449,128.8
408.7591,934.6
408.7708,2019.2
408.9852,3919.5
409.0074,19.5
409.3446,133.3
409.3576,418.7
409.3888,17.5
409.4192,210
409.5366,189.5
409.59,243
409.8548,309.6
410.0561,286.2
410.1863,200.6
410.6955,57.9
410.7672,512.2
410.8563,780.6
410.9696,124.8
411.0018,137.9
411.2642,76.1
411.4033,213.9
411.5371,101.9
411.5539,152
411.6686,158.6
411.6805,97.4
411.9713,260.7
412.0531,389.4
412.1932,443.8
412.2969,61
412.3102,96
412.3221,1669.5
412.3882,463.7
412.6696,518.8
412.8545,1254.1
412.8757,411.4
412.9006,309.5
412.9278,97.2
412.9504,19.5
412.9652,29212
412.9743,9370.6
413.0978,506.2
413.1209,698.7
413.2304,17.7
413.2672,3628.8
413.3248,239.1
413.4927,843.1
413.5238,397.4
413.6417,20.1
414.1574,120.5
414.2701,290.1
414.2981,572.8
414.3397,21.3
414.5292,126.8
414.7159,975.5
414.9187,202
414.9636,329.2
415.2342,436.4
415.2621,154.6
415.2815,756.7
415.6242,60
415.6351,191.8
415.7274,130.7
415.8154,102.9
415.8822,462.3
415.9194,135
416.1354,6511.3
416.1852,364.2
416.2144,34858.7
416.3572,328.7
416.3848,403.5
416.6609,195.9
416.779,251.5
416.789,115.8
416.801,874
417.001,236.4
417.0219,390.2
417.0607,55.4
417.1232,714.7
417.2178,4284.8
417.3095,298.2
417.3152,300.8
417.4067,798.4
417.7769,352.7
417.8645,674.7
418.2687,20.2
418.2985,124.1
418.7008,94.4
418.8004,391.8
418.9823,78643.3
419.1888,435.9
419.208,385.8
419.2271,139.1
419.2559,1025.5
419.3638,91.2
419.3927,145.3
419.4604,146.1
419.6996,921.4
419.9527,356.6
419.9857,5354
420.0765,190.4
420.4322,485.3
420.6767,331.6
420.7437,22.5
420.886,1037.6
420.9346,527.1
420.9575,960.5
420.9681,257.2
420.9811,1981.2
421.0781,310.6
421.1153,127.1
421.193,923.4
421.2774,702.3
421.4646,322.6
421.5403,640.8
421.6168,339.2
421.6746,130.5
421.9214,1123.4
421.9359,114.7
422.0281,111.1
422.3032,30.4
422.3932,141.5
422.9544,577.3
423.1268,417.9
423.1399,483.7
423.3926,145.5
423.4245,21.7
423.57,20.1
423.6828,334.3
423.7363,18.2
423.876,156.7
423.9256,236.9
424.0191,21.8
424.1567,20.4
424.2234,298.5
424.2828,4570.4
424.8951,458.1
425.1738,699.2
425.2712,205.9
425.3161,344.6
425.3523,120.5
425.5278,468.4
425.5692,422.4
425.6137,475.2
425.8405,213.6
425.9124,189.6
426.2085,121.8
426.2831,257.3
426.4359,116.4
426.4987,146.4
426.5557,269.6
426.5857,19.5
426.8125,114.3
426.8625,563.3
427.1184,18.6
427.6124,232
427.8312,18.4
428.4719,391.7
428.518,659.6
428.6207,337.8
428.7725,74.7
428.857,336.7
428.9385,2671.4
428.9483,540.2
428.955,594.3
428.9639,67
428.9716,237.6
428.9831,250.2
428.9944,849.4
428.9985,887.7
429.0895,216.5
429.2406,24.9
429.277,22.4
429.3501,404.9
429.3735,149.7
429.7088,218.3
429.8655,138.1
430.2996,165.5
430.3367,117.8
430.414,57.7
430.6911,356.8
430.6965,313.4
430.8466,19.8
430.9145,1741.7
431.0034,20.6
431.1381,345.6
431.2178,2769.1
431.3771,94.7
431.3983,121.6
431.6951,312.3
431.7199,21.4
431.7569,527.4
431.9666,164.3
432.2489,29.9
432.2968,225.4
432.6928,427.8
432.8373,405.6
432.9335,200.2
432.9419,390
432.9546,678.9
433.0259,89.7
433.1347,121.2
433.2903,128.6
433.38,703.4
433.7086,19.6
433.7439,159.9
433.7806,202.4
434.0121,304.4
434.2127,305.5
434.2492,499.2
434.342,19.8
434.6608,416.4
434.7088,116.1
434.9192,125
434.9563,15702.6
435.082,572.7
435.2638,145.2
435.4705,224
435.7489,532.7
435.9499,217.4
436.5647,609.9
436.576,110.9
436.6389,232.7
436.7336,167
436.8455,355.1
436.8602,1231.7
436.9293,444.7
436.9551,514
437.0194,116.7
437.2047,1190.1
437.273,17.9
437.2972,456.9
437.3814,442.8
437.3875,237.3
437.6871,116.3
438.1154,426.8
438.1811,25.2
438.196,437.7
438.6803,356
438.7339,337.7
438.927,528.5
438.9725,2494
438.9854,1081.4
439.1512,75
439.2058,141.5
439.5927,511
439.6096,120.8
439.6558,105.5
440.1166,258.2
440.3263,115.8
440.4818,378
440.5007,89.3
440.5271,424
440.5457,112.2
440.6254,276.1
440.7251,522.4
440.8368,53
440.981,245.4
441.0668,197.8
441.1247,101.7
441.2983,275.9
441.3576,459.8
441.6186,519.4
441.6786,595
441.8885,287.7
441.903,294.5
442.0101,170.2
442.3004,23.8
442.3384,836.4
442.5698,694
442.7051,282.4
442.7239,524.7
442.906,351.7
442.9839,406.2
443.0322,218.8
443.1246,260.6
443.2536,1385.7
443.5624,152.9
443.6021,19.7
443.6142,503.1
443.7073,417.5
443.7779,110.2
443.9019,446.2
443.9293,676
443.9397,265.8
444.0314,390
444.1014,87.3
444.4089,246.5
444.7096,353.6
444.8131,18.9
445.0216,154.5
445.1206,22
445.3218,966.2
445.3613,145.7
445.3908,121.5
445.5565,535.9
445.5748,112.6
445.8395,108
445.8599,86.9
446.2647,276
446.4044,365.3
446.5622,732
446.6714,381.2
447.0483,846.2
447.2492,118.2
447.3669,71.4
447.5847,186.6
447.7695,18.2
447.8227,19.6
447.8619,448.2
447.9127,196.9
447.9326,977.5
448.0098,264.5
448.0297,475.7
448.0453,295.6
448.2812,402.6
448.2895,139.7
448.3672,202.4
448.5084,506.3
448.671,298.3
448.7212,550.5
448.816,397.7
448.9327,4398.6
448.9648,278.7
449.0726,120.8
449.1547,1947.6
449.2226,498.4
449.646,510
449.8534,170.1
450.0303,580.7
450.1582,540.9
450.4779,355.7
450.5965,245.9
450.6647,370
450.6849,61.3
450.8571,128
450.93,802.5
451.0159,488
451.1505,114.2
451.1815,21.7
451.2701,19.8
451.5355,186.4
451.6719,18.6
451.814,130.7
451.9222,483.2
452.0985,673.9
452.1336,24.1
452.6011,176.1
453.0573,241.9
453.1313,140
453.1747,1980.1
453.2084,337.5
453.6939,268.7
453.7451,172.1
454.0866,165.2
454.1337,146.7
454.149,399.8
454.8446,88.8
454.9502,36140.8
455.4067,53.9
455.6735,166.9
455.9527,1317.3
456.0461,165.7
456.1487,126
456.4118,21.9
456.5857,145.1
456.8603,464.1
456.9476,8764.5
457.0334,640.9
457.2333,9823.6
457.5187,145.7
457.5597,19.2
457.6316,118
457.6908,237
458.0957,319.8
458.237,447.9
458.3668,108.4
458.3805,137.3
458.5149,125.7
458.6665,298.2
458.7435,221.9
458.962,1229.1
459.1961,263.6
459.2489,367455.1
459.2894,290.4
459.5307,251.9
459.7748,342.3
460.1238,898.7
460.2522,81914.8
460.2709,153
460.4342,127.9
460.7269,523.6
460.765,104
460.7804,205.5
460.8989,231
460.9671,68204.6
461.0914,250.6
461.2557,3440.4
461.3442,99.2
461.3574,482.2
461.6006,919.2
461.6361,467.2
461.7764,267.5
461.9704,4369.2
462.0257,129.5
462.6367,19.1
462.6922,472.8
462.8767,119.9
462.8875,19.5
462.907,212.3
462.9641,18102.4
463.0192,17.5
463.3731,735.5
463.6401,133.8
463.7976,119.2
463.8285,115.7
463.8631,614.1
463.9311,240.1
463.9671,873.2
463.9994,336.2
464.0523,59
464.079,296.6
464.1121,138.7
464.1308,779.8
464.1727,303.5
464.2201,158.9
464.3546,389.3
464.68,371.5
464.7112,18.5
464.951,150.2
464.979,8669.5
465.0128,20.5
465.1843,79.7
465.2374,780.2
465.3769,20.4
465.7213,17.9
465.7524,302.1
465.8886,18.8
465.9138,342
466.2573,157.5
466.4592,18.5
466.5082,114.8
466.5242,207.9
466.6314,237.9
466.6426,21.2
466.9543,330.5
467.0679,409.8
467.3065,534.4
467.9026,343
468.1029,87.3
468.3086,1753.3
468.364,654
468.6407,272.5
468.7135,127.3
468.7922,190.6
468.8165,548.3
469.0957,749.7
469.1421,47.6
469.3291,21.4
469.5232,717.3
469.669,408.5
469.6828,118.6
469.8236,19.6
470.5084,211.4
470.9242,15392
470.9959,2641.2
471.1101,324.1
471.2309,166.6
471.2975,495.6
471.4456,221.2
471.4814,503.1
471.5412,629.1
471.9257,390.2
471.9565,708.2
472.0611,412.9
472.2404,121
472.3044,1060.8
472.7663,91.7
472.8543,778.5
472.907,230.8
472.9213,4212
472.9322,375.1
472.9572,190.7
473.1498,228.6
473.1708,368.6
473.2643,2757
473.2879,400.3
473.7801,242.9
473.924,285
473.9896,152.4
474.1129,17.8
474.23,194.8
474.4255,113.8
474.6295,759.9
474.7257,545.1
474.8034,21.7
474.8233,783.5
474.8694,642.2
475.2228,16299
475.2724,75.6
475.4114,21.2
475.6777,227.6
475.7198,109.8
476.2273,913.4
476.4101,202.6
476.5563,716.4
476.7557,346.8
476.9409,41023.6
477.1569,316.3
477.5519,607.9
477.6861,309.6
477.7118,443.2
477.7259,58.7
477.772,110.3
477.8011,172.5
477.8797,303.2
477.9439,1267.2
478.1967,140.2
478.2213,371.5
478.2608,52.8
478.3298,46962.8
478.7563,113.7
478.8084,306.9
478.8956,146.5
478.9383,12086.9
479.0036,195.8
479.102,530.4
479.3328,8577.3
479.4182,136
479.7514,624.7
479.8528,351.8
479.9416,818.9
479.9987,772.5
480.1325,117.5
480.3381,451
480.4469,87.3
480.8413,653.4
480.9532,1528.2
480.9871,553.8
481.0923,96.5
481.2215,807.7
481.2348,753.1
481.2828,275.4
481.4495,197.2
481.4602,643.9
481.5347,444.6
482.2827,72.6
482.3243,2561.4
482.3594,107.5
482.6057,102.4
482.679,209.6
482.8714,19
483.127,114.7
483.2207,112.5
483.2488,129200.7
483.9419,116.4
483.9973,196.4
484.158,96.8
484.2522,26415.2
484.3101,518.5
484.4872,400.4
484.6826,142.5
484.799,68.3
484.9507,461.8
485.2644,100379.2
485.7291,234
485.7778,18.9
485.8098,154.2
485.8843,138.6
485.9359,97
486.2678,22468.1
486.4342,272.9
486.5996,180.7
486.6425,205.2
486.8981,930.2
486.9688,713.8
487.025,330.3
487.1473,512.7
487.1789,362
487.2801,89635.4
487.8908,105.8
487.9082,535.3
488.0109,620.8
488.0781,126.3
488.2598,385.7
488.2834,20605.5
488.8946,435.1
488.949,340.5
489.0355,218.8
489.0858,75.6
489.215,1016.1
489.3574,580.4
489.4701,161
489.5063,598.5
489.5236,57.1
489.5444,283.3
489.577,402.7
489.5939,17.9
489.7403,130.8
489.8298,199.9
489.9952,353.8
490.1089,163.1
490.133,147
490.2909,5528.9
490.4267,19
490.726,293.1
491.0218,422.1
491.0833,21.9
491.1704,245.4
491.2896,114.2
491.3719,1406
491.4252,186.8
491.4349,125.5
491.5338,111.8
491.5752,94.2
491.5916,213.7
491.9179,145.1
492.0042,195.4
492.0896,218.3
492.1454,53.9
492.154,239.1
492.4791,333.4
492.5617,19.9
492.7183,107.3
492.8335,405.7
492.8842,21.4
492.9152,6050.3
493.2485,445.3
493.5409,276.9
493.8897,247.6
493.9543,277.9
494.066,395.8
494.3244,7309.1
494.7157,312.6
494.7555,197.5
494.9123,1700.7
495.0285,316.3
495.0612,92.6
495.2568,271
495.3276,766.1
495.404,147.6
495.4731,82.8
495.5543,279.4
495.6047,304.3
495.9118,831.3
496.1318,279.3
496.3404,385909.2
496.4821,103.4
496.737,19.4
496.8813,637.7
496.9317,1549
497.1516,661.2
497.1771,91.3
497.1996,57.4
497.3437,93669.6
497.4183,364
497.4574,245.2
497.5098,456.9
497.9998,270.6
498.1426,132.4
498.347,8755.7
498.5001,242.4
498.6666,188.9
498.6842,349.7
498.7081,19.7
498.8832,282.2
498.9675,105
499.2226,4790.2
499.3836,176.3
499.4223,98.9
499.5055,868.3
499.7764,157.8
500.2256,1465.7
500.5196,19.6
500.6674,19.6
500.7759,19.3
500.7933,338.6
500.9032,455.1
500.9825,83.6
501.0962,23.9
501.2384,4163.4
501.2594,1919.9
501.3728,269.8
501.4181,18.1
501.567,221.3
501.6264,162.1
501.879,92.4
502.2938,894.1
502.3295,20675.4
502.3448,19.1
502.4641,510.9
503.0708,200.8
503.1081,115.2
503.254,4040
503.3337,1494
503.6914,121.5
503.7303,196.5
503.7818,663.9
504.1128,123.2
504.173,244.9
504.2232,18.4
504.2597,448.2
504.3068,3514.8
504.3454,7011.3
504.8697,110.7
504.999,92.1
505.1147,377.9
505.1928,516.6
505.3342,283.1
505.3457,728.1
505.3652,725.4
505.5262,571.4
505.6526,119.6
505.8931,268.9
506.0786,136.8
506.266,1175.2
506.3607,6367.9
506.4499,289.9
506.5374,384
506.629,715.7
506.8531,496.9
506.8918,4922.8
507.088,313.9
507.1518,223.1
507.2488,28530.7
507.3649,1574.8
507.5384,295.2
507.7788,514.7
507.7939,211.7
507.8456,479.1
507.9856,61.9
508.0587,145.1
508.0944,221.6
508.1762,531.5
508.2314,57.1
508.2522,5636.5
508.7506,133.6
508.8892,2175.3
509.0047,2252.8
509.2643,9571.4
509.2827,23.8
509.8919,512.4
510.1002,158.3
510.241,489.1
510.273,596.6
510.3557,4830.2
510.642,595.6
510.6884,20.4
510.7188,383.5
510.7278,108.9
510.8237,593.9
510.8872,442.7
510.9024,943
511.0359,164.2
511.1185,414.5
511.34,476
511.4378,20.8
511.5346,140.5
511.5542,74.1
512.2721,133.6
512.3396,669.2
512.6073,464.5
512.7908,243.7
512.9086,18342.3
513.0301,127
513.2933,442.2
513.5371,498.8
513.7999,63.8
513.9125,364.4
514.034,285.1
514.0944,407.1
514.1546,668.5
514.2134,398.1
514.3045,304.3
514.3751,124.7
514.7367,770.5
514.9059,6982.9
515.022,533.9
515.0428,240.3
515.5805,388.4
515.7031,101.1
515.9853,134.7
516.3067,14431.2
516.488,172.5
516.5924,478.8
517.233,20.3
517.3096,973.4
517.6804,18.9
517.7598,284.1
518.0026,279.1
518.1185,579.7
518.2145,661.8
518.3224,662730.6
518.4302,89.3
518.6042,549.8
518.651,117.2
518.7044,188.4
518.8542,93.4
518.9031,270.7
518.9257,30406.2
518.9482,361.4
519.0879,114.7
519.1032,628.3
519.3257,153855.6
519.4162,407.7
519.8395,145
519.9292,432.2
520.198,165
520.247,304.2
520.2798,860.7
520.3095,579.5
520.3404,123595.5
520.6048,402
520.7013,99.9
520.7249,21.3
520.8053,590.2
520.8836,279.9
520.9227,17125.3
520.9725,348.2
521.2034,18.5
521.3015,180
521.3437,31004
521.4449,176.4
521.8668,123
521.9266,515.7
521.9992,624.4
522.0399,375.5
522.2569,948.3
522.2703,412.4
522.356,114090.2
522.4865,126.7
522.5085,110.2
522.6211,146.5
522.865,733.8
522.9201,2181.9
522.9376,4763.1
522.9685,323.8
522.9817,279.3
523.1321,456.1
523.1487,822.2
523.3594,28835.1
523.4452,233.5
523.5378,135.6
523.6405,263.7
523.6986,678.9
523.9526,103.2
523.9907,143.8
524.0167,1113.1
524.0296,117.3
524.0507,728.9
524.0809,23.2
524.1653,216.8
524.248,18.8
524.3477,718.9
524.3717,133337.2
524.5829,368.5
524.6893,250.8
524.702,107.2
524.8547,295.3
524.883,545.1
524.9346,971.9
524.9479,202.7
525.0416,155.8
525.2839,292.6
525.375,31292.8
525.6597,186.7
525.7218,135.5
525.8297,135.8
525.9511,239.2
526.0655,19
526.0795,401
526.0992,157.1
526.1972,127.3
526.3297,2618.9
526.3783,1560.3
526.5443,86.3
526.6101,18.1
526.65,241.2
526.684,469.9
526.6983,205.7
526.7762,540.2
526.8706,20
526.9489,910.1
527.1919,125.4
527.2754,163.4
527.3022,19.9
527.3331,517.4
528.0437,102.3
528.2819,214.7
528.702,131.6
528.7342,189.3
528.8828,5132.7
528.955,2392.4
529.3979,368.2
529.6183,131.3
530.2367,497.5
530.3231,355.6
530.3592,2779.7
530.8113,317.4
530.8805,4376.6
531.1802,160.4
531.2486,2645.7
531.3287,430.2
531.4651,21.4
531.6221,197.7
531.9466,650.3
532.0349,110.9
532.215,356.2
532.2801,1865
532.2989,180.3
532.3376,8610.1
532.3878,432.4
532.6761,188.9
532.8794,438
532.9662,599.4
533.2635,800.7
533.313,535.4
533.3316,329.2
533.3407,684
533.3946,326.5
533.4939,831.5
533.6334,149.6
533.6502,61
533.7041,489.7
534.1745,736.9
534.1841,22.7
534.248,102.5
534.2964,161523.1
534.3178,1741
534.3515,401.9
534.4579,164.5
534.4878,166.5
534.5394,577.4
534.6811,145.2
534.7212,287.5
534.8996,16346
535.026,293.4
535.1745,69.5
535.2998,37558.6
535.5884,231.7
535.9042,526
536.295,9261.2
536.3311,541.5
536.4469,77.9
536.5751,417.3
536.6587,253.7
536.8368,21.4
536.897,9134.1
536.9174,365.3
537.1012,163.9
537.2164,190.9
537.2999,1156.5
537.3431,759.2
537.4231,106.8
537.6188,21.7
537.7781,719
537.8235,102.5
537.9004,478.1
538.0761,21.4
538.2393,874
538.2879,504.8
538.302,141
538.4135,934.9
538.6993,391.3
538.7659,342.6
538.8014,19.5
538.894,410.2
538.9124,1741.4
538.933,1183
538.9845,684.5
539.0195,228.9
539.0732,100.9
539.4303,129.7
539.5597,181.2
539.592,326.8
539.6769,309.4
539.6904,351.9
539.8063,270.3
540.0178,20
540.1467,20.3
540.2478,110.1
540.3877,1079.1
540.5022,454
540.5828,112.3
540.7938,354.4
540.8336,127
541.7738,100.1
541.8255,446.6
542.0573,134.7
542.1568,94.2
542.3224,205566.7
542.3682,876.5
542.5696,383.9
543.3259,51282
543.3511,110.7
543.4028,3875.8
543.4719,56.8
543.5382,257.5
543.7416,135.8
543.8012,255
544.2731,984.6
544.3381,188961
544.5343,500.4
544.7923,138.3
544.856,951.1
544.9286,448.9
544.9502,1389.5
545.3415,48026.8
546.0924,229.1
546.2453,85.6
546.2592,20.2
546.3537,191390.9
546.5893,135.6
546.6228,549.8
546.8538,962.9
547.0961,20.7
547.357,46943.8
547.7154,459.7
548.1954,509.5
548.3116,1886.6
548.3607,4830
548.6529,156.9
548.7695,119.2
548.8467,268.9
549.0367,677.4
549.2576,83
549.307,21.5
549.6006,95.7
549.9636,324.7
550.0304,87.3
550.2405,350.9
550.2913,881.6
550.3523,464.2
550.6606,94.9
550.8736,2239.5
551.2293,445
551.3054,125
551.5052,528.1
551.6716,93.7
551.9581,19.2
552.1048,468.5
552.1265,300.8
552.5541,341
552.684,530.9
552.7873,56.5
552.8384,93.3
552.8712,1552.2
553.3692,156.2
553.5666,801.4
554.0136,106
554.2029,360.7
554.6331,726.1
554.659,389.6
554.7944,681.4
554.8843,169.6
555.0413,566
555.0672,119.2
555.5137,211.2
555.6892,620.3
556.0261,134.6
556.2728,1439.9
556.2882,148.7
556.3101,372.4
556.5233,212.7
556.6663,360
556.8507,691.9
556.9138,254.3
557.042,343.4
557.1905,291.1
557.259,334.6
558.0557,294.5
558.1884,372.1
558.2964,50387.2
558.9014,246.7
558.9437,112.2
559.0204,149.1
559.243,128
559.3,9045.5
559.3963,891.2
559.6582,731.4
559.8505,413.1
560.2932,838.8
560.3119,43705.2
560.5337,19.7
560.8295,742.9
561.021,714.2
561.0329,22.2
561.0625,318.1
561.1078,129.6
561.2131,620.2
561.263,137.3
561.3154,9420.5
561.4133,11163.3
561.68,20.8
561.88,314.3
561.955,105.2
562.028,291.7
562.0935,182.6
562.1749,118.4
562.3122,1214.1
562.3278,43555.8
562.4171,1706.6
562.5108,776.3
562.7098,324.1
562.8052,109.3
563.0629,125.6
563.2247,119.1
563.3135,799.2
563.3309,6890.4
563.3564,319.5
563.4287,5437.4
563.4683,351.4
563.5911,307.4
563.6997,495.7
564.0276,674.4
564.0531,689.1
564.1907,163.7
564.2515,231
564.3265,607.3
564.3874,439.8
564.588,375.3
564.7065,129.2
564.7257,135.9
564.9021,113.1
565.1328,96.9
565.1988,116.9
565.3281,166.3
565.8589,130.8
565.8735,296.7
566.0933,117.4
566.1293,155.2
566.2845,570.8
566.3225,41177.6
566.449,19.2
566.767,762.4
566.9648,1023.5
567.2365,201.2
567.3029,783.5
567.3259,10763.2
567.4661,354.3
567.5127,381.1
567.8158,108.4
567.9195,480.3
568.0267,461.4
568.152,33.4
568.2075,18.6
568.3382,17443.8
568.3579,477
568.3863,666.4
568.6039,23.5
568.6244,84.4
568.6709,380.7
568.733,359.1
569.0885,137.3
569.2165,405.4
569.3417,3679.9
569.3727,234.1
569.4904,276.1
569.7902,162.8
569.9996,255.1
570.1708,206.6
570.4387,149.2
570.5679,126.7
570.8677,5216.5
571.0609,333
571.2039,663
571.2647,278.7
571.8096,320
572.2005,56.3
572.3486,215.1
572.5485,124.3
572.615,471.3
572.6449,545.6
572.8206,17.3
572.8649,4938.7
573.0118,21.8
573.3565,209.7
573.4679,542.3
573.606,482.4
573.6513,429.7
573.676,97.6
573.7485,18.5
573.8522,226.9
573.8783,169.6
573.961,113.2
574.2591,19.5
574.2844,2339.8
574.3564,525.2
574.4061,330.6
574.8609,383.7
574.9807,315.6
575.2382,131
575.3413,441.9
575.5042,7630.5
575.9439,428.9
576.2053,169.7
576.2812,7896.7
576.4531,248
576.46,265.5
576.4719,222.2
576.5072,1169.9
576.5613,151.4
576.6474,18
576.7089,249.4
576.8598,361.2
576.8841,11032.9
577.2367,27.3
577.3839,761.8
577.4295,449.5
577.5186,1001.9
577.5713,233.8
577.7607,297.9
577.8889,342
577.9363,116.2
578.0913,19.1
578.2251,820.7
578.2786,1570.5
578.3689,765.3
578.5211,102.8
578.6302,62.1
578.7607,366.9
578.8815,9600.2
579.0207,308.2
579.2332,148.1
579.3555,86.8
579.4573,178.5
579.606,103.3
579.8191,18.7
580.0632,124.1
580.1035,124.2
580.2359,298.6
580.2938,483.2
580.7428,277.3
580.7812,658.5
580.8783,2416
580.8961,1703.9
580.9162,222.7
581.4518,110.3
581.5871,293.3
581.8799,106.6
581.9551,282.3
581.9897,206.2
582.2967,10850.5
582.4148,240
582.454,123.3
582.4753,430.9
582.5289,906
582.5539,1101.4
582.5887,394.8
582.6572,763.4
582.6744,443.9
582.7176,539.6
582.7494,19.8
582.8265,571.7
582.8436,435.3
582.894,864.4
582.9404,314.6
583.0062,122.9
583.0514,103.4
583.0859,307.7
583.2554,2565.9
583.2983,878.1
583.7307,204.8
583.8458,113.9
583.8603,314.7
583.8708,378.3
583.8798,447.8
583.8863,439.5
583.9029,1314.4
583.9552,293.2
584,195.4
584.0245,20.7
584.242,255.1
584.3132,1500.7
584.834,93.7
585.0084,197.4
585.1861,18.5
585.2538,282.4
585.2712,4812.2
585.3165,930.7
585.3318,259.9
585.5281,146.4
585.5824,19.1
585.6544,118.1
586.2422,402
586.2702,349.7
586.3109,4304.8
586.4084,540.3
586.6216,938.9
586.6465,740.8
586.8415,2577.4
586.9127,946.7
586.9316,141.2
586.9736,106.3
587.001,894.2
587.1314,341.2
587.2752,514.8
587.9855,284.4
588.2963,148.4
588.3847,354.5
588.7989,316.8
588.8384,3147.5
588.8761,21.9
588.9117,442.6
589.1618,322.6
589.582,635.7
589.7191,299.2
590.1479,235.5
590.2739,804.9
590.3232,4262.6
590.5127,356.9
590.6998,20.2
590.8377,298.3
590.9601,220.6
591.0176,208.5
591.1999,174.8
591.2816,355.6
591.3613,407.2
591.8893,100.7
591.9159,777.4
592.2368,500
592.4556,177.8
592.7352,479.2
592.8585,6009.4
593.0107,221.1
593.0984,496.6
593.2111,28.9
593.3906,108.9
593.4625,303.6
593.6214,59.6
593.6624,94.8
593.8605,468.2
593.8928,441.1
593.9089,223.2
593.938,21.2
594.066,86.9
594.2541,96.6
594.6121,70.5
594.8554,4795.4
595.4888,198.2
595.9366,260.6
595.9993,169.8
596.852,2067.8
596.8708,1351
597.4504,10295.5
597.4862,8601.9
597.7915,270.7
597.9303,330.7
598.2313,196.7
598.3992,396.7
598.4561,2058.1
598.4894,2156.5
598.8676,935.3
598.9393,252.7
599.3069,303.5
599.4151,444.6
599.466,6809.6
599.503,2549.5
599.8764,849.5
599.9927,181.4
600.0544,549.1
600.1145,373.3
600.1619,114.8
600.2647,19.5
600.2833,20
600.4258,107.8
600.4873,113.1
600.7751,165.7
600.8173,99.4
600.9838,508.4
601.0465,359.5
601.413,90.8
601.4818,504.1
601.8287,140.7
601.9704,458.7
602.2253,335.9
602.2968,305.1
602.7488,19.5
602.9239,366.1
603.1448,87.4
603.1893,537.6
603.3777,336
603.4847,228.4
603.5356,450.3
603.7221,359.9
603.825,589.4
603.8489,287.2
604.223,133.1
604.3119,1709.5
604.5102,300.6
604.6489,394.1
604.8143,418.6
604.9982,647.5
605.1689,623.7
605.2042,439.6
605.2349,133.7
605.2798,558.2
605.3958,243
605.9637,23.3
605.9809,18.8
606.0442,104.9
606.071,782.8
606.1937,520.2
606.2995,105.9
606.3557,698.8
606.4344,127.2
606.7492,170.7
606.7755,150.2
606.8102,293.9
606.8822,68.3
607.1302,148.2
607.1716,8516.1
607.2577,128.3
607.285,531.5
607.3048,19
607.6755,909
607.7186,136.4
608.0281,504.6
608.1583,234.9
608.1755,778.1
608.3633,940.6
608.6346,470.5
608.6829,101.5
608.8329,1741.7
608.9112,20
609.1963,759.3
609.9126,18.5
610.3117,1403.8
610.467,408.7
610.8306,595.7
611.0379,203.5
611.0805,997.6
611.1186,160.1
611.2187,120.1
611.5125,121.3
611.5513,301.8
612.2882,624.4
612.3491,221
612.3919,99.9
612.446,130.5
612.5684,661.7
612.827,833.6
613.1619,58.6
613.2975,182.5
613.3465,499.6
613.7726,419.6
614.1151,342.9
614.431,789.6
614.503,329.9
614.932,369.9
615.4395,528.9
615.4602,15318.4
615.5397,18.7
615.7588,374.2
615.9814,470.4
616.0793,171.9
616.2927,279.5
616.3363,234.3
616.4642,2986.1
616.8684,422.5
616.914,314.1
617.0548,348.3
617.1495,129.2
617.2479,274.5
617.2626,99
617.4217,120.5
617.4761,57578.1
617.5053,310.6
617.8006,145.3
618.0855,129.8
618.4794,18242.2
618.5013,372.3
618.7253,362.3
619.4916,50259
619.8741,327
620.0721,352.7
620.2057,281.1
620.4954,15851.9
620.7245,458.7
620.7708,514.9
620.8809,1120.7
621.021,824.9
621.1446,89.2
621.1869,153.7
621.2395,374.7
621.2682,823.9
621.3306,240.5
621.4574,1961.4
621.4865,6114.6
621.5144,410.5
622.0558,332.6
622.223,118.1
622.4307,527.6
622.4463,294.5
622.49,373.7
622.8,301.9
622.983,57.8
623.1366,27581.1
623.3851,22.7
623.472,306
623.5039,1068.8
623.7281,305
623.8819,510.1
624.1402,4731.6
624.4446,21
624.4564,21.8
624.807,720.9
625.0131,684.9
625.0422,274.1
625.1425,354.1
625.4924,253.3
625.5204,177.7
625.5609,358.2
625.5778,226.1
625.6168,20
626.0124,566.8
626.2728,338.8
626.2959,138.2
626.3299,115.7
626.3823,253.4
626.416,21.3
626.4685,599.8
626.9258,1142.2
627.0834,505.3
627.1108,139.9
627.3252,169
627.5353,829.6
628.1531,118.5
628.1837,18.2
628.2313,451.1
628.294,124
628.3076,592
628.5403,459.8
628.5552,786.3
628.606,1001.4
629.0184,289.9
629.1535,60733.8
629.2422,91.2
629.64,155.1
629.7377,209.3
630.1022,83.5
630.1256,63.8
630.157,11034.3
630.236,93.1
630.3519,252.8
630.4208,19.8
630.7162,202.2
630.8212,1001.5
630.9266,560
631.1292,129
631.1584,692.3
631.4328,342.4
631.7956,486.7
632.4531,747.1
632.4833,134.5
632.8556,763.9
632.9793,19.6
633.0991,115.1
633.1773,343.2
633.2077,536.5
633.2493,314
633.4503,4927.7
633.7207,795.4
634.4538,1472.6
634.6842,245.2
634.843,2368.3
634.9708,442.1
635.4659,4762.7
635.7964,455.6
636.4634,1199.3
636.5602,689.1
636.8402,3493
637.0055,310.7
637.2732,708.1
637.4511,605.4
637.5016,3440
637.8183,459.6
637.8445,379.1
637.924,82.4
637.9541,415.4
638.1112,109.5
638.1945,21.4
638.453,1041.3
638.4728,91.8
638.5261,132.3
638.8379,495.2
639.0546,100.6
639.6007,575.5
639.9123,351.6
640.3378,19.8
640.4628,769.2
641.1887,154.8
641.7286,22.3
642.5275,20.2
642.5576,340.2
642.8782,579.7
643.0313,279
643.0502,168
644.102,103.3
644.2653,126.5
644.7197,458.9
644.9395,230.3
645.1186,20047.4
645.3198,569.1
645.3637,183.2
645.3757,978.5
645.4162,115.1
645.456,515.9
645.636,105.3
646.0296,248.6
646.1223,2821.5
646.1686,128.6
646.4294,848.3
646.4593,116.4
646.5248,21.1
646.6807,543.6
646.6882,930.5
646.693,905.2
646.7066,194.3
646.9319,787.6
647.0946,640.6
647.125,210.9
647.3367,680.9
647.476,904.1
648.0838,104.7
648.5702,436.2
648.6102,521.9
648.7508,625.8
648.7648,20.2
648.9295,621.8
649.1295,259.9
649.2777,113.3
649.3318,133.9
649.3459,21.3
649.4326,754.4
649.6907,341.1
649.7355,165.7
649.7651,224
649.8411,216.7
649.8792,937.7
650.1761,103.3
650.4401,4848.7
650.6465,289.6
650.717,223
650.8174,2324.4
651.1355,53615.6
651.3063,198.6
651.4419,355.5
651.5354,76.3
651.7125,191.4
652.0648,363.1
652.1155,271.5
652.1392,9511.3
652.2336,792.5
652.4096,238.8
652.5753,124.4
652.8144,2199.7
652.934,181.3
652.9961,363.8
653.1117,952.7
653.1396,582
653.4872,805.9
653.6518,522.7
653.962,20.6
653.9779,123.7
654.1043,566.8
654.1501,148.4
654.333,769.1
654.5733,420.3
654.5971,23.1
654.8118,1321.7
655.202,20.2
655.347,19.5
655.6091,150.1
655.8853,426.5
656.2059,761.5
656.447,109.9
656.468,541
656.5743,129.2
656.6231,153.8
656.6388,287.9
656.8376,257.5
656.8568,202.8
656.8902,422.1
656.9714,154.9
657.0575,26.1
657.2386,560.9
657.4495,574
657.5225,299.6
657.7132,463.4
657.8447,206.8
658.0498,818
658.2177,158.6
658.2858,339.6
658.43,1374.3
658.9358,81.5
658.9549,245.8
658.962,158.7
659.4012,234.4
659.7787,60.1
659.9366,1055.3
660.0316,87.5
660.0831,1122.2
660.3941,128.3
660.5789,770.2
660.6145,115.2
660.6827,128.5
660.6999,21
660.9607,351.5
661.0831,7273.9
661.4692,2016.7
661.5065,1036.8
662.05,333.4
662.0863,312.3
662.1241,489.1
662.2848,340.8
662.349,68.3
662.705,365.5
662.803,124.5
662.8452,525.8
663.09,254.6
663.2648,20.5
663.4547,1480.1
664.1784,482.2
664.2399,23
664.2555,793.9
664.2912,302.4
664.4499,17.4
664.4699,2757
664.5167,512
665.2291,110.7
665.3421,175.9
665.4225,214.4
665.4702,582.7
665.5336,139.5
665.9292,142.7
666.1827,17.8
666.3557,462.4
666.4844,4516.1
666.6377,332.6
666.7906,442.5
666.8626,364.8
666.9179,184.9
667.0563,175.4
667.1001,23388.4
667.9013,79.4
668.1038,3698.5
668.2143,341.3
668.7829,508.9
669.0854,350.2
669.1068,616.6
669.4146,287.2
669.9662,901.3
670.3454,21
670.4484,343.6
670.7849,673
670.9882,177.1
671.0929,272.6
671.2517,20
671.4363,317.1
671.4815,20.5
671.5226,141.8
671.859,308.3
671.9043,429.6
672.4216,5033.9
672.5331,837.1
672.5471,189.7
672.6257,752.8
672.6584,22.4
672.8207,70.3
672.8915,389.9
672.965,399.1
673.0055,106.6
673.1174,51982.4
673.5085,147.1
673.6915,185
674.1215,9461
674.1926,155.2
674.3549,88
674.5407,765.5
675.0535,452.7
675.0937,454.1
675.1224,387.3
675.447,84.5
675.5445,12256.3
675.634,87.5
675.7571,117.3
676.0485,1130.8
676.0938,453.4
676.3003,128
676.5259,170.6
676.5478,930.9
676.6067,19.1
676.7682,285.6
676.7881,409.8
676.9484,932.8
677.1029,943.2
677.3805,114.1
677.5422,356.4
677.7246,222.6
678.1541,134.8
678.2346,114.5
678.4701,234
678.4937,254.5
678.974,564.5
679.5074,21
679.5398,163.3
679.6257,682.1
679.7341,183
679.9341,491
679.9587,209.2
680.0418,118.8
680.5572,773.6
680.6448,24.7
680.9792,246
681.0338,28
681.1499,140.1
681.201,22.6
681.4821,21.9
682.0654,5725.8
682.5593,253.5
682.805,111.2
682.8295,120.8
682.8565,210
682.9574,329.1
682.9791,105.2
683.0642,2312.9
683.1065,19.9
683.2344,207.4
683.4159,507
683.4511,1960.6
684.4527,801.5
684.6014,471.3
684.7038,92
684.8343,312.9
684.9512,831.7
685.0884,212.9
685.2196,153.8
685.4372,6576.4
686.0592,193.8
686.1792,139.9
686.239,123.5
686.439,828.4
686.5751,18.1
686.9311,197.4
687.3147,754.3
688.1224,104.8
688.2447,225
688.3962,953.4
688.5287,105
688.8232,151
688.9646,25.3
689.0817,16719.2
689.0913,15461.9
689.1336,19.7
689.2371,211.9
689.2934,202.4
689.4239,652.5
689.5592,1810.5
689.6287,74.4
690.0555,343.3
690.0944,1474.4
690.3299,172.1
690.3957,17.4
690.6967,434.4
691.0644,111.1
691.0843,89
691.3285,122.6
691.3531,107.9
691.3607,114.8
691.6535,765.2
691.8009,111.8
691.9642,144.3
692.2373,606
692.2785,346.1
692.3865,136.7
692.6097,738.8
692.7066,593.2
692.9544,110.6
693.3062,621.8
693.361,67.7
693.4977,488.2
693.5392,647.2
693.8892,392.4
693.9127,625.3
694.036,126.2
694.2985,278.7
694.5665,778.4
694.8002,819.2
695.0566,112.5
695.0992,31039.4
695.1623,459.3
695.2252,139.1
695.3429,243.3
695.4539,160.6
695.5117,2665.8
695.6337,316.2
696.1032,6828.1
696.5621,799.5
696.59,289.3
696.7266,104.4
697.0718,145.4
697.1249,176.3
697.1459,281.1
697.2161,116.8
697.3871,480.4
697.4292,285.3
697.5267,15777.3
697.6962,155.6
697.7668,133.9
697.791,123.7
698.0286,848.7
698.0921,258.2
698.5299,5353
698.5678,18.2
698.7322,320.7
698.7563,247.5
699.2031,198.6
699.3596,508.8
699.5277,502.1
699.6275,120.1
699.7787,21.4
699.7953,105.2
699.879,140.9
699.9242,754.8
700.0185,345.4
700.3497,171.6
700.6045,520.4
700.8174,291.3
701.0229,96.5
701.2881,477.4
701.4115,385.5
701.4624,573.1
701.5602,31336.6
701.7372,151.8
702.1965,466.8
702.3429,3805.6
702.3657,926.9
702.416,266.7
702.5637,8618
702.6153,219.4
702.6564,390.6
702.7805,703.8
703.0207,521.1
703.2985,191.7
703.3467,107.5
703.3942,121.6
703.4322,290.2
703.4566,811.1
703.5761,81370.4
703.81,203.9
703.9406,816.5
704.0467,3554.1
704.0661,138.4
704.1695,609.5
704.4485,4281.9
704.5795,31640.5
704.6712,686.8
704.7098,306.6
704.7493,390.1
705.0547,2363.6
705.299,542.5
705.3532,430
705.5301,509.5
705.5821,2762.2
706.0607,121.7
706.1396,118.1
706.3196,282.3
706.553,19.3
706.6462,19.8
706.811,86.2
707.0025,22.8
707.0321,145.1
707.2427,349.9
707.4078,151.8
707.9318,328.9
707.9537,447.8
708.0871,310.1
709.0754,121.6
709.3795,835.2
709.5008,62.3
709.7387,643.8
710.3116,387.1
710.5844,123.6
710.6666,124.3
710.7737,511
710.9932,119.2
711.063,9391
711.0744,13118.3
711.3104,75.9
711.542,5545.6
711.5728,308.8
712.0147,17.7
712.0321,76.6
712.0771,788.7
712.5732,349.6
712.7717,925
712.8431,19.3
713.0811,251.8
713.502,1230.8
713.5602,409.6
713.7753,76.7
713.7973,130.4
713.8606,282.6
713.9962,170.3
714.0559,201.9
714.2404,151
714.5099,563.1
714.5716,216.2
714.8288,124.3
715.1427,922.2
715.4702,97.5
715.4835,105.8
715.5145,723.6
715.7157,315.2
715.9911,387.8
716.1111,19.9
716.1399,1145.6
716.6054,23.1
716.6821,120.4
716.8497,19.5
717.023,169.9
717.0816,14495.5
717.5121,176
717.5922,87.7
717.6245,94.5
717.9495,438.8
718.0601,135.8
718.0846,983.2
718.2617,137.2
718.5507,384
718.5736,475
718.5871,468.1
718.818,21.5
718.8781,105.4
719.0409,173.5
719.1156,632.4
719.2304,328.9
719.3557,157.2
719.4483,147.9
719.4644,1342.8
720.0094,300.4
720.0226,373.1
720.4323,228.5
720.9209,184
721.0149,944.1
721.4792,58508.2
721.8176,203.4
721.9398,179.2
722.1755,86.7
722.2828,678.9
722.4822,23402.9
722.608,327.8
722.6315,715.6
722.7786,19
722.9038,554.4
722.9289,161.3
722.9451,158.2
723.2687,302.2
723.4485,677.4
723.4952,7610.9
723.5423,29882.4
723.6229,18.4
723.8932,226.4
724.3225,481.6
724.4966,371
724.5264,302.5
724.5459,12330.2
724.674,97.3
724.9275,232.9
725.1061,524.5
725.1257,136.4
725.1613,280.6
725.338,122.7
725.4595,17.8
725.5582,78421.9
725.8083,179.2
725.834,60.7
726.0289,517.9
726.066,220.8
726.0838,477.7
726.2832,336.1
726.5614,32183.8
726.9345,163.6
727.0479,1279.4
727.5344,151.9
727.5629,3534.9
727.7308,281.3
727.8796,19.6
727.9248,91.1
727.9936,179.7
728.031,129.1
728.0526,144.1
728.3867,209.7
728.4321,129.8
728.52,1339
728.7132,426.4
729.034,88.8
729.1906,100.5
729.5669,20.5
729.5913,11865.5
730.482,915.5
730.5395,8425.3
730.5949,1979.1
730.8254,262
731.2136,20.2
731.2571,946.7
731.4174,137.4
731.5424,1680.9
731.6078,4744.1
731.7441,18.9
732.4793,1340.2
732.5552,31222
732.6117,943
732.875,266.6
732.9199,112.6
733.0475,3829.3
733.0568,5988.8
733.5585,11087.3
733.7701,502
734.0853,472.3
734.468,281.4
734.5016,504.9
734.571,7535.2
734.7377,96
734.9785,568.1
735.12,128.2
735.2143,530.3
735.3754,286.4
735.5748,1469.5
735.9627,275.8
736.0124,122.6
736.4053,128.6
736.5995,486.1
736.6548,283.3
736.9934,139.8
737.0746,274.7
737.3343,232.4
737.4519,11473.3
737.6472,326.6
737.8248,136.3
738.1959,19.6
738.4565,2493.3
738.5713,99
738.793,377.4
738.901,231.2
738.9347,96.5
738.9568,547.3
738.9873,817.1
739.0631,7199.7
739.2389,456.7
739.4508,894.3
739.4893,60
739.5175,1130.7
739.839,148.9
740.0603,257.8
740.4768,133.1
740.6811,441.3
741.3545,214
741.4522,19.1
741.5321,10503.8
741.7205,362.9
741.8301,153.4
741.8871,67
742.5355,3243.4
742.5751,8769.6
742.7386,520.2
742.8115,809.4
743.3356,335.8
743.451,677.4
743.5185,322.7
743.5804,2374.1
743.6805,139.4
743.7378,682.6
744.1437,360.1
744.2289,330.8
744.3675,317
744.4317,100.5
744.5558,8073.9
744.5915,6746.3
744.6785,357.5
745.3495,397.1
745.3942,278.8
745.4791,29352.5
745.5582,935.7
745.5954,1213.7
745.6361,218.4
745.7978,26.4
746.1644,372.3
746.224,927.9
746.4832,9557.3
746.572,3667.4
746.6078,4057.3
746.8707,262.3
747.3749,150.3
747.4953,11954.4
747.5565,22
748.0099,291.5
748.2039,112.1
748.3282,204.1
748.4976,384.5
748.5894,101.4
748.615,136.9
748.7651,163
749.0101,552.1
749.0321,369.3
749.5088,2590.7
749.6534,438.8
749.6659,223
749.8415,165.1
749.9695,467.3
750.5112,648.6
750.5407,310.8
750.7166,167
750.9445,475.5
750.9974,449.1
751.0837,284.2
751.309,387.8
751.3186,394.7
751.3638,176.3
751.5737,4948.5
751.9742,73.2
752.1419,189.4
752.5214,9012.2
752.5791,985.9
752.8459,332.2
752.9514,506.2
753.203,231.5
753.4097,117
753.4319,157.9
753.4878,897
753.562,195.1
753.6223,712.9
753.8214,123.5
753.8578,404.7
754.3837,289.8
754.4177,257.3
754.4445,393.9
754.4736,95.6
754.503,202.5
754.5374,21798.9
754.7629,632.2
754.923,127.5
755.0377,2455.3
755.1427,445.4
755.4954,614
755.541,7381.5
755.8181,636.8
755.8375,56.8
755.8864,477
756.0335,193.7
756.0609,402.2
756.288,20.2
756.331,300.4
756.4596,362.9
756.555,44545.7
756.6853,168.4
757.333,504.5
757.5114,624
757.5581,17257.4
757.6239,1095.2
758.458,107.1
758.5001,173.2
758.5708,1173349.5
758.6236,382.7
758.8638,138.9
759.0398,465.5
759.5132,689.8
759.5741,511750.7
759.6392,981.1
759.761,337.4
760.182,369.7
760.401,188.4
760.4182,439.3
760.485,342.5
760.5719,58740.3
760.5875,337053
760.641,71.5
761.0447,3487.4
761.4536,2117.6
761.5902,170979.4
761.6451,204.7
762.2132,66
762.2946,486.5
762.593,39031.7
762.7341,306.4
762.9786,498.4
763.163,284.5
763.228,20
763.3864,523.9
763.446,868.7
763.5244,306.7
763.5952,2712.4
763.9762,187.7
764.5575,1247
764.7059,117.2
764.9256,404.3
764.9779,627.1
765.5026,245.1
765.616,21.5
765.8491,194.4
766.1568,348.3
766.3117,166.5
766.5369,4787
766.5753,25367.7
766.62,145.9
766.9879,222.8
767.1425,225.9
767.3181,118.8
767.3758,98.7
767.5017,429.3
767.5499,544.2
767.5787,9358.4
767.7414,140.2
768.3672,531.5
768.3872,105.4
768.4211,293.5
768.4922,1026.5
768.5589,235
768.5917,30752.9
768.9678,821
769.2942,116.3
769.4783,4470
769.5302,121.4
769.5564,1232.1
769.595,14812.2
769.9606,814.3
770.195,162.2
770.4216,20.7
770.46,137
770.5086,1683.2
770.5739,586
770.6083,4062.1
770.9926,4175.2
771.0139,182.9
771.0884,391.6
771.1178,286.7
771.5135,602.7
771.533,235.3
771.6126,825.1
771.7541,124.5
772.0106,235.5
772.587,17358.7
772.6838,320.9
772.7308,270.5
772.8942,787.9
772.958,127
773.0521,96.2
773.5115,2044.8
773.5901,6109.2
773.6454,470.1
774.6035,1748.9
775.1192,126
775.6066,647.8
775.7903,306.2
776.5224,1845.6
776.5914,150.2
776.6971,423.3
776.7247,689.7
776.7641,180.6
777.0101,3036.8
777.0916,444.1
777.1756,311
777.405,217.8
777.4817,498.7
777.5431,947.5
778.0242,565.2
778.0447,1721.6
778.5373,27021
778.9953,312.9
779.1369,116.5
779.2823,118.8
779.5407,10797.8
780.0052,544.4
780.0688,106.9
780.2898,132
780.4713,309.3
780.5528,694090.1
780.5912,469.1
780.8478,67.8
780.893,417.6
780.909,63.4
781.2835,102.4
781.5563,311199.6
781.6236,878.1
781.6704,21.3
781.8685,422
781.9364,375.5
782.2488,108.7
782.5705,690709.3
782.7716,169.3
783.0281,3474.9
783.1351,534.4
783.5738,323630.4
783.6509,329.4
783.7842,146.1
784.5872,347325.3
784.7744,209.5
784.9443,384.4
784.9773,331.6
785.0036,147.6
785.1664,21.8
785.4352,19
785.5555,354.1
785.5902,167572
785.6319,268.6
785.6547,6256.3
785.9138,493.6
786.5296,123
786.6027,321840
786.6573,1072.2
787.1756,103.3
787.4652,786.3
787.5345,124.8
787.5656,95.1
787.6056,154806.1
787.6711,1519
787.7803,99.9
788.2016,142.4
788.3666,23.5
788.5359,131.8
788.5575,8167.2
788.6061,23924.4
788.6219,12265.5
788.6739,860.2
788.7963,107.3
788.834,233.7
788.9675,249.4
789.2819,119.2
789.3024,377.3
789.5,23.8
789.5636,1236.8
789.6226,6650.3
789.8335,367.3
790.0486,747.9
790.2752,339.7
790.5735,13386.5
790.624,794.2
790.6867,182.9
791.5765,5444.2
791.6413,429.5
791.7937,892
791.9893,339.3
792.0938,878.3
792.5521,1104
792.5912,8458.3
792.7537,376.3
792.9274,675.7
792.9851,808.8
793.2669,144.3
793.4028,131.1
793.424,193.3
793.5545,536.2
793.5955,1744.8
793.7952,112.4
794.2582,830.2
794.331,298.9
794.3596,21.9
794.5103,3074.7
794.5691,6692.9
794.6072,42845
795.0198,353.1
795.3114,107.8
795.4823,19.6
795.5737,578.5
795.6107,19362.6
795.7611,271.5
796.5267,126253.9
796.5863,6198.7
796.6247,4563.8
796.9107,587.7
797.4923,173.1
797.5301,56777
797.5897,2227.5
797.6264,1801.5
797.8007,138.2
797.916,260.2
797.9666,129.6
798.5439,27533.8
798.567,1106.2
798.6026,385.8
798.907,121.8
799.0005,483
799.5457,9715.1
799.6085,866.4
799.6695,1457.8
799.922,454.8
800.3541,279.1
800.56,198.6
800.6123,320.8
800.941,627.2
801.4993,132.9
801.5441,715.9
801.6522,706.3
801.8774,314.8
802.1083,552.7
802.5372,16150.7
803.5411,7002.1
803.5925,788.7
803.6563,134.7
803.7986,422.2
803.8896,303.9
804.1986,241.4
804.2714,100.6
804.4911,151.2
804.5528,323104.1
805.2522,377.3
805.347,61.5
805.5561,147163.1
805.6864,1257.4
805.759,21.7
806.57,292800.4
807.003,237.9
807.2159,249.6
807.3372,24
807.3584,198.6
807.573,145729.7
807.638,163.7
807.8065,79.7
808.21,199.3
808.257,231.7
808.3791,136.4
808.5859,229839.6
809.3164,194.3
809.4113,285.2
809.4653,187
809.5313,519.2
809.5889,114450.4
810.0058,21.1
810.5605,363.8
810.6028,157043.9
810.8842,113.8
811.1434,289
811.6057,81466.8
811.6701,8918.7
811.9113,265.2
812.2768,105.3
812.3049,147.3
812.3432,18.8
812.4295,556.9
812.5597,104.8
812.6037,4520.7
812.6202,28836
812.6743,3522.2
812.9032,58.3
812.9602,374.8
813.0073,259.3
813.444,864.1
813.622,16154.1
813.6867,5377.2
813.8929,337.2
813.9535,162.8
814.216,734.5
814.3975,679.1
814.624,489.1
814.6902,1948.4
814.9304,22.6
815.1172,600.8
815.2541,672.7
816.1531,221.2
816.3453,626.3
816.5894,14942.2
816.849,410.8
817.0142,128.2
817.5922,2541.5
818.5065,739.6
818.564,107.4
818.6065,1913.3
819.0932,22.6
819.2544,508
819.6135,861.4
819.6603,113.6
820.5267,55938.3
820.5866,499.3
820.6208,707.6
821.5304,25544.2
822.164,1072.5
822.4431,132.7
822.543,28715.8
822.5771,146.9
822.644,112.7
822.8263,79
822.9111,240.8
823.1828,94.9
823.3502,348
823.5165,151
823.5461,13594.8
823.6344,207.6
823.6595,569.6
823.6663,567.6
823.6801,429
823.8692,179.5
824.5583,22170.3
825.1749,220
825.3148,213.3
825.4751,564.9
825.5619,7184.7
825.6903,150.7
825.7433,839.8
825.7719,239.7
825.8118,292.6
826.0615,161.1
826.0929,147.2
826.1634,629.4
826.73,456.9
826.9102,423.7
827.1948,98.4
828.5529,76073.3
828.6737,82.2
829.2331,203.8
829.5563,35810.6
829.8232,1107.2
829.9556,871.5
830.055,713.6
830.5695,52982.7
831.0214,533.7
831.3367,141.9
831.5027,728.3
831.5721,27024.1
831.644,714.6
831.8688,22.6
832.0757,608.1
832.2324,117.4
832.5849,73169.1
832.616,86.1
833.4198,223.1
833.5878,38076.8
833.6413,96.1
833.9093,282.9
834.2719,23.3
834.4419,674.3
834.6027,29093.3
834.6723,214.9
835.1282,97.8
835.3195,1122.1
835.5195,222.2
835.6056,13787.5
835.6399,801.2
835.6713,132
835.7391,1163.1
835.8271,85.3
835.9001,180
836.0845,227.2
836.1615,203.6
836.1829,60
836.6192,3801.7
836.7498,125.9
836.9512,410.6
837.286,810.4
837.3477,1000.6
837.6208,1982.6
837.8601,23.1
838.345,18.9
838.5127,1263.1
838.8802,69.8
839.1988,438.8
839.6026,336.3
839.621,357.5
840.0209,140.8
840.0914,101.3
840.2161,366.4
840.6441,528.1
840.7414,566.4
840.7702,1068.5
840.8042,27.1
840.8361,766
840.988,323.2
841.8316,213.6
842.2657,501.6
842.5172,472.4
842.6516,249.5
842.875,280.6
843.4117,220.3
843.6827,347.2
843.947,776.4
844.2291,200.1
844.5045,100.8
844.5271,10019
844.6213,274.2
844.6657,124.3
844.7729,133.5
844.9325,91.5
845.5309,3374.5
845.6907,198.2
845.8158,151.7
845.9297,638.2
846.2777,370.6
846.3995,115.7
846.4881,737.2
846.543,6299.9
847.288,167.1
847.3378,278.7
847.5496,1217.8
847.6398,102.1
847.8715,147
848.0349,297.2
848.2891,60.7
848.5574,9881.5
849.1677,221.1
849.5628,1631.2
849.9342,110.9
850.4609,314.7
850.5373,717.1
850.9407,401.4
851.1778,414.7
851.4657,184
851.5798,108.6
851.6304,126.9
851.6626,19.5
851.8972,275.5
852.0868,573.6
852.1162,857.5
852.1308,1005.2
852.2406,152.6
852.2655,543.9
852.2996,409.1
852.3463,617
852.7342,708.7
852.7988,18.7
852.8638,347.5
853.101,57.1
853.4957,520.6
854.3524,107.7
854.4244,496.8
854.4582,454.4
854.667,228.3
855.5189,531
855.7039,18.4
855.8034,505.2
856.0582,331.4
856.583,2795.1
857.2088,117.6
857.3076,686.1
858.2659,18.5
858.5944,372.9
858.9736,137.2
859.0079,416.2
859.2712,1072.1
859.308,164.5
859.5089,1042.4
859.988,481.6
862.1539,514.2
862.2164,194.1
862.5129,608.8
862.5899,209.6
862.6372,116.6
862.7547,117.4
862.9543,319.1
863.5131,158.4
863.6561,325.1
864.027,22.1
864.4809,351.1
864.7592,108
864.7962,392.6
864.8506,213
864.9279,19.8
864.9536,81.7
865.0029,363.2
865.524,21.6
865.6168,341.4
865.9944,18
866.0614,832.2
866.0962,156.9
866.1868,322.7
866.3238,981
866.5355,353.3
866.7716,121.8
866.8657,639.6
867.2369,135.1
867.6119,343
867.7059,1208.2
868.5208,111
869.5332,117.8
869.7841,106.8
869.8335,240.6
869.8781,864.2
869.933,286
869.9866,1232.9
870.0567,3216.9
870.0769,2027.4
870.1029,1966.1
870.1596,1276.4
870.1893,388.8
870.2835,2800
870.3166,3421.6
870.3659,1131.6
870.3841,1770.6
870.4357,691.2
870.4864,1574.6
870.552,339.8
870.583,153.4
870.6458,685.6
870.7314,355.5
871.4636,1115.6
872.2417,442.2
872.3547,248
872.6358,377.6
872.7821,133.3
873.0369,267.4
873.2159,20
873.604,531.1
874.0056,19.7
874.3906,411.7
875.5446,584.9
876.0503,321.9
876.8229,1443.5
877.2046,136.8
877.6658,304.7
877.8742,875.8
878.0153,92.4
878.1029,106.9
878.1421,774.9
878.1913,143.2
878.4241,409.9
878.7599,148.3
878.8674,126.4
879.0329,213.5
879.6844,143
880.0758,117.4
880.9077,457.8
881.3999,268.6
881.5025,126.7
881.9422,125.5
882.037,682.8
882.5955,533.8
882.9293,153.7
883.3736,120.6
883.5143,185.6
883.5482,109.9
883.7889,443.6
883.9388,300.1
884.317,224.7
884.3818,129.8
885.1291,319.8
885.5336,113.7
885.6192,21.4
885.7381,250.2
885.9123,18.6
886.221,57
886.4134,599.3
886.6105,844.6
887.3058,1055
887.5781,422
887.7878,98.1
888.2565,161.5
888.4763,469.4
888.6167,142.9
889.1483,195.1
889.2979,18
889.3263,537.5
889.6937,521.6
889.7587,111.1
890.1309,551.9
890.5599,112.2
890.6632,276.1
890.7675,122.6
890.9168,662.3
891.4085,17.5
891.6627,18.7
891.837,83.4
892.1427,613.1
892.7639,169.6
892.8707,681.2
892.9081,144.3
893.3163,1299.4
893.7046,685.1
894.1074,184.3
894.9334,21.3
895.1177,433.2
895.1649,712.5
895.2807,1565.1
896.1571,1450.5
896.3072,775.4
896.5635,375.5
897.0252,673.7
898.1975,273
898.6381,99.4
898.9875,127.8
899.4643,103.9
899.541,380.4
900.1471,87.9
900.1887,602.3
900.2472,631.3
900.3199,809.9
900.4151,852.5
901.1355,308.5
901.6223,315.2
902.0278,152.7
902.1797,628.5
902.4871,147.4
902.8958,73.3
903.1577,88
903.4287,134.6
903.6723,107.8
903.8146,124.1
904.0704,132.9
904.1884,147
904.2236,193.7
904.302,178
904.9539,102
905.5455,96.6
906.0148,650.4
906.1493,334.1
906.2564,21.4
906.4262,212.7
906.5752,438.4
907.5241,143.3
908.0033,474
908.1976,322.7
908.5854,243.4
908.9374,117.1
909.1372,383
910.6906,20.7
911.6896,420.6
911.7787,79.2
912.1829,63.2
912.4863,396.8
912.5483,126.8
913.0355,2425.1
913.4546,188.8
913.497,18.3
913.5424,498.4
913.694,205.9
913.7199,324.3
913.7263,312.7
914.0177,372
914.2092,400.8
914.5273,83.1
914.795,178.7
915.187,116.4
915.6104,114.4
915.9591,21.5
916.3619,415.4
916.6605,19.1
916.7552,92.2
916.8215,129.9
917.4143,68.7
918.0394,588.5
918.4389,18.1
918.643,1023.5
918.6754,117.7
918.74,713.7
919.2857,409.1
919.4312,450.1
919.7436,21.9
919.9129,19.5
920.0019,389
921.2869,782
921.373,793.9
921.5263,137.5
922.1376,106.8
922.3674,532.6
922.6082,366
923.1535,289.8
923.3894,69.8
924.2449,23.8
924.4281,125.5
924.7023,226.2
925.2456,117.9
925.7608,119.9
926.1295,455.6
926.2053,383.7
926.5693,485.2
926.8135,21
926.9142,267.9
927.2678,228.9
927.7567,613
927.8057,579
928.1801,107.5
928.3272,519.3
928.392,780.7
928.7881,261
929.5479,167.5
929.6287,21.5
930.0192,1281.1
930.1301,516.9
930.2025,324
930.2498,290.3
930.5977,538.6
931.1209,155.3
932.0799,59
932.1447,473.2
932.2117,276.3
932.6593,113.9
932.9792,337.3
933.3205,560.5
934.2577,58.8
934.3367,390
934.6677,113
935.0426,134
935.1954,19.7
935.2524,210.4
935.667,300.4
935.7342,149.1
936.1229,447.8
936.7223,158.6
937.3217,512.7
938.0837,561.9
938.4865,70.1
938.9299,158.3
939.3719,19.5
939.6465,269
940.7417,373
941.0619,481.5
941.6081,247
943.2287,513.1
943.9895,146.7
944.0413,542.5
944.5105,455.5
944.6241,186.2
945.1494,728.1
945.372,117.6
945.9445,2000.5
946.2397,134.4
946.2959,295.1
946.9014,212.7
947.0332,323.1
947.4611,426
947.8068,18.2
947.8413,23.8
947.9366,624.8
948.0833,70.2
948.6101,67.1
948.9375,661.6
949.2197,125.5
949.7447,615.1
950.1485,521.7
950.5067,452.1
950.7483,209.3
950.9739,492.9
951.2331,324.9
951.6958,265.1
951.79,529.2
951.8554,631.5
951.9405,20.1
952.2033,229.2
952.357,70.2
953.0114,690.1
953.6317,114.1
954.6412,749.4
955.8091,1202.1
956.0534,88.9
956.074,75.1
956.4131,140.2
956.5631,719.1
956.9749,23.4
957.0436,252.8
957.1252,243.1
957.3328,552
957.4969,1329.4
957.7478,1415.1
957.8788,57.7
957.9009,72.1
957.944,707.7
958.1635,526
958.8479,803.5
958.9894,424.5
959.0465,20.3
959.9074,131
960.1285,426.3
960.2004,217.1
960.516,23.9
960.5837,121.1
960.6577,469.9
961.3298,770.9
961.4075,275.1
961.5829,253.8
961.6242,157.9
961.6739,57.8
962.1082,131.3
962.2752,186.2
962.4737,240.9
963.0613,842.8
963.4363,73.7
963.9361,100
963.9643,195.8
964.5734,126.6
965.0542,422
965.1662,722.4
965.2092,1427.9
965.2585,918.9
965.3729,576.9
965.4193,72.2
965.4651,1288.6
966.2129,98.3
966.4225,201.6
966.9292,338.4
967.1335,156.4
968.2938,532.3
968.3074,601.9
968.4783,564.5
969.0042,98.3
969.7518,1074.1
969.9459,178.9
970.196,131.2
970.6947,919
970.7782,221.7
971.0365,287.4
971.1357,793.1
971.2808,856.7
971.9829,801.4
972.0989,203.6
972.5278,130.5
972.6456,833.8
972.9053,440.1
972.9482,593.4
973.2998,162.6
973.4249,108.4
973.4614,131.3
973.7931,84
974.4887,592.9
975.0177,291.9
975.155,546.4
975.3295,650.7
975.4726,186.8
975.7528,18.8
975.8885,22.1
975.9288,1282.7
976.0297,607.7
976.064,18.4
976.1485,1340
976.2865,421.7
976.6898,434.3
977.1523,651.6
977.2268,19.5
977.5746,58.7
977.8342,19.9
978.2153,455.7
978.3832,135.9
978.4694,787.7
978.5375,22.6
979.1636,159.5
979.2441,365.3
979.3736,854.4
980.0554,335.1
980.0842,250.6
980.1586,432.8
980.6085,22.6
980.7894,1100.5
980.8223,648
981.0133,372.6
981.0501,160.9
981.1197,146
981.1726,174.8
982.0134,540.5
983.0606,762.8
983.3011,128.5
983.3527,312.4
983.9431,86.8
984.0871,58.7
984.1402,682.3
984.2453,88.6
984.2951,139.3
984.3827,220.7
984.4758,126.4
984.9252,929.1
985.2176,20.5
985.4971,1815.7
985.6704,1062
985.7797,98
985.8085,90.7
986.014,286.6
986.2732,556.9
986.6669,444.5
987.216,714.6
987.2836,144.4
987.3511,838.4
987.7531,179
987.8897,359.4
988.0073,750.1
988.1556,131.3
988.5006,687
988.7585,204.1
988.8283,442
989.047,1028.3
989.2203,433.1
989.4007,480.7
990.2384,842.2
990.4072,947
990.4617,315.6
990.8973,126.2
990.9698,25.1
991.1143,161.9
991.3277,535
991.4734,157
991.8385,139.8
992.0883,523.2
992.3469,169.4
992.7669,221.7
992.8897,97.8
993.4718,774.3
993.5816,508.9
994.8643,472.3
994.9333,777.1
995.3222,358.8
995.5188,180.5
995.8652,172.7
996.4648,88.9
996.5823,988
996.6479,868.2
996.8736,96.6
997.0458,758.9
997.6962,924
997.87,610.7
998.8538,172.1
999.0406,124.8
