SPECTRUM - MS,
882.RAW,
FTMS + p ESI Full ms [50.00-1000.00],
Scan #: 1-40,
RT: 0.01-1.97,
AV: 40,
m/z,Intensity

50.0152,206.7
50.0344,18.9
50.0436,172.2
50.044,71.1
50.0528,316.7
50.057,18.1
50.0814,154.4
50.1097,17.1
50.1129,383.6
50.1146,125.3
50.119,99.5
50.128,68.7
50.1417,390.3
50.145,417.6
50.1475,80.5
50.153,158.8
50.1561,732.5
50.1578,308.9
50.1667,16.5
50.1734,154.7
50.1737,873.7
50.1851,87.7
50.2057,95
50.2135,141.4
50.2147,356.4
50.2413,104.5
50.2464,153.3
50.2539,396.9
50.2666,17.9
50.3204,81.4
50.321,500.3
50.3228,21
50.3503,494.4
50.3624,18.5
50.3671,17.9
50.3724,485
50.3975,237.3
50.4011,294.7
50.4139,114.9
50.4367,82.3
50.4482,96.1
50.4559,127.2
50.4575,17
50.4606,147.3
50.4635,134
50.4761,405.7
50.4803,16.6
50.4898,85.4
50.4921,315.8
50.4941,547.7
50.5042,137
50.5161,347.5
50.523,424.5
50.5264,92.6
50.5446,226.7
50.5616,148.6
50.5714,693.8
50.5797,16.5
50.6077,447.6
50.6149,731.8
50.6156,18.8
50.6284,355.5
50.652,155.6
50.6548,17.4
50.6641,142.5
50.6822,85.9
50.6864,18.8
50.7157,289.8
50.719,149.1
50.7428,239.9
50.7491,274.1
50.7537,462.3
50.7561,285.7
50.7717,86
50.7799,132.5
50.7821,422.9
50.7848,84.1
50.7851,1298.3
50.7906,87.2
50.7926,254.3
50.8035,493.1
50.8049,323.2
50.8122,144.5
50.8143,15.1
50.8334,284.7
50.839,43.3
50.8466,348.3
50.8546,308.2
50.8618,128.9
50.8908,202
50.8913,259.6
50.8928,81.6
50.8943,305
50.8971,165.9
50.9041,293.3
50.9138,580.3
50.9196,81.8
50.9204,288.5
50.9415,19.5
50.9638,81.4
50.9781,45.8
50.9893,91.7
50.9956,86.5
51.0172,130.6
51.0475,78.6
51.0671,260.2
51.0804,90.3
51.0885,112.9
51.0958,240.6
51.1284,189.3
51.1301,117
51.1406,109.1
51.1412,114.4
51.1507,181.9
51.1559,759.8
51.1667,106.2
51.1785,294.9
51.1819,133.8
51.1946,428.4
51.2019,138.6
51.2092,547.3
51.2126,344.5
51.2194,158.1
51.2292,106.2
51.2355,16.9
51.2443,76
51.2814,456.6
51.2863,77.8
51.3069,19.6
51.3087,375.3
51.3438,18.4
51.3617,81
51.3633,430.3
51.3789,471.6
51.3869,17.4
51.426,92
51.4333,86.3
51.4354,387.1
51.4375,95.7
51.4455,87.2
51.4722,14.3
51.4837,84.4
51.502,140.6
51.52,157.9
51.5216,478.9
51.5299,47.2
51.5342,15.4
51.5433,278.4
51.5478,143.1
51.5564,569.2
51.5575,14.7
51.5627,112.5
51.5653,19.2
51.5682,121.5
51.5779,39.3
51.5867,217.1
51.5895,314.1
51.6101,286.4
51.6243,654
51.6255,217.1
51.6362,15.3
51.637,71.8
51.6456,143.6
51.655,107.1
51.6618,83.9
51.682,16.1
51.6894,152.9
51.6917,583.9
51.7574,49.1
51.7667,99.7
51.7724,299
51.7811,18.2
51.8131,86
51.8371,606.1
51.8477,94.9
51.8522,112.6
51.8611,126.6
51.8659,257.7
51.8845,131.1
51.8898,155.8
51.9218,431.6
51.9378,16.4
51.9423,624
51.9792,92.3
51.9867,406.1
51.9899,17.2
51.9969,402.7
52.0003,17.4
52.0006,16.4
52.0048,84.9
52.0073,19.9
52.02,139.5
52.035,20.5
52.0435,49
52.0528,96.5
52.0564,248.1
52.106,497.2
52.1157,343.8
52.1183,184
52.1279,617.5
52.1652,121.8
52.1671,89.9
52.1709,305.4
52.1818,312.1
52.1931,235.4
52.2056,15.6
52.2123,142.4
52.2131,19.5
52.2151,97.2
52.2455,347.7
52.2602,255.4
52.275,271.2
52.2829,285.1
52.2891,104.7
52.2971,346.1
52.2981,15.7
52.3162,87.9
52.3287,119.5
52.33,496.5
52.3306,87.4
52.3424,414
52.3587,264.4
52.3621,81.3
52.3834,16.3
52.3883,17.9
52.3943,16.1
52.4336,16.7
52.4346,273.6
52.446,214.7
52.4556,380.8
52.4602,141.2
52.4787,170
52.4872,323.3
52.4919,106.2
52.5011,328.6
52.5027,384.3
52.5088,43.7
52.513,105.9
52.514,16.7
52.5151,124.4
52.5226,136.6
52.5259,92
52.5316,240.5
52.5339,394.7
52.5446,19.7
52.545,399
52.5599,82.5
52.5632,249.9
52.5662,309.4
52.5755,117
52.5819,102.2
52.5837,373.7
52.6101,85.9
52.6353,167.4
52.6451,141.4
52.6505,546.2
52.6617,139.2
52.677,89.3
52.6776,120.4
52.7001,254.3
52.7118,124
52.715,113.7
52.751,203.7
52.7759,22.5
52.7767,578.6
52.7772,1550.9
52.7783,2744.8
52.7787,1844
52.779,2468
52.7797,1849.5
52.7803,660.2
52.7813,1520.4
52.7955,289.9
52.7965,120.2
52.8051,593.7
52.817,96.9
52.8205,122.5
52.8389,249.1
52.8493,244.8
52.8672,84.4
52.8679,344.8
52.8805,136.6
52.8924,306.3
52.8975,398.8
52.9071,73.7
52.9132,310.4
52.9225,378.6
52.9524,78.2
52.9653,170
52.9867,218
52.9945,95.2
52.9959,290.9
53.0041,816.1
53.0076,506.1
53.0202,351.5
53.0488,357.6
53.0573,15.9
53.0787,363.3
53.08,160.5
53.0819,450.6
53.0989,98.1
53.1106,399.4
53.1191,75.9
53.1202,74.5
53.1251,14.8
53.1362,92
53.1388,198.1
53.2069,156.2
53.2103,341.1
53.2184,96.9
53.2303,273
53.2745,307.8
53.2765,177.9
53.283,74.5
53.299,178.4
53.3008,16.6
53.3049,305.4
53.3101,130.2
53.3102,124
53.3159,496.4
53.3232,417
53.3251,261.7
53.3277,16.4
53.3436,536.7
53.3454,151.2
53.3586,38.3
53.3859,133.1
53.3944,41.2
53.4041,77.8
53.4082,196.4
53.4121,89.1
53.4371,83.8
53.4842,93.7
53.4863,15.9
53.5103,257.9
53.52,96
53.5473,257.1
53.5585,246.8
53.5691,300.8
53.5706,368.6
53.5751,364.3
53.5851,154
53.5867,379.8
53.6111,369
53.6148,17.5
53.6467,15.1
53.654,137.6
53.6566,226.8
53.667,85.6
53.6724,70.5
53.6752,270.9
53.6802,442.5
53.6815,113.4
53.6937,17.8
53.6975,176.9
53.6989,342.3
53.7066,594.7
53.7146,144.5
53.7271,226.5
53.729,15.8
53.7502,365.1
53.7513,16
53.7714,122.7
53.7721,80.2
53.7729,107
53.7762,113.3
53.795,175.3
53.8138,230.1
53.8205,101.2
53.8213,130.8
53.8692,141.2
53.8751,128.5
53.8921,128.9
53.8926,296.7
53.8964,39.3
53.9283,17.8
53.9314,16.4
53.9422,43.4
53.9432,126.3
53.9481,129.3
53.9561,18.9
53.9683,152.9
53.9689,353.6
53.9695,178.4
53.9773,17.1
53.9806,39.6
53.9825,339.7
53.9992,212.5
54.0001,418.4
54.0076,467.2
54.0166,402.1
54.0215,45.2
54.0275,417.6
54.0305,151.2
54.0434,127.8
54.0639,126
54.0738,278
54.0745,434.6
54.0754,386.3
54.0766,409.4
54.0801,453.4
54.0816,185.5
54.0833,388.8
54.0935,131.8
54.1025,17
54.116,309
54.1164,137
54.12,408.8
54.1257,16.3
54.1263,208.9
54.146,129.1
54.1586,452.8
54.1743,521.5
54.175,178.9
54.193,450.1
54.1961,358.8
54.1994,110.3
54.2037,152.1
54.2048,18.1
54.2107,183.4
54.2328,197.9
54.234,479
54.2465,151.3
54.2524,443.5
54.2537,435.2
54.2633,133
54.2856,95.4
54.2893,422
54.2909,634.7
54.3432,633.8
54.3439,84.6
54.3471,84.1
54.3597,74.3
54.3792,83.8
54.3816,292.4
54.3852,70.8
54.4457,82.9
54.4503,117.1
54.4688,325.1
54.4731,269
54.4851,418.8
54.4881,136.4
54.489,16.1
54.4925,38.2
54.5148,18.9
54.5274,83.1
54.5486,244
54.5545,86.2
54.5578,226.1
54.572,226.2
54.5809,185.2
54.5906,118.8
54.5955,369.3
54.6062,117.7
54.6131,177.8
54.6169,39.4
54.6279,127.5
54.6406,84.1
54.6414,464.1
54.6602,80.5
54.6785,185.7
54.6796,143.6
54.683,74.9
54.6853,108.4
54.6872,128.5
54.6879,146.8
54.6901,97.3
54.7228,591.5
54.7238,360.5
54.7249,107
54.7364,118.7
54.743,152.1
54.7511,86.1
54.7547,350.7
54.7651,16.7
54.7716,130
54.7737,100.2
54.7781,17.8
54.7811,106.7
54.7829,127.3
54.7868,42.3
54.7975,15.8
54.7994,112.6
54.8051,21.4
54.8268,89.5
54.839,305.6
54.8453,241.5
54.85,115.4
54.8541,18.2
54.856,44.2
54.8576,560.7
54.862,270.1
54.8694,130.6
54.8701,19.4
54.8858,115
54.9053,161.9
54.9077,83.9
54.9235,349.2
54.9385,458.8
54.9406,19.2
54.9607,139.3
54.9621,141.2
54.9697,257
55,100.4
55.005,136.9
55.0089,16.7
55.0108,569
55.0202,226.3
55.023,17.2
55.0419,384
55.0564,17.9
55.066,15.3
55.0718,434
55.0904,17.9
55.0933,16.7
55.0937,284.6
55.0946,102.4
55.1069,75.4
55.1293,128.9
55.1367,18.2
55.1391,613.8
55.175,103.1
55.1758,17.8
55.1784,285.8
55.1867,255.2
55.1905,490.4
55.1923,84.7
55.2042,84.4
55.2214,198.1
55.2311,439.3
55.2416,17.6
55.2502,216.3
55.2665,17.4
55.2737,110.8
55.2826,87.3
55.2853,75.9
55.287,603.9
55.3038,320.7
55.3108,119.9
55.3153,582.6
55.3267,159.3
55.3508,249.2
55.3608,96
55.3645,91.4
55.3661,90
55.3751,585.4
55.4023,588.4
55.4073,141.2
55.4173,284.7
55.4292,406.7
55.4479,90.1
55.4824,346.5
55.5169,638
55.5389,166.9
55.5393,647.8
55.5404,220.6
55.5463,590.9
55.5525,582.1
55.5695,114.2
55.5786,247.6
55.5798,285.4
55.5816,91.8
55.584,306.3
55.5863,194.1
55.5997,16.2
55.6135,146.1
55.6288,243.5
55.6295,133.1
55.6667,85.4
55.7121,205.5
55.784,158
55.8126,16.8
55.8279,342.1
55.836,264.5
55.8418,344.8
55.8468,90.9
55.8471,82.6
55.8484,273.8
55.8621,570.4
55.8648,357
55.8871,428.8
55.9007,288.1
55.922,358.3
55.9331,146.6
55.9397,229.2
55.951,625.9
55.9672,304.2
55.9871,522.5
56.0227,105.3
56.0335,357
56.0371,38.7
56.0459,143.5
56.0592,212.8
56.0703,126.7
56.0841,83.8
56.0865,368.7
56.1107,95.8
56.1339,273.6
56.1635,150.5
56.1766,313.4
56.188,89.5
56.2017,99.7
56.2071,319.9
56.2198,139.2
56.2255,450.5
56.2284,267
56.2309,16.8
56.233,174.7
56.2354,338.7
56.2407,534
56.2437,118
56.2738,327.9
56.3066,87.5
56.333,91.3
56.3416,140.1
56.3536,162
56.3588,155.3
56.3742,113
56.4121,16.4
56.4207,82.4
56.4224,19.1
56.4301,378.5
56.436,147.3
56.4662,393.1
56.4731,459.6
56.4758,100.4
56.4795,81.9
56.4867,80.5
56.4896,85.6
56.5451,134.1
56.5603,289.2
56.5675,119.1
56.6114,86.3
56.62,84
56.6439,240.8
56.6453,58
56.6534,198
56.693,179.4
56.7087,146.7
56.7165,119.5
56.7179,126.6
56.7343,255.2
56.736,149.5
56.7403,116.5
56.7425,281.4
56.7764,497.1
56.7784,255.4
56.8054,197.6
56.8118,299.2
56.8246,80.9
56.8314,629
56.8448,86.7
56.8599,441.4
56.8609,500.3
56.8675,375.9
56.9003,39.6
56.9027,189
56.9334,116.4
56.9485,74.7
56.9498,409.5
56.9514,241.1
56.9553,15.8
56.9656,405.4
56.9723,129
56.988,388.1
57.0242,250
57.0345,94.4
57.0746,96
57.0755,352.2
57.1006,262.3
57.1041,84.3
57.1325,150.9
57.1383,597.6
57.1418,82.5
57.1436,45.1
57.1498,197.6
57.1571,220.2
57.1756,80.8
57.1771,141.3
57.1789,523
57.1911,138.7
57.2066,309.5
57.2119,258.1
57.2349,15.4
57.2358,468.9
57.2365,171
57.2577,579.4
57.2601,176.8
57.2676,201.8
57.2943,163
57.296,112.7
57.3169,598.4
57.3254,17.7
57.3328,36.9
57.3856,616.5
57.3875,88.4
57.3968,175.5
57.4028,88.3
57.4067,169.1
57.4094,41.5
57.4172,16.7
57.4367,751.3
57.4451,262.8
57.4468,277.6
57.4516,403.4
57.4824,180.3
57.4981,412.4
57.5001,487.5
57.5046,73
57.5125,72.8
57.5127,73.6
57.515,207.7
57.5199,343.2
57.5205,269.5
57.5299,270.7
57.5546,351.4
57.5627,557.5
57.5701,16.5
57.5788,130.3
57.5969,16.9
57.5987,227.2
57.6088,205.1
57.6527,16.7
57.6696,171.8
57.6723,157.7
57.6746,14.8
57.7075,184.3
57.716,128.5
57.7211,79.9
57.7433,366.5
57.744,670.8
57.7615,442.1
57.7864,296.8
57.8068,301.4
57.8077,150
57.8245,21.1
57.8258,300.7
57.8277,356.3
57.8671,86.6
57.9199,304.3
57.9239,220.1
57.9555,143.9
57.9565,1065.5
57.9602,262.9
57.9607,18.8
57.9632,347.6
57.9792,16.3
58.0011,349.9
58.0253,230
58.0524,139.6
58.0593,17.2
58.0828,265.3
58.1173,209.2
58.119,168.2
58.1203,616.4
58.1216,182.5
58.1266,648.2
58.1277,16.8
58.1371,486.8
58.146,22
58.1608,41.3
58.1612,84.4
58.1624,17.5
58.1685,724.8
58.1706,152.4
58.179,185.3
58.1825,144.4
58.1832,297.7
58.1864,485.7
58.2107,358.2
58.2131,14.8
58.2219,49.1
58.2234,270.5
58.2262,643.9
58.2356,307.7
58.252,331.8
58.2608,19.7
58.2664,87.3
58.2869,95.9
58.2962,123.5
58.339,144.8
58.3463,211
58.3534,352.7
58.3612,126.9
58.3642,18.1
58.3736,91
58.3806,459.8
58.3814,704.1
58.3888,103.4
58.3986,374.8
58.3992,87.4
58.404,476.9
58.4159,296.6
58.4179,83.7
58.4282,325.2
58.4368,117.2
58.4414,571
58.4443,114.6
58.4482,134.1
58.4527,669.9
58.4584,92
58.4639,19.1
58.4709,259.1
58.4713,17
58.4718,247.4
58.4846,269.9
58.516,43.5
58.533,78.8
58.5452,711.4
58.5543,135.3
58.5551,86.6
58.5663,166.7
58.5762,324.4
58.5844,98.2
58.5933,137.4
58.6081,430.3
58.6383,134.3
58.6479,301.8
58.6488,603.5
58.6691,103.4
58.6718,135.2
58.7067,254.6
58.719,456.9
58.7202,694.3
58.7242,196.7
58.7346,401.5
58.7528,18.5
58.7599,561.2
58.7675,20.8
58.8076,750.7
58.8414,403.4
58.8473,36.7
58.8531,78.4
58.8627,89.7
58.8679,39.8
58.8709,84.2
58.877,274.7
58.8794,94.4
58.9103,147.5
58.9192,96.9
58.9199,433.6
58.9274,79.3
58.929,81.2
58.9568,565.3
58.9697,72.5
58.9714,323.7
58.9865,306.3
58.9933,562.8
59.0131,559.1
59.0204,239
59.0293,19.8
59.0456,16.2
59.0506,18
59.0516,120.8
59.0756,115.5
59.0815,15.7
59.0961,630.4
59.1076,453.5
59.142,210.7
59.1529,867.6
59.1535,129
59.1592,517.6
59.1619,17.2
59.187,279.1
59.188,258.3
59.201,374.7
59.202,231.1
59.2027,160.1
59.2104,83.2
59.2207,485.2
59.242,16.5
59.2474,129.4
59.2512,331.5
59.2764,134.9
59.2874,120.2
59.337,179.4
59.3428,368
59.3449,308
59.349,396.2
59.3552,360.6
59.3796,19.4
59.3862,342.3
59.4077,154.8
59.4248,92.1
59.4454,325.4
59.4492,450.9
59.462,89.8
59.4661,17.3
59.4707,17.9
59.484,17.6
59.5026,268.7
59.5043,433.2
59.5352,16.3
59.5415,102
59.5492,245.7
59.5574,16.4
59.5637,99.5
59.5651,506.4
59.5671,129.4
59.6198,482.1
59.6233,91.5
59.637,171.4
59.6484,311.4
59.649,222.9
59.6589,656
59.6658,756.4
59.6847,206.1
59.6897,440.4
59.6932,156.5
59.6966,223.9
59.7183,344.7
59.7231,347.7
59.7866,657.7
59.7883,464.1
59.8035,151.8
59.8081,93.7
59.8194,83.6
59.8301,98.4
59.8366,743.3
59.8643,97.2
59.8723,241.6
59.8747,129.2
59.8787,90.4
59.8862,346.1
59.8975,624.7
59.9165,226.5
59.9331,256.2
59.9415,81.8
59.9449,70
59.9551,18.6
59.973,216.9
59.9736,140.3
59.978,18
59.9809,201.2
59.9872,496.8
60.0098,139.8
60.0175,108.2
60.0186,678.5
60.0192,256.6
60.0345,158.3
60.0378,336.8
60.0564,444.2
60.0669,223.8
60.0714,179.2
60.0836,17.9
60.0873,140
60.0977,228.4
60.0986,254.4
60.1029,124
60.119,238.4
60.1242,277.9
60.1336,90.2
60.1412,314
60.1417,139.6
60.1483,97.9
60.1505,86.4
60.1534,502.6
60.1895,16.8
60.1973,357
60.217,19.4
60.2365,104.5
60.2422,151
60.2507,580.5
60.263,139.5
60.2656,118.8
60.2723,15.6
60.2816,666.8
60.3107,95.7
60.3168,110.5
60.3187,412.7
60.3243,155.6
60.3298,122.7
60.3609,153.4
60.366,724.1
60.3714,251
60.3725,17
60.3739,87.2
60.3758,95.5
60.3829,172.8
60.3857,282.3
60.4064,18
60.411,89.2
60.4232,90.2
60.4239,140
60.4275,321.5
60.4296,285.7
60.431,363.6
60.44,143.9
60.487,16.7
60.4967,96.9
60.4981,264.2
60.5025,529.8
60.5129,93.2
60.5168,482.2
60.5768,86.5
60.6107,321.8
60.6211,344.3
60.6645,633.3
60.6698,50.6
60.6829,147.8
60.7709,212.7
60.7959,15.8
60.8034,18.1
60.8081,91.4
60.8094,101
60.8238,113.6
60.8341,16.8
60.851,308.6
60.8897,341.7
60.9062,83
60.9387,105.4
60.9628,148
60.9687,16.1
60.9708,355.4
60.9956,463
61.0013,287.3
61.0051,19.8
61.0134,79.9
61.0162,72.3
61.0431,426.7
61.0511,109.1
61.0546,328.7
61.0552,175.3
61.0844,100.5
61.0922,18.2
61.1402,541.8
61.1483,367.2
61.1504,159.3
61.1801,23
61.1821,84
61.1973,96.7
61.2427,17.2
61.2432,96.3
61.2617,16.3
61.2661,105.8
61.2692,157.2
61.2752,17.4
61.2874,551
61.3089,116.5
61.3348,612.4
61.3505,237
61.3605,80.1
61.3695,398.3
61.3768,199.6
61.3786,358.6
61.3872,222.9
61.3915,211.1
61.4051,270.2
61.4117,240.9
61.4206,133.9
61.432,340.7
61.4494,151.4
61.4913,18.2
61.4979,71.6
61.507,404.9
61.5228,19.6
61.5655,16.9
61.5707,387
61.5834,104.3
61.5864,16.8
61.6055,78.8
61.611,569
61.6133,98.9
61.6202,257.1
61.6342,307.1
61.6356,93.3
61.6399,80
61.6461,16.9
61.649,300.7
61.6533,219.1
61.6592,107.2
61.6624,319.3
61.6723,79.5
61.6746,265.6
61.678,248.8
61.6853,454.6
61.6907,509.6
61.7075,16
61.7396,83.2
61.7458,79.2
61.7792,172.8
61.7917,87.8
61.7928,14.7
61.8078,44.5
61.814,213.4
61.821,829.2
61.8233,20.3
61.8729,394.8
61.8775,125.7
61.8787,118.9
61.8909,82.4
61.9321,870.5
61.9434,16.5
61.9629,244.6
61.965,77.1
61.9657,101.2
61.9879,703.8
62.0522,171.7
62.0605,84.5
62.0652,122.9
62.0763,90.1
62.0968,263.8
62.108,390.5
62.1222,79.1
62.1249,165.5
62.1311,139.5
62.1386,17.3
62.1418,339.9
62.145,16.8
62.1496,203
62.1563,116.3
62.1645,171.6
62.1653,117.8
62.1862,42.9
62.2008,431.5
62.2074,53.8
62.208,283.4
62.2087,564.9
62.2146,309.1
62.2152,15.6
62.225,75.6
62.2449,233.4
62.2519,185.1
62.2691,20
62.2866,532.7
62.2891,135.9
62.2955,123.6
62.3215,668.1
62.3285,204.7
62.3327,645
62.3357,252
62.3541,75.3
62.3666,318.2
62.3886,125
62.403,141.6
62.4062,97.1
62.4102,47.2
62.4128,734.5
62.4135,114.6
62.422,119.1
62.43,82.4
62.4567,222.2
62.4601,704
62.4721,171.8
62.5053,198.1
62.5128,121.2
62.5162,300.9
62.5178,75.1
62.531,262.2
62.5365,240.9
62.5387,83.3
62.5467,127.2
62.549,89
62.5581,109
62.5776,531.2
62.5853,270.6
62.5918,283.6
62.625,77.7
62.6287,133.3
62.6336,358
62.6369,184.1
62.667,127.4
62.6856,226.3
62.6883,18
62.6979,219.7
62.7019,251.4
62.7106,369.6
62.7181,263.8
62.7245,42.4
62.7451,167.2
62.7491,146.4
62.7524,89.5
62.753,16.5
62.7701,19.2
62.7867,528.3
62.7965,20.2
62.8174,138.9
62.8229,162.2
62.8256,16.5
62.8269,81.6
62.8506,280
62.8527,533.2
62.8669,84.4
62.8928,339.4
62.898,340.3
62.8996,109.9
62.9056,383.7
62.9313,15.9
62.9346,505.5
62.9515,130.5
62.9522,81.3
62.9569,417.7
62.9587,383.4
62.9594,129.5
62.9881,275.4
62.9909,432
62.9971,544.7
63.0262,18.9
63.0392,151.2
63.051,280.4
63.0514,213.1
63.0628,701.6
63.0725,183.7
63.0816,40.8
63.1007,244.6
63.1693,140.9
63.1722,513.1
63.187,244.6
63.2024,298.3
63.2069,206.3
63.217,353.8
63.2212,133.5
63.2721,147
63.2759,151.8
63.2899,360.5
63.3014,93.2
63.31,89.2
63.327,85.5
63.3387,18.2
63.3395,589.4
63.3638,775.5
63.3653,116.8
63.3682,206.5
63.3882,296.4
63.3908,150.9
63.3923,224.1
63.3995,135
63.4339,129.1
63.4423,264.2
63.4494,302.5
63.4502,161.9
63.458,96.1
63.4718,17.2
63.4981,148.6
63.5004,15.6
63.505,741.2
63.5116,111.1
63.5152,314.4
63.5186,86.4
63.5339,288.9
63.5637,15.5
63.6089,810.6
63.6195,98.2
63.6325,113.9
63.6367,92.5
63.6516,92.3
63.6609,115.7
63.6702,89
63.6818,648.9
63.6898,86.6
63.6915,77.1
63.6941,136.8
63.7005,15.3
63.721,15.7
63.7235,318.6
63.725,20.4
63.7331,205.1
63.7398,218.8
63.7441,149.7
63.7461,157.5
63.7623,624.7
63.7739,224.1
63.7906,326.1
63.7961,195
63.8013,309.5
63.8049,270.9
63.8062,318.9
63.815,287.8
63.8247,478.6
63.8492,472.9
63.8551,92.6
63.8895,329.9
63.9091,270.1
63.9324,92.6
63.9482,84.3
63.951,155
63.9688,81.1
63.9948,18.2
63.9969,87.6
64.0129,85.2
64.0322,16.8
64.0519,167.9
64.0875,419.6
64.1031,280.1
64.1128,169.2
64.1171,429.4
64.1213,232.6
64.1222,113.9
64.1479,413.1
64.1555,80.5
64.1634,401.5
64.1739,279.4
64.1863,261.7
64.1994,131.5
64.2003,146.6
64.2104,98.2
64.2319,625.1
64.235,259
64.2511,308.4
64.3102,43.3
64.3133,467.7
64.3246,101.2
64.329,121.6
64.3422,130.1
64.3929,17.6
64.3934,488.5
64.4026,491.7
64.4029,609.9
64.419,102.9
64.4301,107.5
64.4604,562.2
64.4976,564.7
64.5035,468.1
64.5047,136
64.5136,142.5
64.5341,259.1
64.5526,103.2
64.5577,47.9
64.5609,442.4
64.563,85.7
64.5701,164.4
64.5749,584.3
64.6011,483.5
64.6092,148.1
64.6201,632.1
64.6358,44.9
64.6885,248
64.7231,229.9
64.7275,157.5
64.7307,137.8
64.7342,18.1
64.7586,41.1
64.7599,79.1
64.7721,223.5
64.7738,19.1
64.781,85
64.7873,146
64.7954,18.1
64.8096,179.9
64.8419,78.5
64.8496,369.8
64.8519,323.8
64.8575,133.9
64.873,226.5
64.8741,315.7
64.8752,354.8
64.8756,139.2
64.8767,303.5
64.8972,506.2
64.8986,16.8
64.906,336
64.9234,131.3
64.9392,166.4
64.9478,788.7
64.9492,209
64.9647,17.7
64.976,74.1
64.9824,77.3
65.0062,217
65.0112,17.8
65.0133,111.1
65.0146,182.2
65.0228,90.5
65.0238,140.6
65.0323,303.9
65.0328,399.4
65.0504,16.6
65.0572,88
65.0626,310.6
65.0636,140.3
65.1137,109.3
65.1172,133.3
65.1188,145.5
65.1195,236.9
65.1401,19.3
65.1575,319.9
65.1586,136
65.1593,20.2
65.1957,258.5
65.2081,672.5
65.2099,647.7
65.2115,270.3
65.2179,330.5
65.2212,121.7
65.2695,78.9
65.2726,179.6
65.3056,512.2
65.3062,84.2
65.307,87.4
65.3083,21.7
65.3118,155.2
65.3477,181.3
65.3509,293.9
65.3584,178.4
65.3634,96.5
65.3672,110.3
65.3679,552.3
65.379,154.9
65.3848,157.2
65.4082,20.4
65.4123,203.2
65.4344,362.5
65.4355,146.3
65.4362,253.9
65.455,121.9
65.4665,318.6
65.509,144.9
65.5101,79.2
65.5208,453.9
65.5458,150.8
65.5503,470.7
65.5554,21.2
65.5636,15.6
65.565,77.2
65.5709,352.9
65.5825,312.8
65.6074,356.1
65.6153,442.8
65.6174,165.5
65.6268,286.6
65.6338,133.3
65.6349,192
65.6362,253.8
65.6623,19.7
65.6758,22.4
65.6858,144.4
65.7166,74
65.754,200.7
65.7567,254.8
65.7576,81.5
65.76,406.2
65.7694,97.7
65.7738,293.9
65.7916,304.7
65.8045,327.1
65.8129,80.4
65.8202,339.1
65.8354,47.3
65.8397,495.2
65.8501,234.1
65.8584,17.1
65.8726,244.2
65.9188,522.2
65.9246,95.3
65.9253,18
65.928,455.5
65.9328,620.8
65.9617,208.6
65.9632,16.2
65.9641,107.5
65.9793,19.8
65.9921,308.1
65.9932,17.9
66.0087,97.8
66.0094,16.3
66.0213,413
66.0314,703
66.0319,648.3
66.0524,182.1
66.073,87.6
66.0775,352.3
66.0937,79.4
66.1449,96.9
66.1602,399.4
66.1622,327.3
66.1665,247.3
66.1844,122.2
66.2066,125.4
66.2083,561.7
66.2145,127.8
66.2267,125.4
66.267,91.7
66.2721,260.4
66.2898,273.9
66.3064,48.3
66.3525,18.5
66.371,87.9
66.3795,315.6
66.3901,111.4
66.4213,17.2
66.4366,349.7
66.4561,318.6
66.47,189.7
66.4987,88.1
66.5031,251.8
66.5228,334.4
66.5243,554.5
66.5348,101.7
66.5461,117.9
66.5501,428
66.5523,306.2
66.5655,283.5
66.5687,106.7
66.5764,375.5
66.5825,47.9
66.6192,17.6
66.6231,127.5
66.633,247.8
66.6563,151.8
66.6573,250.7
66.6586,125.4
66.6595,51.1
66.6602,21.6
66.6653,84.7
66.6708,332.1
66.6725,83.5
66.6814,141.9
66.6919,249.4
66.7114,281.6
66.7193,17.2
66.7238,602.4
66.7276,291.8
66.7297,133.7
66.731,134.1
66.7356,38.1
66.7437,209.4
66.7621,273.3
66.7685,121.4
66.7698,261.3
66.7771,155.5
66.7907,18.2
66.7969,587.8
66.8107,167.9
66.8173,17.5
66.8193,76.8
66.8244,623.9
66.8366,312.8
66.8411,452.4
66.8749,98.1
66.8868,140.3
66.8947,411.7
66.9076,106.3
66.9133,301.7
66.9284,212.4
66.9666,217
66.9872,102
66.9936,151.1
67.0046,406.9
67.0247,427.5
67.035,564.7
67.0448,763.4
67.0539,193.5
67.0628,97.4
67.0891,105.1
67.1143,142.9
67.1252,610.5
67.1275,314.5
67.1446,23.1
67.1522,240.7
67.1546,122.7
67.1706,412.9
67.1838,108.1
67.2053,89.2
67.2282,127.9
67.2345,702.3
67.2452,85.2
67.2468,644.8
67.27,88.1
67.2735,582.7
67.2741,485.6
67.2848,132.5
67.3027,102.4
67.3119,224.5
67.3152,96.3
67.3206,18.6
67.3247,132.2
67.3291,154.3
67.3325,330.3
67.3423,139.1
67.3445,20.7
67.3466,395.8
67.3596,814.9
67.3829,702.3
67.3946,17
67.4101,551.6
67.4171,208
67.4237,91.3
67.4334,251.8
67.44,400.7
67.446,82.5
67.448,84.3
67.4589,19.8
67.4652,277
67.4659,702.5
67.478,473
67.4879,332.9
67.4938,382.1
67.5121,89.7
67.5176,101.3
67.5211,45.4
67.5548,364.2
67.5725,332.8
67.5803,189.5
67.5952,168.9
67.5998,346.1
67.6288,650.7
67.6439,120.4
67.6565,15.4
67.6896,438.2
67.6971,662.2
67.6981,180
67.7018,565.5
67.7084,129.9
67.7187,17.5
67.7331,393.6
67.7527,410
67.7623,271.8
67.7671,261.7
67.7712,253.1
67.7737,89.6
67.8054,250.4
67.8427,343
67.8582,47.9
67.8696,135.7
67.8935,128.7
67.9131,152.4
67.9166,84.8
67.9211,207.4
67.9533,47
67.9633,17.5
67.981,218.3
68.055,544
68.0959,364.7
68.0981,99.6
68.1269,700.7
68.1478,462.7
68.1579,210.5
68.1592,146.1
68.1663,557.1
68.187,556.8
68.2345,197.3
68.2515,19.1
68.2536,172.3
68.2549,396.3
68.2892,161.9
68.298,157.4
68.3032,505.9
68.3193,50.2
68.3304,73.4
68.3692,113.8
68.381,227.2
68.3998,24.5
68.4307,16.5
68.4352,251.4
68.439,228.9
68.4731,137.6
68.4751,627.3
68.4805,98
68.4885,129.7
68.4953,203.9
68.5145,16.8
68.5178,16.4
68.5213,134.5
68.5252,357
68.5272,249.6
68.5551,134.4
68.577,115.3
68.5821,359.3
68.5932,188.8
68.6149,139.4
68.669,108.3
68.6841,99
68.7127,129.2
68.7132,433.6
68.7234,85.9
68.7267,482.2
68.7435,467
68.7486,19.3
68.7537,19.7
68.7615,16.6
68.7789,18.1
68.7861,310.5
68.7886,115.6
68.8064,21.5
68.8183,18.5
68.8195,497
68.8463,587.3
68.8665,180.1
68.8911,306.8
68.8995,139.1
68.9118,85.8
68.9495,254
68.9573,18.5
68.9698,85.3
68.9752,96.6
68.9766,18
69.0019,158
69.0137,337.7
69.0393,180.7
69.0614,86.2
69.0927,274.7
69.0947,108.5
69.1024,110.3
69.1319,341.6
69.1357,85.2
69.1573,763.2
69.2149,58.6
69.221,169.7
69.232,141.4
69.2385,18.3
69.2687,16.2
69.2842,78.6
69.3132,19.8
69.3195,232.3
69.3212,346.2
69.3243,121.2
69.3431,91.2
69.3615,317.1
69.3724,349.6
69.3736,16.3
69.3814,185.1
69.3829,257.1
69.4328,88.7
69.4341,493.3
69.4357,424.1
69.4369,831.2
69.4382,457.1
69.4498,98.3
69.4764,623.2
69.488,152.6
69.5389,317.8
69.5402,205.3
69.5568,389.8
69.5637,20.7
69.5672,20.8
69.5817,20.5
69.6007,370.7
69.604,560.6
69.6149,102.4
69.621,658.2
69.6317,269.4
69.6438,205.2
69.6478,173.9
69.6603,44.3
69.6807,365.8
69.6822,235.5
69.7088,110.5
69.7531,571.8
69.8062,91.7
69.826,155
69.8459,233.9
69.867,141.5
69.8682,304.9
69.9244,454.4
69.9375,75.2
69.9482,113.4
69.9556,16
69.9575,573.5
69.9623,91.8
69.9628,353.6
69.9964,107.4
69.9985,156
70.0259,183.7
70.0288,17.2
70.0417,133
70.0429,17
70.0547,16.2
70.0649,672.4
70.0794,527.3
70.0827,184.9
70.0846,242
70.0878,339.5
70.1114,94.6
70.1155,157
70.1331,77.7
70.1403,199.8
70.1434,122.3
70.1457,129
70.16,271.1
70.1722,120.7
70.1807,251
70.1834,267.8
70.192,662.9
70.2141,261
70.2409,241.2
70.2434,100.9
70.2483,276.8
70.2635,108.7
70.2641,200
70.2867,320.8
70.2879,543.1
70.3006,596.7
70.3155,104.2
70.3329,296.2
70.3447,395.6
70.3468,221.8
70.3477,666.6
70.3507,316.6
70.3586,131.1
70.3608,17.4
70.3835,285.4
70.3947,228.7
70.3972,406.2
70.4558,94.3
70.4679,258
70.4778,356.5
70.4954,18.8
70.524,562.4
70.5479,487.7
70.5646,204.9
70.569,147.4
70.583,245.3
70.6149,639.9
70.6151,559.5
70.6155,534.2
70.6211,177.3
70.626,583.4
70.6407,94.2
70.6448,129.5
70.6524,162.3
70.6572,220
70.6893,293.3
70.6992,340.9
70.7031,107.9
70.7101,546.1
70.7211,176.1
70.7256,788.9
70.7568,139.6
70.7578,788.1
70.768,333.2
70.7701,323.9
70.814,216
70.8157,102.3
70.8199,291.2
70.8244,108.8
70.8265,17.4
70.8335,211.1
70.8475,91.7
70.86,237.2
70.8668,195.2
70.8807,718.2
70.8851,17.1
70.8877,335.5
70.8994,297.7
70.929,357.2
70.9388,192
70.944,694.9
70.9452,20.5
70.9494,275
70.9855,405.3
71.0009,119.1
71.0541,319.4
71.0568,85.7
71.0625,51.1
71.0681,220.3
71.0707,386.7
71.1265,493.5
71.1293,275.9
71.1456,113.6
71.1668,99.7
71.1697,14.9
71.1821,129.6
71.1906,452.8
71.2012,154.9
71.2241,229.5
71.2333,17.6
71.2573,193.5
71.2584,132
71.2593,483.7
71.2692,276.5
71.3183,371.8
71.3209,17
71.326,116.3
71.3443,438.7
71.363,76.3
71.3907,421.6
71.3966,18.4
71.415,18.3
71.4236,174.8
71.4258,17.1
71.4314,20.8
71.4547,276.2
71.4615,79.5
71.4679,181.1
71.4763,364.6
71.481,75.2
71.4854,427
71.4937,177.8
71.4995,461.8
71.5372,113.6
71.5587,127.1
71.5905,18
71.5978,81.7
71.6083,174.5
71.6215,83.2
71.6572,20
71.6713,154.1
71.6745,229.1
71.6847,77.7
71.6933,146.9
71.6949,223.8
71.697,95.6
71.7003,261.6
71.7307,218.3
71.7498,265.8
71.7562,84.1
71.7821,17.1
71.7831,184.2
71.7885,20.5
71.8072,284.8
71.8457,145.3
71.8701,120.3
71.9198,149.9
71.9425,132.4
71.9496,140.6
71.9518,331.1
71.9555,15.8
71.9669,598
71.9814,572.2
71.983,322.8
71.9858,445.3
71.9873,94.8
71.9915,414.2
71.9921,525.6
71.9948,516.9
72.0037,19.4
72.0121,138.3
72.0487,261.7
72.0528,15.7
72.0602,687.4
72.0805,1512.5
72.083,270.2
72.1106,153.9
72.1128,196.1
72.1167,616
72.1201,626.2
72.1237,505.2
72.1304,152.9
72.1373,17.6
72.1385,139.1
72.1504,17.4
72.153,389.2
72.1547,175.3
72.1557,366.7
72.1775,366
72.1779,119
72.1809,20.2
72.2006,110.2
72.2096,212.5
72.2109,116.6
72.2144,87.7
72.2178,453.9
72.2192,583.3
72.2197,378.8
72.2207,731
72.2211,824.9
72.2235,749.4
72.2246,41.7
72.2259,2423.8
72.227,1948.2
72.2275,1666.6
72.2286,1765.4
72.2291,1362.2
72.2293,1338.4
72.2307,2072.4
72.2314,3713.9
72.2323,2657
72.2328,3159
72.2339,1410.1
72.2349,3176.9
72.2363,3988.1
72.2373,1378.8
72.2376,1383
72.2381,1606.5
72.239,1367.6
72.2396,1587.6
72.2407,975
72.241,950.5
72.2414,1097
72.2429,887.1
72.2434,1129.7
72.244,831.9
72.2451,482.4
72.2453,527.8
72.2469,429.7
72.2481,355.3
72.2495,195
72.2501,165.3
72.2516,128.3
72.2805,447.1
72.3003,340.3
72.3353,128.7
72.3545,15.6
72.3567,100.3
72.3896,617.2
72.4279,86.5
72.4319,467.6
72.4493,465.4
72.469,158.8
72.4873,131.7
72.5152,298.5
72.5175,722.3
72.5196,87.8
72.5397,243.5
72.5546,571.5
72.5808,49
72.6202,341
72.6277,22.5
72.6411,273.2
72.6548,19.6
72.6556,97.8
72.6746,230.2
72.6781,96
72.6863,16.3
72.6975,119
72.7093,86.4
72.738,378.6
72.7546,199.4
72.7653,107.4
72.7673,242.6
72.771,307.8
72.7748,17.3
72.7912,251.3
72.8134,18.5
72.8265,83.5
72.8537,226.5
72.8577,17.3
72.8675,138.9
72.8784,160
72.888,142.4
72.8898,407.9
72.8908,139.3
72.9047,110.1
72.9056,106.5
72.9139,643.8
72.9299,185.7
72.941,166.8
72.9435,145.4
72.9531,184.2
72.9714,517.9
72.9768,658.8
73.0154,642.2
73.0312,419.4
73.0519,120
73.1307,390.6
73.1453,209
73.1563,271.7
73.1596,17.3
73.1667,187.8
73.201,293
73.2031,320
73.2111,86.7
73.2157,202
73.2162,19.3
73.2188,93.1
73.2367,144.2
73.2517,668.3
73.2687,92.8
73.2753,42.4
73.2918,275.2
73.3086,635.7
73.3448,83.9
73.3466,138
73.3603,17.7
73.362,138.5
73.369,20.6
73.3731,45.1
73.3911,314.2
73.3995,221.3
73.4042,748.8
73.4306,78.5
73.4415,87.2
73.4547,294.7
73.475,403.6
73.4771,117.7
73.487,86.3
73.4952,16
73.4985,715.4
73.5191,162.4
73.5375,682
73.5648,101.3
73.5665,113.9
73.575,215.7
73.5776,191.5
73.5799,383.9
73.6196,148.8
73.6241,394.8
73.6297,353.4
73.6331,202.7
73.6341,637.9
73.6419,218.3
73.6531,76.1
73.6888,191.2
73.6961,438.2
73.6998,189
73.7013,19.1
73.7205,22
73.7512,691.5
73.765,20.1
73.7683,553.5
73.7715,556
73.7869,305.6
73.8027,127.1
73.8238,179.5
73.8748,490.8
73.8757,558.2
73.8888,302.2
73.9065,91.6
73.9076,158.9
73.9102,280.4
73.9162,142.6
73.9172,525.7
73.9476,141.3
73.9603,152.6
73.9619,42.4
73.9634,109.7
73.9706,282.8
73.9743,197.5
74.0184,278
74.0204,81.6
74.027,147.3
74.0331,387.2
74.0399,82.9
74.0419,114.5
74.0598,3327.4
74.072,18.3
74.095,274.6
74.0956,22.4
74.1109,85.6
74.1211,312
74.144,17.5
74.1472,216.7
74.1485,22.2
74.1549,100.1
74.1583,327.9
74.1611,217.4
74.1779,108.3
74.183,415.1
74.1847,756.4
74.1908,535
74.198,131.3
74.2004,175.3
74.2199,133.7
74.2229,270.1
74.2472,83.8
74.2478,43.5
74.2775,103.8
74.2928,97.1
74.2964,106.3
74.3136,169.1
74.3186,194
74.3267,171.7
74.337,341
74.3459,842
74.385,227.2
74.3879,467.7
74.3927,81.5
74.412,133.1
74.4186,331.8
74.4208,17.3
74.4432,122.1
74.4454,115.9
74.4534,135.8
74.4741,359.7
74.4755,356.2
74.4787,98.6
74.4863,86.2
74.5099,101
74.5367,160.6
74.5626,716.9
74.6019,18.6
74.6439,16.7
74.6654,137
74.689,197.8
74.7567,46.7
74.7603,147.1
74.7705,374.4
74.7753,506.3
74.7867,92.2
74.7896,365.9
74.8069,212.9
74.8605,212.4
74.8682,376.5
74.869,96.2
74.8798,131.8
74.885,152.7
74.8963,272.3
74.9131,17.9
74.9372,552.1
74.9487,293.2
74.9536,164
74.9552,113.2
74.9715,20.8
74.9894,127.8
74.9938,92
75.0302,16
75.0442,247.3
75.0531,585.2
75.0839,17.9
75.096,44.8
75.1447,90.5
75.1517,108.7
75.1536,43.1
75.1816,82.7
75.1933,92.4
75.1996,117.4
75.2005,112.7
75.2029,16.9
75.2104,157.6
75.2263,17.1
75.2311,94.1
75.2921,18
75.3188,44.2
75.3265,232.7
75.3322,80.6
75.3435,86.9
75.3668,80.9
75.3707,516.1
75.3847,228.7
75.4072,16.8
75.4276,552.7
75.4345,17.9
75.448,354.8
75.4491,221.6
75.4579,271.7
75.4868,19.1
75.4882,129.6
75.5163,122.8
75.5348,457.6
75.5905,90.1
75.5913,765.4
75.6106,705.2
75.6244,226.8
75.6374,339.2
75.6705,43.3
75.6735,481.6
75.6887,122.5
75.702,657.9
75.7114,327.5
75.7354,549.1
75.738,91.2
75.7398,84.4
75.776,120.1
75.7785,102.1
75.8167,91.9
75.8313,79.9
75.8534,222.5
75.8762,96.1
75.8998,16.4
75.9083,18.1
75.922,152.6
75.9417,595.6
75.983,855.9
75.9936,50.7
76.0222,20.3
76.0338,87.8
76.0345,128.6
76.0705,98.7
76.1342,18.2
76.1412,123.5
76.1483,120.5
76.1587,19.1
76.1847,300.1
76.1902,311.2
76.1933,236
76.2156,16.2
76.2182,92.4
76.2243,359.5
76.2734,536.4
76.2744,97.6
76.2769,324.9
76.3001,314.9
76.333,144
76.3436,115
76.3449,82.3
76.3786,327.8
76.4141,40.7
76.4454,251.6
76.4647,319.3
76.4782,477
76.4848,89.3
76.5014,134
76.5031,18
76.5317,21.2
76.5345,182.7
76.5357,79.5
76.543,141.5
76.5474,17.7
76.5718,156.8
76.5727,80.2
76.5778,93.5
76.5974,511
76.6064,230.5
76.6279,299.3
76.6366,361.2
76.6403,504.5
76.6439,90.3
76.6785,138.9
76.6822,231.1
76.687,18.1
76.7081,145.8
76.7487,325.4
76.7638,212.8
76.776,381.4
76.7809,118.5
76.8434,335.6
76.8565,255
76.8609,110.2
76.8766,477.9
76.9121,106.5
76.9141,170.9
76.926,116.3
76.9389,150.6
76.9401,92
76.9653,486.3
76.9703,173.6
76.9712,17.5
76.9728,242
76.991,353.1
76.9968,544.3
77.0044,274.7
77.0069,17.4
77.0232,279.7
77.0251,358.8
77.0312,430.4
77.0326,517.9
77.0343,99.1
77.035,415.4
77.0374,31.3
77.0384,123642.9
77.0506,167.9
77.0769,699.2
77.0812,676.1
77.1037,209.3
77.1272,92.2
77.1695,100.5
77.1705,16.8
77.1935,239.7
77.1961,157.1
77.2084,572.5
77.2159,136.5
77.2205,399.5
77.2506,137.4
77.2539,296
77.2715,327.3
77.2877,94.7
77.2975,512.5
77.2987,169.8
77.3084,148
77.3254,44.5
77.3495,195.8
77.3601,662.4
77.3659,306.8
77.3699,236.2
77.3708,106.8
77.3739,585.3
77.3869,138.5
77.4156,432.1
77.4216,401.3
77.4489,186.6
77.4912,155.1
77.5063,483.7
77.5073,201.2
77.5135,328.7
77.5425,600.4
77.5561,309.4
77.5636,434.3
77.5904,17.8
77.6053,219.6
77.6184,19.7
77.6217,99.1
77.6596,342.4
77.6698,143.4
77.7292,199
77.7978,98.9
77.8057,93.4
77.8223,691.6
77.8271,413.5
77.8627,23.2
77.8699,161.6
77.8764,20.6
77.8994,240.9
77.918,106.5
77.947,17.5
77.9481,313.4
77.9606,288.7
77.968,168.6
77.9809,17.9
77.9837,111.6
78.0154,220.4
78.0284,142.5
78.0417,3769.2
78.0532,640.2
78.0946,208
78.101,83.2
78.1047,234.4
78.1179,138.8
78.1186,142.8
78.1431,343
78.1487,234
78.1757,219.5
78.2163,229.2
78.2527,150.9
78.2778,170.5
78.2891,166.4
78.3061,122.3
78.3085,162.9
78.3248,228.8
78.3411,135
78.3499,341.4
78.397,121.8
78.4111,533.7
78.4191,263.9
78.4643,88
78.4656,212.5
78.482,84.4
78.5029,22
78.5219,142.3
78.5523,90.3
78.5902,17.2
78.6153,131
78.6607,154.4
78.6661,107.9
78.6681,325
78.672,549.8
78.6865,94.8
78.711,112.1
78.7304,95.5
78.7373,225.2
78.7491,622.8
78.7575,329.2
78.8036,15.5
78.8286,86.3
78.8344,16.5
78.8458,19.5
78.8545,184.8
78.8557,90.4
78.8782,121.6
78.8865,203.5
78.9099,491.3
78.9173,478
78.9566,86.5
78.9651,515.8
78.9837,143.2
78.9887,85.5
78.991,229.4
78.995,79.8
78.9969,234.4
78.998,358.8
79.0497,610.8
79.054,2264.6
79.0631,145.2
79.0715,109.4
79.0947,324.4
79.0967,304.3
79.1048,99.8
79.1116,265.5
79.1196,316.9
79.1329,492.2
79.1598,579.1
79.1802,323.6
79.186,314.6
79.2177,417.3
79.2515,111.2
79.2609,334.9
79.2661,138.6
79.2877,17.6
79.3043,618.7
79.3222,42.3
79.3386,102.5
79.3402,278.3
79.341,149.3
79.3425,408
79.3587,350.4
79.3623,411.7
79.3673,178.4
79.3725,394.4
79.3935,338.5
79.4069,136.8
79.4126,267.8
79.4246,129.5
79.4722,205
79.4942,45.3
79.5032,18.9
79.5098,730.6
79.5172,355.3
79.529,40.5
79.5412,88
79.5508,451.2
79.5527,17.3
79.5612,228.9
79.5799,287.9
79.6114,15.7
79.6298,381.3
79.6451,453
79.6622,248.9
79.6674,117
79.673,18.8
79.6833,123.1
79.7414,233.6
79.7431,19.5
79.7507,716.7
79.7588,173.5
79.7598,158.3
79.8049,574.4
79.8191,280.7
79.844,175.1
79.8522,164.9
79.8853,270.6
79.9021,278.4
79.9451,91.5
79.9566,126.6
79.9671,116.7
79.9679,383.7
79.9684,20.6
79.9716,552.4
79.9799,243.9
79.9822,126.8
79.9942,356.8
79.9953,120
80.0102,192.7
80.0254,89.8
80.0338,98.3
80.049,126.7
80.0496,94.9
80.0914,137.4
80.097,81.5
80.1001,17.5
80.1117,310.5
80.1166,479.1
80.1224,147.6
80.128,18.8
80.1429,384.8
80.1621,46.4
80.171,249
80.2153,103.9
80.2169,136.8
80.2336,146.3
80.2355,285.3
80.2475,607
80.2784,94.3
80.2809,17.2
80.333,86.2
80.3747,18.5
80.3936,274.9
80.4137,115
80.4168,416.5
80.4262,43.6
80.4279,572.4
80.452,135.2
80.4582,444.2
80.4853,19.1
80.4878,782.9
80.5091,95.2
80.5114,108.6
80.5153,89.8
80.5257,230.4
80.5516,375
80.5634,238.9
80.5897,85.2
80.6336,614.5
80.6519,88.3
80.663,528.6
80.6641,123.7
80.7102,162.5
80.7107,51.6
80.7209,142.5
80.7246,136.2
80.7427,158.7
80.7787,160.7
80.7811,17.9
80.7841,119.3
80.8002,388.5
80.8104,53.1
80.824,468.4
80.8389,733.3
80.8443,625.1
80.8616,18.5
80.865,17.4
80.8684,102.2
80.8723,142.4
80.9191,295.3
80.9476,67716.7
80.9503,569.6
80.9513,153.5
80.9611,90.4
80.9792,105.6
80.9865,86.9
80.9931,436.8
81.0031,151.5
81.0309,251.5
81.0319,149.9
81.0341,608.2
81.0353,347.7
81.0519,18.2
81.0594,144.2
81.063,328.5
81.064,86.3
81.0697,860.7
81.1125,204
81.1419,893.9
81.1427,1940.7
81.144,1785.3
81.1464,639.7
81.1481,599.9
81.1488,194.3
81.1521,321.8
81.1641,107.4
81.1731,315.1
81.1803,18.8
81.1902,377
81.193,77.9
81.2072,144.6
81.2316,129.3
81.2353,395.8
81.2375,629.6
81.2908,234
81.2958,18.4
81.3231,135.1
81.3614,354.7
81.3737,92.6
81.4338,333.3
81.4548,90.9
81.4639,107.2
81.4736,572.5
81.5079,248.7
81.5151,739.1
81.5429,89.5
81.558,270.5
81.5588,17
81.5636,211.3
81.5687,524.8
81.5827,299.9
81.6055,381
81.6077,207.6
81.6141,575.6
81.6167,338.2
81.6265,423.7
81.6543,87.2
81.6689,625.8
81.7129,86.7
81.7463,686.6
81.759,148
81.8352,92.7
81.845,115.6
81.8712,89.3
81.8753,107.1
81.9002,214.8
81.9227,50.6
81.9537,111.1
81.9685,76.3
81.986,275.5
82.0335,322.9
82.0564,393.4
82.0682,137.4
82.0686,146.6
82.0702,92.2
82.0947,626.6
82.1375,18.3
82.16,22.2
82.1787,338.4
82.2239,74.6
82.2568,358.3
82.277,92
82.278,432
82.3222,73.9
82.3251,89.6
82.3484,719.3
82.3751,110.3
82.3841,508.4
82.3976,151.9
82.4238,17.6
82.4375,22.6
82.4561,363.2
82.459,23.1
82.4868,144.1
82.4997,213.8
82.5285,93.3
82.5308,124.6
82.5386,237.8
82.5549,20.9
82.5566,89
82.5772,147.9
82.5781,278.3
82.582,17.5
82.5971,75.1
82.6235,131.5
82.6307,284
82.6337,17.7
82.6442,322.8
82.6876,230.9
82.7143,125
82.7562,330.5
82.7894,309.8
82.7929,199.4
82.8083,18.5
82.8101,290.3
82.8136,218.1
82.835,22.6
82.8746,142.9
82.8839,94.5
82.9209,182.1
82.9418,689.7
82.9447,18376.4
82.9545,198.3
82.9608,328.3
82.9675,19.5
82.9743,19
83.0215,715.4
83.0352,760.7
83.0404,428.5
83.0428,236.5
83.0707,156.5
83.091,635.9
83.1303,738
83.1504,300.9
83.1752,101.7
83.1944,541.1
83.1961,230
83.1995,84.9
83.2016,110.6
83.2302,87.8
83.2725,311.4
83.314,41.4
83.3191,52.1
83.3206,158.3
83.3305,356.4
83.3473,143.8
83.3505,18.8
83.3935,611
83.4193,632.3
83.4347,157
83.4549,134.9
83.4931,18.9
83.519,145.4
83.5239,334.1
83.551,453.7
83.5749,242.5
83.5957,403.6
83.5966,106.4
83.5971,84.2
83.6244,506.9
83.6847,671.7
83.6985,17.1
83.7217,149.9
83.7563,309.7
83.7816,191.5
83.7855,146.7
83.794,348.4
83.8027,140.1
83.8193,306.6
83.8331,693.5
83.8406,98.2
83.8415,426.9
83.846,270.3
83.8619,142.6
83.9086,281.5
83.9151,25.4
83.918,156.4
83.9241,953.8
83.9247,166.3
84.006,136.9
84.0141,147.5
84.0209,124.6
84.0301,16.9
84.0442,1090.9
84.0454,355.5
84.0509,290
84.0799,19.5
84.0848,131.7
84.0902,17.6
84.1108,135.6
84.1264,126.6
84.1421,381.6
84.1453,90.7
84.1465,15.7
84.1508,110.2
84.1756,97.1
84.1907,668.6
84.2157,140.5
84.2295,446.9
84.235,16.2
84.2979,204.4
84.3097,553.6
84.3168,98.6
84.3586,128.5
84.3797,78.1
84.3816,119.3
84.4056,85.5
84.4272,93.3
84.4311,476.9
84.4327,226.3
84.4409,425.6
84.4576,20.6
84.4641,393.1
84.4709,550.7
84.4717,206.1
84.5075,17.6
84.5162,446.5
84.656,97.7
84.6708,96.5
84.6934,423.9
84.7528,16.8
84.7876,489.8
84.7936,19
84.8009,754.2
84.811,85.4
84.814,578
84.821,493.3
84.8303,102.5
84.851,105
84.8661,387.1
84.8778,335.7
84.879,450.8
84.8875,142.9
84.9029,103.8
84.9159,165.8
84.9368,584.7
84.9401,507.3
84.9478,318.9
84.9595,24488.2
85.0004,21.1
85.0282,3500.7
85.0382,267.7
85.0591,92.8
85.0681,99.1
85.0888,106.5
85.0941,171
85.0949,95.4
85.1133,20
85.1646,121.8
85.1991,104.3
85.2011,558.1
85.2064,294.6
85.2176,571
85.2272,121
85.2315,128.1
85.2684,75.6
85.2699,410
85.351,157
85.3553,143.1
85.3637,18
85.3837,948.6
85.4423,172.6
85.458,258
85.512,293.8
85.5276,393.5
85.5331,537.5
85.5399,750.2
85.5416,128.7
85.556,196.2
85.558,179.8
85.5657,567.6
85.5767,342.2
85.5848,504.6
85.5936,415.4
85.6135,258
85.6255,253
85.6296,570.5
85.6352,249.4
85.6581,300.2
85.6717,16.5
85.6991,483.1
85.7005,19.1
85.7016,140.1
85.7143,122.7
85.7259,148.9
85.7608,15.5
85.7688,346.1
85.7701,110.9
85.773,613.1
85.7945,239.9
85.8064,103.8
85.8216,205.4
85.8264,215.7
85.83,149.8
85.8343,210.8
85.8477,397.6
85.8618,161
85.8765,90.6
85.9031,408.1
85.9193,459.2
86.0135,83
86.0357,198.9
86.0366,318.2
86.0599,36336
86.0634,86
86.0963,108006.8
86.1522,457.2
86.1542,320.2
86.1572,83.5
86.2215,17.4
86.2315,17.7
86.2419,416.3
86.2655,301.3
86.2745,127.1
86.2762,72.2
86.2869,120.8
86.3019,158.6
86.3145,300.2
86.3288,103.6
86.3307,310.9
86.3557,83.2
86.3679,43
86.3694,48.8
86.3978,208.2
86.4006,19.6
86.4146,102.5
86.4332,548.4
86.4535,44.5
86.4925,500.3
86.4949,100.6
86.5214,232.5
86.5223,649.8
86.5416,107.8
86.5808,89.2
86.5845,355
86.6155,239.4
86.628,144.2
86.6299,332.9
86.6911,87.2
86.6939,740.7
86.6995,19.6
86.7074,480.2
86.7186,364.2
86.7206,157.2
86.746,388.9
86.7748,386.7
86.8131,323.8
86.828,88.9
86.8582,16.6
86.8709,381.9
86.9045,17
86.9107,115.3
86.9882,104.4
87.0137,46.4
87.018,195.9
87.0396,89
87.0424,496.8
87.0457,566.9
87.0501,146.2
87.0554,411.3
87.0791,166.9
87.0997,728.9
87.1262,185
87.1276,290.7
87.1501,137.2
87.1699,358.8
87.1905,440.2
87.2048,95
87.2744,351.9
87.2929,192.4
87.3437,405.1
87.3525,17.5
87.3739,735.2
87.3914,17.6
87.3998,18
87.4109,17.5
87.4209,745.1
87.446,350.9
87.4739,170.6
87.4783,224.4
87.5429,700.7
87.5457,269.5
87.5672,17.3
87.5793,364.8
87.6107,340.3
87.6383,121.3
87.6394,157.9
87.6452,431.6
87.6891,225.3
87.7101,20
87.7276,84.7
87.7327,144.9
87.7488,329.9
87.7569,229.1
87.7605,119.3
87.7719,253.6
87.7946,85.2
87.8555,381.5
87.884,651.6
87.9159,156.9
87.9253,20
87.9338,247.2
87.9556,19.5
87.9627,403.4
87.9717,154.8
87.9773,372.5
87.9805,540
88.006,268.8
88.0227,17.2
88.0392,7551.5
88.0474,79
88.0512,172.6
88.0571,146.5
88.0653,83.9
88.0746,100.3
88.102,554.2
88.1102,132.4
88.1226,125.3
88.1329,525.3
88.1389,255.4
88.1453,41.5
88.1642,168.2
88.1832,18.1
88.1915,20
88.2196,207.8
88.2681,265
88.2966,292.7
88.3072,153.9
88.3469,19
88.3617,42.4
88.3835,208.9
88.3908,293.7
88.4327,116
88.4337,416.6
88.4758,465.8
88.4868,481.8
88.5004,337.2
88.5267,318.4
88.5289,22.1
88.5522,122
88.575,424.2
88.586,142.6
88.6218,271.5
88.6418,662.2
88.6675,220.4
88.6728,328.8
88.6777,149.2
88.6893,121
88.7046,143.6
88.7321,22.4
88.7504,405.3
88.7617,448.8
88.7747,277
88.8059,17.3
88.8089,162.9
88.8186,91.5
88.8246,213.4
88.8404,222.9
88.8616,23.9
88.8709,224
88.8812,141.4
88.9144,307.5
88.9237,169.3
88.9323,145.3
88.9618,52.1
88.9634,243.9
88.9821,199.3
89.053,87.2
89.0911,266.8
89.0945,315
89.1063,306.3
89.118,626.7
89.1287,491.3
89.1508,249.7
89.207,333.7
89.2162,97.2
89.2182,487.8
89.225,524
89.2285,512.9
89.3147,425.8
89.3164,163.1
89.3636,598.2
89.4007,313.3
89.4152,257.1
89.4236,360.9
89.4267,137.4
89.4339,470.6
89.4501,497
89.4599,685.4
89.47,92.5
89.4801,158.1
89.4944,155.1
89.5135,365.9
89.5181,84
89.527,146.1
89.5582,159.2
89.5669,244.3
89.5848,379
89.6231,21.1
89.6449,18.2
89.6579,536.9
89.6923,19.1
89.7027,20.8
89.7376,87.5
89.7391,98.9
89.7499,388.1
89.7517,345.9
89.7967,91.8
89.8443,22.3
89.8655,108.7
89.8695,21.7
89.8807,117.1
89.8861,702.6
89.9291,236.3
89.9313,483.1
89.932,148
89.9621,42.8
89.9824,126.4
90.0086,248.2
90.0098,391.3
90.0799,282.8
90.121,125.6
90.141,105.2
90.1491,91.4
90.1598,94.8
90.1637,248.8
90.2123,277.7
90.2162,286.9
90.247,206.6
90.2526,735.6
90.2868,128.6
90.3023,240.5
90.3057,329
90.3315,461.7
90.3385,150.8
90.3556,409.1
90.4264,731.6
90.4438,92.2
90.4687,181.8
90.472,112.1
90.4854,706.3
90.4881,91.6
90.5734,104.8
90.5792,336.8
90.5932,21
90.6091,90
90.6204,207.1
90.6298,133.2
90.6451,305.9
90.6734,342.8
90.688,362.4
90.703,157.7
90.7104,433.6
90.7114,614.9
90.7372,207.9
90.7465,314.5
90.774,589.8
90.7813,92.4
90.7862,18.9
90.7947,404.5
90.7992,149.2
90.8184,16.7
90.8268,461.4
90.8307,135
90.8504,141.5
90.9138,21.5
90.922,260.8
90.9265,363.5
90.9476,94
90.96,327.9
90.9752,711.5
90.9765,11515
90.9796,316.2
90.9971,734.2
91.0106,18.4
91.0541,2390.9
91.0626,286.6
91.1641,46
91.1802,18.7
91.217,331.2
91.254,526.6
91.2688,364.7
91.27,180.4
91.273,797.9
91.3027,176.8
91.3314,371.5
91.3674,104.8
91.4013,270.9
91.4304,166.1
91.498,318.1
91.5222,373
91.5304,299.6
91.5312,17.8
91.5469,143.6
91.5566,192.5
91.5735,42.2
91.5882,603.4
91.6066,170.4
91.6112,393.8
91.6286,165.3
91.691,43.9
91.7242,327.9
91.7299,199.9
91.841,85.2
91.8709,126.3
91.8923,269.2
91.922,92
91.9549,352.4
91.9909,388.6
92.0464,115.7
92.0574,37.7
92.0664,226.2
92.0674,17.7
92.0683,117.8
92.0718,398.2
92.0849,332.6
92.1008,148.9
92.1258,151.7
92.1416,98.4
92.152,284.9
92.1571,812.4
92.1736,102.1
92.1803,151
92.1874,330.7
92.1956,277.5
92.2023,286.2
92.2336,18.3
92.248,188.5
92.2626,84.4
92.2818,186.1
92.3027,364.6
92.3129,175.7
92.322,773.2
92.3501,194
92.3782,19.4
92.408,19.2
92.4123,113.2
92.4506,110.6
92.4748,189
92.4867,348.5
92.4941,230.1
92.4959,224
92.5491,467.2
92.5665,138.8
92.6499,110.4
92.6754,116.7
92.6798,402.1
92.692,44.9
92.7051,22.4
92.7477,235.8
92.7498,154
92.756,16.5
92.7978,478.3
92.7988,147.3
92.8072,19.5
92.8094,750.8
92.8117,341.7
92.8332,19.4
92.8752,151.6
92.894,171.7
92.9006,96.8
92.9195,420.4
92.9419,230.3
92.9541,540
92.97,167.6
93.0055,359.9
93.0126,598.8
93.0222,102.5
93.0572,20.9
93.0622,645.8
93.0699,54.1
93.0812,282.5
93.0938,229.8
93.1224,421.2
93.1488,389.6
93.154,295.2
93.1567,182.9
93.199,272.7
93.2254,127.9
93.2637,375.5
93.2848,650.4
93.2975,306
93.3387,18.7
93.3509,205.7
93.3694,328.8
93.3737,635.2
93.399,255.3
93.4165,137.9
93.4196,115.2
93.4207,790.2
93.5212,482
93.528,17.3
93.535,430.3
93.536,432.5
93.5518,113
93.562,522
93.5915,643
93.6157,216.5
93.6334,160.8
93.6382,189.1
93.6517,20
93.6541,18.3
93.668,287.5
93.7215,165.8
93.7327,334.8
93.7735,19.7
93.7779,231.3
93.7794,102
93.8092,18
93.8288,584.3
93.8305,263
93.8514,80
93.8767,576.6
93.9229,368.1
93.934,495.2
93.9416,174.6
93.9444,208
93.9512,74.2
93.9842,157.5
93.9935,84.1
94.0034,201
94.0092,144.7
94.0107,224.1
94.0165,22.4
94.0276,16.9
94.0285,400.6
94.0288,410.2
94.0293,293.4
94.0412,54744.9
94.0445,82.6
94.0499,17.3
94.0847,531.3
94.1219,136.8
94.1343,54
94.1434,78
94.1474,349.4
94.1637,456.9
94.2261,144.6
94.2752,225.5
94.2805,87.7
94.2823,450.1
94.2926,519.2
94.3079,186.1
94.3165,198.6
94.3265,111.9
94.3445,479.4
94.3477,116
94.3689,215.9
94.3764,740.2
94.3852,326
94.4007,391.1
94.4094,405.3
94.4406,167.4
94.4651,125.9
94.4694,446.2
94.4718,180.6
94.4942,92.3
94.5008,353.1
94.5027,301.5
94.5074,20.8
94.5136,602.7
94.5324,82.3
94.5372,192.4
94.5476,48.8
94.5544,94
94.5776,172.7
94.6388,425.9
94.6619,413.3
94.6653,147.1
94.6728,161.5
94.6879,191.2
94.7511,206.1
94.784,338.2
94.799,614.1
94.8012,167.5
94.826,216.4
94.8431,353.4
94.9284,652.8
94.9336,292
94.9443,126.7
94.9546,192.5
94.9957,551.6
95.0088,98.1
95.0356,27.3
95.0372,153
95.042,41.9
95.0434,43.8
95.0446,1216.1
95.0464,53.3
95.047,97.2
95.0473,130.9
95.049,442594.4
95.0504,252.4
95.0514,75.3
95.0555,462.8
95.0624,20.4
95.0673,104.9
95.0854,670
95.0892,25.4
95.1058,456.9
95.1179,271.9
95.119,529.6
95.1269,385
95.1431,281.3
95.1446,345.6
95.1688,162.4
95.219,239.7
95.2428,248.4
95.2474,19.5
95.3068,99.6
95.3146,219.7
95.3245,213.5
95.3356,194.7
95.3391,95.2
95.3407,95.3
95.3722,565.4
95.3803,239.7
95.4109,140.1
95.4258,180.3
95.4276,338.2
95.4557,107.4
95.5356,413.4
95.5774,81.7
95.5931,346.7
95.5951,301.1
95.609,19.6
95.6203,774.6
95.6833,86.1
95.7067,18.5
95.7254,294.8
95.741,361.5
95.8053,224.7
95.8141,19.2
95.8663,527
95.8807,188.9
95.938,291.8
95.9635,18.2
95.9726,737
96.0241,155.4
96.0524,22963.7
96.073,120.6
96.0989,327.5
96.1058,123.4
96.1134,155.7
96.1148,157.5
96.1774,182.6
96.183,196.2
96.2085,316.3
96.2104,100.2
96.2191,392.5
96.2268,88
96.2365,90.7
96.24,176.4
96.2716,200.8
96.2948,105.5
96.3179,210.3
96.3653,105.9
96.3772,279.1
96.4314,517.8
96.4431,165.3
96.4492,115.3
96.5296,112.6
96.5367,83.6
96.539,391.1
96.564,138
96.5726,93.4
96.5897,491.1
96.5961,259.5
96.6054,95.1
96.6275,148.5
96.6369,96.9
96.6411,103.9
96.6429,126.9
96.6465,94.6
96.6578,252.3
96.6765,144.4
96.6943,148.6
96.6987,414.7
96.7006,171.6
96.7039,131.4
96.7088,365.5
96.7376,21.4
96.7442,134.8
96.7527,750.5
96.8069,118.8
96.8136,235.8
96.858,365.4
96.8826,397.5
96.9217,166100.7
96.941,126.8
96.9821,319.2
96.989,17.6
96.9917,87.2
97.0075,209.6
97.0221,88.6
97.0533,82.6
97.0558,58.3
97.0651,679.4
97.0796,96.4
97.1011,40.3
97.1168,16.3
97.1171,16
97.1572,269.2
97.1792,17.2
97.1982,187.8
97.2597,278.7
97.2871,17.9
97.3006,1013.4
97.309,213.9
97.3198,22.3
97.388,90.7
97.3905,403.2
97.4024,741.1
97.4234,461.5
97.4279,91.4
97.4339,160.2
97.4365,92.3
97.4987,310.2
97.5052,79.9
97.5078,20.3
97.5191,16.9
97.5323,178.5
97.5434,394
97.5529,170.6
97.5947,631
97.6037,235.6
97.6051,722.8
97.6077,153.1
97.617,601.3
97.6372,415.7
97.6386,18.7
97.6606,155.7
97.6783,169.8
97.6993,17.3
97.7517,135.2
97.7551,370.9
97.7567,229.8
97.7668,542.7
97.7919,118.3
97.8417,648.1
97.8601,172
97.8715,92.6
97.9562,81.5
97.9661,100.8
97.9684,261.4
97.9862,21.2
97.9888,97.1
98.03,347.7
98.0458,124.6
98.0696,142.1
98.0742,154.9
98.0839,17
98.1069,96.3
98.1182,201.8
98.131,105.8
98.1568,240.5
98.1687,125.4
98.2292,98.7
98.2469,396.6
98.2725,359.4
98.2843,376.1
98.3179,89.5
98.3283,145.4
98.3318,333.4
98.3412,419.7
98.3473,336.3
98.4058,45.6
98.4546,91.8
98.4606,260
98.4681,506.8
98.4747,697.2
98.4888,20.3
98.49,84.8
98.4981,414.9
98.4994,260.8
98.531,88.6
98.5354,278
98.5646,120
98.5732,749.3
98.6126,171
98.6503,446.2
98.6584,87.7
98.7065,338.5
98.7271,18.8
98.7285,99.7
98.7307,144.1
98.7657,336.1
98.7911,381.1
98.8,17.7
98.8141,495.4
98.8373,114
98.862,17.3
98.8723,108.9
98.8769,178.1
98.9069,49.1
98.9187,51843.2
98.9198,5891.9
98.9281,141.1
98.9675,83.5
98.9753,20874
98.9834,549.6
98.985,99.4
98.9931,428.4
99.0563,90.5
99.0801,161.3
99.0914,21.5
99.0948,259.4
99.1183,477.5
99.1219,918.7
99.2343,111.9
99.244,703.5
99.2597,130.7
99.2692,227
99.2716,679.2
99.2966,123.4
99.3395,137.8
99.3505,16.3
99.4068,162.5
99.4099,21.1
99.4184,106.4
99.4216,16.6
99.4304,16.1
99.5364,602.8
99.5535,597.6
99.5615,26.3
99.5675,150
99.5903,139.3
99.5978,82.4
99.6152,161.5
99.6359,669.3
99.6426,518.3
99.6726,215.7
99.6971,126.5
99.739,142.3
99.8064,591.9
99.8152,417.5
99.8246,104.7
99.839,80.4
99.8415,99.1
99.8529,119.7
99.9189,117.7
99.9429,206.6
99.9542,294.2
99.971,128.7
100.0106,132.6
100.0543,128.5
100.0697,698.8
100.0756,63.2
100.1026,572.1
100.1065,20.9
100.131,142.9
100.1986,19.4
100.2262,587.9
100.228,374.7
100.2759,383.1
100.3023,111.8
100.3202,98.1
100.3556,50.1
100.3763,90.1
100.4416,347.2
100.4642,395.2
100.4707,701
100.5073,450.1
100.5135,592.2
100.518,268.7
100.5419,167.1
100.5821,533.9
100.5851,445.3
100.5945,354.2
100.606,149.4
100.6309,97.5
100.636,19.5
100.6389,169.3
100.6644,99.5
100.6817,787.5
100.701,53.4
100.725,141.6
100.7306,187.3
100.7364,204.7
100.7642,152.8
100.7942,578.7
100.8281,99.7
100.8724,146.6
100.8772,347.9
100.8857,97.4
100.9169,810
100.9474,107.3
100.9737,129
101.0082,417.4
101.03,137.6
101.0471,2886
101.0708,1110.1
101.1132,697.5
101.279,17.4
101.2989,363.3
101.3142,102.2
101.328,220.7
101.3312,102
101.3461,130.7
101.3649,124.2
101.3699,586.9
101.4366,256.6
101.4495,104.1
101.4582,21.2
101.4784,583
101.4837,434.7
101.4982,362.3
101.503,17
101.5548,499
101.5586,46.5
101.591,438.5
101.6172,281.4
101.6691,422.3
101.6755,154.9
101.6791,18.1
101.6983,169
101.6991,88
101.7108,115.7
101.7195,280.2
101.7698,92.7
101.7741,16.3
101.7756,117.7
101.8834,105.5
101.8953,426.3
101.9321,108.4
101.9338,80.1
101.9363,163.6
101.9556,263.5
102.0167,135.8
102.0367,147
102.0549,5636.4
102.08,377.7
102.0906,118.8
102.1077,128.1
102.1287,269.6
102.1307,93.6
102.1317,312.1
102.1729,97
102.1752,94.4
102.2137,458.1
102.2425,85.2
102.2906,495.6
102.3297,103.2
102.3636,150
102.3678,92.5
102.3793,587
102.46,459.2
102.4646,92.1
102.4871,17.9
102.5442,313
102.5876,18.1
102.6321,94.7
102.6562,148.7
102.6779,542.3
102.7018,172
102.7191,108
102.7394,681
102.7724,272.5
102.7933,125.6
102.8043,205.3
102.8126,325.3
102.8173,70.1
102.8178,73.8
102.8208,230.9
102.8294,602.3
102.8305,90.8
102.9221,145.8
102.9379,126.5
102.9467,376.4
102.9624,167.2
102.9702,615.2
102.9742,415.5
102.9836,83.7
102.9877,603.7
102.9984,90
103.0025,91.6
103.0207,122.9
103.0527,265.8
103.0544,192.6
103.0571,93.3
103.1045,87.4
103.1606,53.1
103.1741,95.4
103.1926,297.4
103.237,364.7
103.2478,148
103.2743,100.9
103.2845,146.4
103.2913,621.5
103.2962,314
103.309,260.4
103.3213,232.9
103.324,20.5
103.3345,258.8
103.3492,392.5
103.3558,418.5
103.3701,364.3
103.3765,404
103.3776,16.9
103.3909,81.6
103.4023,154.3
103.4042,749.1
103.4593,148.2
103.498,100.8
103.5222,123.4
103.5889,200.6
103.5936,558.4
103.7243,178.8
103.764,109.4
103.767,287.5
103.7832,360.3
103.7843,264.9
103.8011,298.6
103.9268,267.9
103.9377,125.5
103.9474,89.7
103.9518,246.7
103.9803,219.3
103.9819,891.6
103.9844,268.4
104.0403,508.2
104.0949,94.2
104.104,613.8
104.1069,519735
104.1145,279.5
104.129,358.8
104.1345,467.3
104.1561,380.4
104.1597,20.7
104.2901,156.8
104.3214,200.4
104.3268,212.7
104.3601,122.5
104.4071,225.2
104.435,16.5
104.4731,19.5
104.5364,18.4
104.5383,159.5
104.5518,17.7
104.5671,18
104.5976,100.8
104.6094,94.4
104.6558,186.5
104.6645,454.8
104.6758,18.5
104.6766,347.7
104.6912,156.1
104.7057,345.3
104.7238,291
104.7357,190.6
104.7594,56.4
104.7789,289.9
104.8214,95.8
104.8386,229.8
104.8607,421.1
104.8663,119.6
104.9485,449.8
104.9633,171.8
104.9809,18.9
104.9922,2610.1
105.0033,20.9
105.0047,602.6
105.0058,20.5
105.0104,446.2
105.0157,124.6
105.0388,188
105.0447,42905.6
105.0699,19.6
105.0753,21.5
105.0931,99.1
105.1103,20083.2
105.1131,92.4
105.1351,491.1
105.2402,201.6
105.2737,122.2
105.2984,17.9
105.337,217.8
105.365,585.3
105.4593,271.4
105.4847,354.5
105.5074,382.1
105.5514,843.2
105.5551,300.8
105.5664,328.5
105.6244,172
105.6522,295.2
105.6596,340
105.6906,366.4
105.6955,17.5
105.6998,18.8
105.7406,597.5
105.7545,230
105.767,370.9
105.8003,97
105.8241,89.5
105.8592,577.9
105.8704,159.5
105.9148,105.9
105.9593,648.4
105.962,89.5
105.9727,240.2
105.9867,17.1
106.018,105.9
106.0199,93.7
106.0296,310.5
106.048,1033.1
106.053,19.4
106.055,52.1
106.0785,310.6
106.0877,141.2
106.1052,143.6
106.114,346.1
106.1536,490.2
106.1667,358.6
106.1926,376.8
106.2147,230.6
106.2199,120.9
106.237,49.8
106.2848,81.4
106.2869,350.3
106.3467,273.9
106.3556,480.2
106.356,499.3
106.3734,149.2
106.3879,44.3
106.4118,148.4
106.4161,110.6
106.4607,91.4
106.4783,248.3
106.4994,555.2
106.5057,358.9
106.5178,250.5
106.5198,83.4
106.5209,16.9
106.5477,50.2
106.5491,91.7
106.5932,100.2
106.6269,328.9
106.6359,16.8
106.6663,352.3
106.6788,200.4
106.6943,192
106.7124,123.3
106.7331,399.2
106.8158,85.9
106.8219,541.5
106.8391,267.4
106.8497,358.4
106.8717,159
106.9011,571.1
106.9053,245
106.9377,299.9
106.9505,4126.1
106.9919,85.2
107.009,785.7
107.0283,49.8
107.0413,89
107.0491,494.4
107.0522,18.6
107.0533,431.6
107.0855,17.9
107.0976,20.5
107.1459,168.1
107.147,44.3
107.1543,16.3
107.1606,154.9
107.1793,266.8
107.1968,668.6
107.2053,22.4
107.243,351.8
107.3055,213.7
107.3204,244.3
107.3367,233
107.3425,236.2
107.3743,83.3
107.3751,84.3
107.3857,415.1
107.3945,17.7
107.4223,16.6
107.458,135.9
107.481,418.7
107.5824,100.2
107.6038,18.9
107.6362,17.2
107.6752,20
107.6959,108.8
107.7087,445.3
107.743,23.7
107.7835,241
107.7937,16.6
107.8184,322.5
107.8358,99.6
107.8515,288.2
107.8882,323
107.8908,347.1
107.9363,123.5
107.9405,137.2
107.9531,196.8
107.9539,145.7
107.9619,92.9
107.9779,410.7
107.9903,248.3
108.0177,643.6
108.0405,454.1
108.0524,18.6
108.0997,93.2
108.1302,161.3
108.15,449.6
108.2754,825.3
108.358,287.8
108.3768,242
108.387,678.7
108.3969,20.4
108.486,207.2
108.4891,462.3
108.5173,86.6
108.5795,261.5
108.5967,96.2
108.6178,225.9
108.644,18.5
108.6469,537.4
108.6511,430.4
108.6962,19
108.6984,128.9
108.7512,135.9
108.7784,239.1
108.7822,550.2
108.8164,17.3
108.8319,83.6
108.8411,348.9
108.8431,156.9
108.853,713.4
108.8875,146.6
108.8924,271.9
108.946,318.8
108.9813,244.5
108.9904,254.3
109.0005,42.6
109.0104,18.9
109.0274,107.8
109.0342,389.7
109.0648,62423.2
109.0717,17.1
109.0825,326.7
109.0919,550.7
109.101,806.7
109.119,746.6
109.164,178.5
109.1748,16.7
109.2409,530
109.2827,110.2
109.2979,590.5
109.3152,297.8
109.3254,131.9
109.3342,676.9
109.3404,84.5
109.3538,119
109.3813,20.2
109.4208,279.8
109.4254,357.4
109.4723,171.9
109.4786,264.4
109.5308,159.9
109.5453,469.9
109.5583,97.8
109.5819,358.8
109.6183,23
109.6213,230
109.6322,613.3
109.6614,143.6
109.711,531.7
109.7194,105.8
109.7287,228.8
109.7671,82.2
109.7991,479.3
109.8204,836.7
109.8266,709.8
109.8409,200.5
109.8438,78.7
109.8625,225.1
109.9035,187.2
109.9248,19
109.9633,112.7
109.9665,87.6
109.9793,165.7
110.0681,2251.5
110.0713,1100.2
110.1486,208.4
110.1522,41.7
110.1907,704.5
110.2214,127.3
110.2243,164.1
110.2423,85.2
110.2603,300.4
110.2873,121.4
110.3126,284
110.3639,215.7
110.3844,143.3
110.3936,416.7
110.3956,182.8
110.4037,385.2
110.4262,462.3
110.4473,220.9
110.4953,483.6
110.535,647.6
110.5728,17.2
110.6147,320.7
110.6162,670.7
110.69,202.8
110.6978,88
110.7555,93.4
110.7609,17.9
110.7762,205.6
110.7977,362.1
110.823,143.8
110.8334,340
110.8405,344.3
110.8429,264.7
110.8971,17
110.9185,124.4
110.9247,286.9
110.9578,132.8
110.9786,100.8
111.0213,107.3
111.0232,298.2
111.043,670.7
111.044,319
111.1029,137.6
111.1518,154
111.1647,597.5
111.1759,78.6
111.2057,685.2
111.2505,113.7
111.2725,49
111.3438,105.3
111.366,363.8
111.5136,99.2
111.5383,127.2
111.5596,537.8
111.5883,780
111.6246,22.4
111.6506,360.3
111.6524,17.2
111.6692,83.4
111.6794,148.5
111.6805,94.2
111.7156,100.4
111.7547,45.2
111.7579,87.5
111.8043,389.5
111.8374,681.9
111.88,129.6
111.8951,351.3
111.918,152.6
111.975,335.5
111.9811,241.8
112.0283,434.6
112.0302,245.9
112.0328,439.9
112.0343,91.5
112.0599,146.6
112.0803,20.8
112.1154,21.4
112.1194,317.9
112.1271,284.1
112.1395,372.7
112.1679,229.4
112.1695,156.2
112.175,263.1
112.2202,91.5
112.2257,103
112.2313,20.2
112.2993,146.1
112.306,335.5
112.3238,154.3
112.3669,17.9
112.38,108.4
112.3977,451.4
112.4153,143.2
112.4767,593.2
112.5185,17.4
112.5479,137
112.6826,311.8
112.7275,49.4
112.7285,546.1
112.7518,191.1
112.7649,312.4
112.7776,155.2
112.7966,252.6
112.7974,317.5
112.8565,52.4
112.8957,388618.1
112.9261,19.5
112.9558,148.9
112.9714,228.7
113.0194,103.4
113.1428,203.6
113.1579,93.4
113.1747,364.2
113.2296,582.9
113.2574,147.4
113.3415,19.9
113.3517,334
113.3597,22.2
113.4457,331
113.4507,45
113.4648,106.8
113.4793,361.9
113.4939,114
113.5277,19.9
113.6503,108.2
113.6552,713.8
113.6877,115.4
113.6932,598.1
113.6993,48.5
113.7074,77.3
113.7195,262
113.722,376.5
113.7311,121.2
113.734,84.9
113.7951,554.8
113.7989,136.2
113.8372,52.5
113.8385,178
113.8444,487.4
113.8478,152.3
113.8652,283.3
113.871,494.9
113.922,102.7
113.9617,19.1
113.9653,126.3
114.0394,414
114.055,50101
114.0596,100.2
114.0649,288.6
114.0662,976.8
114.0676,275.6
114.0936,151.5
114.1428,16.7
114.145,250.4
114.1848,485.9
114.2775,565.2
114.2812,323.2
114.2829,199.4
114.3807,703.7
114.4348,310
114.5,93.3
114.5648,43.7
114.6083,360.9
114.6837,165.5
114.6839,164.7
114.6846,101.8
114.7115,17.7
114.7142,148.3
114.7155,322.7
114.7242,59.6
114.7484,185.2
114.7505,96.3
114.767,118
114.7814,88
114.7985,144.7
114.821,115.1
114.8336,584.6
114.839,198.8
114.8927,117235
114.9037,421.9
114.9152,111.2
114.9228,45.6
114.9573,217.3
114.9708,161.9
114.9876,353
114.9895,152.1
115.0136,17
115.0549,142.9
115.0583,1110.4
115.0864,308.7
115.088,17.6
115.1216,184.1
115.2016,84.4
115.2358,536.4
115.2452,157.6
115.2633,272.6
115.2878,87.1
115.3186,166.8
115.3355,336.6
115.3767,231.7
115.4259,100.5
115.4844,18.2
115.4962,17.9
115.5533,126.7
115.5816,800.6
115.6052,360.3
115.6074,20.9
115.6286,20.2
115.654,546.7
115.7188,187.8
115.7348,105.8
115.742,82.4
115.7518,427.7
115.7628,315
115.7722,18.9
115.7793,93.5
115.7983,171.8
115.8036,164.9
115.856,408.9
115.9025,20.1
115.9199,437.5
115.9363,247.2
115.9589,166.3
115.9793,18.2
116.0338,685.2
116.0706,1719.3
116.0772,99.1
116.0855,85.7
116.1528,83.3
116.1747,19.1
116.1927,44.8
116.2181,153.9
116.2237,410.5
116.2955,146.7
116.3431,188.9
116.3572,572.2
116.3709,315.1
116.399,209.9
116.4082,345.6
116.4164,135
116.4225,142.6
116.4635,629.7
116.4783,213.8
116.55,138.2
116.5519,731.1
116.5652,85.4
116.5668,420.1
116.5745,271.8
116.6044,717.5
116.6111,19.7
116.6256,92.9
116.6848,42.8
116.7356,43.3
116.7729,17.6
116.8783,87.1
116.8909,11026.4
116.9542,275.9
116.9563,103.6
116.9647,437.4
116.9859,1649.4
117.0264,155.6
117.0398,97.1
117.0891,502.5
117.1032,127.9
117.1187,237.2
117.1331,697.4
117.2023,326.9
117.2185,91.3
117.2225,257.9
117.2257,628.1
117.2864,16.2
117.2983,83.4
117.3637,16.4
117.3808,308.8
117.3864,352.5
117.4055,640.7
117.4305,107.8
117.447,20.2
117.4545,352.2
117.5034,16.3
117.5095,151.1
117.5186,101.8
117.5499,400.9
117.5732,302.2
117.5785,455
117.5894,97.8
117.6014,185.8
117.6088,429.6
117.7328,812
117.796,185.8
117.8055,274.3
117.8103,294
117.8427,141.2
117.9309,306.7
117.9388,141.6
117.9861,739.3
118.0286,598.9
118.0597,92.9
118.0651,934.5
118.0709,842
118.0883,361.4
118.1153,80.3
118.1342,81.9
118.1582,88.9
118.1701,598.8
118.2145,174.6
118.2892,17.1
118.3022,97.5
118.3212,265.6
118.3242,343.4
118.3561,336.2
118.4117,276.6
118.4286,393.6
118.433,19.1
118.5014,275.2
118.507,555.2
118.552,101.6
118.5584,485.2
118.57,145.9
118.613,172.5
118.6231,84.2
118.6327,103.1
118.6889,445.5
118.7071,146.3
118.7149,20.1
118.7527,478.9
118.7674,19.8
118.7961,260.3
118.842,136.2
118.8505,75.2
118.8605,122
118.8885,474.7
118.8977,156.1
118.9717,176.3
118.9793,19.3
119.0187,22.8
119.0546,275.7
119.0591,591.6
119.0679,104.9
119.1364,114.9
119.1514,20.4
119.1708,17.1
119.1987,147.1
119.2057,23
119.2147,125.2
119.223,79.4
119.2253,392.5
119.2437,342.6
119.2787,634.5
119.3106,558.2
119.3316,127.6
119.3679,597.3
119.4075,42.7
119.4171,90.4
119.4327,18.1
119.5123,123.5
119.5468,336.7
119.5564,20.8
119.641,288.8
119.6618,17.5
119.6851,17.8
119.698,187.3
119.7033,143.7
119.7462,384.9
119.7961,192.6
119.8052,583.8
119.8729,173.4
119.889,40.8
119.8924,275
119.911,54.6
119.9555,18.2
119.9574,114.5
120.0032,5645.7
120.0086,18.1
120.0128,579
120.0146,18.2
120.0444,316.6
120.0524,372.1
120.0808,14783.4
120.1003,95.7
120.1015,315.1
120.1566,122.8
120.1832,159.5
120.2035,92.9
120.2093,565.5
120.2265,272.6
120.2492,144.9
120.264,16.6
120.2864,370.6
120.2903,61.4
120.3033,137.9
120.344,122.4
120.3751,541.5
120.3965,194.2
120.4324,214.7
120.4349,266.7
120.4527,201.8
120.4767,334.4
120.4801,128.7
120.5081,186.4
120.5191,898.2
120.5243,147.5
120.5291,139.8
120.5576,17.5
120.6292,583.7
120.6443,473.2
120.6514,149
120.7362,277.3
120.7385,368.4
120.7518,448.8
120.7548,263.6
120.7901,401.2
120.8081,274.5
120.8383,535.9
120.841,89
120.9045,101.4
120.9809,136.7
121.0076,336.4
121.0184,478.2
121.0284,383.1
121.0301,199.4
121.0396,233.2
121.0445,349.4
121.0881,391.2
121.0906,44.1
121.1095,632
121.1527,360.7
121.1614,631.7
121.1736,285.5
121.2366,16.9
121.3034,96.2
121.3309,512.7
121.345,399.3
121.3609,21.8
121.4183,343.1
121.4447,17.1
121.5727,258.6
121.5758,141.2
121.6082,353.9
121.6674,649.8
121.7555,273.9
121.8236,89.2
121.9306,88.9
121.9482,165.4
121.9687,767.5
121.9785,23.1
122.0282,466.9
122.0566,539.8
122.0894,661.7
122.0965,320.7
122.1266,131.4
122.1272,127.6
122.1362,165.7
122.1379,511
122.1439,583.4
122.1485,645
122.17,403.3
122.218,84.2
122.2483,222
122.2593,162.7
122.2683,326.7
122.4357,143.2
122.4859,166.9
122.5099,174.9
122.5649,111.6
122.5697,19.3
122.5879,293.6
122.6089,17.2
122.621,258.7
122.6257,616.3
122.6482,140.8
122.6539,339.3
122.6743,18.1
122.7016,704
122.7031,16.5
122.7582,235.8
122.7706,293
122.778,19.4
122.7846,97.9
122.8271,18.7
122.8448,197.1
122.8833,327.4
122.8852,281.8
122.9042,93.2
122.9245,18129.2
122.9349,601.5
122.9637,314.6
122.9832,333
123.0094,363.2
123.0353,18.6
123.0427,21
123.0784,102.6
123.1166,17.2
123.1906,44.6
123.2026,685.2
123.218,412.1
123.2322,661.1
123.2637,82
123.2897,131.7
123.3007,259.1
123.3418,641.2
123.3546,322
123.4051,91.1
123.4117,18.8
123.4405,133.9
123.4681,84.5
123.4979,446.8
123.5046,459.6
123.5275,383
123.5305,441.3
123.5715,104.4
123.5783,90.1
123.597,347.5
123.6256,466.9
123.6303,138
123.6356,555.9
123.6408,154
123.6514,250.1
123.7535,716.3
123.7855,88.9
123.8314,689.1
123.8365,480.2
123.8706,183.7
123.9428,131
124.021,134
124.0529,350.4
124.1517,235.7
124.157,22.2
124.1715,101.7
124.2318,19.3
124.2599,282.3
124.302,189
124.3726,649.3
124.3971,205.3
124.3985,182.8
124.4167,532.7
124.4513,318.6
124.4566,554
124.4919,146.6
124.5891,334.8
124.592,201.5
124.5944,390.6
124.6248,101.2
124.6425,622.5
124.6995,18.7
124.7336,18.8
124.7464,451.4
124.802,682.3
124.8373,103.6
124.8583,328.9
124.8956,106.5
124.9226,2342.5
124.992,145.8
124.9999,5767.2
125.0056,357.5
125.0389,352.2
125.0425,266.6
125.0772,96.4
125.1073,269.4
125.133,180.7
125.1563,170.9
125.1821,22.2
125.1875,293.5
125.2024,383.3
125.208,663.9
125.2299,517.7
125.2825,219.7
125.2858,304.4
125.3352,824.9
125.3679,91.4
125.3761,85.7
125.4269,159.2
125.4913,272.3
125.4942,115.8
125.4976,543.3
125.529,193
125.5475,145.7
125.5741,428.8
125.5965,246.9
125.6145,239.1
125.6326,99.3
125.6933,82.6
125.7227,17.6
125.7318,132.2
125.8181,17.9
125.8339,17.2
125.8421,515.5
125.8516,178.3
125.8869,129.7
125.9256,150.5
125.9278,166.6
125.9297,293.7
125.9509,575.5
125.9782,365.4
126.0485,630.5
126.0689,200
126.0893,291.4
126.1186,282.3
126.1419,174.3
126.151,338.8
126.1714,102.1
126.1733,174.6
126.189,302.6
126.2119,372.5
126.2341,351.1
126.2389,78.7
126.2568,242
126.2734,82.7
126.2781,140.2
126.2786,138.5
126.3043,174.1
126.3117,18
126.325,220.8
126.344,193.1
126.368,166.8
126.3708,88.3
126.4004,211.3
126.413,125
126.4163,366.4
126.4214,19.3
126.4319,346
126.4977,78.9
126.5038,90.7
126.5511,18.9
126.5604,219.7
126.5713,339.6
126.581,815.6
126.6504,18.5
126.7281,255.9
126.7355,98.2
126.7417,347
126.751,109.8
126.7644,196.4
126.7716,213.3
126.8205,192.2
126.9816,210.4
127.0172,140.3
127.0269,482.7
127.0478,114.8
127.0547,18.3
127.0689,16.4
127.0763,162.8
127.134,140.7
127.135,356.8
127.1812,18.7
127.2311,16
127.326,152.2
127.3805,123.5
127.3893,202.1
127.3903,191.7
127.4467,133
127.4597,326.3
127.4747,329.5
127.5052,142.6
127.5289,112.1
127.5357,361.2
127.5408,729
127.5816,42.8
127.5946,174
127.6251,213
127.6469,99.3
127.6576,153
127.6729,18
127.7164,155.8
127.7394,96.6
127.7492,407.6
127.7556,96.2
127.7741,95
127.7917,178.5
127.8138,103.5
127.8342,122.6
127.8382,119.9
127.8572,155.9
127.9209,327.7
127.9528,44.7
127.9773,90.4
127.9992,151.3
128.0071,18.7
128.0774,263.7
128.0889,108.4
128.105,180.1
128.1073,210.5
128.1462,215.4
128.1561,87.2
128.1654,156.1
128.1947,248
128.2173,574.9
128.2479,16
128.3266,139.6
128.3489,288.5
128.3959,333.7
128.4403,149.2
128.4498,25.9
128.4624,403.4
128.4842,104.4
128.4912,346.8
128.5158,357.5
128.5401,214.6
128.5443,159.8
128.6208,190.9
128.6536,297.4
128.6575,284.7
128.7335,616.7
128.7384,496.7
128.7637,289.5
128.7825,440.8
128.7882,786.9
128.7917,139
128.8189,116.7
128.8746,16.6
128.8773,283.8
128.9249,86.3
128.963,325.3
128.9859,675.8
129.0033,541.8
129.0109,127.4
129.0203,225.7
129.0349,288.3
129.0417,107.3
129.1022,1094.4
129.12,128.1
129.1287,172.7
129.166,95.5
129.1727,173
129.1802,124.4
129.1821,657
129.1918,185.7
129.1962,143.2
129.2189,357.6
129.2761,731.5
129.3261,299.1
129.3317,593
129.386,113.6
129.3867,104.3
129.3872,97.5
129.4377,281.3
129.4504,357.7
129.4622,111
129.4641,91.7
129.4666,110.1
129.6301,155.9
129.6563,283.8
129.7242,531.8
129.7304,17.9
129.7628,355.4
129.8844,252.4
129.8905,137.2
129.9422,104.5
129.9496,323.1
129.961,445.3
129.9703,335.9
130.0499,4985.6
130.0651,154.5
130.1288,429.7
130.1741,17.3
130.189,594
130.2381,128.2
130.2533,336.9
130.2777,144.2
130.2804,23.6
130.2978,365.6
130.312,188.9
130.3323,172.6
130.3418,486.6
130.348,94.3
130.368,89.9
130.4396,278.4
130.5381,18.7
130.6097,131.4
130.6415,85.8
130.6582,93.9
130.6702,159.9
130.6773,131
130.6899,92.3
130.7437,197.2
130.7713,329.6
130.82,221.8
130.822,301.8
130.8321,681.9
130.919,779.2
130.9687,612.4
131.0016,20.5
131.0418,493.8
131.1446,102.1
131.1581,169.3
131.212,134
131.2309,486.1
131.2666,48
131.3172,95.6
131.3348,384.7
131.4085,301.8
131.4254,18.6
131.4345,170.2
131.5234,507.7
131.5256,22
131.5453,119.5
131.561,197.2
131.5729,376.5
131.5797,705.9
131.6239,23.3
131.6793,173.5
131.71,414.1
131.7165,159.5
131.7278,108.7
131.8001,90.3
131.8129,96.3
131.8202,206.8
131.9002,152.9
131.9219,95.3
131.983,632.6
131.9998,641.4
132.0032,24989.9
132.038,169.9
132.0656,82737.5
132.0767,1153.1
132.1368,158.7
132.1485,346
132.1763,207.7
132.1956,171.4
132.2313,184.2
132.3228,98.3
132.3521,233.7
132.3582,20.7
132.3763,153.9
132.4488,47.4
132.4576,99.3
132.5189,135.5
132.5626,22.7
132.5916,144.5
132.6069,226.2
132.6202,90
132.6222,265.8
132.6244,218.9
132.6393,239.9
132.6831,15.8
132.6854,135.1
132.715,146.2
132.723,107.1
132.7345,626.1
132.7859,148.6
132.7916,653.9
132.9029,45
132.9069,256.6
132.9091,384.3
132.9255,82.8
132.9285,18.2
132.934,212.1
132.9386,227.2
132.9424,475.3
132.9583,23.5
132.9872,3374.1
133.0292,352
133.0498,151.9
133.069,1670.4
133.0972,14368.5
133.1011,38.6
133.1558,736.3
133.1794,511.3
133.2104,281.6
133.2224,154.5
133.2256,115.3
133.2644,483.3
133.2692,520.8
133.347,86.7
133.3612,160.3
133.3839,128.6
133.387,300.7
133.3879,312.2
133.4331,174.2
133.4426,312.6
133.454,537.8
133.5126,240.7
133.5974,276.3
133.6574,154.4
133.6745,340
133.7264,17.9
133.776,81.4
133.7849,299.5
133.8487,221.3
133.9166,18.3
133.921,90.4
133.9271,710.9
133.9621,17.6
133.9898,216.1
133.9934,184.5
134.0189,18266.3
134.0436,18.4
134.0467,144.9
134.0636,86.8
134.0728,340.9
134.1036,91.9
134.1294,18.3
134.1461,306.9
134.1599,129.9
134.1716,499.7
134.2573,265.8
134.3461,35.8
134.3547,17.3
134.3828,141.7
134.4216,23.5
134.4447,375.2
134.4533,502.2
134.4882,353.8
134.526,86.7
134.5634,104
134.5672,252.4
134.6331,190.5
134.7207,302.9
134.8625,50
134.8732,189.3
134.9254,323
134.9966,55.2
135.0029,128532.3
135.0092,355.3
135.0439,473.1
135.046,592.8
135.0542,193.8
135.0568,484.3
135.0636,153.1
135.0696,124.3
135.1422,56.4
135.2308,20.6
135.2385,776.1
135.2412,234.2
135.2979,103.3
135.3045,249.2
135.326,384.4
135.3736,124.3
135.3796,506.9
135.4179,297.3
135.4288,98.3
135.4682,610.4
135.4848,98.9
135.5136,615.2
135.5158,20.2
135.6116,18.3
135.6192,111.7
135.7236,45.1
135.7519,553
135.7708,18.3
135.7821,303.3
135.7949,139
135.7968,548.7
135.8563,218.7
135.92,414.7
135.9583,101.2
135.9772,1894.8
135.9862,441.5
135.9993,267.8
136.0062,1727.8
136.0178,17.5
136.0243,241.4
136.0481,2511.4
136.0618,76.6
136.0705,414.2
136.0757,13165
136.0813,119.8
136.0957,549.9
136.1401,20.3
136.1486,200.2
136.2136,215.2
136.2501,102.3
136.3129,171.3
136.3244,251.1
136.4444,330.7
136.4528,219.7
136.4827,87.9
136.5624,490.5
136.678,18.2
136.6957,107.2
136.726,321.8
136.7776,81.8
136.8419,147.9
136.8585,338.3
136.8891,98.9
136.9312,2691.1
136.96,254.4
136.9805,92
137.1053,99.6
137.139,293.2
137.1529,92
137.3152,616.7
137.3258,372.1
137.3719,100.9
137.433,97.3
137.4361,209.3
137.4622,522
137.5692,440.2
137.5702,363
137.5779,157.4
137.5866,378.4
137.6308,717.1
137.6336,140.5
137.7405,617.4
137.7487,132.2
137.7836,456.9
137.8553,299.4
137.878,525.7
137.9,426.5
137.9204,53.8
137.9261,304.9
137.9874,431.9
138.0526,5963.2
138.0551,432
138.0662,24.3
138.0813,185.7
138.0875,252.7
138.129,790.1
138.1415,100.4
138.1423,100.5
138.1663,132
138.1802,296
138.1809,257.6
138.1915,169.2
138.2015,293.9
138.2083,102.1
138.2559,150.7
138.2886,21.9
138.3016,549.5
138.3225,128.5
138.3584,201.6
138.3865,416.8
138.4388,19.8
138.4897,187.3
138.5125,801.1
138.5702,314.4
138.6808,91.6
138.6857,91.2
138.6872,151.7
138.7222,90.9
138.7338,720.5
138.7428,168
138.8234,18.5
138.8651,101
138.9065,3467.6
138.9767,88.4
138.9794,20.2
138.9817,147.1
139.018,20.7
139.0476,285.2
139.1225,214.6
139.1263,406.3
139.16,344.9
139.1782,497.7
139.1869,196.2
139.2109,687.2
139.2446,19.8
139.2801,18.6
139.3135,142.7
139.3218,107.8
139.345,378.3
139.3928,101.5
139.4015,164.1
139.4761,131.7
139.4875,18.9
139.5162,177.5
139.5507,19.5
139.5691,19.2
139.576,89.8
139.5792,289.4
139.5979,227.2
139.6454,18.1
139.6488,19.4
139.6849,259.6
139.6927,96.5
139.7004,807.1
139.7265,350
139.7745,107.2
139.8133,362.1
139.825,44.8
139.8402,49
139.8598,375
139.9058,328.4
139.9897,22.9
139.9904,21
139.991,18.6
140.0165,1300.4
140.0682,4345.9
140.1271,486.4
140.1893,741.1
140.2169,344.5
140.2177,267.4
140.2212,263.9
140.2444,113.8
140.2536,16.3
140.2912,270.2
140.3234,110.3
140.3889,120.9
140.4099,339
140.4268,111.5
140.4317,196.1
140.4708,494
140.5292,20
140.5755,141
140.6102,17
140.6602,115.5
140.6757,140.2
140.6961,432.8
140.7034,16.1
140.7752,94.5
140.8433,239
140.8483,479.6
140.9003,172.2
140.9013,196.3
140.9036,1644.7
140.9065,121.1
140.9452,19.1
140.9467,211
140.9517,16.7
140.9825,88.2
140.9868,388.9
140.9974,167.4
141.0006,15913.7
141.0333,158.4
141.0416,565.9
141.056,202
141.0845,336.7
141.1254,99.2
141.1948,466.7
141.2264,366.4
141.2394,103.3
141.3089,139.3
141.3381,220.2
141.4136,93.3
141.425,288.1
141.6211,229.3
141.6258,229.8
141.6346,20.3
141.6456,493.7
141.6514,219.2
141.7099,94
141.7144,46
141.7316,102.2
141.7501,316.7
141.7805,18.4
141.8147,20
141.8563,17.5
141.8614,19.1
141.9325,19.3
141.9885,92.1
142,27.1
142.0039,386
142.0058,369.4
142.0123,21.6
142.0393,44.1
142.0548,208.7
142.0738,86.6
142.0887,21.5
142.0931,237
142.1631,580.8
142.1855,750.5
142.2349,132.1
142.249,365.5
142.3122,521.3
142.3162,431.9
142.3823,138.2
142.4265,248.3
142.4298,45.7
142.4547,151.6
142.5179,324
142.5303,279.4
142.5463,256.3
142.6148,17.8
142.6278,19.5
142.6372,145.6
142.638,182.9
142.6385,153.2
142.6557,136.5
142.6594,623
142.7021,96.8
142.767,17.7
142.7941,20.5
142.8135,160
142.8705,145.8
142.8725,454
142.9481,372
142.9511,586.2
142.9964,277.9
143.016,257.4
143.0191,1144.5
143.0816,717.4
143.1221,18.8
143.1473,307.2
143.1774,82.2
143.2115,113.4
143.2154,88.4
143.2269,141.4
143.2428,128.4
143.2722,543.2
143.2753,16.5
143.2851,100.3
143.3389,330.7
143.4055,425
143.4085,134.7
143.4917,609.8
143.501,211.6
143.5206,562.4
143.5903,96.7
143.6273,45.8
143.6705,46.1
143.6856,127.9
143.6913,19.2
143.7012,673.5
143.7646,270.3
143.7966,197.6
143.8851,375.6
143.9973,612.9
144.0106,32.8
144.0198,471.2
144.0632,36.5
144.0877,329.8
144.1226,121.4
144.1464,131.7
144.1628,363.3
144.1714,277.9
144.1922,739.1
144.2024,155
144.3635,138.5
144.3749,407.9
144.3814,455.8
144.4054,233.1
144.4066,105.8
144.4283,305.9
144.5098,400.7
144.5211,204.5
144.5921,275.7
144.6537,93.8
144.7171,262.4
144.7629,490.2
144.7702,413.1
144.8331,135.7
144.8471,90.5
144.864,533.2
144.8688,289.2
144.883,362
144.8968,942.4
144.9611,655.5
144.9809,4904.2
145.0307,167
145.1197,479.8
145.2489,101.1
145.2536,137.5
145.2665,87.4
145.2835,155
145.3177,23.2
145.3496,43.9
145.3802,93.5
145.3908,157.2
145.3963,798.1
145.4086,492
145.4166,441.8
145.4892,103.1
145.5746,736.1
145.5811,114
145.5919,110.8
145.6593,285
145.736,680.1
145.8001,275.2
145.8027,303.6
145.8382,100.6
145.9659,505.8
145.9741,99.7
146.0126,3447.5
146.019,14481.4
146.06,20.8
146.1151,369.4
146.1978,301.7
146.2687,566.3
146.3418,349.2
146.3538,17.2
146.4248,20.3
146.4505,125.3
146.4947,190.3
146.4998,182
146.5599,277.2
146.5756,640.3
146.6032,52.2
146.6568,390.9
146.6617,92.5
146.673,341.3
146.6822,450.4
146.7147,19.7
146.7176,136.9
146.7225,745.2
146.741,293.1
146.7495,17.1
146.9369,418.3
146.9818,114848.1
146.9885,181.1
147.0284,19.6
147.0355,90.7
147.049,95.2
147.0765,46761.8
147.1129,29430.3
147.117,388.1
147.1271,616.8
147.1416,93
147.1657,696.8
147.1758,369.7
147.2245,19.2
147.2533,309.7
147.3289,168.4
147.3355,194
147.4337,296.5
147.47,18.1
147.4727,21.6
147.4878,147.9
147.4918,140.4
147.5392,100.8
147.553,137.3
147.5606,107.4
147.564,84.8
147.5995,20.9
147.6075,215.6
147.6522,168.6
147.6643,116.5
147.6745,379.6
147.731,167.6
147.7337,92.4
147.7387,258.6
147.7395,256.1
147.8103,308.3
147.8499,321.2
147.8864,103.3
147.8876,77.1
147.9011,170.3
147.9618,180.6
147.9853,620
148.076,455.8
148.0775,322.1
148.0797,464.8
148.0878,151
148.1004,130.4
148.1166,478.3
148.1431,20.3
148.1797,195.6
148.2043,18.8
148.326,89.4
148.338,593.8
148.3391,134.7
148.3591,308.7
148.3846,133.3
148.4786,651.3
148.524,115.3
148.5322,4588.3
148.5394,282.9
148.6231,342.6
148.6253,567.5
148.7205,368.6
148.743,174.7
148.7618,256.7
148.899,673.5
148.9147,589
148.9431,21.5
148.9559,564
148.9613,4967.6
148.9649,88.5
148.9696,98.5
148.9746,123.3
149.0026,43
149.0073,125.2
149.0186,4291.7
149.0234,5354
149.0448,32.7
149.1195,19
149.1325,45.1
149.157,17.5
149.2117,192.6
149.2902,788.4
149.3021,106.7
149.3409,812.1
149.3462,179.7
149.3491,361.1
149.4446,362.7
149.5495,196
149.6243,405.5
149.7697,199.6
149.8336,151.7
149.8527,327.4
149.9037,93.4
149.9076,290.2
149.9444,182.6
149.9727,239.6
149.9796,18.3
149.9815,92.7
149.9928,10344.4
150.0139,7762.9
150.0269,81.4
150.0456,603
150.0928,364.4
150.1146,107
150.1417,86.7
150.2205,176.9
150.237,106.8
150.2618,511
150.3162,181.6
150.3218,341.6
150.325,371.9
150.3271,20.4
150.3781,632.6
150.3908,617
150.3942,163.4
150.3964,86.3
150.4364,100.4
150.4788,17.7
150.481,204.8
150.648,438.9
150.6635,132.4
150.6707,17.9
150.6902,113.9
150.6988,138.9
150.7008,155.7
150.7665,182.9
150.844,154.8
150.8904,186.2
150.9287,614.8
150.931,601
150.9769,73439.8
150.9842,255.7
151.0436,16.2
151.048,2515.5
151.1679,92.8
151.2494,160.3
151.3213,204.1
151.4224,312.8
151.4466,411.2
151.5626,191.7
151.5765,17.7
151.5822,262.2
151.6036,18.5
151.6097,100.6
151.6768,137.7
151.6777,131
151.6837,330
151.7289,147.4
151.7602,453.7
151.7609,534.4
151.7616,282.1
151.9358,514.7
151.9802,990.9
152.0137,323
152.0222,6522.6
152.0319,3245
152.0364,351.4
152.0541,398.7
152.1082,132.6
152.1171,127.6
152.1211,18.9
152.1423,94.3
152.248,20.1
152.2567,18.6
152.2618,20.9
152.3243,397.6
152.4322,17.9
152.4826,112.2
152.5252,100.3
152.5318,18.6
152.5407,23
152.5852,292
152.5949,95.7
152.5999,106
152.6058,130
152.7169,25.4
152.7386,126.1
152.7903,189
152.8534,43.8
152.9151,436.2
152.932,298.6
152.9439,610
152.9491,205.2
152.959,642.7
152.975,3201.1
153.0164,271.1
153.0452,691.4
153.1805,348.9
153.3087,154.1
153.3172,47.5
153.3485,453.7
153.4549,18.8
153.4719,767.8
153.5108,101
153.527,16.9
153.5579,171.8
153.5683,127
153.5866,229.7
153.6189,276.9
153.6304,117.4
153.6779,398.6
153.7173,463.7
153.8212,351.1
153.8317,95.8
153.8622,178.9
153.8831,508.1
153.8896,537.9
153.8954,17.6
153.9275,116.5
153.9284,129.2
153.9525,178.1
154.0107,19.6
154.0381,287
154.0587,3005.3
154.117,115.2
154.1797,295
154.208,88.3
154.2305,164.1
154.2336,96.1
154.291,85.9
154.2981,128.6
154.3169,109.2
154.3532,98.7
154.3568,374.5
154.413,184.2
154.4198,170.3
154.422,133.5
154.4323,169.1
154.4359,225.4
154.5521,101.3
154.5702,100.7
154.5937,107.4
154.6141,259.1
154.6258,91.7
154.7036,353
154.754,119.5
154.8162,320.3
154.8991,91.7
154.9076,198.3
154.9122,196.1
154.9213,141.9
154.9421,303.9
154.9692,1057
154.9808,410.6
155.0358,409.2
155.0429,974.8
155.0489,176.4
155.054,6301.4
155.0929,50.9
155.2766,410.5
155.2949,754.3
155.3471,95.7
155.3977,154.8
155.492,436.2
155.4959,309.9
155.5598,811.8
155.5641,346.2
155.5707,352.8
155.5931,106.9
155.5974,97.8
155.6005,740.8
155.6525,22.3
155.6544,17.2
155.691,376
155.739,642.5
155.7485,171
155.7997,125.1
155.8488,289.3
155.8681,107.5
155.9271,22.2
155.997,272.5
156.027,234
156.0422,2536.7
156.057,392.5
156.0769,40524.6
156.1206,239
156.1798,359.5
156.1863,104.7
156.2166,249.2
156.2515,19.4
156.3211,584.4
156.3612,21.8
156.367,16.9
156.4588,152.5
156.4612,101.5
156.5127,781.2
156.5196,17
156.5394,211
156.6028,109.1
156.6147,344.4
156.6363,92.3
156.7761,201.8
156.782,388.1
156.7932,162.8
156.8051,20.5
156.897,660.3
156.903,88.9
156.9124,132.2
156.9344,347.5
156.948,452.9
156.9746,57.4
157.0352,18.9
157.065,125.9
157.0803,746.6
157.0973,313.1
157.1066,272.4
157.1136,108.4
157.1307,702.7
157.1616,683.2
157.1779,48.1
157.2285,107
157.3115,82.3
157.39,142.3
157.5115,586.9
157.5492,176.7
157.5536,389.8
157.5817,600.4
157.6185,138.6
157.6513,125
157.6736,92.2
157.6798,16.3
157.6976,551.5
157.7039,20.2
157.8058,93.2
157.8327,288.9
157.8503,107.9
158.0124,605
158.017,49.2
158.0205,133.2
158.0272,3312.8
158.0567,636.2
158.204,17.9
158.2168,19.6
158.2208,233
158.4224,159.2
158.4439,209.5
158.5063,86.1
158.5431,242.5
158.5643,109.4
158.5745,494.7
158.5779,642.5
158.5881,19
158.6174,95.2
158.6393,20.4
158.6571,265.6
158.7026,455.6
158.7722,334.8
158.7747,193.4
158.8616,124
158.8738,100.6
158.928,1382.5
158.9642,14577.3
158.9792,126.6
158.9966,13617.3
159.0031,655.5
159.0112,32.7
159.0305,104.3
159.0842,395.1
159.092,71
159.1412,162.3
159.1438,155.6
159.1537,192.8
159.1781,440
159.2006,730.2
159.2252,132.7
159.2606,92.4
159.2743,270.1
159.3148,86.2
159.3265,18.8
159.3441,144
159.371,20.8
159.4117,160
159.4543,18.8
159.4789,276.7
159.4862,355.6
159.4925,116.8
159.5752,83.2
159.5826,154
159.6869,100.5
159.7383,128.8
159.8297,402.5
159.8382,97.9
159.8766,645.1
159.8813,18.8
159.8932,201.2
159.9039,89.2
159.985,366.2
160.0008,765
160.0217,93.1
160.023,78.4
160.0346,16268
160.0534,240.7
160.0606,99783.1
160.0719,204.7
160.0954,184.7
160.2343,206.4
160.2615,167.6
160.2638,138.6
160.3979,455.4
160.4179,19.2
160.4274,349.1
160.4428,172.8
160.5368,213.5
160.5575,109.1
160.5711,431.3
160.5903,102.5
160.6491,218.6
160.6585,368.4
160.6778,81.9
160.6873,143.9
160.7953,375.9
160.8133,48.6
160.8385,88.9
160.8468,96.8
160.8689,112.8
160.9628,158.2
160.9946,95.5
161.0187,471.3
161.064,3842.9
161.096,26.4
161.1287,2551
161.1327,317.9
161.2068,178.6
161.2474,87.7
161.2505,101.6
161.4003,18
161.4197,252.5
161.4256,249.1
161.4995,92.8
161.5663,339.3
161.5721,135
161.5849,123.7
161.6138,83.8
161.7169,383.2
161.7283,104.9
161.7688,21.1
161.8151,19.7
161.8833,130.7
161.913,132.7
161.923,636.9
161.9448,85.6
161.972,95.7
161.9915,248.8
162.014,386.9
162.0503,26392.3
162.0574,235.5
162.1127,474.4
162.1208,141.4
162.1229,610.7
162.2176,396.7
162.2365,505.5
162.3037,676.6
162.3465,127.1
162.3483,92
162.3627,324.5
162.3693,16.6
162.3831,16.9
162.3842,15.6
162.5553,87.7
162.6057,151.1
162.6378,534.5
162.6592,351.8
162.7365,17.5
162.7444,557.8
162.8065,240.7
162.8363,326.1
162.8637,141.2
162.9164,21.6
162.9557,3137.9
162.9626,232
162.9947,238.7
163.0156,3193.8
163.0376,19
163.0537,428.6
163.065,51.4
163.1492,173.1
163.2095,352.7
163.23,316.8
163.3265,127.5
163.3639,92.2
163.4208,397.5
163.4452,98.3
163.506,164.7
163.5317,248
163.5435,100.3
163.5621,235.9
163.5687,104.1
163.5856,84.7
163.6142,210.7
163.6372,523.9
163.6444,23.8
163.6527,625.8
163.7253,551.6
163.7784,328.8
163.8141,123.1
163.8318,19
163.8691,691.5
163.8801,18.6
163.9249,293
163.9537,163.1
164.0132,482.7
164.023,125.6
164.0295,19885.6
164.1153,107.5
164.1434,97.1
164.1577,580.9
164.2901,116.1
164.2968,234.4
164.2998,442.3
164.3238,377.4
164.3564,184.7
164.3606,19.6
164.3754,329.9
164.3961,196.9
164.4425,18.6
164.5182,444
164.5512,472
164.5545,139.6
164.6115,303.7
164.6287,131.8
164.6545,148.1
164.664,915.9
164.7244,199.8
164.8237,132.3
164.8536,804.2
164.8622,595.5
164.8905,45.7
164.9206,5414
164.9301,19433.2
164.9353,2040.9
164.9407,120.2
164.9925,506.4
164.9998,26.3
165.0339,95.1
165.0654,87.4
165.0912,1525.5
165.1047,357.7
165.1221,143.3
165.13,99.5
165.1646,478.2
165.186,253.7
165.2301,360.7
165.2529,283.1
165.2877,87.2
165.3172,237.2
165.4046,303.6
165.4091,115.7
165.5176,88.3
165.5249,20.1
165.5405,685.7
165.5631,641.5
165.5873,796.9
165.5934,85
165.6216,103.2
165.6318,246.3
165.7042,130.1
165.7172,316.7
165.7507,145.7
165.8339,49.4
165.8574,92
165.967,529.5
165.9705,333.9
165.9789,1115.6
165.9878,4295.9
165.9952,86.3
166.0149,177.2
166.0515,102
166.0715,87.7
166.1175,141.4
166.1373,499.6
166.2058,348.8
166.3312,21.3
166.3968,85
166.4636,158.9
166.4678,280.5
166.5365,124.1
166.5389,125.2
166.6522,185.2
166.6537,358.2
166.7704,341.4
166.9107,17
166.9509,22935.1
166.963,1012.3
166.9682,528.4
167.0219,2953.2
167.1365,46.7
167.3181,270.7
167.4835,17
167.4921,80.8
167.4974,437.6
167.5207,96.1
167.5563,155.8
167.5917,140.2
167.613,484.5
167.6346,278.3
167.6858,405.9
167.7003,149.1
167.7236,424
167.7263,316.6
167.7669,102.8
167.7924,205.9
167.804,165.3
167.8209,431.4
167.8401,18.6
167.9095,89.9
167.9514,603.9
167.959,110.8
167.9945,3199.5
168.0925,209.3
168.1051,207.4
168.1111,18.8
168.1274,248.6
168.1514,94.2
168.1827,706.2
168.2189,93.6
168.2688,52.9
168.29,18.3
168.3853,453.7
168.4428,452.2
168.4667,85.9
168.4689,657.6
168.513,132
168.5666,389.5
168.5976,142.2
168.6084,18.1
168.6208,451.2
168.6854,86
168.7035,89.7
168.7752,156.9
168.8145,81.6
168.9214,221.3
168.949,2262
169.0164,138.8
169.0585,45373.8
169.065,495.9
169.095,3481.7
169.1276,640.2
169.1575,139.6
169.229,527.3
169.2426,32.9
169.2652,522.5
169.2952,295.2
169.4075,154.7
169.4298,20.8
169.5046,122.7
169.5148,18.5
169.5683,95.9
169.6033,44.9
169.6229,17.2
169.7749,147.6
169.8167,282.5
169.8665,68
169.8752,146.2
169.8894,19.4
169.9032,572.9
169.9458,85.1
169.9799,767.4
169.9861,1748.3
170.0087,137.7
170.0328,3714
170.0494,158.9
170.0618,964.3
170.0926,7110.7
170.1217,85.2
170.1522,442.2
170.1762,161.6
170.2216,171.4
170.2452,525.9
170.3214,50.3
170.3848,591.7
170.4146,103.9
170.4231,103.2
170.5646,91
170.5964,20.6
170.6594,488.6
170.7396,18.9
170.7481,192.3
170.7884,103.5
170.8053,19.8
170.8203,19.2
170.8545,4670.6
170.8725,17.8
170.876,464.6
170.8816,326.7
170.8989,145.4
170.914,20.9
170.947,440.5
170.9661,210.9
170.999,20.3
171.0072,80.5
171.0169,501.2
171.0281,550.4
171.048,135
171.0534,483.7
171.0798,116.6
171.1162,123.5
171.1214,122.7
171.1361,271.5
171.1947,172.9
171.2168,90.2
171.2239,22.8
171.3421,364.6
171.3431,345.7
171.4209,89
171.4303,516.9
171.4365,355.1
171.4434,141.4
171.453,46.3
171.5026,194.2
171.6108,227.9
171.6163,89.8
171.6299,118
171.6385,404.2
171.6608,179.1
171.7012,525.3
171.7759,718
171.787,890.4
171.8391,353.1
171.8888,235.1
171.9118,416.1
171.9476,87.5
172.0111,123.2
172.0284,548.8
172.1073,17.7
172.3441,353
172.4291,20.6
172.4827,94.2
172.5249,150.5
172.5378,352.8
172.5401,17.4
172.5621,107.4
172.5684,21.1
172.5764,138.9
172.5963,107.1
172.6081,243.6
172.6111,140
172.6848,703.5
172.7641,152.7
172.7961,177.6
172.8516,2256.9
172.8605,136.5
172.9218,422.3
172.9517,416.7
172.9677,775.2
172.9936,325.9
173.0027,410.8
173.0251,181.5
173.027,275.9
173.0727,338.8
173.163,135.3
173.2056,506.8
173.2638,18.1
173.2852,146.9
173.3086,18.8
173.3145,190.7
173.3737,387.5
173.4515,93.2
173.4588,97.5
173.4853,344.4
173.5189,172.8
173.5713,18.1
173.6473,308.5
173.6722,149.8
173.7091,453.8
173.7144,142.9
173.7305,396.5
173.8302,663.9
173.843,114.8
173.8956,356.9
173.8994,662.1
173.902,251.8
173.9233,106.4
173.9263,269.1
173.9879,126.8
174.0505,294.9
174.061,100.1
174.0981,739.6
174.1401,401.5
174.1721,417.5
174.4099,103.1
174.574,458.4
174.5807,16.5
174.5839,87.6
174.6153,18.2
174.6649,245
174.7215,93.1
174.7677,158.8
174.8024,232.7
174.9075,317.9
174.9304,127.6
174.9382,5463.5
174.9602,468.2
174.9659,90.2
174.9869,702.8
175.0344,12409.8
175.0456,3604.3
175.0502,786.7
175.058,303.9
175.0772,21.2
175.1192,83862.2
175.1812,92.7
175.2057,496.2
175.2628,17.8
175.2832,245.6
175.2898,76.2
175.3392,154
175.3701,96.6
175.3957,715.1
175.3986,144.8
175.4921,93.1
175.5593,371.2
175.615,439.9
175.7012,347.9
175.8113,589.4
175.8468,807.2
175.8505,488.3
175.9044,204.6
175.975,287.3
175.9848,134.3
175.9998,573.5
176.0086,7487.7
176.066,36660.2
176.0821,196.3
176.1032,797.7
176.1226,2121.1
176.2274,690.5
176.2553,399.1
176.3703,94.4
176.4068,319.9
176.4512,328.9
176.4534,148.1
176.4862,18.7
176.5631,383.8
176.5703,92.8
176.5753,108.9
176.6331,150.3
176.6438,19.9
176.657,140.5
176.6821,191.9
176.8783,576
176.881,20.8
176.9045,18.8
176.9927,2305.1
177.0249,4842.1
177.0613,8848.4
177.0693,1040.8
177.0872,2078.6
177.0919,102.9
177.111,104
177.1236,337.3
177.1292,178.5
177.1607,332.5
177.1642,19.3
177.1696,526.1
177.2121,149.8
177.2155,140.7
177.2236,118.1
177.2416,95.5
177.2846,19.8
177.3217,238.1
177.445,629.4
177.5014,185.2
177.5511,289.8
177.652,22.2
177.6692,291.8
177.7006,94
177.7285,154
177.9701,390.6
177.9726,402.1
177.9855,17.5
178.0089,9121.4
178.0243,13629.8
178.0589,4958.2
178.0769,123.9
178.1032,882.9
178.1933,591.5
178.3527,242.4
178.3558,17.8
178.3939,21.6
178.4052,19.5
178.5958,86.9
178.636,215.2
178.6758,343.8
178.7231,522.8
178.8968,154.9
178.9544,314.3
178.9601,329.4
178.9771,500.7
178.9931,389
179.0081,420.3
179.0142,162.7
179.0339,17.4
179.0678,254.7
179.0752,90
179.0905,241.7
179.1689,169.3
179.1765,22.9
179.1796,423.5
179.3295,304.2
179.4486,175.1
179.4803,373.3
179.5147,91
179.526,16.9
179.565,87.6
179.6201,158.1
179.6224,533.3
179.6622,452.7
179.6635,277.2
179.7565,212.7
179.871,102.7
179.899,105.4
179.9945,182.5
180.0035,7480.4
180.0216,52.7
180.3848,179.9
180.4462,149.2
180.5427,196.7
180.5668,132.4
180.5688,428.9
180.5776,100
180.6,115.4
180.6535,498.9
180.6977,101.3
180.7462,312.9
180.7729,107.9
180.8298,300.5
180.8394,59.4
180.8947,3162.1
180.9042,7782.2
180.9345,48.5
180.9543,146.2
180.9576,990.8
180.9787,720.3
180.9928,19.6
181.0261,615.8
181.0652,7233.7
181.0694,268.3
181.0861,223.6
181.1218,344.5
181.1249,169.4
181.1534,17
181.2389,569.6
181.2593,555.6
181.3128,90.9
181.4273,710.7
181.4702,93.1
181.5052,689.1
181.5241,93.1
181.5299,184.7
181.5486,17.9
181.5862,96.5
181.7479,409.3
181.868,253.5
181.9135,319
181.941,159.8
181.9469,468.8
181.9497,398.4
182.0159,25
182.0202,350.7
182.0427,30041
182.269,129.6
182.2983,679
182.3639,104.7
182.3981,219.4
182.4059,189.2
182.4556,623.5
182.481,89.8
182.5231,721.6
182.5608,271.8
182.579,270.1
182.5935,20.2
182.6078,707.1
182.6603,208.9
182.674,153.3
182.6793,356.7
182.7117,104.8
182.7197,217.6
182.7232,279.6
182.7829,697.8
182.7938,50.5
182.811,297
182.8396,334
182.9022,411.3
182.9308,21.2
182.9943,115.7
183.0446,1105.1
183.0488,599.3
183.0664,423.7
183.0738,132.8
183.0953,561.4
183.1442,131.4
183.1754,217
183.2468,91.9
183.3761,81.8
183.4021,178.9
183.4065,125
183.5149,563.6
183.5472,278.2
183.6166,361.9
183.6556,151.1
183.7863,455.3
183.7999,140.5
183.804,396.7
183.8257,161.4
183.8414,90.3
183.8539,86.9
183.8851,148
183.8974,95.6
183.9279,293.1
183.9568,403.4
183.965,856.3
183.978,608
184.0101,104.2
184.0374,2096.1
184.0674,1109.1
184.0736,4423565
184.0819,921.9
184.0946,1322.1
184.1048,446.4
184.1097,1940.1
184.1655,225.5
184.1713,251
184.1822,2045.3
184.2467,93
184.2677,143.9
184.2783,94.3
184.2899,334
184.3792,19.2
184.4079,395.6
184.4908,278.8
184.5237,100.2
184.5262,333.9
184.5318,17.5
184.5487,57
184.5903,86.8
184.6177,652.3
184.7342,18.8
184.7991,243.1
184.8115,288.4
184.8938,145.9
184.9016,113.9
184.9263,88.6
184.968,116.4
185.0326,37056.5
185.0705,9509.9
185.0769,207578.1
185.0794,2657.7
185.156,144.4
185.2198,265.4
185.3295,251.3
185.4412,532
185.4774,113.3
185.7113,241.4
185.7543,99.8
185.7635,415.6
185.77,19
185.8845,146.5
185.898,104.1
185.9556,377.2
185.9601,2611.5
185.9634,16.9
185.9719,20.6
185.9753,349.4
185.9844,127.7
185.9935,118.4
186.0129,19.4
186.036,314.3
186.0563,110.1
186.0586,19.6
186.0701,283.5
186.0778,26630.6
186.0836,560.8
186.0874,225.2
186.0999,208.7
186.121,147.9
186.1659,239
186.2026,122.7
186.2308,158.1
186.271,171
186.3455,430.6
186.4003,220.1
186.431,176.1
186.5203,338.7
186.5384,93.8
186.652,17.1
186.6805,492.3
186.74,656.3
186.7474,155.4
186.7928,361.9
186.8365,269.2
186.9121,4590.7
187.0309,725
187.0454,153.6
187.058,19595
187.0717,2366.9
187.0809,86.7
187.1298,114.5
187.1745,142.9
187.2019,19.9
187.253,19.1
187.3792,168
187.3904,288.4
187.4415,774.2
187.6803,284.6
187.8072,124.4
187.846,336.8
187.9116,319.1
187.9167,278.4
188.0343,17.8
188.0438,97.1
188.0493,19.3
188.0611,506.4
188.08,119.4
188.2388,403
188.2981,514.5
188.3453,305.3
188.4235,22.7
188.5046,79.8
188.5422,376.9
188.5532,140.9
188.589,347.1
188.6081,240.9
188.6902,500.3
188.7278,406
188.7604,160.9
188.7819,197.3
188.9014,205.8
188.9063,804.1
188.9449,726.1
188.9485,101.5
188.9523,185.1
188.9695,375.7
189.0074,619.2
189.0329,260.4
189.0613,3357.7
189.0789,117.4
189.0873,9114.5
189.0921,307.7
189.117,198
189.1608,663.6
189.2432,215.7
189.2481,387.3
189.2948,259.9
189.2959,251.6
189.3263,540.1
189.3654,408.5
189.4247,97.7
189.5006,779.8
189.605,19.1
189.6578,251.5
189.7136,225
189.7175,94.7
189.7425,187.8
189.7523,102.1
189.7959,430.4
189.9703,281.5
189.9951,293.8
190.1089,19.7
190.1835,135.8
190.2446,751.4
190.2513,169
190.4505,197.9
190.5168,94.5
190.5368,586.7
190.5674,559.1
190.5933,91.3
190.6455,97.4
190.6628,230.5
190.6693,428
190.7445,101
190.7627,508.6
190.7867,122
190.7986,99.4
190.8902,127.7
190.9123,1144.2
190.9448,80.1
190.9691,362.9
190.9744,23
190.9892,92.8
190.9922,19
191.0083,9621.4
191.0163,247.4
191.0188,124.8
191.0262,98.1
191.0406,132700.6
191.073,171.5
191.0769,34750.4
191.183,247
191.1997,409.9
191.2262,22.2
191.2923,145.6
191.3065,104.6
191.3771,578.5
191.3804,711.2
191.3907,281.1
191.4162,19.7
191.4943,17.6
191.5564,19.4
191.5756,171.2
191.5996,546.6
191.6822,22.2
191.6869,602.6
191.8521,90.6
191.9161,737
191.9824,860.7
192.04,14969.3
192.0437,2796
192.0802,348
192.0905,20.5
192.0976,271.3
192.1123,264
192.257,160.6
192.324,287.5
192.3879,196
192.4073,183.6
192.4151,128.6
192.509,18.8
192.5441,216.6
192.5499,688.8
192.6413,103.7
192.7614,140.8
192.8497,377.3
192.9438,19.2
192.9989,4414.2
193.0067,371.6
193.0352,3883.6
193.0386,666.2
193.0488,796.1
193.1509,93.1
193.1854,450
193.1885,292.5
193.2162,250.8
193.2754,357.3
193.322,198.2
193.3924,723.1
193.5509,230
193.6013,326.8
193.6146,238.2
193.6285,257.5
193.6457,407.5
193.6642,19.8
193.6855,18.9
193.7935,15.7
193.8177,181.2
193.8268,147.6
193.8773,871.1
193.9076,155.2
193.9835,138.7
193.9982,2165.1
194.0051,928.4
194.0105,259.2
194.0291,300.5
194.0329,1196.4
194.0489,18.3
194.0774,852.3
194.1175,378.7
194.1545,36.3
194.2197,747.3
194.2444,281.6
194.3033,255.8
194.4325,130.1
194.4678,790.6
194.4802,90.7
194.7039,105
194.805,351.9
194.8407,251.6
194.8537,501.1
194.9618,288.9
194.9802,17.6
194.9948,313.3
195.1745,413.3
195.2059,253.2
195.2229,152.8
195.2253,135.4
195.2281,471.5
195.2772,82.4
195.301,89
195.305,687.1
195.3252,19.2
195.374,157.5
195.4272,244.4
195.4645,256.9
195.5122,49.3
195.5881,789.2
195.6049,148.6
195.8124,578.9
195.8341,684.2
195.8524,92
195.9202,119.3
195.9415,114.1
195.9775,576
196.0794,96.8
196.1098,203.3
196.1699,319.2
196.3449,240.7
196.3745,353
196.4231,357.6
196.4288,106.3
196.6315,200.7
196.6517,368.5
196.6716,155.5
196.6993,16.9
196.776,18.8
196.8653,8828
196.8688,415.6
196.8783,586.3
196.8828,17.7
196.9881,814.5
197.0648,260.3
197.101,1141.2
197.2996,124.9
197.3201,228.7
197.3477,108.4
197.4576,313.3
197.5067,184.1
197.5326,144.5
197.5854,17.9
197.6043,149.5
197.6938,414.4
197.7184,20.4
197.8807,188.5
198.0007,213.2
198.0069,21.4
198.0579,291.8
198.0853,5709.3
198.0885,478.8
198.109,393
198.121,298.7
198.1707,457.1
198.1856,5835.9
198.2427,203.1
198.256,98.8
198.3139,165.1
198.3187,445.9
198.3626,396.7
198.4186,21.3
198.4722,18
198.5837,280
198.5907,18.8
198.6454,468.3
198.71,99.3
198.7518,189.7
198.8312,154.9
198.8624,8318.3
198.92,22.2
198.9229,89.9
198.9698,17.9
198.9738,597.4
199.005,19.1
199.0167,26.1
199.0692,2074.1
199.0757,2353.1
199.0805,118.9
199.1455,886.3
199.1889,268.6
199.1914,151.6
199.238,579.6
199.2834,51.2
199.68,148.7
199.7311,93.6
199.7432,817.2
199.7549,48.1
199.8568,697
199.8719,20.9
199.8863,131.1
199.9909,28755.3
200.028,244.5
200.0409,21297.9
200.0786,7677.2
200.0836,919.2
200.1149,1068.2
200.1242,561.1
200.1293,399.9
200.1591,107.8
200.1792,187.4
200.3153,533.3
200.4044,178.1
200.477,20.3
200.4826,18.4
200.5286,365.8
200.6205,99.2
200.6668,790.3
200.6811,358.6
200.7315,381.3
200.7734,88.8
200.8019,117.6
200.8594,1551.9
200.8863,140.3
200.8934,17.1
200.9068,17.9
200.9116,119.8
200.9158,619.8
200.9288,81.7
200.9595,202
201.0553,545.2
201.0627,59.3
201.0873,485.3
201.1234,154.5
201.1922,19
201.2379,234.5
201.2573,148.7
201.4083,121.1
201.4675,18.5
201.4724,110.3
201.4919,448.8
201.5183,152.4
201.5454,118.5
201.5503,189.8
201.5573,89.9
201.593,198.1
201.6594,142.4
201.7484,387.7
201.7899,464.5
201.928,322.7
201.9862,742.2
202.012,20.1
202.1268,168.2
202.3,244.5
202.3843,280.6
202.4218,337.8
202.4613,19031.8
202.6157,157
202.6375,343.8
202.6876,102.7
202.8108,288.6
202.8419,103.2
202.851,310.5
202.8615,399.2
202.8774,726.3
202.9476,269
202.981,215.9
202.9942,118.9
203.0094,725.5
203.0321,6734.5
203.0529,1805608.5
203.077,7080.8
203.1421,91.7
203.1792,1082.3
203.2409,204.9
203.3576,20.8
203.501,177.7
203.5852,409.9
203.7097,129.5
203.7237,149.1
203.7454,214.2
203.763,377.2
203.8516,634.3
203.9391,158.3
203.9461,101.8
203.9492,96.9
203.9528,572.2
203.9727,717.5
203.9754,571.2
203.9828,158.7
204.0093,424.4
204.0247,39996.6
204.0562,95464.1
204.0634,629.6
204.0808,230.3
204.0871,867.8
204.0982,317.1
204.1043,96.5
204.162,52.6
204.2374,391.1
204.2595,18.8
204.2897,465.9
204.4398,420.8
204.6478,135.4
204.6613,91
204.7087,324.1
204.7297,179.6
204.7438,165.5
204.8009,121.4
204.8638,464.1
204.9746,19.7
204.9955,25
205.0105,384.4
205.0281,291.7
205.0572,15856.9
205.0838,136.4
205.097,729.8
205.153,117.9
205.1537,117.7
205.2926,254.9
205.3583,702.6
205.5021,369.2
205.6032,130.6
205.6289,125.2
205.7526,538.4
205.7554,203.6
205.8531,370.7
205.8639,279
205.8938,109.5
205.9275,316.5
205.9426,18.8
205.9673,18
206.0084,653.9
206.0554,542.5
206.0601,549.6
206.1369,760.3
206.2031,103.4
206.2064,21.8
206.2972,137.9
206.3756,100.1
206.397,300.9
206.4222,813.9
206.4651,409.1
206.4984,44.5
206.6905,657.2
206.7248,241.7
206.8458,85.7
206.8859,537.5
206.8942,20418.7
206.9405,587.2
206.9767,110.3
206.9824,2169.5
207.0104,231.2
207.0145,70636.2
207.0444,2413.9
207.051,13486.3
207.1302,371.6
207.148,237.3
207.1665,94
207.2301,137.8
207.2424,110.6
207.2895,156.3
207.3054,109.8
207.3571,93
207.3871,76.4
207.4461,151.2
207.5033,147.4
207.5083,123.1
207.6035,410.2
207.6299,493.3
207.7226,396.9
207.8237,21.9
207.8848,350.1
207.9331,227.6
207.9942,357.3
208.0014,447.2
208.0139,2055.1
208.0176,2009.6
208.0272,147.3
208.0784,181.1
208.1652,136.3
208.1722,609.5
208.243,22.4
208.4097,97
208.4675,266.6
208.5687,16.8
208.6256,180.3
208.6306,99.6
208.6786,22.7
208.7045,19.4
208.733,572.4
208.8043,104.3
208.8123,185.7
208.8833,49.3
208.8912,15009.9
208.9319,677
208.9357,938.4
208.9685,96.8
208.9902,18.9
209.0035,214.7
209.0126,5199.8
209.0782,324.5
209.0934,305.1
209.127,423.5
209.196,114.1
209.1984,144.7
209.2887,362.2
209.3408,19.6
209.4781,350.1
209.4967,190.3
209.5805,438.9
209.5956,240.9
209.5987,18.1
210.6619,291.2
210.6728,227.3
210.7217,324
210.768,152.7
210.7838,375.8
210.8556,318.3
210.8878,750.3
210.9486,20.8
210.9891,19.6
210.9942,245.3
211.0026,92.8
211.0067,21.7
211.0537,834.1
211.0572,497.4
211.0692,1808.9
211.0942,356
211.0967,21.7
211.0978,21.1
211.1107,23748.8
211.1164,29556.9
211.1214,15359.8
211.124,10117.4
211.1389,125.5
211.1592,335.8
211.1938,266
211.2207,227.5
211.257,113.7
211.5208,93.8
211.6379,276.8
211.7351,344.7
211.7702,81.9
211.8397,103.6
211.8486,341
211.932,19.1
212.0183,93.2
212.0408,281.2
212.0595,385.9
212.0739,278.1
212.1872,160
212.2498,703.9
212.3165,18.2
212.3781,291.1
212.4601,92
212.4965,103.4
212.5772,95.6
212.5869,86.8
212.8132,712.1
212.8172,559.3
212.8394,2530.7
212.8535,739.6
212.9135,84
212.9476,155.2
213.0063,229.8
213.0487,344.2
213.0552,812.2
213.0751,856.1
213.1677,129.5
213.2159,552.6
213.2268,84
213.2798,293.6
213.3654,147.4
213.4169,110.3
213.437,91.9
213.5081,482
213.5207,19.6
213.5824,18.4
213.7099,17.8
213.7709,670.9
213.9379,19.8
213.9625,125.3
213.9848,496
213.9959,355.2
214.0065,1993.7
214.0592,7916.3
214.09,876.4
214.1472,222.2
214.2821,303.3
214.3371,18.5
214.5405,118.3
214.6113,169.1
214.6334,297.1
214.6367,126.2
214.7195,18.9
214.728,316
214.7513,346.4
214.7959,322.7
214.8363,3062.3
214.8933,1442.4
214.9008,376.4
214.9058,444.6
214.918,2088
215.0186,458.1
215.0839,279.7
215.0936,58.6
215.1066,397.1
215.1263,288.1
215.1857,86.3
215.2978,233.5
215.3342,158.3
215.3373,93.3
215.4536,158.3
215.4847,361.2
215.5564,511
215.5731,148.5
215.5769,263.5
215.6673,303.6
215.6755,214.8
215.6922,276.4
215.7363,108.6
215.8728,275
215.8739,281.6
215.8775,174.1
215.8835,524.4
215.9167,723.1
215.982,424.7
215.9937,527.3
215.997,460.6
216.0149,10171.3
216.0176,1828.3
216.1691,176
216.2898,326.1
216.303,102.8
216.3385,128.8
216.3872,102.4
216.3918,133.9
216.4721,552.8
216.5061,148.3
216.6266,576.9
216.6618,200.8
216.7404,430.9
216.7986,614.9
216.8367,370.6
216.923,61185.5
216.9327,79.4
216.9363,241.4
216.9667,267.6
216.9773,428.2
217.016,298.2
217.0192,62.4
217.0274,49.5
217.1482,18.4
217.4369,252.5
217.4422,51
217.4456,250
217.4614,408.7
217.4889,100.2
217.6149,89.9
217.703,587.3
217.8121,115.6
217.903,157.4
217.9332,81.6
217.9627,187.3
218.0068,37.1
218.0105,19.3
218.0204,685.5
218.0757,109.3
218.1518,20.4
218.3075,583.6
218.3156,621.7
218.4319,50.8
218.6515,345.5
218.7377,759
218.776,363.4
218.8033,196.4
218.8602,218.2
218.8953,19.3
218.9201,16356.8
218.9291,87.6
218.9466,42.9
218.9717,19.3
218.9848,92.4
218.9961,95.1
219.0178,1518.1
219.0269,1594387.5
219.0832,14324
219.1265,108.5
219.1376,166.2
219.1683,704
219.2163,336
219.2344,83.2
219.3203,101.2
219.3307,430.3
219.3483,562.1
219.4661,339.7
219.5196,221.1
219.5504,93.7
219.6103,356.9
219.6349,174.5
219.6694,530.5
219.7563,149.2
219.7772,153.9
219.7939,170.9
219.866,651
219.8706,278.3
219.914,23.6
219.9249,153.5
220.0051,147.6
220.0302,84355
220.0376,320.5
220.0672,10428
220.1284,19.3
220.1519,228.3
220.1604,42
220.1676,393.4
220.1866,111.5
220.2327,397.5
220.2911,18.9
220.3062,521.8
220.3529,553
220.3684,159.4
220.3883,245.5
220.4395,336.2
220.6156,19.3
220.6369,592.3
220.6411,355.7
220.7825,270.8
220.9103,441.1
220.9618,150.7
221.0048,287.7
221.025,101238
221.0311,12883.5
221.0426,355.5
221.0512,2123.3
221.0674,340.9
221.0847,229.4
221.088,300.2
221.1555,133.9
221.1872,334
221.2755,131.4
221.4023,133.6
221.4075,345.7
221.4227,407.9
221.5256,357.1
221.5406,555.6
221.647,445.1
221.6951,18.9
221.7005,18.1
221.7256,258.4
221.7802,93.6
221.8094,347.4
221.8684,140.5
221.9566,170.9
221.9842,1461.7
221.9969,19.6
221.9988,98.4
221.9999,99.4
222.0284,1734.8
222.2226,833.5
222.2452,571.5
222.3052,108.8
222.3477,153.5
222.4113,337
222.4515,90.6
222.5189,234.2
222.5783,96.7
222.6773,317.8
222.6988,113.6
222.7614,121.7
222.8267,160.9
222.8358,270.6
222.8681,17215.5
222.8881,387.6
222.9726,338.9
222.9812,451.2
222.9885,4858.4
223.0248,490.8
223.0368,180.4
223.1997,18.7
223.32,148.2
223.3364,17.7
223.376,259.4
223.4834,350.1
223.5112,19.5
223.7619,137
223.8024,107.4
223.9199,100.1
223.9383,210.6
223.9535,93.9
224.0934,305.6
224.1511,537.8
224.1961,269.8
224.2081,640.1
224.3253,322
224.5185,208
224.6123,42.9
224.6378,267.8
224.6581,474.7
224.6907,127.8
224.7363,149.1
224.7665,168.7
224.7872,549.8
224.8651,9583.6
224.9253,244.5
224.9294,443
224.9491,491.6
224.9578,18.5
224.9759,233.6
224.9869,547
225.0433,20.6
225.0551,23711.7
225.085,437.6
225.2796,439.8
225.3949,20.1
225.4293,22.3
225.4523,280.4
225.5181,100.5
225.5377,110.6
225.6048,131.3
225.6212,17.9
225.6442,151.8
225.7018,100.5
225.7245,520.4
225.7663,636.1
225.8061,257.4
225.8338,140.6
225.8375,833.8
225.928,645.7
225.9419,221
225.9815,19.3
226.0023,112.5
226.0066,1269.2
226.0245,10220.8
226.0453,8760
226.0588,352.3
226.082,756.1
226.0874,18.8
226.1244,92.7
226.1361,362.2
226.2088,18.6
226.2973,163.1
226.3958,235.6
226.4672,112.8
226.5104,193.2
226.53,181
226.5803,19.4
226.7339,123.7
226.76,347.4
226.7918,586
226.8628,303.6
226.9519,51943.6
226.9854,668.7
227.0345,374.6
227.0431,1250.5
227.0796,3452.3
227.0867,301.4
227.1276,19.4
227.192,99.6
227.3138,280.8
227.368,307.4
227.527,234.9
227.6027,551.3
227.6721,319.2
227.6958,306.2
227.7306,113.1
227.7436,17.9
227.7565,96.4
227.785,85.2
227.8387,20.5
227.8504,146.1
227.8608,103.1
227.9617,25.5
227.994,523.3
228.0008,2201.4
228.0202,158.2
228.0392,171.8
228.0846,109.2
228.1715,242.5
228.2031,93.9
228.471,179.6
228.5048,104.5
228.5369,23
228.6806,18.6
228.7125,21.2
228.8025,167.3
228.99,89.5
228.9961,770.8
229.0129,16.3
229.0203,786.7
229.0528,147.4
229.0866,22
229.1039,18.7
229.1904,125
229.1936,365.7
229.214,521.6
229.2496,335
229.2949,394.7
229.3509,544.5
229.372,101.4
229.4194,21.2
229.4614,153.8
229.5491,203.1
229.8837,587.2
229.9383,517.8
229.9572,423.8
230.0004,86.3
230.0335,220.4
230.1108,358.8
230.114,332.1
230.1219,384.9
230.2073,792.6
230.3442,227.1
230.3744,226
230.5222,147.5
230.5711,508.6
230.6373,323.3
230.6882,20
230.7772,288.8
230.81,445.1
230.8578,613.9
230.8644,130.7
230.8907,21.2
230.9386,351.1
230.9905,111.1
230.9953,297.4
231.026,388.5
231.1233,842.1
231.3026,139.2
231.3764,695.4
231.4736,718.8
231.4873,316.9
231.5175,322.6
231.5355,208.9
231.5634,178.5
231.6597,20.6
231.7228,87.3
231.7637,190.7
231.8537,43.9
231.8756,195.9
231.9033,105.2
231.9071,91
231.9373,20.8
231.9816,96.9
231.9956,391
232.1266,732
232.1353,659.4
232.1683,386.3
232.2523,124.6
232.3204,18.2
232.4466,323.9
232.4922,264.2
232.6241,20.2
232.661,124.9
232.7274,83.4
232.7309,106.8
232.7825,20.3
232.8303,355.2
232.841,106.7
232.8663,91.6
232.8969,42946.1
232.9367,187.5
232.9962,165.3
233.0513,9028.6
233.0706,95.4
233.1136,149.2
233.1288,744
233.1495,588.6
233.1906,124
233.2436,180.6
233.307,48.7
233.4645,693.1
233.5217,252.2
233.6326,772.8
233.6438,729.6
233.6911,83.7
233.7447,100.4
233.8038,653.4
233.8072,302
233.8219,887.9
233.8791,22.3
233.9451,123.6
234.4348,83.5
234.4439,949
234.56,890.1
234.7125,17.8
234.7796,45.7
234.8939,10515.7
234.9079,325.2
234.9817,7989.9
234.9989,472.9
235.057,7289.7
235.0669,856.1
235.0929,21902.5
235.1685,19.1
235.242,117.2
235.2735,19.7
235.3143,94.4
235.3786,301.6
235.5244,170
235.5524,496.8
235.6134,300.7
235.6368,319.7
235.7394,140.8
235.9241,143.4
236.0412,6137.8
236.072,46706.3
236.0963,578.2
236.1359,317.6
236.6352,20.5
236.8086,364.6
236.8417,640.5
236.8631,302.7
236.9908,21.8
237.045,22.1
237.0754,1635.8
237.1189,166.3
237.2141,131.3
237.2787,172.5
237.3217,123.5
237.3808,23.7
237.398,153.2
237.4403,91
237.4573,48
237.4836,157
237.6379,192.1
237.662,97.2
237.7663,141.3
237.8074,360.5
237.8477,78.8
237.8766,152.1
237.8959,16.6
237.9277,240.9
238.0678,617.7
238.1588,172
238.2509,289.1
238.2563,441
238.2924,20.5
238.4138,109.7
238.461,255.5
238.4859,299.3
238.5091,225
238.5578,262.8
238.6329,20.7
238.6854,145.7
238.759,245.6
238.8202,141.4
238.8218,92
238.8302,457.4
238.8422,5629.2
238.8534,1175.4
238.8892,262.7
238.9039,338
238.9567,709.7
239.0509,400
239.0635,526.3
239.068,1469.4
239.2391,19.4
239.2531,86
239.267,162.1
239.4542,359.9
239.4907,17.8
239.548,559.8
239.7414,534
239.8866,177.6
240.018,119.4
240.031,1268.5
240.0463,114.7
240.0616,112.2
240.0915,398.1
240.1085,235.8
240.1215,19.7
240.1364,153.2
240.281,21.8
240.3385,99
240.3979,22.1
240.489,351.6
240.5068,158
240.5277,528.7
240.593,494
240.6024,138.7
240.6109,139.2
240.7426,93.6
240.8074,110.8
240.8392,1848.1
240.8472,684.1
240.955,3417.5
240.9675,1959.3
240.9787,306.9
240.9843,25.2
241.0084,622.5
241.0883,101.4
241.0999,253.8
241.1259,573.8
241.216,737.8
241.2775,20
241.2818,156.1
241.2916,670
241.2974,302.5
241.3047,395.9
241.3886,19.3
241.4113,140.1
241.4574,23.3
241.5144,21
241.541,729.4
241.6459,299.2
241.7607,259.2
241.8967,20.9
241.9061,170.7
241.9138,52.7
241.9395,145
241.9429,649.5
241.9626,111.2
241.98,89.5
241.9984,1018.2
242.0103,86.4
242.0193,4402.4
242.1007,152.6
242.1577,24.2
242.1611,430.8
242.1908,121.3
242.2373,100.6
242.276,98.6
242.468,102.2
242.4768,433.2
242.7554,152.4
242.8008,20.1
242.8305,94
242.8466,91.9
242.9258,24947.8
242.9407,210.1
243.006,581.1
243.0332,197.9
243.0535,6819.6
243.0609,21.4
243.0657,9843.6
243.1439,175.9
243.1781,712.3
243.2339,153.7
243.3946,167.5
243.4474,363.5
243.5142,129.4
243.5515,291.5
243.5788,501.2
243.6075,156
243.72,117.8
243.8332,369.3
243.8585,18.2
243.9208,250.1
243.9456,21.3
243.973,186.4
244.0129,319.5
244.0487,24.7
244.0576,318.6
244.0691,495.6
244.1081,45.8
244.1241,345.4
244.1484,95.5
244.1772,293.8
244.2081,141.4
244.2754,217.1
244.4958,292.9
244.5912,133.3
244.5943,45.5
244.7604,137.3
244.7864,341.2
244.871,9333.2
244.8796,228.4
244.9241,1349.2
245.0065,20.9
245.0141,36.1
245.0936,598.6
245.1679,17.9
245.1771,289
245.2194,145.1
245.2992,135.1
245.3934,285.7
245.6003,241.2
245.6125,148.5
245.6376,283.9
245.6425,151.6
245.7411,183
245.9104,360.5
245.9423,124.3
246.0016,186.4
246.0118,19.5
246.0906,558.6
246.1086,150.9
246.1288,111.3
246.1395,148.7
246.2099,160
246.2403,265.6
246.3224,90.2
246.4443,128.9
246.5853,146.5
246.7288,82.1
246.7567,169.7
246.8162,690.2
246.8681,1852.2
246.9963,334
247.0373,962.7
247.0481,102.1
247.053,122.8
247.067,1387.8
247.076,199.1
247.093,5943.5
247.1505,580.3
247.2262,276.9
247.2438,291.5
247.2538,109
247.3189,79.6
247.4218,279.1
247.4415,161.4
247.4637,94.7
247.5098,313.6
247.6614,237.2
247.7111,18.1
247.7188,98.6
247.957,95.4
248.0379,321
248.0752,164.8
248.0963,49.4
248.1148,124.1
248.1245,23818.6
248.2258,78.8
248.4272,199.1
248.4312,155.9
248.6787,344.9
248.77,272.8
248.7811,106.3
248.871,9578.9
248.9048,99.3
248.966,644.9
248.9994,461.4
249.0162,1047.4
249.0614,23068.7
249.1088,88.7
249.128,931.9
249.1422,222.8
249.1739,109.6
249.3078,105.4
249.3673,290.9
249.4337,352.8
249.4692,20.7
249.4968,243.8
249.5306,111
249.5493,714
249.575,100.8
249.6017,110.8
249.6145,570.1
249.6234,265.2
249.6507,93.2
249.6715,223.1
249.6885,575.2
249.7797,45.8
249.9209,20.3
249.9461,282.7
250.0072,339.5
250.0387,21.3
250.0649,367.2
250.0905,239.3
250.0924,274.2
250.1824,674.1
250.2567,146.2
250.3578,167.9
250.3767,277.5
250.4455,97.9
250.5036,429.4
250.5064,162.3
250.7135,92.9
250.7882,154.9
250.8678,919.1
250.9206,4456.7
250.943,524.9
250.9558,4268
250.9969,494.7
251.0009,113.2
251.0348,145.7
251.0427,17.2
251.0975,19.2
251.1657,128.9
251.2179,19.9
251.2365,165.2
251.2743,87.8
251.3339,210.1
251.389,22.4
251.3923,630
251.4246,101.7
251.4663,385.3
251.4863,183.9
251.4955,649.4
251.6584,46.2
251.689,556.9
251.7668,400.3
251.7707,109.4
251.7837,166.6
251.8015,151.3
252.0024,92.1
252.0369,140.7
252.0459,89257.8
252.1979,91.6
252.2176,300.2
252.2793,141.3
252.329,93
252.3985,204.6
252.6439,48.8
252.6648,124.3
252.833,165.7
252.9175,1970.1
252.9978,77.4
253.0375,152.9
253.0494,6518
253.0692,83.3
253.1021,101.6
253.1104,204.3
253.2588,145.9
253.3812,201.7
253.5915,298.9
253.6003,103.9
253.6281,87.2
253.6934,96.6
253.765,347.1
253.8191,20.1
253.8268,614.5
253.9265,110.5
253.947,19.1
254.0083,162.2
254.0441,3890.7
254.0514,99.8
254.0599,375.4
254.0704,30.1
254.2196,167.5
254.3643,284.1
254.4095,105.2
254.4601,18
254.8,170.8
254.8163,1192.6
254.8242,10500.1
254.8953,109.4
254.9,642.8
254.9146,377.3
254.9977,25
255.0093,582.6
255.0333,22140.3
255.0468,333.7
255.0505,109
255.055,353.3
255.0592,106.4
255.1995,859.5
255.3029,396.8
255.3233,456.8
255.374,204.3
255.4146,181.7
255.4745,17
255.5363,20
255.554,19.7
255.5796,308.4
255.7334,241.6
255.7595,21.5
255.8653,369.3
255.9141,515.6
255.9784,1375.3
255.9936,284.4
256.0371,355.4
256.0585,167.2
256.0666,313.8
256.0835,87.5
256.1528,110.9
256.3035,368.7
256.5926,434.9
256.6113,273.9
256.7231,341.6
256.7409,345.8
256.8212,14252.6
256.8792,262.4
256.9326,592.3
256.9415,705.6
256.9997,251.7
257.0488,5670.8
257.0642,337.6
257.0663,341.5
257.0749,57150.4
257.2926,702.1
257.3704,23.3
257.4622,95.5
257.475,51.8
257.5167,144.9
257.6999,133.2
257.9235,160.3
258.0309,51
258.0376,369.8
258.0745,210.6
258.0783,2484.4
258.0873,380.2
258.1106,19653.1
258.1638,143
258.1784,242.7
258.1832,252
258.2747,98.5
258.3612,579.6
258.4086,594.7
258.4161,155
258.4527,20.4
258.4685,236.9
258.4738,165.8
258.6443,347.6
258.712,360.9
258.8183,4925
258.8999,4281.2
259.0279,748.3
259.0454,90.4
259.0875,322.4
259.11,551.8
259.1846,477.3
259.3652,176.3
259.4479,116.9
259.4893,436.9
259.4925,254.6
259.4998,438.3
259.509,805.4
259.58,275.6
259.6307,266.6
259.9015,133.1
260.006,18.7
260.0171,33.6
260.192,18.3
260.2622,163.3
260.342,531.5
260.4008,467.6
260.458,18.3
260.4771,18.5
260.6582,189.4
260.716,437.6
260.8156,388.8
260.8451,1982.3
260.8872,300.2
260.9403,483
260.9493,13077.5
260.9741,579.7
261.0465,163.5
261.051,105.7
261.2197,729.9
261.3555,89.1
261.4052,51.8
261.4463,435.1
261.6315,667
261.6685,364.7
261.8137,114.6
262.0547,728.1
262.0759,390.8
262.1347,144.2
262.298,96.2
262.3205,175.8
262.4667,761
262.5059,156.5
262.5231,259.6
262.6101,528.3
262.6896,610.6
262.7422,95.9
262.9465,2629.4
262.9624,583.4
262.9956,639.6
263.0138,580.5
263.0272,121
263.0857,3843.6
263.0898,385.4
263.1817,336.8
263.1875,518.7
263.2368,603.7
263.2575,98.2
263.4116,190
263.5673,387.3
263.6751,218.6
263.8632,85
263.8651,85.7
264.0742,173.8
264.2565,90.7
264.3068,18.5
264.3191,116.8
264.5089,121.1
264.537,478.5
264.5609,293.2
264.6418,399.7
264.6895,91.1
264.7691,102.9
264.8024,165.1
264.8448,1230.2
264.8529,6298.2
264.9495,616.7
264.9519,100.3
264.9891,146.9
265.0166,329.5
265.0237,883.2
265.0354,10826.9
265.0479,3252.4
265.1342,526.9
265.1684,204.3
265.1886,98.2
265.2224,362.7
265.3435,820.5
265.4118,307.8
265.471,155.9
265.5083,21.4
265.734,146
265.799,676.8
265.9788,25.7
266.0007,138.6
266.0293,515.7
266.0394,397
266.0966,158.1
266.1198,136.2
266.4166,160.4
266.4569,200.8
266.4718,19.9
266.5047,89.5
266.517,89.2
266.6157,379.6
266.7824,299.7
266.85,6467.3
266.8946,3543.8
267.0136,114.1
267.0338,310.8
267.0598,469.1
267.0829,179.8
267.0955,18.3
267.1634,1285.8
267.1714,788.9
267.1862,697.3
267.2711,256.2
267.3431,217.1
267.4064,561.3
267.4156,299.5
267.5204,327.6
267.53,518
267.6454,856.7
267.6474,557.1
267.8285,725.2
267.8747,277.5
267.9308,103.9
267.9548,163.7
267.994,46.3
268.0321,107.6
268.0494,698.4
268.0852,183.2
268.1675,160.1
268.2497,290.5
268.2999,244.2
268.3235,480.1
268.3572,393
268.3622,109
268.4379,386.4
268.4729,114.6
268.536,121.5
268.5911,144.1
268.68,108.1
268.8168,133.2
268.847,1835.2
268.8916,2538.8
268.8991,139.3
269.0127,32.1
269.0268,216.5
269.0325,218.3
269.0456,13525.4
269.049,33845.2
269.0601,95.7
269.1612,513.3
269.2882,432.5
269.3757,711.6
269.3875,386.6
269.4342,124.6
269.458,271.4
269.5144,176.1
269.5478,217.2
269.7617,106.3
269.9475,20.2
269.9599,235.6
269.9941,2480.8
270.0096,19.3
270.0252,853.2
270.0316,20.2
270.0477,27261.2
270.0524,594.5
270.065,32.2
270.0758,160.9
270.1084,446.3
270.1453,1346.2
270.2192,20.5
270.3259,162.1
270.3557,379.7
270.37,350
270.4717,100.2
270.5213,147.7
270.5309,173.2
270.5445,98.1
270.6712,168.1
270.7716,91.6
270.798,3450.2
270.9169,241.3
270.9783,25635
271.0244,348.7
271.0283,53.9
271.0448,285.1
271.0509,2988.5
271.0728,241.4
271.0905,800.4
271.1788,363.2
271.3498,189.5
271.3591,150.6
271.4893,286.8
271.9518,593.1
271.9562,358.5
271.9655,384.3
272.0184,512.6
272.0434,75.3
272.0563,291.8
272.0605,62
272.0806,318.5
272.0898,31.8
272.1378,143.4
272.1705,690.1
272.1906,633
272.3095,99.2
272.326,150.5
272.51,403.4
272.6254,251.6
272.7951,6488.8
272.9068,642.3
272.9455,590.5
272.9954,299.8
273.019,130.6
273.0212,103.1
273.0229,94.8
273.049,5180.6
273.1156,19.2
273.272,126.5
273.3604,165.4
273.3699,18.9
273.3781,236.8
273.4269,121.4
273.481,122.9
273.5406,19.8
273.5708,120.9
273.5917,186.5
273.7415,264.8
273.8701,692.5
273.9246,707.3
274.0409,20.7
274.0693,182.5
274.0778,44.3
274.0924,1674.9
274.1207,323.3
274.2733,138.9
274.3689,90.1
274.4828,19.2
274.5353,92.3
274.6093,536.1
274.6133,508.1
274.6667,97.2
274.7364,43.7
274.7662,115.3
274.7923,2804.2
274.8754,19.6
274.8819,1136.2
274.8862,794.4
275.0678,386.8
275.2742,52.1
275.3126,759.3
275.3462,49.2
275.367,149.4
275.3711,181.7
275.4393,417.2
275.5107,102.7
275.5153,90.7
275.561,19
275.675,254.3
275.9795,315.9
276.0014,190
276.085,160.3
276.1684,148.7
276.3058,436
276.487,181.7
276.6318,337.3
276.7575,298.6
276.7989,206.5
276.9233,9765.6
276.9536,702.8
276.9947,155
277.2007,94.8
277.5623,238.9
277.5995,260.6
277.6766,315.1
277.7266,93.6
277.8391,649.2
277.8442,157.1
278.0193,470.3
278.0495,162.8
278.0606,21.4
278.0662,809.3
278.1826,323.5
278.2142,161
278.2191,190.6
278.3416,334.1
278.3718,289.7
278.4133,252.6
278.4262,467.9
278.452,225.2
278.4535,212.2
278.4554,164.8
278.6562,125.5
278.6866,323.4
278.8156,189.8
278.865,674.7
278.8783,94.1
278.8942,1700.4
278.9204,3158.1
278.952,615.4
278.9872,450
279.0136,20.6
279.0223,19.7
279.0569,35241.9
279.2157,18.5
279.2221,747.4
279.4548,215.2
279.5624,123
279.5918,270.9
279.6597,90.1
279.7448,167.1
279.7818,21.1
279.8167,335.5
279.83,894.3
279.8366,619.8
279.8418,20
279.8517,290.6
279.8659,19.3
279.9779,405.5
279.9908,388.7
279.9993,53.2
280.0163,277
280.0246,19.6
280.0602,171.7
280.0656,19.3
280.1432,436.5
280.1612,440
280.2189,289.4
280.2349,265.1
280.3249,89.1
280.444,115.7
280.5194,730.7
280.5883,260.4
280.6426,119.8
280.6917,164
280.8269,2681.5
280.8477,333.3
280.8566,97.3
280.8657,149.2
280.9561,166.7
280.9801,17.6
281.0095,3235.2
281.0221,779.9
281.0328,118.4
281.0518,193.5
281.1323,240.7
281.143,320.4
281.161,53.9
281.2487,579.7
281.315,19
281.3334,112
281.3811,98.2
281.4524,174.7
281.6792,566.6
281.714,456.7
281.8789,19.2
281.93,692.8
281.9862,92.4
281.997,457.2
282.0153,93.2
282.0569,410.3
282.0651,455.2
282.089,566.4
282.1452,94.1
282.1855,195.7
282.1992,21.7
282.274,381.4
282.3361,18.3
282.5274,316.2
282.6587,356
282.7157,153.1
282.8239,3892.5
282.8373,392.9
282.8684,1046.7
282.8844,316.3
283.008,392.4
283.0282,2634.1
283.1791,376.5
283.3573,136
283.4104,18.1
283.429,96.2
283.4978,238.4
283.5034,448.8
283.5337,141.1
283.8468,389.7
283.9186,48.1
283.9256,179.3
283.9933,452.1
284.0352,325.9
284.0372,334.4
284.0633,715
284.1,601
284.1076,247.9
284.1478,162.9
284.2684,629.4
284.3406,417.7
284.4566,713.3
284.5044,46.7
284.5961,652
284.6768,162.4
284.7366,91.4
284.7701,91.6
284.8099,177.5
284.95,104.3
284.9938,704.5
285.0089,18
285.0227,467
285.0399,147.5
285.1242,600.1
285.1573,772.2
285.2327,26
285.2772,331.4
285.4465,115.5
285.5613,550.2
285.6116,20.3
285.7169,865.9
285.8083,646
285.8171,19.4
285.9684,1190.7
286.0201,276.6
286.0668,500.6
286.0966,61.8
286.1986,141.9
286.3141,466.4
286.4215,364.8
286.4339,350.5
286.5369,329.5
286.7718,1943.2
286.8336,182
286.9139,270
286.9522,9325.8
286.9924,743.2
286.9986,30.2
287.0359,261.3
287.0557,34974.1
287.1572,592.8
287.1891,102
287.3521,325.7
287.5453,181.1
287.6428,102
287.7894,103.3
287.8018,237.1
287.8486,187.1
287.8745,545.9
287.9612,216.9
287.9968,1653.4
288.0145,445.9
288.0586,781.9
288.0858,369.8
288.1559,8488.7
288.2048,287.5
288.3483,406.4
288.3989,185.8
288.4136,250
288.6058,152
288.6495,495.8
288.7693,2934.3
288.8546,822.6
288.8568,772.4
288.8726,1418.9
288.8843,5894.6
288.8937,9653.5
288.9098,15708.2
288.9155,14417.8
288.9214,17672.3
288.9256,18241.2
288.9321,21648.6
288.9406,16039.5
288.9464,12474.1
288.9539,11699.2
288.9611,10945.3
288.9686,6731.5
288.971,6927.6
288.9769,5126.9
288.9879,2877.1
288.9929,1994.8
289.0041,463.6
289.0088,248
289.0165,17.5
289.1194,418
289.2025,372.8
289.2468,19
289.2754,765.6
289.3665,20.3
289.4035,136.3
289.4643,140.9
289.4772,256.6
289.5684,92.3
289.5988,175.1
289.6576,94.2
289.7918,681.5
289.8003,202.3
289.8256,19.1
289.8676,88.6
289.9381,183.5
289.993,762.1
290.039,399.1
290.1011,28.8
290.1789,217
290.2301,92.3
290.3227,160.9
290.3393,87.7
290.4007,184
290.4266,20.3
290.4379,150.9
290.7662,1142.9
290.7819,124.8
290.9126,228.8
290.9483,207.5
291.027,3555.4
291.2215,203.4
291.2479,21.1
291.2581,481.2
291.4247,384.1
291.5256,304.2
291.725,661
291.7627,154.4
291.969,454.2
291.9911,865.1
292.0119,22.5
292.0366,141.6
292.0801,281.1
292.0858,181.1
292.3167,408.8
292.4894,283.4
292.549,100.6
292.5973,17
292.6945,48
292.7373,1067.6
292.7801,125
292.8866,249.6
292.897,364.7
293.0069,1184.9
293.0524,20.1
293.0727,2593.4
293.0905,123.2
293.0986,337432
293.1707,19.7
293.1795,4468.9
293.339,498.4
293.4736,650.1
293.5323,84.9
293.5645,281.7
293.5717,24.8
293.7953,90.5
293.8426,90.4
294.0956,894.1
294.102,29447.4
294.1404,18.9
294.1733,129.4
294.1767,121.8
294.3931,113.5
294.4398,106.1
294.5279,413.8
294.572,136.9
294.5893,104
294.7117,419
294.7251,418.7
294.8083,256.2
294.917,264.1
294.9911,584.9
295.0309,2423.5
295.1027,2738.9
295.1652,157.2
295.1774,320.3
295.195,26554.6
295.205,18.5
295.212,601.1
295.314,431.8
295.3293,622.1
295.4365,635.7
295.4624,117.4
295.4912,412.5
295.4932,456.6
295.495,226.7
295.5019,140.4
295.6072,89.8
295.7411,19.9
295.9205,316.7
295.9388,19.3
295.963,107.5
296.01,1738.6
296.1015,320.1
296.1748,103.5
296.1985,1361.1
296.3702,173.5
296.7093,133
296.7663,260.9
296.7846,740.4
296.9617,153.9
296.9878,224.7
297.1114,221.8
297.1585,115.4
297.3774,143.4
297.597,22
297.6497,111.7
297.6952,757.3
297.7562,45.5
297.8032,341.8
297.9052,20.3
298.0185,160.5
298.0255,2035.6
298.0427,15836
298.1472,145.6
298.2486,106.7
298.2858,17.8
298.433,991.9
298.706,139.2
298.9872,269.8
299.0234,678.5
299.046,1070.3
299.1398,2239.8
299.1964,1057.5
299.2374,308.6
299.4641,22
299.4702,636
299.4974,557.5
299.5797,378.6
299.6559,523
299.6635,696.3
299.6818,157.9
299.7622,150.4
299.8192,629.5
299.9282,120.1
299.9307,125.9
299.9323,97.5
300.0049,880.5
300.0346,142.6
300.0387,139.9
300.0489,84.2
300.0544,434.7
300.0758,587
300.1359,112.2
300.1418,435.8
300.1962,32
300.2687,228
300.3453,230.5
300.402,281.8
300.5445,297.7
300.6215,280
300.6985,21.6
300.7219,95.8
300.7674,736.4
300.7902,449.6
300.8062,845.5
300.9999,831.1
301.0067,425.5
301.0389,23105.2
301.0792,22.2
301.1025,410.1
301.1082,18.2
301.1416,258.2
301.2118,3483
301.4323,342.7
301.6301,164.4
301.6791,93.7
301.7348,169.9
301.7773,124.2
301.924,166.9
301.9652,170.5
302.0122,1033.5
302.0202,103.3
302.0355,74.6
302.0509,22.5
302.0644,5526.6
302.0735,28.7
302.0934,366
302.1824,758.9
302.3134,127
302.4618,491.3
302.6593,117.4
302.6692,528.3
302.6789,838.9
302.6869,630.3
302.7051,330.1
302.7599,130
302.8298,3271.9
302.9266,1018.4
302.9705,124
302.9974,168.1
303.0677,521.4
303.0763,20
303.2561,115.6
303.2996,278.7
303.5353,56.6
303.8815,93.9
303.9342,108.2
303.9867,19
304.06,208.6
304.3526,492.2
304.4057,608.1
304.512,131.1
304.6569,52
304.7427,759.2
304.8268,2453.2
304.8581,126.4
304.8964,1162.4
304.9759,935
305.0418,190.7
305.2042,288.6
305.2486,18
305.4632,344.1
305.5841,117.5
305.6064,230.6
305.6195,19.1
305.6574,106.4
305.6704,188.3
306.0258,18.8
306.0958,79.2
306.1082,162.5
306.8977,143.1
306.9586,326.5
306.9777,4812.5
307.2292,194
307.235,136.8
307.3976,427.1
307.4171,109
307.4315,255
307.5627,86.8
307.7363,228.2
307.7926,458.3
307.8187,621.8
308.0778,499.1
308.0887,104.9
308.1797,229.3
308.2131,352.9
308.2185,101.2
308.3086,155.3
308.3516,106
308.3829,111.4
308.6134,225.6
308.6297,796.4
308.8793,5111.2
309.0066,354.3
309.038,4210.4
309.0457,264.6
309.0598,25.8
309.0828,390.1
309.1006,666.5
309.1399,488
309.2751,262.1
309.3763,157.4
309.4579,156.2
309.591,141.2
309.6821,127.1
309.7043,138
309.721,19.1
309.7791,20.5
309.8135,92.3
309.888,157.5
309.9243,102.5
309.9552,430.2
309.9899,17.9
310.0147,20.3
310.0418,154.7
310.0753,382
310.0977,100.9
310.1949,94.9
310.2885,286.1
310.6989,20.8
310.7652,368.7
310.84,605.8
310.8602,335
310.8764,4411.5
310.9404,550.6
311.0032,238
311.1171,777.4
311.1349,240.6
311.229,110.4
311.2317,165.4
311.2331,155
311.239,20.2
311.3349,409.6
311.4606,213
311.5967,166.9
311.682,151.7
311.8688,131.5
311.8725,24.7
311.9804,23.2
312.0073,380.6
312.0412,1905.5
312.0489,231
312.0591,515
312.1343,301.4
312.2256,163.4
312.4756,448.8
312.7049,88.4
312.8587,456
312.8736,1194.4
312.9383,23.1
312.9543,411.9
313.0023,99.1
313.0207,116
313.0716,88.2
313.0963,19.4
313.1457,145.6
313.2408,697.1
313.2743,44750.8
313.3258,106.4
313.6338,171
313.6476,578.1
313.6713,1056.3
313.8668,351.1
313.9435,142.7
313.9851,202
313.9995,773.7
314.0153,294.6
314.0587,305.2
314.0914,155.8
314.2041,107.1
314.2775,4995.2
314.4221,99.7
314.5041,189.1
314.5261,126.3
314.5437,314.2
314.6751,158.6
314.78,607.6
314.7858,439.2
314.8376,3668.9
314.8657,557.1
314.9008,113.6
314.9636,18.5
314.9995,4631.8
315.0047,3516.7
315.0334,359.6
315.0419,339.4
315.0439,505.3
315.0526,4403.7
315.0556,9286.3
315.0596,3218.1
315.062,4809
315.0638,5068.4
315.0669,14253.2
315.07,20912.6
315.0736,12956.3
315.0806,6363151
315.087,25258.3
315.0892,14585
315.0923,8640.4
315.0943,6578.1
315.0967,5702.2
315.0986,4621.4
315.1008,3046.1
315.103,2835.6
315.1048,1328.3
315.1071,809.2
315.1158,271.3
315.12,395.3
315.1219,386.2
315.1238,185.7
315.1411,296.6
315.1446,263.2
315.1516,123.9
315.1617,4718.9
315.2614,358.8
315.324,3859.4
315.3841,160.2
315.4866,703.1
315.6221,149.3
315.6244,177.7
315.6264,153
315.7505,19.7
316.0539,62.9
316.0678,924.7
316.0779,33519.4
316.0839,659623
316.1056,104.2
316.1121,477.1
316.1302,438
316.2155,97.1
316.6015,584.3
316.6372,316.9
316.6518,794.3
316.7392,148.3
316.777,363.7
316.7939,362.8
316.8956,161
316.9021,316.7
316.9534,223.8
316.987,4566.3
317.0233,1345.6
317.0411,20.7
317.0566,441.3
317.0655,1534.7
317.0845,75740.4
317.088,12352.5
317.1859,707.1
317.2962,282.6
317.3819,374.6
317.7133,281.1
317.8054,413
317.8181,297
317.986,463.9
318.0074,18.2
318.0469,355.1
318.088,6650
318.1112,686.1
318.1509,23.6
318.3909,289.3
318.4447,669.6
318.5115,221.5
318.5639,231.6
318.6238,115.2
318.8037,3270.2
318.8388,268
318.8992,116.6
318.9086,1167.3
318.9433,154.6
319.0336,192.6
319.0462,90.4
319.195,44414
319.3007,381.2
319.3299,453.9
319.5098,432.7
319.5384,472.6
319.6298,539.7
319.6606,19.1
319.7112,357.7
319.73,121.8
319.8099,797.6
319.8248,157.6
320.0107,91.3
320.0215,17.9
320.0354,548.8
320.0661,122.6
320.0749,222.9
320.0916,290.1
320.1199,120.4
320.1984,4617.7
320.2099,21.8
320.259,1486.5
320.2888,572.4
320.3182,212.8
320.3455,172.1
320.3512,298
320.4597,18.4
320.534,419.7
320.5933,121.3
320.6622,242.8
320.6661,192.7
320.7635,634.3
320.7891,328.5
320.8013,1119.8
320.8294,21.9
320.8518,808.1
320.9053,519.9
320.975,110.5
321.086,104.7
321.1361,165.1
321.2107,54220.4
321.2382,20.3
321.2626,62.5
321.4975,108.5
321.5077,186.8
321.5653,515.5
321.6275,125.9
321.645,351.4
321.7058,163.5
322.0095,182.1
322.2076,45.4
322.2141,6520.3
322.2763,202.7
322.313,169.1
322.4671,20.5
322.4849,472
322.5004,18.2
322.5636,46.5
322.6087,207.8
322.612,330.7
322.614,261.9
322.9021,342.8
322.9317,945.4
323.0209,13390.2
323.0974,126.7
323.1091,653.5
323.1694,656.5
323.1781,633.8
323.2265,3831.8
323.2342,51.2
323.3112,671.5
323.6701,103.6
323.6892,306.9
323.8934,605.9
324.0058,135.6
324.2736,601
324.4214,439.8
324.4558,455.2
324.5567,480.3
324.5713,6480.5
324.5793,3012.1
324.5837,2633.3
324.5905,1769.4
324.6013,267.1
324.6032,238.7
324.7558,158.1
324.8086,1476.6
324.8531,2816.4
324.9197,502.7
325.2117,3772.6
325.2985,107.4
325.758,114.4
325.9106,401.8
325.9534,99.6
326.005,45
326.0144,20.3
326.1151,343.9
326.3551,17.5
326.6352,369.3
326.806,770.5
326.8237,261.2
326.8504,3747.1
326.9822,1130.7
327.0158,4474.1
327.0525,3337.5
327.0923,143.5
327.1004,121.5
327.1676,160.1
327.2276,10500.1
327.2729,262.6
327.3253,191.1
327.462,109.8
327.7041,274.3
327.7675,146.2
327.7839,230.8
327.8574,139.3
328.0151,723.5
328.0218,18.2
328.1826,173.3
328.2299,789.8
328.3432,280.7
328.408,132
328.4178,194
328.4275,1131.8
328.818,124.7
328.8467,661
329.0963,2631.7
329.2315,23.4
329.301,85.9
329.3244,20.5
329.4293,179.3
329.4555,170.4
329.4783,148.6
329.9258,95.5
329.9505,484.4
329.9575,200.3
330.0114,21.8
330.0602,250.3
330.0698,22.7
330.1012,108.9
330.272,54.4
330.3526,193.3
330.547,292.4
330.5861,118.9
330.7535,389.3
330.7908,83.4
330.8079,162.8
330.8701,185.7
330.9887,29.6
331.0367,387.5
331.0457,120172.2
331.0545,811711.4
331.1674,104.1
331.2181,415.2
331.2683,520.5
331.3973,45
331.4023,295.9
331.5114,360.3
331.8474,395.1
331.9765,730.3
332.0485,8508.2
332.0579,72467.9
332.1485,171.8
332.1859,336.5
332.3116,148.4
332.4213,186.7
332.5291,105.4
332.5714,432.3
332.7144,18
332.8405,544.2
332.9485,747.1
333.0527,45726.4
333.0583,9265.6
333.1646,151
333.3906,373.8
333.482,756.3
333.5226,546.6
333.5682,346.5
333.7222,20.7
333.7265,88.1
333.7884,18.3
333.8767,83.3
334.0559,3550.6
334.0915,294.1
334.1055,406.5
334.276,116.5
334.3297,385
334.4146,160.9
334.5408,700.9
334.64,100.8
334.8379,519.4
334.8467,402.7
335.0387,474.7
335.28,273.6
335.426,20.2
335.4893,364.6
335.5355,313.3
335.5466,173
335.7049,98
336.1027,103.6
336.1791,18.3
336.3693,98.6
336.6238,466.8
336.7718,313.6
336.8007,20.1
336.8485,378.2
336.9244,87.6
336.9272,98.8
337.0366,11877.6
337.0502,17957.7
337.0626,606435.9
337.1581,383.9
337.1665,93.5
337.1837,19.7
337.2621,172.7
337.2744,9533.1
337.3311,191.7
337.7281,46.3
337.753,542.3
337.9389,206.6
338.0504,691.8
338.0659,54368.3
338.1369,404
338.337,140.1
338.3433,34.2
338.4056,274
338.4159,158.7
338.7709,104.8
338.7857,1087
338.9112,400.9
338.9219,843.8
338.9483,242.5
339.0389,1593.1
339.0476,586.6
339.0664,5040.6
339.245,642.4
339.2506,854.9
339.2901,6285.7
339.3319,419.8
339.3569,121.7
339.397,156.3
339.4615,23.6
339.5446,178.2
339.575,213.9
339.5779,281.2
339.5802,292.6
339.6154,132.7
339.6416,126.5
339.7233,334.9
339.8329,180.4
339.8485,421.6
340.2164,143.1
340.3659,265.4
340.3899,101.9
340.6079,212.3
340.638,129
340.7518,352.7
340.7828,1206.9
340.8603,601.8
340.891,146.2
340.9812,145.1
341.0187,72.4
341.0748,19.9
341.1308,627.4
341.2542,242.2
341.2653,411.9
341.3056,8239.9
341.7423,21.2
342.0148,27.1
342.0896,119.4
342.2921,390.5
342.3088,1048.3
342.351,21.1
342.4288,349.1
342.5141,19.7
342.5824,332.7
342.6794,153.5
342.9264,591
342.9897,1072.1
343.0259,1264.1
343.0455,17.5
343.0859,448.5
343.1203,253.6
343.1951,26732.1
343.4348,1038.7
343.4481,17.9
343.6843,310.7
343.8428,106.3
343.9136,269.9
344.1991,1887.9
344.4005,341.6
344.4166,140.3
344.6748,555
345.0021,112.6
345.0527,161.8
345.2105,3983.5
345.2809,18.8
345.3882,98.8
345.3931,476.9
345.5079,163.1
345.833,90.7
345.9085,18.1
345.9597,193.7
345.9843,1025.1
346.0889,448.3
346.5415,20.8
346.6299,637.2
346.8365,634.6
347.0139,19.7
347.0654,363.7
347.1336,414.5
347.1694,614.8
347.218,98.5
347.5541,264.1
347.6534,147.3
348.0907,156.2
348.1375,99.6
348.1474,115.3
348.2316,419.9
348.3179,157.9
348.5573,559.5
348.6453,21
348.6517,153.3
348.7006,106.6
348.8015,494.7
348.8037,497.9
348.8126,350.9
348.829,19.9
348.9042,282.3
349.0133,300.8
349.0478,151.2
349.0613,159.9
349.102,143.1
349.4113,104.5
349.424,686
349.4855,419.4
349.5311,117.1
349.6184,303
349.6535,130.9
349.6667,112.3
349.7953,91.7
349.9757,399.4
350.0145,49.2
350.1005,46.4
350.1221,259.8
350.3454,19.6
350.612,150.3
350.8388,336.1
350.8413,518.9
350.8456,413.2
350.8736,85.4
350.9,531.2
351.0048,772.7
351.0971,368
351.1938,377.5
351.2883,48.4
351.3551,97.2
351.3978,403.5
351.4988,277.6
351.6108,542.2
351.6129,614.5
351.6163,433.5
351.6653,85.8
351.7901,288.7
351.9399,364.8
351.9636,21
352.047,23.7
352.3404,639.9
352.5118,120.5
352.6848,130.4
352.868,461.9
352.8988,2016.6
352.9304,98.1
353.0276,123163.7
353.0365,167814.1
353.0809,237.4
353.2294,417
353.2537,301.5
353.329,154.9
353.4118,298
353.4578,97.8
353.5121,405.8
353.5957,288.6
353.6038,158.5
353.6314,18.1
353.7884,493.6
353.9027,94.8
354.0171,151.6
354.0308,9772.5
354.0399,15809
354.2297,389.4
354.3783,354.5
354.436,150.3
354.5001,22.8
354.5369,17.3
355.0122,1736.2
355.0349,9546
355.0707,482.3
355.1893,127.1
355.2159,1378
355.2639,170.6
355.3322,386.4
355.4755,133.8
355.5196,54.1
355.5534,102.1
355.6033,305.3
355.6239,361.1
355.678,83.6
355.6858,466.5
355.7538,238.4
355.9492,426.2
356.0156,110.3
356.043,889.2
356.0494,48
356.0681,534.8
356.2993,21.1
356.355,111.6
356.4576,274.2
356.5673,20
356.6452,116.3
356.673,121.7
356.8445,20.7
356.8929,150
356.9502,106.7
357.0088,998.9
357.0219,104.3
357.1098,640.3
357.1569,19.3
357.32,381
357.3609,18.7
357.4604,98.6
357.4675,405.4
357.4874,499.8
357.5704,278
357.5872,442.3
357.5975,60.8
357.6064,520.5
357.6234,130.2
357.6747,419.5
357.7823,138.8
357.9178,349.7
357.9781,25.8
358.0094,33.8
358.0484,84.1
358.1199,47.6
358.1801,284.8
358.3863,105.3
358.6005,110.1
358.6148,741.3
358.8029,224.3
358.9248,341.8
359.0079,544.7
359.0321,10123.3
359.0445,346100.6
359.063,21.4
359.2895,222.6
359.3057,635.1
359.315,507.5
359.4473,409.4
359.4607,151.6
359.499,138.8
359.5263,160.2
359.5367,213.3
359.592,486.9
359.6072,285.5
359.6206,831.1
359.6357,118.3
359.6512,25.6
359.6569,346.7
359.6656,142.8
359.6817,873.8
359.6879,213.9
359.7057,167.9
359.7138,404.8
359.7263,19.6
359.7341,237.1
359.7557,142.3
359.7647,100.7
359.7728,411.5
359.8624,153.7
359.8894,377.4
359.8975,107.7
360.0344,187.9
360.0479,30428.8
360.0988,592.3
360.1131,45.6
360.1906,298.6
360.3245,344.1
360.6581,437.4
360.8253,597.5
361.0206,4739
361.0485,1953.8
361.2743,2878.4
361.3269,38.6
361.3673,59.3
361.6815,53.6
361.8505,167.7
361.8841,223.6
361.986,169.8
362.0171,285.5
362.024,119.4
362.0666,175.5
362.0893,260.2
362.1307,545.9
362.2636,200.4
362.337,223.9
362.7226,46
362.8553,101.9
362.9272,2481.6
362.9362,507.4
362.9815,574.4
362.9875,22.4
363.0437,143.4
363.1603,21.8
363.4365,313.9
363.5911,78.3
363.5959,699.4
363.6446,220
363.6756,324.5
363.8566,94
363.983,151.5
364.0011,328.2
364.1177,96.5
364.1696,584.6
364.2814,455.4
364.3944,684.5
364.4279,20.7
364.6233,170.5
364.7229,109.6
364.7334,110.9
364.8257,185.7
364.9021,553
364.9739,565.3
365.0156,330
365.1357,88.8
365.3091,474.1
365.5268,216.2
365.5446,334.4
365.6514,359.7
365.9372,23.5
365.9848,693.5
366.0092,85
366.1111,182
366.1237,213.4
366.1403,55
366.1968,19.1
366.298,17.9
366.402,88.2
366.4632,140
366.8734,487.1
366.8909,479.2
366.9187,19.3
366.9542,642.4
366.993,413
367.04,97.7
367.0472,379.9
367.122,9402.4
367.1951,3069
367.2216,306.2
367.2991,259.1
367.3591,213.2
367.3721,157.6
367.381,213.4
367.3832,192.7
367.4265,20
367.5542,821.1
367.5795,298
367.8665,603.7
368.0682,290.8
368.1376,93.9
368.1844,252.6
368.1993,109.7
368.2178,97.1
368.3969,310.3
368.4159,134.3
368.5198,156.2
368.8389,22.1
368.8715,1781.1
368.8964,24.7
368.9643,114.9
368.9927,1846.2
369.0016,11882.7
369.0104,5114.4
369.0256,259.3
369.2725,161.7
369.2994,156.2
369.3519,25.1
369.4775,765.3
369.6156,386.9
369.6796,119.1
369.8369,48
369.8889,437
370.0052,175.2
370.1237,19.5
370.2675,169.3
370.3496,143.1
370.3602,353.6
370.5096,20.8
370.5724,107.3
370.7416,365.7
370.8655,87.8
370.8707,388
370.9132,104.3
371.0424,660.6
371.0814,151.2
371.265,664
371.4675,119.6
371.5604,159.2
371.5685,130.8
371.6453,367
371.6747,21.9
371.8825,249
372.0484,317.1
372.1019,133.5
372.153,329.4
372.1695,248.2
372.1769,95.8
372.2518,62.9
372.4783,449.7
372.5408,159.1
372.7385,933.7
372.8468,450.8
373.2451,413.8
373.3245,149.1
373.4958,88.1
373.5414,155.7
373.7941,109.6
373.9409,95.4
373.9569,296.4
374.0877,669.6
374.2264,97.9
374.2307,92.2
374.3806,19.2
374.437,564.3
374.4804,412.8
374.5085,510.8
374.7353,342.9
374.7981,18.2
375.0096,122936.6
375.0185,92126.8
375.0445,120.7
375.1082,203.5
375.1855,280
375.2988,355
375.3397,524.8
375.4936,457.5
375.6486,21.7
375.8499,259.2
375.9363,87.6
376.0128,8198.6
376.0218,7145
376.2339,124.3
376.3196,177.3
376.3877,400.7
376.4392,559.4
376.4544,1098.4
376.5181,216.1
376.9304,640.1
376.9947,1173.2
377.017,3751.6
377.3032,396.8
377.3415,102.1
377.6953,106.3
377.8151,141.2
377.8665,270.9
377.9217,129.7
377.9385,83.3
378.0006,225.9
378.0585,602.8
378.0719,18.2
378.2039,225.4
378.2754,313.9
378.3351,355.6
378.3537,87.8
378.384,641.9
378.4997,490.5
378.7986,334.3
378.8622,325.9
378.9004,726
378.9453,21.8
378.9757,133.1
378.9909,87.6
379.1793,147.5
379.2827,439
379.4106,123
379.4308,606.1
379.5646,111.6
379.6567,94.2
379.7499,391.2
379.7919,104.8
379.9003,99.3
379.9526,939.6
380.0173,18
380.0673,207.3
380.5044,21.5
380.7033,100.9
380.7702,1719.5
380.9506,91.8
380.9897,52.3
381.014,18263
381.0264,196195.9
381.0463,18.6
381.1922,90.5
381.2509,18.9
381.6956,85.2
381.8968,97.5
382.0298,16670.6
382.1291,22.7
382.1437,475.8
382.1639,120.7
382.2956,157.5
382.4272,325.1
382.6268,130.9
382.7592,45.8
382.7676,3086.2
382.854,48.3
383.0303,451.8
383.1167,267873.7
383.1354,19.9
383.3456,18.3
383.3697,588.7
383.5115,238.6
383.6829,111.2
383.781,121.7
383.8592,96.8
383.9355,20.2
384.0177,276.9
384.0924,85.5
384.12,32328.4
384.4582,84.2
384.4679,147.4
384.5131,387.9
384.5894,52.8
384.7539,133.7
384.7646,585
384.9214,360
384.9908,145
385.0011,375.7
385.0366,807.5
385.2185,18.5
385.2748,113.5
385.2931,629.3
385.3038,134
385.3795,174.7
385.3882,602.6
385.4717,259.3
385.9795,19.1
386.1641,120.5
386.2475,363.8
386.2849,19.5
386.4609,486.5
386.4887,186.8
386.5488,89.1
386.7052,87.6
386.7161,314.7
386.7525,278.3
386.8332,48.9
386.8909,774.3
386.9135,247.9
386.927,611.3
387.0384,379.9
387.1547,128.4
387.1904,21.3
387.5581,305.2
387.6122,371.8
387.659,280.5
387.9276,158.1
388.0112,23.6
388.22,166.7
388.2736,239.7
388.2844,448.6
388.3193,179.1
388.3369,144.4
388.5659,45.7
388.6335,122.7
388.7127,1446.3
388.9112,628.2
388.9488,393.3
389.59,331.5
389.638,215.7
389.6928,93.2
389.8135,522.7
389.8693,23.3
389.8952,17.8
389.9746,1211.5
389.9936,20.4
390.051,303.5
390.2356,375.7
390.4873,19.8
390.6796,703.2
390.7101,523.2
390.7992,2213.3
390.8196,396.5
390.83,1327.3
390.8455,899.7
390.8609,520.8
390.8731,434.5
390.907,176.2
390.9745,14432.3
390.9835,16657.2
390.9924,8284.5
391.0246,123.6
391.2318,85.9
391.5008,150
391.7305,378.8
391.7327,418.3
391.7848,520.7
392.1199,178.4
392.2607,463.6
392.3255,18.4
392.4976,716.4
392.6544,231.4
392.7964,3313.3
392.9598,51.1
392.9966,145.7
393.1211,107.3
393.2289,162.9
393.4325,353.5
393.6492,119.5
394.0923,345.7
394.1367,313.9
394.3949,85.9
394.4332,264.5
394.5621,604
394.7592,269.9
394.7934,498.8
394.808,354.3
394.8319,299.4
394.9555,25.5
395.0403,114.9
395.0673,93
395.2484,95.3
395.3903,287.1
395.4518,350.7
395.4757,116.5
395.7712,44.4
395.8305,95.7
395.9643,772.6
396.0474,418.6
396.0627,20.7
396.1015,285.4
396.1433,151.9
396.2877,304.1
396.4124,95.8
396.4902,803.1
396.7109,194.4
396.7441,1662.7
396.9788,551.7
396.9914,182039.3
397.0004,54540.4
397.0736,56
397.1873,338.1
397.488,585.4
397.6438,532.5
397.7459,543.6
397.9947,16258.9
398.0038,2372.3
398.0659,125.1
398.1431,679.8
398.2423,2624.2
398.4239,279.5
398.6101,150.9
398.6233,193.5
398.6684,16.1
398.6812,574.8
398.7075,365.5
398.7416,2108.1
398.7627,1205.2
398.912,265.7
398.9764,31.9
398.9918,105.4
398.9992,1290.6
399.1376,234
399.2914,604.9
399.3061,154.3
399.3197,340.8
399.3927,83.4
399.5219,406.3
399.812,481.9
400.1465,104.1
400.2197,561.4
400.2419,222.2
400.5285,137.6
400.6668,103.7
400.7296,104.4
400.7383,1011.6
400.7763,92.5
400.828,1266.5
400.9738,40.8
400.985,438.4
401.0054,556.1
401.187,461.1
401.2634,679.6
401.2798,534.6
401.3301,114.7
401.7092,94.8
401.8603,336.4
402.1701,144.2
402.3473,20.6
402.5996,25.6
402.663,298.3
402.6808,156.3
402.8073,397.2
402.8246,893.8
402.8576,622.3
402.9614,384.6
403.0084,243004.5
403.3052,18.9
403.8267,175.7
403.8704,23.6
403.9463,48
404.0117,18749.6
404.0503,18.3
404.2249,344.9
404.3879,329.7
404.4405,102
404.5138,310
404.6861,421.3
404.7665,116.3
404.7927,364
405.0118,1170
405.3363,20.5
405.6495,19.7
405.6649,88.2
405.6746,19
405.9493,346.1
406.2118,314.5
406.3299,1357.6
406.4442,274.1
406.5023,157.6
406.6624,282.6
406.713,20.3
406.773,1039
406.7852,843.7
406.9574,293.5
406.98,97.2
407.1042,328.3
407.1797,150.8
407.3331,315.3
407.3943,181.6
407.4334,100.4
407.5515,46.4
407.584,84.9
407.7965,114.2
407.8624,143.1
407.9493,226.6
407.9514,224.4
408.216,57
408.2738,128.8
408.6261,20.3
408.7076,237.1
408.7327,115.4
408.7702,2582.8
408.8496,778.9
408.9855,2653.9
409.0042,141.2
409.2097,103
409.494,353.3
409.5046,45.3
409.6296,220
409.8553,731.5
410.2543,151.2
410.2714,20.5
410.3241,92
410.4355,469.9
410.7107,254.8
410.7675,749.2
410.8573,1596.5
410.9104,665.7
410.9701,59.2
411.0015,427.4
411.189,108.6
411.3174,524.1
411.3559,19.7
411.3754,499
411.5322,364.2
411.9125,167.7
411.9961,600.1
412.3219,1217.2
412.3672,311.2
412.3957,18.1
412.5009,233.9
412.6367,694.6
412.7091,98.4
412.7171,317.6
412.853,87.7
412.8902,385.8
412.899,92.3
412.9471,349.2
412.9654,27175.4
412.9743,8708
413.2452,755.1
413.2666,5925.4
413.3253,543.1
413.7786,274.4
413.9455,299.7
413.9662,19.1
413.9797,178
414.0849,120.4
414.182,583.4
414.27,601.5
414.3819,120.3
414.4153,426
414.7159,1524.9
414.7816,22.5
414.9713,408.7
414.9988,1545.1
415.0382,22.8
415.066,290.7
415.2223,450.1
415.2382,526.1
415.2874,185.9
415.7145,18.5
415.7543,133.9
415.9712,476.4
416.1357,11880.2
416.2147,41501.3
416.28,151.4
416.7475,149.7
416.8025,2116.3
417.008,556.6
417.1413,290
417.2181,5156.2
417.4367,122.5
417.4547,163.3
417.6394,26.4
417.7901,200.9
418.0358,390.5
418.2207,431.1
418.3633,123.9
418.3865,261.7
418.4267,134.2
418.487,451.8
418.5101,183.6
418.5407,140.3
418.6262,271.2
418.7229,678.5
418.7722,328.1
418.9823,71650.8
419.039,17.3
419.0909,51.1
419.1283,350.1
419.2566,463
419.3107,133.9
419.3974,371.5
419.7103,261.2
419.7222,18.3
419.7419,448.7
419.8596,647.8
419.9024,112.8
419.9852,4739.8
420.067,848.9
420.0928,19.9
420.1215,18.7
420.24,364.1
420.2957,365.8
420.8266,142.4
420.8855,1616.1
420.9808,2003.6
421.019,336.7
421.1485,572.3
421.2448,107.3
421.3465,111.6
421.4068,199.8
421.5439,680.3
421.6876,25.3
421.7295,19.2
421.7516,683.7
421.7606,157.7
421.8275,49.2
422.014,282.2
422.2846,144.9
422.3043,50.4
422.3269,637.1
422.6548,124.6
422.7404,21.1
422.7479,1646.8
422.7573,312.9
422.9552,464
422.9716,212.5
423.3318,165
423.3541,157.3
423.9441,148
423.9753,21.7
424.0179,104.3
424.0718,105.1
424.7445,986.1
424.9515,20
425.1385,90.7
425.2752,347.3
425.3221,302.8
425.6724,378.3
425.7509,111.1
425.9255,208.2
426.2159,149.2
426.2413,98
426.3159,441.4
426.3462,277.1
426.3592,801.2
426.4439,18.3
426.5639,149.6
426.8291,789.3
426.9885,138.6
427.0166,161.2
427.1586,911.4
427.1796,188.2
427.2234,94.3
427.2945,173.9
427.3832,136.8
427.4585,103.6
427.6121,90.5
427.7579,388.3
427.804,147.5
428.2856,18.8
428.411,129.9
428.8329,786
428.9245,465.1
428.9423,900.2
428.9903,92.2
429.0387,429.4
429.0896,314.4
429.2409,24.5
429.3345,46.2
429.8836,491.6
430.0568,116.6
430.2695,137.6
430.384,220.7
430.3943,95.8
430.6708,408
430.9147,1982.1
431.1906,20.4
431.2178,3640.8
431.3663,354.2
431.5783,105.9
431.9897,324.8
432.0477,114.5
432.2207,618.3
432.6936,528.2
432.7773,564.3
433.071,153.1
433.2902,20.2
433.4292,446
433.4394,45.7
433.5591,85.4
433.7076,723
433.8625,135.6
434.0381,741.5
434.0527,170
434.0896,342.1
434.1487,18.9
434.4447,86.1
434.5201,103.8
434.8161,46.5
434.9562,7920.8
435.0745,20.8
435.3514,102.6
435.5448,799.2
435.5734,296.7
435.7237,448.5
435.773,22.7
435.8055,109.9
435.8787,108.8
436.3165,196.9
436.53,133.1
436.7333,374.2
436.8595,882.7
437.1072,142.9
437.1719,820.2
437.2104,21.2
437.3183,796.6
437.3338,147.3
437.3958,157.5
437.5259,427.4
437.7735,506.3
437.8366,189.3
437.9732,18.2
438.1961,52.8
438.5499,18.1
438.8186,365.7
438.8439,477.8
438.9725,1352.8
438.9851,4084.6
439.0774,178
439.1757,356.2
439.2044,607.8
439.8065,101.2
439.9076,99.7
440.0435,147.7
440.216,47.2
440.3331,408.8
440.3964,19.9
440.4497,151.6
440.5472,277.7
440.7256,1273.3
440.9845,161.3
441.1454,401.6
441.2487,113.8
441.2984,301.6
441.8931,19.6
441.9094,126.3
442.2268,166.7
442.3787,20.7
442.6118,86.6
442.6842,137.3
442.7419,429.1
442.9604,205.3
442.9941,275.9
443.0413,299.6
443.2058,20.9
443.2293,127
443.254,1378.2
443.4743,99.7
443.8608,485.5
444.0302,272.2
444.4417,451.6
444.5292,729.4
444.9107,141.9
444.9733,636.9
445.0433,153.8
445.1028,342
445.2204,339.3
445.2333,992
445.2695,1442.3
445.5124,97.7
445.7432,191.4
445.7732,290.1
445.8419,112.9
446.057,141.9
446.1086,177
446.2204,219.6
446.3974,49.5
446.5426,86.3
446.6714,890
446.8481,45.6
446.8568,148.6
446.8878,1223
447.0958,740.2
447.1048,274.6
447.2693,95.9
447.4765,342.4
447.6371,17.9
447.6498,611.3
447.7963,562.2
448.2422,109.7
448.2709,559.3
448.3117,286.1
448.5567,812.9
448.7144,21.7
448.7754,20.3
448.8416,118.6
448.9333,3726.1
449.1547,2103.9
449.2977,119.1
449.3546,140.8
449.3717,271.8
449.4827,278.5
449.9071,711.4
449.9606,19.9
450.0249,22.6
450.0878,197.2
450.1479,325.5
450.1583,329.3
450.6312,288.1
450.6456,23.6
450.731,267.2
450.7542,385.8
450.9298,729.1
450.9982,541.9
451.1239,136.9
451.1503,114.7
451.1575,191.6
451.593,142.6
451.8167,236.2
451.8385,106
452.0969,183.3
452.1125,18.2
452.1784,94
452.4342,108.7
452.5536,679.7
452.7507,413.8
452.8727,17.7
452.9148,461.3
453.0375,19.5
453.169,96
453.1839,177.2
453.2828,332.3
453.3803,83.5
453.5872,650.7
453.9601,220.5
453.9684,20.6
453.9901,17.8
454.0811,287.5
454.2863,103.4
454.3329,131.9
454.3493,427.5
454.4237,20.7
454.4326,148.1
454.8261,337.4
454.9501,41801.2
455.0587,440.2
455.1228,165.8
455.1551,94.2
455.1656,594.5
455.4713,726.7
455.8883,328.6
455.9531,2414.6
456.1196,473
456.1316,456.5
456.1725,23.6
456.2781,97.4
456.6184,47
456.7008,425.2
456.8246,135.4
456.9474,10348.5
457.088,26.4
457.1028,328.5
457.1444,803.3
457.2101,809.3
457.2332,13460.5
457.4691,97.8
457.5589,80.1
457.7499,468.7
457.7646,652
457.9522,508.2
458.1337,187.1
458.6981,827.6
458.752,22.2
458.8789,370.5
458.9345,17.3
458.9612,1153.6
458.9787,119.4
459.0305,252.7
459.1299,145.6
459.2489,440581.5
459.3668,295.5
459.4593,83.1
459.5048,350
459.7064,823
459.906,445.2
460.0488,145.2
460.2274,230.9
460.2522,90412.6
460.3016,287.2
460.4132,90.8
460.7811,345.1
460.8205,256.3
460.8518,138.8
460.967,68563.6
461.2556,5632.4
461.3663,190
461.4194,580.8
461.7479,97.8
461.8738,176.6
461.9701,5090.4
462.1344,19.6
462.3499,153.1
462.7031,19
462.9639,22152.7
463.0056,18.8
463.2224,670.4
463.3244,420
463.4296,130.3
463.4912,325.1
463.9679,1496.2
464.0781,258
464.2351,186.6
464.2969,116.3
464.6384,252.7
464.7488,226.5
464.9044,17.6
464.9788,11245
465.0744,111.9
465.1216,153.1
465.4671,230.5
465.4816,129.2
465.6339,139
465.9117,479.8
466.064,49.4
466.4523,474.3
466.5007,227.6
466.631,116.4
466.729,982.4
467.0028,159.8
467.0612,572.1
467.0723,22.2
467.1534,371.2
467.8729,709.3
467.8909,139.9
467.9334,23
467.9919,18.3
468.0008,254.1
468.0936,368.6
468.1221,525.7
468.3081,1711.5
468.7611,128.7
468.7706,420.6
468.7806,330.9
469.0333,574.9
469.1466,936.5
469.2456,20.7
469.4518,305.1
469.5599,19.2
469.5995,101.6
469.7134,103.2
470.1559,214
470.3121,130.4
470.3306,228.6
470.3462,119.9
470.3673,826.5
470.4906,88.4
470.5739,474.9
470.6908,18.1
470.924,15905.6
470.9637,630.5
470.9956,3779.4
471.2501,425.8
471.285,3482.3
471.3686,180.2
471.8082,300.7
472.2158,20.6
472.2589,92.9
472.3031,631.9
472.319,84.8
472.3847,850.3
472.5665,22.4
472.6514,354.5
472.7386,432
472.9029,397.2
472.9211,4027.3
472.9424,839.8
472.9545,332.1
473.0074,19.7
473.0292,167.1
473.2644,4744.5
473.3035,723.6
473.4066,288.8
473.956,23.4
474.0494,262.5
474.3459,673.5
474.6491,318.6
474.6625,556.4
474.7123,333.6
474.8896,18.2
474.9509,117.2
475.2226,16929.1
475.2438,409.5
475.4076,515.2
475.5191,437.2
475.7351,111
475.8845,719.8
475.9586,361.8
476.166,20.7
476.2271,736
476.509,616.6
476.7109,91.4
476.8315,414.3
476.9198,108.1
476.9409,36913.8
477.9443,2530.6
478.0576,19.2
478.1603,380.8
478.2153,379.8
478.2247,365.1
478.3009,253.8
478.3298,41312.4
478.7238,303.4
478.7968,393.6
478.9381,11862.7
478.9563,22
478.9661,19.1
478.9922,478.8
479.0023,329.2
479.0443,95.8
479.1931,427.6
479.2083,803.8
479.3331,8065.4
479.4735,190.4
479.8907,128.8
479.9735,421
480.2757,170.8
480.3094,151.9
480.4063,547
480.6282,156.9
480.6786,391.9
480.7065,390.8
480.7689,304
480.9526,1750.9
481.0487,356
481.092,71.6
481.1715,21.2
481.2047,618.6
481.2335,2448.8
481.3011,19
481.413,133.3
482.0061,97
482.0491,416.1
482.1046,335.6
482.1303,166.1
482.1804,20.5
482.2626,18.8
482.283,62.9
482.3221,380.2
482.3843,380.6
482.5894,93.2
482.7043,352.2
482.7936,280.9
482.9948,118.5
483.0264,169.5
483.2488,99052.9
483.2784,145.4
483.3267,387.4
483.8836,85.8
483.9399,516.8
483.9569,417.8
483.9922,182.9
484.0185,380.1
484.2521,22829.5
484.2938,387.5
484.6332,264.9
484.7062,93.4
484.7996,88.8
484.8253,528.5
484.9157,132.6
485.0111,101.9
485.0376,380.2
485.1397,381.1
485.1523,803.3
485.1681,381.5
485.2644,111763.2
485.3318,376.6
485.422,102.5
485.9505,619.7
486.0372,239.1
486.2016,318.6
486.2678,26657.1
486.4922,159.1
486.7859,421
486.8984,1019.7
486.9769,203
487.0639,317.8
487.2573,112.7
487.2801,125668.7
487.4481,672.3
487.5698,55.1
487.9093,334.3
487.9449,194.7
487.9627,191.9
488.0811,682
488.2834,24971.9
488.317,18
488.3886,138.3
488.6184,94.3
488.6451,408.7
488.6762,112.7
488.7857,165.6
488.948,387
488.961,560.1
488.9959,94.7
489.1887,122.6
489.2848,1918.6
489.3429,19.9
489.3562,472.7
489.3923,334.3
489.4394,422
489.4475,776
489.4966,384.4
489.523,403.4
489.5281,397.1
489.5366,470.1
489.5602,496.7
489.5888,542.5
489.8385,369.5
489.8485,226
489.8753,280.2
490.0585,295.8
490.2911,8206.7
490.6266,85.2
490.7507,311.5
491.2808,97.8
491.2935,431.6
491.3711,3127.5
491.3956,19.3
491.5925,187.9
492.0877,19
492.1066,17.9
492.3519,632
492.6116,561.2
492.6639,512.2
492.6742,196
492.6957,117.8
492.8092,387.2
492.8992,107.6
492.9148,3778.1
492.9933,318.8
493.0822,25.1
493.1429,357.7
493.1958,126.1
493.4429,152.8
493.6892,328.6
493.9605,598.7
494.1681,215.3
494.2852,1374
494.3248,6560.8
494.3773,323
494.3872,350.9
494.7629,813.1
494.7817,155.9
494.7964,18
494.9124,557
494.9684,856.8
496.3135,333.8
496.3404,384992.7
496.658,546.7
496.6861,414.6
496.9324,1526.7
497.1187,18
497.3437,94635.6
497.4523,21.7
497.557,51.2
497.6739,89.8
497.7553,394.1
497.9506,22.2
498.0197,168.2
498.1648,705.5
498.3464,7618.9
498.685,985.7
498.7848,239.3
498.91,251.1
499.2229,3334.6
499.3146,100.3
499.4132,20.4
499.6172,162.8
499.6475,22.6
499.7738,449.7
499.7837,1022.8
499.9558,540.2
500.3638,220.5
500.5219,137.4
500.6827,360.8
500.8754,799.7
500.9718,286.1
501.2381,3903.4
501.249,304.8
501.6254,155.1
501.6444,285.8
501.8241,645
501.9965,88.4
502.0268,99.8
502.0794,563.5
502.3294,15180.3
502.426,95.2
502.45,332.2
502.4646,94.7
502.6048,478.8
502.8263,354
502.8703,426.4
502.9026,96.4
502.9113,19.2
502.9927,155.2
503.0662,338.8
503.1084,147.7
503.254,7504.9
503.2906,566.2
503.3335,1575.1
503.5977,123.6
503.6133,608.6
503.8007,377.9
503.8369,256.4
503.9917,453.9
504.051,342.3
504.1329,105.7
504.204,51.2
504.3065,4047.3
504.3448,7695.6
504.5006,136.8
504.6663,165.8
504.7079,149.2
504.7389,367.7
504.7565,146.4
504.7817,158.8
504.8118,314
504.8719,99.7
504.8914,278.4
505.0889,206.4
505.2333,346.2
505.2621,144.4
505.3483,607.6
505.3695,266.2
505.5907,81.5
505.9432,96.5
506.0628,908.2
506.264,427.2
506.3318,20.3
506.361,6234.7
506.649,422.8
506.7706,574.9
506.799,86.7
506.8514,900
506.8766,232.3
506.892,4095.9
507.2308,22.9
507.2487,41757
507.365,58.8
508.2523,6884.7
508.2885,441.8
508.3759,1187.2
508.4004,20.4
508.4205,152.4
508.889,2931.6
508.9378,46.5
509.0053,4580.3
509.1392,159.5
509.2643,10232.2
509.6823,120.3
509.7647,191.4
509.837,155
509.865,100.1
510.1045,17.4
510.2586,827.7
510.2674,2327.2
510.3554,3198.5
510.4718,106
510.7911,104.1
511.0071,128.2
511.2464,334.1
511.3614,342.4
511.4189,102.3
511.9263,143.8
511.9654,20.1
511.9767,99.4
511.9916,120.9
512.0387,102.3
512.0679,97.2
512.3903,100.2
512.6076,533.3
512.6193,101.8
512.7539,325.7
512.8048,20.6
512.8807,452.1
512.9087,20029.9
512.925,518.8
513.0121,16.9
513.101,173
513.1452,353.7
513.296,949.7
513.5679,446
513.7848,280.3
514.3909,135.7
514.4219,257.1
514.9056,11920.9
515.0398,180.4
515.2571,269.9
515.4557,643
515.5342,127.8
515.6115,301.4
515.8309,172.4
516.127,367.1
516.1997,21.9
516.2223,160.8
516.3066,17946.9
516.6555,880.1
516.7081,575.7
516.903,389.7
516.96,281
517.0178,19
517.0347,108.3
517.0931,456
517.2644,202.1
517.3099,1133.9
517.3227,696
517.3849,96.2
517.4879,47.1
517.8572,20.7
517.9802,718.3
518.0404,311.9
518.1536,456.9
518.1778,22
518.2534,772.9
518.3223,730759.4
518.5523,52.1
518.5865,616
518.6752,355.4
518.73,477.4
518.8052,96.9
518.8429,18.8
518.9255,28829.9
518.946,28
519.3257,172759.1
519.5308,90.4
519.5913,147.2
519.6136,783.3
519.6447,112.7
519.8552,17.9
519.8726,318.5
519.9286,1318.7
520.0433,193
520.1521,455.4
520.2317,147.3
520.329,20351.6
520.3405,84624.6
520.4198,17.8
520.4915,647
520.6306,19.4
520.6529,377.8
520.7378,399.7
520.8532,620.2
520.9225,16390.4
521.079,468.7
521.1849,19.4
521.2401,704.6
521.3438,18973.6
521.408,111.2
521.5112,46.1
521.6236,19
521.9265,803.3
522.1391,172.7
522.23,526
522.2582,491.7
522.3561,105543.4
522.6854,645.4
522.7639,97.8
522.8836,19
522.907,442.3
522.9203,1138.9
522.938,5072.4
522.9661,103.6
523.3595,24684.6
523.4453,862.4
523.7108,99
523.8715,387.8
523.9192,414.9
524.0172,616.6
524.2124,358.6
524.2624,20.6
524.2741,753
524.2922,17.6
524.3315,143.7
524.3717,150086.3
524.5742,270.4
524.9338,1108.6
524.9778,722.5
525.0082,122.3
525.0825,359.2
525.2362,149.8
525.3367,21
525.3751,33800.9
525.4529,101.6
525.6575,164.7
525.9102,95.3
525.96,263.7
526.1284,22.5
526.3296,4715.1
526.3801,557.4
526.5014,753.8
526.6239,603.8
526.6856,376.9
526.9313,635.8
526.9489,844.5
527.2073,138
527.3344,427.2
527.4841,192.5
527.7509,292.8
527.8137,157.7
527.8945,521.7
528.1378,190.4
528.2177,327.7
528.4219,95.1
528.6238,92.3
528.6396,119.6
528.8579,18.2
528.8828,5527.6
528.9549,1195.7
529.2513,352.3
529.2626,1074.3
529.3399,270.2
529.4347,279.3
529.5865,347.8
529.6993,233.4
529.8421,213.3
530.1053,171.8
530.1793,146.5
530.358,3185.7
530.4257,600.8
530.4526,1078
530.7291,666
530.7544,865.9
530.88,3640.7
530.9326,579.7
531.0017,46.7
531.0612,100.5
531.2213,865.5
531.2327,18.1
531.2486,2239.1
531.3002,19.4
531.717,97
531.8656,312
532.1719,195.6
532.2523,88.5
532.2803,1763.2
532.338,10350
532.4325,404.3
532.5586,44.1
532.7954,324.9
532.9672,1609
533.0524,111.2
533.1252,372.7
533.2849,388
533.3412,1117.2
533.5342,102.6
533.6787,18.2
533.9461,290.9
534.2963,153453.6
534.3171,314.4
534.3896,214.3
534.7184,213.3
534.7662,262.4
534.8543,136.8
534.8995,14127.4
535.0178,128.6
535.2997,35283.3
535.4756,95.8
535.623,977.4
535.8352,169.5
535.9034,1046.8
535.9707,190.5
536.2946,7137.8
536.5797,104.3
536.8967,7220.2
536.9743,122
536.9851,403.5
537.0376,612.1
537.1608,452.9
537.9002,365
538.4038,146.3
538.53,427.2
538.8935,450.4
538.9118,2506.4
538.9337,1111.5
539.5579,503.7
539.7491,238.5
539.8549,252.7
540.0837,106.6
540.2179,96.9
540.2836,316.2
540.3049,1155.2
540.458,753.9
540.8775,212.9
541.0405,218.6
541.0565,278.3
541.3874,1142.1
541.6206,348.7
541.7088,143.8
541.7206,230.9
541.7664,102.9
541.8137,99.6
541.9784,838.5
542.0965,21.7
542.3225,153754.3
542.4785,1129.2
542.4924,1298.5
542.7048,304.1
542.8557,372.4
543.031,170.4
543.1878,226.6
543.3258,37964.4
543.4031,860.8
543.4872,114.8
543.8104,94.2
544.0552,354.3
544.0934,377.5
544.2727,1873.2
544.3382,193399.6
544.6401,689.6
544.7238,17.9
544.9361,212.7
544.9489,1682.8
545.1126,273.3
545.2789,46.8
545.3416,46017.2
545.6009,220.7
545.6342,435
545.6846,261.7
546.0965,690.3
546.2343,589.4
546.2574,1382.6
546.3072,437.2
546.3537,254721.2
546.4052,87
546.8546,382.5
547.3036,145.1
547.3572,64475.4
547.5486,19.9
547.7583,105.1
547.975,189.4
548.0269,429.6
548.3112,2381.1
548.36,5736.8
548.775,679.1
548.8095,21.1
548.8853,155.9
548.9341,237.6
548.9393,244.1
549.3383,52.3
549.588,286.8
549.9916,86.9
550.3289,378.9
550.4046,246.5
550.7827,327.7
550.7947,272.4
550.8737,1919.7
551.4926,121.3
551.8201,124
551.8721,392.2
552.1214,334.1
552.153,141.3
552.2124,83
552.2229,288.9
552.6759,254.1
552.8712,1135.6
553.1894,97.5
553.3642,170.6
553.4259,101.3
553.5654,114.3
553.8339,636.5
554.1235,283.9
554.1598,417.1
554.4855,292.6
554.5527,52
554.7042,245.4
554.7547,97.3
555.2667,96.8
555.8624,270.8
556.0078,370.1
556.273,590.1
556.3104,236.5
556.5313,400.1
556.5412,21.6
556.9865,841.8
557.0641,83.2
557.1581,128
557.2046,88.4
557.3028,123.4
557.4125,671.7
557.6286,130.5
557.7409,102.5
558.2964,32306.8
558.4952,18
558.7743,142.7
558.8848,726.6
558.9109,417.7
559.1103,104.3
559.2999,7192.1
559.5659,378.3
559.8154,96.5
560.0484,225
560.1168,428.8
560.1511,113.7
560.312,38402.8
560.6214,725.5
560.7613,174.7
560.9075,47.6
561.1149,22.7
561.3151,8240.1
561.3858,99.2
561.4131,7459.2
561.4786,170.7
561.5971,479
561.8428,672.1
561.9297,81.1
561.9714,47.2
562.311,1306.3
562.3277,48649.6
562.3803,17.5
562.4177,3684.1
563.1297,336.1
563.2894,301.7
563.3312,10468.9
563.4282,1854.1
563.4778,132.5
563.4901,171.4
563.6441,135.1
564.0242,183.8
564.3067,1332.1
564.3263,797
564.4455,82.5
564.5131,99.9
564.5232,242.7
564.6721,212.4
564.8477,833.3
565.09,312.6
565.0996,143.7
565.1097,182.2
565.1306,121.4
565.3614,525.6
565.9796,346.5
566.0225,20.6
566.0855,821.2
566.3225,57516
566.3569,661.9
566.4114,315.7
566.6546,179.7
566.8055,251.9
566.9641,1231.8
567.2262,103.9
567.2892,640.2
567.3258,15188.8
567.547,588
567.6134,19.9
567.668,158.5
567.7516,255.3
567.7698,91.4
567.8382,878
567.9383,373
567.9947,236.7
568.2837,459.8
568.3381,18797.3
568.5171,19.5
568.8378,670.2
568.963,450.2
569.3413,4974.3
569.6349,486.4
569.7294,290.8
570.0383,476.5
570.3692,124.6
570.3988,374.2
570.7454,708.5
570.8672,7190.5
570.9954,573
571.0564,364.4
571.189,364.6
571.3578,693.4
571.4401,19.6
571.5353,201.2
571.6913,20.8
571.8759,132
572.163,108.8
572.1763,133.7
572.4745,104.7
572.5264,146.2
572.5943,224.1
572.7355,21.3
572.8645,5318.1
573.1193,800.6
573.2733,627.8
573.4013,439.2
573.6474,153.8
573.8239,447.2
573.9692,157.8
574.0217,21.5
574.0627,456.7
574.1487,357
574.3408,144
574.7366,181.3
574.7875,19.5
574.8628,533.9
574.9433,23.2
574.977,458.3
575.2592,372.1
575.35,297.2
575.4648,605.8
575.5047,4031.2
575.7753,950.5
576.11,176.3
576.2805,6054.7
576.5078,53.6
576.5664,296.2
576.6205,190.9
576.8646,443.4
576.8844,11226.4
577.0638,262.2
577.2857,800.4
577.3894,18.3
577.5188,80.6
577.6266,83
577.7498,412.5
577.931,414.2
577.9572,94.8
578.2775,1497.5
578.327,387.2
578.8813,9021.5
578.9206,212.2
579.1272,94.4
579.5372,466.5
579.7368,293.9
579.8853,1027.5
580.0805,20.9
580.1608,22.6
580.2603,546.8
580.7198,282.7
580.8789,754.9
580.8967,2828.7
581.1153,132.3
581.4786,92.7
581.5008,116.7
581.5425,141.6
581.5927,106.1
582.1747,556.6
582.2319,494.7
582.2964,8979.2
582.3216,628.2
582.3287,589.2
582.338,136
582.4777,190.1
582.5098,142.8
582.533,535.3
582.5598,150.8
582.5828,701.8
582.6035,22.9
582.6291,245.4
582.6449,1069.7
582.6675,639
582.7255,105.3
582.8928,1889.7
582.9877,141.5
583.1016,470.6
583.2575,913
583.2992,1539.5
583.4917,393.8
583.5459,322.9
583.8679,1171.5
583.8819,47.3
584.1567,152.9
584.2569,735
584.3118,3754.1
584.486,370.1
584.6592,722.1
584.7812,866.1
584.9302,175.9
585.0612,358.9
585.1889,118.4
585.3167,176
585.3538,380.4
585.3952,17.1
585.8244,405.3
585.9674,20.9
586.0869,159.9
586.3097,4782.2
586.4865,28.2
586.7443,178.6
586.8414,2657.8
586.9131,851.7
587.8222,22.1
587.985,312.2
588.0707,621.4
588.3104,133.2
588.3724,172.9
588.4511,111.7
588.6117,439.1
588.6346,20.8
588.7068,224.3
588.8389,2684.8
588.9121,643.8
589.1938,153.7
589.5288,52.3
589.7629,19.3
589.8422,145.9
590.0494,291.5
590.3224,4554.5
590.9229,355.7
591.146,288.6
591.1896,183.6
591.2754,298.7
591.2999,92.6
591.8787,855.4
592.1533,408.7
592.3386,1177.9
592.5905,170.5
592.6967,632.7
592.8585,4737.8
592.8805,448.1
592.9998,383.2
593.1657,18.4
593.2071,349.5
593.4744,690.2
594.0033,470
594.1216,135.1
594.1569,20.3
594.2611,419.7
594.4285,510.4
594.6501,436.3
594.6977,678.4
594.8557,6061.6
594.9982,504.2
595.4448,85.3
595.5817,88.6
595.6573,167.9
595.7796,407.7
595.8067,316.5
595.8581,483
596.0854,103.9
596.1898,634.4
596.5756,22.8
596.5988,508.5
596.8528,1968.8
596.8706,337
597.345,82.9
597.4498,4430.7
597.4708,1010.7
597.4857,6939.9
597.547,94.8
597.616,200.7
597.8436,22.7
597.8562,118.4
597.953,108.3
598.4195,92.1
598.4581,1445.9
598.4866,133.6
598.5745,24.5
598.8665,524.6
599.0796,140
599.3773,555
599.4644,3262.1
599.5043,2009.2
599.5293,349.1
599.9466,48.6
600.0623,185.5
600.3245,372.4
600.4768,916.7
600.8139,153.4
601.1532,126.7
601.1851,165.2
601.3512,225.3
601.5199,458.3
601.6419,632.3
601.7922,655.4
601.952,638.8
602.2965,723.3
602.4137,19.6
602.4758,19
602.5071,66.4
602.5225,103.9
602.5656,18.8
602.6559,207.2
602.8895,798.7
602.9797,114.7
603.39,17.6
603.5347,424.6
603.6954,97.3
603.7311,332
603.8765,181.4
603.9331,329.1
604.04,108
604.0731,715.6
604.3115,864.3
604.5393,22
604.7154,100.2
604.8119,527.6
604.8344,375.7
605.4155,134.3
605.5532,784.5
605.9533,103.8
606.0828,241.4
606.2187,23
606.2974,1151.6
606.3726,150
606.5195,702.3
606.6188,163.7
606.8914,231.6
606.9451,374.7
607.1719,6091.9
607.2283,155.6
607.5478,201.7
607.8003,204.3
608.1752,962.6
608.3658,19.7
608.6979,286.8
608.8324,1099.8
609.1437,127.2
609.2644,634
609.2926,107
609.5776,18.2
610.0171,660.8
610.3076,575.6
610.4474,193.4
610.6666,304.8
610.8288,392.5
610.9145,116.3
611.2654,277.2
611.3455,546.9
611.4203,98.1
611.4718,91
611.6668,83.8
612.3254,811
612.5183,370.3
612.7105,323.9
612.835,20.9
613.0194,736.1
613.1763,151.1
613.9161,798.5
613.9309,533.3
614.3417,598.5
614.529,116.1
615.2342,114.1
615.4609,5483.1
615.7207,234.5
615.8604,88
615.9638,148.9
616.1256,251.4
616.1587,465
616.4417,340.9
616.9581,18.7
617.2596,373.2
617.4764,27085.7
617.6266,303.7
618.2772,227.9
618.3731,45.3
618.48,7642.7
618.9513,98.7
618.9947,20
619.4919,13592.9
619.7806,21
619.8036,98.3
620.0665,50.3
620.3552,517.8
620.4084,123.3
620.4362,438.6
620.4953,3785.4
620.7061,566.9
620.9621,17.1
621.4557,881.5
621.4869,10910
621.9391,147.9
621.9974,253.4
622.1523,444.8
622.334,492.8
622.4664,259.8
622.4877,741.5
622.5673,814
622.5807,173.7
622.6616,445.8
622.8448,94
622.9801,149.5
623.1369,25724.6
623.3271,113.5
623.4544,267.3
623.469,985.2
623.5023,1020.5
623.83,47.4
624.1406,4497.2
624.2539,113.1
624.4712,370.6
624.6337,566.8
624.8934,208.2
625.2297,269.8
625.4027,20.6
625.4526,111.4
625.4913,106.9
625.519,730.7
625.8026,419
626.0286,332.8
626.0563,132.9
626.154,461.7
626.2304,25.7
626.324,45.2
626.6504,151.4
626.7432,185.5
626.9242,1030.3
627.1318,113.7
627.2603,383
627.3435,162.9
627.3592,297.3
627.5351,1041.1
627.5616,631.6
627.895,19.8
628.0768,255.7
628.424,55.3
628.499,152
628.5392,87.2
628.9172,147.3
629.1538,58668.8
629.3145,328.6
629.4891,92.8
630.0239,340.2
630.054,136.4
630.1574,11272.3
630.6672,110.5
630.948,82.5
631.0164,288.9
631.1295,385.3
631.1584,1311.7
631.331,385.5
631.7134,109.7
631.7835,480.7
631.9423,386
632.1125,16.8
632.1361,135.8
632.2964,197.7
632.4356,235.2
632.46,169.8
633.0393,100.7
633.0933,100.8
633.2623,155.3
633.45,1618.8
633.4822,357.5
633.4993,376.5
633.5942,96.3
633.5994,97.4
633.89,165.9
634.4037,388.1
634.5063,725.7
634.533,225.6
634.8116,21
634.8423,2550.8
635.152,19.3
635.213,828.8
635.4097,101
635.4457,224.3
635.5011,753
635.5394,20.7
635.6705,315.5
635.6997,167.2
635.946,21.7
636.4487,16.9
636.8398,2967.7
636.9876,20
637.0181,162.9
637.2144,332.1
637.9395,737.2
638.1713,486.1
638.2956,113
638.3686,170.6
638.4093,174.5
638.4508,685.1
638.4964,708.6
638.7832,695.8
638.8032,22.7
638.8366,579.1
639.0203,467.7
639.0594,270.4
639.3147,193.5
639.3249,53.5
639.4853,770.7
639.6564,182.7
639.8623,20.7
640.4666,468.9
640.531,102.4
640.6511,315.4
640.7293,101.4
641.2156,459.2
641.2474,19
641.4714,635.6
641.5417,283.7
641.9593,126.6
642.0745,139.5
642.1964,146.8
642.4135,284.9
643.3499,93.3
643.4578,119
643.6109,129.1
643.7722,155.3
644.0247,177.1
644.1079,301.2
644.6026,399.5
644.6302,177.3
644.9092,50.2
644.947,371.1
645.1188,20534
645.227,241
645.3226,1752.8
645.4862,978
645.7501,341.4
646.1225,3054.2
646.3018,833.2
646.3267,418
646.3475,552.5
646.4204,170.7
646.5447,20.1
646.9337,926
646.9603,123.8
647.0956,397.5
647.1052,661.6
647.1253,458.9
647.4746,448.5
647.4997,870.1
647.545,821.6
647.7303,757.1
647.7442,220.1
647.8524,244.9
647.9651,655.3
648.1051,166.9
648.233,102.8
648.3467,626.3
648.6769,24.1
648.7401,279.7
648.8505,102.6
649.2,416.7
649.4119,103.5
649.4803,881.4
649.5194,108
649.7469,19.5
650.0436,573.9
650.0605,113.8
650.3224,917.5
650.5504,884
650.564,154.8
650.6851,370.1
650.8181,2543
651.0234,161.1
651.0492,22.7
651.1357,54913.8
651.2736,137.4
651.3386,100.5
651.5394,54.9
652.0226,95.5
652.1395,10593.7
652.3915,89.1
652.7572,131.1
652.8147,1553.1
652.8685,264.3
653.1107,655
653.1414,1426.9
653.4599,771.2
654.2259,622.6
654.3155,378.1
654.4292,97.5
654.5768,420.5
654.5963,219.6
654.6122,22.6
654.8114,721.2
654.8655,202.3
654.8716,198.6
654.8775,164.5
655.9051,161.5
655.9264,236.2
656.6284,831.1
656.8539,711.2
657.0221,19.1
657.05,119.8
657.5366,228
657.7318,112
657.7953,105.2
657.9661,106.9
658.1432,20.4
658.2198,92.1
658.3968,22.2
658.5861,307.9
658.6837,308.9
658.7592,21.5
659.4407,674
659.6966,174.9
659.7876,20.2
659.9746,335
660.0225,128.7
660.0829,100.5
660.9092,19.6
661.0628,109.9
661.0836,7721.7
661.1274,149.7
661.2036,375.5
661.4949,102.2
661.9531,406
662.0635,395.1
662.086,767
662.2116,167.2
662.3206,628.6
662.6503,23
662.7013,160
662.7257,111.8
663.1642,179.1
663.3249,546.3
663.4,44.9
663.454,579.4
663.6472,386.8
663.931,178.5
664.0891,77.5
664.4659,2207.1
664.945,280.9
665.2025,20.1
665.3091,360.1
665.3402,138.9
665.4695,829.6
666.2419,172.4
666.4432,980.8
666.4841,5606.8
666.9096,18.9
667.1004,24780.1
667.481,359.4
667.5457,20.8
667.9213,418.4
668.0768,188.4
668.1039,3645.6
668.1773,185.3
668.2483,137.9
668.4562,230.3
668.772,167.1
668.7912,413.3
668.8699,219.6
668.9462,799.2
668.9529,858.3
669.0644,239.8
669.1067,417
669.1419,291.7
669.3313,20
669.3515,19.5
669.512,359.7
669.5669,18.5
669.593,201
669.6701,395.6
670.4013,206.5
670.5522,51.7
670.6637,245.3
670.8739,106.6
671.0441,539.1
671.2478,123.9
671.8684,243.7
671.8811,18.9
672.0824,166.3
672.1742,690.6
672.4759,216.4
672.5216,415.7
672.5693,22.3
672.5963,164.7
672.7636,218.8
672.8828,207.8
672.9847,323
673.1177,57762
673.1561,740.9
673.2789,656.1
673.5283,574.9
673.7736,708.4
673.877,45.3
674.0308,170.7
674.1214,10709.8
674.3059,175.9
674.651,386.4
674.7752,52.1
674.874,146.6
675.1234,1134.9
675.5447,14150.3
675.6642,246
675.9716,388.1
676.2308,266.9
676.301,119.9
676.4567,451.5
676.5487,4747.7
676.6095,504.8
676.6922,341
676.8259,167
676.8386,187.6
677.2984,99.9
677.5247,582.8
677.8429,282.4
677.9684,112.3
678.1712,405.4
678.2007,372.8
678.2716,19.9
679.1794,421.7
679.2804,342.9
679.4389,324.6
679.7723,166.1
679.9515,322.2
680.5658,170.3
681.3932,447.8
681.4838,349
681.8311,174.5
681.9985,25
682.0657,415.4
682.7552,393.5
682.93,106.5
682.9598,347.3
683.0653,4105.3
683.1225,143.5
683.2307,152.2
683.6021,200.6
684.2045,179.1
684.3988,475.3
684.7898,141.1
684.8647,19.3
684.9402,189.3
685.0394,232
685.0793,301.5
685.4084,821.1
685.4369,9123.7
685.5967,88.8
685.8232,94
686.2811,113
686.2922,192
686.4396,453.2
686.4597,728
686.5273,142.7
686.5821,369.2
686.6888,339.8
686.9212,375.1
686.928,371.6
686.9366,412.2
686.9924,278.9
687.0886,20.5
687.2256,20.4
687.3773,328.6
687.5437,774.3
688.6469,319
688.9121,115.4
688.9386,120.4
689.082,18146.6
689.0917,13588.9
689.5603,2011.4
689.7864,276.7
690.0872,1872.2
690.1626,153.2
690.5671,932.3
690.629,21.9
691.0299,103.9
691.0654,139
691.0869,115.2
691.2167,123.9
691.3044,249.2
691.6083,182.7
691.7703,440
691.812,127.2
691.926,104.8
692.0807,21.4
692.1615,412.1
692.4993,658.7
692.5556,18.5
692.5858,417.9
693.0792,163.3
693.9575,163.9
694.0912,540.8
694.7993,586
695.0997,39530.9
695.3389,17.1
695.5112,3603.3
695.7839,416.4
695.9739,131.2
696.0864,130.3
696.1035,6502.9
696.4691,624.8
696.5129,724.4
696.9736,450
697.0759,344.1
697.1043,557.4
697.2277,328.7
697.4731,751.2
697.5266,21470.3
698.02,17.7
698.0657,402.4
698.5297,9154.9
699.4004,97.1
699.4682,96.7
699.5423,443.8
699.7226,49.3
699.8667,293.9
700.1344,422.6
700.8855,460.4
700.9672,717.3
701.0993,151.6
701.2051,102
701.4105,495.4
701.5606,42409.8
701.6661,17.9
701.7743,517.1
702.0859,220.9
702.343,5111.9
702.5637,14137.2
702.7881,314.5
703.1205,59.6
703.347,70.5
703.4604,228.7
703.5764,76478.7
703.7618,21.4
704.1163,167.9
704.4798,171.8
704.5796,30177.8
704.6612,129.6
704.7977,139.4
704.8123,866.5
704.8952,178.3
705.0463,1531.9
705.0574,2911.2
705.1381,600.1
705.3278,125.9
705.5821,2635.4
705.6151,110.8
705.7323,169.3
706.086,28.8
706.3192,17.7
706.5388,1000
706.7758,240.5
706.8219,140.4
707.1899,17
707.3383,151.8
707.6885,22.5
708.607,140.3
708.991,338.5
709.4551,605.9
709.7501,387.8
709.8242,45.2
710.2085,271.6
710.2604,171.1
710.7646,204.4
710.9516,747.2
711.0634,11067.5
711.075,11867.8
711.5432,2857.9
711.694,174.1
711.9316,318.2
711.9529,21.2
712.079,1745.2
712.5478,950.8
712.6346,96
712.8943,178.4
712.9273,325.5
713.0056,752.6
713.0464,212.5
713.1204,19.1
713.1956,151.8
713.9696,20.9
714.0551,22.6
714.0716,232.3
714.1253,112.2
714.1389,599.3
714.2293,520.2
714.5035,766.2
715.2347,528.7
715.2561,544.6
715.6399,374.3
715.907,411.7
715.9412,98.1
716.0377,80.7
716.2171,19.4
716.3058,119.2
716.3388,20
716.3986,223.6
716.7911,156.2
717.0816,19730.2
717.3261,759.9
717.4,181.1
717.4473,318.8
717.5914,69.7
717.6179,129.6
717.6307,133.2
717.826,143.3
717.9632,93.7
718.0859,2209.6
718.4581,24.6
718.5308,107.8
718.5735,585.6
718.8387,280.9
718.878,159.4
719.0047,166.2
719.0566,110.4
719.3191,562.4
719.8919,93.8
720.3078,255.6
720.3838,602.5
720.4581,329.1
720.5549,415.8
720.5923,447.1
720.6344,77.1
720.9801,408.3
721.0269,153
721.4147,93.8
721.4488,193.5
721.4793,45189.7
721.5562,892.9
722.1699,168.5
722.2781,98.2
722.3149,77.8
722.4827,16520.7
722.656,726.3
723.0824,366.7
723.3068,93.1
723.4955,7276.6
723.5423,47459
723.578,356.5
723.6706,283
723.9478,23.6
724.0853,121.7
724.1317,793.1
724.3248,1818.7
724.3682,130.8
724.4259,335.8
724.497,624.8
724.5462,17666.9
724.8991,21.7
725.3105,286.8
725.5004,320.9
725.5582,73503.2
725.7666,21.2
725.8288,168.6
726.2034,149.3
726.4384,260.7
726.5061,1807.2
726.5614,26585.4
726.5868,19.8
726.6205,381.5
726.6949,21.3
726.7389,607.7
726.809,21.7
726.9967,961.8
727.0297,2037.5
727.0905,669.3
727.1674,694.7
727.2567,576.4
727.4053,252.6
727.495,518.4
727.5644,4026.1
727.8735,172.7
728.1531,86
728.2689,177.4
728.5213,3162.2
728.579,766.5
728.6145,513.7
728.6437,270
728.6782,102.3
728.9944,103.7
729.2803,136.2
729.5923,11428.2
729.8604,177
730.5399,9899
730.5962,2614
730.6921,149.1
731.2568,410.2
731.4348,514.2
731.5127,99.4
731.5425,2804
731.6082,5502.2
731.7697,22.7
732.0682,115.7
732.5553,48305.4
732.6099,922.3
732.8216,50.2
732.9268,20.1
733.0448,7616.9
733.057,6039.3
733.1376,162.4
733.267,19.2
733.3718,398.5
733.5137,237.2
733.5587,19246.1
733.7154,96
733.7767,194.7
734.0621,296.7
734.105,466
734.1655,1171
734.2381,261.6
734.2898,25.6
734.5027,94.8
734.5716,7637.1
734.9532,507.9
735.2289,231.9
735.3557,521.9
735.4768,109.5
735.574,1608.6
735.8405,92.4
736.2504,150.4
736.3257,178.4
736.3975,69.4
736.5799,573.7
737.4538,4518.4
738.1725,286.2
738.454,703.4
738.7489,30
738.8927,691.9
738.9633,57.4
739.0376,392.5
739.0636,11662.4
739.2503,363.2
739.2865,738.4
739.3929,22.5
739.467,233.4
739.5151,4697.1
739.5387,744
739.5958,295.8
739.884,21.3
740.0684,514.7
740.1029,22.6
740.4656,88.5
740.636,330.5
740.7584,433.8
740.8704,171.6
740.9434,219
741.3951,240.3
741.515,51.8
741.5321,5889.9
741.6867,112.9
741.9755,425.2
741.9922,108.7
742.4525,381.9
742.5364,1720.3
742.5766,6021.2
742.7329,385.6
742.9318,103.8
743.4627,1721.3
743.5802,2265.5
743.8715,97.3
744.1135,308.3
744.3223,441.5
744.3843,275.7
744.513,620
744.5548,3984.9
744.5925,7417.8
744.6349,93.4
745.182,491.2
745.2793,98.5
745.3529,380.2
745.3912,663.8
745.456,19.9
745.4793,35623.1
745.5951,1499.7
746.3395,477.5
746.4403,614.7
746.4831,12334.9
746.5712,3459
746.6078,3979.9
747.0125,112
747.0884,370.7
747.2459,19.2
747.3479,553.6
747.4952,9092.9
747.5735,460
747.6129,298.1
747.984,361.2
748.1038,228.8
748.4828,190.5
748.4985,2133.6
748.6617,110.8
748.7543,245
748.9047,55
749.0104,2351.4
749.5112,4602
749.9553,21
750.015,138.3
750.0357,373
750.05,785.3
750.1696,28.3
750.2226,1349.8
750.5116,341.3
750.5521,725.2
750.7918,472.3
750.8867,329.4
751.308,99.5
751.5737,9686.5
752.1218,236.4
752.306,505.3
752.334,416.6
752.5207,9673.4
752.5776,1629.6
752.6658,342.7
752.8728,120.4
753.132,352
753.3681,20
753.3878,22.3
753.4249,163.3
753.5232,2756.9
753.6665,22.6
753.8207,98.8
754.0189,101.1
754.2671,319.1
754.2891,21.7
754.5378,45790.2
754.8327,299
755.0273,3927.1
755.0386,3384.2
755.1933,19.3
755.5408,16305.8
755.6123,856.5
755.7293,120.2
756.0226,681.4
756.1045,99
756.3691,69.3
756.5551,48405.8
756.665,145.8
756.8749,253.2
757.3169,260.2
757.3768,146.5
757.5118,1477
757.5582,20663.6
757.623,2034.2
757.9633,20.6
758.3576,347.3
758.571,835863.8
758.6279,826.3
758.8676,489
758.949,121.8
758.9771,237.3
759.0497,19.5
759.1044,312.4
759.3325,252.5
759.3566,150.1
759.4624,128.8
759.5743,365083.6
759.6388,2430.9
759.8345,159.6
759.8525,175.6
760.0373,236.4
760.2665,116
760.408,19.7
760.4693,518.8
760.537,96
760.5717,38407.2
760.5875,310005.4
761.0457,4997
761.4529,2388.6
761.5904,142914
761.7172,21
761.9706,20.4
762.0701,20.6
762.1126,517.6
762.4575,682.4
762.5933,29995.6
762.7733,641.8
762.9693,728.1
763.3005,164.4
763.3391,387.9
763.3677,399.9
763.5957,2518
763.9576,369.9
764.2868,21.1
764.3394,157.6
764.5571,1209.4
764.7742,634.7
764.9762,111.2
765.1826,931.7
765.2385,27.9
765.3485,156.4
765.4503,24.3
765.4928,100.9
765.5354,98.4
765.5625,1107.8
765.7348,289.6
765.9424,92.1
766.0331,446.9
766.0797,162.2
766.2637,160.6
766.5387,740.2
766.5756,30009.2
767.0385,20.6
767.2124,829.3
767.5788,11042.2
768.0301,507.3
768.2554,341
768.2757,212.1
768.375,111.5
768.5547,6720.6
768.5917,57950.4
768.8693,243.5
769.0614,153.6
769.2842,154.2
769.4795,7055.5
769.5396,46
769.5585,774.1
769.5953,25753.6
769.8025,104.7
770.0607,118.3
770.2502,52
770.3886,336.7
770.51,2428.9
770.5475,345.8
770.5699,798.8
770.6098,4459
770.7872,55.3
770.9933,3482.9
771.1796,673.3
771.2968,143.1
771.3545,221.4
771.4509,129.3
771.4954,1124.3
771.5258,193.6
771.5679,210.9
771.612,1294.2
772.0041,188.3
772.4952,379.3
772.5867,8456
772.6512,20.6
772.9701,142.2
773.1517,580
773.5099,3322
773.5901,2412.5
773.6172,729.4
773.6521,104.6
774.5126,351.3
774.5328,146.5
774.5768,334.8
774.6047,537.9
774.6506,285.5
774.6825,418.3
775.5113,216.4
775.607,288.1
775.6225,706.7
776.0658,492.5
776.3171,147.4
776.4132,95.1
776.5221,3573.5
777.0091,4994.7
777.1433,679.3
777.5782,523.5
777.6254,578.8
777.6703,156
777.6995,95.1
777.7969,23.1
777.945,130.1
778.011,372.8
778.1045,85.9
778.135,530
778.2629,316.8
778.5373,34293.8
779.0132,328.4
779.541,16447.2
779.674,137.4
779.8814,335.3
780.075,544.7
780.1267,248.7
780.1583,623.3
780.553,568899.4
780.8127,141.5
780.8498,441.8
781.0105,102.8
781.4935,102.8
781.5565,245097.9
781.6593,19.8
782.5708,819374.7
783.0275,4801.8
783.0906,22.5
783.1161,317.5
783.1503,19.8
783.5741,389257.1
784.1514,175.1
784.5309,99.6
784.5723,43309.6
784.5876,320547.5
784.694,583.6
785.53,207.2
785.5905,158458.7
785.6548,8359.5
785.692,717.5
786.1971,225.7
786.4205,549.3
786.4819,327.8
786.603,286290.3
786.6581,2419.5
786.7344,399.7
786.8614,458.1
787.4866,112.6
787.6059,140536.5
787.6707,1032.6
787.914,93.4
788.1109,107.2
788.5577,10247
788.6058,21146.5
788.6216,13561.5
788.673,102.7
788.9759,310.7
789.118,73.4
789.3865,21.1
789.5598,2865.7
789.6228,7974
790.0913,349.5
790.1739,389.7
790.4877,353.2
790.5741,27594.4
790.6238,84.4
791.0546,1338.4
791.3282,270.8
791.3451,105.3
791.4339,542.9
791.482,1068.6
791.5772,8970.6
791.6195,973.8
792.115,159.3
792.553,1231.1
792.5914,16123.6
792.7829,65.9
792.8205,126.8
792.9805,400.5
793.595,6927.9
793.8777,307.5
794.3005,92.1
794.5104,2584.9
794.5684,3324.9
794.6075,51015.4
794.7271,127.7
795.0063,260.3
795.1971,54.1
795.2123,64.9
795.3198,633.8
795.6111,24454.3
795.8541,516.4
795.9552,430.9
796.0114,423.1
796.0707,323.2
796.0975,557.1
796.1632,473.8
796.5269,82128.1
796.5872,7685.3
796.6246,6318.8
796.7394,110.1
796.8341,381.3
797.047,99.1
797.1576,128.7
797.2834,24.8
797.5301,36645.3
797.5908,794.7
797.6276,2176.4
797.7781,369.6
798.5436,23927.1
798.6034,639
798.6304,165.5
799.0008,474.2
799.0718,19.4
799.2514,136.8
799.5467,7173.1
799.6702,1092.8
800.1366,18.7
800.1874,564.5
800.3162,358.8
800.4916,125.1
800.6757,214.3
801.1411,104.7
801.522,168.1
801.5432,1111.6
801.6878,690.1
801.8484,341.2
802.0428,678.1
802.1349,126.2
802.3198,715.7
802.3978,208.8
802.5372,38630.2
802.5697,163.2
802.5988,101.6
802.6909,66.9
802.7801,101.9
803.0137,700.2
803.2275,118
803.5408,16663.2
804.553,415396
804.6365,327.9
805.4685,239.4
805.5563,194765.5
805.5959,195.2
805.8934,147.5
806.1267,302.8
806.5703,309873.3
806.685,106.1
807.0375,252.8
807.4897,19
807.5733,152918.9
807.6334,355.6
808.1711,184.4
808.2267,473.1
808.2652,322.9
808.5306,19.2
808.5862,249549.1
808.8204,119
809.2697,288.8
809.4882,25
809.5893,123388
809.6543,251.7
809.9022,122.7
810.3684,151.7
810.5362,654.7
810.6029,240218
810.893,659.7
811.1725,617.2
811.3545,583.1
811.4585,20.7
811.6059,117497.5
811.6703,12366.8
812.4519,804.8
812.6036,12217.5
812.6206,40978.3
812.6734,3571.6
813.1815,271.4
813.2793,129.1
813.3583,187.1
813.4883,163.6
813.5534,389.3
813.6222,21866.2
813.6866,6883
813.9706,232.9
814.0099,538.6
814.2474,449.7
814.5741,758.2
814.6241,2487.8
814.6896,2274
814.9013,19.3
814.9737,169.7
815.0503,770.2
815.2853,184.1
815.4288,409.7
815.6395,57.5
815.6905,342.3
816.1642,239.9
816.3194,167.2
816.5261,64.6
816.5896,23886.6
817.2258,254.4
817.3187,85.7
817.5929,8975.6
818.5104,1653.9
818.569,1326.5
818.6073,6255.9
819.4178,577.7
819.5154,1247.5
819.6103,846.4
820.0444,65.1
820.3276,542.1
820.5267,72299.4
820.5548,273.7
820.6228,996.2
820.8683,380
821.0393,234
821.1236,691.1
821.5303,31225.2
821.6016,535.7
821.8004,415.2
821.8521,253.1
822.5436,28831.9
822.6387,502.3
822.8183,172.5
823.2091,300.8
823.5466,12521.4
823.8073,758.9
824.2474,21.4
824.404,496.3
824.4511,94.7
824.5587,18354.9
824.5905,141.7
824.7875,321
824.8076,304.2
825.0457,20.1
825.2943,82.4
825.4038,802
825.5604,6329.6
826.0171,21.9
826.4112,330.3
826.5412,818.2
826.9115,129.4
826.9389,461.8
827.3893,148.2
827.4461,22.8
827.5479,99.8
827.6074,622.1
828.1709,408.5
828.553,87066.3
828.9535,157.8
828.9832,150.3
829.0165,280.4
829.136,23.1
829.3215,783
829.5565,47408.2
829.6958,512.5
829.8241,476.5
830.0826,754
830.5693,74414.1
831.349,161.3
831.5723,36409.4
831.6414,182.1
831.6735,139.5
832.4482,472
832.5849,113172.7
833.1024,751.5
833.588,57625.3
833.6511,1072.7
833.7169,115.4
833.783,510.6
834.2604,558.6
834.3045,444.8
834.4656,241.8
834.6029,42271.6
834.6428,20.1
834.7496,172.8
835.0751,151.8
835.1835,141.1
835.239,203.3
835.3097,240
835.5485,348
835.5794,375.8
835.6052,21488.8
835.6638,596.4
835.6846,655.8
835.7507,548
835.9435,499.5
836.0192,119.8
836.1929,23.2
836.6202,4543.5
837.2844,19.9
837.4864,600.7
837.6225,1344.1
837.9138,2004.5
838.2612,24.9
838.5112,1702.6
838.5638,106.1
838.635,194.3
838.7367,931.7
838.9382,139.3
839.2041,378
839.3051,120.9
840.5252,603.4
840.6616,664.5
840.6993,704.7
840.7697,1231.8
841.0517,340.8
841.9567,97.9
842.4082,26.8
842.6054,49.2
842.7142,19.2
842.8739,236.1
843.0001,658
843.1655,605.4
843.5312,21.2
843.6767,108.7
843.6966,22.1
843.8128,197.5
844.2809,46.7
844.5272,11932.7
844.943,23.2
845.5296,4890.4
845.6334,117.3
845.9958,502.8
846.0231,465.2
846.319,163
846.3789,307.7
846.5425,7492.5
846.611,316.3
847.1569,139.3
847.547,832.2
847.833,646.7
848.0179,21.1
848.4799,18.9
848.5585,14198.6
848.6824,395.4
848.863,320.3
849.2005,156.3
849.5612,5103.9
850.5724,232.8
850.6033,245.5
850.8169,860.4
850.9168,366.7
850.9869,173.2
851.4143,21.4
851.483,107.4
851.8105,51.5
851.9375,147
852.023,723
852.0585,705.1
852.0981,578.9
852.3946,509.7
852.6831,306.4
852.9688,96.4
853.3372,634.8
854.067,849.1
854.5697,1060.4
854.8785,454.9
855.3424,87.5
855.5094,404.6
855.5786,284.2
856.2319,87.9
856.3398,409.5
856.5837,5989.2
856.7156,144.1
857.1156,462.5
857.5857,443.1
857.82,373.7
857.9411,650.5
858.1579,363.3
858.2408,911
858.5993,712.4
859.3416,774.6
859.5241,472
859.7122,144.9
859.7848,310.8
860.1926,388.1
860.2635,88.5
861.9987,185.8
862.2552,203
862.4249,53
862.5149,412.2
862.9142,650.3
862.9399,1954.4
863.0157,21.3
863.5082,501.3
863.6017,420.9
863.7383,146.7
864.0238,19.3
864.3132,265.7
864.3464,412.6
864.5491,260.5
864.6101,536.4
864.7893,850.3
864.8369,121.7
865.4865,114
865.9424,53.6
866.4129,82.8
866.4709,56.7
866.7609,291.4
866.9931,91.3
867.3379,165
867.4868,127.6
867.5842,494.3
868.0324,63.5
868.4593,622.8
869.2749,931.6
869.772,955.8
869.8161,741.8
869.8484,384.7
869.8758,984.9
869.9053,1011.8
869.9384,198.4
869.9919,182.3
870.0307,110.1
870.103,2340.7
870.1315,1454.7
870.151,1152
870.2018,2248.9
870.2416,2631.6
870.2589,2862.7
870.2919,2067.4
870.3222,3692
870.351,2437.6
870.3774,2142.5
870.4077,1832.3
870.4439,764.7
870.475,500.9
870.5462,271.6
870.6182,567.7
871.0069,276.9
872.2582,367.5
872.5431,869.1
873.2453,111.9
873.6876,156.8
873.9786,303.3
874.1505,87.8
874.1765,374.6
874.4486,671.7
875.1169,786.1
875.596,873.6
876.4041,452.8
876.4294,140.5
876.618,120.2
876.7316,111.2
876.7892,174.5
877.0849,1190.6
877.2879,457.2
877.4645,108.4
877.5991,322.3
877.7062,129.7
877.7338,23.5
877.9505,80.8
877.9903,152
878.2694,102.4
878.4659,674.1
879.461,434.8
879.631,88
879.7799,653.7
879.8658,743.9
879.943,716.7
880.821,313.7
880.9145,609.2
880.9836,97.1
881.0911,287.5
881.2347,743.5
881.3059,103.6
881.6393,108.7
881.7194,369.8
881.9542,276
882.2038,386.6
882.276,441.1
882.4815,146.7
882.5816,650.4
883.628,440.3
884.0279,19.1
884.2059,164
884.2318,147.8
884.3814,741.2
884.4342,649.7
884.5348,1503.8
885.3444,767.6
885.402,400.1
885.7922,94.9
885.8875,294
885.9819,111.2
886.05,152.2
886.0951,305.5
886.1626,334.7
886.3259,844.9
886.8784,347.8
887.1337,18.1
888.1592,20.1
888.3463,20.8
888.519,174.5
889.0949,105
889.143,523.3
889.7641,19.6
890.0212,524.5
890.2856,22.1
890.9067,655.5
891.2361,437.4
892.0624,419.4
893.2362,292.9
893.5172,168
893.6913,444.8
893.7167,571.9
893.7626,176.8
894.5612,312.2
894.7713,20.4
894.9249,855.6
895.2961,143.4
895.4296,562
895.571,401.2
895.9546,105
896.0051,143.5
896.2544,95.2
896.5077,588.2
896.8922,21.9
896.9429,596.6
896.9776,685.4
897.3025,597.2
897.439,106.2
897.8681,21.7
898.0551,78.9
898.4308,153
898.7053,138.7
898.9375,550
898.9942,145.2
899.2335,723.2
900.0216,308
900.2551,190
900.4638,89
900.4694,89.2
900.5845,1465.7
901.0244,144.8
901.2825,108.9
902.2362,167.1
902.3434,93.5
902.4425,2491.1
903.2517,117.4
903.3232,565.4
903.553,375.7
903.9148,30.2
904.6347,289.7
905.0295,115.6
905.8718,18.3
905.9834,21.1
906.1232,50.2
906.2482,178.2
906.417,210.8
906.5392,688
906.9934,241.2
907.2732,95.3
907.4885,146
907.9453,236
908.2908,137
908.4839,21.9
908.8283,97
909.3238,377.8
910.5082,421.5
910.6565,590.2
911.6129,140.3
911.8141,265.6
911.9769,253.3
912.1003,116.6
912.3448,92.1
912.4771,692.6
912.554,19.8
912.9171,119.5
912.9917,346.2
913.4188,18.8
913.5186,540.7
914.4078,382.1
915.1071,131
915.293,235.3
915.4619,527.7
915.8931,97.8
916.387,19.6
916.4849,107.3
916.5675,22.3
916.6425,57.6
917.2651,393.3
917.4218,101.7
917.6615,20
917.7155,354.5
918.4639,834.2
919.3096,251.8
919.3539,447.7
919.4711,341.8
919.8632,101.2
920.0011,125.1
920.1966,553.3
920.28,372
920.3628,585.3
920.8368,926.4
920.9672,140.1
921.1466,22.6
921.3137,416.7
921.4407,225.1
921.6243,125.5
921.9615,453.7
922.3846,165.2
923.257,21.4
923.2815,333.1
923.4798,360.9
923.5203,725.7
923.5801,557.9
923.6908,155.2
923.8793,345.5
923.9384,19.2
924.9575,107
925.8117,96
925.9429,160.5
926.053,615.8
926.1717,98.8
926.2493,19.5
927.3132,365.1
927.5464,714.8
928.3928,896.7
928.673,347
929.764,20.8
930.0215,923.6
930.2552,178.4
930.2989,47.3
930.3316,132.1
930.8179,284.3
931.0106,21
931.1065,121.8
931.199,177
931.3987,165.6
931.7672,358.8
932.0859,656.6
932.8053,418.6
933.2096,861.8
933.4995,20.8
933.5859,169.1
933.9298,579.9
934.1178,242.2
934.9707,986.1
935.5232,412.4
935.6464,518
935.7447,589.6
935.8991,169.4
936.0719,139
936.4477,142.2
936.7317,126.5
936.8665,452.3
937.1736,745.6
937.208,137.5
937.5349,267.3
937.6176,350.9
937.6639,839.3
937.7813,422.2
937.8121,120.1
937.9149,258.6
938.2228,667.6
938.5115,580.5
938.5514,19.1
938.8222,101.7
938.9945,2072.8
939.287,267.6
939.5212,131.2
939.5493,149.4
939.6691,342.1
939.9049,93.4
939.9358,21.6
940.685,394.5
940.7304,621.1
940.7647,125.7
941.0083,399
941.1029,114.4
941.2229,438.6
941.9206,609.3
941.9958,94.2
942.1921,485.5
942.6894,554.8
942.8342,480
943.0113,414.5
943.1866,955.3
943.2269,301.9
943.3189,233.9
943.5142,481.6
943.8053,49
944.8801,603.9
944.9099,18.8
945.1486,106.5
945.2635,154.9
945.329,366.4
945.638,124
945.666,624.4
946.1213,187.7
946.5236,175.8
946.5514,242.5
946.7643,125.8
947.1962,332.6
947.7933,978.7
947.903,576.3
947.9915,122.7
948.0828,501.4
948.3709,969.2
949.0109,127.6
949.449,271
949.704,250.7
949.9277,20
950.236,255.6
950.4363,383.3
950.8752,159.9
951.071,63.2
951.108,813.7
951.3432,842.3
951.5435,168.5
952.0027,106.4
952.0624,61.9
952.5071,169.8
952.6337,45.8
953.1174,305.9
953.2992,281.5
953.3923,356.5
953.4967,194.9
954.0671,57.8
954.3733,19.2
954.5793,22.5
954.7272,517.9
955.0953,590.6
955.2878,166.3
955.8989,179.2
956.1539,303.4
956.2288,336.3
956.3247,296
956.5526,223.6
956.8153,684
957.0382,627.8
957.0777,637.9
957.1163,256
957.2242,613.2
957.3254,490
957.9742,243.5
958.0239,1261.5
958.0989,250.3
958.3374,22.9
958.7373,804.7
958.9968,871.6
959.1117,275.2
959.2007,211.5
959.2625,265.3
959.6882,354.1
959.9432,45.4
960.0231,132
960.4043,107.5
960.4842,702.7
961.7095,667.2
961.8535,198.8
961.8938,545.3
962.2358,67.3
962.2711,151.6
962.3712,337.9
962.4908,149.1
962.5484,499.6
962.8713,117
962.9525,663
963.0243,50.3
963.0955,218.3
964.1853,525.6
964.2278,187.8
964.4726,574.7
965.1502,1257.5
965.2118,192.7
965.2702,111.8
965.6224,155.4
965.9057,113.2
966.1758,168.8
966.6784,271.8
966.7161,52
966.8095,1982.7
966.9835,707.4
967.1613,381.5
967.2685,19.5
967.4907,259.3
967.5816,102.6
967.7532,465.7
968.2417,21.9
968.3131,18.6
968.5641,147.8
968.6136,401.4
968.74,1118.2
969.1102,942.9
969.1856,58.6
969.282,151.8
969.3166,61.5
969.4439,682.4
969.5012,454.9
969.6811,55.2
969.7494,507.6
970.1054,99.2
970.1411,379.2
970.3041,554.5
970.5644,18.7
970.9158,23.3
971.0135,129.3
971.079,340.8
971.1947,148.6
971.5597,612.1
971.6788,329.8
972.5307,100.7
972.9032,547
973.1921,643.2
973.3062,123
973.7114,413.9
973.8396,104.5
973.8899,103
974.217,358
974.5898,138.3
974.7109,786
975.492,421.8
975.6318,368.1
975.9277,136.9
976.1307,967.2
976.8705,86.8
977.0867,593.3
977.22,449.1
977.6663,377.1
977.7829,221
977.9319,338.7
977.9627,409.5
978.1133,344.6
978.6105,123
979.0229,151.1
979.4312,357.2
979.581,101.6
979.8696,155.6
980.1012,130.7
980.1515,106.9
980.7207,535.8
981.3475,147.5
981.76,202.1
982.0308,360
982.5322,401.4
983.0464,243.6
983.2812,91.1
983.3403,20
983.5334,1666.5
984.0242,963.6
984.1773,942.6
984.6609,395.5
984.8303,1127.9
985.037,955.6
985.2974,112.6
985.4937,507.7
986.2498,120
986.4127,879.1
986.4792,82.8
986.7042,270.5
987.0802,474
987.1897,420.9
987.2492,107.7
988.8241,544.2
988.9492,699.7
989.0304,648.1
989.2006,138.7
989.3251,120.9
989.9905,530.8
990.0626,339.2
990.1242,382.7
990.488,95.3
990.5557,170.2
990.5979,106.5
990.8038,1341.4
990.995,100.1
991.5885,649.2
991.9435,18.9
992.0077,439.8
992.6382,144.3
993.3655,213.7
993.9055,108.3
994.3068,185
994.7574,730.7
995.0334,361
995.0567,20.6
995.6565,21.2
996.3741,335.4
997.046,540.8
997.1456,157.4
997.4489,897.3
997.7223,668.9
997.75,365.6
997.7875,681.6
997.877,139.5
997.9881,791.6
998.1215,45
998.1566,105.4
998.2077,260.3
998.7217,376.6
998.8998,342.1
999.0567,152.8
999.6973,330.7
999.7485,373.4
999.9082,92.2
