SPECTRUM - MS,
975.RAW,
FTMS + p ESI Full ms [50.00-1000.00],
Scan #: 1-40,
RT: 0.01-1.97,
AV: 40,
m/z,Intensity

50.0037,89.8
50.0158,151.8
50.0338,105.3
50.0485,134.3
50.0571,16.4
50.0638,79.5
50.068,84.4
50.0737,301.1
50.0767,599.4
50.0911,134.7
50.0916,335
50.0962,135.1
50.1049,18.5
50.1093,14.9
50.111,102.3
50.1301,316.3
50.1449,93
50.152,93.8
50.1528,432.2
50.1533,427.6
50.1584,591.5
50.1658,97.3
50.1722,87.9
50.1781,580.4
50.19,261.5
50.1967,421.6
50.201,19
50.2077,128.7
50.2118,499
50.2217,16.6
50.2846,701.6
50.3138,259.6
50.3229,80.1
50.3323,607.7
50.3349,277.8
50.3361,178.5
50.3377,257.3
50.3578,272.9
50.3592,38.3
50.3646,307.3
50.3765,478.4
50.3803,173.4
50.3962,109.3
50.4033,139.4
50.4055,683.9
50.418,132.2
50.4342,78.6
50.4412,160.8
50.4503,315.3
50.454,121.4
50.4565,489.6
50.4765,104.9
50.4826,426.1
50.5072,413.8
50.5095,162.7
50.5256,253.6
50.5435,187.8
50.5487,354.2
50.5621,685.9
50.5638,151.2
50.5696,448.7
50.6074,16.3
50.6124,140.2
50.6133,19.2
50.6244,264.4
50.6468,82.6
50.6631,177.1
50.6708,17.5
50.6809,163.6
50.6845,92.4
50.6899,86.9
50.6913,140.7
50.6955,93.7
50.7056,435.8
50.7063,421.3
50.7298,102.3
50.7397,16.5
50.7545,320.8
50.7724,92.3
50.7962,435.7
50.8218,17.6
50.8228,109.5
50.8234,103.6
50.8723,286.4
50.8745,404.8
50.8901,310
50.8963,91.2
50.9013,549.7
50.9023,222.4
50.9184,399.3
50.9304,476.9
50.9335,588
50.9447,608
50.9511,121.1
50.9658,155.3
50.9764,100.2
50.9829,480.5
51.0169,121.6
51.0639,18
51.0789,140
51.1106,405
51.1251,687.3
51.1382,304
51.146,105.8
51.1636,87.3
51.1648,109.3
51.1845,76.5
51.19,18.4
51.2208,450.6
51.2255,133.9
51.2331,91.1
51.2377,857.4
51.2405,461.5
51.2504,158.9
51.2549,16.4
51.2632,98.5
51.2637,501.1
51.275,639.4
51.28,366.3
51.2845,177.8
51.2846,166.4
51.2867,21
51.3003,400.6
51.3059,671.5
51.3123,18.3
51.3197,134.8
51.3281,14.5
51.3553,17.7
51.3625,101.5
51.3657,15.8
51.3758,347.3
51.3991,100
51.404,243
51.4129,132.7
51.4291,87.4
51.4411,277.5
51.4504,95.4
51.4511,168.7
51.4553,166.3
51.466,576.4
51.4726,96.1
51.4855,244
51.521,134.8
51.5243,98.6
51.54,86.8
51.5503,254.9
51.5678,15.4
51.5794,163
51.5813,233.8
51.5867,165.8
51.5884,415.5
51.6007,89.8
51.6092,261.1
51.6202,85.8
51.6309,210.7
51.631,206.4
51.6455,449.4
51.6613,122.1
51.6636,113.7
51.6798,125.2
51.6863,574.6
51.6984,483.1
51.7105,152.1
51.7233,449
51.7405,422.8
51.7446,567.6
51.7527,135.5
51.7528,149.2
51.7776,261.6
51.7805,17.1
51.7934,547
51.7999,539.5
51.8009,255.8
51.8223,199.5
51.8369,15.3
51.838,700.7
51.8551,103.4
51.8561,300.8
51.873,382.4
51.8914,146.1
51.8958,98.2
51.9008,286.8
51.9073,91.4
51.9107,150.6
51.9181,321.2
51.9201,137
51.9212,110.2
51.9225,14.6
51.9271,464.5
51.9359,437.6
51.9366,220.9
51.9396,102.4
51.9958,292.3
51.9999,17.7
52.0369,402
52.0396,269.3
52.0399,231.3
52.0509,81
52.0524,114.7
52.0589,91.2
52.1071,156
52.1083,554.2
52.1603,253.3
52.1673,479.5
52.1695,168.2
52.1746,667.3
52.1758,97.4
52.2061,83.1
52.2182,247.6
52.2203,191
52.2446,76.8
52.2526,521.2
52.2791,264.8
52.2953,207
52.3009,17.2
52.3022,108.3
52.3081,83.8
52.3397,369.6
52.3622,139.5
52.371,554.2
52.3853,163.4
52.3904,86.7
52.4044,233.9
52.4098,595.5
52.4146,168
52.4222,103.9
52.4246,19.6
52.4317,337.5
52.442,444.7
52.4472,274
52.4497,90.7
52.4639,655.5
52.4675,417.2
52.4873,619.7
52.4944,84.1
52.5199,89.1
52.5362,94.1
52.5427,150.1
52.5498,240.1
52.5773,640.3
52.615,90.4
52.6249,141.2
52.6473,206.2
52.6519,499.8
52.6562,96.7
52.6606,122.1
52.6664,586.5
52.6912,155.9
52.7156,147.2
52.7219,165.3
52.7306,115.5
52.7388,251.3
52.7405,15.1
52.7495,93.4
52.7589,98.4
52.7746,621.5
52.7816,393.2
52.7822,714.5
52.7829,912.6
52.7834,1555.4
52.7838,1399.7
52.784,1541.4
52.7846,1154.7
52.7851,1457.6
52.7856,205.9
52.7862,484.8
52.7863,485.6
52.7867,1635.5
52.7873,296.8
52.7878,1218.1
52.7883,738.9
52.7889,483.7
52.7956,567.4
52.7993,197.1
52.8006,138.3
52.8068,81.9
52.8194,17.8
52.8268,197.9
52.8519,301.9
52.8603,293.6
52.88,16.8
52.8819,325.5
52.8866,102.8
52.929,150.5
52.9325,77.5
52.9395,433.4
52.9535,650.5
52.9539,85.8
52.9618,106.5
52.9736,76
52.9964,70.2
52.9992,333.6
53.0031,304.7
53.0132,292.2
53.0175,19.5
53.0195,176.2
53.0225,143.3
53.026,158
53.0286,152
53.0469,18.1
53.0495,91.2
53.0498,107.3
53.0523,628.7
53.0531,157.5
53.054,19
53.0649,395.1
53.0687,224.6
53.0712,330.7
53.0789,639.6
53.0821,679.1
53.0924,253.2
53.0944,149.3
53.1085,86.6
53.1166,95
53.1285,17.7
53.1407,80.2
53.1652,102.4
53.1658,110.1
53.1689,242.3
53.1703,149.3
53.1748,106.7
53.1761,85.7
53.1868,267.4
53.2043,231.9
53.2048,175.2
53.2057,129.1
53.2082,158.5
53.2134,146.6
53.2255,426.3
53.2443,90.3
53.2468,80
53.2572,318.4
53.2749,560.8
53.2892,134.4
53.2914,569.4
53.2935,250.6
53.3113,365.3
53.3282,149.8
53.3408,129.6
53.341,148.7
53.3631,233.3
53.3754,152.3
53.386,17.4
53.3882,186
53.395,130
53.4112,19.3
53.4265,334.6
53.4429,701.5
53.4528,106.4
53.4545,75.5
53.4582,84.2
53.4708,283.5
53.4974,192.6
53.5026,317.2
53.5167,105.4
53.518,140.2
53.5227,492.6
53.5252,104.4
53.541,120.4
53.553,653.7
53.5567,167
53.5599,20.7
53.562,174.4
53.5643,87.7
53.5667,257
53.5805,144.4
53.5892,108.9
53.5923,384.1
53.5937,99
53.6295,189.1
53.657,95.6
53.6661,18.5
53.6752,148.7
53.7041,460.4
53.7217,85.2
53.725,19
53.7541,19.3
53.7553,632.6
53.7699,118.4
53.7865,142.3
53.817,108.3
53.8225,88.9
53.8241,18.9
53.8359,81.2
53.8416,531.3
53.8423,17.7
53.8434,88.1
53.8556,601.7
53.8562,79.7
53.8616,457.3
53.8654,322.5
53.8929,588.5
53.9057,91.6
53.9136,102.3
53.9477,543.9
53.9627,708.7
53.9673,621.9
53.9705,289.8
53.9754,184
53.9803,17
53.987,113.3
53.9954,127.7
53.9985,370.3
54.0007,270.3
54.0484,118.3
54.0502,340.9
54.0597,78.7
54.0811,87.5
54.0819,520.6
54.1009,456.8
54.1144,566.3
54.1206,276.4
54.1289,107.4
54.1303,424.7
54.1328,17.4
54.1437,152.4
54.1619,87
54.1694,268.3
54.1733,372.5
54.1743,148.4
54.1773,316.4
54.2031,87.2
54.2117,94.6
54.2186,287.8
54.2258,260.1
54.2358,107.9
54.2384,15.5
54.2502,166.3
54.2666,421.3
54.2692,119.6
54.2728,17.4
54.2822,271.3
54.2961,97.3
54.2964,636.4
54.3065,313.8
54.3143,165.1
54.3194,20.3
54.3285,95.7
54.3454,80.6
54.3751,337.2
54.376,265.5
54.3853,82.7
54.386,104.2
54.4046,79.2
54.4141,167.2
54.4235,106.2
54.4365,427.2
54.445,271.7
54.4515,92.4
54.459,205.7
54.4699,250.7
54.4791,508.5
54.4825,16
54.5051,85.7
54.5312,306.1
54.5348,84.8
54.5448,80.4
54.5759,268.3
54.5871,93.9
54.5961,21.5
54.6012,17
54.6025,132.9
54.6037,88.5
54.6206,651.3
54.6406,16.8
54.644,314.3
54.665,83.4
54.6657,114.3
54.6726,151.5
54.6751,210.1
54.6805,351.1
54.6867,93.1
54.6961,131.2
54.7149,127.2
54.7248,18.4
54.7262,17.6
54.733,103.5
54.7545,76.5
54.7625,156.7
54.7841,186.6
54.7848,17.1
54.7889,97.6
54.8002,138.7
54.8194,101
54.8287,83.6
54.8366,405.1
54.8415,157.9
54.8717,286.5
54.8979,337.4
54.9047,248.5
54.9376,672.2
54.943,120.7
54.9581,274.2
54.9655,595.7
55.0052,105.8
55.047,302.3
55.0604,154.1
55.0731,259.6
55.0865,395
55.0939,17.6
55.0961,212.1
55.1014,18.1
55.1128,140.4
55.1397,165.3
55.1573,388.8
55.1682,419.2
55.174,130.5
55.1902,279.8
55.2115,283.4
55.2215,76.7
55.2226,16.8
55.2301,441.6
55.2333,107.2
55.244,175.7
55.2549,14.8
55.2571,100.6
55.2582,105.7
55.267,106.7
55.275,19.6
55.2774,96.5
55.3145,17.2
55.3248,612.1
55.3624,223
55.3777,117.3
55.3917,144.4
55.4174,260.3
55.4362,16
55.451,527.4
55.4554,103.5
55.4575,249.3
55.4917,245.1
55.5046,99.9
55.5088,428.9
55.523,95.5
55.5285,104.1
55.5305,19.6
55.5397,385.2
55.551,414.8
55.552,17
55.5683,15.7
55.5807,154
55.5939,554.6
55.5997,86
55.6019,323.6
55.6052,18
55.6423,441.5
55.6431,147.6
55.664,459.6
55.6772,125.1
55.7155,357.6
55.7205,98.4
55.7221,77
55.7339,173.8
55.7448,185.9
55.7544,139.6
55.7768,433
55.7914,755
55.7926,222
55.7936,366.5
55.812,450.4
55.8389,244.3
55.844,18.4
55.8644,122.4
55.8659,437.9
55.8683,17.8
55.8915,171
55.9081,654.9
55.9092,15.6
55.9469,362.7
55.9573,325.6
55.9617,16.7
55.9628,78.2
55.9853,159.6
55.9877,109.8
56.0165,115.2
56.0347,196.9
56.0487,98.4
56.0524,17.2
56.0583,75.9
56.0689,246.4
56.0832,84.2
56.1023,93
56.1051,573
56.1087,110.2
56.1167,426
56.122,303.4
56.1249,222.6
56.1411,15.7
56.142,212.4
56.1507,129.2
56.172,346.9
56.1838,480
56.1956,97
56.2016,16.3
56.2089,310
56.224,18.4
56.2289,213.1
56.2293,153.1
56.2327,131.5
56.2344,478.1
56.2595,528.7
56.2694,716.2
56.2712,337.7
56.2727,111.7
56.2793,209.7
56.284,658.4
56.2845,362.5
56.2932,17.9
56.3047,324.8
56.3142,168.9
56.3194,193.1
56.3223,438.5
56.3334,183.1
56.3357,108.3
56.366,477.4
56.3839,618.4
56.3878,93.7
56.4196,492.5
56.4423,727.3
56.4543,478.8
56.4549,20.8
56.4564,222.8
56.4651,105.4
56.4722,378.1
56.4759,207
56.4777,545.4
56.4795,438.4
56.4826,437.1
56.4972,324.8
56.5068,101.3
56.5185,258.6
56.5326,419.9
56.5525,280.5
56.5626,120.7
56.5713,479.6
56.5819,154.2
56.592,157.6
56.6078,434.4
56.6131,296.5
56.6162,130.1
56.6234,83.5
56.629,154
56.6327,102.1
56.6367,538.3
56.6467,102.9
56.6571,264.4
56.6633,93.2
56.6782,81.3
56.6854,106.9
56.6908,281.9
56.6936,20.1
56.7215,210.8
56.743,171.2
56.7732,221.4
56.8062,478.3
56.8105,636.7
56.8238,108.5
56.8261,16.2
56.8381,20.1
56.843,106.5
56.8487,109.3
56.8528,217.3
56.8614,547.6
56.8669,126.2
56.8751,234.1
56.8764,382.2
56.8885,99.2
56.9372,212.3
56.9532,112.4
56.9567,716.5
56.9602,151.6
56.9648,139.4
56.9883,164.4
57.0093,163.4
57.0121,161.2
57.0265,256.9
57.0298,582.4
57.037,137.4
57.0574,159.3
57.0682,95.7
57.0788,118.9
57.0796,83.4
57.1014,169.5
57.105,80.6
57.113,16.7
57.1182,644
57.1253,1000.8
57.1269,408.4
57.1326,72.9
57.1428,74
57.1808,96.7
57.2011,573.1
57.2117,147.8
57.2204,220.7
57.2247,455.6
57.2306,259.1
57.2335,114.9
57.2344,259.9
57.2393,17.8
57.2408,203.5
57.2515,188.8
57.2579,143.3
57.2625,71.8
57.2681,488.6
57.2729,423.2
57.2838,617.1
57.2908,423.3
57.2949,153.6
57.2962,112.9
57.3,332.3
57.3013,187.8
57.314,455.8
57.3256,102
57.3305,613.2
57.3627,175.6
57.3878,425.7
57.3887,449.9
57.3913,86.8
57.4007,585.4
57.4158,236.4
57.4249,78.6
57.4273,320.8
57.4317,117.7
57.438,18.2
57.4445,299.1
57.4584,301.3
57.4632,427.3
57.4949,15.5
57.5022,435.8
57.503,136.8
57.5055,587.7
57.5158,15.7
57.5211,116.2
57.5301,16.3
57.5332,223.6
57.5359,117
57.5434,338.4
57.5567,85.7
57.5737,111.1
57.5884,370.5
57.5967,364.7
57.6011,17.7
57.607,99.3
57.6088,100.5
57.611,404.2
57.6368,262.7
57.6391,199.2
57.6539,363.5
57.6647,220.4
57.6656,17
57.6749,107.8
57.702,138.9
57.7057,140.9
57.7194,18.1
57.7229,134.3
57.7242,117
57.7268,16.7
57.7442,87
57.7465,304.5
57.7544,549.3
57.7669,311.6
57.7711,337.1
57.7786,16.6
57.7865,17
57.7889,215.7
57.7899,409.5
57.8197,232.6
57.8418,277
57.843,16
57.8664,203.1
57.8687,210
57.8712,607.6
57.875,321.6
57.8764,138
57.8883,18.6
57.8969,382.9
57.9045,518.7
57.9076,89.6
57.915,91.5
57.9297,129.8
57.9314,119.7
57.9592,705.4
57.9682,154.9
57.9714,77.5
57.9847,78.9
57.9919,572.9
58.0063,305.6
58.0295,107.2
58.0317,427
58.0588,387.8
58.0633,487.9
58.0739,447.7
58.0782,113.8
58.0805,187.5
58.0845,392.5
58.0863,139.3
58.1045,178.2
58.1102,122.1
58.1254,240.1
58.1275,414.1
58.1458,425.5
58.1463,105.5
58.1717,381.2
58.1731,95.1
58.1875,655.7
58.1892,21.1
58.2079,442.4
58.2173,137.5
58.2271,88.9
58.2275,391.6
58.2294,136.9
58.2608,208
58.2748,114.9
58.2762,273.9
58.2778,104.9
58.2854,366.3
58.2902,105.1
58.2985,17.7
58.3198,243
58.3204,274.3
58.3262,579.9
58.3285,18.4
58.3357,442.4
58.3409,132
58.3626,382.9
58.3638,298.3
58.3843,96.3
58.3869,259.7
58.3976,299.8
58.405,431.4
58.4074,114.9
58.4189,300
58.4253,19.1
58.4303,14.6
58.4305,15.2
58.4326,480.3
58.4349,23
58.4363,460.4
58.4392,364.6
58.4431,276
58.4474,110.9
58.4481,296.2
58.4571,239.4
58.4616,19.2
58.4638,167.7
58.4727,373
58.4899,203.5
58.5163,96.3
58.5223,101.3
58.5452,331.1
58.5481,369.6
58.5515,525.4
58.5523,130.7
58.5856,112.7
58.5915,308.3
58.6008,18.4
58.6028,165.4
58.6232,567
58.6446,436.1
58.6509,16.2
58.6603,15.7
58.6817,414.7
58.6883,83.9
58.6896,404.6
58.7073,133.5
58.7218,100.5
58.745,156.3
58.7465,86.3
58.7495,346.2
58.7584,145.2
58.759,85
58.7598,159.6
58.7619,104.4
58.7995,128.1
58.8023,395.2
58.8073,162.1
58.8085,15.2
58.8232,109.8
58.8361,292
58.8438,312
58.846,311.7
58.8512,418.9
58.8519,309.3
58.8748,518.8
58.9021,156.1
58.9046,86.5
58.9211,150.8
58.9231,114.3
58.9445,660.9
58.9476,170.2
58.9543,211.4
58.9579,129.6
58.9613,406.1
58.9678,322.1
58.9704,218.9
58.983,140.6
58.9889,100.3
59.0127,562.5
59.0293,264.7
59.0376,95.7
59.0509,18.1
59.0583,158.6
59.0694,85.8
59.0719,176.1
59.0886,141
59.0906,426.1
59.1061,128.1
59.1176,108.2
59.1327,89.6
59.1341,445.7
59.1488,452.3
59.152,83.7
59.1556,264.6
59.1737,403.4
59.1753,577.6
59.1895,97.1
59.2033,265.3
59.215,395.1
59.2193,398.4
59.2233,168.8
59.2275,417.3
59.2313,209.8
59.2392,94.6
59.2523,111.4
59.2542,460.7
59.2559,308.5
59.278,100.9
59.2787,82.3
59.2972,92.8
59.3023,101.5
59.3051,156
59.3142,87.1
59.3296,276.6
59.3432,176.2
59.3461,135.7
59.3628,437
59.3805,102.4
59.3922,425.2
59.3932,222
59.4067,89.3
59.4141,551.2
59.4355,97.6
59.4516,87.1
59.461,626.7
59.4747,15.3
59.4772,445.6
59.5012,625.6
59.5053,16.7
59.5169,208.4
59.5175,401.1
59.5383,18.6
59.5466,381.5
59.5574,565.9
59.561,114.5
59.5673,482.8
59.5788,91.4
59.5908,106.2
59.593,98.6
59.6052,87.6
59.619,122.8
59.6523,17.4
59.6538,480.3
59.6564,95.5
59.6643,206.7
59.6669,103
59.6678,367.2
59.6739,127
59.7066,414.8
59.709,185.2
59.7151,16.4
59.7245,96.1
59.7521,290
59.7565,83.6
59.761,253.8
59.7699,160.2
59.7822,703.7
59.805,224.2
59.8747,225.5
59.8839,102.9
59.8882,92.5
59.8959,136.1
59.9067,16.9
59.9186,410.1
59.9201,16.9
59.9317,245.8
59.9441,101.1
59.9506,207.8
59.9564,109.6
59.9593,297.2
59.9751,243.2
59.9813,104
59.9912,142.9
59.9954,15.3
60.0005,91.6
60.0296,448
60.0332,158.5
60.0393,614
60.0485,319.4
60.061,90.6
60.0684,319.9
60.0688,91.8
60.078,85
60.0859,591
60.0936,284.3
60.0968,426.1
60.0974,172.1
60.1068,190.6
60.1104,153.4
60.1358,243.2
60.1384,165.4
60.1563,286.8
60.1793,145.1
60.1826,324.7
60.2194,339.5
60.2232,178.3
60.2422,96.2
60.2618,609.1
60.2701,104
60.2843,92.2
60.2879,435.9
60.2924,116.1
60.2977,162.2
60.3211,83.2
60.3267,189.3
60.3274,130.7
60.3284,411
60.3317,363.3
60.3339,79.7
60.3549,264.6
60.3719,154.4
60.3816,230.5
60.3925,95.5
60.3954,255.8
60.4294,314.6
60.4522,15.7
60.4619,76.6
60.4714,277
60.4896,75.8
60.5337,433.6
60.558,707.7
60.5749,256.8
60.5818,488.9
60.5832,16.6
60.5922,296.8
60.598,15.6
60.6004,351.1
60.6125,649.2
60.6164,204
60.644,199.2
60.6677,134.7
60.6712,16.1
60.6729,166.5
60.6883,413
60.7018,413.7
60.702,420
60.7022,300.2
60.7029,99.1
60.7361,321.9
60.7593,76.4
60.7754,354.1
60.7799,16.8
60.7803,608.7
60.7941,161.4
60.8044,215.4
60.8264,106.8
60.8461,578.6
60.8697,406
60.8886,162.5
60.8983,288.5
60.9064,353.8
60.9132,300.1
60.9357,394.1
60.9683,399.4
60.9768,383.1
61.0015,346.2
61.0053,233.8
61.0084,299.9
61.0217,377.1
61.0263,99.2
61.0342,108.6
61.0674,17.1
61.0701,143.1
61.1119,17
61.1136,552.4
61.1219,93.9
61.1361,376.4
61.1472,86.7
61.1494,17.8
61.1682,17.7
61.1713,119.3
61.1741,93.1
61.1912,269.9
61.1969,332.2
61.2085,142.1
61.2114,615.3
61.2156,340.1
61.2212,113.1
61.2259,18.3
61.2333,351.2
61.2656,17.9
61.2727,579.7
61.2775,19.3
61.2847,302.9
61.2962,79.3
61.3421,471.7
61.3433,91.8
61.3597,152.1
61.3679,88.4
61.3704,17.2
61.3879,91.4
61.3907,86.8
61.4028,297.1
61.4089,129.5
61.4128,112.3
61.4206,277.2
61.422,127.1
61.4245,104.7
61.4283,223.2
61.4414,381.3
61.4443,272.9
61.47,130.9
61.4715,100.4
61.4759,298.8
61.4818,404.2
61.4984,103.2
61.5054,482.9
61.508,405.3
61.5375,92.6
61.5901,280.8
61.6126,417.7
61.6448,422.3
61.651,89.4
61.6578,127.3
61.6792,157.5
61.6813,17
61.684,19.4
61.6869,296.9
61.6917,130.3
61.7338,20.4
61.7344,268.8
61.7552,110.3
61.7558,17.9
61.7668,18.2
61.7854,405.5
61.7956,390.6
61.8011,385.5
61.8058,98.5
61.8081,496.5
61.8166,259.9
61.8367,312.7
61.8448,17
61.8548,168.3
61.8552,89
61.861,638.8
61.8661,162.2
61.8775,345
61.8813,315.2
61.8874,132.5
61.8976,571.6
61.9081,124.7
61.9304,344
61.9528,96.7
61.9761,328
61.9847,192.7
61.9941,119
62.0133,115
62.0169,80.5
62.0206,379.8
62.0467,402.9
62.0614,326
62.0785,121.4
62.117,164.5
62.1375,314
62.1424,173.6
62.2085,361.7
62.2127,16.3
62.22,180.2
62.2286,632.6
62.2289,552.1
62.247,83.3
62.2523,365.1
62.2544,17.6
62.2603,176.7
62.2619,87.8
62.2729,123
62.2944,541.9
62.2974,413
62.3085,589.6
62.3116,117.9
62.3596,17.2
62.3615,106.5
62.3669,134.3
62.3698,621.5
62.3819,193.5
62.3981,301.7
62.4055,303.9
62.4075,169.7
62.4224,478.5
62.4333,423.7
62.4376,254.8
62.4521,129.1
62.4581,131.2
62.4642,202.4
62.4706,212.1
62.5073,104.8
62.5082,316
62.5143,149.4
62.5302,19.7
62.5329,421.7
62.5357,296.8
62.5784,319.2
62.5862,125.3
62.6002,435.6
62.619,363.9
62.6212,18.9
62.6346,416
62.6776,172.4
62.6828,249.5
62.7065,266.8
62.723,107.8
62.7287,124.5
62.7324,452
62.734,410
62.7429,367.2
62.7438,16.9
62.7573,16.4
62.7646,145.1
62.7884,197.7
62.7974,18
62.8158,344.2
62.8286,300.6
62.8358,298.5
62.8613,475.8
62.8891,286.3
62.8972,401.5
62.8997,17.7
62.9009,462.2
62.9068,728.3
62.92,156.5
62.9345,313.5
62.9362,478.1
62.9428,107
62.9561,200.9
62.9594,535.2
62.9805,398.4
63.0007,409.6
63.0086,228.8
63.0134,109.6
63.0325,533.3
63.0511,114.1
63.067,812.7
63.0758,88
63.0872,113.2
63.1025,85.2
63.1035,97.4
63.1077,216
63.1183,102.6
63.1222,180.6
63.1236,207.3
63.1349,103.2
63.1466,21.7
63.1738,19
63.1798,409
63.2128,145.8
63.2148,17.6
63.2395,214.7
63.2495,118.9
63.2588,432.2
63.2605,94.2
63.2882,73.5
63.3248,365.9
63.3352,372.4
63.3389,439.3
63.3454,452.2
63.3463,245.8
63.3682,330.9
63.3701,415.8
63.3903,100.1
63.4015,84.4
63.405,105.2
63.4297,470.2
63.432,18
63.453,15.8
63.4762,16.5
63.5202,215
63.5487,346.8
63.5547,93.7
63.5566,428.7
63.5576,666.2
63.5881,79.1
63.6004,430.2
63.6123,418.9
63.615,85.7
63.6188,109.8
63.6236,96.2
63.6301,107.8
63.6363,80.4
63.6677,102
63.6684,252.9
63.6809,113.8
63.6937,227.3
63.6965,452.6
63.6979,98.7
63.7059,18.2
63.7355,102.8
63.7438,218.8
63.7447,690.8
63.7459,428.6
63.7713,79.5
63.7977,124.4
63.8022,322.5
63.8031,116
63.8138,473.8
63.8217,354.6
63.8551,140.6
63.8617,373.7
63.8849,94.1
63.889,263.7
63.8897,395.2
63.9184,21.3
63.9289,744.9
63.9607,92.2
63.9836,407.2
63.9916,79.9
64.0114,200.3
64.0247,227.5
64.0289,645.6
64.0305,109.6
64.0313,285
64.0337,16.1
64.0368,614.6
64.0591,532.7
64.0694,101.1
64.0727,571.8
64.0866,307.9
64.0985,630.7
64.1062,793.9
64.1482,553.6
64.1577,145.1
64.1689,441.9
64.173,471
64.1914,84
64.1984,293.7
64.2054,154.2
64.2068,17.2
64.2112,176.5
64.2256,16.8
64.2409,825.4
64.2554,501.5
64.257,94.3
64.2604,116.2
64.2672,103.3
64.3283,139.5
64.3339,17.7
64.3611,244
64.3618,17.1
64.3985,602.1
64.4093,633.4
64.4098,18.5
64.4201,592.4
64.4355,652.9
64.441,100.5
64.4495,17.4
64.4501,191.9
64.4639,157.7
64.4659,469.4
64.4756,462.4
64.5218,209.2
64.5338,20.1
64.54,16.1
64.5643,192.8
64.565,135.3
64.6078,342.7
64.6389,17.7
64.6669,336.6
64.6909,383.8
64.693,257.7
64.6954,90.9
64.6985,21.5
64.7031,155.4
64.7444,101.8
64.7606,79.3
64.7661,278.7
64.7806,262
64.7974,279.4
64.8133,128.8
64.8344,337.2
64.8381,470
64.856,532.7
64.8618,20.3
64.8758,18.2
64.8805,88.3
64.884,157.9
64.9079,284.7
64.9082,445.2
64.9084,473.9
64.9152,20.3
64.9161,214
64.9333,19.9
64.9362,19.9
64.9411,326.4
64.9471,102.3
64.9528,113.8
64.998,426.4
65.0097,165.2
65.0135,92.2
65.0389,600.1
65.0543,160.6
65.0565,101.9
65.0594,91
65.0647,113.5
65.0704,18.4
65.0852,475.4
65.092,186.7
65.095,477
65.1008,208.4
65.1208,201.6
65.1377,632.8
65.1627,117.5
65.1694,114.9
65.1863,23.2
65.1979,142.3
65.2006,93.6
65.2113,95.8
65.2141,136.6
65.2201,335.4
65.2248,76.2
65.2309,429.8
65.2582,108
65.2736,93.1
65.2906,96.3
65.3024,106.5
65.3217,540.5
65.3319,17.9
65.3517,17.2
65.3529,599.6
65.3634,624.5
65.3785,121.6
65.3817,244
65.3868,509.9
65.4418,659.1
65.4514,370.4
65.4618,470
65.4686,540.4
65.4826,744.2
65.4995,431.4
65.5008,350.7
65.5193,101.1
65.5202,98.4
65.5356,120.3
65.5371,288.2
65.5395,224.5
65.5397,508.3
65.5398,451
65.5404,96.8
65.5502,546.6
65.6024,502.6
65.603,272.4
65.6191,224.2
65.6246,19.3
65.6446,662.9
65.6844,93.3
65.6858,795.8
65.6983,142.2
65.7209,757.8
65.7362,344.9
65.741,98
65.7559,19
65.7616,170.3
65.768,494.3
65.8051,136.1
65.8351,85.3
65.856,287
65.8609,114.2
65.8646,326.8
65.8905,396
65.9082,114.9
65.9115,177.6
65.9727,19.8
66.006,136.3
66.0302,18.7
66.0351,280.2
66.0358,162.6
66.041,285.2
66.0481,114.6
66.0562,103.9
66.0587,640.6
66.083,102.4
66.0898,460.2
66.1066,20.9
66.116,389.5
66.1443,96
66.1562,89.7
66.1636,433.4
66.1678,15.8
66.1732,184.3
66.1996,154.7
66.2149,116.4
66.2179,19.4
66.2201,107.1
66.2216,386.5
66.2338,223.1
66.2355,234.1
66.2473,130.1
66.2582,316.4
66.2644,793.5
66.281,91.2
66.2852,131.8
66.3034,579.2
66.3183,122.3
66.3238,193.5
66.3243,232.8
66.3276,107.5
66.3446,15.1
66.3491,242.5
66.3655,123.7
66.3741,160.2
66.3968,285.1
66.4037,185.6
66.4134,80.2
66.4319,369
66.4384,271.1
66.4439,372.7
66.4527,20.4
66.4602,682.4
66.4647,408.5
66.4656,429.6
66.4707,127.1
66.4746,120.4
66.4839,585
66.4846,596.8
66.5,18
66.5033,141
66.5227,121.5
66.524,590.7
66.5254,95.3
66.5354,795.6
66.5438,117.5
66.5468,90.9
66.5609,399
66.5748,381
66.584,87.6
66.5879,635.6
66.6037,692.4
66.6323,92.6
66.6325,105.7
66.6561,402
66.66,94.7
66.6638,124.3
66.6696,258.6
66.6738,17.5
66.7286,103
66.7411,117.5
66.7957,586.9
66.8034,578.4
66.8109,17.4
66.8197,362.2
66.8215,16.8
66.8429,87.1
66.8642,365.8
66.9044,100.3
66.9363,17.3
66.9592,508.9
66.9859,283.8
67,341.1
67.02,147.5
67.0205,155.7
67.0442,169.8
67.0494,160.7
67.0539,69.1
67.068,17.8
67.07,95.2
67.0751,83.8
67.0822,100.6
67.0827,73.5
67.1104,129.1
67.1287,79
67.1424,182.3
67.1452,195.4
67.1601,591.2
67.1765,216.4
67.2039,81.3
67.208,150.7
67.2084,305.2
67.2209,17
67.226,414.5
67.2432,278.8
67.2784,423.4
67.281,714.5
67.2839,399.1
67.3006,296.8
67.305,122.6
67.3189,170.5
67.3324,330.4
67.3347,115.3
67.3501,17.4
67.3632,18.6
67.3677,195.5
67.3877,92.3
67.3931,403.3
67.3949,128.5
67.4021,94.1
67.4137,118.7
67.4193,86.3
67.4238,438.1
67.4268,178.9
67.4319,17.4
67.433,108.3
67.4972,279.9
67.5116,117.7
67.5155,605.1
67.5296,93
67.5321,202.1
67.5452,126.2
67.5462,546.2
67.5524,306.8
67.5665,300.8
67.6744,190.4
67.6848,245.5
67.6905,676.6
67.7529,107
67.7634,629.9
67.7783,196.8
67.8131,427.6
67.8253,130.8
67.8296,97.9
67.8331,117.3
67.8603,19.9
67.8608,97.1
67.8688,399.4
67.8828,93.6
67.8833,444.2
67.93,605.7
67.9644,347.4
67.977,258.1
67.9993,24.4
68.0187,268.5
68.0553,588
68.0638,115.6
68.0764,140.1
68.0832,118.5
68.0892,19.3
68.1057,76.2
68.1238,116.7
68.1425,455.6
68.1624,473.8
68.1843,450.8
68.1855,113.9
68.2034,96.8
68.2086,17.7
68.2286,499.2
68.2585,114
68.2832,18.2
68.2867,260.9
68.3087,184.7
68.3094,165.8
68.3104,482.3
68.3187,194.9
68.3414,119.3
68.3674,379.9
68.384,246.3
68.3871,429.9
68.3935,118.5
68.4049,443
68.4246,132.7
68.4361,297.1
68.4488,145.1
68.4664,90.7
68.4704,142.7
68.4844,89.9
68.525,612.5
68.528,125.6
68.5524,714.2
68.5658,121.9
68.5786,19
68.6105,133.4
68.6146,163.4
68.6212,109.8
68.6713,19.1
68.6885,666.6
68.6987,88.7
68.7015,92.4
68.7042,18.2
68.7331,243.5
68.7385,114.5
68.7488,16.9
68.7519,110.7
68.7588,170.1
68.7715,17
68.7996,17.8
68.8179,157.7
68.8232,381.5
68.8486,384.7
68.8681,102.1
68.9088,333.2
68.9118,171.3
68.9288,389
68.9643,17.1
69.0045,158.9
69.0436,327.9
69.0607,136.4
69.0618,545.6
69.0738,121.9
69.0925,92.7
69.094,104.3
69.1325,308.4
69.1487,568.2
69.1635,413.7
69.171,492.9
69.1726,18.6
69.1816,457.2
69.1951,761.2
69.2294,398.1
69.2408,100.3
69.2577,400.9
69.2583,133.9
69.2623,424.7
69.2866,345.3
69.2897,94.7
69.2956,177
69.3016,640.7
69.3047,325.9
69.3199,294.7
69.3462,523.5
69.3653,20.1
69.3793,389.9
69.4081,17.3
69.4152,288.6
69.4418,665.9
69.4531,174.8
69.4613,346.9
69.4784,215.5
69.4812,16.1
69.4825,19.8
69.4873,615.9
69.4925,233.5
69.505,282.6
69.5066,278.2
69.5332,318
69.5524,16.4
69.5852,536.6
69.5994,94.9
69.6267,354.1
69.6412,504.1
69.6518,100.1
69.6605,149.2
69.6891,243.2
69.7224,184.3
69.7226,187.8
69.7429,267.9
69.7516,161.4
69.7668,21
69.7862,15.6
69.7921,350.7
69.7952,101
69.8088,378.6
69.8117,94.6
69.8172,424.9
69.8181,447.7
69.8286,277
69.9016,104.7
69.9134,217
69.9282,173.5
69.9599,359
69.9774,96.1
69.9786,146.9
69.9803,386.6
70.0052,128.9
70.0056,151.7
70.0279,102.6
70.0515,169.7
70.0649,770.3
70.0856,447
70.0936,407
70.0975,139
70.1258,592.6
70.1616,333.3
70.1723,164.9
70.1742,119.5
70.2012,90.6
70.214,17.6
70.2162,106.4
70.2187,341.4
70.2303,101.7
70.2721,22
70.2856,385.9
70.3137,364.7
70.3348,327.8
70.3561,18
70.358,108.7
70.3724,109.3
70.401,323.5
70.4185,86.1
70.4587,91.6
70.4759,327.5
70.4934,123
70.4937,113.2
70.4957,485.3
70.5018,259.2
70.5366,325.4
70.5543,463.6
70.567,157.8
70.594,104.5
70.6164,95.9
70.6171,162.6
70.666,139.2
70.7046,581.8
70.7423,375.9
70.7533,337.1
70.7586,103.6
70.7609,83.6
70.7947,140.1
70.8094,18.8
70.838,417.7
70.8566,168.4
70.8657,182.9
70.8736,125.6
70.8779,290.2
70.8898,85.5
70.8979,491.4
70.9206,509.8
70.922,165.8
70.9268,18.5
70.9743,93.7
71.031,113.5
71.0318,130.8
71.0443,251.7
71.0559,91.9
71.0584,373.1
71.0644,147.4
71.0676,104.2
71.0686,290.5
71.0707,166.5
71.0829,242.6
71.0889,581.4
71.1343,150.7
71.1364,124.8
71.1514,185
71.1638,235.7
71.1688,220.4
71.1748,212.9
71.1786,107
71.181,340.9
71.1921,105
71.2041,435.9
71.2284,15.4
71.2334,104.8
71.2377,545.4
71.2478,422.7
71.26,475.7
71.2742,155.2
71.2966,601.8
71.2982,192.7
71.3299,288.4
71.3679,153.5
71.3719,110.9
71.3751,103.7
71.4011,114.5
71.4559,17
71.4669,89.8
71.4874,131.7
71.4945,310.8
71.496,289
71.5151,99.8
71.5261,411.7
71.5666,106.4
71.5722,151.4
71.5745,134.6
71.5767,19.3
71.5819,644.8
71.5856,125.6
71.5878,142.2
71.5914,305.1
71.6082,431
71.612,98.1
71.6153,598.4
71.6165,452.2
71.6376,110.6
71.6471,108.2
71.6588,423.4
71.6646,1008.8
71.6728,17.5
71.6877,139.9
71.6965,16.4
71.7198,409.9
71.7207,516.8
71.7224,115.6
71.7287,100.6
71.7293,155.4
71.731,242.2
71.7375,21.5
71.7426,134.2
71.7433,86.7
71.7523,330.8
71.7532,101.9
71.7558,393
71.7668,99.6
71.7878,471.6
71.8112,650.9
71.8252,636.5
71.8345,216.2
71.8414,210.8
71.8508,118.6
71.8521,172
71.8757,438.8
71.8824,133
71.8869,254.6
71.8972,117.4
71.9017,89.9
71.9253,153
71.9336,97.6
71.939,109.3
71.9515,359.9
71.955,642.2
71.9669,118.6
71.9741,384.9
71.9868,368.8
71.9927,357.2
72.0086,428.6
72.0694,83.7
72.0719,101.6
72.0742,498.9
72.0805,957.1
72.0933,436.7
72.1216,474
72.1341,148.8
72.1352,296.6
72.1524,76.3
72.1808,91.3
72.1839,453.8
72.1931,302.9
72.2026,101.7
72.2071,20.1
72.2092,23.1
72.2099,36.7
72.2129,19.7
72.2133,18.7
72.214,36.2
72.2146,61
72.2162,16.9
72.2171,541.7
72.2179,1761.1
72.2184,740.5
72.2198,362.9
72.221,468.5
72.2222,1095.8
72.2226,791.9
72.2238,2602.1
72.2246,639.2
72.2252,1141.5
72.2263,2967.6
72.2276,4079.7
72.2283,3541.2
72.23,2489.2
72.2306,2290.1
72.2323,3092.8
72.2329,2718.6
72.2338,4149.1
72.2355,3196.8
72.2367,2179.6
72.2378,2614.2
72.2395,351.3
72.2399,470.8
72.2405,210.3
72.242,734.6
72.2429,567.2
72.2438,385.6
72.2447,273
72.2454,106.9
72.248,267
72.249,162.8
72.2527,90.9
72.2592,406.6
72.2603,17.1
72.2856,455.3
72.3022,160.1
72.3216,104.9
72.3258,138.6
72.3525,176.1
72.3588,151.8
72.3802,18.2
72.3931,430.5
72.3954,143.4
72.3979,444
72.4003,105.2
72.4057,143.1
72.4137,110.1
72.4202,128.4
72.4219,233.6
72.4262,525.2
72.4436,190.7
72.4583,278.8
72.4602,222.8
72.4642,184.1
72.4916,87.1
72.4936,206.4
72.5158,102.5
72.5239,110.8
72.527,226.1
72.5338,345.3
72.5437,213
72.5503,18.5
72.6036,325.2
72.6136,484.6
72.6467,80.6
72.6501,211
72.6588,558.1
72.6678,134.7
72.685,17.2
72.7052,230.1
72.7093,321.8
72.7337,715.6
72.7601,484.4
72.7621,172
72.7932,106.1
72.8068,337.4
72.8252,18.4
72.8386,107.1
72.8522,461.7
72.8534,103.6
72.8906,100.1
72.9029,332.4
72.9197,134.6
72.9414,112.5
73.0147,530.2
73.0285,19.3
73.0461,654.3
73.0652,181.1
73.0891,276.8
73.1031,97
73.1347,455
73.1413,332.4
73.1506,538
73.1671,286.5
73.1926,432.2
73.1981,139.6
73.2033,17.1
73.2361,203.6
73.2432,335.4
73.2693,16.1
73.2771,335.3
73.2844,226.5
73.2935,443.1
73.3129,101.4
73.3372,174.1
73.3807,296.6
73.3819,16.5
73.4,91.6
73.4096,211.6
73.4349,17.2
73.4516,422.7
73.4722,672.9
73.4782,94.7
73.4857,83.9
73.5232,447.2
73.5343,101.9
73.5542,183
73.5561,113
73.5649,462.1
73.6148,101.1
73.6287,308.1
73.6814,267.6
73.6975,485.2
73.7069,424.8
73.7228,20.2
73.7494,235.8
73.7659,104
73.7701,113.9
73.7858,418
73.8081,186.9
73.8115,340.3
73.8214,16
73.8281,100.3
73.831,341.8
73.8934,135.6
73.9101,17.6
73.9263,398.6
73.931,17.3
73.9388,151.1
73.9421,139.2
73.9615,15.9
73.9654,124
73.9663,80.7
74.0126,228.9
74.0598,3957.4
74.0749,299.6
74.0862,18.7
74.094,258.7
74.1337,659.5
74.1375,432.2
74.1434,455.1
74.1503,116.1
74.162,100.8
74.1971,315.2
74.2038,136.1
74.2194,100.9
74.244,397
74.2608,18.9
74.2701,119.7
74.271,99.3
74.2721,85.4
74.2875,456.8
74.2912,369.8
74.2995,479.1
74.3054,106.9
74.3076,259.6
74.3174,17.6
74.3233,16.3
74.3591,17.5
74.3714,211.9
74.3951,83.2
74.4184,126.2
74.4584,659.6
74.4621,99.1
74.4653,77.1
74.4716,103.6
74.4757,97.9
74.4929,119.7
74.5057,545
74.5159,122.4
74.56,90.6
74.5707,136.6
74.5982,129.9
74.6392,94.4
74.6507,616.7
74.6602,770.4
74.689,119.5
74.7014,356.4
74.7111,809
74.7251,437.9
74.7304,128.3
74.7328,176.9
74.7377,396.6
74.7426,307.8
74.7446,113.5
74.7762,18.5
74.7835,397.9
74.7861,123.2
74.8047,420.7
74.8229,727.7
74.8328,88.6
74.8406,18.2
74.8487,16.3
74.8759,143.2
74.8844,309.6
74.885,131.9
74.8958,346.3
74.8969,196.6
74.8988,103.6
74.9036,156.8
74.9063,407.4
74.9146,88.1
74.9434,124.1
74.966,531.1
74.9808,315.9
74.9846,82.8
74.9902,109
75.0575,134.2
75.0736,237.8
75.0875,16.9
75.1013,293
75.1284,96.2
75.1413,85.9
75.1425,20.8
75.1803,139.8
75.1882,88.9
75.1959,335.4
75.2137,551.1
75.2282,673.9
75.2286,404.8
75.2485,20.3
75.2559,127.4
75.2787,16.3
75.3177,480.6
75.3384,431.3
75.3422,153.5
75.3523,454.6
75.3542,113.7
75.3736,218.9
75.3983,91.9
75.402,424.3
75.4098,316.9
75.42,179.6
75.4251,97.3
75.4454,168.2
75.462,80.7
75.4688,89.7
75.4695,286.4
75.4755,244.9
75.4998,217.7
75.5064,457
75.5346,163.1
75.5533,201.7
75.5581,304.7
75.5722,496.8
75.5762,244
75.5777,18.4
75.582,604.6
75.5989,17.4
75.613,117.2
75.6482,92.7
75.6685,148.5
75.6754,16.8
75.6948,256.4
75.6968,18.8
75.7066,100.6
75.724,486.4
75.7387,314.3
75.7676,204.6
75.773,713
75.7845,17.6
75.7858,16.7
75.7873,159.5
75.7921,17.6
75.8027,102
75.8065,341.1
75.8189,321
75.8351,246.3
75.8409,450.7
75.8429,104.8
75.854,147.9
75.8553,327.2
75.8842,449.5
75.8937,91.8
75.8953,94.9
75.906,95.6
75.912,179.4
75.9184,191.5
75.9371,83
75.9538,95.5
75.9574,323.4
75.9584,149.7
75.9872,137.7
76.0022,91.9
76.007,19.2
76.0284,242.2
76.0396,425
76.0412,89.4
76.0457,144.7
76.0702,112.9
76.0773,132.5
76.0882,191.1
76.1091,90.7
76.1237,211.7
76.1414,445.6
76.1504,17.6
76.1772,126.1
76.1798,661.3
76.194,19.9
76.2012,464.8
76.2299,118.9
76.2824,362.8
76.2915,394.4
76.2928,483.1
76.3236,17.9
76.3309,16.2
76.3614,142.2
76.3625,113.1
76.3849,16.9
76.3916,142.5
76.4083,86.3
76.4191,417.2
76.4227,225.3
76.4306,208.1
76.4323,122.5
76.4537,83.6
76.4593,239
76.4635,248.1
76.4752,330.6
76.4824,182.7
76.4898,16.8
76.4938,166.8
76.5032,101.1
76.5268,579.4
76.5323,445.8
76.5548,648.1
76.5682,232.5
76.5718,18
76.5751,81
76.628,108.4
76.6431,16.9
76.675,18.2
76.7054,120.2
76.7324,304.9
76.7339,118.3
76.7811,421.9
76.787,330.9
76.7895,317.6
76.7936,101.3
76.815,681.2
76.8191,151.7
76.8336,89.8
76.8418,117.6
76.8501,150.2
76.873,165.6
76.9022,300.5
76.9268,180.7
76.9353,156
76.9625,95.7
76.9867,195.3
76.9898,214.8
77.0001,306.1
77.0048,224
77.0172,125.5
77.035,28.4
77.0356,928.9
77.0383,122123.2
77.0762,96.5
77.0876,173.9
77.0901,92.2
77.0918,380.6
77.1342,137.4
77.1649,97.5
77.1717,101.1
77.1888,175.4
77.2153,394
77.2156,310.1
77.2228,660.3
77.2277,334.7
77.2622,164.1
77.3278,121.4
77.3427,431.3
77.3433,361.7
77.3485,84.6
77.3652,232.5
77.3864,252.5
77.3888,17.6
77.4015,349.5
77.4044,84.3
77.4174,134.2
77.4458,463.2
77.4643,298.9
77.5223,18.9
77.531,17.8
77.5429,15.7
77.5626,430
77.5794,526.9
77.5906,394.8
77.6073,88.8
77.6178,206.9
77.6284,468.7
77.6376,243.9
77.6388,202.3
77.6492,250.3
77.6542,372.1
77.6587,667.7
77.669,264.1
77.6737,21.6
77.6741,16.8
77.679,17.3
77.6904,204.4
77.6976,681.8
77.7534,234.6
77.7714,332.2
77.7827,17.5
77.8005,117.7
77.8438,111.2
77.85,309.6
77.8509,463.1
77.8544,100.3
77.8556,96.6
77.8814,111.5
77.8863,119.8
77.9251,238.5
77.9319,462.5
77.9393,380.5
77.9592,80.1
77.9694,87
78.0085,210.8
78.0302,20
78.0356,127.3
78.0382,599.5
78.0417,3676.2
78.0461,44.3
78.0481,96.6
78.0517,17.7
78.0562,158.9
78.0786,364.8
78.0818,108.6
78.0926,312
78.0989,19
78.1641,15.5
78.2171,604.8
78.2464,476.1
78.2948,568.9
78.3021,531.8
78.3121,314.4
78.3308,357
78.3506,21.7
78.3907,90.5
78.4014,221.5
78.4216,329.4
78.432,89.4
78.4356,84.1
78.4897,128.2
78.4974,100.4
78.5364,202.6
78.5423,20.2
78.5442,16.8
78.5579,124.5
78.5637,436
78.5707,157.9
78.579,418.3
78.5957,620.6
78.6024,382.7
78.6245,190
78.6385,637.7
78.6496,126.6
78.7236,365.3
78.7408,107.7
78.7429,97.5
78.7435,290.5
78.7783,685.4
78.7789,270.3
78.7875,197
78.8166,451.4
78.8205,77.1
78.8349,111.6
78.8369,99
78.8477,628.5
78.8562,197.5
78.8581,134.4
78.8629,778.7
78.8678,327.1
78.9155,145.5
78.9403,16.8
78.9474,19.1
78.948,128.5
78.9508,113.3
78.9521,116.8
78.9569,656.8
78.9968,265.5
78.999,117.9
79.0359,256.4
79.0419,531.6
79.054,1860.5
79.0919,326.4
79.1013,92.3
79.122,21
79.1379,306.6
79.1399,141.2
79.154,19.1
79.1605,18.9
79.1786,17.3
79.1963,282.8
79.2145,442.9
79.2167,272.6
79.2183,603.6
79.2262,106.6
79.2365,257.4
79.2502,657
79.2613,197.5
79.2821,424.8
79.3188,367.7
79.3273,415.9
79.3533,88.3
79.3562,18.6
79.3664,503.8
79.3811,274.8
79.3933,221.7
79.3978,423.7
79.4014,631.5
79.4126,389.6
79.433,245.3
79.4704,424.4
79.4887,194.2
79.4956,226
79.511,165
79.527,85.9
79.5438,169.7
79.5515,235
79.5604,694.3
79.5783,93.6
79.579,176.8
79.5937,287.6
79.5942,111.4
79.6059,216.7
79.6213,16.9
79.6224,98.6
79.6389,305.5
79.6415,423
79.6668,252.8
79.6801,348.4
79.6814,257.3
79.6967,159.3
79.708,92
79.7378,527.2
79.7485,17.6
79.7698,167.1
79.7733,572.4
79.776,97.8
79.8193,337.5
79.8523,17.5
79.8785,158.7
79.8868,136.4
79.9087,508.7
79.9772,436.2
79.9799,219.3
80.0278,105.8
80.0968,279.8
80.1189,410.9
80.1195,440.3
80.1353,110.2
80.1425,627
80.1542,221
80.1552,347.7
80.2105,475.4
80.2226,142.5
80.2316,287.2
80.2328,455.9
80.2404,605.4
80.2557,285.5
80.2683,128.6
80.2879,514.5
80.2901,213.2
80.2919,612.7
80.3014,135.1
80.3407,114
80.361,91.4
80.3628,122.5
80.371,18.7
80.4005,262.2
80.4248,356.2
80.4506,98.4
80.4646,336.7
80.4831,554.9
80.4869,476
80.4903,352
80.4957,198.7
80.4965,16.6
80.5153,239.7
80.5441,126.2
80.5581,284.7
80.5692,368.7
80.5722,562.3
80.5725,399.3
80.5816,16.9
80.5837,107.7
80.5865,89.3
80.5879,267.4
80.6126,253.8
80.6175,130.3
80.6407,671.4
80.6476,18.5
80.6721,113
80.6972,94.2
80.715,620.8
80.7343,281.2
80.7409,351.1
80.7428,512.7
80.7887,376.4
80.8108,226.5
80.8229,88.3
80.8612,426.2
80.8622,107.2
80.8728,17.1
80.8819,147.5
80.9039,131.5
80.9163,18.1
80.926,230.5
80.9303,108.5
80.9318,93.5
80.9427,341.3
80.9452,464.6
80.9476,55168.5
80.9656,103.7
80.9745,302.1
81.0116,613.3
81.0237,441.4
81.0263,162.5
81.0331,17
81.045,107.7
81.0526,96.1
81.0538,209.8
81.0552,172.1
81.059,95.3
81.0697,1254.4
81.089,86.7
81.1132,681.6
81.1346,174.1
81.1383,301.4
81.1401,537.2
81.1406,440.1
81.1409,361.5
81.1417,852.4
81.1444,506.9
81.1454,423.7
81.1473,582.6
81.1483,118.4
81.1516,16.8
81.1529,22
81.1683,380.3
81.1737,133
81.1824,321.8
81.2472,285.3
81.2568,15.9
81.2639,628.3
81.3146,133.7
81.3281,16.3
81.3602,36.7
81.3763,80.8
81.4013,262
81.4478,233.2
81.4498,18.5
81.4663,118.3
81.4851,213.9
81.4971,134.4
81.5242,190.2
81.5488,86.6
81.5497,156.6
81.5869,329.7
81.6364,103.1
81.6752,396.6
81.6767,464.9
81.6893,262.5
81.7048,97
81.7282,217.6
81.7293,116.7
81.7538,438.4
81.757,95.5
81.7731,16.6
81.7747,234
81.7922,16
81.8158,311.2
81.8163,154.8
81.8403,126.5
81.8473,16.4
81.8617,696.9
81.8664,285.5
81.8763,20.3
81.8865,152.7
81.9009,173.8
81.9079,86.5
81.9502,384.8
81.9557,338.7
81.9685,326.8
81.97,95.7
81.9796,333.4
81.9854,216.7
82.0287,94.7
82.0533,227.5
82.0752,357.7
82.0847,327
82.1119,394.4
82.1167,21.1
82.1269,147
82.1607,186.1
82.1635,255.9
82.1824,606.4
82.1849,107.6
82.218,152.7
82.239,94.8
82.251,160.4
82.2849,458.6
82.2891,158.2
82.2928,131.3
82.2968,281.6
82.3204,238.4
82.322,690.2
82.3304,16.4
82.3511,447.5
82.3551,146.3
82.3585,413.7
82.3774,171.2
82.3798,216.8
82.3838,283.6
82.4036,109.9
82.4056,196.4
82.4117,118.8
82.4203,76.4
82.432,308.9
82.4411,105.9
82.4547,707.6
82.4775,664.3
82.4815,159.7
82.5168,19
82.5214,241.7
82.5226,206.4
82.527,15.1
82.5271,15.2
82.5281,425.6
82.5295,598
82.5328,244.2
82.5419,15.7
82.55,333.7
82.552,146.8
82.5528,20.9
82.5544,141.1
82.5613,196.4
82.5876,94.3
82.593,156.6
82.5983,24.3
82.6036,108
82.6067,91.8
82.6242,600.3
82.6532,19.2
82.6581,16.8
82.6771,111.6
82.7336,414.5
82.774,163.2
82.8239,93.6
82.8638,406.8
82.8899,18
82.8988,119.1
82.9113,192.7
82.9332,238.4
82.9372,108.9
82.9379,172.9
82.9431,173.6
82.9447,14686.7
82.952,83.7
82.9779,17.5
83.0048,18.1
83.0186,1196.4
83.0484,327.3
83.0682,152.3
83.0841,611.9
83.0852,346.3
83.1169,83.4
83.1178,16.8
83.1194,87
83.1262,205.6
83.1576,18.6
83.1791,18.3
83.19,375.7
83.2503,96
83.2573,118.8
83.2603,19
83.2631,460.1
83.2711,634.5
83.3174,17.3
83.3321,19.4
83.3377,81.5
83.3412,147.1
83.3449,310.6
83.3547,314.4
83.3798,155.9
83.3918,251
83.3998,122.7
83.4441,256.9
83.4483,21.1
83.4686,135
83.4869,433.8
83.5194,487.5
83.5238,116.5
83.5308,345.8
83.5506,528.8
83.5913,613.7
83.5953,140.8
83.6077,92.1
83.6315,102.6
83.6332,583.4
83.6637,18
83.6772,131.8
83.6895,257.8
83.6993,20.3
83.7279,618.9
83.7294,689.8
83.7648,16.4
83.7837,142.6
83.8074,335.3
83.8094,107.6
83.8125,214
83.8183,17.6
83.8314,342.8
83.8351,209.8
83.8579,92.4
83.8969,119.4
83.899,150.2
83.9016,86.7
83.9134,224.2
83.9158,99.7
83.9499,200.6
83.9548,414.5
83.9605,16.4
84.0213,455.9
84.048,144.2
84.051,106.9
84.0527,182.4
84.0581,155.3
84.0649,108.2
84.0669,343.8
84.0728,710
84.104,154.8
84.1085,443.6
84.1097,103.5
84.1152,225
84.1541,110.2
84.1603,97.8
84.1787,316.1
84.19,164.9
84.214,177
84.2249,211.4
84.2342,195.3
84.2385,127.2
84.2454,103.8
84.2938,129
84.3037,428.9
84.3221,137.1
84.3287,105.2
84.3295,157
84.3391,291.9
84.3745,548.8
84.3867,336.4
84.4111,23.6
84.4166,267.7
84.4223,94.9
84.4572,105.7
84.479,444
84.5103,129
84.549,161.2
84.5613,295.3
84.6162,406.8
84.631,574.7
84.6344,517.3
84.6624,17.2
84.6642,114.3
84.6881,227.4
84.7117,15.9
84.7252,411
84.7354,465.8
84.7409,167.7
84.7582,18.9
84.763,340.7
84.7672,18.3
84.8237,433.9
84.8281,86
84.865,574.9
84.9073,17.2
84.9144,352.8
84.9536,608.3
84.9595,18502.4
84.9745,417.8
84.9758,308
84.9774,257.4
85.0022,641.9
85.0084,101.8
85.0282,1662.2
85.0346,251.3
85.0401,421.9
85.0469,17.6
85.0526,135.6
85.0558,173.3
85.0624,17.9
85.0687,224.5
85.0914,501.4
85.0943,222.4
85.1058,353.5
85.113,113
85.1447,21.7
85.1464,17.9
85.1725,104.2
85.2037,155.4
85.2219,420.5
85.2277,256.9
85.2519,89.2
85.2583,229.4
85.2618,100.4
85.2704,230.9
85.2785,21
85.3337,146.4
85.3419,586.9
85.3443,122.2
85.4118,102.2
85.4158,222.2
85.5538,19.1
85.5934,103.9
85.6072,16.5
85.6136,521.2
85.6209,372.8
85.6251,164.1
85.6312,483.7
85.6404,103.2
85.6747,235.1
85.6969,172.1
85.7196,82.6
85.7248,346.1
85.7564,225.4
85.7988,125.9
85.811,322.1
85.8398,107.4
85.8532,19.8
85.8827,532.5
85.8997,110.5
85.9206,87.3
86.0408,392.6
86.051,92.7
86.0599,39109.9
86.0963,84928.5
86.1018,255.9
86.115,436
86.1184,244
86.131,21
86.1402,271.2
86.1452,127.2
86.1749,452.8
86.2311,121.8
86.2749,300.7
86.2895,453.1
86.3289,285.6
86.3415,185.7
86.3472,120.8
86.3485,423.8
86.3572,184.1
86.3807,16.8
86.3945,415.3
86.397,93.8
86.4409,186.9
86.4434,128.9
86.4673,16.9
86.5046,99.6
86.5189,798.1
86.5421,266.4
86.5484,116.6
86.5502,132.9
86.5669,16.6
86.6048,113.3
86.6075,143.5
86.6279,298.4
86.6352,98.8
86.6444,223.5
86.6494,830.7
86.6518,583.7
86.664,175.1
86.6699,428.1
86.6766,195.8
86.6792,120.1
86.6893,414.8
86.6929,109
86.7031,143.2
86.7058,731.7
86.7364,114.9
86.7444,153.7
86.7622,193.1
86.8142,111.2
86.8222,319.4
86.8326,92.8
86.8633,414.8
86.8723,128
86.8791,19.4
86.9111,280
86.9324,110.9
86.9926,19.8
86.9947,259.4
87.0377,556.7
87.052,135.3
87.0568,218
87.0579,115.1
87.0767,236.1
87.081,94.5
87.0988,307.9
87.0998,493.5
87.1237,534
87.1445,82.2
87.1457,17.1
87.1483,16.3
87.1589,99.9
87.1608,196.3
87.1702,278.9
87.2001,670.1
87.2194,413.5
87.3074,17.5
87.3101,101.8
87.315,124.7
87.3208,428.7
87.4261,240.9
87.4414,329.6
87.4615,139.2
87.4684,471.5
87.4765,298.7
87.4859,781.4
87.5248,471.2
87.5296,99.6
87.5458,340.5
87.5635,223.6
87.5779,170
87.6258,301.1
87.6653,110
87.6965,17.8
87.7159,481.6
87.737,146.1
87.7664,17.9
87.8,82.1
87.8102,103.1
87.8168,16.6
87.8337,107.6
87.8445,99.5
87.8509,430.7
87.8995,92.3
87.9178,184.4
87.9227,255
87.9339,279.6
87.9415,89.1
87.9452,166.3
87.9533,115.5
87.9711,139.2
87.9769,266.8
87.9782,284.8
87.9915,163.3
88.0391,9351.7
88.0527,126.5
88.1384,178.8
88.1428,17.4
88.1471,327.1
88.1498,133.4
88.1584,19.1
88.1681,102.5
88.1877,286.7
88.2498,397
88.2637,101.2
88.2772,257.1
88.2846,91.3
88.3494,139.6
88.3643,337.7
88.3718,83.8
88.3792,247.4
88.4087,179.2
88.435,765.7
88.4437,88.7
88.4467,423.8
88.4516,279
88.4648,86.7
88.4915,136
88.5376,126
88.5407,180.4
88.5611,98.7
88.5859,98.4
88.6593,632.4
88.6664,16.6
88.6819,325.5
88.6841,319.9
88.687,95.2
88.723,444.3
88.7332,380
88.7355,83.9
88.7417,90.4
88.7619,90
88.771,122.1
88.7773,179
88.8151,432.5
88.8164,83.6
88.8277,18.4
88.8674,103.9
88.8702,233.1
88.9046,414.1
88.9165,162.9
88.9259,238.7
88.9455,19.7
89.0306,303
89.0594,17.5
89.0634,25.6
89.069,325.7
89.0726,15.3
89.088,458.4
89.0892,321.9
89.1393,98.7
89.1896,506.4
89.2454,169.4
89.2616,135.2
89.2708,311.7
89.2876,89.4
89.2997,469.7
89.3371,486.9
89.3464,330
89.3541,17.7
89.3592,305.8
89.375,107
89.4019,237.1
89.4168,301.5
89.4212,102.9
89.4393,485.2
89.4428,15.9
89.4529,17.5
89.4836,268.5
89.5478,18.6
89.5773,454.8
89.5899,159.1
89.6032,110.5
89.6605,112
89.6624,126.7
89.6635,255.3
89.6828,209.1
89.7422,123.7
89.7558,556.6
89.7579,402.8
89.7851,298.9
89.7862,18.4
89.8068,607.8
89.8076,134.3
89.829,185.5
89.8309,135.4
89.8533,260.5
89.8683,764.2
89.9586,282.5
89.9782,19.1
89.9794,142.4
90.0329,159.5
90.0348,87.2
90.042,123.1
90.0558,640
90.0627,402.5
90.0731,460.1
90.086,19.9
90.0938,381.2
90.1157,328
90.1302,16.2
90.1422,188.8
90.153,94.9
90.1682,684.1
90.1691,317.2
90.1915,245.1
90.2766,114.9
90.2791,309
90.3013,108.4
90.3042,346.3
90.3384,172.3
90.3661,17.1
90.3799,339.6
90.4148,17.7
90.4838,159.7
90.4908,358.7
90.523,17.7
90.5505,233.7
90.5613,420.1
90.5654,153.6
90.5859,222.3
90.6059,320.8
90.6071,118
90.611,93.6
90.6131,21.1
90.6179,464.7
90.6263,158.9
90.6442,327.4
90.6868,258
90.756,96
90.757,649.1
90.789,479.3
90.8061,19.9
90.848,146.2
90.8982,212.5
90.9027,188.7
90.9252,729.5
90.93,279.3
90.935,375.3
90.9475,144.1
90.9648,531.6
90.97,88.9
90.9765,10976.7
91.0157,366.1
91.0514,602.6
91.0541,3047.9
91.0811,311.9
91.1024,221.4
91.1186,298.4
91.1258,145.9
91.1312,80.9
91.1344,17.5
91.1353,753.6
91.146,156.9
91.1533,436.6
91.1579,166.6
91.2094,204.6
91.2748,193.5
91.2808,81
91.321,444.5
91.3423,453.4
91.4344,86.5
91.4404,98.9
91.4522,622.8
91.4824,100.1
91.5011,293.7
91.5074,180.7
91.5176,144.8
91.521,269.2
91.5231,291.4
91.525,407.5
91.5348,334.9
91.5567,201.5
91.5583,178.9
91.5652,112.6
91.5725,160.4
91.5739,87.4
91.5983,208.1
91.6053,678.6
91.6063,460.9
91.6091,143.6
91.6099,128.2
91.66,561
91.6757,284.7
91.727,99.4
91.7641,915.1
91.7909,17.2
91.7949,107.5
91.8011,146.2
91.8206,105.8
91.8732,198.9
91.8809,18
91.9042,261.4
91.9045,262.5
91.9344,195.3
91.9415,497
91.9555,276.2
91.9836,277.8
91.9849,588.2
91.9975,132.3
92.0055,396
92.0289,91.8
92.048,110.4
92.0493,51.9
92.0669,269.2
92.0672,228.9
92.0675,166.4
92.0931,448.1
92.0944,112.8
92.1072,176.4
92.1264,278
92.1298,18.7
92.1315,249.7
92.1816,276.9
92.257,97
92.267,17.1
92.2688,691.4
92.2726,20.9
92.3043,176.5
92.3132,124.6
92.331,313.9
92.3547,344.4
92.3614,316.3
92.3663,243.6
92.3748,331.5
92.4067,532.9
92.4078,18.8
92.4101,86.9
92.4132,209.5
92.4646,17.3
92.4947,557.9
92.503,19.9
92.5051,373.8
92.5516,83.5
92.567,479.3
92.5738,347.6
92.5758,442.2
92.5895,298.5
92.6086,144.1
92.6242,16.9
92.6504,101.9
92.6658,646.3
92.8036,107.1
92.8108,135
92.8262,90.4
92.8446,477
92.8823,108.3
92.8876,303.7
92.8916,221.9
92.908,109.1
92.9104,727.8
92.9404,155.9
92.9824,109.6
93.0126,558.3
93.0335,22.1
93.0406,242.2
93.0443,317.3
93.0571,30.8
93.0629,111.1
93.0663,164.5
93.0697,151
93.0865,325.4
93.1237,281.9
93.1484,374.9
93.1618,124
93.1846,17.2
93.1874,822.4
93.2025,152.5
93.2175,86.8
93.2264,627.1
93.2333,311.4
93.2413,572.7
93.2621,16.9
93.2828,274.6
93.293,620.7
93.3134,110.5
93.3346,138.5
93.3697,87
93.4036,132.4
93.4583,302.4
93.4674,84.6
93.4795,93.9
93.5022,115.8
93.5034,489.3
93.5088,99.9
93.5258,20.2
93.5286,99.6
93.5584,723.6
93.5709,130.7
93.5782,295.7
93.5813,358.2
93.5909,390.9
93.6179,383.7
93.6241,703.2
93.637,245.2
93.6418,109.1
93.6798,122.2
93.7067,264.9
93.7337,97
93.7781,20.1
93.783,277.5
93.7963,592
93.836,136.3
93.8473,215.5
93.9206,480.5
93.9502,156.4
93.9861,17.7
93.9948,361.6
94.0365,89.7
94.0412,55532
94.0429,19.3
94.0453,205.3
94.0468,331.5
94.0836,218.3
94.0899,171.9
94.1057,633
94.128,98.4
94.1497,125.8
94.1745,219.4
94.1833,424.7
94.1959,85.6
94.2375,100.3
94.2507,212.5
94.2683,142
94.2698,260.6
94.2715,18
94.295,618.4
94.3393,543.5
94.3504,101.4
94.365,84.9
94.3687,528.6
94.3757,480.2
94.3788,114.2
94.3991,149.6
94.444,430.1
94.4592,229
94.4963,91.4
94.5386,168.5
94.5389,159.6
94.5394,100.8
94.5716,101.8
94.5849,256.9
94.5884,160.6
94.6073,80.5
94.6173,156.4
94.644,131.9
94.6756,515.5
94.69,429.2
94.7004,684.1
94.7118,170.9
94.7244,82.9
94.7346,162.1
94.7551,413.7
94.7585,370.2
94.7679,397
94.7952,87.7
94.7999,585.7
94.8166,402.6
94.8886,90.2
94.9162,164.3
94.9206,160.2
94.9272,154.6
94.9376,99
94.9671,182.4
94.9877,128.9
95.0087,28.4
95.0149,17.7
95.0355,41.6
95.0446,934.6
95.046,39.9
95.0466,30.3
95.0469,25.4
95.0473,129.2
95.049,430726.7
95.0504,291.3
95.0517,42.9
95.0627,41.5
95.069,246
95.0756,604.5
95.0841,109.5
95.0854,498.1
95.0894,24.3
95.1441,399.6
95.1739,346.2
95.1934,98.3
95.1948,112.8
95.2022,329.5
95.2135,289.2
95.2274,132.6
95.2356,635.6
95.239,762.1
95.256,18.8
95.2658,91.3
95.311,85.5
95.3153,110
95.3178,131
95.3784,82.3
95.3825,293
95.4299,111.2
95.4429,93.2
95.4557,90.4
95.4843,159.3
95.5032,98.9
95.5498,171.9
95.566,282.9
95.576,582
95.5817,149.7
95.5924,188.2
95.6154,135.5
95.619,514.6
95.6211,233.4
95.6231,457.4
95.6254,353.1
95.6262,17.7
95.6281,600.3
95.6451,17.4
95.6475,305.9
95.68,193.6
95.7397,164.2
95.7478,22.5
95.7518,106.2
95.7764,122.1
95.7959,221.9
95.8216,781.6
95.8882,322.6
95.8963,117.2
95.9089,16.3
95.9123,428.1
95.9189,89.7
95.9284,241.3
95.9385,446.9
95.9641,273.2
95.9689,97.1
95.9861,89.7
96.0114,707.8
96.0356,511.3
96.0396,308.3
96.0524,18291.6
96.0536,16.1
96.0932,19.6
96.095,16.9
96.1007,167.2
96.1037,103.4
96.1073,116
96.1436,384.2
96.1513,98.6
96.1752,326
96.1929,293
96.2091,270.3
96.2128,521.5
96.2297,125.9
96.239,346.4
96.2721,174.7
96.2835,324
96.3226,136.2
96.3288,165.2
96.3387,164.4
96.3508,109.3
96.3771,740.2
96.3797,341.9
96.3891,90.4
96.3972,21
96.4099,155.4
96.4131,268.9
96.4146,18.9
96.4155,97.9
96.4175,397.3
96.4344,86.3
96.4483,94.1
96.4617,100.8
96.4669,173.1
96.4725,426.2
96.4786,239
96.4977,333.9
96.5262,105
96.5629,19.7
96.5961,268.4
96.6003,309.1
96.6246,97.6
96.6314,99.2
96.6339,284.7
96.6466,699.1
96.6551,261.2
96.67,91.7
96.7204,19.1
96.7299,179.9
96.7319,415.7
96.7476,108.3
96.7537,336.2
96.7736,151.7
96.7768,221.7
96.7787,205.9
96.829,700.6
96.8731,155
96.8967,18.7
96.9217,169450.9
96.9475,150.3
96.9979,111.1
97.0075,208.6
97.0166,380.6
97.0532,159.1
97.0561,171.4
97.0918,103.4
97.0965,379.3
97.101,81.8
97.1088,158.6
97.1754,305
97.1779,21.7
97.2125,358.8
97.2546,165.2
97.2965,101.9
97.3019,108
97.3268,331.6
97.329,171
97.3308,268.3
97.3358,264.4
97.345,225.2
97.3583,20.5
97.3669,105
97.3766,20.3
97.3827,509.6
97.3883,233.3
97.4102,85.1
97.429,322.5
97.4489,413.5
97.4724,21.6
97.5066,413.4
97.527,557.8
97.619,631.8
97.6454,16.7
97.6593,127.7
97.6823,103.3
97.6935,350.4
97.6949,198.4
97.6967,19.3
97.7303,431.5
97.7522,237.3
97.7608,164.4
97.82,112.5
97.8265,109.9
97.8437,229.2
97.8472,547.3
97.8581,192.7
97.8624,555.3
97.9368,18.2
97.9468,20.2
98.0089,491.1
98.0127,189.2
98.0686,211.1
98.1133,167
98.1151,642.8
98.13,107.8
98.1426,115.8
98.1862,473.5
98.1964,76.8
98.2194,100
98.2425,81.3
98.2814,597.1
98.309,338.3
98.3101,297.3
98.3342,19.2
98.3534,127.2
98.3981,351.1
98.4566,92.3
98.46,75.1
98.463,580.9
98.4647,433
98.4719,16.5
98.4928,249.9
98.494,164
98.4974,87.3
98.5003,256.2
98.5092,242.7
98.5232,621.9
98.5317,250.6
98.5335,282.4
98.5448,310.9
98.5557,86.5
98.567,403.6
98.58,19.1
98.5841,761
98.5916,635.2
98.5978,149.4
98.5998,160.3
98.6081,449.9
98.6792,17
98.6938,102.6
98.7072,110.2
98.7439,108.5
98.7703,136.8
98.8461,1004.1
98.8713,492.1
98.8782,349
98.8864,263.1
98.8878,602.3
98.9137,235.9
98.9187,48713.2
98.9198,9778.4
98.9415,122.9
98.9753,12769.9
98.9807,104.9
98.9838,334.1
99.0016,111.6
99.0454,104.7
99.0627,18.5
99.0894,506.4
99.1004,108
99.1949,121
99.2211,295.6
99.2364,889.3
99.2748,564.9
99.326,108.2
99.3277,196.6
99.3462,102
99.3804,17.4
99.3876,192.5
99.3949,177.2
99.4298,461.7
99.4425,18.2
99.4906,353.2
99.5079,102.9
99.5284,78.8
99.5383,458.9
99.5606,88.8
99.5874,115.6
99.6817,104.8
99.7087,22.3
99.7229,118.7
99.7778,429
99.7819,16.4
99.7891,338.9
99.7995,128.6
99.8437,20.9
99.8837,424.9
99.8859,17
99.9003,309.2
99.9407,106.1
99.9419,85.8
99.9786,90.6
100.0135,346.2
100.0149,302.1
100.0195,169.7
100.0318,159.5
100.0463,315.6
100.0756,23.1
100.1263,336.6
100.155,96.4
100.1587,358.1
100.1619,673.5
100.1771,154.4
100.2199,85.8
100.2305,142.1
100.2531,185.9
100.2858,249.8
100.3213,337.1
100.3664,202.8
100.3779,16.2
100.3853,116.6
100.3859,423.4
100.3907,105.6
100.451,247.3
100.4603,163
100.4998,615.5
100.5397,114.1
100.5466,429.8
100.5512,408.4
100.5967,196.3
100.6079,145.5
100.6192,164.7
100.6435,290.7
100.6469,139.2
100.6555,17
100.7015,17.5
100.7041,103.7
100.7252,93.3
100.7311,353.4
100.7494,87.8
100.7722,17.1
100.7859,280.5
100.8138,112.2
100.8243,165.7
100.8569,488.9
100.8963,270.5
100.9075,16.7
100.9136,189
100.9169,1022.3
100.934,1160.4
100.9644,275.6
101.0137,161.3
101.0331,367.2
101.047,2496
101.1027,275.5
101.1136,203.8
101.1187,455.6
101.2034,112.7
101.2668,122.6
101.268,656.8
101.2813,284
101.2861,312
101.3116,183.3
101.315,136.3
101.3283,647
101.3537,153.7
101.3825,124.3
101.39,328.4
101.3928,113.5
101.4097,133.2
101.4522,153.8
101.4903,340.7
101.5212,248.6
101.5486,680.4
101.5786,314.6
101.589,200.3
101.6192,325.5
101.7134,126.5
101.7498,127.9
101.7664,207.1
101.8518,118.2
101.8602,102.4
101.8792,19.2
101.9562,17.5
102.0178,350.7
102.0549,5358.1
102.0754,160.5
102.0926,83.2
102.0989,106.4
102.1353,17.3
102.1458,306.1
102.1542,707.9
102.1695,668.5
102.198,305.1
102.2152,421.5
102.2202,352.8
102.2964,16.8
102.3102,167.8
102.3268,273.7
102.3365,322.1
102.375,293.9
102.4119,18.7
102.4839,432.7
102.5173,527.9
102.526,105.5
102.6136,199.7
102.7568,637.7
102.7625,153.7
102.7735,281.8
102.7819,18.4
102.8001,18.2
102.8193,226.1
102.8332,266.3
102.8371,18.6
102.8388,103.6
102.8969,117.1
102.9689,337
102.9702,500.4
102.9812,477
103.0047,141.3
103.0294,650.7
103.0541,581.3
103.0889,235.6
103.153,79.8
103.1816,153.2
103.234,239
103.2509,115.1
103.2823,233.1
103.2835,247.5
103.2917,345.9
103.31,194.7
103.3239,346.3
103.339,20.9
103.3616,110.7
103.3967,214.6
103.4299,108.2
103.436,116.9
103.4513,159.9
103.4541,351
103.4924,209.7
103.5056,111.3
103.507,403.1
103.512,109
103.5358,82.2
103.5478,100.9
103.5492,407.3
103.5577,138.2
103.5736,257.1
103.5834,351.5
103.6158,323.2
103.6229,283.3
103.7439,447.1
103.7698,109.4
103.7762,16.6
103.8531,125.4
103.8714,189.7
103.9406,640.3
103.9753,91.9
103.9795,147.2
104.0326,396.8
104.0692,92.8
104.0738,163.2
104.0831,19.2
104.1037,571
104.1069,311610
104.1093,230.4
104.1129,112
104.1928,389.3
104.2134,116.6
104.2151,568.7
104.2341,651.6
104.253,418
104.2567,101.5
104.3026,95.7
104.317,114.6
104.4101,183.4
104.4185,648
104.4268,306
104.4368,203.2
104.4455,659
104.4842,239.9
104.5052,128.1
104.5386,112.8
104.5411,238.4
104.5586,138.3
104.6231,182.8
104.6674,608.7
104.6895,452
104.7042,18.7
104.7143,460.5
104.7556,167.1
104.8064,88.5
104.8515,141.9
104.8754,265.3
104.8931,218.2
104.9075,601.8
104.9197,471.4
104.9461,108.4
104.9633,177.2
104.9714,175.6
104.9923,2634.4
105.0032,47.7
105.0253,469.6
105.0446,39488.3
105.1103,13673.6
105.1495,27.4
105.1547,236.6
105.2116,91.6
105.2257,119.5
105.2324,136
105.269,435.2
105.2819,100.2
105.3059,241.4
105.3076,94.3
105.3236,230.5
105.3539,20.5
105.363,632.8
105.3982,18
105.4016,87
105.4169,104.9
105.4435,91.3
105.4586,94.4
105.4636,225
105.4688,445.3
105.5096,344.7
105.5495,468.9
105.5509,126.3
105.5793,153
105.6311,135.2
105.6443,128.5
105.6467,708.6
105.6566,423.3
105.7152,112.5
105.7369,104
105.7454,591.4
105.7464,89.6
105.7535,329.5
105.7668,163.7
105.7721,176.8
105.7881,421.3
105.8108,292.4
105.8131,355.5
105.8433,17
105.868,233.3
105.8882,19.1
105.9246,16.7
105.935,396.8
105.9642,548.7
105.9844,139
105.9873,224.4
106.0418,20.2
106.048,592.4
106.1156,175.8
106.1215,428.7
106.1275,158.4
106.1725,166.4
106.199,273.4
106.2153,228.4
106.2263,314.9
106.2321,135.2
106.2478,466
106.2502,183.1
106.2586,172.5
106.2775,123.4
106.298,492.8
106.3187,105.2
106.3198,89.3
106.324,508.6
106.3324,152
106.3347,169.2
106.384,649.2
106.3921,88.4
106.4,192.6
106.4097,122.5
106.4161,372.1
106.4281,355.3
106.4435,446.5
106.4564,101.7
106.4579,118.5
106.4836,241.1
106.5008,107.7
106.5028,180.2
106.5044,306.7
106.521,169.3
106.5256,164
106.5457,103.8
106.5494,636.3
106.5717,258.2
106.6372,17.5
106.6426,344.3
106.6769,18.8
106.6934,647.9
106.7005,98.2
106.7216,452
106.7533,194.5
106.7803,172.9
106.7872,194.4
106.7931,112.8
106.7977,85.3
106.8511,500.5
106.8972,130
106.9506,3238.4
106.955,116.9
106.966,593.5
106.9918,51
107.0283,88.9
107.0491,495.1
107.0796,712.8
107.0856,84.7
107.0978,177.3
107.1083,82
107.1399,19.3
107.1472,459.9
107.1505,19.5
107.154,344.7
107.1719,415.6
107.1845,382.4
107.2394,93.8
107.2415,94.4
107.2444,21.3
107.2491,136.4
107.2581,164.2
107.2686,93.3
107.3248,202.6
107.3402,284.9
107.395,447
107.404,641.7
107.4114,156.5
107.4373,18
107.4909,274.6
107.496,292.5
107.5165,395.1
107.523,631.8
107.6271,505.8
107.6389,18.1
107.685,107
107.6981,462.4
107.7088,103.6
107.7212,311.1
107.7313,458.1
107.7941,261.1
107.7944,261.2
107.8127,17.4
107.8756,787.4
107.8984,16.9
107.901,92.6
107.9039,146
107.9166,232.2
107.9602,362.4
108.005,302.1
108.0123,17
108.0177,24.4
108.0263,109.5
108.0312,499.1
108.0426,295.7
108.0589,129.9
108.0938,112.1
108.0945,359.3
108.1084,233.9
108.1519,222.6
108.1594,129.6
108.1662,669.8
108.1939,297.3
108.1978,110.8
108.1988,312.1
108.2818,519.9
108.2854,151.5
108.2959,109.4
108.2974,111.9
108.3188,18
108.3494,291.6
108.3896,357.8
108.3963,283.2
108.4043,134.8
108.4209,734.3
108.4542,326.8
108.4636,17.1
108.4718,18.8
108.4821,253.6
108.51,633.8
108.5139,434.5
108.6299,19.3
108.6538,149
108.6583,275.3
108.6732,369.1
108.6919,131.3
108.7085,105.9
108.7219,131.3
108.7539,103.3
108.8099,362.6
108.8232,193.8
108.8629,111.8
108.8773,219.8
108.9113,301.9
108.9338,183.1
108.948,316.6
108.9516,114.8
108.9529,88.4
108.9791,310.7
108.9811,747.4
108.9989,439.7
109.0274,444.6
109.0347,100.2
109.0647,56692.2
109.1011,180.1
109.1077,141.9
109.1139,353.9
109.122,683
109.1235,559.2
109.133,757.5
109.1676,111.6
109.1988,298.9
109.2502,150.5
109.2584,137.3
109.2864,703.9
109.3028,433.4
109.3406,97.3
109.3679,222.9
109.3986,125.7
109.5023,119.3
109.5142,107.6
109.5248,314.5
109.5419,178.3
109.56,113.3
109.5639,259.1
109.5882,156.2
109.6037,239.4
109.6638,87.5
109.6924,91.2
109.7647,249.9
109.7676,18.8
109.7772,139.9
109.7825,396.5
109.789,479.7
109.8075,173.2
109.8206,18.7
109.829,221.7
109.8692,17.7
109.8825,95.6
109.8896,242.8
109.9025,160.8
109.9412,209.1
109.9924,526.4
110.006,199.3
110.0116,142.8
110.0159,445.5
110.0362,101.6
110.0681,1911.2
110.0699,315.8
110.0713,668.7
110.1007,415
110.1194,90
110.1299,171.3
110.1527,20.8
110.1615,128.1
110.1692,182.8
110.1782,83
110.2367,16.6
110.2613,500.6
110.2686,344.8
110.3144,610.3
110.3579,17.9
110.4031,411.4
110.4554,91.3
110.4613,115.8
110.4652,101.3
110.4701,447.1
110.5557,108.9
110.5664,414.7
110.5717,331.8
110.5829,20.3
110.6051,16.8
110.6563,168.7
110.6728,101.6
110.6771,467.1
110.7049,118
110.7343,175
110.7504,288.7
110.7606,535.1
110.7803,286.8
110.7932,99.8
110.8428,687.8
110.8774,98.4
110.8841,16.2
110.8969,286.8
110.9139,104.2
110.9286,16
110.9318,219.9
110.9356,432.4
110.9477,523.8
110.9637,82.4
110.9892,93.1
111.0232,334.6
111.0267,100.4
111.044,219.7
111.0614,16.8
111.0689,774.4
111.0898,83.2
111.1039,390.5
111.1265,138.2
111.1309,391.8
111.1474,574.1
111.1542,169.1
111.1646,542.1
111.1724,536.4
111.1781,433.6
111.1827,99.5
111.226,441.6
111.2713,144.1
111.3567,252.5
111.3715,99
111.4531,423.5
111.4675,82.4
111.5366,21.4
111.5843,342
111.6058,98.8
111.629,347.8
111.6844,221.8
111.7097,181.3
111.7126,245.1
111.7702,173.7
111.7739,403.5
111.7964,18.1
111.8703,169.4
111.8789,633.6
111.8841,155
111.9313,341.7
111.9455,102.4
111.9494,633.2
112.0022,225.9
112.0198,96.5
112.0227,672.4
112.0393,84.2
112.0411,312.2
112.0571,258.9
112.0991,17.7
112.1155,17.8
112.1178,291.3
112.1373,99.5
112.1656,19.5
112.2156,306.4
112.2173,342.2
112.2349,658.3
112.2389,132.6
112.2452,319.7
112.2645,561.8
112.337,119.4
112.3476,614.4
112.3751,744.1
112.3837,107
112.4279,327.1
112.4316,150.6
112.4414,491.3
112.4559,756.6
112.4994,20.6
112.5097,100.6
112.5386,579.9
112.5417,197.8
112.5431,118.3
112.5975,16.6
112.6971,283.5
112.7307,585.7
112.7497,175.9
112.7511,22.3
112.7517,16
112.7609,328.9
112.8098,403.1
112.8388,236.8
112.8419,179.5
112.8957,489124.8
112.9399,621.3
112.9591,98.8
112.9633,412.7
112.9649,143.8
112.968,87.4
112.9821,110.8
112.9973,107
113.0243,150
113.0738,18.4
113.0932,182.2
113.0968,154.3
113.1597,365.4
113.1891,90.5
113.2026,471.1
113.2349,144.9
113.2593,323.1
113.2613,575
113.28,177.6
113.3292,600
113.3392,239.3
113.3702,153.3
113.423,381.9
113.4709,172.4
113.4755,101.5
113.5707,196
113.6044,447.6
113.6122,469
113.6561,594.8
113.6673,109.7
113.7023,17.3
113.7263,90.9
113.7455,137.9
113.7603,121
113.799,169
113.8126,87.2
113.8249,98.8
113.8375,88.3
113.8454,405.7
113.8853,124.8
113.9132,587.2
113.966,534.2
113.9847,328.4
114.0116,308
114.0363,118.5
114.0451,107.5
114.0549,57444.7
114.066,943.7
114.0913,24.6
114.1012,429.8
114.1079,186
114.1703,117.6
114.172,143.5
114.1885,549.8
114.1973,325.6
114.1998,241.4
114.2381,136.4
114.2816,122.7
114.3727,98.2
114.3865,313.4
114.4188,155.5
114.4838,332.4
114.4844,337
114.5181,98.1
114.5392,656.7
114.5994,504.1
114.6004,542.4
114.6083,408.7
114.6331,675.5
114.6932,579.3
114.7292,88.7
114.8539,696.4
114.8928,160298
114.9322,20.5
114.9447,86.6
114.9855,644
115.0142,196.7
115.0583,1359.2
115.0865,1288.3
115.095,302.8
115.1236,97.4
115.1846,669.8
115.2007,200.6
115.2161,422.7
115.2512,18.7
115.253,128.1
115.2799,194.7
115.2979,300.5
115.3276,477.6
115.4599,315.6
115.4629,158.1
115.4645,93.1
115.4984,503.7
115.5183,18.8
115.5683,203.1
115.5775,84
115.616,345.3
115.6259,438.7
115.645,121.3
115.6607,95
115.6627,329
115.6861,184.3
115.7307,239.2
115.732,109.3
115.7583,300.1
115.8339,107.6
115.8725,462.5
115.8744,739.7
115.9039,177
115.949,641.9
115.9654,102.7
115.971,170.7
115.9793,25.2
115.9808,191.8
115.9932,336.1
116.0034,192.4
116.0172,217.5
116.0427,330.6
116.0706,5225.2
116.0863,23.6
116.1713,160.6
116.1906,18.6
116.1935,95.7
116.2493,214
116.2654,288.1
116.2948,693
116.3029,136
116.3066,335
116.3547,404.7
116.3789,363.8
116.3979,466
116.4133,263.5
116.4286,414.7
116.451,211.8
116.457,19.8
116.545,121.5
116.5682,16
116.6357,333
116.6481,228.6
116.6741,865.1
116.7021,282.2
116.8909,16903.9
116.9105,105.4
116.9571,88.8
116.9619,455
116.9639,334
116.969,129.4
116.9833,94.1
116.9859,1730.1
117.0121,339.4
117.0685,196.8
117.1178,371.4
117.2247,395.9
117.244,347.2
117.2961,425.5
117.3172,96.8
117.3374,176.9
117.3849,213
117.4012,596.3
117.4092,491.4
117.4268,465
117.4971,81
117.5036,428.8
117.5086,118.4
117.5637,712.6
117.6417,119.1
117.7087,161.4
117.7909,134.1
117.806,642.4
117.8235,20.1
117.8637,674.3
117.8939,607.7
117.896,180.9
117.9312,119.7
118.0145,115.9
118.0459,693
118.0602,384.2
118.1083,99.5
118.1197,228.6
118.1442,184.6
118.1473,111.7
118.1751,480.7
118.1944,327.3
118.204,440.1
118.2066,287
118.224,135.4
118.2964,422.8
118.3134,89.1
118.3297,366.7
118.3424,102.2
118.3443,106
118.3911,444.5
118.436,198.7
118.4486,676.1
118.4734,168.9
118.482,274.8
118.5133,695.7
118.6467,116.5
118.699,98.1
118.7244,623.8
118.7454,176.3
118.7511,742.1
118.7533,17.9
118.807,17.7
118.8126,215.3
118.821,16.5
118.8731,640.6
118.9545,103.5
119.019,20.2
119.0228,89
119.0875,314.8
119.117,267.5
119.131,412
119.1398,87
119.1759,575.5
119.1967,178.4
119.21,472.9
119.2618,294.6
119.2695,117.6
119.2919,424.1
119.2965,257.3
119.3032,84.4
119.3115,207.4
119.3162,146.9
119.3276,484.1
119.3501,134.8
119.3524,240.7
119.3765,92.5
119.3778,633.6
119.4194,140.4
119.4572,16.1
119.4695,81.3
119.4913,18.5
119.5131,325.8
119.5487,108.5
119.5981,209.6
119.6235,87.2
119.6364,105.3
119.6773,719.4
119.6912,104.1
119.7508,98.1
119.7651,95.3
119.7694,515.6
119.7777,164.7
119.8269,110
119.8751,483.5
119.8789,84.4
119.918,413.5
119.9689,20.4
120.0018,181.9
120.0032,4316.9
120.0808,15490.9
120.1348,321.3
120.1581,144
120.1663,218.8
120.2443,138.1
120.3455,415.6
120.3527,652.5
120.3626,322.4
120.3732,221.9
120.402,108.7
120.4144,104.7
120.4843,84.6
120.4909,105.6
120.5484,92.3
120.6191,317.2
120.653,367.8
120.6853,312
120.6903,491
120.6922,219.6
120.7149,17.7
120.732,94.6
120.7553,307.6
120.7845,96.3
120.7951,293.3
120.8525,464.9
120.8673,112.7
120.8933,263.2
120.9126,485.8
120.959,354.1
120.9808,152.1
121.0076,364.1
121.0284,262.3
121.0375,332.7
121.0396,32.5
121.0454,689.1
121.0703,541
121.0834,187.3
121.1012,461.3
121.1588,159.6
121.2527,114.8
121.2599,346.2
121.2845,314.3
121.2865,425.8
121.3072,441.7
121.3301,17.4
121.3616,154.4
121.4126,272.5
121.422,17.8
121.4352,177.5
121.4392,19.5
121.4404,158.5
121.4494,88.5
121.5345,19
121.5639,325.3
121.5978,89.4
121.6043,87.1
121.6307,80.6
121.6345,260.9
121.6441,167.2
121.6742,200.9
121.7128,17.1
121.7801,17
121.793,18.5
121.84,127
122.0405,19.4
122.0544,179.9
122.0605,459.7
122.0964,156.4
122.1042,604.5
122.1437,332.4
122.1921,17.1
122.219,83.2
122.2251,640.7
122.236,95.1
122.2472,252.2
122.2881,436.2
122.3329,20.3
122.3394,556.9
122.3433,102.9
122.3865,18.3
122.4775,271.3
122.5857,439.1
122.6043,82.2
122.605,122.9
122.6054,125
122.6678,18.9
122.717,217.1
122.7215,481.7
122.7267,228.6
122.7414,595
122.7613,499.2
122.7755,285.2
122.7768,310.9
122.8012,330.3
122.8156,525.7
122.8497,165
122.9131,351.3
122.9245,23399.8
122.9864,192.4
123.0802,29.4
123.1168,98.8
123.1267,203.1
123.1527,101.3
123.2071,252.3
123.235,157.6
123.2578,17.9
123.3245,119.4
123.3553,437.5
123.397,864.2
123.4063,440.4
123.4176,407.6
123.4686,103.8
123.5718,475.1
123.5739,266.3
123.7337,18.9
123.749,646.5
123.75,530.7
123.8201,723.6
123.8575,261
123.8735,173.5
123.9762,164.2
123.9952,326.2
124.0173,160.3
124.032,822.5
124.1923,523.5
124.2076,585
124.2109,301.2
124.2807,144.9
124.2888,447.1
124.2907,733.8
124.2995,697.1
124.304,460.1
124.3689,108.6
124.3838,301.5
124.4397,17.6
124.4752,88.9
124.4776,112.5
124.4879,22.7
124.5126,108
124.5815,439
124.5834,423.3
124.5852,545
124.6243,196.3
124.6443,89.6
124.6926,119.5
124.7213,279.4
124.7247,18.1
124.7435,244.1
124.7505,374.6
124.8134,117.4
124.8513,89.7
124.859,149
124.8913,279.1
124.9227,2998.1
124.93,101.7
124.986,82.3
124.9999,3363.9
125.0056,359
125.0127,19.4
125.0389,253.5
125.0598,28.4
125.096,111.3
125.1077,198.9
125.1746,176.5
125.1927,125.2
125.2295,137.4
125.3547,522
125.3761,111.4
125.405,383
125.4393,476.3
125.4779,135.7
125.4879,722.6
125.5129,177.9
125.5611,261.8
125.568,110.2
125.6305,97.9
125.6474,287.4
125.6713,97.7
125.6789,108.3
125.8023,19.8
125.8313,408.7
125.8441,99.6
125.8458,266.3
125.8837,105.4
125.9365,162.9
125.993,285.3
126.0222,321.2
126.1465,145.5
126.1536,15.9
126.1545,16.9
126.188,240.4
126.1968,342.3
126.1985,251.9
126.2051,235.8
126.2302,268.3
126.24,285.8
126.3043,459.4
126.307,114.7
126.3428,508.2
126.3527,459.7
126.3922,111.8
126.4096,110.7
126.4374,19.8
126.4695,100.6
126.5141,128.8
126.5343,111.7
126.5461,686.5
126.5548,454.4
126.5749,440.1
126.6247,825.4
126.6286,139.7
126.6479,132.5
126.668,113.6
126.6752,304.8
126.7244,598.9
126.7935,151.4
126.8369,94.9
126.8408,501.7
126.9618,236
126.9929,116.9
127.0194,172.3
127.0402,19.7
127.0417,647.3
127.0478,121.6
127.0602,127.7
127.0665,101.8
127.0778,294.8
127.0947,98.3
127.1244,385.4
127.1695,148.5
127.1805,591
127.2531,655.8
127.3115,648.9
127.3872,105.7
127.3911,342.2
127.4162,120.3
127.5253,343.7
127.5462,128
127.5659,130.4
127.5674,94.2
127.5833,402.4
127.6491,662.3
127.6932,92.3
127.7088,18.4
127.7347,200.3
127.7749,265
127.8202,93.1
127.8228,88.8
127.8498,16.7
127.8998,718.7
128.0072,328.2
128.0208,87.8
128.0474,255.8
128.0691,386.7
128.1411,113.6
128.2202,144.5
128.2352,344.4
128.2479,99.6
128.2921,761.4
128.2942,310.5
128.3371,117.1
128.3555,109.6
128.3931,210.7
128.3998,142.8
128.4635,310
128.5158,18.8
128.5196,477.5
128.552,353.5
128.5818,115.8
128.5914,261.9
128.6087,185.4
128.62,101
128.6285,488.7
128.6391,22.2
128.7421,717.1
128.7575,382.9
128.7938,360.9
128.8511,17.2
128.905,114.1
128.9177,128.1
128.9225,168.1
128.9492,17.3
128.9794,16.3
128.982,289.4
129.0032,507.8
129.0086,340
129.0566,199.4
129.0794,306.8
129.084,117.7
129.097,280.4
129.1024,821.8
129.1053,160.5
129.1475,666.1
129.2814,140.1
129.3102,121.1
129.3944,18
129.4325,461.3
129.4611,317.3
129.5984,224
129.6177,189.9
129.6627,248.5
129.824,166
129.8447,240
129.8561,258.9
129.8681,150
129.894,416.8
129.9289,17.4
129.9459,102
129.9683,156.7
130.0049,267
130.0164,527.1
130.0499,7346.9
130.0546,350
130.0747,95.7
130.0786,166.9
130.0893,106.4
130.1246,95.3
130.1324,17.8
130.1376,218
130.2199,776
130.2671,164.8
130.274,152.8
130.317,117.6
130.3791,452.4
130.4154,341.4
130.5036,457.1
130.5398,120.1
130.5447,176.6
130.5499,310.5
130.5788,21.1
130.646,607.1
130.6542,429.3
130.6706,482.7
130.8413,331
130.8532,369.9
130.9011,162.7
130.903,157.3
130.9526,119.3
130.9758,102.5
131.0143,534.8
131.0179,404.8
131.02,581
131.0247,415.1
131.0284,305.8
131.0844,153.3
131.1169,608.9
131.1193,308.9
131.2119,226.1
131.2125,326.6
131.2129,325
131.2228,516.3
131.2427,123.5
131.2626,84.8
131.2805,213.6
131.2821,16.2
131.2927,338.6
131.3274,284
131.3595,17.2
131.4016,450
131.426,83.4
131.4342,144.5
131.5108,21.1
131.5721,372.9
131.6123,165.1
131.6155,104.3
131.6175,563.4
131.6196,102.7
131.6608,121
131.6645,17.1
131.683,112.8
131.6953,95
131.7738,22.7
131.7988,109.1
131.8347,20.3
131.8594,312.1
131.8617,136.9
131.8847,413.5
132.0032,25750.3
132.0207,176.7
132.0255,163.3
132.033,138.2
132.0404,106.1
132.043,368.8
132.0539,144.5
132.0557,268.5
132.0605,261
132.0655,102554.1
132.0758,17
132.1194,408.4
132.1396,95.3
132.1456,435.7
132.2373,416.3
132.2701,115.8
132.2785,104.2
132.2878,468.8
132.3127,21.9
132.336,328.2
132.3553,167.3
132.3728,111.8
132.4136,512.5
132.4382,155.8
132.4718,283
132.5487,392.3
132.5516,379.8
132.6124,501.7
132.6348,19
132.6857,325
132.72,20.4
132.7918,424.6
132.8962,393.6
132.9028,72.3
132.9583,20.5
132.9872,2310.5
133.002,85.7
133.0312,205.3
133.0381,86.7
133.0689,3562
133.0903,18.7
133.0972,25654.1
133.123,102.7
133.2064,151.6
133.2157,342.9
133.2534,100
133.2718,322
133.2848,494.6
133.3401,97.9
133.3711,295.1
133.3801,665.5
133.4033,118.5
133.4074,477.4
133.4264,166.4
133.4526,96.3
133.5612,106.5
133.5633,113.1
133.5738,85.2
133.6802,111
133.7317,519.1
133.7415,17.1
133.7617,181.1
133.7905,98.2
133.8549,589
133.8621,109.6
133.8697,286.5
133.8775,119.4
134.0021,207.9
134.0189,12000.9
134.0762,411.3
134.09,111.7
134.1003,391.8
134.1191,404.5
134.19,602.3
134.2757,91
134.3097,118.8
134.3263,236.7
134.3294,121.5
134.342,208.5
134.4279,429.6
134.4685,18.9
134.5013,204.2
134.5274,89.2
134.5296,631.7
134.7619,142.4
134.8645,320.8
134.8777,116
134.9129,144.9
134.9966,99.2
135.0029,92383.5
135.0094,18.3
135.2402,141.7
135.2667,230.9
135.2956,377.8
135.3945,694.3
135.4861,367.1
135.5349,523.3
135.601,103.2
135.6126,17.6
135.6143,23.8
135.6928,359.7
135.7065,205.1
135.7444,700.4
135.7959,187.3
135.8636,182.5
135.8963,287.8
135.9085,148.8
135.9771,3490.8
135.9817,103
136.0063,1134.3
136.0406,22.9
136.0481,6121.2
136.0591,170.6
136.0758,12582.1
136.1239,224.4
136.1296,158.5
136.2352,175.6
136.2408,128.6
136.2592,341.9
136.2665,495.7
136.2835,122
136.3114,118.9
136.3128,162
136.3179,159.9
136.3575,328
136.3921,17.8
136.4415,104.8
136.482,270.3
136.502,434.9
136.5157,319.9
136.537,101.8
136.5906,20.7
136.6035,478.7
136.6156,18.4
136.6348,109.1
136.6783,17.2
136.7189,506.4
136.7907,165.6
136.7963,329.7
136.931,1065.6
136.9405,485.4
136.9478,110.9
136.9609,776.2
137.0073,337.9
137.0533,654.4
137.055,398.3
137.0596,25.4
137.1212,21.5
137.1546,468.5
137.1929,142.3
137.2888,112.1
137.2944,22.4
137.3159,159
137.3715,198.8
137.3771,121
137.387,288.4
137.4795,20
137.4896,21.5
137.5068,118.6
137.5563,283
137.5659,352.5
137.6599,17.6
137.7042,378.6
137.738,89.8
137.7875,141
137.8419,332.6
137.9464,110.7
138.0526,3752.9
138.0663,55
138.1286,85.2
138.1487,169.2
138.1869,375.8
138.1877,103.9
138.23,310.7
138.2332,21.3
138.2504,669.7
138.2652,382.1
138.3093,696.5
138.3139,149.8
138.3542,100.6
138.523,330.9
138.5923,483.2
138.6006,227.8
138.6198,244.3
138.6299,371.9
138.6509,265.6
138.6628,113.9
138.67,235.9
138.6812,254.6
138.7329,678.6
138.7622,600.7
138.7967,96.8
138.8645,160.2
138.8767,329.5
138.9035,286.9
138.9065,2929
138.9087,21.6
138.9171,122
139.0467,391.9
139.0509,85
139.0946,431.3
139.1238,346.8
139.1383,87.2
139.1737,17
139.302,768.3
139.3137,118.1
139.4052,20.4
139.4096,111.9
139.4515,184.3
139.4534,392.8
139.4693,285.3
139.4861,20
139.5009,181.9
139.5091,463.2
139.6123,123.2
139.6284,394.2
139.6791,497.8
139.6983,658.6
139.8009,426.6
139.8354,228.3
139.8592,93.2
139.8804,18.1
139.8833,153.8
139.9007,420.3
139.9063,107
139.9124,288
139.9901,664.5
139.9964,385.5
140.0079,586.5
140.0165,1438.5
140.031,791.5
140.0683,2803.5
140.1013,113.6
140.1594,133.4
140.3097,208.5
140.3818,179.8
140.4263,246
140.4858,19.7
140.5039,446.8
140.5728,211
140.6192,139.7
140.6646,108.6
140.6989,85.8
140.7444,440.9
140.7536,305.8
140.78,428.1
140.7866,342.3
140.8024,88.9
140.8268,591.6
140.8827,105.6
140.9002,353.1
140.9036,1844.7
140.9076,97.8
140.9499,327.8
140.9688,201.9
141.0005,15784.1
141.008,111.8
141.066,80.6
141.1173,208.1
141.1483,242.6
141.1643,129.9
141.2147,426.3
141.2673,20.5
141.3007,307.1
141.3402,113.7
141.3524,143.1
141.4154,176.9
141.4329,24.7
141.4345,16.7
141.4926,376
141.5067,150.2
141.542,17.6
141.5607,176.8
141.589,193.6
141.6151,398.5
141.6173,296.9
141.7119,432.8
141.7319,99.4
141.7523,329.9
141.7718,463.6
141.7986,398.3
141.8271,86.6
141.8375,449.6
141.8418,475.5
141.881,215.5
141.9538,556.6
141.9579,19.2
141.9997,40.6
142.0039,419.6
142.0179,510.5
142.0405,353.3
142.0498,436.7
142.0737,85.4
142.0881,179.2
142.0905,436.2
142.0922,214.3
142.1268,159.5
142.1527,115.3
142.2566,17.1
142.3212,699.1
142.3355,107.3
142.3573,576.3
142.3626,117.5
142.3642,110.4
142.387,219.7
142.4464,609.8
142.463,344.9
142.4969,144.7
142.5466,632.5
142.7112,286.7
142.7464,519.8
142.758,341.5
142.858,343.9
142.9176,371.9
142.9238,116.1
142.938,146.9
142.9611,187
142.9881,482.9
142.9941,804.8
142.9964,1332.8
143.0047,19.3
143.019,796.3
143.0303,104.5
143.0318,656.6
143.0373,574.4
143.0477,226.1
143.0548,96.7
143.0816,405.3
143.0876,360.5
143.0965,266.4
143.1308,151.7
143.1452,636
143.1735,113.5
143.1813,154.3
143.2252,17.7
143.2693,131.1
143.3114,142.8
143.3972,131.8
143.4267,512.7
143.4343,312.6
143.4533,291.1
143.4617,289.1
143.4848,15.8
143.4886,621.4
143.5142,467
143.6221,281
143.6647,239.9
143.6707,307.3
143.6974,129.5
143.6989,112.5
143.7171,684.2
143.7297,94.6
143.8601,363.6
143.8699,126.3
143.9009,522.5
143.9476,279
143.9738,282.5
143.9855,321.8
143.9895,492.1
143.997,387.7
144.0557,434.2
144.0576,17.1
144.0632,22.4
144.103,252.6
144.1661,18.6
144.1778,371.3
144.1989,447.6
144.2397,112.5
144.3142,904.9
144.3204,108.2
144.3438,300.2
144.3683,160.7
144.4354,375.8
144.444,280.9
144.4939,210.8
144.5007,244.3
144.5475,167.3
144.5814,501
144.5871,19.3
144.5917,126.5
144.6213,119
144.6395,298.2
144.6681,323.5
144.6858,496
144.7267,18.9
144.7695,729
144.7868,234.7
144.867,99.1
144.981,1527.4
145.0262,308.1
145.0578,636.3
145.0768,541.3
145.08,133.7
145.0885,420.2
145.1042,94.6
145.1624,21.4
145.1761,221.9
145.1938,84.7
145.2036,122.7
145.2212,449.9
145.236,185.5
145.2562,153
145.2662,368.9
145.277,445.4
145.2993,101.4
145.4037,225.5
145.455,138.7
145.4591,279.8
145.4632,94.2
145.4746,342.4
145.4842,269.8
145.5108,146.2
145.5873,161.5
145.6241,125.7
145.7579,92.1
145.7807,486.3
145.787,291.6
145.8406,473.3
145.8703,137.7
145.8869,252.9
145.9668,82.9
145.9756,473.2
145.9789,743.9
145.9813,223.8
146.0126,4055.3
146.0189,18271.1
146.027,134.9
146.052,549.8
146.0909,301.9
146.131,351.3
146.1388,97.5
146.1426,375.3
146.1822,18
146.2538,87.1
146.2881,468
146.3047,321.1
146.3087,406.5
146.316,185
146.3426,174.3
146.3519,567.4
146.3672,447.6
146.4131,348.2
146.4239,551.4
146.4393,22.7
146.5193,429.9
146.5199,413
146.5386,698.8
146.58,83.9
146.587,122.4
146.6042,755.5
146.6815,102.4
146.7034,18.2
146.781,18.3
146.7827,444.1
146.8032,427.6
146.8186,185
146.822,106
146.835,398.5
146.8408,104.2
146.861,21.1
146.8788,149.8
146.8848,295.2
146.8926,168
146.9245,407.2
146.9315,212.3
146.9332,22.1
146.952,500
146.9818,90781.3
147.0037,86.7
147.0053,152
147.0649,471.6
147.0765,55961.3
147.1129,23769.1
147.1393,312.8
147.1649,125.7
147.1886,128.2
147.1969,669.1
147.2003,21.8
147.3342,484
147.3368,170.5
147.3425,111
147.3559,22.3
147.3912,127
147.4004,396.7
147.4476,138.1
147.4619,177.4
147.5428,86.1
147.7062,390.4
147.72,104.6
147.8441,85
147.8519,529.3
147.9268,386.8
147.9661,250.4
148.0803,530.3
148.1041,473
148.1199,151
148.1219,465.4
148.164,413.9
148.2431,318.7
148.2941,294.9
148.3361,485.9
148.37,570.1
148.4374,701.9
148.4465,93.1
148.4678,108
148.4728,22
148.4922,101.1
148.5059,19.4
148.5299,657.2
148.5324,1338.1
148.5598,474.3
148.6034,177.8
148.6207,18.9
148.6529,90.7
148.6591,20.5
148.7492,131.3
148.8383,548.8
148.8464,277.2
148.8803,95.9
148.8982,319.7
148.956,102.6
148.9612,3436
148.9863,112.1
148.9895,81.9
149.0027,71.3
149.0187,2779.5
149.0234,5423.9
149.0448,53.7
149.1199,317.2
149.1734,162.7
149.2152,473.9
149.2409,120.2
149.327,613.9
149.3609,399.1
149.3946,114.8
149.5018,115.7
149.5388,457.3
149.5854,18.6
149.6073,402.7
149.6433,87.3
149.6466,111.6
149.6641,386
149.9928,7703.6
150.0139,8269
150.0268,137.8
150.0966,105.1
150.113,153.7
150.1407,352.1
150.1606,80.8
150.2136,109.6
150.2568,20.2
150.2954,97.1
150.3024,240.5
150.3389,327.9
150.3473,223.5
150.4219,20.3
150.4952,111.2
150.5422,132.4
150.5503,338.4
150.58,18.3
150.5894,736.3
150.6359,221.5
150.6387,478.3
150.6897,116.9
150.7633,207.4
150.85,20.1
150.859,335.9
150.8937,250.8
150.9035,20.3
150.9769,66426.5
150.9841,257.2
151.0067,20.7
151.0242,81.7
151.0283,16.6
151.0384,198.1
151.0479,3526
151.0667,99.3
151.0687,155.5
151.0969,121.2
151.1038,655.9
151.1378,91.4
151.1868,129.1
151.222,100.9
151.2278,105
151.2627,105
151.3196,251
151.3297,246.3
151.339,18.7
151.4096,102.8
151.4237,189.6
151.4875,287.9
151.5064,17.2
151.5198,117.4
151.578,167.9
151.624,95.9
151.7589,451.6
151.764,275
151.7685,176.9
151.8392,19.5
151.8917,104.5
151.9178,109.4
151.9511,516.2
152.0117,410.4
152.0221,10137.6
152.032,3314.7
152.0384,102.4
152.0586,225.4
152.0789,108.6
152.1102,421.6
152.1221,406.4
152.1407,18.5
152.1707,102
152.1784,17.9
152.1959,88.1
152.2008,164.7
152.3016,19.3
152.3678,356.4
152.4176,268.1
152.4321,141.4
152.4535,99.3
152.4702,330.7
152.5403,88.7
152.5572,315.6
152.6221,138.1
152.6584,165.6
152.6639,382.5
152.7133,676.2
152.7178,478.4
152.8435,414
152.8444,389.4
152.8496,101.6
152.8724,18.4
152.9258,116.9
152.975,3188.2
152.9787,196.3
153.0207,133.9
153.0517,505.3
153.1242,245.1
153.1508,279.8
153.2042,461.5
153.2354,19.6
153.3254,379.9
153.3617,427.1
153.3786,17.1
153.3962,605.5
153.4024,158
153.4164,159
153.4263,318.4
153.4743,19.6
153.4904,380.1
153.4972,95.8
153.5607,334.3
153.6507,19.4
153.659,107.9
153.8293,105.3
153.873,606.7
153.8751,124.2
153.9066,89.1
153.9588,380.5
153.9691,20.2
154.0111,192.4
154.0526,306.9
154.0595,20.8
154.0656,248.9
154.1907,91.3
154.2034,20.8
154.2645,308.6
154.3352,103.9
154.406,100.6
154.4294,87.2
154.4351,305.2
154.4383,23.4
154.443,329.4
154.4472,120.7
154.5374,141.9
154.573,288.7
154.7307,319.6
154.7735,488.1
154.8019,158.4
154.8116,17.5
154.8566,585.7
154.8809,420
154.9075,132.7
154.935,281.3
154.9426,258.1
154.9605,241
154.9692,373.2
155.0162,18.6
155.0428,3135.7
155.049,251.2
155.054,5904.1
155.0607,302.7
155.0748,201.2
155.0791,3588.1
155.0964,219.4
155.1012,139.2
155.1879,213.7
155.2138,119
155.2204,361.8
155.2499,453.3
155.2839,95.8
155.2863,21.7
155.3839,20
155.3944,92.6
155.5273,516.1
155.5498,131.2
155.5663,89.7
155.6874,527.6
155.7299,103.8
155.7335,276.3
155.7475,560.4
155.8266,123.3
155.8401,499.9
155.8528,20.8
155.8643,108.6
155.9609,189.1
155.9922,491.8
155.9993,540.1
156.0166,118
156.0268,120
156.0422,3106.3
156.0574,90.6
156.0769,40215.7
156.0965,112.3
156.1214,111.4
156.2694,127.2
156.3309,375.5
156.3364,679.6
156.369,383.2
156.3971,92.1
156.4032,694.7
156.4179,111.2
156.5495,19.1
156.6558,444.1
156.658,113.8
156.7409,366
156.7517,19.2
156.7632,255.5
156.7753,257.2
156.817,19.3
156.8194,298.9
156.8296,243.4
156.8462,130.8
156.8614,109.4
156.8748,324.3
156.9242,219.4
156.9341,873
156.9672,88.7
156.9744,64.3
156.9885,930
157.0297,142.7
157.0648,113.4
157.0972,263.5
157.1709,447.3
157.2029,196.4
157.2082,417.5
157.2182,546.5
157.2216,209.3
157.2353,313.6
157.3374,90
157.468,264.4
157.4761,753.9
157.5291,115.4
157.5373,572.3
157.6756,140
157.7081,733.8
157.7457,548.6
157.7563,19.1
157.79,589.3
157.8216,17.6
157.8663,107.5
158.0125,898.4
158.0156,95.2
158.0183,149.4
158.0272,3521.2
158.0651,17.2
158.0905,472.9
158.1451,381.6
158.1736,17.6
158.2227,114.8
158.2277,115.8
158.2505,124.2
158.2585,95.7
158.2752,128.5
158.2946,700
158.3607,81.8
158.3672,748.5
158.3907,155.4
158.4568,316.5
158.4791,88.3
158.4939,424.9
158.5858,762.8
158.617,19.2
158.6881,103.2
158.7464,87.8
158.7474,90.9
158.7823,409.9
158.8818,694.3
158.9276,931.6
158.946,427.5
158.9643,12482.9
158.9966,7881
159.0112,29.8
159.0263,99.3
159.0305,111.1
159.0761,459.8
159.0918,464.3
159.2089,302.2
159.2424,296.1
159.2607,497.8
159.3278,489.7
159.3392,226.7
159.4354,442.1
159.4588,679.6
159.4901,430.7
159.4976,455.2
159.5087,660.6
159.5535,187.3
159.6011,207.1
159.6316,91.6
159.6449,99.6
159.6678,360.8
159.7417,155.5
159.7956,130
159.8103,497.6
159.8701,148.9
159.8742,239
159.884,182.2
159.8993,452.1
159.9355,18.4
159.9565,172.3
159.9696,258.9
160.023,42.3
160.0347,13773.6
160.0606,129576.7
160.1121,431.5
160.1269,459
160.1332,268.5
160.1403,20.5
160.1626,114
160.1713,170
160.2349,100.8
160.3611,130.2
160.3666,90
160.4222,171.7
160.4273,242
160.467,421.7
160.47,17.7
160.4917,148.4
160.5243,16.7
160.5259,16.9
160.5427,20.1
160.8009,398.6
160.8793,400.9
160.9609,435.8
160.9634,18.6
160.9823,470.4
160.9928,451.5
161.0408,98
161.0485,189.3
161.0639,5819.3
161.1283,241.8
161.1327,19.4
161.1852,259.5
161.2348,94.1
161.266,182.1
161.3423,315
161.3469,87.6
161.3997,758.9
161.4708,318.6
161.4854,475.6
161.5104,208.2
161.5336,536.2
161.5408,353.4
161.5441,104.1
161.556,82.8
161.7648,245.1
161.7893,183.7
161.9043,333
162.0503,18724.9
162.0645,230.4
162.0929,633.7
162.1487,441.6
162.1711,228.8
162.1911,786.9
162.201,392.3
162.3105,253.5
162.3511,449.7
162.412,297.1
162.4197,120.8
162.5323,153.9
162.5393,560.8
162.5626,439.4
162.5994,159.3
162.6018,730.7
162.6402,283.7
162.8382,321
162.9558,3098.5
162.9698,20
163.0156,2296.3
163.0325,480.1
163.0332,539.8
163.0426,181.5
163.0698,112.2
163.0757,167.5
163.1103,18.5
163.1682,304.9
163.1702,91.1
163.1923,422.5
163.1986,92.7
163.2131,285.1
163.3187,547.1
163.3446,18.6
163.3754,431.3
163.3777,94.4
163.3905,321.8
163.4756,17.4
163.5288,18.2
163.5946,104.7
163.6027,19.7
163.6213,129.5
163.6357,439.6
163.6383,85.7
163.645,113.1
163.6456,106.8
163.6527,21.7
163.6564,845.2
163.6604,513.7
163.6634,345.2
163.672,18.2
163.9273,112.6
163.9364,470.8
163.9453,185.3
164.0231,215.2
164.0296,12464.6
164.0803,150
164.0989,18.9
164.1008,179.7
164.2335,178.5
164.2555,599.7
164.3105,216.7
164.3214,491.6
164.3655,21.1
164.4177,442.1
164.429,112.8
164.4873,467.6
164.5115,404
164.5533,156.6
164.5595,102.1
164.5705,207.9
164.5832,120.2
164.6151,590.7
164.6181,328.2
164.6396,648.8
164.7005,19.2
164.777,568.2
164.7827,78.7
164.7953,94.2
164.7989,147.8
164.819,134
164.9207,4373.8
164.9302,18001.8
164.9353,1692
164.9926,1818.7
165.0338,104.1
165.0911,1939.5
165.118,300.5
165.1451,89
165.1483,421.5
165.2954,235
165.3724,156.9
165.3814,99.4
165.4598,117.7
165.4616,120
165.4685,91.8
165.5696,583.8
165.6042,312
165.6364,119.5
165.6563,193.9
165.6668,107.2
165.6753,20.6
165.7005,812.7
165.735,92.4
165.7616,86.5
165.7625,91.9
165.8183,170.3
165.8575,125.1
165.9108,374.7
165.9346,149.5
165.9373,23
165.9482,300.3
165.967,1030.4
165.9788,2084.5
165.9879,6017.5
165.9951,59
166.0073,180.2
166.0712,111.6
166.216,448.3
166.2207,141.8
166.3462,690.5
166.3954,101.1
166.4095,465.2
166.4544,181.7
166.4883,99.9
166.4913,86.7
166.5261,327.2
166.5639,89.4
166.6101,104.1
166.6375,227
166.6545,89.5
166.6785,463.8
166.7069,328.6
166.728,18.2
166.7687,93.6
166.7869,724.9
166.8004,93.8
166.9387,457
166.9509,23589
167.0219,4816.9
167.027,262
167.0486,363.7
167.0685,98.8
167.0729,383.2
167.1296,138.1
167.1669,106.8
167.1712,593.9
167.2521,137.2
167.2626,456.2
167.2745,270.8
167.3107,20.3
167.3285,620.8
167.3387,96.7
167.3856,474.5
167.3972,123.1
167.3992,456.9
167.4151,281.1
167.5359,449.1
167.5862,654.9
167.6031,235.4
167.6453,208.8
167.8454,106.3
167.9034,326.6
167.9508,132.3
167.9728,100.5
167.9946,3692.1
168.0059,389.9
168.0162,487.9
168.0198,88.7
168.0238,137.6
168.1488,441.4
168.1621,100.8
168.1785,118.1
168.194,98.8
168.2,259.6
168.2304,423.5
168.275,648.6
168.4588,18
168.6506,167
168.7099,115.1
168.8088,167
168.8887,124.8
168.9019,634.8
168.949,1686.5
168.9894,17.4
169.0385,620.1
169.0585,51184.7
169.065,430.3
169.0947,794.4
169.0977,622.3
169.1184,19.6
169.1297,21.6
169.1809,94
169.2386,105.6
169.3254,21
169.3496,103.7
169.4241,112.3
169.4334,169.2
169.4562,124.4
169.5377,100.4
169.5491,453
169.6117,164.2
169.6417,289.4
169.6915,481.5
169.7241,282.3
169.7978,94.6
169.8238,17.2
169.8442,114.9
169.8638,119.9
169.9705,18.6
169.9861,2325.1
170.025,317.7
170.0619,361.5
170.0925,2229.6
170.109,107.1
170.118,84.2
170.1346,125.5
170.1498,112.3
170.1801,435.8
170.2194,151.2
170.2445,472
170.3474,719.1
170.364,112.5
170.4358,92.5
170.5508,258.9
170.5667,440.9
170.5797,133.5
170.651,126.9
170.7714,460.7
170.8362,102.9
170.8545,5687.5
170.8973,666
170.9085,579.6
170.9231,20
170.9255,194.8
170.943,317.4
170.9635,110
170.9818,129.3
170.9902,556.5
171.0168,1027
171.0281,578.8
171.0849,110.6
171.1055,137.5
171.1393,112.4
171.1512,151.1
171.1759,383
171.1939,677
171.2348,168.8
171.2388,169.3
171.2661,154.8
171.2856,228.5
171.3173,141.9
171.3672,441.3
171.376,151.8
171.4142,264.5
171.4941,329.9
171.5145,257.1
171.5208,164.5
171.6342,302.6
171.6564,274.3
171.7444,142.9
171.7531,167.1
171.8176,111.2
171.833,150.5
171.9747,116.2
172.0081,119.3
172.0284,633.3
172.0392,143.8
172.0414,97.4
172.0917,100.8
172.1629,100.7
172.1726,107.8
172.2977,99.6
172.3343,305.8
172.3381,299.1
172.3554,518.3
172.3694,126.1
172.4022,376.2
172.4351,137.5
172.4527,18.9
172.4729,153.9
172.4853,471.4
172.575,260.2
172.5795,102.3
172.6009,96.4
172.6028,471.4
172.6221,17.6
172.6814,603.6
172.7253,261.4
172.745,127.9
172.7969,442
172.8381,161.4
172.8402,258.8
172.8483,202.2
172.8516,3087
172.8767,202.9
172.9559,95.7
172.9673,695.6
172.9737,106.5
172.976,305.7
173.027,288.5
173.0299,1460.8
173.1723,344.2
173.2094,213.3
173.2414,116.1
173.2532,313.3
173.2839,106.3
173.3451,102
173.3698,322.8
173.4118,109.9
173.421,306.6
173.4284,94.7
173.5406,449.7
173.5629,372.7
173.6114,138.5
173.6192,89.1
173.6516,105.7
173.8045,446.9
173.8523,88.4
173.8661,305.4
173.873,19.6
173.9294,20
173.9641,272.9
173.9979,217.8
174.2274,94.5
174.2402,188.4
174.3217,596.4
174.3299,20.2
174.3428,440.4
174.4913,389.9
174.5019,122.1
174.593,98.1
174.5981,100
174.6186,94.3
174.7133,280.8
174.7282,288.5
174.7316,387.5
174.742,282.8
174.7795,109.5
174.7927,231.7
174.8015,100.2
174.8672,169.3
174.9383,5321.5
174.9853,23.4
175.0149,473.9
175.0344,8062.1
175.0375,19.5
175.0455,3450.7
175.0845,185.2
175.1192,82789.7
175.2997,337.5
175.3055,118.9
175.3883,110
175.4293,100.2
175.4523,172.6
175.4565,19.9
175.4583,385
175.518,237.7
175.5703,218.3
175.5961,20.7
175.6538,19.1
175.6611,138
175.6943,120.2
175.7122,489.7
175.8289,775.2
175.8362,412.1
175.8669,148
175.9063,271
175.9077,539.1
175.9226,17.5
175.9817,631.7
175.986,17.8
176.0086,6660.6
176.066,30123.5
176.0827,239.6
176.0869,20.5
176.103,1426.1
176.1226,914.8
176.2457,157.5
176.3012,308.7
176.5084,644.5
176.5266,401
176.6024,192.7
176.7242,430.7
176.8101,19.2
176.815,149.2
176.8173,20.3
176.8346,90
176.9574,216.2
176.9879,113.4
176.9927,1769.7
177.0177,273.8
177.0249,5846.4
177.0284,464.2
177.0368,20.2
177.0613,14860.2
177.0684,20.6
177.0872,2261.2
177.1219,111.8
177.1451,709.9
177.148,129.7
177.3553,620.9
177.3916,341.6
177.4371,125.8
177.4955,103.2
177.5071,197.4
177.5237,295.3
177.5487,161.5
177.612,188.8
177.6478,105.9
177.6948,280.2
177.7164,146.5
177.9485,125.4
177.9711,23.1
177.9844,85.3
178.0089,9698.2
178.0243,11731.7
178.0589,5440.5
178.0625,162.9
178.0826,150.4
178.098,308.5
178.1636,164.6
178.2071,212
178.2225,21.6
178.2563,238.7
178.2783,102.2
178.3816,240.5
178.3914,16.9
178.3994,159.9
178.4922,102.8
178.6784,682.2
178.7865,85.4
178.8142,271.4
178.8882,319.6
178.9057,215.5
178.9224,457
178.96,369.7
178.989,20.9
179.0184,17.3
179.0644,18.2
179.0702,366.5
179.116,17.9
179.1339,175.7
179.1779,706.2
179.1996,325.5
179.3074,89.2
179.3332,97.2
179.3511,330.6
179.36,107.5
179.3866,230.7
179.4805,453.6
179.5292,108.8
179.5449,221
179.5588,905.9
179.7412,478.4
179.7857,361.9
179.8184,16.7
179.8457,229.9
179.9516,399.9
179.9697,521.7
180.0035,10183.4
180.0626,19
180.0902,281.7
180.1927,748.3
180.3516,19.5
180.4077,371.3
180.4617,198.8
180.5583,540.7
180.5831,82.1
180.6473,115.4
180.6608,317.2
180.8048,102.3
180.8201,633.5
180.8651,102.6
180.8892,27.7
180.8947,2371
180.9042,9684.8
180.9167,111.3
180.9577,1108.5
181.0167,267.2
181.065,8711.4
181.2628,23
181.3408,211.9
181.3584,23
181.3636,341.7
181.4332,213.7
181.4702,633.4
181.4804,294.8
181.5426,337
181.594,84.2
181.6785,582.9
181.7185,489.1
181.7259,18.2
181.813,435.1
181.8274,22.8
181.8669,20.6
181.8846,142.6
181.9197,162.9
181.9563,99
181.962,406.2
181.9693,107.2
181.984,472.6
182.0017,300.7
182.0157,22.3
182.0258,119.7
182.0394,188.6
182.0426,33504
182.0875,91
182.1849,495.4
182.2058,485.5
182.2077,17.7
182.2519,156.7
182.5946,116.7
182.7193,100.4
182.7277,121.5
182.8296,246.5
182.9026,94.9
182.9257,17.1
183.0191,487.1
183.0445,1836.3
183.0798,141
183.1117,229.3
183.1285,686.7
183.1706,384
183.195,193
183.2237,112.9
183.2758,233.1
183.2805,153.5
183.3224,497.7
183.3321,108
183.3646,444.9
183.4353,451.4
183.5539,346.9
183.5578,314.1
183.5601,118.1
183.673,241.6
183.8707,171.1
183.9085,313.9
183.9649,1175.2
184.0086,264.3
184.0138,113
184.024,190.1
184.0372,2014.3
184.0607,144.1
184.0645,929.3
184.0668,2200.6
184.0736,4254465.5
184.0792,1312.9
184.0817,1369.4
184.0944,730.7
184.1096,875.2
184.1824,1326.2
184.293,18
184.4736,83
184.5108,111.3
184.5237,152.5
184.5365,120
184.6582,509
184.6734,20.9
184.8262,232.8
184.8508,413.1
184.8787,581.5
184.9277,300.4
184.9535,520.9
184.9572,245.2
184.9629,187.3
184.9915,344.5
185.0206,461.3
185.0241,215
185.0325,61528.5
185.0705,13237.8
185.0769,194241
185.0796,4041
185.0998,96.8
185.134,90.7
185.1567,102.1
185.1654,121.4
185.1769,21.4
185.1836,107.9
185.2647,212.7
185.2735,97.9
185.2842,105.5
185.4053,598.3
185.4128,170.7
185.4233,379.9
185.4257,156.7
185.571,309.8
185.5881,17.5
185.6615,207.2
185.6684,116.6
185.6806,100.1
185.7543,135.8
185.8057,156.1
185.8431,312.9
185.8513,113.8
185.8823,279.9
185.913,101.1
185.9599,1519.1
185.9984,731.7
186.0357,1176.6
186.0597,17
186.0778,27322.9
186.0914,259.4
186.1067,137.2
186.1609,676.1
186.1695,151.2
186.2127,326
186.2157,17.7
186.234,410.3
186.2694,504
186.2868,472.6
186.3317,441.7
186.3436,109.5
186.3458,177.8
186.3503,110
186.3573,98.4
186.3622,82.2
186.4421,315.8
186.4539,560.7
186.5943,100.2
186.5973,671.6
186.7786,460.8
186.785,17.2
186.8123,352.4
186.9122,4228.3
186.9609,211.1
186.9646,92.2
186.9703,829.2
186.9733,18.2
186.9909,321.3
186.9983,102.5
187.002,159.8
187.0145,116.9
187.0308,1757.4
187.0372,380.1
187.0459,199.4
187.0579,9919.6
187.0715,3113
187.0943,251.5
187.0997,163.9
187.2172,20.6
187.2308,425.8
187.3811,427
187.3987,103.4
187.4021,193.1
187.5106,127.7
187.5366,19.8
187.5582,86.9
187.7357,118.4
187.7519,171.6
187.7666,458.6
187.8572,140.9
187.9024,141.9
187.9077,87.1
187.9568,220
188.0182,102
188.0683,259.5
188.0795,135.2
188.3755,162.7
188.3824,92.3
188.4158,98.3
188.4538,109
188.4816,229.8
188.5251,660.8
188.7609,105
188.7952,17.8
188.8878,365.9
188.9217,154.9
188.9349,207.8
188.945,656.1
188.9588,647.7
189.0039,518.8
189.0151,316.6
189.0197,262.3
189.0612,2519.4
189.0872,10553
189.1199,268.8
189.1235,969.6
189.1292,265.8
189.1703,704.9
189.4022,208.2
189.4064,451
189.4499,124.9
189.4571,97.6
189.5092,226.4
189.5671,102.6
189.6016,219.8
189.7162,476.3
189.8044,104.4
189.9043,140.4
189.9899,89.2
190.0345,107.4
190.0989,149.8
190.1141,20.9
190.2521,329.4
190.3298,162.2
190.3501,325.1
190.4254,87.3
190.4767,161.5
190.5467,97.6
190.6423,413.2
190.67,263.3
190.7127,330.5
190.7718,133
190.777,109
190.7854,21
190.8027,132.7
190.8968,205.2
190.9071,99.1
190.9122,1786.2
190.9445,100.4
190.956,100.9
190.9717,385
191.0084,6337.4
191.0293,107.5
191.0318,281.8
191.0364,102.8
191.0406,158746.1
191.077,22956.8
191.0989,314.4
191.1071,103.2
191.1656,18.8
191.2173,214.8
191.2234,104
191.284,369
191.3572,149.4
191.3618,368.6
191.3733,137.3
191.4312,87.8
191.4711,18.8
191.5584,653.2
191.5814,299.2
191.6171,20.8
191.688,163.3
191.6981,106.2
191.7381,358.3
191.7406,87.2
191.7646,88.2
191.8722,18.3
191.8832,127.2
191.9239,247.1
192.0121,327.8
192.04,16629.7
192.0439,5332.2
192.1583,153
192.1596,158.7
192.1971,126.8
192.2262,670.6
192.2659,227.9
192.272,140.6
192.3677,713.1
192.447,428.1
192.5345,126.5
192.5574,18.3
192.6449,122.7
192.6965,237
192.7158,199.7
192.7411,218
192.7922,20.6
192.8662,350.6
192.8938,155.5
192.9619,436.9
192.9667,377.6
192.9864,130.9
192.9988,4717.1
193.0083,163.1
193.0353,7039.8
193.0432,451.9
193.141,222.2
193.2065,153.9
193.2717,501.4
193.2798,18.9
193.305,504.5
193.4952,291.7
193.5664,468.7
193.685,130.3
193.696,158.8
193.732,179.9
193.7531,135.7
193.7929,116.1
193.8408,116.4
193.847,90.5
193.8745,117.8
193.983,255.5
193.9983,1506
194.0328,1804.5
194.0383,390.3
194.0434,99.8
194.079,297.1
194.1257,480.4
194.1413,106.3
194.1543,236.4
194.1697,663.5
194.2322,291
194.2543,104.7
194.2674,318.3
194.2704,725.6
194.3017,682.7
194.3804,107.8
194.4363,18.7
194.4871,204.2
194.4978,19.6
194.5563,169.4
194.5751,107.5
194.6102,315.8
194.6132,316.8
194.6266,214.1
194.7567,18.4
194.9198,105.1
194.9413,420.8
194.957,519.4
194.9583,410.6
194.9614,361.5
195.0223,353.9
195.0249,225.8
195.0458,794.3
195.11,241
195.2022,27.7
195.2329,366.5
195.2359,255.6
195.2409,486.4
195.2708,346.5
195.2786,290.8
195.3659,109.3
195.4839,354.9
195.5051,239.3
195.5175,18.2
195.5299,282.3
195.7067,20.1
195.7097,110.7
195.7403,90.9
195.8371,253.3
195.8415,403.2
195.8654,462
195.9229,311
195.9586,465.9
195.9776,435.1
195.9963,412.1
196.0795,80.3
196.1163,703.6
196.1698,572.8
196.2266,19.9
196.2406,140
196.3108,129.5
196.4605,154
196.645,385.2
196.7948,337.7
196.8077,466
196.8654,7330.9
196.8687,707.5
196.8782,2694.3
196.9015,352.5
196.9586,265.7
197.0267,344.6
197.073,87.1
197.091,17.8
197.1009,1483.2
197.1272,438.8
197.1295,168.8
197.1795,130.2
197.1927,498.4
197.2215,408.6
197.2244,117.9
197.2939,92.5
197.2996,18.1
197.4086,119.1
197.4186,21.9
197.4291,374.3
197.4343,370.2
197.4401,18.1
197.4645,17.4
197.4688,154.9
197.4929,418
197.5233,404.8
197.5412,192.5
197.5685,737.7
197.6543,542.6
197.7143,407.7
197.7762,365.2
197.7823,622.1
197.926,113.1
198.0077,19
198.0852,5507.6
198.1266,485.4
198.1533,86.9
198.1855,6066.1
198.2002,716.5
198.2105,372.8
198.2731,547.7
198.3984,297.8
198.4206,111.7
198.5504,88.3
198.6093,20.4
198.6441,212.9
198.8624,7646.2
198.87,17.3
198.9312,110.6
198.9361,224.8
198.9709,125.7
198.974,87.9
199.0396,265.7
199.0691,196.5
199.0757,2290.9
199.0805,166.8
199.0943,301.4
199.1107,141.2
199.1192,100.4
199.1762,768.4
199.1795,320.8
199.1889,239.5
199.211,422.6
199.2426,101.7
199.2761,353.4
199.29,598
199.3093,219.2
199.3302,371.4
199.3514,418.9
199.3671,651.9
199.5703,219.7
199.7615,401.8
199.783,120.4
199.7873,851.2
199.7935,172.1
199.8091,462
199.8191,793.7
199.8414,108.7
199.8559,189.5
199.865,360.8
199.8799,426
199.9125,102.7
199.9152,264.7
199.9579,128.6
199.9626,139.4
199.9695,146.6
199.9788,506.2
199.9815,791.6
199.9909,28903.2
200.0105,464.1
200.0129,138.5
200.0409,17772.7
200.0615,7333.9
200.0647,5768.5
200.0851,194.5
200.0996,102.4
200.187,113.1
200.3191,476.7
200.3246,539.5
200.3742,142
200.465,459.8
200.4833,20
200.6031,200.2
200.7424,339
200.8128,130.6
200.8595,471.6
201.0548,610.9
201.0872,525.3
201.1234,214
201.1904,114.6
201.2099,299.4
201.2296,459.2
201.4034,397.3
201.4544,319.3
201.5206,294.1
201.6772,314.1
201.7464,185.3
201.7764,135.2
201.8584,501.8
201.9509,237.3
201.9982,20.1
202.0907,19.6
202.1088,611.9
202.1274,271.8
202.2055,104.6
202.2235,502.3
202.3387,286.3
202.3666,296.1
202.4495,14268.4
202.4925,473
202.5151,421.8
202.5326,507.2
202.729,115.8
202.7938,91.5
202.886,549.6
202.9537,92.1
202.9779,610.7
202.9954,26.4
203.0285,86
203.0322,4595.6
203.0529,1166050.4
203.077,7008.2
203.0848,170.6
203.1778,338.5
203.1927,104.7
203.2472,146.4
203.3059,316
203.3282,579.5
203.3513,717.7
203.476,20.2
203.5319,94.1
203.5541,89.6
203.5768,18.2
203.5936,433
203.6247,241.8
203.6921,450
203.7162,395.8
203.7409,21.3
203.8212,178.6
203.8327,457.8
203.8557,442.5
203.8985,113.8
203.941,332.6
203.9458,67.8
203.971,462.3
203.9726,572.7
203.9736,481.5
204.0246,42494.5
204.0425,493.5
204.0563,61922.5
204.063,411.9
204.0871,732.1
204.2085,81
204.2394,91.9
204.2577,629.4
204.3719,645.2
204.5,266.2
204.5294,331.1
204.5541,707.8
204.5685,318.7
204.6309,113.2
204.6649,19.2
204.7385,452.8
204.796,124.4
204.8263,147.4
204.8807,237.3
204.8896,632.9
204.9452,907.4
204.9726,165.1
204.9872,112.4
204.9961,300.6
205.0022,506.3
205.016,96.9
205.0279,317.8
205.0573,10304.1
205.0686,526.4
205.0838,126.1
205.0976,717.3
205.1547,193.4
205.1769,359.4
205.3218,93.6
205.5407,176.1
205.632,170.6
205.6456,123.9
205.6756,107.4
205.6879,96.9
205.7605,781.1
205.7985,258.8
205.8038,181.6
205.895,18.2
205.9015,93.9
205.9298,94.5
205.9721,247
205.9992,126.6
206.0555,1592.9
206.1241,312.3
206.1804,221.4
206.2089,368.8
206.2868,103.7
206.3153,303.5
206.4215,20.6
206.4744,521.8
206.4786,227.2
206.6641,697.5
206.8401,281.8
206.8453,117.1
206.8751,247.6
206.8942,19235
206.9037,742.1
206.9128,555.6
206.9734,420.2
206.9824,4021.9
207.0146,109113.5
207.0353,419
207.0444,2927.2
207.0509,11817.8
207.065,18.3
207.1267,436.8
207.142,19.5
207.1649,142.6
207.1972,88.4
207.2553,177
207.4905,140.5
207.5526,280.9
207.561,425.6
207.5745,101.7
207.6946,191.2
207.7838,282.7
207.7874,206.4
207.8213,397.8
207.8289,107.3
207.934,411.9
207.9851,85.5
208.0062,535.3
208.0083,19.4
208.014,2576.6
208.0179,4222.3
208.0269,266.3
208.0405,506.2
208.0536,652.6
208.0918,92.3
208.1149,661.5
208.1235,164
208.1649,310.6
208.1748,109.3
208.1964,310.9
208.2356,20.8
208.2494,23
208.3225,17.7
208.419,125.1
208.485,369.1
208.572,435.9
208.6885,16.3
208.747,85.3
208.7635,21.2
208.7975,307.1
208.8561,18.7
208.8623,254.8
208.8667,17.7
208.8789,424
208.8833,63.2
208.8913,10247.1
208.9358,975.4
208.955,23.4
209.0127,5016.8
209.0273,376.3
209.0974,338.4
209.1342,751.7
209.1842,137.9
209.1897,521.5
209.2155,169.8
209.2427,264.4
209.335,93.3
209.462,467.5
210.2116,19.9
210.3584,16.7
210.6775,332.8
210.6855,483.7
210.692,260.2
210.7479,488.1
210.779,142.7
210.8484,296.2
210.8885,1040.3
211.0536,380
211.0569,397.7
211.0607,441.8
211.0655,18.2
211.0692,1549.6
211.12,2190.1
211.1227,3379.4
211.1349,16070.5
211.139,19687.3
211.1408,17940.4
211.1475,14640.7
211.1507,14308.9
211.1526,13505.4
211.1562,4097.3
211.1661,118.9
211.2013,94.8
211.2477,438.9
211.3556,526.1
211.5004,214.3
211.5302,18.4
211.5725,470.3
211.6102,104.7
211.6409,446.5
211.6495,91
211.687,97.6
211.9862,171.8
212.0449,19.4
212.0742,99.7
212.0986,93.3
212.1463,109
212.2855,176.9
212.3207,195.6
212.3491,178.2
212.4945,182.5
212.5076,246.8
212.5339,162.6
212.6787,688.9
212.7962,459.5
212.8394,3591.4
212.8554,206.9
212.8753,82.7
212.9083,109.2
212.9262,184.5
212.9604,406.6
212.9709,332.6
212.9789,547.5
213.0549,1160.7
213.0752,917.4
213.1581,104.9
213.1929,18.5
213.2047,578.8
213.2152,115.4
213.2233,96.7
213.2641,660.9
213.3418,462
213.4032,178.4
213.5061,91.8
213.5175,414.6
213.5515,497.1
213.5968,17.5
213.6085,655.8
213.6422,210.4
213.6888,286.3
213.7968,21.7
213.9622,66.6
213.9849,502.6
214.0065,666
214.0592,8634.9
214.09,799.9
214.1234,101.2
214.2985,17.9
214.4163,21.9
214.4576,16.9
214.6385,248.3
214.8365,3600.5
214.8873,238.2
214.9179,197.3
214.956,146.4
215.0037,550.2
215.0242,724.1
215.0933,57.6
215.1039,145.3
215.1497,98.1
215.1624,477.3
215.1906,275.6
215.2903,99
215.3239,679
215.3575,123.3
215.4341,16.8
215.4577,111.5
215.4699,92
215.5482,93.9
215.606,25.6
215.6146,19.2
215.6931,189.1
215.7671,217.7
215.7789,295.6
215.8286,246.2
215.8539,476.9
215.8706,114.6
215.8959,100.9
215.9089,352.7
215.9104,420.6
215.9113,415.1
215.9861,157.2
216.0064,196.8
216.015,11589.5
216.0325,101.4
216.1029,508.6
216.1086,99.6
216.1131,98
216.1608,97.7
216.1907,427.3
216.2028,117.7
216.2686,217.7
216.3775,754.9
216.3937,438.2
216.4347,92.4
216.4742,16.8
216.6615,645.9
216.6652,21.3
216.7011,239.9
216.7192,163.7
216.8013,179.1
216.9231,52231.9
216.9762,333.9
216.9809,101.3
216.9846,42.5
217.001,158.6
217.0226,427.3
217.0279,34.9
217.056,212.8
217.0958,575.7
217.1331,169
217.1593,481.7
217.2744,256.2
217.3159,19.4
217.42,20.8
217.4269,547.3
217.4385,663.5
217.5809,307.7
217.6102,226.9
217.6724,99.3
217.6763,100.6
217.7822,237.3
217.9817,115
218.0154,97.3
218.0454,20.6
218.0587,168.4
218.1097,342.9
218.1195,772.1
218.1428,206.2
218.1517,58.9
218.1606,109.4
218.165,320.6
218.1797,89.7
218.1847,364.4
218.2103,687.5
218.3422,158.6
218.3725,172.4
218.4097,19.8
218.4159,683.2
218.4634,203.3
218.5423,17.6
218.6473,228.5
218.6569,223
218.8183,333.7
218.8786,163.9
218.9023,84.8
218.9201,13950.6
219.0128,320.7
219.018,723.7
219.0269,1388309.5
219.0477,26.1
219.0739,329.2
219.0832,12370.7
219.137,157.1
219.2275,112.6
219.2687,151.1
219.4537,321.5
219.5104,344.1
219.6002,530.4
219.6346,20.3
219.6739,112
219.7267,110.5
219.8243,333.9
219.8306,111.5
219.8499,20.6
219.9286,297.2
219.9582,189.2
219.9987,530
220.0302,73215.6
220.0373,1074.6
220.0671,9678.8
220.0805,354.3
220.1143,174.8
220.132,92.3
220.1449,197.2
220.1592,107.8
220.1676,394.1
220.2962,393.7
220.3056,97.4
220.4148,112
220.4908,130.3
220.4962,19.4
220.6587,115.5
220.6765,22.5
220.7011,112.3
220.7276,175.3
220.7945,177.5
220.8164,394.9
220.8427,356.2
220.9148,207.9
221.0184,125.3
221.025,84107.4
221.0311,10363.5
221.051,933.2
221.0845,323.9
221.0885,303.6
221.0925,254.5
221.1275,305.5
221.145,443
221.1621,95.6
221.4429,102.8
221.453,325.7
221.4578,105.8
221.4672,115.2
221.5161,254.8
221.5678,453.2
221.5947,163.7
221.6644,101.3
221.7524,18
221.921,535.5
221.9564,186.3
221.9839,1915.8
222.0283,2382.3
222.053,96.7
222.0899,320.9
222.1448,314.8
222.1705,691
222.2252,233.8
222.277,412
222.4847,261.6
222.5326,292.3
222.5638,286.6
222.6673,19.9
222.6931,437
222.7948,285
222.8214,725.3
222.8682,17900.7
222.8793,934.4
222.889,282.2
222.9886,14301.7
223.0026,19.6
223.0249,1372.8
223.0375,1608.1
223.0538,246.1
223.0572,19
223.0669,117.7
223.1202,144.1
223.1815,156.9
223.2263,275.1
223.285,716.2
223.3922,122.2
223.3957,136.1
223.5562,188.4
223.8148,159.3
223.844,466.7
223.864,19.2
223.9538,23.2
223.9814,288.3
224.0299,495.9
224.0669,323.8
224.0995,153.8
224.1611,463.2
224.3211,898.5
224.3844,148.4
224.4074,320.3
224.4371,267.1
224.4491,102.9
224.5681,119.9
224.6016,19.4
224.7492,443.9
224.8651,10590
224.9419,462.2
224.9544,20.7
224.9865,467.8
225.025,675.3
225.033,100.4
225.055,25434.6
225.085,496.4
225.1129,962.4
225.1186,358.8
225.1792,294.4
225.336,119
225.3503,101.4
225.3735,185.3
225.4167,18
225.4755,303.8
225.5662,221.5
225.6147,108.4
225.6788,173.7
225.7065,374.8
225.8286,154.4
225.866,121.4
225.9528,24.7
225.9913,985
226.0022,138.3
226.0064,1726.8
226.0142,417.2
226.0244,13196.5
226.0454,13580.2
226.1151,313.6
226.2425,113.5
226.2729,110.6
226.329,155.8
226.371,320.6
226.4474,197.7
226.5619,149.2
226.6477,178.7
226.7742,247.3
226.8678,165.6
226.895,390.4
226.904,385.4
226.9383,121.4
226.9519,48291.8
226.9809,120
227.0342,416.1
227.0602,123.2
227.0796,976
227.0868,388.5
227.1376,126.9
227.3021,117.5
227.351,148
227.408,113.4
227.4913,19.9
227.5009,88.5
227.5088,347.5
227.5916,725.3
227.6294,329.2
227.6469,114.1
227.6883,222.7
227.7612,20
227.8122,354.5
227.9554,779.6
228.0006,318.6
228.0178,404
228.0223,842.5
228.0659,20.6
228.1881,21.1
228.257,89.9
228.2674,455.7
228.3856,275.5
228.4048,101.4
228.5513,451.5
228.6068,250
228.6262,117.2
228.6449,174.1
228.7217,260.3
228.7326,142.2
228.8134,1406.6
228.8541,443.1
228.9776,90.8
228.9961,261.9
229.0032,22.1
229.0418,132.6
229.0493,693.9
229.1064,117.2
229.1185,791.5
229.1474,462.9
229.1929,19.4
229.2904,131.3
229.3402,158.8
229.3409,155.4
229.432,472.5
229.4967,432.9
229.574,232
229.6694,248.4
229.7716,394.8
229.8241,130.4
229.8313,136.8
229.8593,21.7
229.9572,379
229.9773,118.4
230.0194,114.6
230.0336,255.9
230.1033,528.6
230.1873,103.8
230.2629,155.1
230.3084,205.6
230.3697,287.9
230.3929,238.9
230.4812,105.5
230.6024,547.7
230.6241,305.6
230.6995,164.5
230.8656,21.1
230.9225,622
230.9612,20.3
230.9908,104.3
231.0373,147.1
231.0563,268.3
231.1167,171.7
231.2844,93.2
231.2906,16.2
231.3333,449.1
231.3665,143.2
231.5159,101.4
231.6147,84.9
231.657,720.3
231.7047,502.4
231.7078,20.9
231.7234,171.9
231.9699,185.3
231.9955,315.9
232.0698,131.4
232.1499,215.1
232.214,18.4
232.2366,311.6
232.3431,417.3
232.3734,21.5
232.3765,99.1
232.3819,487.9
232.4125,821.4
232.4705,181.1
232.4876,162.7
232.6119,23.3
232.8169,102.4
232.897,45982.2
232.9166,595.7
233.0512,8350
233.1464,177.1
233.1544,362.6
233.3898,18.1
233.4172,241.5
233.4511,19.4
233.548,101.5
233.5743,559.3
233.597,139.9
233.6834,223.7
233.7059,420.9
233.7112,225.1
233.7815,128.4
233.8627,116.9
233.9046,744.2
234.0034,123.9
234.0498,94
234.2683,170.6
234.2806,308.2
234.2994,130.5
234.3643,162.2
234.4525,434.3
234.5726,90.6
234.6125,611.9
234.6203,615
234.6808,123.7
234.7605,189.3
234.8342,265
234.894,11537.3
234.9631,315.3
234.9818,4171.7
235.0571,6559.2
235.0669,1510.1
235.0929,28666.5
235.1562,363.5
235.3089,114.2
235.4439,478.8
235.5367,99.8
235.6145,105.1
235.6246,114.4
235.7443,20.5
235.8113,156.8
235.9405,369.6
235.9459,316.5
235.97,726.5
235.9857,512.4
236.0413,5979.7
236.0493,88.1
236.072,41448
236.096,959.1
236.2386,454.6
236.4063,388.7
236.4438,17.9
236.7588,525.2
236.8007,547.9
236.8015,561.6
236.8034,312.4
236.8919,370.2
236.9593,1034.2
237.0709,69.6
237.0753,1384.9
237.1515,85.2
237.161,426.2
237.289,198.9
237.3255,181.1
237.3567,87
237.4043,562.6
237.5258,423.6
237.6882,90.3
237.7016,112.2
237.7804,133.4
237.7953,246.9
237.8117,259.5
237.8533,690.8
237.867,155
237.9356,807.1
238.0174,608.3
238.0678,696.6
238.0774,39.4
238.1287,20.9
238.1424,627.4
238.5356,463.4
238.5524,517.5
238.7911,280.3
238.8421,6536.4
238.863,390.2
238.8957,112.1
239.0099,210.2
239.0414,20
239.0481,125.1
239.0507,218.7
239.0638,371.7
239.068,732.6
239.0894,650.2
239.0956,109.5
239.1237,226.2
239.2041,750.6
239.2857,541
239.2923,757.4
239.3721,164.6
239.4937,484.5
239.6206,390.7
239.6604,722.1
239.7581,149.7
239.7799,235.6
239.7854,368.6
239.8743,560.1
239.877,530.3
239.909,286
240.093,622.8
240.1,1651.3
240.1049,488.8
240.1619,174.3
240.1682,463.8
240.2337,103.1
240.2495,84.2
240.2758,175.2
240.3315,483.1
240.3939,392.7
240.4108,111.7
240.4276,418.1
240.578,18.7
240.5798,22
240.8393,3109.1
240.8861,553.8
240.9143,145.4
240.9339,126
240.9549,2191.5
240.9676,1991.5
240.9869,513.4
241.0089,978.5
241.018,146.2
241.1124,517.3
241.3025,537
241.3136,479.4
241.325,219.6
241.4191,243
241.5394,577.8
241.5507,314.8
241.5945,260.7
241.6108,21.8
241.6458,454.6
241.6819,318.6
241.7821,123.8
241.8375,116.5
241.9708,22.5
241.9796,44.3
241.9984,3934.9
242.0193,6673.4
242.1604,797
242.1712,410.7
242.1896,113.8
242.1992,649.5
242.3453,111.9
242.3752,369.3
242.4094,333.2
242.6216,21.5
242.6546,18.8
242.7856,536.5
242.8943,95
242.9259,26762.8
243.0534,6769.5
243.0656,9472.8
243.0835,97.1
243.1753,97.9
243.2408,515.2
243.4005,342.8
243.4167,487
243.5073,110.2
243.6145,171.5
243.617,198.8
243.8113,326.2
243.9731,195.1
244.0066,586.2
244.0128,349.7
244.0489,21.3
244.1166,379.4
244.2527,375.3
244.259,19.3
244.2852,157.6
244.4029,119.1
244.4742,271.5
244.5022,92.6
244.5645,452.5
244.6727,735.5
244.6757,91
244.7759,382.9
244.7863,651.1
244.8709,9896.3
244.9241,1095.2
245.0094,326.4
245.0448,478.7
245.1635,769.9
245.1976,670.6
245.3796,99.4
245.3966,21.4
245.4036,324.1
245.4428,23.7
245.4793,108
245.5446,115.9
245.5784,696.1
245.6428,339.4
245.8113,493.2
245.9688,86.9
245.9891,682.2
246.0015,270.4
246.0109,46.3
246.0941,240.2
246.1433,510.8
246.2253,20.2
246.2529,132.6
246.2908,366
246.3243,18.7
246.3494,513.4
246.4444,17.5
246.7093,99.5
246.7841,448
246.8877,232
246.8951,16
246.9257,330.7
246.9748,321.6
246.9907,97
247.0495,102.2
247.0559,102.3
247.0671,1762.4
247.0764,18.3
247.0849,249.1
247.0928,7378.1
247.1279,592.2
247.1728,110
247.4226,790.9
247.4556,19.3
247.488,20.9
247.4922,360.7
247.584,111.8
247.7572,199.7
247.7739,190
247.7933,373.3
247.8073,367
247.8786,353.4
247.8919,237
247.8955,114.7
247.9227,117.6
247.9718,569.6
248.0964,195.3
248.1041,111.9
248.1245,21347.6
248.1882,129.4
248.2835,348.2
248.4843,751.8
248.5135,189.3
248.6381,121.1
248.6536,239.2
248.6647,124.5
248.7999,218.3
248.8647,100.3
248.871,14006.2
248.9011,27.4
248.9173,447.5
248.9324,169.5
248.9596,463.8
248.9751,488.6
248.999,1036.7
249.0161,1856.9
249.0314,318.1
249.0615,19835.4
249.128,678.6
249.1428,906.8
249.2617,532.9
249.5032,109.7
249.5735,317.8
249.8535,111.7
249.9721,103.7
250.0014,519.3
250.0647,502.6
250.2665,198.8
250.2787,643.9
250.2949,117
250.3339,97.4
250.3383,492.1
250.416,492.9
250.5156,16.2
250.5647,337.8
250.6337,305.1
250.8585,421
250.8679,4078.1
250.8882,208.5
250.9204,1611.7
250.9557,2502.7
250.9852,394.3
251.0008,169.6
251.0339,1007.6
251.0374,258.9
251.0855,115.9
251.1189,124.9
251.1312,567.4
251.1616,20.2
251.1765,340.5
251.2005,332.9
251.2036,17.8
251.2359,802.3
251.2644,359.6
251.2773,149.9
251.3131,750
251.3466,463.6
251.4007,86
251.4187,90.1
251.5104,19
251.5211,111.5
251.5331,528.6
251.5447,730.8
251.6695,460.6
251.6823,249.8
251.7871,118.7
251.8067,96.9
251.8264,118.3
251.937,582.7
252.015,349
252.0319,274.2
252.037,230
252.0459,92275.3
252.1922,238.2
252.4057,19.7
252.4102,261.2
252.4903,299.8
252.5261,811.2
252.7308,121.5
252.7618,333.4
252.7997,85.2
252.9178,1119.5
252.9317,113.6
252.9411,111
252.9486,104.1
252.9979,114
253.0246,218.2
253.0294,24.5
253.0493,6407.7
253.0657,519.8
253.133,493
253.1648,104.2
253.1704,312.7
253.2692,103.5
253.2838,526.1
253.3051,369.9
253.3333,97.6
253.3401,98.7
253.4217,336.1
253.435,156.1
253.4443,369.8
253.5421,181.2
253.5984,340.8
253.6503,18.1
253.8207,18.3
253.896,513.8
253.9733,21.1
253.9894,105.3
254.006,169.5
254.0443,2867.1
254.0552,142.8
254.0817,314.7
254.123,671.3
254.1716,99.6
254.1947,91.2
254.2242,89.6
254.2998,127
254.458,124.4
254.523,459.3
254.555,110.2
254.6694,85.1
254.8162,515.8
254.8242,6546.8
254.8882,975.4
254.9222,337.5
254.9416,16.5
255.0333,21298.6
255.0383,326.8
255.0469,452.1
255.299,168.3
255.3173,165.8
255.3684,149.1
255.4295,207
255.4824,377.7
255.6036,322.5
255.6537,120.1
255.6769,21
255.7343,125.9
255.7409,386.5
255.744,318.1
255.8212,476.2
255.8912,22.8
255.9073,142.4
255.9612,706.6
256.0587,182.3
256.0668,158.4
256.0693,17.9
256.0764,251.9
256.1019,255.8
256.1386,481.9
256.1704,351.9
256.2291,95.8
256.2554,348.7
256.3438,397.8
256.3803,250.1
256.4016,131
256.4419,428.5
256.524,289.5
256.5732,500.4
256.7385,362.9
256.7512,428.5
256.7783,135.5
256.8212,12176
256.8305,244.9
256.8661,386.1
256.9324,704
257.0488,6487.7
257.0665,670.3
257.0748,62002
257.1143,765
257.1873,255
257.2292,95.3
257.2439,952.7
257.2481,790
257.3036,81.6
257.3151,205.2
257.5061,90.9
257.5191,190.2
257.5437,720.3
257.554,496.3
257.7574,98.3
257.8358,379.8
257.9165,18.4
257.9938,439.1
258.0284,32.6
258.0304,27.1
258.0744,253.4
258.0782,2748
258.1105,9363.9
258.1771,519.1
258.2287,369
258.3258,324.9
258.3656,239.3
258.4585,107.2
258.6609,359.1
258.7039,106.8
258.7864,127
258.8182,5258.6
258.8359,390
258.8999,4772.6
259.0106,88.8
259.088,418.7
259.1266,378.5
259.318,98.5
259.3702,515
259.3954,264.5
259.4104,348.8
259.5147,841.5
259.5178,414
259.6001,116.4
259.637,135.4
259.696,205.9
259.7658,87.9
259.7808,481.4
259.7997,153.4
259.9648,608.6
260.0174,89.4
260.134,518
260.202,114.2
260.2534,461.2
260.3236,530.3
260.3684,796.8
260.3873,498.7
260.4744,133.9
260.5017,326.9
260.5951,733.7
260.7255,111.3
260.736,172.1
260.815,712.8
260.845,3391.9
260.9278,19.8
260.9415,168.8
260.9493,9866.3
260.9623,124.5
261.0461,567.6
261.1474,399.3
261.2821,109.7
261.3089,209
261.3226,155.4
261.4281,737.4
261.4422,18.3
261.5128,127.8
261.547,271.4
261.5526,19.9
261.6576,464.1
261.6743,712.1
261.8158,329.3
261.8602,313.9
261.874,95.7
261.9599,490.7
262.0509,435.7
262.0818,483.5
262.1752,501
262.1819,492.1
262.2286,411
262.3892,683.3
262.5044,455.8
262.5486,148
262.6314,166.7
262.7784,145.9
262.8625,347.2
262.9465,1147.3
262.9679,23.7
263.0319,538
263.056,114.2
263.0751,489.4
263.0854,3627.9
263.1118,110.4
263.1836,354.1
263.26,201
263.3193,121.5
263.4661,130.1
263.5158,367.1
263.5487,399.1
263.5904,19.7
263.6706,680.2
263.7001,435
263.7173,22.2
263.8115,291.2
263.819,85.9
263.8971,103.3
264.1407,103.8
264.1762,437.1
264.197,113.6
264.3075,228.9
264.6608,306.7
264.6749,358.1
264.7218,157.7
264.7427,334.1
264.7501,20.4
264.7556,715.6
264.7612,163.1
264.8075,760.3
264.8199,21
264.8452,2335.9
264.853,4100.9
264.9112,666.7
264.9339,608
264.9732,1383.7
264.9888,21.8
265.0165,324.7
265.0354,11834.4
265.0476,2450.5
265.0543,23.1
265.0647,169.8
265.0677,498.6
265.1107,367.1
265.514,390.7
265.5311,292.4
265.5435,88.4
265.6942,648.5
265.7267,18.8
265.7582,300
265.9935,23.9
266.038,356.5
266.0778,368.1
266.0869,98.4
266.1347,109.7
266.1634,363
266.2616,82
266.4043,674.3
266.475,97.6
266.523,460.1
266.5589,111.4
266.6038,371.1
266.6255,102.9
266.6845,19.8
266.7031,109.7
266.85,4629.7
266.8697,121.5
266.8946,2819.5
266.9438,795.4
267.0135,199.6
267.1639,268.1
267.4274,611.3
267.5889,160.8
267.6825,22.1
267.6897,287.8
267.7371,373.1
267.9059,322.8
267.9351,95.2
267.9438,18.6
267.9523,18.8
268.0317,694.2
268.045,107.5
268.1287,710
268.3351,118.6
268.3642,173.7
268.5454,491.9
268.6632,376.2
268.7592,858.9
268.7901,656.7
268.8052,222.4
268.8474,1422.3
268.8645,286.3
268.8917,1834
268.896,163
268.9663,228.1
268.9733,138.3
269.0123,147.4
269.0451,16490.9
269.0489,38291.2
269.0772,19.9
269.2273,107.2
269.3521,444.5
269.4549,535.5
269.6679,235.7
269.7758,165.3
269.8639,582.8
269.8756,88.9
269.9322,100.1
269.9603,116.3
269.9677,584.5
269.979,20.3
269.9944,1919.9
270.0252,899.3
270.0476,26522.6
270.053,184.5
270.1449,1189.9
270.4017,149
270.4984,241.8
270.6383,678.6
270.6536,114
270.7227,258.9
270.7982,4314.3
270.8246,139
270.9048,371.7
270.9568,20.7
270.9783,17104.4
271.0187,155.5
271.0242,234.6
271.0279,45.5
271.051,426.4
271.0682,327.6
271.0696,327.1
271.0715,209.9
271.078,812.9
271.0906,2133.6
271.0997,180.8
271.1089,263.7
271.126,197
271.1297,472.1
271.2446,90.7
271.2607,301.4
271.2849,18.5
271.3938,123.5
271.4319,325.2
271.4569,387.5
271.643,212.6
271.6657,526.7
271.8962,305.1
271.9446,371.5
271.9529,523.6
271.9795,658.1
272.0434,105.7
272.0551,21.9
272.0807,424.9
272.09,20.3
272.1627,104.7
272.1842,127.3
272.1974,114.1
272.2127,330
272.3664,19.4
272.482,20.2
272.5406,983.5
272.5832,374.5
272.6678,170.5
272.7952,6497.4
272.8773,339.8
272.9013,345.4
272.9439,18.5
273.0488,5669.2
273.1167,563.2
273.1755,366.6
273.1937,216.5
273.2534,327.9
273.3288,313.2
273.3486,19
273.369,218.3
273.6912,171.3
273.7062,619.4
273.7826,19.6
273.9291,19.6
273.9865,18.2
273.9896,223.3
274.0406,37.7
274.0693,216.8
274.0925,1131.9
274.1205,104.4
274.1943,456.8
274.2712,199.6
274.3032,131.7
274.3049,93.5
274.3785,810.3
274.6654,123.6
274.6832,108.3
274.769,92.5
274.7922,2310.8
274.824,433.9
275.1044,531.7
275.1201,22
275.127,100.1
275.1857,300.7
275.204,196
275.2319,575.3
275.2579,118.3
275.3108,184.7
275.3171,424.7
275.3698,675.8
275.4175,192.1
275.4537,466.1
275.6069,298.8
275.7693,93.8
275.8535,117.6
275.9389,449.3
276.0037,90.7
276.0151,492.7
276.0559,94.1
276.0634,18.4
276.0853,82.6
276.1621,130.1
276.3001,339.8
276.4858,330.4
276.669,381.8
276.676,98.3
276.8187,392.8
276.8943,161.6
276.9234,9347.8
276.9316,96.6
276.9644,547.2
277.0047,134.4
277.0388,179
277.1554,523
277.2059,215.3
277.2581,240.8
277.3105,466.7
277.4262,157.4
277.5148,298.9
277.692,412.7
277.9476,117.1
278.0192,429.3
278.0353,440.5
278.1259,288.4
278.1587,170.9
278.2125,423.1
278.3081,702.9
278.3614,135.2
278.5001,135.1
278.6193,241.2
278.7876,301.8
278.8656,157.4
278.9205,868
278.9877,353.7
279.0568,38846.3
279.064,751.9
279.0749,165.3
279.106,323.3
279.1245,246.8
279.1288,261.4
279.2048,105.6
279.2935,103.4
279.3092,18.7
279.3235,459
279.3827,301.7
279.4376,573.5
279.4948,186
279.5331,344.9
279.574,360.6
279.7925,346.4
279.8321,20
279.8712,436
279.9671,439.7
279.9789,499.4
280.0162,284.7
280.0311,737.7
280.0383,152.5
280.0502,181.1
280.0602,1052.6
280.0699,249.7
280.0868,290.4
280.1282,581.4
280.2124,428.6
280.219,492.5
280.277,298.5
280.2891,297.7
280.3844,239
280.4128,801.1
280.559,120.8
280.5916,250.9
280.827,2209.6
281.0096,2256.1
281.0517,183.5
281.0654,269.9
281.07,21.1
281.1176,580.7
281.1855,841.6
281.2017,269.3
281.2382,17.7
281.3068,147
281.5103,20.9
281.6632,510.9
281.8839,83.4
281.8911,283.7
281.953,113.3
282.0152,160.2
282.0651,438.4
282.0729,20.1
282.1124,98.9
282.1353,119.2
282.2133,361.6
282.2795,219.3
282.4128,283.8
282.6573,254.5
282.719,94.1
282.7362,18.4
282.824,1787.5
282.8513,651.2
282.914,140.2
283.0687,41.2
283.1799,111.2
283.2572,300.6
283.2632,22.2
283.2841,108.3
283.5248,345.5
283.5366,119.1
283.598,262
283.6047,417.2
283.7401,488.4
283.9407,103.8
283.9741,147.3
284.0214,19.4
284.0631,190.8
284.0749,188.3
284.2659,21.4
284.2926,439.5
284.3343,367.5
284.5288,302.3
284.6152,391.6
284.6615,20
284.8202,307.7
284.9232,164.5
284.9816,235.6
285.0032,19.8
285.0402,20.5
285.0562,18
285.0726,100.2
285.1736,375.3
285.2081,348.5
285.4145,325.7
285.5056,229.1
285.5895,476.2
285.7408,343.1
285.798,19.4
285.9685,711.5
285.9886,622.6
286.02,297.3
286.0421,21.5
286.0932,464.5
286.2742,451
286.3418,621.3
286.4007,21.5
286.5763,128
286.6103,17.5
286.7176,97.6
286.772,2583.6
286.7871,106.6
286.9118,545.4
286.9523,9178.9
286.9695,17.5
286.9854,113.2
286.9984,52.9
287.0386,385
287.0556,37205.2
287.1359,109.5
287.2066,131.1
287.2373,233.3
287.2951,381.9
287.3478,256.1
287.3572,706.5
287.4613,127.4
287.4823,339.4
287.8558,23.4
287.9497,108.2
287.9869,422.6
287.997,1111.6
288.0136,25.2
288.059,894.9
288.0854,80.4
288.1559,11550.2
288.2443,391.1
288.3344,349.2
288.4876,385
288.5598,21.3
288.6754,481.5
288.7234,125.1
288.769,2545.5
288.8096,36.3
288.816,59.5
288.8217,71.6
288.8256,516.7
288.8271,555.5
288.8289,474.1
288.8382,223.5
288.8434,172.4
288.8542,669.9
288.863,2408.2
288.8669,2289.2
288.8745,7264.4
288.8777,6701.9
288.8819,5874
288.8892,10015
288.8942,10189.1
288.8975,9303.3
288.9005,10750.4
288.9111,21447.5
288.9233,18394.9
288.9273,20991.5
288.9293,21072.2
288.9305,21112
288.9359,23918.2
288.9416,17450.8
288.9441,17309.8
288.9473,13702.3
288.9533,12434.1
288.9602,6384.3
288.9686,4171.6
288.9802,1365.4
288.9842,1020.5
288.9972,735.7
289.0112,317.8
289.0249,18.9
289.0611,18.4
289.0675,148.9
289.0872,137.9
289.129,173.5
289.1593,438.7
289.2094,163.9
289.4092,271.7
289.4438,448.5
289.5329,529.1
289.6186,299.3
289.6319,591.2
289.7408,384.5
289.7581,150.3
289.7741,329.3
290.0216,100.7
290.0308,111.8
290.0723,440.6
290.1007,29.4
290.3345,108.6
290.369,329.2
290.3823,151.7
290.4052,136.8
290.5094,111.3
290.6611,363.5
290.7519,207.7
290.7663,1038.5
290.8553,361.2
291.0268,3007.7
291.0344,461.7
291.1015,137.6
291.1107,97.6
291.119,243.2
291.2099,102.6
291.2821,20.9
291.3708,143.7
291.4038,127.4
291.5097,94.7
291.611,146.5
291.8526,375.4
291.9586,676.9
292.066,477.2
292.0799,204.1
292.2513,354.8
292.3799,19.1
292.4395,343.2
292.5074,165.5
292.6455,103.3
292.8527,196.1
292.8744,419.7
292.8975,920.1
293.0726,3676.5
293.0985,642570.3
293.1546,93.7
293.224,220.3
293.3444,151.9
293.3548,169.6
293.4952,299.3
293.6875,502.2
293.712,107.2
293.7356,700.3
294.0126,20.1
294.0957,1949.9
294.1018,58617.2
294.1601,410.7
294.1721,643.8
294.1845,18.4
294.2403,103.7
294.3882,135.8
294.4066,198.1
294.4469,118.4
294.6838,253.3
294.7308,24.5
294.7974,649.8
294.8677,2172.4
294.9346,142.3
294.9909,603.9
295.027,365.1
295.0307,1291.5
295.0615,475.7
295.0873,19.2
295.1027,5332.4
295.1307,442.3
295.137,20.2
295.1949,19991.4
295.2565,19
295.4065,105.5
295.4203,102.7
295.5191,113.4
295.5234,341.8
295.5481,340.5
295.7821,146.8
295.8036,321.5
296.0369,157
296.1981,687.7
296.2707,241
296.331,515.6
296.3673,386.7
296.4038,665
296.6305,110.6
296.7252,309
296.7347,94.6
296.7471,309.4
296.752,286.9
296.7835,287
296.7934,161.9
296.8126,319.1
296.8465,96.3
296.8956,281.9
296.9367,600.8
296.988,269.1
296.9974,527.9
297.0889,92.8
297.0929,562
297.1742,166.1
297.1945,94.5
297.4571,151.4
297.4684,88.6
297.7027,489.6
297.8918,193.5
298.0127,167.7
298.0257,1665
298.0426,16378.7
298.0629,128.5
298.0769,143.9
298.0856,104
298.0914,18.6
298.201,731.4
298.223,18.1
298.3037,512.9
298.5962,17.8
298.6526,19.6
298.7503,100.5
298.7977,751
298.8995,697.2
298.9864,156.6
299.0236,2281.8
299.0459,569.9
299.0618,21.8
299.0716,454.7
299.1397,10220.6
299.2242,303.5
299.2424,96.8
299.4046,651.8
299.6656,364.9
299.7156,18.7
299.7213,17.2
299.8296,495.8
299.9995,298.9
300.0054,759.1
300.0385,208.8
300.0489,84.6
300.0757,560.7
300.1711,164.2
300.1969,22.4
300.367,240.8
300.3697,307
300.4255,293.7
300.6939,22.1
300.7989,243.6
300.9205,150.1
300.9527,211.6
301.0202,19.2
301.0388,22812.1
301.0764,27.5
301.101,227.4
301.1415,239.4
301.1622,107.3
301.19,113.8
301.201,18.1
301.2119,2112.9
301.8057,20.9
301.8171,219.9
301.9734,231.9
301.9965,85.7
302.0128,355.8
302.0197,111.6
302.0358,43.4
302.0643,5669.6
302.0732,19.4
302.1448,23.8
302.2139,457.4
302.2179,185.6
302.4766,364.1
302.5096,19
302.5305,474
302.5779,103.3
302.6628,487.8
302.6868,530.6
302.6939,644.6
302.6996,437.6
302.7068,368.6
302.7457,478.3
302.7797,96.6
302.8298,3767.6
302.88,17
302.8889,427.4
302.9362,22.9
303.0083,527.4
303.0682,781.9
303.0949,106.2
303.1388,166.2
303.217,1433.6
303.2448,741
303.2846,91.3
303.4683,203.4
303.5231,18.5
303.5361,94.6
303.5709,616.8
303.577,140.5
303.6149,20.1
303.8248,142.7
303.8608,307.4
303.9017,180.7
303.9198,128.6
303.9717,521.7
304.004,251.8
304.0376,98.9
304.0599,209
304.0829,261.6
304.1928,164.9
304.2163,143
304.2713,326
304.3763,102.2
304.4104,684
304.4452,361.6
304.5019,216.6
304.5899,203.8
304.7433,1034.7
304.766,294.2
304.8268,1601.5
304.8645,21.2
304.8967,1332.4
304.9759,434.1
305.0325,424.1
305.0385,437.8
305.0397,454.1
305.0757,227.4
305.2114,455.4
305.3598,346
305.6257,83.9
305.7449,312.1
305.7469,503.7
305.7495,539.8
305.7954,128.2
305.9315,115.7
305.9696,101.7
305.9981,563.6
306.024,32.9
306.0956,99
306.1427,82.6
306.1743,162.7
306.1957,165
306.2158,454.5
306.3055,470.7
306.3162,21.4
306.4717,111.5
306.4745,100.4
306.724,21
306.77,139.5
306.7716,155.7
306.7946,269.8
306.8845,101.3
306.9581,377.6
306.9776,3642.5
307.0754,437.2
307.1581,19.7
307.1722,195
307.2047,129.4
307.5699,305
307.6074,551.6
307.6219,357
307.7021,18.3
307.7967,95.4
307.9194,130.1
307.9578,612.8
308.0402,104.2
308.0639,116.4
308.1757,657.1
308.3181,194.3
308.5166,492.3
308.7519,399.9
308.8794,3943.2
308.9485,112.5
308.9758,493.1
309.0065,424.5
309.0378,4427.1
309.0887,190
309.1999,173.5
309.2625,134.3
309.355,240.3
309.3692,17.3
309.4668,171.4
309.7445,646
309.754,464.8
309.787,20.1
309.9283,123.5
309.9393,21.6
310.0467,323.5
310.1226,94
310.1351,18.4
310.2095,448.9
310.6489,416.6
310.6589,88.4
310.813,88.4
310.8665,169.6
310.8764,3519.7
311.0034,166.2
311.0168,86.3
311.0571,108.5
311.0973,140.4
311.1558,20.9
311.1849,447.4
311.3215,118.5
311.3255,441.5
311.363,19
311.3712,27.2
311.3838,105.5
311.3965,18.8
311.6174,210.8
311.813,472.4
311.8936,170.7
311.8989,333
311.9405,89.2
311.9662,160.7
312.0415,2541.1
312.1077,89.8
312.1322,214.6
312.2109,280.4
312.3341,280.8
312.6509,106.2
312.7442,18.9
312.8587,1498
313.0023,160.5
313.0362,882.5
313.0445,99.7
313.2743,28475.9
313.2943,19.1
313.3474,129.3
313.4291,194.1
313.5128,20
313.5329,240.5
313.553,18.2
313.5815,304
313.6202,27.2
313.7448,110.4
313.7566,16.4
313.7649,95.7
313.8049,21.5
313.85,163.4
313.8542,526.1
313.9993,864.3
314.0151,305.8
314.0726,163.3
314.0915,127.6
314.2776,3384.9
314.2854,95
314.4869,757.7
314.5827,140.5
314.6748,129.7
314.6832,171.1
314.8369,3687
314.9017,166.5
314.9089,699.9
314.9331,18.8
314.9497,102.7
314.9799,138.5
314.9992,4745.4
315.0042,1311
315.0144,147.2
315.0176,223.3
315.0431,118.9
315.0555,9101.8
315.0594,3517.4
315.0615,3319.5
315.0639,5369.9
315.0669,18671.5
315.0698,27023.2
315.0732,16703
315.0804,7165819
315.0869,24136.4
315.0922,10216
315.0942,8686.4
315.0985,3464.3
315.1005,2742
315.1048,1175.7
315.107,1168.6
315.1111,669.6
315.1133,515.4
315.1153,531.3
315.13,188.6
315.1617,5135.4
315.2602,717.3
315.2775,79.4
315.3242,4684
315.475,18.9
315.4869,346.7
315.5416,100
315.5673,655.1
315.6195,558.5
315.829,278.9
315.9718,172.9
315.975,158.2
316.0375,94.4
316.0533,50.8
316.0688,745.3
316.0777,37574.6
316.0838,748914.6
316.3218,362.8
316.3287,195.3
316.3813,19.6
316.401,112.9
316.4913,104.8
316.554,617.8
316.6109,94.3
316.6524,106.1
316.7109,20.2
316.7201,16.9
316.888,87.6
316.987,2479.1
316.9948,462.6
317.0408,130.7
317.0568,490.8
317.0653,2183.8
317.0843,85746.8
317.1272,98.2
317.1696,217.2
317.2105,735.3
317.3935,237.7
317.4886,88.6
317.6201,204.8
317.6475,333.5
317.6887,128.6
317.8023,125.6
317.8529,653.8
317.896,106.9
317.9184,98
318.0051,115
318.0103,184.7
318.0287,312.8
318.0878,8404.5
318.2005,106.8
318.2514,718
318.3933,107.4
318.5564,298.9
318.5702,134.3
318.5846,148.8
318.6198,419.5
318.6871,440.8
318.8038,2973
318.932,509.4
318.9452,227.6
319.195,45647.8
319.2796,145
319.3522,156.8
319.4264,467.7
319.4857,448
319.7646,116.9
319.8351,159.3
319.8411,490.7
320.075,187.9
320.131,124
320.1982,4658.2
320.2141,22.4
320.2591,2044.9
320.5095,264.7
320.5624,181.3
320.7447,296.8
320.8009,1118.6
320.8811,185.7
320.9053,588.8
320.9478,102.6
320.9721,110.9
320.9945,587.4
321.004,387.4
321.1606,370
321.1887,23.3
321.2107,47143.3
321.2411,868.9
321.2625,102.2
321.2759,19.5
321.317,23.4
321.4691,383.4
321.7558,273.1
321.8278,440.1
321.9475,403.4
322.0095,140.7
322.0698,21.4
322.0774,92.7
322.0897,494.5
322.1013,237.9
322.1837,18.3
322.2141,4609.7
322.2701,194.9
322.2775,541.4
322.4733,123.9
322.7578,449.3
322.8669,683.5
322.932,782.2
322.9393,598
323.0208,12332
323.0939,98.2
323.1646,107.9
323.2165,20.2
323.2263,1826
323.2687,113
323.5123,469.9
323.7549,332.1
323.8234,115.2
324.0043,81.8
324.0135,98.1
324.0382,98.9
324.054,332.5
324.0609,520.6
324.3156,336.6
324.4591,18.7
324.5171,260.6
324.5516,3802.5
324.5625,2559.6
324.5683,1683.6
324.5783,1493.7
324.5855,858.1
324.7728,18.4
324.8204,105.1
324.8532,2532
324.8925,104.4
324.9197,773.8
325.212,1273.8
325.3024,99.2
325.3664,95.4
325.4578,19.4
325.4894,351.5
325.7631,20.1
325.8344,430.1
326.0047,40
326.1909,18.3
326.4729,100.5
326.5131,103
326.526,19.7
326.8503,1710.9
326.9778,183.4
326.9821,539.5
327.016,6507.7
327.0525,1598.6
327.1485,337.4
327.1799,199.7
327.2276,9934.4
327.6709,172.7
327.8335,101.9
327.9309,302.6
328.0154,863.7
328.0642,198.5
328.289,344.4
328.3296,162.8
328.4398,234.3
328.4462,1379.2
328.4644,308.5
328.5107,835.8
328.79,337.1
328.8323,542.8
329.0105,321.8
329.0961,1879.5
329.2066,244.9
329.2558,235.9
329.4366,177.6
329.5696,336.5
329.6266,181.8
329.6701,124.9
329.7148,22.1
329.8585,445.5
330.0113,114.3
330.0286,320.7
330.0594,191.7
330.2813,591
330.2922,215.9
330.4012,92.5
330.579,307
330.6848,19.8
330.6963,106.1
330.7242,136.5
330.7537,387
330.9783,746
330.9889,39.2
331.0198,1283.5
331.0456,125500.5
331.0544,1093994
331.1786,97.5
331.4387,154.2
331.6065,20.5
331.7647,212.5
331.8027,205.3
331.8999,148.4
332.0232,442.1
332.0484,9233.6
332.0577,97413.9
332.114,23.6
332.1923,171.5
332.3794,146.2
332.7226,490.9
332.9458,393.7
332.9605,1953.9
332.9815,494.3
333.0525,62195.3
333.0581,10806.7
333.0932,21.6
333.2054,197.3
333.3088,578.1
333.3503,464.5
333.4636,676.2
333.6722,150.7
333.7286,89.3
333.9509,341.2
333.9984,20
334.0559,5935.2
334.0907,36.4
334.1966,643
334.2072,19.3
334.3512,147.1
334.3816,271.7
334.4993,260.2
334.5658,403.9
334.6389,259.6
334.6955,176
334.7888,104.1
334.9846,17.9
334.9924,979.2
335.0159,422.3
335.0387,894.4
335.1622,107.1
335.2525,150.2
335.2725,18.6
335.3341,579.4
335.5404,105.6
335.656,100.1
335.8024,577.6
335.8047,787.2
335.8075,687.1
335.8124,105.4
335.9813,297.9
336.0245,291.6
336.0754,18.5
336.1492,369.1
336.228,340.8
336.3144,118
336.381,266.3
336.4767,680.2
336.5344,493.2
336.7083,465.6
336.8261,117.8
336.8387,101.6
336.9194,193.9
336.9942,19.1
337.0366,10288.8
337.0499,20824.3
337.0624,624932
337.1278,297.3
337.1667,361.3
337.2357,18.1
337.2535,95.3
337.2746,3933.1
337.3238,348.2
337.498,100.9
337.6766,254.2
337.7069,180.4
337.736,436.5
337.8053,492.2
337.8175,745.3
337.8323,421.3
337.9853,333.8
338.0394,259.4
338.0657,53755.2
338.1115,386.2
338.2978,21.3
338.3329,427.8
338.3422,40.3
338.503,175.1
338.5927,208.5
338.6164,141.7
338.7607,672.7
338.922,2469.7
339.0384,1361.2
339.0475,755.7
339.0567,124.5
339.0663,5214.8
339.1998,338.7
339.2278,21.1
339.2394,725.2
339.2513,6426.7
339.29,4422.3
339.3959,143.4
339.4513,449.9
339.5117,90.9
339.5652,607.8
339.7685,238
339.7798,127.3
339.832,226.4
339.8567,290.5
339.8792,566.8
340.2072,163.5
340.2613,190.1
340.3375,445.5
340.3636,603.5
340.4254,823.5
340.4667,21.8
340.6556,303.9
340.7833,1531.5
341.0181,22
341.0264,98.9
341.098,666.9
341.1254,113.7
341.1746,373.2
341.3057,2273.1
341.356,90.6
341.7526,313.9
341.7963,337.6
341.8186,368.9
342.0153,20.1
342.0698,23.8
342.1407,19.4
342.4271,170.3
342.5921,726
342.6746,157
342.8456,243.5
342.8685,185.5
342.9215,19.8
342.9897,2149.9
343.0136,536.5
343.0664,256.8
343.1029,681.8
343.1605,536.3
343.195,9863.2
343.2605,783.5
343.271,704.4
343.322,123.5
343.4492,304.3
343.5817,233.5
343.6292,115.4
343.7849,84.9
343.8105,116.2
344.0826,119.1
344.1227,206.1
344.1293,575.9
344.1779,695.4
344.4013,394.7
344.6086,113.5
344.6749,175.4
344.7317,297.3
345.1155,156.4
345.2106,2053.9
345.2892,105.4
345.7686,18.7
345.8613,335.6
345.9777,264.8
345.9841,1309.9
346.0105,19.5
346.0256,662.8
346.0324,193.6
346.1217,695.1
346.334,101.5
346.5528,512.3
346.8557,187.9
346.9456,112.9
347.0628,501.4
347.149,239.3
347.1791,21
347.2698,243.9
347.48,439.2
347.6299,21.4
347.722,163.8
347.7365,651.5
347.7765,422.7
347.8779,24.8
347.9211,869.4
348.2008,710.6
348.6477,239.8
348.6666,146.8
348.8152,362.6
348.9236,143.5
348.9356,133.7
349.1042,192.3
349.2685,342.8
349.2908,484.5
349.419,100.1
349.4976,171.1
349.581,21.7
349.6803,512.2
349.8729,129.5
349.8829,108.1
350.005,22.6
350.0142,79.9
350.0304,88.8
350.0448,578.7
350.0505,114.7
350.3689,108.6
350.9499,22.4
350.959,138.7
350.9842,171.9
351.0103,616.5
351.0199,524.3
351.0836,376.4
351.1256,21
351.1408,203.9
351.1616,344
351.1916,660.9
351.2491,136.2
351.2623,96.5
351.2872,352.8
351.3133,228.7
351.3624,18.7
351.6245,86.4
351.7003,215.1
351.8275,579
351.9791,632
352.0268,413
352.0463,25
352.1516,345.4
352.2663,126.8
352.3643,98.4
352.8793,20.8
352.8885,234.1
352.8988,885.1
353.0275,133356.3
353.0364,203842.4
353.1441,485.5
353.1569,596.3
353.4028,119.8
353.4783,281
353.6373,309.6
353.8586,339.4
353.9113,315.9
353.9404,133.3
354.0307,11076.6
354.0397,18948.8
354.0673,224.9
354.2941,425.4
354.344,243.1
354.5143,274.2
354.5535,113.2
354.6593,189.8
354.6758,236.5
354.7089,582.3
354.8789,362.6
354.8955,868
355.0123,2362.6
355.0206,117.1
355.0346,12374
355.0576,21.8
355.0705,528.4
355.0787,94.5
355.2881,131.9
355.761,328.8
355.8847,319.2
356.0153,121.5
356.0389,140.1
356.0701,66.1
356.0753,19.1
356.2553,241
356.268,446.5
356.2969,246.4
356.4352,23.3
356.4978,144
356.591,354.4
356.6184,115.2
356.7399,92.7
356.9128,416
356.9493,206.6
356.9579,238.9
357.009,841.5
357.0198,333.7
357.0448,124.5
357.0676,69
357.4425,331.3
357.5597,292.3
357.5999,485.4
357.6162,17.6
357.628,714.2
357.6479,739.9
357.7069,94.7
357.9899,462.9
358.0098,52.2
358.0398,441.2
358.2323,124
358.2454,26.6
358.2852,141.5
358.37,91.1
358.3791,334.9
358.4023,105.4
358.7094,249.9
358.8662,131.2
358.9737,313.8
358.9991,923.9
359.0078,556.1
359.0319,11281
359.0444,342348.3
359.2358,237.7
359.371,212.7
359.5056,228.3
359.5143,285
359.5421,108.9
359.5521,606.5
359.5651,832
359.5728,1037.2
359.5909,151
359.5969,114.6
359.6092,864.7
359.6228,338.1
359.6333,141.9
359.6452,96.4
359.6542,142.1
359.6736,506.2
359.6815,242.4
359.6915,305.3
359.7282,273.2
359.7338,669.6
359.7619,112.6
359.7994,516.6
359.8656,327.2
360.0111,20.2
360.0477,30364.6
360.0808,19.6
360.1749,312
360.2653,126.1
360.3169,20.7
360.3242,313.8
360.3492,166.5
360.4387,271.5
360.4756,90.5
360.5228,310.1
360.5804,96.7
360.6033,207.7
360.7889,813.7
360.9672,799.2
360.9732,661.8
361.0205,3338.2
361.0479,1527.4
361.2019,433.3
361.2326,167.1
361.2745,336.5
361.3278,30.8
361.4899,249.9
361.6791,136.1
361.812,456.8
361.8997,555.2
362.0277,354.6
362.2398,321.2
362.2525,101.6
362.2586,466.7
362.5003,282.1
362.5086,660.6
362.5826,101.9
362.6357,173.1
362.7821,129.6
362.8603,314.7
362.9164,606.4
362.9272,2826.2
362.9383,340
363.0508,106.5
363.2297,641.4
363.3308,477.8
363.3752,219.6
363.502,104.7
363.6502,118.1
363.8411,236.8
363.9334,600.3
364.0179,109.4
364.1086,93.2
364.12,236
364.1859,95.7
364.5906,325.2
364.5972,352.5
364.602,696.9
364.6577,350.9
364.7036,112.1
364.7646,211.9
364.7737,85.3
364.8037,365.6
364.8601,343.4
365.11,92.2
365.1868,376
365.2505,576.2
365.2604,343.6
365.2857,115.9
365.7039,344.1
365.7778,204.3
365.7858,482.1
365.7972,20.2
365.9052,19.3
365.9181,541.7
366.0012,704.9
366.0621,28.6
366.1419,125.5
366.159,666.5
366.2233,95.6
366.2328,634.9
366.2702,165.2
366.2772,187.7
366.32,90.3
366.3416,465.2
366.4761,100.8
366.7877,233.5
366.8374,669.3
366.8731,659.9
367.0668,18.9
367.0896,778.7
367.1219,3086.8
367.1703,295.9
367.1952,1631.4
367.3797,20.1
367.54,92.5
367.6448,173.1
367.7551,273.7
367.8085,502.5
367.8161,18.8
367.9027,280.1
367.9497,405.4
367.9762,510.5
367.9876,209.6
368.0265,161.9
368.0761,166
368.1819,297.1
368.4164,19.7
368.6001,238.3
368.728,267.1
368.7893,714.4
368.9927,2298.2
369.0015,15837.2
369.0104,8575.6
369.0397,162.6
369.1847,243.9
369.2339,193.9
369.3037,299.7
369.3518,18.7
369.3695,752
369.4871,152
369.7191,340.2
369.9333,107.4
370.0129,250.8
370.3553,465.9
370.4429,114.6
370.5448,92.6
370.6675,163.4
370.7133,134
370.7415,319.5
370.8132,270
371.0079,520.8
371.0422,551.4
371.0517,354.5
371.099,107.9
371.2639,679.5
371.2893,19.1
371.395,686.6
371.6108,232
372.1346,207.5
372.5958,115.8
372.7389,434.7
372.9122,110.4
372.9845,686.6
373.002,20.6
373.0802,712.9
373.1098,538.5
373.3433,195.7
373.4497,328.6
373.6824,111
373.8292,20.3
373.8671,22
373.9465,163.5
374.0632,411.1
374.1234,368.3
374.1305,302
374.1854,347.7
374.6711,144.4
374.7358,400.9
374.9188,90
374.9681,354.2
375.0095,122015.8
375.0183,105108.4
375.5852,92.8
375.6723,134.4
376.0128,7006.3
376.0217,9081
376.0802,255.2
376.1486,89.4
376.2227,280.4
376.3383,18.8
376.3495,246.5
376.4253,120.3
376.4614,708.8
376.5053,107.2
376.6741,382.3
376.9944,1844.1
377.0168,5733.6
377.1146,338.8
377.1626,332.3
377.2838,805.8
377.4252,327.7
377.6868,110
377.8212,852.9
378.0701,277.4
378.0749,321.6
378.138,107.5
378.1802,453.3
378.1966,19.7
378.3351,340.2
378.357,123.4
378.3752,112.1
378.4785,312.8
378.9009,1398.4
378.9452,165.6
378.9914,68.2
379.0918,339.7
379.1397,141.2
379.1453,19.9
379.3384,41.4
379.5809,153.1
379.6931,332.2
379.9177,727.5
380.0032,176.5
380.0361,290.6
380.1936,647.6
380.2272,245.4
380.3205,196
380.366,122
380.3883,129.9
380.5713,211.4
380.7704,768.6
380.9792,1103.1
381.0139,21453.6
381.0264,190100.4
381.073,22.1
381.1994,494.6
381.4494,258.6
381.6216,267.1
381.8848,496.1
381.8939,20.5
382.0074,164.3
382.0297,15451.8
382.1978,280.7
382.2608,20.5
382.5013,624.8
382.5094,445.4
382.5368,602.4
382.5839,466.3
382.7675,1703.4
382.9916,368.6
383.0107,469.2
383.0295,400.7
383.1167,162384.5
383.6252,122.5
383.6491,88.5
383.822,163.2
384.1201,17877.4
384.1769,343.5
384.5287,639.6
384.5491,189.4
384.7651,922.4
384.7782,344.1
384.9911,234.9
385.0072,148.1
385.0367,707.2
385.2117,22.9
385.2347,17.4
385.3357,350.1
385.5718,112.3
385.7867,153.3
385.8096,239.6
385.8194,323.3
385.8782,91.6
385.9784,97.7
386.2486,119.1
386.6478,211
386.6818,18.9
386.817,695.6
386.8876,318.7
387.0033,1290.1
387.1308,111
387.1507,92.4
387.2049,266.5
387.3303,20.2
387.3945,149.6
387.4301,18.6
387.4828,349.2
387.6132,538.3
387.7189,260.3
387.7282,89.1
387.9029,111.6
388.456,412.1
388.5061,630.9
388.5212,21.4
388.7128,1098.8
388.7195,117.5
388.7356,189.1
388.8217,232.3
389.0492,18.1
389.2445,19.7
389.5197,630.1
389.6114,352.4
389.9051,116.5
389.9415,19.8
389.9739,2218.8
390.0536,17.5
390.1132,705.4
390.1294,467.2
390.457,512.2
390.5312,691.2
390.7994,1776.7
390.8538,98.7
390.8673,645.9
390.8982,585.6
390.9745,10322.9
390.9833,23511
390.9923,11443.6
391.0244,101.8
391.1101,119.7
391.3678,305.2
391.672,18.5
391.8049,193.3
392.1543,154.2
392.4708,107.6
392.6003,646.9
392.7074,301.5
392.796,3332.8
392.8275,210.5
392.9592,83.7
392.9675,347.8
392.9897,296.3
393.0078,456.1
393.0338,352.3
393.3149,104.5
393.6254,102.2
393.713,101.7
394.0184,142.8
394.0687,136.1
394.2503,261.2
394.369,542
394.4925,149.3
394.5994,140.2
394.7945,456.5
395.1195,94.7
395.156,109.4
395.5404,620.1
395.75,108.4
395.8862,118.1
395.9871,263.7
395.9963,19.2
396.232,107.9
396.3607,330.5
396.4163,336.9
396.4629,82.7
396.6347,354.7
396.6945,21.4
396.7445,1485.8
396.7755,624.5
396.9232,21.5
396.9527,96.2
396.9915,173931.1
397.0003,61800.5
397.2128,346.3
397.2681,17.8
397.413,373.4
397.4544,493.5
397.605,500.9
397.613,345
397.8773,101.4
397.9646,94.1
397.9948,12856.7
398.0037,3781.6
398.1082,200.8
398.2039,1032.3
398.2103,243.1
398.2422,4534
398.3783,103.2
398.6909,312.8
398.7416,2548.8
398.761,647.7
398.7799,150.1
398.8853,177.3
398.8926,128.7
398.9762,114.5
398.9973,991.1
399.4566,189.5
399.4586,188.4
399.7853,94.7
400.5446,108.4
400.7389,416.8
400.8024,19.6
400.8277,1356.6
400.955,458.2
400.9734,31.1
400.9848,1153.3
401.0111,201.8
401.1502,524.6
401.1795,17.6
401.2967,436.9
401.3967,169.6
401.4364,139.7
401.503,639.5
401.5374,202.9
401.6898,236.3
401.9816,19.7
401.9955,93
402.1433,93.9
402.221,17.2
402.407,109.6
402.6201,98.4
402.6314,243.3
402.7031,343.8
402.7364,342.5
402.7808,121
402.8251,2456.9
402.9949,121.8
403.0084,239358.5
403.0673,143.3
403.3163,331.7
403.6341,159.3
403.7255,874.7
403.882,142.8
404.0118,23317.4
404.0335,415.5
404.0739,115.7
404.2503,261.8
404.4005,168.9
404.6217,91.7
404.686,431.9
404.8213,295.6
405.0126,1610.9
405.1988,106
405.2262,738.8
405.3853,165.9
405.7281,223.7
405.8693,167.4
405.9468,636.3
406.0363,268.5
406.102,433.4
406.1183,122.4
406.3298,1358.1
406.4159,267.8
406.5308,462
406.6834,578.2
406.7568,101.9
406.773,1215.7
406.9503,167.7
406.9565,325.2
406.9651,90.4
406.98,500.2
407.2236,20
407.3331,301.8
407.5291,321.8
407.5935,182.2
407.6445,128.1
407.7465,756.9
407.8249,126
407.9233,504.9
407.9686,905.8
408.0349,465.2
408.2221,328.9
408.2686,100.8
408.2996,101.5
408.6996,19.8
408.7621,420.7
408.77,2938.9
408.8192,164.7
408.8966,463.2
408.9846,1248.6
409.3591,151
409.3669,125.8
409.7422,20.9
409.8307,243.1
409.879,114.2
409.9188,121.4
410.0789,104.8
410.2505,18.6
410.2859,278.1
410.3486,133.4
410.3625,146
410.3865,534.5
410.4792,652.8
410.5225,264
410.6889,468.8
410.7668,578
410.8,142.2
410.8571,1289.6
410.9697,105.8
411.2324,102.6
411.2412,102
411.3139,610.1
411.6446,122.4
411.8352,347.5
412.0548,804.5
412.1396,213.9
412.3216,1775.9
412.3646,265.6
412.3906,445.8
412.4538,184.7
412.5979,178.1
412.6125,489.8
412.7049,119
412.7184,949.3
412.8539,796.6
412.9654,29964.9
412.9741,10905.5
413.0506,270.3
413.2667,4672.1
413.2898,360.3
413.3247,138.9
413.3768,385.3
413.4236,323.3
413.5571,93.2
413.7297,195.6
413.825,651.8
413.8892,16.6
413.8953,94.4
413.9682,919
414.0205,525.7
414.236,18.8
414.2706,417.2
414.3005,129.9
414.5085,373.6
414.6656,203
414.7608,89.7
414.767,87.6
414.9251,108.6
414.9329,104.3
414.9487,84.6
414.9637,332.8
414.9982,1137.1
415.0367,20.1
415.0796,205.4
415.3883,82.2
415.9533,101.8
416.0245,171.6
416.1358,9313
416.2148,36343.4
416.5191,426.7
416.5466,116
416.6475,239.2
416.7122,414.4
416.7421,18.7
416.7513,470.3
417.1013,131.5
417.1717,391.1
417.2182,4793.3
417.3417,540
417.6575,354
417.8131,19
417.8401,174.4
417.937,304
418.0592,349.3
418.3375,388.9
418.3919,465.8
418.4699,215.9
418.7803,327.6
418.7996,910.9
418.8349,101.9
418.9098,24.3
418.9823,84421.8
419.0121,345.5
419.0331,227
419.0435,480.1
419.2563,352.3
419.6225,229
419.6394,16.4
419.902,161.3
419.9542,338.1
419.9855,6780.7
420.2174,188.7
420.6214,600.6
420.7674,104
420.8134,108.8
420.821,203.5
420.8462,312.2
420.9586,620.6
420.9805,3213.2
421.0274,149
421.1167,191.1
421.3154,615.1
421.332,550.5
421.5499,312.8
421.8523,114
421.875,351.4
422.0202,191.1
422.1194,117.5
422.2286,168.8
422.3039,20.9
422.3242,118.8
422.4639,90.9
422.9788,21.3
422.9995,207.1
423.2362,541.4
423.5589,85.1
423.7554,20.9
423.7812,154.4
423.8814,94
423.8984,351.9
424.0184,243.9
424.3092,314.1
424.6174,227.5
424.8686,221.5
424.8878,169.6
424.9534,428.2
425.2466,432.8
425.7004,114.2
425.7319,159.6
425.8152,140.6
425.8745,144.4
425.8959,96.3
426.2032,446.1
426.346,86.6
426.5242,342
426.8488,112.1
426.8743,95.4
427.2716,232.3
427.6268,350.6
427.6511,106.1
427.672,110.4
427.9415,314.5
428.4868,202.4
428.567,129.1
428.6292,152.5
428.8471,520
428.9394,3019.9
428.9778,20.8
428.988,1057.9
428.9972,849.8
429.0057,697
429.0141,483.1
429.0896,218.5
429.3542,134.3
429.3726,498.8
429.4513,449.9
429.4961,104.8
429.5141,374.8
429.5796,112.2
429.6569,327.4
429.6782,628.8
429.6867,112.1
429.7289,206.6
429.8213,88.4
429.9864,306.5
430.0754,20.6
430.1059,152.6
430.1492,573.9
430.2137,108.3
430.3667,577.5
430.4815,89.9
430.6372,321.6
430.9147,733.6
430.9656,111.2
430.9794,168.8
431.1296,19.3
431.1745,256.4
431.2182,493.7
431.2767,426.4
431.4905,303.6
431.7881,18.4
432.0918,128.1
432.3206,112.9
432.4121,684.1
432.4186,633.4
432.4757,201.3
432.5273,261.3
432.6419,222.3
432.8588,186.3
432.8943,395.1
432.9685,462.9
433.1662,119.9
433.2043,463.5
433.2716,165
433.4606,234.2
433.4994,165.6
433.5606,157.9
433.6509,218.3
433.7511,222.8
433.8397,276.6
434.5295,405.9
434.5665,20.1
434.6862,258.4
434.7008,323.3
434.8832,115.9
434.9563,15477.6
435.092,102.3
435.2074,472
435.5583,291.1
435.6069,562.9
435.6892,370.4
435.9598,1288.2
436.0355,315.8
436.0669,370.1
436.2326,611.6
436.2495,22
436.4095,18.7
436.4912,124.1
436.5216,116.4
436.8592,616.1
436.9308,419.8
436.9544,840.2
436.9796,163.4
437.0674,250.8
437.1591,389.7
437.2042,501.9
437.5186,123
437.6633,20
437.7887,151.2
437.982,314.2
438.07,239
438.197,303.6
438.4214,372.1
438.7493,164.7
438.8362,200.9
438.9616,403.1
438.9724,3086.6
438.9848,2874.8
439.0346,124
439.204,252.4
439.233,211.4
439.4205,18.2
439.4901,448.4
439.5045,428.8
439.5535,21.4
439.615,491.2
439.7021,98.9
439.777,249.2
439.9917,636.1
440.1039,387.1
440.1133,316.9
440.2315,689.1
440.2709,222.8
440.5364,853
440.7242,315.1
440.9283,242
441.1663,254.3
441.2982,377.7
441.5285,219.7
441.8327,328.4
441.883,669.9
441.9748,18
442.1564,583.6
442.3013,31.5
442.608,669.6
442.7402,281
442.7686,734.1
442.8316,160.9
442.8637,21.5
442.9525,394
442.9852,19.8
443.1316,713
443.1382,143.1
443.2533,1564.7
443.3319,130.7
443.6015,437.1
443.9598,242.8
444.1404,524.5
444.7346,163.8
444.7616,535.7
444.7778,20
444.9775,90.9
445.0584,175.1
445.2191,348.8
445.2691,1158.8
445.3699,121
445.5211,22.9
445.7066,20.6
445.7319,252.5
445.9008,126
445.9613,106
446.1374,765.7
446.1995,118.9
446.2671,20
446.6715,864.3
446.7901,107.6
446.8887,689.7
446.9066,187.4
447.0049,224
447.0929,182.9
447.5921,19.5
447.6605,18.7
447.766,107.2
447.8093,190.1
447.9698,243.8
448.0851,496.5
448.3824,166.8
448.4964,324.5
448.5269,146.7
448.6683,1038.8
448.6902,153.8
448.8256,101.2
448.9334,2355.7
449.1546,1891.4
449.1733,877.8
449.2121,183.6
449.3037,518
449.3889,514.4
449.402,129
449.7081,84.9
449.7861,115.2
449.8284,179.8
449.8687,692.2
450.1583,365.4
450.4021,190.2
450.4548,141.2
450.5073,376
450.7229,241.3
450.7612,260.3
450.93,1641.7
451.1508,116.8
451.2136,317
451.5384,173.7
452.199,20.6
452.3398,293.8
452.751,95.7
452.8009,118.4
452.8688,386.6
452.919,187.9
453.2471,561.9
453.2805,104.6
453.3809,208.1
453.4286,19.3
453.5392,632.9
453.686,368.7
453.7046,314.5
453.8613,20.2
454.5312,650.1
454.5788,20.6
454.8285,20.4
454.8727,428
454.9501,39381.5
455.0336,20.2
455.2769,18.1
455.3607,240.2
455.5164,20.7
455.5887,88.5
455.6881,449.6
455.8045,290
455.9534,1565.2
456.1322,146
456.283,489.4
456.3604,192
456.4523,740
456.5403,160.7
456.7066,868.2
456.752,100.6
456.8356,131.3
456.9474,8936.2
457.0291,91.5
457.0814,127.1
457.1063,223
457.2332,6967.5
457.3376,155.2
457.4702,201.4
457.622,260.3
457.6464,396.8
457.6684,481.8
457.9438,121.3
458.1665,172.5
458.1765,122.2
458.2715,491.3
458.3683,124.7
458.562,105.1
458.6976,774.3
458.9618,1402.6
459.0644,855
459.1047,600.5
459.1211,998.9
459.2489,278945.3
459.4035,127.5
459.4617,20
459.7848,20.5
459.8567,795.1
460.0388,355.4
460.2522,58181.6
460.4515,120.7
460.5898,19.7
460.967,71598.1
461.0279,505.1
461.0371,591.3
461.2552,4539.7
461.9703,4546.1
462.2857,102.7
462.3703,110.4
462.4535,425.2
462.4785,403.8
462.6449,317.9
462.801,92.5
462.8389,221.2
462.9641,22097.3
462.9907,689.8
463.1473,85.3
463.2075,138.5
463.3798,226.3
463.6088,117.8
463.8156,18.2
463.8688,134.9
463.9072,354.5
463.9426,18.2
463.9542,675.9
463.9679,1026.9
464.0753,345.3
464.1857,190.3
464.3505,117.9
464.5926,470.4
464.6419,401
464.6918,85
464.9789,8492.6
465.1183,406.9
465.3441,20
465.4957,299.5
465.8457,169.9
466.0824,183.4
466.3599,144.8
466.5463,385.2
466.5618,378.1
466.7078,160.2
466.741,208.7
467.0596,326.3
467.0986,301.5
467.2112,129.4
467.3941,136.1
467.4399,147.5
467.485,353.9
467.5147,444.5
467.8238,101.7
468.0909,353.6
468.3107,732.7
468.4509,314.6
468.5216,100
468.9359,19.4
468.9486,19.5
469.0431,99.8
469.1413,28.4
469.2,700.4
469.328,28.2
469.499,351.2
469.7072,554.3
469.8778,162.9
470.1102,296.2
470.1327,107.8
470.2459,129
470.2702,265.3
470.463,274.8
470.5912,107.2
470.6792,119.7
470.9241,14170.4
470.9616,160.7
470.996,4921.7
471.1787,20.5
471.2046,346.9
471.2294,318.3
471.9248,480.7
471.9876,86.5
472.1103,418.2
472.304,3821
472.3267,109.2
472.5384,85.4
472.673,458.9
472.9211,4493.1
472.9342,107.7
472.947,261.6
472.9568,498.5
472.9611,485.7
472.9661,430.4
472.9738,745
472.9857,147.9
472.9948,197.8
473.15,143
473.2638,633.4
473.3994,632.9
473.4113,643.8
473.4485,255
473.8902,502.5
473.9447,19.4
474.0577,98
474.1161,125.2
474.3369,128.7
474.4033,20.2
474.633,299.9
474.6568,99.7
474.792,97.8
475.0061,258.1
475.1702,248
475.2227,13714.4
475.2635,312
475.2691,312.2
475.2805,103.6
475.3384,1256.5
475.5273,638.8
475.6885,805.9
475.8058,159.7
476.0278,118.1
476.0934,305.5
476.2261,368.9
476.5367,106.6
476.601,328.2
476.6729,225.6
476.6938,222.6
476.8033,221.1
476.8328,18.9
476.9409,43445.1
476.9674,297.1
477.0804,104.5
477.0938,341.6
477.1331,469.7
477.2177,797.8
477.4462,335.1
477.7537,106.6
477.9442,2987.3
478.0345,101.2
478.0537,89.3
478.1187,354.7
478.2254,20.3
478.3298,40297.5
478.5897,172.9
478.9383,12769.8
479.0182,457.7
479.1634,20.3
479.2835,170.6
479.3328,6148.5
479.5356,195.1
479.6932,129.9
479.7354,435.2
479.941,714.5
480.3127,121.3
480.3454,1477
480.3656,235.9
480.3993,98
480.4371,18.6
480.6324,199.4
480.911,254.9
480.953,2140.1
481.0925,113.4
481.2378,114.5
481.2666,144.7
481.2853,518.2
481.9944,225
482.1408,21.9
482.1487,92.7
482.3609,575.6
482.4877,506.2
482.5457,323.6
482.627,20.3
482.7039,340.1
482.7755,19.2
482.8273,21
482.8663,370.8
482.9316,24.1
483.0277,17.9
483.0481,355.2
483.0945,17.2
483.1584,21.2
483.2489,73759.3
483.331,459.1
484.0627,156.4
484.2522,17134.2
484.7515,759.2
484.7699,234.4
484.8835,93.1
485.0835,462.3
485.2645,76553.4
485.2813,246.5
485.511,144.9
485.6163,92.8
485.7513,28.1
485.8351,265.6
486.1156,100.4
486.2678,17569.9
486.5048,96.8
486.5436,91.2
486.8985,1246.3
487.0115,126.6
487.0639,538.1
487.0905,123.6
487.1,132.5
487.1516,70.7
487.2802,67670.5
487.5108,117.9
487.5391,388
487.6451,515.4
487.6925,340.3
488.0298,97.8
488.0644,190.8
488.0774,128
488.1236,589.6
488.2834,14898.7
488.3005,1015.2
488.3967,18.8
488.8977,335.6
489.0353,19.2
489.2207,335.1
489.2966,90.9
489.3549,2131.4
489.3797,221.6
489.3883,137.2
489.4052,250.5
489.4469,23.7
489.4641,98.3
489.5336,109.3
489.5912,126.8
489.8016,126.7
489.838,148.4
490.0352,405.9
490.1367,522.2
490.2017,483.3
490.2917,2421.7
490.4898,209.8
490.6196,85.5
490.7957,1018.2
490.8908,97.8
491.3715,6690.5
491.403,118
491.6918,217.3
491.7238,165.3
491.9104,120.2
491.9717,680.5
492.0335,364.9
492.3125,184.3
492.5987,20.8
492.7834,19.8
492.8406,246.6
492.9149,6320.4
492.9416,18.9
493.2006,152.8
493.4425,355.3
493.8589,233.6
493.9181,437.4
493.9894,235.2
494.0915,490.2
494.2856,2066.3
494.3244,1394.8
494.354,90.6
494.3986,382.1
494.4166,17.9
494.4528,103.1
494.474,150.5
494.4782,153.2
494.5292,21
494.5986,398.1
494.6534,461
494.7807,316.2
494.8286,492.4
494.9122,2467.6
495.1381,20.1
495.3086,489.4
495.3387,162
495.3947,181.3
495.5297,198.7
495.5601,516
495.6813,88
495.7016,501.8
495.737,109.6
495.8792,432.3
495.9315,160
496.3405,322483.7
496.5155,478.5
496.9318,411
497.069,160.1
497.2065,100.9
497.242,119.5
497.3438,76434.7
497.3884,312.5
497.9194,19.5
498.0331,466.9
498.1807,363.5
498.2888,293.6
498.3299,440.3
498.3468,5404.2
498.5484,478.9
498.6859,696.3
498.7005,491.8
498.7237,296.8
498.7426,535.5
498.7595,734.9
498.7987,18.3
498.8224,226.7
498.8393,181.1
498.8604,122.7
498.9026,764.2
498.9507,21.4
499.024,204.2
499.2222,2284.3
499.312,384.1
499.4768,21.3
499.5563,791.1
499.8055,19.4
500.0572,415.2
500.1299,170.6
500.2664,115.8
500.3117,261.2
500.5254,517.9
500.6316,240.5
500.762,20.8
500.7696,21.1
500.8029,377.8
501.2389,3462.7
501.333,20.4
501.4258,22.7
501.4475,808.6
502.1128,20.5
502.3296,16056.6
502.8948,518
502.9886,701.7
503.1068,46.1
503.1519,487.3
503.21,116.2
503.2544,3649.7
503.2932,127
503.3333,2838.7
503.5258,593.5
503.5419,19.7
503.6242,244.3
504.0954,17.1
504.1677,296.7
504.185,470
504.2858,317.4
504.3068,1134.8
504.3448,8773.1
504.4278,313.2
504.5897,414.1
504.947,504.6
504.9723,354
505.0908,373.7
505.1825,356.9
505.2344,644.9
505.4588,20.4
505.5435,235.4
505.997,480
506.2869,219.7
506.2939,104.1
506.3612,3856.9
506.5467,638.4
506.7275,336.1
506.8919,3206.4
506.908,301.4
507.2488,11689.4
507.2621,104.5
507.3292,119.5
507.3458,520.3
507.3644,1625.1
507.569,218.3
507.6178,1463.2
507.9789,103.6
507.9921,120.8
508.2523,1835.8
508.3774,455.1
508.5396,223.3
508.792,182.1
508.8889,2073.2
508.937,19.4
509.0054,2403.2
509.0831,217.2
509.1744,108
509.2353,232.8
509.2641,5853.6
509.5481,114.9
509.6278,135.9
509.6674,166.5
509.9523,434.8
510.0914,106.7
510.265,1130.8
510.2804,344.3
510.865,170.8
511.1231,22.7
511.1726,116.1
511.2817,103.6
511.5757,21.7
511.799,298.1
511.8635,402.2
512.1502,686.1
512.1745,661.4
512.3393,467.4
512.3836,95.6
512.5573,110.2
512.6197,416.2
512.6899,97.3
512.7685,460.1
512.9086,18941.3
512.9268,116.8
513.0957,95.5
513.4735,506.5
513.5002,22.6
513.8099,149
513.9096,513.6
514.1959,233.6
514.326,102.8
514.3597,638.6
514.5971,554
514.7347,138.2
514.9061,10295.5
515.0226,871.3
515.0676,241.4
515.3724,797.5
515.3896,461.5
515.4837,178.8
515.5266,93.4
515.899,455.2
516.2509,21.4
516.284,20.5
516.3067,9233.2
516.3955,101.4
516.461,248.7
516.495,35.7
516.599,322.8
516.6115,174.9
516.6578,292.9
516.7212,690.2
516.9023,717.3
516.9206,3442.2
516.9359,119.3
517.063,353.4
517.1444,324.1
517.1644,238.1
517.2219,461.3
517.3092,1216.4
517.385,744.1
517.8079,214.7
517.8845,435.7
518.0244,136.6
518.1522,137.1
518.3224,504961.7
518.6599,112.7
518.9257,27944
518.9841,468.6
519.1159,114.8
519.3258,123105
519.5058,335.4
519.7594,23.3
519.9177,159.6
519.9293,1196.2
520.0143,118.2
520.0275,141.4
520.2854,335.8
520.3404,82357.1
520.6702,104.3
520.7625,87.7
520.7778,239.1
520.792,113.5
520.9225,17764.2
521.161,100.3
521.2841,525.6
521.3176,446
521.3289,375.2
521.344,17591.5
521.3835,549
521.6129,157.4
521.8624,112.8
521.9259,893.5
521.9523,145.1
521.9754,351.5
521.9879,161
522.0829,220.2
522.1424,242.5
522.3173,122
522.3561,98865.3
522.3957,91.4
522.6829,469.6
522.8628,450.9
522.9196,911.7
522.9377,5678.6
522.9664,691.8
523.0557,565.9
523.3595,23650
523.5074,478.2
523.6004,112.5
523.7565,113.8
523.8303,163.3
523.9464,410
524.0614,652.3
524.0818,106.9
524.1071,124
524.1707,166
524.2538,20.7
524.2745,485.6
524.3718,96665.4
524.4105,439.2
524.5199,318.9
524.5983,433.4
524.6883,395
524.9349,477.6
524.9797,393.4
524.9936,330.9
525.0753,303.1
525.1076,648.1
525.3752,21686.4
525.4393,178.2
525.5465,164.8
525.6098,20.2
526.0443,110
526.1353,132.6
526.3301,908
526.3794,504
526.3978,716.8
526.4547,233.6
526.6307,371.7
526.7715,136
526.9246,200.9
527.5831,124.7
527.613,90.6
527.8436,95
528.1244,329.7
528.3454,109.6
528.3738,231.1
528.8824,8033.6
528.9541,2044.2
529.9444,647
530.0768,692.7
530.1162,363.5
530.2407,140
530.3585,1779.6
530.4998,110.5
530.582,319.7
530.6171,108.4
530.7019,167.1
530.8799,4078.6
530.9388,102.9
530.952,315.9
531.0072,157.6
531.0211,320.7
531.0507,633.7
531.2204,2755.9
531.2487,501.6
531.3114,332.8
531.3237,219.2
531.4461,357.8
531.4811,300.2
531.5577,174.5
531.6225,403.9
531.7727,117.5
531.7889,401.7
531.8244,275.1
531.8292,246.9
531.8934,559.6
531.9862,387.1
532.1691,336.7
532.2813,697.2
532.3385,4297.5
532.502,115.9
532.5953,150.9
532.634,666
532.6694,719.5
532.686,168.5
532.7467,660.1
532.9165,813.4
532.9668,1168.6
533.0345,336.9
533.0792,126
533.2999,537.3
533.3042,461.4
533.4,157.3
533.8256,188.8
533.869,434.4
533.8832,326.4
533.9888,226.8
534.1314,394.2
534.2965,133014.7
534.3177,2819.1
534.6736,504.7
534.8374,163.9
534.8762,98.1
534.8997,16742.1
535.0552,141.5
535.2998,28349
535.3449,156.7
535.6865,478.4
535.8319,171.2
535.8875,137.5
536.2951,5410.3
536.4339,215.4
536.7191,774.9
536.8968,11215.7
537.2659,96.2
537.2969,911.1
537.344,1282.3
537.4159,18.7
537.6089,17.6
537.8046,626.2
537.8803,89.1
537.9007,481.9
538.0726,140.8
538.0855,119.1
538.1971,394.2
538.2453,512.3
538.3201,265.5
538.481,113.7
538.8025,290.8
538.8945,964.1
538.9111,2384.9
538.933,1039.8
539.0082,714.9
539.2749,162.7
539.5085,603.3
539.8829,498.5
540.3181,393.8
540.4682,310.6
540.5538,679.1
540.627,315.8
540.8585,479.1
540.9083,776.1
541.1306,290.1
541.2057,107.8
541.3357,350
541.3862,1702
541.4774,699.7
541.9043,114.3
541.9438,604.6
542.1972,372.7
542.3225,123707.6
542.4484,287.6
542.4912,1031.5
542.6876,160.9
543.1378,351.7
543.2143,426.7
543.2269,122.8
543.2642,451.6
543.2834,503.1
543.3258,34026.8
543.4026,5638.7
543.4325,228.5
543.4551,539.8
543.795,201.7
543.8324,269.4
543.8748,24.5
544.0753,124.7
544.274,1884.8
544.3382,156902.3
544.6129,416.9
544.7883,191.2
544.8077,98.7
544.8845,95.4
544.9079,22.8
544.9279,788.5
544.9492,1929.3
545.3415,39931.4
545.4186,2884
545.6913,118.5
545.9697,145.1
546.1133,316.5
546.1474,484.1
546.2003,93.5
546.3253,193.2
546.3538,137771.6
546.5525,107.3
546.6248,19.7
546.8171,415.2
546.8536,326.7
546.8906,510.7
546.9229,735.4
547.048,484
547.0817,226.2
547.1153,124.8
547.3572,35591.9
547.5769,23
548.3599,3377.3
548.4061,110.4
548.7236,101
548.77,163.3
548.7837,378.7
548.8778,403.4
549.9428,494.5
550.003,349.5
550.3455,438.7
550.4755,116.8
550.6075,1096
550.8089,93.4
550.8731,2557.1
551.5005,334.2
552.1245,668.2
552.2772,96.2
552.6043,472.4
552.8709,1994.4
552.9489,237.6
552.9709,289.6
552.9985,112.3
553.276,355.6
553.8322,170.3
554.0039,283.7
554.0218,117.6
554.0691,136.9
554.0988,25.4
554.1546,99.3
554.2154,20.9
554.4967,398.8
554.5212,101.6
554.8219,368
554.8638,598.2
554.9071,699.6
555.077,124.2
555.3237,171.2
555.5967,635.7
555.6223,124.7
555.7977,20
555.8246,98
555.9066,630.3
556.0376,670.7
556.3767,162.1
556.6774,19.3
556.7614,103.4
557.5058,302.2
557.6852,157.8
558.0028,381.3
558.2583,100
558.2964,33993.1
558.5518,296.2
559.105,590
559.2997,7291.1
559.551,109.5
559.6493,113.6
560.312,41312.9
560.4017,749.7
560.5319,480.2
560.676,556.8
560.8172,734.3
560.9094,182.9
560.9261,525.5
561.1295,185.9
561.3156,7087.2
561.3636,21.5
561.4135,14516.6
561.9115,127.6
561.9673,515.8
562.2895,93.5
562.3276,28493.3
562.3852,19.5
562.4168,4712.3
562.6586,105.6
562.7253,128
563.1475,385.6
563.225,117.1
563.2872,118.6
563.3311,7120.7
563.429,10688.7
563.4594,136.8
563.4829,155.6
563.6697,109.9
564.2226,133.4
564.305,104.6
564.3274,987.2
564.8501,365.7
564.9946,195
565.0744,383.9
565.0796,375.9
565.1313,648
565.3329,681.5
565.4319,344.1
565.684,125.1
565.7933,755.5
566.1739,21.7
566.196,931.3
566.2782,18.4
566.3227,23125.9
566.4589,484.4
566.4847,196.2
566.8441,475.2
567.191,109.4
567.2311,123.8
567.3259,3109
568.0597,218.1
568.2699,102.2
568.3067,450.7
568.3382,9652.7
568.666,117.6
568.7118,353.6
568.9703,444.8
569.033,247
569.2726,472.2
569.3415,1374.9
569.4622,303.4
569.813,718.9
570.1537,889.3
570.2693,177.9
570.392,308.8
570.4439,627.7
570.8674,6352.7
570.8972,20.2
571.061,361
571.7064,383.5
571.7862,334.7
571.9988,19.2
572.3649,672.6
572.4639,114.1
572.5744,491.2
572.59,236
572.8646,5331
572.9052,191.6
572.9812,1641
573.3836,101.2
573.437,209.8
573.6469,368.8
573.6838,20.2
573.7018,166.4
573.966,173.3
573.9929,437.4
574.3795,156.8
574.4633,486.9
574.6035,99.8
574.8615,1004.6
575.1735,262.9
575.2019,299
575.4309,95.4
575.5048,9802.6
575.5593,339.2
575.9536,725.6
576.0106,507
576.2813,4646.3
576.5068,997.2
576.6319,189.2
576.6943,446.1
576.8844,10774.7
577.0696,117.8
577.1225,103.2
577.1414,891.9
577.1837,19.4
577.3856,547.5
577.4625,241.5
577.5843,216
577.7867,355.8
577.8881,750.2
578.0072,303.9
578.1424,206.9
578.2628,669.5
578.5224,612.5
578.7098,173
578.823,136.9
578.8814,9401
578.9781,159
579.0165,376.3
579.4372,151.9
579.6723,370.5
579.7826,118.5
580.0226,465.8
580.143,323.4
580.6059,651.1
580.8781,2357.6
580.8965,1899.4
581.2563,19.9
581.3092,585.9
581.3884,21.6
581.4956,218.3
581.5772,392
581.8412,695.8
581.926,468.7
581.955,309.9
581.9799,21.6
582.0257,275.9
582.0451,249.8
582.2153,398.8
582.2371,870.8
582.2733,18
582.2972,3478.1
582.3582,551.2
582.39,106.9
582.4377,274
582.4699,1148.9
582.4914,366.2
582.5348,912
582.5387,1005
582.5472,1358.2
582.6123,372
582.649,346
582.6532,406.9
582.6748,349.3
582.9353,95.4
583.2558,3139.4
583.2995,1241.4
583.4169,947.9
583.9215,143.8
583.9361,568.7
584.3122,460.9
584.6413,114.3
584.7712,100.6
584.8418,576.4
584.9186,330.2
585.1183,173
585.1547,105.1
585.1892,414.6
585.2719,5768.7
585.8483,292.2
586.0109,173.1
586.31,5307.7
586.5324,370.6
586.8418,1837.7
586.9131,638.1
587.0376,500.4
587.1355,97.6
587.4119,806.1
587.648,23.1
587.9201,472
587.9971,100.5
588.3401,461
588.3852,132.4
588.6344,21.1
588.8398,3834.2
588.9981,483.9
589.1155,169.8
589.195,154.8
589.2527,214.9
589.3147,404.1
589.4278,181.7
589.5733,361.2
589.7319,20.7
589.7546,224.5
589.8421,158.1
589.8662,471.2
590.0553,131.8
590.1657,361.4
590.3234,692
590.4149,164.9
590.4389,159.2
590.6021,449.2
590.837,319.1
590.922,430.7
590.944,218.9
590.9688,21.5
591.1064,189.6
591.2559,265.3
591.3447,172.5
591.5014,182.3
591.5651,98.1
591.7966,88.3
591.8469,542.1
592.0154,120.4
592.2567,738.7
592.3607,476.2
592.6234,207
592.6422,410.4
592.7786,93.9
592.8584,5136
592.937,412.7
593.1442,20.3
593.2202,119
593.5949,471.6
593.7722,22.3
593.8609,429.6
594.106,307.3
594.2432,18.7
594.3787,97.1
594.4888,108.8
594.8556,6260.8
595.323,147
595.4364,168.4
595.5279,20.9
595.8217,116.5
595.9792,303.6
596.0245,206
596.2306,103.4
596.3762,184.1
596.4666,124.8
596.5086,231.5
596.7643,118.6
596.8525,1799.6
596.8702,996
597.097,107.2
597.4492,6494.1
597.4862,11606.1
597.5105,158.5
597.6992,785
597.9912,358.8
598.3058,566.6
598.4541,3682.4
598.489,739.6
598.585,403.9
598.6094,87.6
598.64,104.8
598.8669,733.2
599.0577,109.8
599.4348,379.8
599.4654,4922.2
599.4855,328.5
599.5033,1253.6
599.579,99.6
599.8099,132.5
600.2797,848.5
600.4488,213.4
601.4075,179
601.4831,933.6
601.5182,165.3
601.7837,187.4
601.8534,374.6
602.2979,378.8
602.5498,90.6
602.7201,117.5
602.8076,21.7
602.8868,864.2
602.9966,417.7
603.4568,19.8
603.4815,140.2
604.0448,122.2
604.1803,435.3
604.3832,19.6
604.656,134.9
604.8848,642.3
605.0834,96.4
605.272,110.2
605.633,130.6
605.7783,129.4
605.8705,21
605.891,299.9
606.0881,191.2
606.4008,414.8
606.4516,157.4
606.7416,20
607.0497,452.6
607.1714,8897.8
607.233,728.8
607.2845,546.2
607.3836,137
607.542,326.1
607.7451,194.3
607.8935,103.6
608.1753,707.2
608.1892,107.8
608.37,143.6
608.4441,767.6
608.7277,153.2
608.7895,251.1
608.8314,937.8
608.8652,103.4
609.0683,634.1
609.1471,271.1
610.1464,154
610.1601,132.8
610.3734,22.9
610.4698,328.3
610.8295,1379.8
610.869,96.2
610.8865,581.1
610.9262,18.9
611.0024,378.7
611.143,344.3
611.2027,596.1
611.2653,340.7
611.4083,199.2
611.8456,763.7
612.8283,1203.7
612.8591,21.2
612.9153,612.9
612.9302,106.3
613.3918,19.7
613.4235,101.4
613.5198,172
613.5585,114.9
614.6851,22.1
614.7909,483.5
614.8283,255.9
615.0579,227.4
615.4602,2732.7
615.5214,801.5
616.0499,159.1
616.1146,327.9
616.2334,405.7
616.4638,508.6
616.6832,338.7
616.7659,187.3
616.8981,112.5
617.337,191.5
617.4559,484.9
617.476,31627.1
617.4931,771.4
617.8204,632
617.8933,21.8
618.0588,218.5
618.4793,10794.3
618.706,19
618.767,23.9
618.783,498.5
618.8575,384.1
619.2228,501.5
619.3072,628
619.4917,36259.3
619.9588,106.3
620.1229,161.7
620.1482,700.8
620.286,109.9
620.495,13138
620.5571,466.7
620.5772,456.2
621.1061,131
621.1816,746.3
621.2888,149.8
621.4692,611.2
621.486,4572.3
621.6111,21.2
621.6667,101.7
621.8571,342.1
621.8953,870.7
622.3057,130
622.4874,727.1
622.498,166.4
622.7792,24.3
623.0904,186.9
623.1364,30375.4
623.4608,177.4
623.4788,110.5
623.5028,506.6
623.5361,551.9
624.1399,5087.4
624.5384,335.2
624.937,360.2
625.1406,102.7
625.3373,552.9
625.4054,311
625.4985,755.3
625.6864,791.6
626.154,123.8
626.2304,232.6
626.2602,760.2
626.3732,357.7
626.483,94.1
626.5211,135.3
626.798,610.7
627.0125,109.8
627.2175,19.8
627.5367,926.1
627.7859,143.8
628.252,150.6
628.3295,545.6
628.5399,26.9
628.6009,549.7
628.6979,20.2
628.7384,652.2
628.9417,505.2
629.0234,342.8
629.0884,755.5
629.1534,67250.7
629.2309,127.4
629.5902,19.5
629.6748,130.5
629.7552,166.3
630.0295,95.1
630.1572,13684.2
630.4829,136.8
630.615,118
630.7851,533.9
630.8217,357.9
630.945,408
631.0832,284.5
631.1588,1613.4
631.4212,530.7
631.5168,19.1
631.5629,25.1
631.6285,738.8
631.7775,106.9
631.8293,673.2
632.0175,86.8
632.2332,106.7
632.3355,118.1
632.4144,483
633.0454,504.8
633.211,122.1
633.2313,231.5
633.4398,1454.2
633.4495,753.1
633.4714,575.2
633.6135,157.1
634.0383,360.5
634.195,186.4
634.8431,2814.4
635.337,285.6
635.466,3438.5
635.4854,781.2
635.5881,754.7
635.6869,111
635.725,320.1
635.7789,104.3
636.8404,2842.1
636.876,211.5
637.407,140.7
637.7533,573.7
638.4329,766.4
638.8379,1285
639.2457,88.9
639.6856,123.6
639.8005,18
640.1127,18.7
640.4478,154
640.4637,447.1
640.6004,319
640.8132,176.1
640.87,490.2
640.9652,240.4
641.1733,387
641.4584,480.5
641.5201,286.7
641.541,100.3
641.7224,213.6
641.9387,20.3
642.1339,19.5
642.1798,308
642.3797,175.4
642.7549,302.5
642.9028,469.1
643.1132,373.6
643.1432,915.7
643.4303,627
643.4412,557.5
643.5849,107.3
643.8792,415.2
644.0242,637.7
644.0829,367.5
644.1314,477.7
644.1475,458.1
644.1943,226.7
644.2815,471.8
644.4316,25
644.4447,164.6
644.9552,284.6
645.1185,23815.9
645.4197,281.1
645.4608,609.9
645.5302,355.7
645.6521,296.9
645.6716,725.4
646.1221,3864.8
646.3741,537.2
646.3922,192
646.4298,820.9
646.5848,195.9
646.5957,213.5
646.6909,367.5
646.8347,133.3
646.9307,1560.6
647.0955,625.8
647.1251,650.2
647.1935,130.6
647.2618,780.9
647.3989,106.8
647.4709,117.3
647.8208,116.7
648.1331,100
648.1443,496.4
648.2494,172.5
648.3127,474.4
648.3349,887.5
648.3857,1657.1
648.5215,507.4
649.1092,89.1
649.1778,226.4
649.4822,113.7
650.1104,95.4
650.441,3378.2
650.4735,117.2
650.818,1496.6
651.1353,60298.5
651.7151,97.9
652.0229,325.2
652.0531,21.5
652.0776,21.4
652.1391,12308.4
652.2113,163.5
652.3425,151.3
652.4635,603.5
652.6383,585.2
652.6767,155.3
652.702,386.7
652.7624,444.5
652.7981,229.7
652.8141,3658.9
653.1118,1063.9
653.1421,451.2
653.2515,114.5
653.4,813.8
653.5099,512.8
653.8617,98.9
653.8915,763.4
653.9466,394
654.0543,267.2
654.3189,130
654.5924,253.5
654.6273,22
654.6632,413.5
654.6776,214.4
655.2063,161.7
655.7044,236.7
656.219,121.3
656.5925,141.3
656.7105,468
656.8418,690.9
657.2354,425.3
657.3598,19
657.3886,90.2
657.5705,21.2
657.6277,20.3
657.962,182.8
658.1112,439.8
658.3251,135.9
658.4363,239.7
658.5004,270.6
658.5937,165
658.6267,291.7
658.8832,19.1
659.5034,93
659.836,246.5
660.5082,302.6
660.5955,18.8
660.8108,335.1
661.0832,10489.9
661.1219,162.9
661.4683,238.6
661.8084,102.3
661.8347,121
661.8514,304.6
662.0878,750.2
662.2555,428.4
662.2947,18.8
662.6004,98.8
663.3474,129.8
663.4555,802.1
663.5389,101.7
663.7163,109.9
663.7311,225.9
664.0228,20.9
664.1444,20.8
664.1776,267
664.2131,105.7
664.4683,1147.7
664.8494,102.6
664.8705,647.8
664.9962,100.6
665.0154,21.1
665.1299,18.6
665.1721,155.6
665.4629,132.9
665.5243,122.1
665.9694,451.1
666.1574,395.8
666.1999,123.9
666.2996,528.6
666.4065,208.3
666.456,436.1
666.4842,7741.9
666.5944,853
666.8754,111.1
667.0144,129.7
667.1,27828.5
667.3139,197.1
667.4879,1888.7
667.5967,338.2
667.6276,433.6
667.7256,303.5
667.7637,760.9
667.9205,95.8
667.9908,798.3
668.1035,4421.6
668.2333,441.3
668.39,663.4
668.4586,104.2
668.5505,19.9
669.0735,820.7
669.1061,221.3
669.429,787.2
669.4939,708.7
669.5759,128.2
669.7013,123.6
669.96,183.4
669.9797,144
670.3125,105.8
670.3402,742.6
670.4863,93.1
670.7718,247.6
670.8287,485.8
671.425,109.1
671.5824,916
671.7091,453.9
671.7469,245.6
671.812,130.5
672.0715,253.4
672.4219,2999.5
672.645,209
672.8271,429.5
672.8635,447.2
672.99,166.7
673.0391,24.2
673.1173,58333.3
673.3171,188
673.4278,666.9
673.5124,105.3
673.5411,18.1
673.6348,698
674.1209,9813.7
674.6688,687.6
674.8417,435.9
674.889,117.9
675.0053,109
675.0571,140
675.095,235.3
675.121,516.9
675.3556,623.3
675.5449,12572
675.5928,370
675.707,753.6
675.7238,108.1
675.8096,631.7
675.8528,452.1
675.9446,22.1
675.9859,178.7
676.0468,114.9
676.5174,20.7
676.5462,1571.8
676.7248,303.2
676.9916,214.6
677.6919,613.3
677.7953,343.6
678.945,250.8
678.9937,630.3
679.5215,19.8
679.8492,410.3
679.9207,108.2
679.9392,100.9
680.3593,94.9
680.498,115.7
680.7097,107.8
680.8433,171.3
681.2387,518.6
681.2699,161.8
681.3807,538.4
681.4484,430.5
682.0325,531.7
682.0643,590.3
682.0959,476.3
682.3812,482.9
682.5262,131.3
683.0647,3820.7
683.0741,3538.5
683.3918,145
683.4512,2046.6
683.5278,157.5
683.6981,212
684.2477,128.2
684.3246,218
684.4235,211.3
684.4858,550.4
684.5644,346.5
684.7281,209.6
684.7761,104.8
684.8612,911.4
684.9846,19.3
685.0319,219
685.0788,445.6
685.1165,394.5
685.395,671.1
685.4365,7599
685.6136,193.3
685.6854,145.2
686.4411,938.7
686.4966,115.3
686.6217,507.5
687.1598,124.5
687.6557,359.9
687.7175,93.4
688.1592,413
688.4134,1118.2
688.4753,132.2
689.0819,18513.5
689.0911,18145
689.1871,555.2
689.2708,91
689.4185,221.4
689.4965,119.2
689.5604,4560.4
689.8698,368.1
690.0262,210.8
690.0955,2801
690.4944,333.4
690.5931,415.1
691.0618,185.6
691.0872,136.7
691.102,352.4
691.3769,314.9
692.124,154.1
692.1912,1014.5
692.3177,168.3
692.5337,182.9
693.3136,210.3
693.5676,129.3
693.6091,96.6
694.0133,228
694.797,354.5
694.9013,272.1
694.9563,381
695.0349,19.1
695.0994,38822.1
695.1581,332.9
695.2375,543.5
695.3182,744.6
695.5103,1874.8
695.7181,19.3
696.103,6694.8
696.3004,340.2
696.4164,392
696.514,138.6
696.7994,307.3
696.8181,445
696.9269,357
696.9567,19.7
696.9772,94.5
697.3683,17.5
697.5269,13303.1
697.5929,42.6
697.6102,422.8
697.6863,765.6
697.939,23
698.1454,190.2
698.3175,790.9
698.3491,245.4
698.5301,2822.9
698.7358,174.2
699.6389,109.3
699.8354,518.7
700.1278,383.1
700.4189,908.1
700.5106,21.7
701.0853,291.9
701.1448,129.5
701.3026,113.7
701.4635,18.2
701.5604,35394
702.0101,115.1
702.1991,114.3
702.3437,4053.3
702.5357,235.2
702.5639,14078.4
703.1937,724.7
703.5761,113250.5
703.8555,460.8
704.0453,233.8
704.4486,5004.7
704.5251,293.9
704.5798,44517.3
704.6668,351.4
704.8432,127.4
705.0566,3534.2
705.3567,312.7
705.4528,504.4
705.5819,3798.9
705.7673,524.9
706.0671,90.5
706.2934,122.9
706.3683,476.2
706.4201,137.2
706.5404,1318.9
707.0426,178.5
707.3943,97.1
707.5471,647.3
708.3776,304.1
708.4409,20.6
708.6531,93.1
708.9099,19.4
709.252,19.1
709.3823,458.6
710.2081,144.8
710.7731,1193.4
710.8341,557.2
711.063,11211
711.0743,14549.9
711.1176,362.6
711.1966,487.9
711.3575,563.8
711.4062,396.4
711.4836,783.2
711.5416,4712.6
711.7119,450.1
712.0742,1440
712.4768,476.6
712.5454,1401.1
712.7941,305.6
712.9757,685.8
713.0703,230.9
713.2842,629.1
713.5013,1832.2
713.6358,106.9
714.0742,137.1
714.1922,467.6
714.2826,735.9
714.4969,860.4
714.7093,25.8
714.9251,263
716.0383,735.1
716.2301,354.2
716.2946,20.4
716.6976,130.8
716.9915,428.5
717.0813,17548.4
717.3423,524.3
717.3933,230.5
717.4722,490.7
717.7407,103.3
718.0846,2422.5
718.1118,384.7
718.2285,254.7
718.5768,215.3
718.6236,139.9
718.6868,470.8
718.739,366.4
718.9835,273.3
719.4512,383.7
719.5262,97.5
719.7107,105.3
719.8799,543.1
720.1017,17.3
720.3168,366.3
720.5898,208.7
720.8902,159.3
721.4792,60102.3
721.5717,127.4
722.0381,105.1
722.3857,120.4
722.4557,415.5
722.483,22762.7
722.9427,24.9
723.0868,509.8
723.2221,111.5
723.452,358.1
723.4952,8178.8
723.5423,39642
723.8712,548.2
724.0504,98.2
724.467,155.3
724.4969,1205
724.5459,15135.2
724.6901,143.9
724.7422,99
724.8516,185.8
724.9187,19.5
725.1156,422
725.2506,177.1
725.5584,106405.9
725.8196,621.3
725.9705,512.3
726.1432,471.7
726.3652,610.4
726.4158,696.9
726.4744,442.5
726.5616,42217.3
726.7179,333.4
726.9634,656
727.0276,2387.6
727.1015,20
727.3349,89.4
727.4833,456
727.5632,5519.4
727.6125,99.2
727.7958,498.3
728.2772,20.1
728.3877,720.9
728.4429,687.2
728.5611,334.6
728.5945,112.1
728.8334,618.8
729.3889,300.1
729.4843,124.9
729.592,8727.3
729.7502,160.5
729.9119,457.9
730.0025,330
730.0918,885.1
730.1323,718.4
730.3589,155.3
730.393,678.1
730.5399,3516.4
730.5708,614.8
730.5935,1711.9
730.6882,296.6
730.9194,347.7
731.0381,127.7
731.5431,2439.7
731.6073,2966.7
731.7205,410.9
731.7991,1095.1
732.0098,167.4
732.1594,400.1
732.2031,343.3
732.3537,480.1
732.4807,1014.3
732.5552,41529
732.6125,609.6
733.0447,6608.6
733.0563,7950.6
733.0964,110.6
733.281,253.3
733.2999,620.1
733.5585,13412.7
734.0585,567.9
734.1306,448.1
734.1685,336.9
734.2138,763.6
734.5711,18469.7
734.6355,131.4
734.9922,751.9
735.273,486.5
735.3567,101.6
735.53,659.3
735.5744,4355.8
735.9355,198.4
736.3681,283.9
736.3852,178
736.7586,864.2
736.7649,824.5
736.929,150.8
737.0416,316.3
737.249,368.1
737.4534,12290.9
737.7702,165.2
737.7953,113.3
737.9205,182.8
737.9774,474.4
738.0665,334.6
738.147,20.8
738.3054,250.7
738.4564,4829.1
738.9385,720.3
738.9624,746.2
739.016,985.4
739.0632,10296.3
739.4684,211.6
739.5162,4693.1
739.6542,473.5
739.733,95.1
739.7547,110.3
740.066,248.1
740.2728,526.1
740.4718,207.7
740.4969,92.8
740.5194,419.7
740.5581,1706.2
740.5945,482
740.6803,104.6
740.7888,20
740.9035,90.3
741.0098,398.4
741.2999,523.7
741.3566,108.3
741.5321,12485.6
741.8091,425.4
742.5111,578.2
742.5359,5560.7
742.576,7751.1
743.0121,215
743.2588,766
743.4282,127.5
743.5808,937.2
743.9574,779.5
744.0338,113.6
744.5541,3215.4
744.5917,16128.4
744.6237,569.6
744.6331,772
744.6925,319.8
744.7994,690.1
745.1927,90.4
745.4793,22143.7
745.5587,1079.1
745.5946,3621
745.6303,19.5
745.7255,103.6
745.904,19.3
745.9865,458.4
746.2396,491.2
746.3762,207.9
746.4826,5867.6
746.5722,2022.8
746.6076,8941.9
746.677,304.4
747.2436,147.5
747.447,332.6
747.4955,9195.3
747.5495,290
747.6117,1544.3
748.0024,150.4
748.0386,482.8
748.064,97
748.15,111
748.351,155.4
748.5,1090.6
748.5725,176.3
748.66,462.8
748.7061,615
749.0113,1356.8
749.0738,118.3
749.1562,592.9
749.5102,5423.5
749.608,368.8
749.6779,339.1
749.9714,380
749.993,171.8
750.0458,1950.1
750.0665,478.1
750.5155,1856.6
750.7515,795.9
751.4239,21.6
751.5413,173.1
751.5741,4412.1
751.7102,19.7
751.7427,222.4
751.9074,367.2
752.4888,97
752.5226,2571.1
752.5781,2467.5
752.8068,131.7
752.9218,101.1
753.4949,796.4
753.5238,861.3
753.5896,2857.2
753.6835,19.9
753.9876,154.9
754.152,471.5
754.2287,146.7
754.3518,98.2
754.3918,102.4
754.5371,30202.6
754.5935,654.3
754.6219,19.9
754.695,320.8
754.8025,282.6
755.0277,4152.9
755.3257,215.7
755.405,18.7
755.4651,274.9
755.5403,8727.1
755.8756,194.6
755.944,19.9
756.0066,21.8
756.213,747.7
756.4336,165.6
756.5549,36973
756.6735,384.3
756.7238,18
756.8344,18.8
757.0103,612.4
757.4792,199.5
757.5578,13973.8
757.623,1699.7
758.1726,606.1
758.4156,118.1
758.5709,1232717.3
758.7534,437
759.5743,548452.7
759.6395,1853.9
759.6985,225.1
759.7294,163.4
759.8747,634.5
759.909,154.8
759.9867,158
760.1111,399.6
760.3942,149.3
760.5877,390458.7
760.638,92.3
761.0454,2729.5
761.451,848.5
761.4819,139.5
761.5903,188371.1
761.6932,148
761.7355,461.5
761.9813,447.3
762.3896,120
762.4649,19.2
762.5932,44201.4
762.9171,102.1
763.1076,689.1
763.1679,24.8
763.2498,735.2
763.3129,91.3
763.4357,22.1
763.4615,892.6
763.5253,165.9
763.5958,3712
763.6253,307.3
763.9141,21.8
763.9811,104.3
764.5322,319.2
764.5577,4331.7
764.614,632.1
764.6501,137.3
764.6941,435.7
765.3489,111.9
765.4622,485.4
765.4827,741.8
765.5052,688.4
765.565,607.3
765.6827,144
765.7959,185.6
765.9113,524.3
766.2434,21
766.3782,91.3
766.4736,677.2
766.5357,623.8
766.5755,28588.7
766.7998,100.7
767.1769,385.6
767.5789,10489.1
768.3264,256.1
768.5534,1892.7
768.5918,48867.6
769.4806,710.1
769.4983,104.4
769.5477,409
769.5954,23245.2
769.7733,122.4
769.9097,236.1
769.9663,111.4
770.0217,364
770.1662,17.7
770.5108,4062.9
770.6089,6998.1
770.699,505.4
770.7282,344.6
770.8246,431.2
770.96,422.4
770.9933,4232.5
771.0152,728.4
771.4811,122.6
771.5725,247.1
771.6122,1741.6
771.818,544.5
771.9976,596.3
772.1148,25
772.3344,18.2
772.5283,373.4
772.5868,10636.7
772.6273,616.5
772.6884,142.3
772.7389,371.5
772.9267,94.3
772.9889,382.7
773.2128,739.7
773.4319,111.1
773.5153,336.6
773.59,1606.2
773.6273,480.1
773.7536,175.9
773.9899,401.5
774.011,271.7
774.2694,242.9
774.5542,757
774.6035,1638.7
774.8906,356.4
774.9825,188.1
775.0448,291.1
775.1382,375.4
775.4435,210.3
775.5443,631.8
775.6199,271
776.0685,264.5
776.4303,376.6
776.5222,795.3
776.682,94
776.8852,124.1
777.0101,4708.8
777.4289,114.1
777.542,684.8
777.5846,123.1
777.6755,866.9
778.0453,1868
778.537,21690.6
778.7846,330.7
778.8676,150.5
779.4826,412.8
779.5407,9230
780.3472,114.2
780.4061,331.5
780.5529,727047.3
780.6255,21.6
781.05,494.5
781.5564,328049.6
781.9923,269.5
782.1786,129.1
782.5705,632398.3
783.027,3458.9
783.1056,699.2
783.5738,296620.1
783.643,108
783.6756,252.6
783.8412,118.3
783.8744,20.5
784.4908,96.7
784.5227,19.5
784.5872,369119.3
785.3396,19.7
785.5902,182262.9
785.6551,3210.6
785.8841,188.6
785.9376,297
786.1502,373.8
786.1794,784.1
786.4294,18.1
786.4878,171.6
786.6028,335726.9
786.6591,555.4
786.7889,389.4
786.8486,101.1
786.9924,491.5
787.0996,21.2
787.171,111.9
787.4091,769
787.6058,166381
787.6707,1248.2
788.3453,331.6
788.5568,8359
788.6061,27605.7
788.622,13916.2
789.5643,832.5
789.6229,8430.1
790.0798,544.7
790.3531,743.5
790.574,22099.7
790.6221,571.5
790.6796,354.5
790.9234,528.5
791.0086,640
791.0344,368.3
791.4029,228.1
791.5048,744.3
791.5476,113
791.5773,6421.1
791.8491,181.3
791.9568,127.4
792.1729,562.7
792.5915,14924.9
792.9628,118.1
792.9837,929.1
793.1513,339.4
793.5947,4413.5
793.9504,142.2
794.182,676.3
794.5694,1596.6
794.6075,57789.1
794.7815,108.3
794.8209,21.1
795.3336,172
795.46,106.6
795.5191,409.5
795.6107,27769.3
795.7008,96.6
795.7348,105.3
796.3972,706.7
796.4646,93
796.5268,141286.4
796.5856,1245.3
796.624,7589.3
796.7302,1489.6
796.763,113.4
797.2353,117.2
797.3265,21.5
797.5301,60523.3
797.5932,943
797.6264,4376.1
797.9368,106
798.0032,116.5
798.0751,337.9
798.5441,34042.8
798.6943,132
798.8296,406.2
799.001,973.7
799.0815,750.7
799.2599,471.5
799.3032,953.5
799.5459,14993.4
799.6047,466.8
799.6705,725.4
800.2397,160.7
800.7808,116.1
801.2364,316.6
801.5397,699.7
801.6374,19.9
801.7193,397.9
802.4145,141.3
802.4529,91
802.5379,6065.8
802.6681,200.5
802.9935,557.9
803.2136,357.2
803.5416,981.7
803.8032,158
803.9187,300.4
804.1854,131.7
804.553,271012.8
804.7987,121.7
805.4338,541.9
805.5563,133844.7
805.7626,394.6
806.1314,635.3
806.3001,636.7
806.457,466.2
806.5699,290505.8
806.7594,768.8
807.5729,141170.5
807.6362,133.3
808.4013,180.4
808.5858,216849
808.7619,265.4
809.2119,119.3
809.4045,302.5
809.5888,111125.5
809.6565,107.4
809.995,767.4
810.2632,372.9
810.4085,113
810.5134,409.4
810.6029,135790.7
810.6524,111.8
811.3606,178.5
811.6058,73037.3
811.6702,11866.5
811.9912,739.7
812.1937,508.5
812.4181,301.8
812.62,33390.6
812.6735,2466.9
812.6995,298
813.2397,423.8
813.2706,148.7
813.3894,852.3
813.6218,18169.1
813.6863,8188.7
813.7903,806
814.0083,166.2
814.0673,116.5
814.086,170.1
814.155,117
814.5731,2435.5
814.6228,483
814.6892,3808
814.9541,719.4
815.2314,703
815.4842,895.9
815.5802,244.2
815.6075,545.4
815.9484,17.8
816.3314,660.6
816.5892,27310.4
816.989,250.4
817.0491,423.5
817.5927,7024.8
817.7444,561.3
818.1012,407.5
818.3666,882.6
818.569,590.9
818.6069,8513.4
818.7353,261.1
818.933,235.6
819.6103,2310.9
819.6897,98.3
819.9014,453.6
820.0592,331.4
820.133,20.1
820.2338,159.6
820.527,53791.4
820.5921,208.7
820.6243,897.6
820.6823,321.4
821.0267,708.8
821.5304,21213.6
821.6256,480.6
822.0394,458.4
822.1661,94.3
822.2504,220.3
822.4722,127.8
822.543,34660.9
823.546,15707.7
823.7811,159.6
823.9114,314.6
824.0638,241.1
824.1338,19.4
824.3849,21.1
824.5588,26949.7
825.5621,10279.1
825.6537,320.1
825.7708,158.7
825.9684,506.7
826.2279,188.1
826.5574,815
826.6728,325.9
827.6155,476.9
827.9926,782.5
828.4125,150.7
828.5528,58686.6
829.2071,172.1
829.5561,28335.9
829.6681,165.3
829.7253,646
829.8942,406.8
829.9883,117.3
830.2109,542
830.5693,42926.1
830.7811,594.4
831.0158,121.7
831.5091,381.7
831.5722,21654.4
831.6526,99.1
831.7231,124.8
831.7906,189.2
832.0198,414.3
832.2848,453.2
832.3329,119.3
832.3572,211.1
832.5852,63340.5
832.7117,121.7
832.9373,190.9
832.9602,171.1
833.0775,106.1
833.288,106.2
833.324,137.2
833.5878,30241.5
833.7907,391.4
833.8741,502.5
834.3925,479
834.6025,28127.6
834.6554,205.5
834.8816,370.8
835.5364,1078.5
835.6053,14465.7
835.6746,1166.3
835.6961,1038.6
835.7234,130.1
835.7896,177.2
835.8605,696
836.0678,732.5
836.442,176.5
836.6193,3095.3
836.97,303.8
837.1393,192.9
837.2179,95.6
837.6236,751.9
837.6771,538.3
838.0306,465.2
838.1185,489.9
838.4195,222
838.5118,2960
838.6363,635.1
838.723,19.6
838.8576,97.1
839.2323,377.6
839.3595,228.1
839.5192,832
839.6366,494.1
839.7446,127.5
839.7759,236.9
839.9491,363.4
840.0237,883.4
840.1125,509.9
840.3173,271.8
840.3945,984.1
840.6642,24.3
840.8283,540.1
840.8617,645.6
840.8862,588.9
841.1265,18.5
841.3413,278.2
841.4031,94.6
841.5975,150.1
841.7667,460.8
842.0676,466
842.1882,150
842.3012,405.6
842.3804,489.5
842.5218,580.5
842.903,368.4
843.0286,168.6
843.2109,346.6
843.2433,18.6
843.5948,929.4
843.6159,514.6
844.5269,9637.9
844.6578,1337.6
844.8747,168.6
845.1109,410.7
845.2203,32.9
845.3984,422.1
845.4916,148
845.5298,2025.3
846.0949,178.6
846.5418,5268.5
846.8587,466.4
846.9655,204.2
847.0324,1005.5
847.3927,20.4
847.4425,1011.2
847.5445,903.9
848.1054,535.2
848.1444,575.8
848.5576,8135.8
849.1626,380
849.56,1895.6
850.1098,103.8
850.5043,238.1
850.5595,541.5
850.6738,444.5
851.2762,651.5
851.3592,1099
851.4641,19.6
851.5245,375.4
851.6747,368
851.762,380.1
852.067,337.8
852.3018,651.9
852.5104,914.4
852.7934,164.8
852.8004,165
852.8808,109.5
853.0331,392.5
853.093,22.5
853.2713,832.9
853.4014,258.3
853.4631,166.2
853.9159,167.1
854.3163,909.9
854.5683,1557.6
854.6965,302.7
854.9514,353.4
855.3436,130.1
855.3829,380.6
855.7115,19.7
855.7357,98.5
855.9301,337.8
856.2011,587.5
856.2316,321.3
856.3187,17.8
856.5846,4687
856.6958,661.3
857.3839,99.1
857.4074,123.6
857.588,1314.9
857.8103,131.3
858.5722,590.9
859.176,878.2
859.2392,22.6
859.5906,97.4
859.6692,488.5
860.0336,115.7
860.4991,135.1
860.5891,540.6
860.6392,697.2
860.7405,146.9
861.4526,1091.3
861.643,379.9
861.7698,793.9
861.827,415.3
861.9628,130.5
862.5102,1184.7
862.6315,447.5
863.8334,129.3
864.0513,113.2
864.2939,308
864.3285,23.2
864.8912,707.5
865.2031,711.4
865.3125,518.4
865.3334,709.3
865.392,23.6
865.4222,342.8
865.5519,128.9
867.468,286.5
867.5684,586.7
867.8661,1096.3
868.8964,1022.7
869.2049,376.3
869.6319,262.9
869.7604,403.2
869.8148,106.6
869.837,161.9
869.9715,1762.5
870.0005,980.2
870.018,1377.2
870.0527,984.8
870.0779,558.3
870.119,3161.3
870.1599,3114
870.1876,1784.8
870.2106,2273.2
870.2377,2881
870.2507,2147.8
870.2948,886.7
870.317,876.5
870.34,1600.7
870.3644,1302
870.3774,1195.7
870.3961,1343.7
870.4331,341.6
870.4435,322.4
870.5342,146.1
870.5744,367.8
870.6378,109.4
870.6744,461.2
871.2477,137.3
871.7549,368
872.0712,729.6
872.3528,1134
872.4702,176.7
874.1505,210.3
874.2033,18.7
874.3873,712.4
874.6546,3003.2
874.7096,1668.4
875.3189,258.2
875.4562,416.6
875.8617,328.5
875.9641,318.2
876.1768,554
876.2729,178.2
876.3404,145.8
876.5246,20.6
876.6006,145.9
876.7097,370.8
876.7879,512
877.079,850.9
877.1207,752.9
877.8369,756.2
877.9527,164.5
878.0492,405.1
878.5139,159.9
878.9996,257.4
879.3073,764.8
879.3511,818
879.4736,657.4
879.5826,239.2
879.8357,384.8
879.856,124
879.9288,120.8
880.0277,182.7
880.3332,763.4
880.4353,716.6
880.6338,933.2
880.959,23.1
881.2764,120.8
881.7946,228.1
881.872,104.8
882.0501,763.8
882.2297,165
882.5704,109.3
882.7355,564.2
883.4852,24.1
883.7475,259.1
883.791,491
884.0334,533.8
884.7474,119.5
884.8679,214.6
885.2012,403.8
885.8178,669
886.6797,254.8
887.5293,21.4
887.568,211.1
887.8309,194.6
887.8814,95.8
888.3381,17.1
888.5438,171.2
888.8473,185.1
889.0755,152.3
889.189,613.2
889.2117,150.1
889.8899,355
889.9572,119.1
889.9822,552.9
890.0172,196.9
890.0931,281.7
890.2658,366.9
890.315,138.1
890.4142,186.4
890.9585,396.7
891.2873,335.8
891.5556,582.1
892.3557,18.8
892.7196,745.9
892.9443,24.4
893.087,912.4
893.1135,1070.2
893.7791,738.3
893.9362,697.5
894.1349,118.9
894.1454,98.2
894.559,19.6
894.7367,632.5
894.9201,20.5
894.9532,95.5
895.45,251.2
895.8333,203
895.9511,380.5
896.3046,493.1
896.8384,496.2
897.0209,482.1
897.1154,1206.4
897.161,108
897.2146,705.2
897.6372,308.7
897.7309,791.6
897.9296,118.4
898.0562,167.1
898.1527,535
898.6816,18.3
899.2972,1045.5
899.5308,251.1
899.8579,499.8
899.983,564.8
900.1696,1385.8
900.427,548.7
901.0929,463.9
901.4826,427.4
903.0223,228.7
903.4526,264.5
903.8561,567.3
903.8834,471.5
903.8977,298.4
904.3784,1249.3
904.9977,326.8
905.2434,90.7
905.3056,364.4
905.8505,607
906.0531,99.9
906.6066,446
906.7341,445.8
907.3781,422.4
907.9976,109.5
908.6939,491.1
908.9816,267.5
909.1403,354.2
909.2168,973.5
909.926,157.2
910.7363,538.4
910.8395,708.1
911.2481,1542.6
911.2832,167.2
911.9733,126.9
912.4865,132.2
912.6223,129.3
912.6614,1419.6
914.2668,460.8
914.9634,972.6
915.1135,284.3
915.8297,740.5
916.2126,679.6
916.3287,518.2
916.3656,100
916.6216,165.5
917.0125,1266.2
917.4079,94.1
917.5681,1379.7
917.6234,376
917.652,296.5
917.7448,334.8
917.8506,164.6
918.0751,306.8
918.2554,89.1
918.2829,164.2
918.3924,146.6
918.5017,311.9
918.9814,21.4
919.531,242.2
919.6684,284.6
919.7942,346.5
919.8368,679
919.8932,1599.7
919.957,143.5
920.2046,2186.4
920.5925,733.4
920.622,20.3
920.7725,23.2
921.0868,159.9
921.1537,1187.2
921.2739,1091.3
921.3671,429.1
921.4157,293.9
921.5789,508.1
921.6691,142.7
922.0163,345.7
922.1759,704.9
922.4363,20.7
922.8108,809
922.8583,120.4
923.1927,24
923.6012,102.4
923.6938,107.6
923.7591,925.7
923.8689,662
923.8801,698.2
923.8923,539.5
923.9223,218.3
924.1253,97.7
924.1919,21.1
924.6296,129.2
924.7628,114.3
925.1742,163.8
925.2183,129.2
925.2669,538.7
925.3339,623.6
925.4802,194.2
925.7196,257.7
925.8793,480.7
926.1659,113.1
926.2295,99.6
926.3395,19.2
926.5641,472.4
926.5862,293.9
927.2941,175.2
927.3739,314.8
928.0959,633.2
928.1866,110.3
928.2252,281.3
928.2933,743.5
928.4423,147.4
928.6555,424.8
928.7897,1649
928.9191,21.3
929.0386,876.6
929.1198,1458.8
929.6492,609.7
929.7256,1347.2
929.9412,226.7
930.0881,1078
930.2518,324
930.8519,127
930.9271,183.5
931.4879,216.5
932.2641,164.3
932.7169,21
932.7621,118.8
933.3484,836.4
933.9518,1451.2
934.215,259.1
934.3648,141.4
934.4047,168
934.5795,23.7
935.4576,1058.9
935.8195,777.6
935.9448,743.4
936.1305,171.2
936.6432,117.5
936.7716,102.9
936.9457,112.2
937.521,117.3
937.6028,2732.2
937.6513,127
938.5992,106.3
938.6592,714.4
938.7387,751.8
938.8713,112.9
938.9447,98.9
938.9847,126.9
939.0889,488.8
939.4679,499.9
939.499,267.3
939.5655,22.3
939.8569,811.1
939.8801,525.8
939.9232,1371.9
940.614,129.7
940.7639,454.6
941.047,18.4
941.6742,533.4
941.7446,652.2
941.9844,524.3
942.1602,320.7
942.2316,151.7
942.4363,141.7
943.2306,918.1
943.2807,173.2
943.3775,430.1
943.5172,501.5
943.8556,265.5
943.9022,161.3
944.1663,19.6
944.8382,348.9
945.0678,19.9
945.2675,116.3
945.5277,118.4
945.5915,375.4
945.7583,157.9
946.092,101.8
946.2186,236.1
946.2601,392.5
946.3643,1189.1
946.5655,289.2
946.6224,100.1
946.758,718.7
946.8168,127.2
946.9853,514.7
947.3136,164.5
947.4849,116.8
947.9049,120.6
948.6481,390.7
949.0443,112.3
950.0955,19.3
950.1559,1346.6
950.9095,147.9
950.9505,316.7
951.0252,361.9
951.0818,245.7
951.1119,233.9
951.4901,178.6
951.6522,896.8
951.8829,93.1
951.9116,19
952.1494,176.2
952.348,121.7
952.4927,586.5
952.6087,300.2
952.797,798.9
952.8471,631.2
953.4678,266.5
953.4764,255.5
953.5483,736.4
953.6726,250.9
953.6944,19.7
954.3016,589.7
954.9181,106.5
955.5214,789.4
955.5673,651
955.9003,736.2
956.0783,559.8
956.1679,533.5
956.8997,190.8
957.2337,773.5
957.2643,123.8
957.2957,237.3
957.3539,176.5
957.7217,383.5
957.958,97.9
958.8313,127.2
959.1216,390.2
959.1963,134.6
959.3402,753.2
959.4951,368.8
959.5496,615.4
959.7141,233
960.2,121.6
960.6776,168
961.1959,375.5
961.2608,1013.6
961.3641,294.7
961.4431,225.5
961.636,409.2
961.8962,127.7
962.1854,2018.6
962.2536,116.3
962.3236,123.4
962.374,652.7
962.9723,99.3
963.5865,479.1
963.8513,591.1
963.8832,1101.7
964.0943,96.8
964.5093,482.8
964.6386,297.3
964.6746,832.6
964.7436,21.4
965.0825,551.2
965.212,1687.3
965.2564,2370.1
965.3789,252.4
966.4566,279.7
966.6402,132.5
967.0287,587.2
967.1127,101.4
967.3424,1252.9
967.4422,445.4
967.5813,1056.4
967.7473,1061.1
967.851,515.2
967.8769,704.8
967.9742,99.1
968.101,1354.9
968.2433,191.2
968.3299,1206
968.4045,1077.2
968.4549,383.1
968.5011,1067.4
968.5355,18.4
968.7123,253.5
968.8991,740.1
968.9895,320.5
969.0454,890.7
969.2126,675
969.391,22
969.6707,377.5
969.7758,101.1
969.8234,1108.2
969.8518,179.8
970.0491,335.3
970.3888,816.5
970.8763,768.5
971.1165,685.1
971.1541,129.9
971.1925,574.2
971.409,416.9
971.51,23
971.843,189.2
971.8979,236.2
972.162,102.1
972.3196,164.7
972.6046,125
973.0068,548.2
973.1444,106.5
973.2321,20.1
973.2866,441.4
973.5958,625.5
973.8069,464.2
974.0658,129.7
974.315,121.8
974.3893,824.8
974.5086,336.8
974.6936,650.7
974.9448,330.6
975.479,126.3
975.5059,523.8
975.8621,439.1
976.9817,889
977.0549,503.2
977.2751,1243.1
977.327,485.4
977.4188,735.1
977.5502,171.1
977.5895,597.4
977.6245,276.3
978.6021,602.9
978.7033,620.9
978.8802,163.6
979.0302,223.2
979.2706,1996.4
979.3262,483.1
979.4268,888.6
979.4687,688.8
979.5665,665.6
979.9675,1077.4
980.5845,603.1
980.6744,821
981.6144,378.5
981.7287,630.5
981.94,684.9
982.0723,17.9
982.3257,390.6
982.7416,355.3
982.8107,662.1
983.3192,19.3
983.5281,319.8
983.8003,270.5
984.563,819.6
985.3312,384.8
985.4113,135.1
985.4239,131
985.4378,129.4
985.5518,101.6
985.69,551.9
985.9219,925.4
986.1809,653.3
986.4471,133.4
986.5072,726.6
986.7025,375.7
986.7382,1376.5
987.0213,894.3
987.0644,124.3
987.1923,236.5
987.3455,780.5
987.6463,253.6
987.8733,766.8
987.917,185.3
988.8082,21
988.8728,21
989.4044,258
989.4791,303.7
989.7353,571.5
989.8805,519.2
989.9803,1303.6
990.0655,117.8
990.2073,266.5
990.5126,94.2
990.6243,1121
991.1704,180.8
991.1892,127.3
991.3659,638.3
991.7097,511.7
992.7035,311.9
993.3666,483.5
993.7513,120.4
994.872,161.5
995.0402,498.3
995.0952,1629.2
995.3273,525.1
995.4391,858.3
995.4936,259.2
995.9742,737.1
996.0182,427.8
996.0438,712
996.1392,502.6
996.72,454.4
996.8258,539.4
997.0391,1379.1
997.6221,590.3
998.2301,524.1
998.5614,96
998.7097,397.7
999.8142,353.3
