SPECTRUM - MS,
981.RAW,
FTMS + p ESI Full ms [50.00-1000.00],
Scan #: 1-40,
RT: 0.01-1.97,
AV: 40,
m/z,Intensity

50.002,94.1
50.005,453.9
50.0107,188.4
50.0149,272
50.0196,434.8
50.0224,440.6
50.0294,252.3
50.0408,116.8
50.0411,382.3
50.0721,18.5
50.0757,86
50.0853,579
50.0856,105.5
50.0922,131.8
50.0998,391.3
50.1076,754.3
50.108,275.1
50.1102,397.8
50.1186,238.2
50.1326,592.9
50.1394,131.5
50.1438,16.1
50.1474,202.6
50.1627,199.2
50.17,733.8
50.1717,320.3
50.1734,276.5
50.1816,16.1
50.1901,17
50.1914,87.5
50.2078,474
50.2101,148.3
50.2209,205.9
50.255,133.9
50.2602,137
50.2703,352.3
50.2728,267.2
50.2738,153.7
50.2745,87
50.2824,528.6
50.2851,214.9
50.292,183.5
50.2932,98.4
50.295,14.9
50.2974,94.3
50.3053,340.5
50.3278,578.3
50.3483,186.2
50.3556,85
50.3683,632.3
50.3755,115.1
50.3773,378.9
50.3918,351.4
50.3922,114.5
50.4279,207.7
50.4473,223.1
50.4546,513.2
50.4772,19
50.5067,511.1
50.5545,198.6
50.576,429.3
50.5804,96.9
50.5912,97.5
50.5932,161.2
50.5934,154.5
50.6126,236.7
50.613,217.2
50.6238,179.3
50.6516,206.7
50.6559,89.6
50.6593,101.4
50.6786,104
50.6827,472.3
50.7037,135.3
50.7153,85.3
50.7174,15.8
50.7217,201.2
50.7537,16.5
50.7618,111
50.7723,20.5
50.7754,218.1
50.8008,169.5
50.8205,216.7
50.8356,513
50.8656,114
50.872,269.3
50.8725,390.7
50.88,407.8
50.8813,572.1
50.8996,130.1
50.9007,536.9
50.918,128.1
50.9204,190.6
50.9281,108.6
50.9337,357.4
50.9418,315.1
50.9428,656.9
50.9489,112.6
50.9526,143.8
50.9554,173.4
50.9676,553.7
50.9755,527
50.9783,92.1
50.9901,188.1
50.9962,125.8
51.0157,24.8
51.0226,190
51.0309,275.2
51.0332,166.5
51.0419,76.3
51.0562,101.2
51.0639,510.3
51.0649,126.9
51.0701,21.3
51.092,205.4
51.0945,177.8
51.1059,353.5
51.1071,517.2
51.1229,209.6
51.1494,175.3
51.1503,203.6
51.1517,554.8
51.1577,665.6
51.1852,669
51.194,461.6
51.2137,169.5
51.2346,103
51.278,111.3
51.2925,347.3
51.2984,18
51.3233,125.7
51.33,210.1
51.3306,310.2
51.3548,16.7
51.3607,742.9
51.3663,619.3
51.3691,300.8
51.3757,118
51.3892,400.8
51.3923,15
51.3985,550.7
51.4271,92
51.4286,218.5
51.4447,166
51.4497,156.3
51.4608,18.5
51.4699,208.6
51.4714,262.8
51.5182,295.6
51.5286,109
51.5331,15.8
51.5387,16.4
51.539,14.5
51.5573,560.2
51.5705,105.3
51.5815,768.4
51.5927,18.8
51.5956,105.6
51.6068,345.3
51.6241,442.6
51.6283,94.2
51.6337,99.4
51.664,121.5
51.667,348.7
51.6811,403.3
51.6983,333.9
51.706,298.5
51.7117,562.1
51.7125,109
51.7275,256.4
51.7289,132.9
51.7394,93.6
51.7485,681.9
51.7609,16.6
51.7813,263.1
51.7891,418.4
51.7926,91.7
51.8042,371.7
51.815,160.6
51.826,422.5
51.8276,106.2
51.8388,17.1
51.8451,152.2
51.8544,194.9
51.8549,87.7
51.8646,112.7
51.8674,49.5
51.869,403.3
51.8715,324.5
51.889,89
51.89,254.9
51.9005,17.2
51.9144,21.5
51.9457,270.5
51.9557,188.1
51.9654,93.9
51.9823,84.9
51.9859,143.8
52.0024,102.9
52.0176,516.1
52.0238,17
52.0377,242
52.0558,674
52.0659,330
52.1014,99.3
52.1095,280
52.1219,615.4
52.1253,147.3
52.1287,18.1
52.1309,130.9
52.1407,406.1
52.1627,101.7
52.1701,98.9
52.1811,123.5
52.183,325.5
52.1846,109.5
52.2067,740.8
52.2236,90.8
52.2543,206.3
52.2573,686.7
52.2585,423.4
52.2591,104.2
52.2756,93.5
52.3122,202.4
52.3294,605
52.3349,96.1
52.3353,359.4
52.3396,253.9
52.3439,590.6
52.3458,576.6
52.3492,111.9
52.3546,134.8
52.3666,254.1
52.3698,17.1
52.3773,125.1
52.3823,107.6
52.3976,281
52.4034,17.9
52.4041,106.1
52.4042,101.4
52.4089,129.5
52.4119,160.8
52.4204,96.3
52.4264,94
52.4444,42.7
52.4618,95.6
52.4666,299.6
52.4675,107.9
52.4769,311.8
52.4906,101.5
52.5089,537
52.5116,18.3
52.5145,295.5
52.5158,119.6
52.5257,286.8
52.5272,122.7
52.5305,110.2
52.5312,123.7
52.5364,661.4
52.5476,360.7
52.555,129.1
52.5571,110.2
52.5655,131.6
52.575,122.8
52.5814,137.4
52.5921,349
52.5986,663.1
52.6056,18
52.6059,316.4
52.6061,389.2
52.6062,363.7
52.6068,226.2
52.6121,16
52.621,531.5
52.644,227.7
52.6513,51.6
52.6556,157.4
52.6635,17.1
52.6796,212.9
52.6811,121.6
52.6854,17.2
52.6966,98.4
52.705,266
52.7162,695
52.7209,161.1
52.7237,95.4
52.7434,200.3
52.7442,319.4
52.7563,360.1
52.7573,16.5
52.7705,133.9
52.7754,128.3
52.7762,115.3
52.7767,168.6
52.7771,207.8
52.7792,152.3
52.7801,1557.7
52.7807,1153.4
52.7818,630.2
52.7823,2130.7
52.7829,1401.9
52.7832,2350
52.7835,1843.6
52.7847,605.8
52.7857,36.3
52.786,34.8
52.7942,161.6
52.8074,347.5
52.8125,134.5
52.8324,164.3
52.8348,72.9
52.8379,177.2
52.8397,19.7
52.8599,16.7
52.8626,15.1
52.8712,15.6
52.8863,582.7
52.8954,283.4
52.8966,124
52.9252,128.6
52.9349,499.8
52.9615,481.4
52.9782,111.2
53.0554,616.2
53.0639,276.9
53.0671,628.7
53.0844,309.4
53.1062,16.4
53.1188,16.6
53.1299,101.7
53.1437,147.5
53.1581,88.8
53.1742,108.7
53.1772,607
53.1798,210.9
53.1806,443
53.2047,151.3
53.2066,142.8
53.2221,45
53.2399,482.8
53.2405,689.4
53.2488,81.5
53.25,18.1
53.2539,549.9
53.2635,222.8
53.2656,513.2
53.2775,140.4
53.2864,84.4
53.2992,663.1
53.3052,454
53.3524,355.9
53.3549,241.3
53.3622,486.2
53.3712,147
53.3742,462.8
53.3764,123.1
53.4106,88.8
53.4176,345.3
53.4202,291.1
53.4214,134
53.4545,392.7
53.4668,237.3
53.4786,107.3
53.4853,52.9
53.4861,16.1
53.4897,15.4
53.5017,446
53.5305,149.8
53.5352,15.2
53.5396,575.4
53.5434,192.1
53.551,617.5
53.5579,164
53.5635,529.9
53.6077,248.2
53.6144,14.7
53.6392,141.4
53.6482,84.4
53.6566,561.6
53.6587,560.8
53.6807,19.6
53.6829,380.6
53.6894,235.4
53.7243,83.4
53.7442,598.3
53.7456,274.2
53.7521,239.6
53.7534,124.4
53.7699,14.2
53.781,231.7
53.7913,335.1
53.798,104.6
53.799,160.2
53.8086,517.7
53.8145,195
53.8184,139.2
53.8208,96.6
53.8374,497
53.8385,18.7
53.8429,450.6
53.8432,109.1
53.8523,512.4
53.8569,265.7
53.9059,378.2
53.9138,331.8
53.9613,214.1
53.9751,532.1
53.9838,132.4
54.0115,196.3
54.0235,523.7
54.024,88.5
54.036,55.5
54.0376,103.2
54.0591,128.5
54.0983,505.1
54.1055,152.1
54.121,96.1
54.1248,103.3
54.1591,270.6
54.1658,518.9
54.1771,355.9
54.1783,430.1
54.1893,19.4
54.1919,464.1
54.1996,311
54.2082,350.5
54.2144,265.6
54.2149,442.2
54.2376,133
54.2408,113.8
54.2413,552.6
54.2611,507.6
54.2652,47.6
54.3109,98.8
54.3144,211
54.3487,191
54.3517,132.5
54.3581,115.8
54.3587,134.3
54.3597,307.8
54.3601,92.9
54.3648,221.9
54.378,342.3
54.3921,17.4
54.3983,104.5
54.3996,107.2
54.4027,17.6
54.4087,126.7
54.4256,500.9
54.4398,18.7
54.4412,16.8
54.4432,316.9
54.4614,284.1
54.467,100.9
54.4699,121.5
54.478,306.2
54.5061,567.1
54.5116,229.7
54.5235,15.4
54.5328,372.5
54.5347,105.6
54.5478,296.3
54.5506,214.2
54.5582,421.4
54.5644,130.1
54.591,446.6
54.592,18.3
54.6056,107.1
54.6085,295.6
54.6093,457.3
54.614,170.8
54.6184,217.5
54.6395,212.5
54.6446,128.4
54.6474,15.2
54.6617,338.2
54.6662,116.2
54.6782,14.8
54.7144,128.4
54.7188,430.2
54.7424,329.8
54.7492,305.1
54.7531,271.2
54.7707,152.9
54.772,111.5
54.7792,325.9
54.7813,207.6
54.7909,398.1
54.7959,15.7
54.8025,330.6
54.8207,160
54.8415,17.7
54.8458,18.5
54.8475,172.7
54.8557,390.6
54.8617,155.9
54.8657,349.2
54.8909,96.3
54.8966,126.3
54.9335,549.8
54.9339,79
54.9556,74.5
54.9614,103.2
54.9693,947.1
54.9862,86.5
54.9883,526.7
54.9983,117.9
55.0181,182
55.0364,17.4
55.0454,92.7
55.051,292.4
55.0633,92.6
55.0761,383.8
55.119,449.3
55.1219,278.5
55.1279,128.3
55.1314,124.2
55.1437,118.3
55.1466,129.9
55.1868,368.8
55.2197,48.7
55.2337,573.1
55.2536,15.5
55.2581,78.3
55.2879,305.7
55.2892,82.5
55.2895,319.9
55.2946,157.9
55.2956,16.1
55.3077,134.3
55.3254,376
55.3658,104.4
55.3834,437.5
55.3873,144.2
55.3946,18.9
55.3953,291.5
55.4252,207.6
55.4326,100.8
55.4374,323.5
55.4389,152.8
55.4721,208.1
55.4837,262.7
55.4944,305.5
55.497,499.4
55.5413,224.7
55.5688,89.5
55.5915,163.5
55.5965,16.2
55.6073,156.9
55.6085,219.5
55.6234,104.6
55.6416,93
55.6429,17
55.654,353.1
55.6594,124.8
55.6744,125.6
55.6935,340.6
55.7113,206
55.7132,19
55.7216,16.3
55.7446,94.7
55.7492,17.8
55.7573,387
55.7619,707.5
55.77,273.3
55.7948,96.3
55.7983,18.1
55.8077,19.7
55.822,79.2
55.8275,299.8
55.8316,142.2
55.832,130
55.8499,494.5
55.8543,19.3
55.8673,347.3
55.8793,19
55.9305,551.7
55.935,325.6
55.9501,243.5
55.9527,397.2
55.9564,476.4
55.9671,585.7
55.9924,93.3
56.0023,272.4
56.0079,88.3
56.0174,290.8
56.0209,115.1
56.0476,108
56.049,16.2
56.0527,18.1
56.0578,203
56.0589,136.2
56.0624,74.2
56.0916,517.1
56.1061,582.4
56.1091,584.2
56.1141,106.8
56.1177,471.2
56.1271,357.7
56.1336,352.8
56.1395,436.7
56.1413,17.8
56.1429,317
56.1643,470.4
56.1704,113.2
56.1871,533.1
56.1911,17.4
56.198,368.4
56.1986,138.7
56.2009,146.4
56.2091,136.7
56.221,90.6
56.2341,119.4
56.2387,417.5
56.2413,159.3
56.2656,108.1
56.3412,23.1
56.3478,478.7
56.3762,340.3
56.3972,346.2
56.3985,495.6
56.402,100.2
56.4137,110.8
56.4161,115.6
56.4221,262
56.423,186
56.4288,149.6
56.4536,100
56.4593,105.9
56.4638,103.3
56.4645,669
56.4676,16.8
56.4709,17.5
56.4788,336.9
56.4962,135.1
56.5063,214.1
56.5107,418.3
56.5111,286.1
56.5192,14.8
56.5218,17.2
56.5221,488.7
56.5431,488.5
56.549,16.7
56.5551,301.9
56.6012,87.3
56.6032,19.1
56.6071,353
56.6082,18.4
56.6094,144.8
56.6285,19.8
56.6432,178.2
56.648,377.2
56.6506,323.6
56.6524,181.6
56.6573,50.3
56.6719,178.6
56.6818,119.3
56.6848,713.1
56.6881,110.8
56.7138,299.3
56.7243,532.7
56.7445,17.8
56.7654,97.7
56.786,88.3
56.8109,309.2
56.8173,528.9
56.8255,226.1
56.8367,104.9
56.8626,334.9
56.8674,350.1
56.8682,322.4
56.8873,120.5
56.8899,349.6
56.893,106.4
56.8981,57.2
56.9059,304.8
56.9064,652
56.9102,72.5
56.9143,209.7
56.9157,226.6
56.9225,15.4
56.947,358.6
56.9776,421.3
56.9812,252.7
56.9851,106.1
56.9858,117.7
56.9933,325.5
56.9969,98.3
57.0036,16.4
57.0218,92.6
57.0508,18.3
57.0584,211.3
57.065,332.9
57.0661,18.5
57.0849,96
57.0875,17.5
57.0949,229.9
57.096,633
57.0979,99.6
57.1154,132.4
57.1165,18.8
57.1247,129.2
57.1395,517.4
57.1806,538
57.1843,152
57.1904,99
57.193,554.4
57.1941,403.1
57.1975,133.7
57.1986,748
57.2021,75.9
57.2287,289.6
57.2355,107.5
57.2475,549.7
57.2572,133.6
57.2581,667.5
57.2647,19.5
57.2687,236.9
57.2805,170.9
57.2982,94.8
57.3208,339.7
57.3417,193.7
57.3708,150.8
57.3842,157.7
57.4618,257.7
57.4637,16.4
57.4677,362.9
57.4763,289.2
57.4941,374.3
57.4972,131.3
57.5144,106.5
57.5236,303.3
57.5259,148.8
57.5267,327.1
57.5311,22
57.5507,542.3
57.5675,614.2
57.5709,153.8
57.6142,15.8
57.6265,16.7
57.6278,495.6
57.633,105.5
57.6337,164
57.6348,253.9
57.6386,493.8
57.6482,355.6
57.6495,101.8
57.69,158.5
57.692,103.7
57.6951,104.7
57.7079,510.8
57.7131,165.2
57.715,105.6
57.7189,466.5
57.7228,343.3
57.7277,306
57.7369,210.9
57.7474,700.9
57.7578,105.4
57.7596,88.7
57.7692,18.6
57.7799,140.8
57.7889,254.4
57.8337,14.3
57.836,198.3
57.8434,190.7
57.8488,98.7
57.8512,126.8
57.8542,418.5
57.8589,306.2
57.8653,134.2
57.8658,43.7
57.8724,97.6
57.8747,482.8
57.9073,124.8
57.9105,47.9
57.9153,75.6
57.9245,161.6
57.9469,528.4
57.9511,189.8
57.9535,294.8
57.9638,320
57.98,87.3
57.9894,328.4
57.993,344.9
58.0034,17.9
58.027,242.6
58.0451,390.8
58.0529,123.4
58.0533,17.9
58.0569,193.4
58.0573,113.4
58.0621,109.6
58.0637,233.6
58.0841,123.5
58.0867,143.7
58.0947,697.9
58.0974,445.8
58.1067,471.2
58.1227,135.7
58.1321,457
58.1422,215.1
58.1618,142
58.1674,329.6
58.1676,324.7
58.1679,214.1
58.1691,217.2
58.2,114.5
58.203,211.2
58.2194,366.4
58.2201,212.3
58.2325,427.2
58.2459,282.1
58.2587,323.5
58.2603,570.7
58.3052,150.9
58.3222,16.9
58.3244,173.7
58.3271,120.1
58.3319,179.4
58.3397,142.3
58.3457,147.9
58.3499,115.2
58.3523,136.7
58.3561,577
58.3632,117.7
58.3864,657.8
58.4252,174.4
58.4265,80.5
58.4407,139.9
58.4481,16
58.4694,394
58.4785,285.6
58.485,231.3
58.4883,112.7
58.4915,286
58.5165,309.8
58.5303,16.3
58.5384,17.4
58.5397,165.6
58.541,16.1
58.5456,369
58.548,83.1
58.6107,104.8
58.6189,117.7
58.6276,464.8
58.6384,186.1
58.6507,18.2
58.6592,175.7
58.6599,344.4
58.7145,181.2
58.7255,109.4
58.7543,184.1
58.7765,360.9
58.7773,454.2
58.7784,568.5
58.7807,123.7
58.8003,353.9
58.8112,366.9
58.8155,572.2
58.826,381.3
58.8321,104.4
58.8329,126.8
58.8381,219.7
58.8391,128.4
58.8413,89
58.8697,221.1
58.8701,112.2
58.8753,340.5
58.8944,303.1
58.9298,532.1
58.9859,321.9
58.9948,257.8
58.9955,129.2
58.9967,15.7
58.9996,295.7
59.004,144.5
59.0048,484.6
59.0085,496.6
59.0389,266.7
59.0535,46.2
59.0644,337.3
59.0927,120
59.1034,46.2
59.1085,85
59.1374,479.8
59.1418,16.2
59.1608,206.4
59.1627,635.4
59.1758,197.1
59.2077,14.7
59.2326,154.4
59.2337,170.2
59.2402,230.6
59.2776,169.8
59.2797,153
59.2983,17.6
59.3016,143.4
59.3022,131.3
59.3126,136.5
59.3354,137.5
59.3604,288.8
59.3928,244
59.3946,540.9
59.3989,268.4
59.4087,252.5
59.4129,583.6
59.4266,750.1
59.451,452.9
59.4573,528.7
59.4964,18
59.5095,304.6
59.5364,306.9
59.5478,104.8
59.5594,361.7
59.5809,134.6
59.5819,377.2
59.5886,399.8
59.5935,140.5
59.6013,268.4
59.6438,125.6
59.6445,16.4
59.6927,103.5
59.7078,544.8
59.714,572.9
59.7164,130.6
59.7188,300
59.7263,563.6
59.7641,541.3
59.7767,142.2
59.7885,147
59.7998,18.1
59.8007,294.3
59.8031,530.9
59.8071,19
59.8249,17.2
59.8499,16.4
59.8653,463.2
59.8701,605.5
59.8824,131.7
59.8856,16.4
59.8882,149.6
59.8924,296.8
59.8934,17
59.9188,646.8
59.9252,138.2
59.94,17.3
59.9424,209.9
59.9542,201.4
59.9556,160.5
59.9675,443.9
59.9826,94.5
59.9859,237.1
59.9948,150.7
60.0188,563.9
60.0328,335.8
60.0441,154.4
60.0734,16.5
60.0792,190.3
60.0825,90
60.0832,330.2
60.0842,321
60.0872,105.1
60.1045,53.9
60.1078,47
60.1151,148.2
60.1236,532.2
60.1301,393.7
60.1353,632.6
60.1432,338.5
60.191,539.9
60.2171,127.7
60.2359,104.8
60.241,108.7
60.2752,17.1
60.2765,210.7
60.3255,531.3
60.3447,15
60.3791,266.4
60.3818,359.3
60.3879,203.7
60.3995,17.8
60.4135,16.7
60.4237,712.5
60.4241,433.7
60.4346,162.5
60.47,133.1
60.4705,563.6
60.4784,116.1
60.4909,106.2
60.4958,90.2
60.5134,126.6
60.5348,15.3
60.5351,17.9
60.5381,661.9
60.5495,78.7
60.5555,120.4
60.5587,224
60.5668,289.8
60.5699,381.7
60.5782,311.8
60.5833,17.8
60.587,439.4
60.5994,21.9
60.603,100.9
60.6194,387.4
60.6302,130.7
60.6314,615.2
60.6329,114.1
60.6403,110.3
60.6627,280.6
60.6636,127.8
60.6741,86
60.6898,539.8
60.7071,18
60.7086,346.3
60.7158,580.9
60.7256,359.5
60.7595,127.8
60.7674,410.2
60.7714,359.6
60.777,144.4
60.7783,258.7
60.7822,260
60.8015,110.9
60.8274,99.8
60.833,382
60.8417,207.5
60.8448,99
60.8477,363.2
60.8563,201.1
60.8673,173.3
60.8945,135.9
60.9165,290.3
60.9194,330.1
60.9746,476.7
60.9913,119.6
61.0233,627.8
61.0278,18.4
61.0292,602.8
61.0716,16.5
61.0789,303.7
61.1222,131.2
61.1441,577.1
61.1576,122.4
61.1655,304.1
61.1778,150.4
61.1901,268.3
61.1922,122
61.1985,48.3
61.2144,49.1
61.2205,399.1
61.2427,367.8
61.2509,279.2
61.2601,437.8
61.2915,16.1
61.309,212
61.3102,195.1
61.314,17.9
61.3699,148.9
61.3908,345.9
61.3918,591.6
61.4127,185.1
61.4853,129.7
61.4862,93.9
61.5032,214.3
61.5122,250.4
61.5366,121.4
61.5396,46.2
61.5405,457.2
61.5538,655.1
61.5749,397.5
61.5908,360
61.5972,144.7
61.6096,19.5
61.6114,50.1
61.6131,97.9
61.6158,148
61.6168,44.5
61.6249,206.8
61.6333,49.6
61.6378,145.8
61.6413,309.2
61.6432,16.9
61.652,726.8
61.6571,19
61.6757,72.9
61.7022,17.9
61.7062,110.7
61.7122,142.6
61.7282,18.6
61.7425,105.6
61.7486,199.6
61.7504,226.7
61.7539,175.8
61.757,101.9
61.7777,534.4
61.7939,244.6
61.8169,17.9
61.8498,18.5
61.8506,410.8
61.8646,164.7
61.8732,711.6
61.885,285.3
61.8862,18
61.8981,558.6
61.9005,92.2
61.9248,441.5
61.954,435
61.9789,315.7
61.9972,197.9
62.0212,505.9
62.0718,196.1
62.0974,195.5
62.1018,16.2
62.1122,101.7
62.1268,487
62.1311,16.9
62.1352,313.1
62.1371,414.3
62.1394,335.4
62.1666,337.2
62.1997,143.9
62.208,86
62.2133,381.5
62.2445,283.9
62.2501,348.8
62.2571,17.5
62.2769,17.7
62.289,85.1
62.297,205.5
62.3233,22
62.3257,704.3
62.3261,617
62.3602,17.9
62.3941,310.5
62.3997,87.2
62.4168,383.6
62.4358,89.6
62.4386,551.2
62.4402,571.4
62.4457,143
62.4786,495
62.5063,517.8
62.5261,130.5
62.538,142.5
62.5455,364.2
62.5504,136.5
62.5726,93.8
62.5849,97.5
62.6097,175.7
62.647,18.8
62.6643,407.8
62.7257,16.5
62.7549,100.6
62.773,524.7
62.8094,18
62.8155,92.3
62.8317,133.5
62.8326,530.4
62.8407,16.7
62.8414,190.2
62.849,16.8
62.8551,419.6
62.8664,383
62.8762,15.7
62.9085,285.3
62.9264,327.4
62.9549,15.8
62.9672,133.8
62.9716,235.1
62.9844,16.4
62.9936,107.4
62.9998,298.2
63.0252,208.6
63.0415,19.1
63.0437,197
63.0449,102.9
63.0552,136.4
63.072,388.5
63.1077,170.3
63.15,283.9
63.1813,216.1
63.2095,545.5
63.2128,686.7
63.2137,320.1
63.22,17.8
63.2274,52.7
63.246,268
63.2599,94.7
63.2616,334.3
63.2738,98
63.3023,17.9
63.3046,264.4
63.3219,17.9
63.3245,257.8
63.3454,310.5
63.3527,729.1
63.3731,755.2
63.402,344.7
63.4264,87.4
63.4363,661.4
63.4405,568.1
63.462,176.3
63.4633,354
63.477,97.6
63.4874,268.2
63.4938,103.1
63.4992,119.2
63.502,311.2
63.5022,369.3
63.5098,311.6
63.5384,119.1
63.5587,99.1
63.5631,17.3
63.5813,99.7
63.5899,44.7
63.5935,345.1
63.6111,18.1
63.6308,548.2
63.6447,130.8
63.6688,19.7
63.6724,120.4
63.6803,396.2
63.6921,89.1
63.703,360.5
63.7154,182.5
63.7277,442.6
63.739,17.8
63.7439,587.9
63.7497,309.8
63.7524,17.1
63.7952,111.2
63.8125,292.6
63.8323,286
63.8485,337.7
63.8526,86.6
63.858,20.4
63.8807,82.8
63.8815,169.6
63.8836,136.6
63.8883,170.2
63.9135,132.4
63.9304,152.9
63.9388,134.1
63.9479,229.2
63.9592,122.8
63.9659,48.1
63.977,49.2
63.9891,135.7
64.013,385.5
64.0284,105.5
64.0683,570.7
64.0837,407.5
64.0906,503.7
64.1169,177.8
64.1258,16.7
64.1457,358.9
64.1489,94.4
64.1658,19.7
64.1789,252.1
64.1899,180.3
64.2212,169.5
64.2221,119.7
64.2347,338.7
64.2367,327.7
64.2579,342.8
64.2592,392.5
64.2747,348.9
64.2816,170.3
64.2824,461
64.311,16.2
64.3202,341.7
64.3482,774.8
64.3528,212.6
64.3567,528.7
64.364,108.3
64.3716,502.5
64.3806,341.1
64.3879,165.1
64.4002,17.9
64.4196,347.8
64.4401,418.8
64.4816,271.9
64.486,104.7
64.4892,90
64.5182,371.8
64.5239,210.1
64.5436,123.1
64.547,126.8
64.5591,125.4
64.5742,133.9
64.575,477.6
64.5796,173.5
64.5816,591.4
64.5876,99
64.6011,530.3
64.603,54.1
64.6194,16.2
64.6273,231.7
64.6463,185
64.6473,275.1
64.6713,359.3
64.68,81.4
64.6925,104.9
64.7046,506.5
64.7207,416.6
64.7334,190.8
64.7359,335.7
64.739,176.8
64.7475,53.2
64.7589,17.9
64.7758,511.4
64.7821,264.5
64.7844,284.8
64.8163,170.5
64.8435,21.9
64.8542,251.2
64.866,96.2
64.875,95.9
64.8851,154.6
64.8858,98.8
64.8891,213.5
64.8915,633.6
64.9038,120.9
64.9486,142
64.9517,464.7
64.9779,156.4
64.9952,138
65.0017,256.8
65.0288,88
65.0611,352.6
65.0768,22.2
65.089,93.1
65.0955,346
65.1108,249.8
65.1195,89.8
65.1253,19.4
65.1627,586.3
65.1798,290.5
65.1944,16.5
65.1984,79.3
65.2151,594.8
65.2196,180
65.223,194.3
65.228,18.2
65.2399,195.2
65.2563,382.7
65.305,128.4
65.3173,360.8
65.327,110.3
65.3606,397.3
65.3848,16.2
65.4062,129.4
65.4077,111.1
65.4401,17.8
65.473,392.7
65.4739,134.7
65.4923,23.8
65.4975,117.6
65.5077,20.2
65.5238,141
65.529,241.7
65.5489,414.1
65.5536,572.1
65.5556,326.6
65.5674,16.6
65.5746,17
65.5888,378.5
65.5915,110.8
65.5941,147.6
65.6031,94.1
65.6101,349
65.622,305.7
65.6326,282.6
65.6424,161.5
65.662,276
65.6699,16
65.6718,228.7
65.6956,250.3
65.7107,108.8
65.7277,86.6
65.7327,219.9
65.738,601.9
65.7441,353
65.7475,300.4
65.749,483.3
65.753,270
65.7545,793.9
65.7566,17.3
65.7837,324.5
65.799,411
65.8011,110.6
65.8019,138.2
65.8275,216
65.8912,377.1
65.8934,184.3
65.902,174.5
65.9111,404.8
65.9126,188.7
65.9138,116.4
65.927,15.3
65.9585,81.8
65.9634,270.5
65.9809,20.2
66.013,103.2
66.0332,149.5
66.0402,17.1
66.0584,348
66.0675,325.7
66.0845,145.6
66.0875,345
66.1236,57.1
66.1305,24.1
66.1607,138.8
66.165,138.6
66.167,448
66.1789,314.7
66.1912,123.1
66.2001,19.1
66.2199,279.5
66.2217,302.9
66.2356,423.4
66.2429,118.8
66.2725,171.1
66.2922,370.1
66.3157,17.8
66.3241,115
66.3442,563.7
66.3637,636.3
66.3662,226.2
66.3857,272.3
66.3979,18.1
66.408,358.4
66.4109,138.5
66.4182,121.6
66.4236,102.1
66.4546,107.7
66.4559,19.9
66.4702,859.1
66.4867,18.5
66.4878,105.6
66.489,850.9
66.5463,94.9
66.547,18
66.5606,542
66.5693,307.4
66.5701,17.8
66.574,199.1
66.5841,304
66.5846,712.8
66.5889,683.8
66.5921,328.1
66.5933,620.9
66.5941,560.1
66.6,94.9
66.6011,557.2
66.6046,158.3
66.6105,188.1
66.6235,152.2
66.6271,111.1
66.6715,331
66.6812,220.1
66.6819,128.6
66.7182,123.8
66.7215,127.2
66.7268,342.2
66.7306,448.2
66.7435,126.5
66.7484,571.7
66.749,228.5
66.7528,207.6
66.7646,352.8
66.7926,781.1
66.7948,88.6
66.8006,220.7
66.8079,140.4
66.8096,19.4
66.8167,255.7
66.8269,630.1
66.8354,96
66.8414,14.4
66.8829,982.8
66.8956,84.1
66.9002,439.3
66.9111,198.4
66.9166,15.3
66.9168,18.6
66.9175,104.4
66.9211,18.2
66.9283,305.5
66.9421,101.6
66.9469,216.7
66.9476,690.5
66.9509,137.3
66.9568,16.3
66.962,229.5
66.9677,423.5
66.9843,125.3
66.9849,280.2
66.9867,138.5
66.9986,138.6
67.0015,130.7
67.0101,87.8
67.0143,474.2
67.016,286.5
67.0244,282.5
67.0318,288.2
67.054,109.2
67.0651,355.9
67.0826,50
67.1003,322.2
67.1068,480.1
67.1143,260.5
67.1198,547.6
67.1292,137.3
67.1357,93.6
67.1401,186
67.1421,355.3
67.1537,226.8
67.1899,82.6
67.1951,641.7
67.1958,224.2
67.1982,91.1
67.2008,514.6
67.2033,447.7
67.2084,596.3
67.2128,343.4
67.2199,106.4
67.2267,97.4
67.2321,522.6
67.239,19.9
67.2457,367.7
67.2891,167.3
67.2913,167
67.2946,294.9
67.318,17.2
67.3202,17
67.322,16.8
67.332,45.9
67.3495,305.3
67.3582,248.2
67.3662,198.5
67.3955,141.4
67.4037,82.8
67.4047,616.2
67.4111,541.3
67.44,198.1
67.4417,415.4
67.4442,82.1
67.4745,21.7
67.4767,344.5
67.4793,143.4
67.4862,466.8
67.4977,372.1
67.5082,431
67.5234,198.6
67.5312,333.2
67.5497,220.9
67.5538,165.7
67.5633,19.4
67.5661,342
67.5736,142.4
67.5759,566.6
67.5874,177.1
67.5944,407.6
67.5991,17.9
67.6032,447.3
67.6268,22.9
67.628,701.8
67.6322,111.5
67.6531,17.3
67.6533,22.2
67.6535,17.2
67.6571,551.1
67.6763,365
67.6787,228.8
67.6838,21.5
67.7009,638.6
67.702,228.3
67.7594,101.4
67.7647,177
67.8123,17.6
67.8144,318.5
67.8222,282.1
67.828,469.6
67.8299,174.1
67.8379,134.5
67.8416,90.8
67.8503,172.1
67.8582,54.2
67.863,20.7
67.9124,323.6
67.9159,244.4
67.924,225.1
67.9279,118.1
67.934,319.5
67.9362,132.4
67.9425,333
67.9528,141.5
67.9552,15.8
67.9756,153.5
67.9771,139.3
67.9942,323.1
68.0107,396.7
68.0316,325.4
68.0485,118.7
68.0564,17.7
68.0583,515.2
68.0663,141.6
68.0677,387.2
68.0694,430.9
68.0718,19
68.0726,94.3
68.088,138.2
68.1028,194.8
68.1067,378.2
68.1306,123.9
68.1386,552.5
68.1512,720.4
68.1575,356.3
68.2077,182.5
68.2114,83.8
68.2192,386.4
68.2238,330.5
68.2316,381.7
68.2379,732.5
68.2538,131.1
68.2555,531.8
68.2605,52.7
68.2802,17.7
68.2837,617.5
68.3078,153
68.3116,288.1
68.3324,398.3
68.3451,228.1
68.3653,491.8
68.37,481.3
68.3747,99.2
68.3794,324
68.3866,273.1
68.3978,55.8
68.433,100.9
68.4361,276.6
68.4507,18.1
68.4535,579.6
68.4653,292
68.4939,284.8
68.4942,267.5
68.4947,240.9
68.5154,316
68.5269,102
68.5318,408.7
68.5652,129.8
68.5734,110.6
68.5855,357.9
68.592,386.9
68.599,489.1
68.6029,292.9
68.6135,123.1
68.6184,508.5
68.6315,798.5
68.6357,92.7
68.6454,16.7
68.6577,445
68.6586,99.2
68.6651,487.9
68.6672,386.9
68.6795,134.6
68.6971,119
68.7153,18.5
68.7218,471.2
68.7254,332.3
68.7366,15.3
68.737,16.7
68.7844,142.3
68.7923,21.3
68.7958,769.9
68.8046,121.3
68.8099,147
68.846,104.6
68.8591,19.6
68.8677,97.8
68.8843,386.8
68.8955,604.9
68.9057,107.6
68.9061,278.7
68.9173,131.6
68.938,18.9
68.9507,91.5
68.9558,223.4
68.9686,282
68.9727,126.3
68.9959,584.5
69.0019,430.6
69.0248,105.3
69.0412,283.9
69.0621,113.9
69.0788,17.4
69.0864,680.8
69.1035,800.1
69.1098,114.8
69.1122,454.3
69.1223,106.4
69.1242,223.2
69.1363,257.6
69.1396,158.4
69.158,159.3
69.1625,97.5
69.1919,94.4
69.2129,346.8
69.232,17.5
69.2502,273.9
69.2753,335.1
69.2782,509.9
69.3053,376.6
69.321,238.8
69.3414,130.4
69.3519,17.4
69.3565,479.7
69.3827,17.2
69.389,102.8
69.394,687.1
69.3952,159.6
69.4168,148.9
69.4205,120.2
69.4218,264.6
69.4343,182.8
69.4488,15.7
69.4499,417.2
69.4629,111
69.4672,658.5
69.5134,390
69.5147,16.9
69.516,85.2
69.5468,446.4
69.559,109.1
69.5616,80.9
69.5771,17.6
69.579,223.9
69.6053,148.7
69.6102,101.6
69.638,107.5
69.6393,485.8
69.6687,143.8
69.6937,354.4
69.6974,20.1
69.7242,354.3
69.8074,133.7
69.809,529.3
69.8182,124.8
69.8312,384.9
69.8378,473.9
69.8687,16.1
69.8696,116.9
69.8851,17.9
69.897,124.8
69.8975,176.7
69.8989,397.1
69.9114,154.1
69.9208,543.2
69.9393,214.9
69.9398,134.3
69.9531,101.4
69.9602,215.6
69.9615,528.4
69.9656,19.2
69.9681,295.9
69.9952,362
70.002,21.9
70.0067,344.5
70.0288,90.6
70.0649,656.3
70.0824,551.5
70.0845,107.6
70.087,218.8
70.0933,385
70.0959,126.6
70.0965,231.3
70.1046,410.3
70.1523,104.8
70.1597,17.1
70.1668,75.3
70.1787,216.1
70.1828,462.8
70.1871,516.9
70.203,105.4
70.2111,136.6
70.2307,56.2
70.2473,290.1
70.2603,149.9
70.2639,577
70.2814,222.8
70.284,108.3
70.2898,244.5
70.3088,284
70.3148,551.4
70.326,562.9
70.329,908.8
70.3471,520.9
70.3476,384.7
70.3493,17.2
70.3578,626.1
70.3604,196.6
70.3734,526.8
70.3955,526.9
70.4038,113.3
70.4068,186
70.4097,337.5
70.4263,412.8
70.4277,635.2
70.4563,17.7
70.4616,397.7
70.4814,331.8
70.4843,507.5
70.4946,125.6
70.5509,96.5
70.5567,134.3
70.5584,208.5
70.5677,221.9
70.5692,340.3
70.5724,311.6
70.5756,219.1
70.5875,22.8
70.5883,112
70.5969,143.1
70.5995,347.7
70.6116,322.3
70.6272,107.6
70.6436,104.8
70.6543,210.4
70.6655,106.5
70.6862,16.7
70.6936,255.7
70.6946,134.1
70.7208,176.5
70.7232,145.7
70.7263,322.3
70.7313,299.8
70.7609,456.1
70.7661,113.2
70.7672,534.8
70.769,94.4
70.7758,179
70.8121,445.2
70.8249,215.4
70.8688,89.4
70.8734,311.8
70.8752,186.9
70.8782,17.9
70.8834,317.4
70.8961,431.6
70.9022,509.2
70.9104,18.3
70.9333,292.6
70.9434,121.3
70.9562,154.5
71.0002,162.7
71.0062,451
71.0236,346.7
71.0316,427.4
71.0351,97.6
71.0373,237.7
71.0665,264.6
71.0794,17.3
71.085,181.5
71.1602,111.1
71.1666,242
71.1832,17.7
71.1885,48.2
71.1902,241.1
71.2599,91.3
71.2652,94.4
71.309,518.9
71.3186,389.2
71.3209,506.7
71.3341,307.4
71.335,551.3
71.3367,198.6
71.348,104.7
71.3759,89.8
71.394,175.7
71.4007,94.4
71.4253,380.8
71.4482,18.3
71.4492,18.1
71.4577,534.3
71.4711,340.2
71.4757,342.7
71.4855,421.6
71.4923,191.4
71.4944,505.3
71.5023,139.4
71.5036,21.4
71.5175,554.5
71.5241,291.5
71.5744,17.7
71.5889,115.5
71.6274,201.5
71.6445,365.8
71.6463,18
71.6512,89.3
71.6616,96.3
71.6829,306.6
71.6935,815.6
71.6988,551.5
71.7139,273.3
71.7239,106.5
71.747,16.3
71.7822,116.7
71.7841,477.4
71.7852,284.8
71.7865,507.4
71.7907,664.9
71.7987,646.5
71.8335,563.1
71.8359,17.9
71.8516,731.4
71.8576,342.4
71.859,110.8
71.8656,213.3
71.8694,17.3
71.8815,334.5
71.8935,311.8
71.9165,205.3
71.9358,579.6
71.9471,73.6
71.95,203.5
71.9587,99.3
71.975,245.5
71.9776,94.7
72.003,130
72.0147,589.5
72.0251,149
72.0384,113.9
72.0441,18.1
72.0547,321.1
72.0556,493.3
72.0768,122.2
72.0805,1014.6
72.0851,112.2
72.0901,254.2
72.0954,122.3
72.0989,288.9
72.1123,324.2
72.1177,410
72.1232,500.9
72.143,163.9
72.1596,105
72.1894,500.6
72.1918,409.9
72.2096,154.8
72.212,234.2
72.2184,792.2
72.2189,205
72.2195,250.5
72.2208,1143.8
72.2212,1135.3
72.2216,784.7
72.2229,2720.7
72.2237,1420
72.2243,891.5
72.2255,1239.4
72.2277,3462
72.229,3158.4
72.2297,4242
72.2304,2513.9
72.2308,2903.6
72.2319,1305.1
72.2325,2369.4
72.2333,4441.5
72.2346,4208.3
72.2357,1301.3
72.2365,3143
72.237,1999.2
72.2375,1971.5
72.2378,1889.3
72.2392,1699.3
72.2402,1541.4
72.241,936.7
72.2417,569.8
72.2425,1242.1
72.2453,381.9
72.2458,340.6
72.252,15.4
72.2525,21.5
72.2989,111.9
72.3169,345.3
72.3245,553.6
72.3466,387.9
72.352,250
72.3648,132.6
72.384,544.4
72.4063,108.6
72.4179,519.4
72.4208,225.4
72.4306,106.7
72.4327,325.5
72.4335,20.2
72.435,332.3
72.4814,383.8
72.4908,242.8
72.4933,663.4
72.5215,202.7
72.5239,18.7
72.5259,17.6
72.5393,114.4
72.5423,157.5
72.5427,217.7
72.5496,318.8
72.5705,182.3
72.5884,243.5
72.6078,50.4
72.6221,135.1
72.6332,524.1
72.6338,131.3
72.684,191.8
72.6881,308.4
72.6921,229
72.6941,261.9
72.716,105.3
72.7183,15.3
72.7237,18.2
72.7364,470.1
72.7553,16
72.7764,601.5
72.7775,680.3
72.7918,142.4
72.8086,17.3
72.8098,617.5
72.8111,494
72.8154,16.2
72.8186,191.4
72.8273,195.1
72.8328,17.7
72.8397,42.6
72.8615,286
72.8684,162.7
72.8849,456
72.8935,220.9
72.9265,245.3
72.9539,127
72.9565,534.7
72.9835,507
72.9855,58.8
72.9919,130.9
72.993,576.2
72.9937,99.4
73.0037,287.9
73.0072,331.5
73.0395,779.8
73.0428,149.2
73.052,124.7
73.1144,113.2
73.12,17.4
73.1398,414.1
73.1407,370.8
73.1503,208.9
73.1516,17
73.1558,18.8
73.1613,496.1
73.1785,411.7
73.1834,137.1
73.1874,113.6
73.1938,101.1
73.2032,633.1
73.2213,18.6
73.2331,100.2
73.2488,170.6
73.2514,693.9
73.2632,234.6
73.288,196.9
73.3049,913.9
73.3122,49.4
73.3211,234.5
73.3562,330.4
73.3574,115.5
73.3595,101.4
73.3621,127.9
73.372,342.2
73.3839,532.4
73.3865,86.3
73.4156,100.6
73.4572,150.2
73.4775,286.3
73.4838,342.5
73.507,160.5
73.5179,450.8
73.5317,16.1
73.5412,964.8
73.552,15.7
73.5725,402.1
73.5747,394.3
73.5995,715.5
73.6138,105
73.6416,161.6
73.6723,101.8
73.6738,454.8
73.6852,120.9
73.6858,110.6
73.7098,577.8
73.73,194.8
73.7658,363.2
73.7702,371.1
73.8013,123.2
73.8041,389.8
73.8114,329.4
73.8208,108
73.8217,557
73.8441,302.4
73.8554,402.3
73.8745,409.8
73.8754,369
73.8966,519
73.9006,89.7
73.9034,426.8
73.9513,96.5
73.9627,20.9
73.9951,504.9
74.0138,116.9
74.0208,90.6
74.0273,18.9
74.0291,80.1
74.0397,427.5
74.0405,97.4
74.0598,4170.2
74.0653,96.2
74.0808,20.6
74.0868,318.1
74.104,120.1
74.1053,423.3
74.1167,16
74.1752,268.5
74.2133,613.4
74.2291,277.7
74.2377,111.2
74.2786,412.4
74.2792,162.7
74.3061,124.7
74.3084,552.6
74.3088,568.7
74.3168,101.9
74.3281,236.6
74.3431,362.4
74.3653,17.2
74.3722,313.5
74.3753,275.1
74.3971,113.7
74.3982,211.1
74.4692,19.1
74.5334,295.6
74.5361,147.7
74.5417,19
74.5734,110.5
74.5934,19.7
74.6173,419.5
74.6236,148.6
74.6487,17.1
74.6649,120.5
74.6696,639.3
74.675,663.5
74.6874,16.5
74.6967,15.5
74.7226,224.9
74.741,481.2
74.7426,99.2
74.7574,359
74.7713,129.4
74.7761,475
74.7995,132.4
74.8163,364.4
74.8306,164.7
74.8354,334
74.8754,17.8
74.886,90.1
74.9132,572.5
74.916,214.3
74.9324,666
74.9387,389.9
74.9486,112.9
74.952,570.7
74.9609,117.9
74.9645,124.1
75.0068,90.1
75.0228,19.5
75.0609,109.2
75.0716,17.2
75.0932,173.8
75.1304,141.9
75.2094,452.9
75.2194,108.2
75.225,486.3
75.2295,15.9
75.2456,500.2
75.2764,251.4
75.2832,106.7
75.2842,650.7
75.3046,206.7
75.3244,231.7
75.3265,21.8
75.3319,119.7
75.367,16.1
75.3722,257
75.3729,123.6
75.3833,378.4
75.3859,131.2
75.4126,246.5
75.4325,110.8
75.4576,107.8
75.4781,111.1
75.5046,170.6
75.5072,247.1
75.5312,154.2
75.5379,46.1
75.5576,132.5
75.5767,196
75.5946,370.8
75.6052,17.7
75.6218,117.8
75.6224,315.8
75.6292,126.1
75.6368,572
75.6441,336.9
75.6509,297.4
75.6608,110
75.6707,532.3
75.6723,21.5
75.6742,828.2
75.6814,140.1
75.6852,341
75.6991,207.1
75.7228,232.8
75.734,229.3
75.7562,271.8
75.774,485
75.828,111.4
75.8362,163.2
75.8412,633.7
75.851,675.2
75.8694,17.1
75.8738,131.6
75.8787,276.4
75.8795,201.8
75.8861,125.4
75.8943,270.4
75.9123,275.8
75.9156,300.7
75.9564,145
75.9758,118.4
75.987,155.5
76.0199,16.5
76.032,137.1
76.0414,142
76.0503,169.4
76.0591,268.1
76.1064,756.7
76.1232,121.4
76.1588,216.6
76.1692,17.3
76.1838,53.4
76.2215,251.5
76.2224,136.6
76.2347,455.6
76.2362,16
76.239,168
76.244,389.2
76.2573,88.4
76.2848,82.9
76.286,15.4
76.3203,471.4
76.3532,18
76.3559,300.4
76.3764,676.2
76.3844,126
76.3882,301.9
76.403,20.1
76.4117,288
76.4171,351.9
76.428,19.9
76.4568,340.5
76.4605,17.7
76.4829,376.1
76.5203,328.8
76.5372,180.4
76.5546,154.4
76.5769,249.3
76.5836,190.9
76.5893,114.2
76.6023,478.5
76.6373,107.3
76.6519,181.7
76.654,226.6
76.6654,92.7
76.6765,452.1
76.6877,111.9
76.7247,593.8
76.7996,274.9
76.8217,108.2
76.8354,97.6
76.8591,15.9
76.8768,15.5
76.9077,317.3
76.9096,102.8
76.9122,441.1
76.944,277.1
76.9538,94.9
76.9541,101.3
76.956,222.5
77.0147,117
77.0352,348
77.036,67.7
77.0384,115828.7
77.0396,42.1
77.0684,307.6
77.072,259.3
77.1138,109.8
77.1145,257.7
77.1251,584.2
77.1429,211.2
77.1519,440.8
77.1729,143.9
77.1811,203.8
77.1936,26.8
77.2009,264.4
77.2054,104.1
77.2247,567.9
77.2334,540.6
77.2418,249.9
77.247,148.8
77.2695,278.7
77.294,143.1
77.3109,368.4
77.3169,126
77.3189,16.4
77.3296,688.6
77.3376,104.3
77.3506,126.4
77.3597,299.7
77.3621,220.8
77.3638,121.5
77.3732,111.5
77.422,16.8
77.4225,532.9
77.4238,666.2
77.4316,17
77.4514,16.8
77.4843,212.1
77.512,109.3
77.5396,82.6
77.541,81.5
77.5534,355.3
77.5558,474.9
77.5649,194.9
77.5688,143.9
77.5703,297.7
77.6047,120.5
77.6105,171.7
77.6177,126.9
77.6349,523.1
77.6504,208.9
77.6741,17.7
77.7145,300.1
77.776,655.9
77.7921,332.9
77.7972,166.6
77.798,325.8
77.8042,232.5
77.8147,416.7
77.8246,237.5
77.8339,90.8
77.8412,141.1
77.8691,471.9
77.8906,350.9
77.8942,125.6
77.914,200.8
77.9166,158.5
77.9173,113
77.9344,92.8
77.943,126.8
77.9892,316.9
77.9987,216.4
78.0007,105.7
78.0079,148.7
78.0239,112.8
78.0274,158.7
78.0398,294.2
78.0417,3518.9
78.0461,22.3
78.0495,501.6
78.0663,536.9
78.0719,90.9
78.1085,51.8
78.1119,145.2
78.1211,161.6
78.1377,670.6
78.1605,668.9
78.1684,273.5
78.1755,223.3
78.1908,227
78.2137,839.4
78.2228,309.3
78.2266,326.5
78.2293,97.2
78.2483,20.9
78.2525,354.7
78.2667,96.2
78.2675,91.4
78.3021,114.3
78.3036,711.4
78.3052,153.9
78.3102,219.9
78.3125,435.3
78.314,217.9
78.3212,117.1
78.3481,110
78.3683,348.7
78.3851,277.7
78.3915,17.1
78.4323,375.1
78.4351,19.3
78.455,121.5
78.4592,566.5
78.4852,176.9
78.5105,128.8
78.5365,171.2
78.5419,279.1
78.5465,879.4
78.5582,238.5
78.5882,128.9
78.5946,116.7
78.6223,188.9
78.6427,243
78.6619,303.1
78.6736,482.3
78.7025,96.4
78.7376,46.7
78.7883,449.7
78.7903,99.4
78.7918,96.8
78.8356,386.1
78.8384,144.4
78.8439,223.1
78.8639,135.2
78.8778,97.4
78.8874,229.2
78.9318,419.2
78.9386,277.8
78.9597,104.6
78.9666,55.3
78.9684,114.5
78.9692,294.7
78.9733,18
78.9852,106.5
78.9968,254.6
79.0111,91.8
79.0165,461.1
79.0489,120
79.054,1501.5
79.0686,324.5
79.0837,179.7
79.0962,147.3
79.11,115.9
79.113,100.8
79.1465,645.1
79.1496,16.4
79.1579,15.5
79.1703,300.9
79.1713,78
79.1817,288.2
79.183,178
79.1914,128.4
79.2129,297
79.222,169.1
79.2829,526.9
79.3009,95.8
79.3041,135.5
79.3094,21.4
79.3277,270
79.3425,320.7
79.3693,115
79.4042,57.5
79.4252,120
79.4309,120.4
79.4583,177.4
79.4727,131.5
79.4737,147.1
79.499,141
79.5061,16.7
79.5078,92.7
79.5285,384.1
79.567,326.9
79.571,164.1
79.5884,285.9
79.589,81.1
79.5983,105.9
79.5992,105.6
79.607,520.6
79.6083,464.9
79.6134,119.4
79.6288,439.4
79.6388,20.3
79.6518,609.4
79.6864,448
79.7087,100.4
79.7109,315.1
79.713,301.7
79.7161,464.1
79.7317,369.6
79.7348,19.6
79.7573,108.9
79.7579,198.2
79.7886,309.2
79.863,544.9
79.8643,131.8
79.8996,482.8
79.9239,307.9
79.9318,134.9
79.9367,106.8
79.948,18.9
79.9632,591.1
79.9673,185.5
79.9709,121.2
79.9799,287.3
79.9929,266
80.0007,263.3
80.0295,295.1
80.0482,309.2
80.0573,43.3
80.0578,221.2
80.0683,221.1
80.074,232.3
80.0808,20
80.131,110.2
80.1489,358.1
80.1904,18.9
80.2206,425.7
80.2344,547
80.2659,127.2
80.2745,119.5
80.2841,284.4
80.2958,705.4
80.3734,17.3
80.3892,600.3
80.397,92.3
80.3993,18.5
80.4126,119.2
80.4288,18.3
80.4485,151
80.4552,341.3
80.4679,16.9
80.469,167.2
80.4697,16.9
80.4836,322.5
80.4855,275.7
80.4955,196.3
80.5238,537.2
80.5266,50
80.5563,73.2
80.598,362.8
80.6005,611.9
80.6405,330.7
80.6763,594.9
80.6891,159.7
80.6977,84.8
80.7338,567.2
80.7396,17.6
80.7993,576.4
80.8007,129.3
80.8033,17.5
80.8322,198.7
80.8629,232.8
80.8656,18.3
80.8751,220.4
80.8759,441.6
80.9179,118
80.926,20.5
80.9271,152.1
80.9299,523.5
80.9477,47207.4
80.9713,19.8
80.9779,135.5
80.9886,57.4
81.002,389.9
81.0183,119.1
81.0209,151.2
81.0231,337.6
81.024,17.7
81.0378,279.2
81.0648,260.3
81.0667,85.7
81.0697,1010.8
81.0791,18.8
81.0901,174.5
81.0931,173.4
81.1116,128
81.1156,250.7
81.1193,16.7
81.1354,335.6
81.1379,268.8
81.1395,527.9
81.1402,175.4
81.1407,432.7
81.1413,368.5
81.1422,1201.5
81.1439,2055.8
81.1447,361.8
81.1516,88.1
81.1618,94.9
81.1724,486.8
81.1791,536.6
81.2067,569.7
81.2077,96.9
81.2187,294.3
81.2224,676
81.2279,110.8
81.2383,176.1
81.258,274.6
81.2778,123.9
81.2859,112.6
81.2925,692.9
81.3095,106.2
81.3119,206.2
81.3179,414.6
81.366,158.6
81.3731,91.1
81.389,389.4
81.4218,270.7
81.4384,17.4
81.4642,292.9
81.4848,311.8
81.5116,102.9
81.5541,189.1
81.5548,174.4
81.5612,105.6
81.5625,159.9
81.6264,704
81.6321,138
81.6356,175.1
81.6377,20.2
81.6401,382.8
81.6412,16.8
81.6479,276.9
81.6601,102.9
81.6801,142.7
81.6818,310.7
81.6876,105.6
81.6965,123.8
81.7088,106.2
81.7221,741.2
81.7638,302.8
81.7866,17.6
81.8088,248.9
81.8126,18.9
81.8188,309
81.8201,127.4
81.852,180.5
81.8561,175.3
81.8706,45.4
81.8728,358.4
81.8757,510.5
81.8818,107.1
81.8832,120.6
81.9438,86.8
81.946,138.1
81.9496,156.7
81.9684,143.4
81.9854,92.5
82.0008,461.2
82.0392,497.1
82.0395,508.3
82.0731,19.2
82.0744,454.2
82.0765,406.4
82.1209,251.1
82.126,421.6
82.1787,370.4
82.1892,96.9
82.2019,104.8
82.2048,159.9
82.2138,46.8
82.2329,16.9
82.2532,105.8
82.2629,210.6
82.2848,16.2
82.2857,137.4
82.2912,246
82.3101,103.2
82.3118,848.9
82.3266,485.2
82.3321,286.3
82.3405,554.3
82.3415,21.3
82.3593,218.4
82.3704,147
82.3725,359.2
82.3908,147.3
82.4224,394.2
82.4253,17.3
82.4522,18.5
82.4732,150.4
82.4871,373.1
82.4877,367.7
82.5018,200.2
82.5145,51.6
82.5282,368.6
82.5362,103.8
82.5508,19.7
82.5778,152.9
82.5806,203.1
82.5892,81.2
82.6059,308.9
82.6142,95.5
82.6201,273.5
82.6497,254.8
82.6753,288.1
82.7106,297.1
82.7439,218.3
82.7573,730.6
82.7847,505.7
82.7887,108.4
82.8338,19.8
82.8371,121.5
82.8525,429.2
82.8814,668.1
82.8886,329.8
82.9059,350.4
82.9184,316.3
82.9216,77.6
82.9447,12565
82.9914,61.4
83.0038,539.7
83.0205,55.4
83.0312,413.2
83.0325,752.8
83.0416,108.1
83.0467,19.1
83.0557,470
83.0564,332.4
83.0572,384.8
83.0615,291.4
83.0632,17.9
83.065,774.9
83.0914,346.5
83.1141,115.5
83.1518,380.2
83.1534,100.1
83.1769,134.6
83.1882,114.5
83.1974,287.3
83.204,100.4
83.2051,524.1
83.2136,100.4
83.2195,194.3
83.2273,212.7
83.2321,17.2
83.2701,19
83.3114,119.6
83.3256,17.2
83.3577,54.8
83.367,115.6
83.3861,20.9
83.4122,293.5
83.4207,124.5
83.4309,89.8
83.4362,375.3
83.4426,203.3
83.4569,222
83.4893,18
83.4894,18
83.4938,16.6
83.5183,102.8
83.5319,316.5
83.5465,495.8
83.5619,105
83.5649,123.8
83.593,315.3
83.6439,135.1
83.6447,255.4
83.6557,104.4
83.6993,475.7
83.7069,365
83.7097,351.2
83.7492,387.6
83.7557,138.6
83.7621,99.7
83.764,87.3
83.7701,467
83.7743,129.1
83.7796,269
83.7852,385.5
83.8045,15.5
83.8091,97.2
83.8146,421.7
83.826,123.4
83.8281,138.7
83.8339,678.7
83.8357,256.7
83.8364,19.2
83.8711,146.4
83.8795,134.4
83.8996,104.3
83.9132,158.6
83.9283,136.4
83.9349,883.3
83.9373,198
83.9423,17.7
83.9536,112.2
83.9587,366.4
83.962,448.1
84.0162,16.8
84.0587,18.2
84.0697,18.4
84.0739,313.4
84.1256,18.3
84.1342,17
84.167,283.1
84.1729,83.8
84.1843,847.7
84.1984,276.1
84.2042,21.5
84.2123,115.3
84.2431,451.2
84.2922,210.2
84.3169,371.4
84.3198,381.7
84.328,105.4
84.3819,127.1
84.3867,205.6
84.3935,324.7
84.3987,18.1
84.4348,206.6
84.4574,238.8
84.4697,361.8
84.472,132.5
84.4768,139.6
84.5144,16.7
84.5259,779.9
84.5866,91.5
84.5875,247.3
84.6102,211.9
84.6158,116.7
84.6299,275.8
84.6331,350.3
84.6383,130.7
84.6536,111
84.6569,486.5
84.6774,512.2
84.7494,150
84.7544,84
84.7572,16.2
84.77,582.5
84.8279,175.7
84.8795,145.7
84.8848,18.7
84.9397,185.9
84.9508,553.7
84.9595,21125.8
84.967,179.5
84.9893,550.8
84.9927,535.9
85.0038,232
85.0065,299.4
85.0282,1620.8
85.0436,222.2
85.0723,240.4
85.0792,86
85.0876,227.8
85.0982,115.3
85.0997,485.7
85.1003,483.1
85.1343,216.2
85.1649,173
85.1771,664.5
85.2036,653.9
85.2198,100.6
85.2441,414.9
85.2858,414.2
85.2934,159.5
85.2941,19.7
85.2985,568
85.323,98.6
85.3423,109.3
85.3465,16.7
85.3522,608
85.3713,312.6
85.3809,94.6
85.3837,145.2
85.3919,229.9
85.4304,288.9
85.4335,16.5
85.4418,17.3
85.4494,154.1
85.4635,487.3
85.4745,95.3
85.5008,237.5
85.5322,280
85.535,18.7
85.5846,16.7
85.6047,159
85.6069,153.3
85.617,303.7
85.6213,19.8
85.6352,98.9
85.6424,166.2
85.6554,133.4
85.6813,497.4
85.7346,130.2
85.7388,404.4
85.7739,189.1
85.8063,49.1
85.8286,111.4
85.8344,120.1
85.8584,704.2
85.8596,21.1
85.8831,351.5
85.8989,722.6
85.9408,18.3
85.9446,101.6
85.9926,224.2
86.0088,357.9
86.0125,126.9
86.026,426.7
86.0397,96.5
86.0429,307.6
86.0585,17.4
86.0599,39670
86.0627,18.7
86.0819,130.8
86.0886,684.4
86.0963,115544.5
86.1317,330.4
86.1484,131.2
86.1761,216.8
86.1998,18.9
86.2133,50.1
86.2312,142.9
86.2387,551
86.2408,89.9
86.252,114.3
86.272,89.4
86.2732,337.1
86.2797,352.4
86.2816,19.4
86.2878,139
86.2922,228.4
86.3002,104.8
86.3339,20
86.4208,127.7
86.4322,18.2
86.503,18.6
86.5384,167.2
86.5419,212.6
86.55,586.1
86.5608,113.9
86.5887,441.9
86.599,277.3
86.6125,167.7
86.6677,246.5
86.6839,488.9
86.6916,593.3
86.7577,533.4
86.765,131.3
86.7727,548.1
86.8315,336
86.866,294.6
86.8763,319.9
86.8942,124.5
86.9368,224.9
86.9436,17.8
86.9492,254.1
86.992,217.9
87.0528,89.5
87.0685,323.8
87.095,172.1
87.0997,1360.6
87.1054,164.8
87.1075,18.2
87.129,604.6
87.1302,379.4
87.1333,281.2
87.1781,275.3
87.2046,241.7
87.2053,223.2
87.2093,283.7
87.2155,18.4
87.2198,205.5
87.2238,615.5
87.2339,16.3
87.2413,303.8
87.243,591.5
87.2436,220
87.2696,742.5
87.3,141
87.3068,220.6
87.317,132.4
87.3202,469.9
87.3243,309.7
87.3532,116.1
87.3697,125.3
87.3861,156.6
87.4292,105.5
87.4523,268.4
87.4597,91.5
87.4605,77.7
87.4641,288.3
87.4677,285.1
87.476,115
87.4894,140.3
87.4951,164.5
87.5245,240
87.5489,271.7
87.55,151.7
87.5715,18.8
87.5751,150
87.5915,155.9
87.6008,16.2
87.6032,104.4
87.6289,295.3
87.669,1003.6
87.7533,18.2
87.779,18.5
87.8152,91.8
87.8551,659.8
87.9079,621.1
87.9924,18.4
88.0311,230
88.0392,10005.7
88.1024,108.5
88.1145,57.8
88.1213,467.2
88.1281,90.4
88.1308,97.8
88.1485,134.1
88.1608,229.6
88.1767,139.1
88.1778,108.8
88.1784,206.3
88.1831,139.8
88.2011,454.9
88.2087,772.5
88.2542,118.4
88.2567,476.4
88.2763,19.5
88.2777,712.7
88.2809,491.7
88.3052,115.1
88.3216,129.6
88.3276,102
88.4137,17.4
88.421,219.2
88.4461,18.6
88.4496,15.6
88.4517,17.3
88.4545,17.7
88.4552,275.3
88.4629,582.6
88.4834,90.3
88.489,543.6
88.4936,388.6
88.5073,144.2
88.5357,119.5
88.5484,91.1
88.559,373.2
88.5703,119.7
88.5805,362.5
88.5932,644.8
88.6076,17.3
88.686,48.4
88.7138,144.5
88.7156,699.4
88.7199,463.6
88.7262,100.6
88.7805,490.3
88.8286,323.2
88.834,340.6
88.841,219.5
88.8442,243.7
88.8561,104
88.8643,617.6
88.8799,580.8
88.8811,225.7
88.9182,24.2
88.9192,425
88.958,633.6
88.9826,149.5
88.989,497.6
89.0286,20.4
89.0348,500.2
89.0401,527.2
89.0587,275.4
89.0597,36
89.0679,133.9
89.0731,170.9
89.1027,296.3
89.1159,274.6
89.1541,181.8
89.1671,95.3
89.1683,196.1
89.1887,416.3
89.2988,396.3
89.3484,666.8
89.3578,107.6
89.3645,96.1
89.3788,420.4
89.4103,530.5
89.4359,127.4
89.4519,337.4
89.4578,261.9
89.4869,365.9
89.5009,329
89.5194,17.6
89.5528,353.8
89.5669,547
89.5683,692.8
89.57,15.9
89.5881,47.7
89.6044,725.1
89.6148,384.2
89.6247,330.9
89.6265,222.6
89.646,179.6
89.6563,332.6
89.6658,89.9
89.7817,123.9
89.7911,568.3
89.7998,55.1
89.8403,17.1
89.8435,21
89.8666,138.6
89.8909,471.8
89.895,338.3
89.9107,284
89.9437,19.8
89.9655,611.2
89.9703,632.9
89.9722,117
90.0033,131.4
90.0184,712.6
90.0193,104.1
90.026,100.3
90.0288,411.6
90.1406,93.7
90.1566,110.6
90.1656,126
90.1854,434.6
90.1902,381.4
90.2486,605.2
90.2514,224.6
90.2558,246.8
90.287,111.5
90.3201,215.2
90.3261,183.4
90.3383,164.1
90.3403,86.3
90.343,475.4
90.356,129.7
90.3888,207.1
90.3935,294.1
90.3987,359.5
90.4116,303.8
90.4381,137.7
90.5062,558
90.512,141.4
90.5254,263.9
90.5336,168.9
90.5396,20
90.5618,282.3
90.6104,296.8
90.6114,191.5
90.6256,173
90.6291,17.8
90.6396,163.3
90.644,19.1
90.6772,270.8
90.7219,176.7
90.724,590.8
90.7289,447.7
90.7374,95.6
90.7544,339.7
90.7715,160.8
90.7763,22
90.797,16.6
90.8041,295
90.8049,16.9
90.8096,284
90.8278,144.8
90.8576,104.7
90.8735,389.2
90.8747,203.4
90.8922,357.6
90.9476,142.5
90.9535,139.6
90.9701,324.7
90.9765,9273.2
90.9942,154.5
90.9964,203.4
91.0037,222.9
91.0235,18.5
91.0352,18.8
91.0542,2048.6
91.0625,100.3
91.0653,138.3
91.0804,644.6
91.1192,166.6
91.121,245.5
91.123,92.8
91.1286,609.1
91.1335,16.9
91.2068,17
91.2109,342.2
91.2462,697.3
91.2787,19.3
91.2884,286.4
91.2944,273.4
91.2983,289.2
91.3094,401
91.3171,277.3
91.3611,144.1
91.4002,124.6
91.4015,121.7
91.4113,564.5
91.4609,19.4
91.5214,101
91.5402,110
91.5671,17.9
91.5801,564.2
91.6331,273.5
91.6611,20.5
91.6623,197
91.682,446.3
91.6907,426.8
91.7093,153.9
91.7374,448.4
91.7876,16.9
91.8142,19.2
91.8904,681.4
91.8989,126.9
91.9024,337.1
91.9265,141.4
91.9701,480.2
92.0208,490.7
92.0468,126
92.048,21.1
92.0493,90.5
92.0938,148.4
92.2443,18.2
92.2604,287.2
92.2649,134.4
92.2855,94.9
92.2957,635.4
92.2991,198.8
92.3025,22
92.3063,17.1
92.3078,111.7
92.3216,281.7
92.3461,313.5
92.3572,130.4
92.3628,580.7
92.3911,418.3
92.4011,511.6
92.4211,186.5
92.434,358.9
92.4474,348.6
92.4878,635.7
92.498,17.2
92.5341,77.8
92.5448,142.5
92.5554,181.6
92.5569,91.4
92.564,121.6
92.5649,16.7
92.5706,19.7
92.581,146.8
92.5874,360.3
92.6004,151.2
92.6108,341.6
92.6114,135.4
92.6335,351.9
92.7176,281.2
92.7191,211.1
92.7214,71.5
92.7503,126.3
92.7603,328.1
92.7655,291.7
92.8001,122.6
92.8087,461.1
92.8318,731.8
92.8428,134.1
92.8842,201.5
93.0015,142.8
93.0126,547.2
93.0334,20.9
93.0631,309.6
93.0698,136.7
93.0718,107.2
93.0943,97
93.1042,825.4
93.1567,618.9
93.1727,253.6
93.2136,18.2
93.2411,231.1
93.2733,120.9
93.2859,343.9
93.298,119.4
93.3304,224.2
93.3527,146.9
93.3923,118.1
93.3994,81.6
93.408,166.5
93.4151,116.6
93.4563,106.1
93.489,300
93.5073,599.9
93.5466,22
93.5481,110.9
93.5643,337.6
93.5688,314.2
93.5755,21.6
93.5975,172.7
93.6528,385.4
93.6654,209.8
93.6883,104.8
93.693,316.6
93.7006,139.4
93.7149,308.7
93.7187,748.5
93.7359,414.5
93.7716,540.5
93.7984,546.5
93.8092,102.5
93.8244,17.2
93.8302,282
93.8332,304.4
93.8583,250.4
93.8779,278.8
93.8952,95.5
93.9525,497.3
93.9557,96.7
93.9929,172.6
94.025,56
94.0313,18.7
94.039,17.8
94.0395,19.5
94.0412,52664.5
94.0425,63.2
94.0483,292.2
94.1305,21.6
94.1539,112.4
94.1578,123.2
94.1619,333.2
94.1667,338.3
94.1986,17.9
94.223,147.4
94.2439,360.4
94.2472,208.9
94.2559,144.4
94.2593,18.2
94.2791,149.9
94.2835,20.1
94.2923,445.1
94.299,151.7
94.3357,109.3
94.3602,51.5
94.3663,101.8
94.4448,129.5
94.4736,128.5
94.4966,16.2
94.508,107.1
94.53,297.2
94.5399,609.5
94.5718,286.2
94.626,300.7
94.6549,426.8
94.6858,118.1
94.711,202
94.7393,382.4
94.7434,712.1
94.7499,18.2
94.7606,128.5
94.7624,495.5
94.7807,259.7
94.784,234.8
94.7983,20
94.8463,18.6
94.8777,113.2
94.9138,553.5
94.9167,551.1
94.9243,417.9
94.9396,180.7
94.9578,159.7
94.9666,184.4
94.9903,372.7
95.0086,539.5
95.01,502.9
95.0155,107.3
95.0358,23.5
95.0446,1044.2
95.047,122.5
95.0474,207.4
95.049,407468.4
95.0504,297.4
95.0507,246.1
95.055,249.4
95.0555,253.2
95.0625,71.8
95.0788,616.2
95.0854,1486.9
95.0893,29.9
95.0996,121.7
95.1215,284.3
95.1553,432.8
95.1728,304.9
95.1855,158.9
95.1932,382.5
95.2167,127.5
95.2626,201.8
95.3007,470
95.3156,590
95.3175,91.1
95.3281,565.5
95.3325,17.4
95.3551,591.1
95.356,84.4
95.3782,495.3
95.3859,257.9
95.4161,112.3
95.4275,316
95.4368,123.3
95.4394,84.7
95.4541,471.4
95.4744,22
95.4841,452.8
95.4958,289.4
95.4969,413.5
95.5214,119.7
95.5372,194
95.5501,189
95.5541,314.6
95.574,21.1
95.5922,453.6
95.6116,117.9
95.662,448.7
95.7138,627.9
95.7251,99.3
95.7378,241.6
95.7549,111.1
95.7625,15.3
95.7752,312.9
95.7916,150.7
95.8995,770.6
95.9015,334.8
95.9087,288.2
95.9451,94.9
95.9488,104.2
95.9515,19.3
95.9735,514.8
95.9858,132.2
95.9879,17.3
96.0074,121.3
96.0144,17.8
96.0185,216.8
96.0524,19159.8
96.0538,108.4
96.0688,312.2
96.0778,237.3
96.0847,306.5
96.0872,192.4
96.0892,192.4
96.1073,579.6
96.1327,353
96.1452,185.9
96.1461,82.9
96.1508,193.3
96.1632,456.8
96.1653,599.1
96.173,113.5
96.22,572.4
96.2256,122.1
96.2498,299.3
96.2875,104.1
96.3048,291.6
96.3583,569.6
96.374,54.5
96.3758,241
96.4013,86.1
96.4204,100.6
96.4275,16.1
96.4364,458
96.4516,146
96.4644,324.9
96.4784,455.9
96.5061,126.6
96.5563,102.5
96.6001,98.5
96.6743,156.9
96.6998,140.7
96.7106,397.1
96.7183,187.2
96.7281,320.7
96.7303,144
96.776,139.6
96.801,238.8
96.8141,207.5
96.8151,364.6
96.8251,179.9
96.8435,727.6
96.8556,218.2
96.865,614.5
96.8771,363.9
96.8922,18.2
96.9015,625.8
96.9117,508.4
96.9217,160563.9
96.933,140.6
96.9528,16.8
96.9572,191.2
96.9605,340.1
96.9829,136.1
97.0075,226.8
97.0105,19.6
97.0272,318.4
97.0531,242.9
97.0557,93.6
97.0754,659.1
97.097,153.8
97.0994,410.3
97.1011,21.6
97.1607,172.5
97.2056,260.5
97.2129,149.4
97.2478,131.5
97.2601,193.7
97.2626,239.8
97.2704,209.1
97.2793,17.7
97.3134,103.6
97.3437,580.3
97.3701,280.8
97.3797,295.3
97.391,105.9
97.3967,653.2
97.4709,614.7
97.5032,316.5
97.5067,413.2
97.5187,16.4
97.5223,138.1
97.5387,329.9
97.5682,282.5
97.5895,445.4
97.5936,169.4
97.6016,593
97.6033,19.6
97.6064,118.6
97.6079,330.7
97.6141,155.1
97.6228,345.6
97.6327,23
97.6434,374
97.6488,450.3
97.655,114.3
97.6879,160.6
97.6904,233.8
97.6964,301.8
97.698,122.1
97.7096,100.4
97.7203,286.5
97.7213,570.6
97.7369,263.4
97.7647,17.1
97.7758,319.5
97.7795,22.2
97.7829,356.4
97.7881,133.6
97.8375,16.8
97.8401,1047
97.8606,365.4
97.8657,395.3
97.873,231.6
97.8826,362.8
97.907,768.3
97.9131,117.3
97.9223,112.6
97.9582,283.5
97.9596,185.4
97.9904,367.7
98.013,226.6
98.0329,678.7
98.0889,160.4
98.0993,17.2
98.1107,654.6
98.152,386
98.2144,147.2
98.2173,546.8
98.232,725.4
98.2442,172.2
98.2772,136.5
98.2986,109.2
98.3083,114.1
98.3511,752.5
98.3634,161.7
98.3804,104.7
98.3948,209.9
98.4081,142.3
98.4567,518
98.4773,18
98.4796,127.4
98.5088,279.1
98.5117,164.4
98.5134,17.2
98.6252,361.4
98.6307,227.8
98.6553,142.2
98.662,147.8
98.6827,366.4
98.6841,441.9
98.6853,560.4
98.6904,377.1
98.7567,209
98.7812,92.9
98.7872,87.6
98.793,108.5
98.7948,601
98.8245,204.2
98.841,17.9
98.8454,18.9
98.8886,344.6
98.9188,44380.6
98.9198,5141.2
98.9562,417.8
98.9752,13709.5
98.9774,50.7
98.984,115.7
98.9941,108.7
98.9975,135.3
99.0369,97.3
99.042,156.5
99.0843,716
99.0916,21.6
99.1286,103.5
99.1972,101.2
99.2049,651.1
99.2897,107
99.2953,522
99.3376,519.5
99.349,204.8
99.3746,155.7
99.3875,86.2
99.3947,107.5
99.3988,814.9
99.4091,302
99.4295,94.7
99.5123,51.5
99.5535,17.8
99.5847,247.8
99.6276,114.6
99.6721,453.1
99.6798,126.4
99.6855,105.4
99.6865,129.3
99.7377,429.8
99.7432,366.1
99.7515,356.7
99.7751,316.6
99.7845,217.1
99.7861,607.4
99.7875,188.2
99.8137,337.3
99.8176,18
99.8214,94.8
99.8605,105.3
99.8796,573.3
99.9238,45.8
99.9373,216.4
99.9838,349.6
100.0399,412.7
100.047,91.6
100.0616,103.9
100.0634,315.2
100.0755,25.6
100.081,293.3
100.1347,131.8
100.155,110.8
100.1762,478.1
100.179,132.5
100.2188,204.9
100.2292,412.4
100.2337,359.4
100.2731,130.1
100.3032,18
100.3247,217.2
100.3371,134.5
100.3405,270.1
100.3469,149.5
100.3529,288
100.4136,119.2
100.475,108.6
100.4918,18.6
100.505,149
100.5173,545.3
100.5347,87.5
100.5644,18.2
100.5769,184.8
100.6296,170.6
100.664,20.3
100.6978,548.2
100.7324,550.9
100.743,142.6
100.7616,160.1
100.7776,185
100.789,189.3
100.7955,100.8
100.8106,556.5
100.8251,330.1
100.8261,166.5
100.917,497.9
100.9323,524.1
100.9426,17.6
100.9641,323
100.9988,55.5
101.0084,20.1
101.0431,123.2
101.0471,3579.4
101.0676,92.5
101.0708,903.9
101.0989,52.8
101.1126,581.1
101.1671,348
101.1725,150.5
101.1738,212.1
101.1868,20.6
101.1924,650.9
101.2025,553.2
101.2192,166.9
101.2234,166.6
101.2337,631.8
101.348,146.2
101.4257,381.5
101.447,117.3
101.4495,401.7
101.4541,49.4
101.5366,137.4
101.5535,214.5
101.5666,17.1
101.6181,326.5
101.6791,439.1
101.719,308.7
101.7235,110.4
101.7596,612.1
101.8119,457.3
101.8229,103.8
101.8309,370
101.847,420.2
101.8609,101.4
101.8806,235.6
101.9314,24
101.9385,479.5
101.9517,83
101.9816,97.5
102.0198,426.2
102.0241,515.2
102.0549,5434.3
102.0606,78.2
102.0741,220.3
102.0839,136.1
102.1084,343.1
102.1369,337.2
102.1436,298.4
102.1471,623.1
102.158,565.5
102.1648,23.2
102.168,53
102.1811,17.8
102.1856,116.6
102.2371,149.3
102.2646,401
102.2742,127.7
102.2882,520.3
102.3193,232.1
102.3378,320.2
102.3752,18.9
102.3825,18
102.438,128.5
102.4553,573.3
102.468,297.5
102.4987,110.2
102.5141,142.7
102.5248,155.6
102.5342,379.1
102.5426,96.2
102.5492,180.7
102.5616,404.8
102.5969,220.4
102.5992,600.5
102.6016,304.7
102.6378,270.6
102.6492,164
102.65,322.2
102.6759,110.6
102.7301,152.5
102.7336,328.6
102.7384,451.3
102.7616,297.8
102.7654,17.9
102.8016,129
102.8026,419.1
102.9282,508
102.9509,138.5
102.9702,529.1
103.0165,22
103.0207,19.9
103.0468,195.2
103.054,167
103.0649,403.5
103.068,50.2
103.0936,521.8
103.0974,19.4
103.1045,217.7
103.1221,174.8
103.1367,17.4
103.1521,504.6
103.1958,107
103.2026,605.1
103.2407,234.2
103.2537,233.1
103.2552,632
103.2566,20.7
103.2581,96.7
103.2723,114.9
103.2803,98.3
103.2817,634.4
103.2843,274.6
103.2924,317.3
103.32,161.7
103.3385,297.1
103.3654,308.9
103.4022,22.1
103.4193,124.4
103.4214,437.9
103.4591,590.4
103.4631,95.6
103.4863,195.9
103.4983,500.5
103.5347,140.5
103.5421,123.6
103.5505,311.7
103.5559,21
103.5792,283.2
103.6147,266.6
103.634,165.7
103.6459,93.4
103.6578,619
103.6838,20.6
103.688,142.3
103.7241,359.4
103.7419,490.7
103.7525,176.1
103.7703,511.1
103.8141,23.7
103.8385,112.2
103.8561,111.4
103.8678,116.8
103.8922,205.6
103.9109,285.1
103.9512,318.2
103.956,313.6
104.0256,344.8
104.0302,222.5
104.0504,17.2
104.0704,109.9
104.0898,166.7
104.1035,280.6
104.1069,526240.9
104.1848,16.2
104.2468,20.2
104.2477,122.7
104.2678,208.3
104.2751,99.6
104.2972,320.7
104.3134,605.6
104.3454,107.3
104.3719,141.6
104.3887,141.4
104.4054,93.5
104.4327,544.9
104.4363,141.6
104.465,96.3
104.4995,147.8
104.5117,20
104.5423,360.1
104.5562,124.8
104.5694,610.3
104.5842,253.9
104.6261,222
104.6311,19.1
104.6472,602.1
104.6524,502.4
104.6584,420.1
104.7246,216.4
104.7414,147.3
104.7497,146.2
104.786,308.7
104.7928,263
104.8236,341.9
104.8266,586.4
104.8354,335.8
104.9132,155.8
104.9201,491.2
104.9586,546.6
104.9633,219.9
104.9643,25.8
104.9922,1937.7
104.9977,311.8
105.0031,33.5
105.0447,38939
105.0674,394.2
105.0697,27.2
105.0809,47
105.1103,18001.4
105.1857,109.8
105.2036,20
105.2256,133.5
105.2313,261.7
105.2531,166.8
105.2543,262.3
105.2713,275.9
105.2906,509
105.2954,93
105.2988,271.1
105.3134,134.9
105.3251,218.4
105.3779,665.2
105.3995,98
105.4203,267.7
105.431,265.4
105.4355,176.8
105.4411,613.7
105.4427,222.1
105.4568,483.6
105.4612,462.3
105.4667,310.9
105.4837,155.7
105.5053,112
105.5133,680.4
105.5574,118
105.5668,628.3
105.6359,17.9
105.6592,17.9
105.6692,97
105.7199,571.8
105.7235,288.5
105.7418,163.9
105.7965,21.4
105.818,621.5
105.8342,19.4
105.857,359.2
105.8628,175.7
105.8759,18.6
105.8925,18.5
105.9208,458
105.9293,375
105.9539,109.8
105.9659,286.5
105.9859,95.3
105.9945,244.8
106.0095,211.3
106.0137,113.1
106.0192,17.8
106.0417,23.6
106.0452,15.9
106.048,771.3
106.1052,626.6
106.1193,20.4
106.1233,653.3
106.1273,19.5
106.1796,18.8
106.1946,120.7
106.2371,608.2
106.2595,166.3
106.3039,397.8
106.3084,84.9
106.3469,669.9
106.3659,18.3
106.3809,134.3
106.3857,121.5
106.4308,157.3
106.4887,204.9
106.5144,287.8
106.5194,352.4
106.5327,212.7
106.577,389.8
106.6036,349.6
106.6213,129.8
106.6286,259
106.7012,127.4
106.7034,523.7
106.8322,195.5
106.8345,114.7
106.8524,56.1
106.8824,403.9
106.9178,321.3
106.9422,18
106.9505,4640.6
106.9837,52.4
106.9919,101.2
107.006,310.4
107.0074,198.9
107.0128,673.6
107.0201,101.5
107.0265,321.7
107.0283,101.7
107.0424,104.8
107.0491,605.8
107.0541,678.1
107.0681,46.9
107.0857,22
107.0895,669.3
107.0943,98
107.1464,324.5
107.1832,671.2
107.21,162.2
107.235,344
107.2393,20.6
107.254,661.2
107.2695,103.3
107.3315,351.8
107.3999,234.4
107.4023,116.5
107.4312,107.1
107.4488,223.5
107.4871,156.8
107.5179,494.3
107.5498,49.7
107.5822,199
107.5852,126.4
107.6012,681.6
107.6113,135.9
107.6591,128.9
107.7164,97.9
107.7495,101.2
107.7508,152.2
107.8547,453.1
107.8651,229.6
107.8801,121
107.9896,336.5
108.0109,129.1
108.0404,93
108.0527,96.3
108.0552,209.1
108.0586,112.6
108.0791,451.3
108.0963,20.6
108.1184,18.8
108.1212,179.4
108.143,338.3
108.1482,314.9
108.2266,140.3
108.2303,483.8
108.2378,408.6
108.2566,385.8
108.2757,105.3
108.285,367.1
108.2884,120.3
108.301,17.5
108.3636,392.9
108.3865,383.2
108.4,259.4
108.4261,499.6
108.5338,567.9
108.5416,323.6
108.5502,17.3
108.5784,301.6
108.6145,383.4
108.6393,18.6
108.6491,137.1
108.7037,135.5
108.7863,193.2
108.794,300.1
108.7989,48.8
108.8025,304.3
108.8214,280.6
108.8245,144.5
108.8528,205
108.8636,320.1
108.8922,393.6
108.9169,604.6
108.9201,133.7
108.9845,102.1
108.9997,131.2
109.0294,23.3
109.0458,147.8
109.0647,54712
109.0665,55
109.0736,126.2
109.101,541.3
109.1211,656
109.1489,453.8
109.2035,677.8
109.228,317.3
109.2706,173.6
109.3161,159.3
109.3323,133.5
109.3396,180.5
109.3647,318.3
109.3731,136.5
109.3928,21.8
109.4907,302.1
109.4955,390.1
109.4984,461.8
109.5167,88.8
109.5203,155.8
109.5401,20.2
109.5437,103.5
109.6091,149.3
109.6228,326.1
109.6397,255.3
109.6462,362.4
109.6829,134.7
109.6941,219
109.6961,508.4
109.6983,18.7
109.7009,265.5
109.7538,477.1
109.7756,286.7
109.8214,409.2
109.8583,169.5
109.8689,381.9
109.8944,544.9
109.8979,18.7
109.9608,119.1
109.9628,18
109.9667,484.6
109.9696,370.4
109.9804,56.1
110.0172,226.7
110.0414,359.7
110.0681,1742.2
110.0714,471.7
110.0959,19.5
110.117,89.9
110.1562,413.3
110.2376,113.6
110.2661,445.5
110.3567,134.7
110.3752,18.8
110.3856,147.2
110.4036,757
110.4331,96.9
110.436,116.2
110.4463,19.6
110.4497,94.1
110.4576,21.9
110.4647,250.8
110.4861,567.7
110.5038,497
110.5175,228.4
110.5623,768.5
110.5648,135.3
110.5765,514.5
110.5816,119.8
110.5858,108.1
110.6318,550.6
110.6392,105.7
110.6413,127.8
110.6428,326
110.6474,117.7
110.6728,722.9
110.7235,20.8
110.7369,108.5
110.7742,140.4
110.7949,51.7
110.7984,354.2
110.8125,378
110.842,282.7
110.8501,679.1
110.8837,244.4
110.904,479.4
110.9856,265.9
111.0232,327.3
111.0319,145.1
111.0367,103
111.044,290.9
111.0924,95.3
111.1197,285.8
111.2036,142.9
111.2129,124.6
111.2491,144.5
111.2967,392.2
111.3087,398.9
111.3708,21.3
111.3825,132.7
111.4629,102.6
111.5147,142.1
111.5235,552.6
111.525,163.3
111.5621,53.7
111.5672,231.1
111.6314,186.2
111.6424,17.6
111.6779,18
111.7978,75.2
111.827,207.3
111.8853,98.1
111.9153,249
111.9298,647.4
111.9424,412.9
112.0658,827.6
112.0994,26.8
112.1618,108.3
112.1923,419.7
112.1994,83.4
112.2256,476.9
112.2438,114.2
112.2442,114.5
112.2559,364.5
112.3086,406.5
112.3794,20.6
112.429,48.9
112.4831,453.3
112.4946,586.5
112.4968,663.3
112.5555,350.1
112.5613,133.3
112.5635,139.5
112.5659,392
112.5799,207.3
112.6343,123.6
112.6434,661.1
112.6801,213.6
112.7115,19.2
112.7231,752.4
112.7511,279.1
112.7725,19.8
112.8145,115.6
112.8262,807.7
112.8579,16.4
112.8957,491234.8
112.8975,481.6
112.899,641.2
112.9081,196.1
112.9581,89.1
112.9746,137.8
113.0184,162.6
113.0367,356.7
113.0533,115.3
113.0823,424.2
113.0837,476.4
113.1074,44
113.1605,122.8
113.1657,116.7
113.1976,474.7
113.2174,18
113.2232,21
113.2291,142.3
113.2429,658.9
113.2454,167.4
113.2494,47.4
113.2921,168.8
113.3088,303.4
113.3478,254.2
113.3566,263.5
113.3849,403.7
113.3898,108
113.4016,444.3
113.4172,139
113.4628,133.8
113.4879,297.9
113.5069,546.5
113.5137,47.6
113.517,99.1
113.52,816.9
113.5308,95.7
113.5541,115.3
113.5621,336
113.5664,479.6
113.577,405.1
113.5852,579
113.6306,629.9
113.6338,481.6
113.6639,325.4
113.6842,537.1
113.7591,346.4
113.762,404.5
113.771,126
113.8011,216.8
113.9325,20
113.9474,18.6
113.9724,126.1
114.0152,299
114.0212,564.8
114.0252,472.9
114.053,192.1
114.0549,58794.4
114.0575,18.2
114.0662,161.2
114.0928,557.4
114.1003,321.3
114.1135,145.6
114.1424,16.7
114.1512,366.6
114.1684,156.8
114.1789,420.7
114.26,18.5
114.2713,16.8
114.28,361
114.3123,146.5
114.3197,545.5
114.3213,128.4
114.3275,435.3
114.3332,49.7
114.3526,355.4
114.3567,17.2
114.3938,283.6
114.4567,265
114.5014,611.2
114.5269,101.4
114.5513,316.1
114.5812,485.2
114.5911,164.9
114.5921,356.2
114.6135,454.1
114.6292,111.4
114.6755,286.4
114.7788,425.4
114.8595,396.4
114.8622,118
114.8812,127.3
114.8849,126.9
114.8928,152358.4
114.9116,654
114.9612,437.5
114.9825,21.9
115.0542,20.5
115.0583,1199.6
115.0782,17.5
115.1011,318.8
115.1362,124.3
115.2568,311.3
115.2679,385.2
115.305,17
115.3406,84.4
115.3435,493.9
115.3952,139.8
115.4024,119.2
115.409,673.9
115.4305,136.5
115.4458,295
115.4728,328.1
115.513,383.8
115.5428,49.9
115.5512,104.6
115.5981,148.8
115.6491,370.2
115.6704,98.2
115.7008,108.2
115.7076,294.7
115.7328,19
115.8076,121
115.8141,16.3
115.8169,553.4
115.8282,281.4
115.8294,204.8
115.8341,263.3
115.8436,343.5
115.8846,18.3
115.9567,115.7
115.9751,290.6
115.9792,20
115.9872,116.4
115.9953,730.8
116.0559,18.7
116.0706,5378.9
116.0897,90.4
116.1187,456.6
116.1397,799.7
116.1902,306.1
116.2497,332.3
116.3767,98.5
116.3875,131.4
116.3996,654.8
116.4121,496.5
116.4216,171.4
116.426,563.6
116.4304,712.3
116.4395,158
116.4422,91
116.4507,97
116.5095,333.1
116.5654,21.2
116.5743,142.1
116.5832,21.1
116.5889,508.4
116.5935,239.8
116.6151,98.5
116.6789,1100.3
116.6948,22.4
116.7182,560.1
116.7844,186.4
116.7884,83.1
116.7896,513.8
116.8056,18.3
116.8155,163.8
116.8269,130
116.8458,138.6
116.8501,587.7
116.8909,18505.2
116.906,302.6
116.981,477
116.986,1525.2
116.9958,186.2
117.0249,636.5
117.0804,280.3
117.1043,127.2
117.1537,172.8
117.1747,17.6
117.1953,17.3
117.2157,100.8
117.3118,253.2
117.3239,126.9
117.3275,17
117.3893,112.6
117.4071,320.1
117.411,176.9
117.4132,115
117.4427,495.2
117.4583,354.3
117.4863,142.5
117.499,85.3
117.5341,456.5
117.556,400.7
117.5612,398.3
117.588,19.7
117.6906,107.4
117.7051,682.3
117.7235,109.2
117.7546,144.6
117.7671,289.8
117.7917,595.7
117.8219,366.3
117.8482,388.1
117.9016,371
117.9088,345.9
117.9173,99.9
117.9203,331
117.9439,18.4
117.9635,297.8
117.9647,452.9
118.0168,357.7
118.0989,158.8
118.1509,132.1
118.1611,627.4
118.2248,109.5
118.2726,55.7
118.2947,288.6
118.2998,400.2
118.3134,650.1
118.3499,204.8
118.3668,17.9
118.3854,119.3
118.433,283.9
118.4934,19.8
118.6004,101.1
118.6017,129.5
118.6054,143.3
118.6868,456.8
118.6946,16.1
118.7921,114.6
118.8128,261.6
118.8774,107.7
118.9068,148.5
118.9194,97.1
118.9302,151.4
118.9336,108.4
118.979,61
118.9818,165.9
119.0188,27.3
119.0492,310.4
119.0559,242.1
119.0621,467.4
119.0866,118
119.1071,17
119.1224,308.9
119.1465,437.4
119.1554,21.6
119.2398,121.1
119.2851,190.5
119.3201,115.3
119.3256,438.3
119.3278,121.3
119.3617,329.5
119.4323,21.1
119.4451,118.2
119.4635,17.5
119.4679,126.9
119.4764,195.3
119.4951,17.6
119.5766,250.4
119.7411,104.5
119.7532,17.7
119.7573,546.1
119.7813,21.4
119.7864,111.8
119.7931,156.5
119.8182,531.2
119.8247,125.1
119.8426,330.9
119.8484,17.7
119.9711,498.4
119.9906,95.3
120.0032,4399.4
120.057,330.7
120.0587,592.8
120.0807,15893.9
120.1083,169.9
120.1634,364.4
120.1877,612.6
120.2003,19.9
120.2821,515.3
120.2988,526.3
120.3176,53
120.3302,289
120.3414,240.9
120.3464,187
120.3875,97.6
120.401,19.9
120.4125,448.7
120.4555,16.3
120.4566,18.6
120.5026,137.7
120.5176,544
120.519,1362.6
120.5433,743.9
120.5832,103.4
120.5861,421.7
120.6029,101.3
120.6122,135.3
120.615,490.8
120.6163,569.2
120.6696,18.3
120.676,148.1
120.6858,229.6
120.7137,498.7
120.7155,400.1
120.7537,100
120.7553,380.8
120.7702,583.3
120.7743,703.4
120.8207,124.7
120.8343,277.1
120.9038,307
120.9224,315.4
120.9261,212.3
120.9808,158.8
121.0076,350.6
121.0283,575
121.0397,50.5
121.056,144.2
121.0769,203.7
121.101,23.4
121.1064,635.6
121.1535,129.5
121.2068,334.7
121.3319,487.2
121.376,363.7
121.3909,343.9
121.3982,614.7
121.404,298.5
121.4165,210.4
121.4197,139.4
121.4347,115.3
121.4478,221.6
121.458,271.4
121.4648,122.9
121.4928,97
121.5832,321.9
121.5843,203.2
121.6272,296.2
121.6308,146.6
121.6349,170.8
121.7042,17.5
121.7527,653.9
121.8712,16
121.8747,341.6
121.8908,749.1
121.9032,222
121.9304,304.1
122.0425,294
122.0471,383.7
122.0864,239.5
122.0938,618.3
122.12,341.1
122.1233,18.9
122.2566,425.5
122.2799,18.3
122.3175,600.8
122.3413,134.4
122.3525,109.5
122.496,694
122.5305,346.7
122.5377,17.9
122.5457,131.7
122.5485,16.6
122.5741,398.7
122.5856,115.1
122.6217,239.3
122.7822,572.7
122.8127,194.6
122.9246,29044.6
122.9789,104
122.9839,219.1
122.9929,408.5
123.0398,116.1
123.0598,224.4
123.0805,35.8
123.0923,610.3
123.1168,20.7
123.17,346.3
123.202,187.6
123.2447,103.6
123.2514,320.3
123.28,120.5
123.3533,102
123.3599,352.3
123.3828,350.3
123.3876,458.6
123.426,330.7
123.4313,80.3
123.4402,159.4
123.4558,295.9
123.4853,107.8
123.4915,15.5
123.4922,15.5
123.5661,107.5
123.5808,224.2
123.644,117.1
123.6548,242.4
123.6666,184.1
123.6847,332.8
123.7001,216.2
123.7081,288.3
123.7204,132.4
123.8487,375.5
123.8532,167.2
123.9084,155.9
123.9118,108.5
123.9324,17.3
124.0076,474.2
124.0275,159.3
124.0543,141.4
124.1074,249.4
124.1186,18.1
124.1307,116.5
124.183,297.5
124.2059,83.8
124.2744,17.6
124.2773,319
124.2846,102.4
124.289,397.3
124.3411,205.8
124.3496,433.9
124.3837,107.4
124.4024,229.4
124.4046,19.8
124.4379,345.3
124.4425,575.3
124.4531,326.6
124.4888,158
124.5357,432.3
124.5706,129.7
124.7077,327.6
124.7203,132.9
124.7571,127.5
124.7595,149.4
124.8363,219.2
124.8645,184.3
124.8806,111
124.8908,613.8
124.912,21.7
124.9226,3170.4
124.9427,115.8
124.9881,17.7
124.9966,109.2
124.9998,5441.6
125.0056,380.7
125.0389,236.4
125.0411,97.6
125.058,729.4
125.0598,36.9
125.0787,346.8
125.0923,391.2
125.1075,142.6
125.1331,54.4
125.1353,366.8
125.1429,350.2
125.1813,140.1
125.1836,372.3
125.1984,629.7
125.2192,321.9
125.2276,173.9
125.2514,407.5
125.3321,683.3
125.3949,254.6
125.4829,22
125.5658,480.4
125.5919,105.3
125.5934,18.1
125.6336,398
125.6528,209
125.6686,49
125.6987,135.6
125.7138,479.5
125.7261,665.5
125.7515,19.1
125.7587,388
125.7689,419.5
125.7965,95.5
125.9218,130.7
125.9879,544.2
126.0034,488.2
126.0227,424.9
126.0799,89.2
126.1806,400.9
126.2017,18.1
126.249,543.9
126.3119,150.1
126.3202,108.9
126.3307,321.9
126.3619,512.8
126.3686,234.6
126.3757,120.5
126.4361,632.7
126.4797,164.2
126.5047,156.2
126.5207,110.8
126.5522,295.6
126.5774,130.5
126.5803,16.4
126.7159,19.7
126.8259,505.1
126.8705,128.1
126.9018,19.1
126.908,174.5
126.9305,124.1
126.9967,245.5
127.0478,121.8
127.0756,18.5
127.1259,745.5
127.1442,596.9
127.1457,114.4
127.1671,445.7
127.2397,100.2
127.2666,473.5
127.2706,276.1
127.3412,532.6
127.3479,500.7
127.3496,343.3
127.3607,136.3
127.3927,83.8
127.4275,103.3
127.4524,18.2
127.4739,279.1
127.5671,19.1
127.5696,598.3
127.6007,179.6
127.6059,122
127.6249,113.9
127.6269,326
127.6819,176.1
127.6974,287.9
127.7268,94.3
127.7299,107.8
127.7591,222.1
127.7595,246.8
127.7602,238.3
127.7698,393.2
127.7974,18.5
127.9383,253.1
127.9851,620.6
127.9878,94.7
127.9918,18.4
128.0175,319.5
128.0259,109
128.0271,504.4
128.0403,605.5
128.0817,179.6
128.0889,172.6
128.0922,18.6
128.0992,685.1
128.1074,19
128.1512,444.5
128.1553,126
128.1696,511
128.2136,19.6
128.2304,129.2
128.2637,20
128.2712,661.1
128.2913,58.7
128.3359,134
128.3676,716.3
128.4203,566.3
128.482,288.6
128.5071,367.5
128.5132,224.4
128.5176,666.7
128.5647,229.5
128.5707,583.1
128.5774,20.5
128.5829,129.4
128.6044,356.9
128.6256,1178
128.6407,51.5
128.7299,111.7
128.7353,356.6
128.7859,22.2
128.8002,153.8
128.8231,92.3
128.8399,122.4
128.9141,150.7
128.9343,54.5
128.9523,579.8
128.9971,235.8
129.001,192
129.0033,640
129.0876,16.8
129.1022,63
129.1626,126.9
129.1805,18.2
129.1972,114.9
129.254,103.8
129.2719,17.5
129.3783,133.9
129.5145,389.2
129.5427,98.4
129.5443,544.9
129.7013,133
129.7183,138.3
129.7615,103.4
129.7925,561.9
129.8654,268
129.9118,158.6
129.95,102.7
129.9775,206
129.9825,17.6
130.001,545.5
130.0257,655.7
130.0499,7634.9
130.1139,104
130.1335,514.6
130.1403,121
130.1471,17.6
130.1629,285.6
130.177,49.7
130.2115,94.7
130.2509,407.1
130.2778,475.6
130.3098,329
130.311,164.7
130.3483,546.9
130.3911,145.6
130.4413,17.2
130.4744,164
130.4824,318.4
130.5341,152.9
130.5444,135
130.5585,802.9
130.643,984.6
130.6915,115.9
130.7149,21.1
130.7193,417.6
130.723,18.6
130.7416,226.2
130.7504,546.7
130.8589,469.1
130.8628,190.7
130.8946,103.9
130.9786,171.3
130.997,20.9
131.0164,513.1
131.0181,444.7
131.0224,404.7
131.0677,17.9
131.1607,171.2
131.1993,109.2
131.215,154.4
131.2186,303.1
131.2501,50.3
131.2651,418.1
131.2927,99.1
131.3092,155.6
131.3301,119.2
131.3474,129.2
131.3678,396.9
131.3733,529.7
131.403,403.7
131.4301,686.4
131.467,17.2
131.5225,588.8
131.5647,103.4
131.5664,142.4
131.5759,181.3
131.6555,697.1
131.6593,18.7
131.6764,540.7
131.6876,575.9
131.705,537.7
131.7609,232.8
131.7973,602.1
131.802,549.6
131.8634,297.7
131.8814,237.1
131.9541,401.8
131.9828,103.9
132.0033,24175.8
132.0173,146.7
132.0198,751.9
132.029,173.9
132.0452,178.8
132.0608,90
132.0656,102978.1
132.0698,145.1
132.0768,1763.7
132.082,211.1
132.0929,19
132.1127,183.1
132.1209,539.5
132.1297,100.2
132.2493,225.9
132.2598,233.4
132.2671,18.5
132.2705,308
132.2741,479.6
132.301,427.5
132.3487,705.6
132.3613,207.4
132.5623,345
132.5889,114.5
132.6105,442.2
132.6439,570.2
132.6966,188.6
132.7296,132.1
132.8356,145
132.8475,303.2
132.9027,21.7
132.914,109.3
132.9588,276
132.9873,2148.1
133.026,18.7
133.0275,365.3
133.0579,358.6
133.0601,201.2
133.069,3313.5
133.086,30.9
133.0915,266.3
133.0972,15706.4
133.1495,83.7
133.1608,97.5
133.1672,326.2
133.1725,18.8
133.2668,104.1
133.2814,442.4
133.3313,140.9
133.344,483.2
133.4203,132.5
133.4359,132.6
133.4411,377
133.482,608.8
133.5562,96.2
133.636,17.3
133.6431,23.3
133.687,114.3
133.7001,144.8
133.7492,348.6
133.7933,18.7
133.8051,19
133.8067,130.6
133.8292,105
133.9113,522.3
133.9851,160.5
134.0054,160.8
134.0189,14244.1
134.0635,108.3
134.0901,224.4
134.0988,228.6
134.1317,383.4
134.1354,147.4
134.1791,105
134.1855,369.5
134.1964,589.4
134.245,307
134.2579,692.5
134.282,336
134.3331,231
134.3581,203.9
134.3954,150.2
134.4478,352.1
134.4735,583
134.511,529.4
134.5406,90.2
134.5857,26.6
134.6462,533
134.7001,331
134.7018,285
134.712,19.2
134.7779,19.7
134.7918,562.9
134.811,46.7
134.9382,117.6
134.964,323.8
134.9719,154.5
134.9966,34.5
135.003,71597.4
135.0232,46.7
135.0608,108.5
135.0776,281.4
135.1005,17.9
135.1157,527
135.1168,68.4
135.1305,19.3
135.1397,88.2
135.1479,340.3
135.188,343.1
135.2414,235.4
135.2602,210.4
135.3027,17.4
135.3046,424.9
135.3548,109.7
135.4243,101.6
135.4319,475.3
135.4483,601.7
135.4496,482.3
135.4949,60.5
135.4978,171.5
135.5029,145.2
135.5965,573.5
135.6021,480.7
135.6257,217.3
135.6841,241.9
135.6899,186.8
135.7145,554.3
135.7385,376.2
135.756,148.1
135.761,94
135.8084,444.2
135.8096,126.1
135.8288,117.8
135.8374,467.6
135.9664,89.5
135.9772,1614.6
135.9992,49.2
136.0063,388.7
136.0321,617
136.0422,308.1
136.0456,146.7
136.0482,4018.2
136.0617,49.3
136.0648,541.6
136.0757,10097.9
136.1186,162.3
136.2632,315.4
136.2741,124
136.2758,879.2
136.3294,17.2
136.3407,18
136.3557,103.8
136.3986,374
136.4579,511.7
136.4932,339.1
136.5308,441
136.533,21.3
136.5463,353.8
136.5899,48
136.6183,509.4
136.6264,146.8
136.6444,269.6
136.7601,87.8
136.7733,17.6
136.8041,317.7
136.8544,126.3
136.9313,1122.8
136.9857,211
137.0308,111.6
137.1041,18.2
137.122,361.8
137.1529,101.3
137.1945,311.2
137.2582,156.2
137.3332,193.8
137.3509,18.4
137.4334,504.5
137.474,293.7
137.498,314.8
137.5263,236.9
137.5831,109.9
137.615,523.1
137.6791,149.8
137.6861,659.1
137.7884,83.4
137.7929,172.6
137.8595,51.7
137.8678,277.6
137.8828,91.5
137.8861,159.1
137.8882,547.7
137.8975,76.7
137.9027,98.3
137.9146,342.6
137.9565,17.1
137.999,222.8
138.0065,449.5
138.0526,6615.5
138.061,55.4
138.0664,54.1
138.1016,565.7
138.1862,703.7
138.1878,149.5
138.1899,29.3
138.1922,275.5
138.1985,145.2
138.2223,18.8
138.2903,20.9
138.305,51.3
138.3169,475.5
138.3235,534.5
138.4016,117.3
138.4044,526.4
138.4548,333
138.4646,113.4
138.4757,195.1
138.5329,232.2
138.5667,300.5
138.6377,475.6
138.6514,227.7
138.6577,157.8
138.6977,160.5
138.7383,18.9
138.7419,484.9
138.7611,113.1
138.786,112.9
138.795,156.2
138.8531,167.9
138.9015,186.7
138.9066,3289.8
139.0238,135.5
139.0399,220.9
139.0455,630.7
139.0922,396.9
139.1166,268.5
139.156,607.3
139.1666,132.1
139.1988,51.8
139.2825,869.7
139.2871,135.4
139.3508,320.8
139.3849,202.5
139.3872,99.6
139.4039,773.5
139.4086,578.6
139.4448,134.5
139.4667,558.3
139.4699,118.7
139.4879,105.7
139.4953,227.9
139.5316,514.3
139.5386,106.7
139.58,143.8
139.6094,582.1
139.6705,53.9
139.6931,287.3
139.7065,479.5
139.7557,333.1
139.7704,55.7
139.7791,338.1
139.7876,595.8
139.8124,251.4
139.822,343.1
139.9151,300.4
139.9272,414.3
139.9707,103.1
140.0165,1278.7
140.0681,1525.5
140.1447,110.1
140.1697,329.4
140.1745,149.6
140.1999,396.1
140.2074,474.9
140.2177,422.3
140.2231,87.5
140.2818,382.3
140.3902,371.7
140.4228,544.5
140.4489,337.9
140.451,857.9
140.4563,102.8
140.5068,233.2
140.5508,350.4
140.5614,661.4
140.5669,105.6
140.589,335
140.6005,252.6
140.7428,437.2
140.7983,97
140.8753,147.4
140.8842,426.4
140.9036,892.4
140.9688,512.3
140.9859,119.1
140.9948,155.9
141.0006,14788.7
141.0048,22.4
141.0639,609.4
141.1149,147.9
141.1495,20
141.1716,292.5
141.2058,163.9
141.2445,412.2
141.2526,111
141.2667,605.4
141.3182,376.4
141.351,397.7
141.4089,123.6
141.431,240.4
141.4636,468.9
141.5357,355.5
141.5465,115
141.5811,370.3
141.6488,16.8
141.8244,97.8
141.8483,225
141.9051,526.3
141.9373,91
141.9443,384.1
141.9477,369.5
141.9496,552.6
141.9647,249.3
142.0039,424.5
142.0284,512.8
142.0477,511.2
142.0629,419.1
142.0699,220.7
142.0738,80
142.1243,111.1
142.2676,297.4
142.273,131.2
142.3155,729.4
142.3278,140.3
142.3372,124.2
142.5214,212.3
142.5329,591.9
142.5798,629
142.5825,382
142.617,106.3
142.6998,278.9
142.7285,17.9
142.7602,98.5
142.8128,19.3
142.8506,409.2
142.8595,122.8
142.939,435
142.9965,370
143.0082,168.1
143.019,2026.7
143.038,448
143.0816,302.5
143.1194,23.1
143.1735,238.7
143.2158,121
143.2262,18.8
143.2333,116.4
143.2849,229.6
143.3127,119.3
143.3167,20
143.3746,99.6
143.4374,57.3
143.4514,118.5
143.5078,712.5
143.5104,276.9
143.5157,53.6
143.5465,581.7
143.5559,447.5
143.5816,183.2
143.6732,328.2
143.6801,54.7
143.6859,487.3
143.7424,142.6
143.7751,430
143.8011,546.6
143.8213,158.4
143.834,537.9
143.877,20.7
143.9229,105.2
143.9797,195.5
143.9955,174.2
144.032,164.3
144.0339,171
144.054,546.8
144.0632,91.8
144.0786,93.7
144.1044,518.9
144.2132,129.4
144.2407,472.4
144.3024,639
144.3918,205.6
144.4794,192.8
144.5011,86.8
144.5558,766.9
144.5599,136.8
144.5647,536.2
144.5812,209.3
144.5822,231.8
144.5894,252.2
144.5924,100.1
144.5961,144.1
144.6235,104.9
144.6301,152.7
144.7541,201.6
144.7699,181
144.8013,158.8
144.8339,174.7
144.8606,49.1
144.8754,142.7
144.9024,283.9
144.906,348
144.9166,17.3
144.93,313.1
144.9545,411.4
144.981,1806.7
144.988,218.3
144.9956,98.8
145.0107,25.7
145.1225,579.2
145.2079,135
145.213,180.5
145.2227,370.1
145.2449,334.6
145.2689,765.3
145.3285,658.8
145.3536,19.6
145.3892,20
145.4361,391.9
145.5569,23
145.6447,16.8
145.7219,415.9
145.7722,102.7
145.7877,175.8
145.7912,366.6
145.8083,129.3
145.9066,327.7
145.91,103.2
145.9526,613.2
145.9611,334.3
145.963,129.7
145.9663,283.1
145.9696,690.7
145.9721,265.7
145.9728,270.6
145.9736,331.2
145.9778,483.6
145.989,190.9
146.0126,5734.3
146.0189,15971.7
146.0372,151.3
146.0473,92.3
146.0696,280.7
146.072,135.1
146.0907,145.3
146.0973,378.1
146.2078,16.7
146.2725,653.7
146.2776,19.3
146.346,653.5
146.3515,141.8
146.4462,22.7
146.5251,171.8
146.5449,21.1
146.5884,289.5
146.5966,18.7
146.637,839.9
146.6535,126.9
146.6913,429.2
146.6929,583.1
146.7186,559.7
146.7424,427.2
146.8443,121.7
146.8684,620.5
146.8788,105
146.9819,120090.7
147.0324,330
147.0765,55416.1
147.1129,28005.1
147.1171,589.9
147.1211,19.5
147.1367,22.4
147.141,116.4
147.1457,605.5
147.2247,292.6
147.2832,566.2
147.3123,152.9
147.4146,169.4
147.4496,498.6
147.5719,20.3
147.5759,361.8
147.5905,471
147.6343,103.5
147.6493,467.6
147.7138,155.2
147.7367,593.9
147.7835,110.6
147.8018,340.8
147.8195,487.2
147.8437,335.4
147.8457,365
147.9028,524.2
147.9491,369.4
147.9632,308.8
147.9772,427.8
147.9877,292.3
148.0262,154.9
148.0312,468
148.0346,442.3
148.0798,876.7
148.1175,22.5
148.1288,22.4
148.1304,139
148.1809,144.1
148.1858,144.2
148.2098,140.1
148.2102,136.4
148.3014,22.3
148.3099,53.9
148.3701,122.5
148.3935,146.7
148.5322,5778.6
148.5401,416.6
148.5505,21.2
148.555,278.6
148.6768,161.9
148.843,333.3
148.88,208.8
148.9354,572.9
148.9613,1698.9
148.9846,706.3
149.0026,60
149.0186,1800.3
149.0234,5131.1
149.0275,760.8
149.045,77.1
149.0522,295.1
149.0635,390
149.0891,130.6
149.1324,22.4
149.1501,23.5
149.1533,434.8
149.1577,650.6
149.2548,668.3
149.3117,274.6
149.4801,740.2
149.6664,165
149.752,97.8
149.7828,109.1
149.8019,225.5
149.8114,114.2
149.815,331.1
149.8569,512.4
149.8823,214.5
149.8947,162.7
149.9152,509.5
149.9929,11366.5
150.0139,4689.7
150.0268,73.4
150.0948,133.6
150.1172,168
150.1486,20.6
150.1808,24.5
150.2467,381.2
150.2568,16.3
150.3382,91.7
150.3755,308.7
150.5166,486.1
150.5735,384.5
150.6194,422.9
150.6218,57.1
150.6821,624.6
150.6939,138
150.7249,595.2
150.7368,57.6
150.7896,490.2
150.8932,149.6
150.9232,423.7
150.946,20.9
150.955,830.6
150.9609,22.5
150.9769,51452.7
150.9842,286.8
151.0037,19
151.0479,1362.3
151.0564,369
151.1023,879
151.12,21.3
151.1699,164.5
151.2542,541.3
151.2572,18.4
151.3699,113.7
151.3781,97.2
151.4318,97.1
151.4467,300.7
151.5448,605.6
151.5667,195.2
151.5692,227.4
151.6813,217.8
151.7256,419.3
151.8008,19
151.8811,107.5
151.904,95
151.9134,524.8
151.9511,550.7
151.9632,306
151.9803,376.7
152.0222,12598
152.032,2679.2
152.056,35.4
152.0755,741.8
152.1036,155.4
152.1452,102.1
152.2867,548.5
152.3939,298.8
152.5233,251.4
152.5449,478.8
152.6317,116.2
152.6413,373.8
152.6609,286
152.6631,47
152.6795,279.6
152.7276,227
152.7567,628.7
152.7918,539.8
152.871,151.2
152.8877,316.8
152.8977,98
152.902,371.9
152.9128,135.3
152.9191,522.1
152.9359,296.3
152.9381,232.9
152.9751,2225.1
152.983,308.3
153.0072,162.8
153.054,766.9
153.0596,86
153.0828,288.4
153.1196,136.5
153.1349,19.1
153.1516,128.1
153.207,211.1
153.2221,105.8
153.2346,732.9
153.2746,19.2
153.3442,676.4
153.3489,474.3
153.3791,20.7
153.4423,303.2
153.5043,476.4
153.5305,360.9
153.5547,681.2
153.5693,424.4
153.6107,142.3
153.6294,129.7
153.6311,509.6
153.6427,256.1
153.673,341.8
153.7093,522.8
153.7256,21.3
153.7577,298
153.7649,17.8
153.7779,111
153.8318,454
153.8518,108.9
153.9053,437.1
153.9189,18.4
153.9494,16.9
153.9836,132.6
154.0025,747.1
154.0114,765.7
154.0267,1898.5
154.0421,129.4
154.0589,2376.1
154.108,261.6
154.1593,288.6
154.173,373.9
154.1768,85.6
154.2102,416.1
154.2315,122.8
154.2517,358.3
154.2587,465.9
154.3337,356.6
154.3357,105.6
154.4025,277.2
154.4299,217.8
154.4304,213
154.4335,346.4
154.4372,390.3
154.4411,153.8
154.443,288.1
154.4459,117.1
154.4861,19.2
154.4963,515.8
154.5531,572.7
154.5611,551.3
154.5643,338.2
154.6091,20
154.6618,113.8
154.7922,362.2
154.8806,425.3
154.9075,126.9
154.9182,583.9
154.9417,79.6
154.9797,130.4
155.0428,495.8
155.0541,6178
155.0612,779.1
155.1142,427.4
155.1528,19.5
155.1813,18.8
155.1889,172.7
155.1923,17.7
155.2222,126.4
155.2577,219.1
155.3099,290.8
155.3148,18.5
155.3207,161.9
155.4467,362.6
155.4543,666
155.4767,709.8
155.6342,494.1
155.7272,566.4
155.7476,311.1
155.8202,233.2
155.8731,497.2
155.904,205.7
155.9231,331.5
155.975,273.7
155.9978,131.7
156,545.8
156.0144,420.3
156.0268,223.6
156.0423,2508
156.0511,21.6
156.0574,117.9
156.0769,48970.5
156.1345,590.3
156.1498,89.4
156.2158,741.9
156.2888,441.9
156.3386,213.8
156.3805,62.6
156.3852,406.6
156.4117,311.5
156.4288,322.8
156.5907,585.6
156.6412,718.3
156.6817,643.1
156.7506,137.6
156.7935,324.9
156.7955,364.5
156.8027,257.4
156.8196,118.9
156.8301,110.3
156.831,144.6
156.8925,493.6
156.9745,66.6
156.9966,97.1
157.0804,554.6
157.092,18
157.0973,356.9
157.1822,139.1
157.2027,17.6
157.2204,460.7
157.2258,197.8
157.2761,380
157.2814,426.8
157.306,636
157.3088,174.6
157.3438,63
157.361,233.2
157.3704,486.8
157.4299,425.2
157.4329,104
157.4511,125.8
157.5239,574.3
157.5315,515
157.5335,125.5
157.5376,550.2
157.5477,463.1
157.5643,124.2
157.6194,122.9
157.6479,168
157.6901,706.5
157.7025,333.7
157.7178,19.1
157.762,240.1
157.8343,359.1
157.8428,161.8
157.847,627.2
157.8683,145.8
157.8724,141.8
157.9038,18.9
157.9286,236
157.9667,585.7
157.9897,136
158.0125,266.7
158.0272,2861.3
158.0811,95.5
158.0841,215.1
158.1952,252.6
158.2165,21.4
158.2381,17
158.2491,154.7
158.3014,125.9
158.3371,287.7
158.4409,809.5
158.445,159.7
158.5472,183.9
158.5969,673.4
158.6558,309.7
158.6597,427.3
158.7015,19.1
158.7767,84.3
158.7824,635.6
158.8181,294
158.8413,145.3
158.9161,433.2
158.9279,1709.2
158.9296,19.1
158.9312,674.2
158.9368,112.6
158.9642,11404.1
158.9966,7366.8
159.0071,16.9
159.0305,95.9
159.0471,20.8
159.0789,142
159.0916,56.4
159.1588,383.4
159.1766,160
159.2248,20
159.2355,208.1
159.4113,149.6
159.5147,180.2
159.568,240.1
159.6144,98.9
159.6213,117.6
159.6369,278.5
159.6904,638.5
159.6925,140.5
159.7359,232.8
159.8041,192.4
159.8276,444.3
159.8675,156
159.8699,104.2
159.8887,20.2
159.9046,112.9
159.9222,18
159.9801,157.1
160.023,103.2
160.0347,26454.5
160.0606,129847.6
160.2911,515
160.3143,127.3
160.3498,201.4
160.4173,569.4
160.5303,292.8
160.5588,143.9
160.5991,82.5
160.6364,48.5
160.8449,149.6
160.8585,138.1
160.8673,152.8
160.9752,17.8
161.0605,17.5
161.064,6266.7
161.1168,20.3
161.1287,1015.5
161.1412,424.6
161.1432,606.7
161.1578,248.8
161.1721,368.7
161.2023,157.8
161.2232,132.8
161.2289,372.9
161.236,396.8
161.2866,353.8
161.3059,17.3
161.3076,148
161.317,19.9
161.3852,96.3
161.4373,682.3
161.4422,18.5
161.4737,604.6
161.5144,324.7
161.6628,112.7
161.7003,17.9
161.7155,108.3
161.7243,102.3
161.7445,62.4
161.81,250.4
161.8392,337.2
161.864,148.6
161.9111,84.9
161.9658,693.9
162.0504,23911.4
162.061,17.6
162.0664,564.8
162.1079,123.4
162.1279,105.2
162.1602,20.3
162.1992,327.4
162.2403,120.3
162.4698,648.5
162.5443,142.5
162.5854,95.6
162.6151,258.5
162.6279,307.1
162.6533,450.5
162.7022,242.6
162.7217,352
162.8087,110.2
162.892,816.6
162.8944,160
162.8999,121.2
162.9468,460.2
162.9559,3115.8
162.9694,59.3
163.0157,3232
163.0343,339.2
163.1282,520.9
163.1674,83.5
163.2042,342
163.2473,231.3
163.2896,348.7
163.4341,520.7
163.4564,502.5
163.4634,18.2
163.4741,194.7
163.4759,465.2
163.5294,476.2
163.611,18.7
163.6407,109.4
163.6427,469.2
163.6498,134.4
163.6521,78.7
163.6576,929.6
163.8195,59.6
163.847,134.9
163.8599,387.4
163.8831,606.3
163.9649,543
164.0006,164
164.0097,386.1
164.0296,20873.6
164.0355,177
164.0583,117.4
164.165,259.9
164.1657,346.2
164.1894,105
164.3408,375.6
164.3867,17.1
164.4027,140.8
164.4393,223.6
164.4632,106
164.492,154.5
164.5197,438.4
164.5908,103.9
164.6242,96.3
164.6592,19.1
164.7036,22.4
164.7343,18.6
164.7575,18.2
164.7594,355
164.7666,183.3
164.7766,270.6
164.8126,410.1
164.8374,594.6
164.8825,243.4
164.9077,137
164.9207,5370
164.9302,12064.3
164.9353,2177.8
164.9926,1319.7
165.0331,434.4
165.0913,1078.7
165.2329,416.9
165.2511,923.7
165.2863,111.7
165.2891,19.1
165.307,111
165.3245,23.9
165.3604,219.8
165.3694,655.1
165.3879,114.3
165.434,152.6
165.6393,17.5
165.7309,714
165.756,120.6
165.8441,333
165.852,468.8
165.8732,277.2
165.8797,561.1
165.8934,516.3
165.9669,1549.2
165.9758,175.1
165.9789,1723.3
165.9879,5767.4
165.9951,71.9
166.0323,17.7
166.1418,561.8
166.1861,729.6
166.214,19.1
166.2645,322.2
166.3291,205.1
166.3336,226.3
166.3454,407.4
166.3531,98
166.4168,19.3
166.4813,330.8
166.5417,289.3
166.5999,319.3
166.6574,151.4
166.6624,734
166.6737,597.1
166.7308,107.9
166.7541,112.3
166.7647,300.1
166.8566,20.9
166.8709,243.7
166.907,151.2
166.9284,539.9
166.9334,460.4
166.938,110.5
166.9442,16.6
166.951,24690.8
166.9629,1470.7
167.0218,3457.4
167.1048,651.8
167.1677,169.4
167.3297,304.9
167.3374,162.8
167.3394,146.4
167.4409,606.8
167.4751,156.9
167.4942,664.6
167.5011,166.7
167.5031,582.4
167.5046,360.1
167.5207,20.8
167.5356,125.8
167.5378,17.8
167.6136,237.5
167.6641,23.4
167.8196,19.6
167.8651,126.5
167.8679,144.4
167.8848,121.2
167.9632,632.1
167.9662,434.4
167.9946,2297.8
168.0033,118
168.1648,505.7
168.1792,106.8
168.1842,143.1
168.1906,299.6
168.2284,18.2
168.2564,147.3
168.2671,567.4
168.2906,673.8
168.3372,538.7
168.3466,49.4
168.3544,110.4
168.3615,56.8
168.4293,19.9
168.4507,297.2
168.4993,583.1
168.5348,309.3
168.631,20.2
168.7305,112.7
168.7452,253
168.8302,475.8
168.8344,17.3
168.8761,124.4
168.921,16.8
168.9411,229.2
168.9492,1275.6
168.9591,727.9
168.9927,19.6
169.0175,21.3
169.0229,748.5
169.0586,45168.9
169.0651,358.5
169.072,554
169.0748,419.4
169.0951,684.3
169.0975,112.8
169.1333,138.3
169.1475,532.6
169.1556,89.9
169.1917,347.1
169.2856,403.9
169.2972,87.2
169.3285,96.1
169.4987,492.8
169.5496,27.2
169.5639,151.8
169.603,506.7
169.6339,334.6
169.6421,48.6
169.6518,133.1
169.699,231.3
169.7203,278.8
169.7649,21.4
169.7845,368.5
169.8065,208
169.8139,360.6
169.8507,289.1
169.8516,302
169.9861,1305.2
169.9956,18.7
170.0329,5243.8
170.0421,204.8
170.0602,506.7
170.0895,116.8
170.0926,6184.7
170.1079,118.3
170.1234,222.6
170.1365,865.9
170.1562,400.6
170.2401,144.2
170.3271,132.9
170.5545,210.4
170.61,500.6
170.6135,102
170.6454,451.4
170.7787,50.7
170.8278,351.4
170.8303,20.7
170.8545,5172.6
170.9158,425.8
170.9276,705.9
170.9477,220.7
170.9689,139
171.0071,156.6
171.017,457.9
171.0281,497.2
171.0537,412.8
171.1186,105.4
171.1947,115.6
171.2888,195.4
171.2964,701.3
171.3435,579.6
171.3619,383.9
171.3826,600.5
171.4061,316.4
171.4094,96.2
171.4672,126.6
171.484,118.6
171.5546,18.2
171.5691,616.8
171.6161,287.3
171.6215,107.8
171.6596,338.2
171.6676,174.3
171.7933,410.6
171.873,16.6
171.9513,520.9
172.0284,1396
172.0306,844.9
172.0501,93.4
172.0536,359.1
172.1017,17.8
172.1178,18.5
172.1324,17.8
172.1426,374.8
172.1578,48
172.2007,366.7
172.2309,558.2
172.2432,559.4
172.2566,18.5
172.4437,447.8
172.4772,324.2
172.4869,17.4
172.5215,634.9
172.585,255.3
172.6624,18.6
172.7163,267.3
172.7366,24.1
172.7716,357.1
172.8318,101.2
172.8517,2169.9
172.8566,367.6
172.8642,191.3
173.0273,607.3
173.0331,16.6
173.229,162.3
173.2978,707.9
173.3779,707
173.4262,17.3
173.487,325.9
173.6569,177.1
173.7158,375.2
173.7238,329.8
173.7301,273.2
173.7791,18.7
173.7886,51.3
173.7929,145.5
173.8089,22.7
173.839,615.6
173.8613,97.9
173.8913,422.5
173.9375,52.5
173.9541,221.6
173.9841,498.3
173.9867,164.6
173.9928,1252
174.0025,102.3
174.0141,190.2
174.0421,521.2
174.1365,19.9
174.1538,254.8
174.1734,97.4
174.2304,153
174.3128,228.1
174.421,408.4
174.4296,122.6
174.4703,18.4
174.5548,110.4
174.6224,175.9
174.6973,323.1
174.853,117.2
174.9026,135.8
174.9383,6793
174.9887,185.1
175.0124,18
175.0186,334
175.0345,10358.1
175.0456,2075.1
175.0752,17.3
175.0809,441.6
175.1192,126014.5
175.1475,547.6
175.1501,134.9
175.1569,216
175.2284,18.8
175.3271,97.8
175.3386,290.2
175.4089,286.1
175.4258,106.8
175.535,202.5
175.5733,536.4
175.7296,115.3
175.7517,463.1
175.7806,123
175.8265,18.2
175.8592,332.2
175.8736,127.8
175.9481,246.4
175.9839,223.2
176.0087,15495.9
176.0163,423.3
176.0231,314.1
176.0408,347.3
176.0516,584.6
176.0661,35325
176.1031,1456.3
176.1225,3195
176.1367,265.7
176.1423,145.9
176.5111,18.8
176.5511,454.4
176.7848,111.1
176.921,239.1
176.951,654.4
176.9668,174.7
176.9926,1395.9
177.0032,17.1
177.0058,439.7
177.0148,144.3
177.0177,281.3
177.025,5800.9
177.0331,102.4
177.0614,9295.5
177.0693,350
177.0873,2069.6
177.0955,386
177.1277,21.2
177.1603,109.6
177.2077,22.3
177.2255,230.7
177.2302,516
177.4763,142
177.5095,257.7
177.5312,47.3
177.5964,17.6
177.6639,124
177.6666,17.9
177.7534,639.2
177.7776,230.1
177.8016,298.2
177.8816,582.7
178.0089,9520.9
178.0243,14081.9
178.059,4429.2
178.0764,200.7
178.0857,52.2
178.1507,251.5
178.1847,18.4
178.2069,672.5
178.3266,324.1
178.3391,701.5
178.3604,24.2
178.3656,495
178.3956,243.8
178.3998,300.5
178.4377,499.3
178.4691,324.9
178.5344,522.7
178.5644,127.3
178.5871,289.1
178.6309,145.7
178.7209,354.4
178.7252,719.7
178.8132,481.3
178.9399,309.3
178.9446,17.1
178.9787,20.7
178.9854,548.9
178.9954,109.5
179.0348,428.7
179.0586,362.8
179.1192,150.5
179.203,137.7
179.2828,89.9
179.304,766.2
179.3713,495.8
179.4088,237.6
179.4453,113.5
179.4589,372.3
179.4925,737.8
179.5228,164.3
179.5404,526.5
179.5709,195.4
179.6348,251.1
179.6895,673.3
179.8979,289.7
179.9142,143.2
179.9622,158.9
180.0036,17593.9
180.0168,259.5
180.0685,382.8
180.1776,125.2
180.2216,146.5
180.2407,99.9
180.3368,728.1
180.3675,19
180.524,537
180.5337,247.6
180.5716,48.5
180.6623,329
180.6875,370.1
180.8052,424.1
180.8838,334.4
180.8947,2555.1
180.9043,7587.7
180.9578,1203.1
181.0002,386.4
181.049,17.3
181.0651,9624.5
181.0789,140.5
181.2424,264.7
181.357,143.1
181.5186,127.3
181.7142,150.3
181.7442,193.8
181.9618,366.4
181.9695,195.4
181.9998,160.6
182.0096,517.4
182.0161,21.2
182.0185,16.3
182.0259,103.4
182.0294,145.4
182.0389,549.7
182.0427,35130.6
182.0532,394.4
182.0625,245.8
182.0685,131.3
182.0735,147.4
182.0936,408.8
182.1148,699.3
182.1283,148.5
182.2375,229.7
182.2759,34.2
182.3482,113
182.4162,475.1
182.4605,220.1
182.4924,136.5
182.5725,157.4
182.7255,295.9
182.7294,117
182.7471,18.7
182.7688,607.3
182.7919,533.9
182.9026,84.8
182.9398,18.6
182.9751,340.8
182.9877,119.6
183.0446,1720.4
183.0837,244
183.1325,18.7
183.142,549.4
183.2162,101
183.282,205.3
183.3659,226.1
183.4568,16.9
183.4723,88.8
183.5127,481.8
183.5298,639.4
183.6081,350.1
183.6119,111.3
183.6399,209.6
183.6449,180.4
183.7166,145.6
183.8475,336.9
183.8869,526.5
183.9473,20.1
183.9649,1602.6
184.0374,1273.4
184.0736,4797822
184.0792,1438.7
184.1098,1100.7
184.1173,189.6
184.1603,420.7
184.1821,2851.7
184.2717,17.4
184.3317,143.1
184.4045,229.4
184.4178,400.4
184.4929,736.8
184.6169,308.1
184.6279,151
184.6412,147.7
184.6976,17.7
184.7308,54.8
184.7369,21.7
184.7697,420.6
184.7791,109.8
184.8453,379
184.9086,476
184.9933,263.9
185.0191,20.2
185.0325,54270.8
185.0705,10769
185.0769,233312.8
185.0796,4561.4
185.2023,23.7
185.2091,718.6
185.2286,274.6
185.2467,19.8
185.2744,336.1
185.3733,21.9
185.3776,122.7
185.3929,615.1
185.4044,490.4
185.4213,120.1
185.4646,52.5
185.4755,464
185.5065,95.7
185.5514,110.2
185.6273,460.2
185.6321,829.9
185.6554,479.5
185.6589,189.8
185.7067,288.9
185.7596,601
185.77,537.9
185.8939,210.8
185.9605,324.3
185.9738,132.5
186.036,747
186.0436,454.2
186.0778,32814
186.1493,109.7
186.1701,130.5
186.1715,160
186.2012,356.7
186.2735,392.7
186.2998,98.3
186.3111,1129.3
186.3317,17.8
186.4307,171.5
186.4437,263.6
186.5773,85.6
186.5955,935
186.6308,447.8
186.6505,146.7
186.7085,399.7
186.7666,444.6
186.9022,280
186.9123,1898.4
186.9871,302.1
187.0307,2835
187.058,6635
187.0717,3929.5
187.0812,125.1
187.0882,606.5
187.1079,856.6
187.1327,437.5
187.1691,191.4
187.1784,16.6
187.1914,345.5
187.3046,20.2
187.3448,131.9
187.3724,595.6
187.3991,21.7
187.4374,556.4
187.4784,133.4
187.5211,107.6
187.5236,365.3
187.6085,246.2
187.666,125.2
187.7503,211
188.18,18.5
188.252,356.6
188.3348,186.3
188.379,112.9
188.4825,144
188.5732,112.5
188.6389,89.8
188.6476,19.9
188.7364,551.1
188.8867,444.6
189.0612,1009.2
189.0873,13453.3
189.0997,19
189.1361,144.3
189.1648,127.8
189.1828,106.1
189.2344,560.5
189.3229,122.4
189.4038,47.4
189.4159,496.4
189.4646,112.1
189.4769,260.3
189.7095,114.2
189.7273,371.2
189.7823,504.9
189.7938,174
189.9796,479.7
190.164,109.1
190.2113,18.5
190.2206,339.6
190.2496,353.8
190.4552,577
190.5933,161.8
190.6072,104.2
190.6342,151.9
190.7106,164.7
190.7852,394.1
190.8523,113.1
190.8847,93.9
190.9123,2607.9
190.9447,51.4
190.9793,376.1
191.0085,8519.8
191.0351,154
191.0406,137630.3
191.077,28554.6
191.0875,567.6
191.0984,20.4
191.1039,18.5
191.1839,548.8
191.2407,569.1
191.2504,224.8
191.2813,559.3
191.3036,302.5
191.3358,387.9
191.3586,119.6
191.3817,19.6
191.4245,174
191.4737,294.6
191.5571,223.1
191.5691,113.2
191.6128,96.1
191.6473,341.6
191.6508,756
191.683,168.7
191.6958,582.7
191.6977,122.5
191.86,130.7
191.8706,654.8
191.8936,63.6
191.9138,693.8
191.9328,264.6
191.9542,655.7
191.9569,129.5
191.9827,3303.4
191.9926,110
191.9951,335.6
192.0149,496.9
192.0401,25154.2
192.044,5227.9
192.0509,561.4
192.0585,84.4
192.0799,731.2
192.088,503.3
192.1186,405.5
192.1244,17.6
192.2264,87.5
192.2587,216.4
192.2743,160.5
192.2782,354.6
192.3216,396.4
192.3385,230.8
192.36,119.3
192.3976,162.9
192.4198,225.5
192.4314,310.1
192.467,546.6
192.5434,137.9
192.6432,224.4
192.7293,287.2
192.7493,142
192.7595,311.4
192.7781,497.8
192.938,318
192.9455,110.6
192.9669,543.3
192.9718,142.4
192.982,116.5
192.9856,340.2
192.9988,5456.4
193.0125,137.7
193.0353,4630.2
193.0435,779
193.0846,139.5
193.1221,120.4
193.1311,19.8
193.1644,343.6
193.1669,148
193.2522,714.5
193.2803,259
193.3444,544.8
193.412,117
193.4188,360.8
193.4324,230.6
193.4534,251.9
193.47,193.2
193.5396,19.7
193.544,416.7
193.5528,99.3
193.5792,226.1
193.582,128.1
193.6051,18
193.6171,18.8
193.7159,112.9
193.7238,136.4
193.7658,16.7
193.7975,124.9
193.8058,128.7
193.8162,18.7
193.8219,298.4
193.9115,414.7
193.9137,113.9
193.9984,4570.2
194.005,682.2
194.0091,18.7
194.033,1643.9
194.0382,398.8
194.0463,190.2
194.0853,219.6
194.1543,53.7
194.19,140.4
194.2031,598.3
194.2868,150.8
194.312,141.8
194.3223,579
194.3555,21.1
194.3749,106.2
194.378,186.6
194.4733,511.2
194.6007,440.4
194.6585,470.6
194.6843,17.7
194.8172,108.5
194.8203,17.3
194.8426,85.9
194.8484,314.6
194.8858,94
194.9089,661
194.9667,276.4
194.9933,338.3
195.0404,332.7
195.0441,216
195.0625,306.2
195.0867,423.7
195.2461,255.9
195.2544,327
195.3229,19.3
195.6139,696
195.6182,192.8
195.6222,399.6
195.6342,111.6
195.6579,200.7
195.8108,20.9
195.9189,118.4
195.946,633.5
195.9535,292.5
195.9777,1712.2
196.03,121
196.0601,122.7
196.0793,50
196.1155,519.1
196.1328,524
196.1699,395.5
196.1911,18.7
196.2476,133.6
196.2572,111.4
196.2633,430.6
196.4874,173.8
196.5291,257.9
196.6008,153
196.769,175.8
196.7888,176.6
196.8349,101.2
196.8375,115.3
196.8654,5445.2
196.8689,1095.8
196.8782,1568.4
196.9337,912
196.9516,161
196.9551,97.3
196.9734,158.6
196.9885,20.3
197.0237,149
197.0739,316.3
197.0788,219.1
197.1014,1775.5
197.1867,96.9
197.2263,537
197.3017,581
197.3672,100.8
197.4094,141.9
197.6617,151.2
197.8297,506.4
197.839,242.4
197.863,19.9
197.9416,105.5
198.0073,49.7
198.0631,456.4
198.0852,8110.1
198.0891,141.7
198.1856,4915.2
198.2033,134.6
198.3009,134.9
198.3201,497.6
198.3329,104.6
198.3737,269.9
198.3924,669.3
198.4157,90.1
198.497,392.7
198.61,190.7
198.6223,479.8
198.6423,158.8
198.815,607.8
198.833,727.6
198.8371,98.4
198.8625,5808.7
198.902,19.9
198.9632,126.1
198.975,162.8
199.0168,32
199.0393,166.1
199.0691,422.4
199.0757,2209.4
199.0805,201.2
199.1889,184
199.1994,116.4
199.2325,17.5
199.3132,159.3
199.3325,17.8
199.3872,19.3
199.4554,108.3
199.5009,130.1
199.5494,517.1
199.5704,220.2
199.6965,124.4
199.7332,268
199.8313,527.5
199.8599,422.7
199.8839,621.3
199.9209,290.4
199.9724,87.4
199.9862,380.2
199.991,27589.9
200.0139,294.7
200.019,485.8
200.0269,109.9
200.041,16969.3
200.0479,402.6
200.0533,97.9
200.0654,1746.4
200.0692,12002.9
200.1395,131.7
200.1459,102.4
200.153,525.5
200.2721,117.3
200.3005,16.1
200.3409,164.9
200.3789,569.3
200.5047,533
200.5062,359.3
200.5143,528.9
200.5196,137.8
200.5217,114.2
200.5427,125.2
200.5554,88.8
200.5598,18
200.6005,323.6
200.746,369.2
200.7827,153.3
200.8357,19.6
200.8596,1135.4
200.9147,619.3
200.9254,245.9
200.9476,51
200.9676,80.3
201.0073,19.3
201.0374,606.2
201.0548,527.4
201.0873,544.7
201.125,663.4
201.1727,540.8
201.1984,132
201.2891,130.4
201.3549,231.4
201.3682,405.8
201.4031,126.4
201.4698,299.2
201.5807,17.6
201.6085,45.4
201.6123,537.2
201.6715,136.2
201.7805,236.5
201.8143,141.8
201.8407,128.7
201.8709,198.3
201.9339,506
202.0473,429.7
202.0905,18.5
202.1157,303.4
202.1598,339.9
202.2443,209.2
202.4504,16943.8
202.4585,290
202.5671,435.9
202.5962,610.2
202.604,147
202.8283,246.3
202.8667,114.9
202.9276,184.2
202.9956,19.3
203.0084,868.5
203.0121,110.8
203.0321,3905.1
203.053,1103978.4
203.0575,952.3
203.077,7612.6
203.103,256.8
203.1171,154.4
203.1765,21.2
203.194,564.4
203.2489,134.4
203.2762,390.3
203.2845,153.4
203.5083,515.2
203.5123,727.6
203.5298,225.5
203.6258,19.5
203.7141,566.2
203.7459,18.9
203.7736,165.2
203.7816,323
203.964,184.3
203.9919,577.6
204.0247,37881.7
204.0424,334.7
204.0563,57827.2
204.0636,1127.5
204.0709,224.6
204.087,950.1
204.3276,196.9
204.4299,123.7
204.5055,140.5
204.5589,368.4
204.6336,498.1
204.6468,112.2
204.6558,400.5
204.6614,272.3
204.6645,18.2
204.6983,101.4
204.7401,123.9
204.779,210.4
204.9602,248
204.9959,397.2
205.0281,272.6
205.0572,6362.7
205.0687,340.7
205.0839,84.9
205.0881,20.1
205.297,109.7
205.3516,348.2
205.4233,121
205.5652,109.8
205.5978,20.9
205.7122,615.2
205.7274,147.9
205.7954,338.4
205.8467,115.7
205.8918,160
205.983,20.3
206.0164,19.2
206.0555,877.3
206.1398,113.5
206.1645,282
206.3406,17.4
206.3752,364.8
206.4901,233.6
206.4963,19.3
206.5641,98
206.5794,410.6
206.603,437.8
206.6448,130.7
206.8671,19.1
206.8785,651.2
206.8943,16620.9
206.9391,119.9
206.9824,5375.4
206.9896,502.9
207.0146,110075.5
207.0443,2497.4
207.051,13476.5
207.1551,134.1
207.1835,115.3
207.3775,404.6
207.406,93.8
207.4542,97.2
207.47,53.9
207.8197,197.3
207.9908,116.1
207.9945,403.2
208.0141,7109.6
208.018,3544.1
208.1192,16.4
208.1206,16.8
208.19,19
208.1975,358.3
208.2484,654.5
208.2657,512.6
208.2811,429
208.3286,180.8
208.3401,178.3
208.3672,135.6
208.3831,17.9
208.3985,58
208.4527,153.4
208.5403,370.7
208.5445,369.2
208.5509,104.3
208.5572,172.4
208.5907,181.5
208.6511,428.4
208.7278,751.3
208.7758,390.3
208.8693,378.5
208.8836,46.5
208.8914,8695.8
208.9358,1619.7
208.9552,30.8
208.9683,103.8
208.9875,267.3
209.0128,5004
209.0306,336.6
209.0489,704.9
209.0528,663.8
209.1229,334.7
209.1426,188.4
209.159,167.2
209.1659,514.4
209.2556,18.8
209.2972,16.9
209.3195,193.3
209.3471,25.1
209.3482,21.6
209.362,530.4
209.3799,409.3
209.3952,375.8
209.5333,155.4
209.536,312.1
209.5691,327.3
209.5772,107.9
209.7583,22.3
210.7317,89.8
210.8468,635.4
210.8984,18.3
210.9579,509.4
211.0537,295.8
211.0569,610.1
211.0692,2128.2
211.0951,170.4
211.1026,155.4
211.1084,2752.6
211.1195,12273.7
211.1223,16064.7
211.128,26543.2
211.1339,33139.2
211.2043,457
211.2051,465.2
211.2663,18.1
211.3521,330.7
211.4278,604.2
211.463,18.1
211.4958,106
211.6094,119.9
211.6101,120.2
211.6316,99.8
211.6422,101.7
211.7277,596.2
211.8394,179.1
211.8774,121.6
211.976,429.7
211.9849,127.3
212.0227,27.9
212.0375,150
212.0743,178.7
212.0994,223.9
212.1087,333
212.1654,152.1
212.1715,19.3
212.3525,360.7
212.3568,604.6
212.4437,347.7
212.4883,20.2
212.4976,367.9
212.587,17.5
212.5919,240.2
212.6186,262.4
212.6903,246.2
212.8395,2033.8
213.019,618.5
213.0285,280.9
213.0551,1115.8
213.075,1399
213.0937,144.8
213.1252,217.8
213.1942,93.7
213.2312,17.7
213.2977,219.6
213.4523,323.6
213.5106,390.5
213.5852,321.6
213.6168,349
213.7798,27.6
213.8186,20.2
213.8475,524.9
213.9645,590.1
213.985,1091.5
213.9918,365.5
213.9959,17.6
214.0071,199
214.036,372.9
214.0592,9262.3
214.0687,102.8
214.09,960.6
214.1461,99.1
214.2619,361.1
214.2753,606.4
214.2851,481.2
214.3101,129
214.318,231.7
214.3972,251.5
214.4973,99.2
214.5169,21.7
214.5208,129.2
214.5792,212.4
214.6291,21.8
214.7353,409.5
214.7481,665.5
214.7924,233.4
214.7955,110.8
214.8364,1997.8
214.8525,52.4
214.8661,120.3
214.9181,76.8
214.9265,937.8
214.9489,544.7
215.0439,309
215.0619,486.5
215.0953,432.7
215.3643,109.3
215.5363,20.9
215.5727,18.3
215.6019,17.8
215.6155,162.3
215.7155,130.9
215.7264,1118.5
215.8041,129.5
215.8152,96.9
215.8365,121.3
215.8427,580.8
215.8465,122
215.8567,654.1
215.8876,17.2
215.9244,119.1
215.959,394
215.9826,300.7
216.015,13006.1
216.018,1775.8
216.0581,652.8
216.0862,24.8
216.1295,18
216.1859,116.8
216.2963,374.6
216.3126,52.8
216.3199,157.1
216.3461,361
216.4273,651.7
216.4749,509.3
216.5244,19.3
216.6795,17.2
216.6991,236.6
216.8334,389.9
216.9231,47431.6
216.9508,53.8
216.9774,101
216.9845,37.8
216.996,156.1
217.0184,19.1
217.0689,347.7
217.0814,164.4
217.1756,495.4
217.2448,129.7
217.3937,229.3
217.4099,99.4
217.4451,293
217.4923,479.1
217.5391,21
217.5682,164
217.6259,184.3
217.7385,141.1
217.8324,165.9
217.9072,156.8
217.9639,559.6
217.9791,20
218.0026,102.4
218.0061,42.4
218.0154,21
218.0836,17.9
218.1514,137.3
218.3185,516.8
218.3248,104.2
218.3446,18.3
218.3769,17.3
218.4434,355.8
218.5019,593.9
218.6904,572.6
218.718,705
218.79,18.9
218.8674,339.6
218.9201,11810.8
218.9342,166.5
218.9659,18.1
219.0269,1410959.3
219.0318,1339.3
219.0374,701
219.0408,108.5
219.0479,22.6
219.0509,254.6
219.0833,19553.9
219.1827,21.4
219.2306,482.3
219.2685,153.1
219.3061,20.5
219.5056,302.6
219.6634,113.1
219.6907,335.8
219.7668,150.8
219.8228,176.9
219.8433,178.8
219.8788,18.7
219.896,485.7
219.9143,60.7
219.9932,147.9
220.0303,72550.4
220.0371,953.9
220.0548,623.9
220.0673,13006.6
220.0864,584.4
220.1283,86.1
220.1675,371
220.1934,123.5
220.3327,238.4
220.3636,564.5
220.3659,16.5
220.397,525.6
220.4307,122.2
220.4523,399.1
220.4618,629.8
220.6049,128
220.6109,126.5
220.7121,16.2
220.7151,169.2
220.8725,114.2
220.8888,444.5
220.9014,384.8
220.9046,127.1
220.9216,415.9
220.9346,20.7
220.9836,317.2
221.0251,81167.4
221.0312,12343.9
221.0431,721.6
221.0514,971
221.0674,22.5
221.0722,447.8
221.0852,538.5
221.1016,108.1
221.1709,30.5
221.2421,143
221.2873,241.7
221.3738,690.5
221.444,243.3
221.5476,261.6
221.5524,203.4
221.6277,186
221.6315,356.1
221.7838,413
221.9564,314.9
221.9838,2482.5
221.9944,275.2
222.0284,1090.9
222.0682,183
222.1015,20.9
222.1071,58.6
222.3808,145.9
222.4145,336.3
222.4654,576.9
222.5042,131.1
222.5501,608.3
222.6156,151.8
222.7767,17.4
222.7903,126.4
222.8682,15738.1
222.9493,240.6
222.9615,24.6
222.9886,14378.3
223.0268,576.2
223.0374,972.4
223.2528,17.6
223.2718,448.9
223.2818,520.3
223.3611,168.2
223.3908,233.2
223.397,579.2
223.4525,638.8
223.5124,142.5
223.9535,84.6
223.9722,360.4
223.9846,21.5
224.0053,155.6
224.0168,111.2
224.0297,2160.6
224.0734,256.2
224.2221,105.3
224.2524,96.4
224.3736,111.8
224.3774,678.6
224.4125,530.3
224.4687,125.2
224.5583,168.7
224.5952,403.6
224.6688,146.8
224.6869,278.8
224.7205,441.4
224.8652,10375.9
224.8765,280.8
224.9469,61.7
224.9503,102
224.9872,647.1
225.0426,19.7
225.055,28709.9
225.0847,110.4
225.1478,159.3
225.2112,510.2
225.3622,230.2
225.5498,299.9
225.5588,146.8
225.6311,475.4
225.754,508.7
225.7683,278.2
225.9296,106.6
225.9522,51.4
225.9918,781.3
226.0022,126.4
226.0073,469.7
226.0245,9872.3
226.0315,552.9
226.0455,7780.3
226.0586,593.5
226.1624,361.8
226.3441,540.7
226.4696,462.1
226.4793,320.8
226.5812,299.9
226.7488,189.5
226.8435,110.9
226.866,126.5
226.9013,341.8
226.9119,100.4
226.9519,47115.9
227.0344,1480.8
227.0553,121.4
227.0794,909.9
227.0866,324.3
227.1321,115.8
227.2097,109.7
227.2143,382.8
227.2918,17.6
227.3273,183.1
227.3703,19.8
227.414,103.3
227.6043,386.4
227.6553,349.6
227.6601,20.7
227.77,295.4
227.9102,299.7
227.9317,20
227.9548,607.2
228.0005,1271.5
228.0222,1030
228.0586,407.5
228.2132,364.3
228.282,19.2
228.3814,125.3
228.3974,187.1
228.4079,148.1
228.4584,102.3
228.6052,848.4
228.6251,557.1
228.6978,438.2
228.7847,499.8
228.8133,1152.3
228.8357,173.4
228.8487,423.6
228.8513,22
228.8545,568.1
228.948,156.7
228.9605,20.6
228.9915,643.9
229.0106,509.7
229.051,18.2
229.1556,109
229.1757,239.3
229.1903,109.4
229.1957,135.6
229.273,224
229.3147,600
229.4152,216.8
229.4717,543.3
229.5522,207.6
229.5591,184.4
229.6438,444.1
229.7017,110.4
229.7455,165.6
229.8092,326.2
229.8141,47.3
229.9393,18.4
229.949,101.4
229.9572,421.6
229.993,105.1
229.9991,18.5
230.0336,252.7
230.0944,231.9
230.114,446.5
230.1559,159.8
230.1735,161.9
230.2191,106.6
230.26,114.2
230.2832,107.9
230.3623,134.4
230.3747,123.1
230.4455,181.5
230.6565,107.7
230.6657,165.9
230.7414,145.6
230.8105,942
230.9437,502.9
230.9907,122.1
231.056,26.1
231.0844,7181
231.2082,155.9
231.2522,283
231.2694,687.1
231.3693,113.7
231.6247,18.7
231.7845,364.3
231.8363,456.6
231.867,288.3
231.9647,405.4
231.9955,312.8
232.0053,146.3
232.1065,348.4
232.1288,350.6
232.1933,144.2
232.3351,17.3
232.4046,19.1
232.4996,18.7
232.5376,713.9
232.6027,20
232.7844,211.1
232.8971,45005
232.9085,18.4
232.9529,223.6
232.9862,1710.8
233.0424,399.7
233.0513,6145.3
233.0635,33.5
233.1577,377.1
233.1986,351.9
233.2331,758
233.2719,604.5
233.4916,19.6
233.5857,142.9
233.6005,146.3
233.642,206.2
233.6484,251.5
233.6986,145.2
233.7655,146.2
233.7694,111.3
233.8879,19.1
233.944,126.5
233.9637,323.2
233.9672,19.4
233.9832,798.5
234.0009,392.9
234.0732,382.7
234.0954,606.8
234.1224,530.2
234.1749,117.9
234.3373,241.4
234.3426,603.3
234.3847,131.7
234.4719,454.5
234.5103,148.9
234.521,280.9
234.5972,593.7
234.6571,666.6
234.7202,297.7
234.7484,354.1
234.7727,138.9
234.8006,19
234.8941,11566.5
234.9485,184.8
234.9819,4060.1
235.0461,150.5
235.0572,10714
235.0671,966.9
235.0929,33599.6
235.1527,416.3
235.1748,375.5
235.1928,352.1
235.2666,323
235.2807,104.9
235.3256,148
235.4663,161.3
235.5449,82.1
235.5678,279.8
235.5833,21.3
235.6333,103.3
235.8141,20
235.8512,159.4
235.8989,619.5
236.0172,26.5
236.0413,7185.7
236.072,38300.4
236.0858,515.6
236.0963,1250.4
236.2133,152.8
236.2204,613.7
236.2853,314.2
236.3346,117.1
236.3438,683.4
236.5536,697.3
236.6504,176.7
236.8033,713.8
236.8311,210.1
236.8609,105.3
236.8783,18.9
236.9974,643.6
237.0587,223.7
237.0753,1648.3
237.0972,188.4
237.259,422.5
237.2766,264.2
237.3862,241.1
237.4702,207
237.5949,396.7
237.6356,698.1
237.6633,177.5
237.6784,512.3
237.7847,323.1
237.8738,18.5
237.8965,570.4
237.9692,531.9
237.9773,509.9
238.0252,390.8
238.05,362.9
238.0678,566.7
238.1465,412
238.1957,367.8
238.1986,111.8
238.443,129.3
238.4675,385.3
238.5056,230.5
238.6585,470.9
238.8099,206.9
238.8423,4571.7
238.8538,353.2
238.865,236.2
238.8897,19.4
239.0469,155.5
239.0636,396
239.0879,143
239.1632,179.5
239.2084,222.5
239.2244,17.1
239.2823,363.4
239.3082,544.3
239.327,166.3
239.4642,193.3
239.479,20.5
239.4944,59.2
239.6484,344.3
239.8859,50.1
240.004,1177.3
240.0362,316.5
240.0999,1629.7
240.1394,121.8
240.233,666.9
240.3009,114.8
240.4033,138
240.5276,473.6
240.5713,507.9
240.6664,430.9
240.718,19.4
240.7236,87.4
240.7403,71.6
240.8284,117.2
240.8393,3598.9
240.9361,753.1
240.9552,1529.7
240.9675,2073.6
241.0091,611.2
241.1073,433.5
241.189,254.8
241.297,126.3
241.3023,443.6
241.3446,121.9
241.605,419.4
241.67,503.8
241.6768,157.3
241.7012,422.2
241.7201,151.8
241.898,20.4
241.944,493.7
241.9798,55.1
241.9984,3682.7
242.0116,338.5
242.0195,4393
242.0639,523.1
242.116,386.8
242.1489,174
242.1739,349.4
242.1923,587
242.2633,115.6
242.5799,329.4
242.725,333.6
242.7941,757.1
242.8488,19.5
242.8755,373
242.9069,59.9
242.926,27238.1
242.9526,639.6
242.9589,653.2
243.0066,75.2
243.0342,280.2
243.0534,4604.7
243.0656,10775.3
243.1378,465.1
243.1598,120.5
243.2432,421.9
243.3108,166.9
243.3389,659.7
243.378,21.4
243.4097,346.8
243.4562,223.6
243.4664,239.8
243.4824,349.1
243.6303,249.2
243.6619,274.8
243.6657,105.3
243.7947,314.3
243.8456,395.9
243.8611,493.4
243.9238,108
243.9455,19
243.973,196.2
244.0129,337.4
244.0371,19.2
244.0748,256.3
244.083,108.9
244.1081,120.2
244.2255,358.8
244.2519,115.3
244.2817,128.3
244.3386,356
244.3783,194.7
244.3971,614.9
244.4947,92
244.5099,391.5
244.5625,102.5
244.5914,17.7
244.5976,98.9
244.6685,19.8
244.8712,5652.5
244.9074,502.7
244.9241,948.8
245.0153,22
245.0251,121.4
245.0515,627.9
245.1261,320.9
245.2767,832.7
245.3451,283
245.4909,120.2
245.5177,466.2
245.6496,223.9
245.7896,381.1
245.8551,597.7
245.9378,18.8
246.0016,218.7
246.0109,19.6
246.0248,93
246.098,151.9
246.1028,50.6
246.3428,614
246.4392,262.9
246.5613,368
246.5826,344.5
246.6204,751.3
246.6609,130.6
246.6789,213.7
246.6966,103.1
246.8575,793.6
246.8681,1133.7
246.913,82.1
247.0416,136.1
247.0515,119.2
247.0583,5900.7
247.0671,998.2
247.0929,7891.3
247.2417,125.1
247.4754,211.8
247.5254,353.7
247.5393,389.3
247.6694,229.5
247.7123,888.8
247.8102,225.4
247.8203,168
247.8301,383.2
247.8961,287.8
248.0628,483.3
248.096,82.7
248.1245,19638.4
248.2022,19
248.2571,494.1
248.3004,182.2
248.3542,263.1
248.3643,130.4
248.7624,168.5
248.819,264.2
248.8498,276.2
248.8602,130
248.8711,16450.8
248.9597,1761
248.9997,322.9
249.0163,920.9
249.0615,18244
249.1029,124
249.1128,152.9
249.2774,395.2
249.2836,83.3
249.2958,473.8
249.3304,1259.8
249.4756,21.9
249.5055,218.1
249.6664,136.9
249.6941,257.7
249.6977,520
249.7739,345.4
249.9775,376.7
250.0651,962.1
250.0802,224.7
250.0856,240.2
250.1999,111.1
250.2424,226
250.6735,605.8
250.8271,489.8
250.8481,327.3
250.8681,4574.9
250.9207,1837.4
250.9561,2773.2
251.0017,754.5
251.0292,98.3
251.0344,1031.8
251.1283,289.1
251.2453,20.6
251.2658,103.6
251.4371,128.4
251.442,114.8
251.4906,118.6
251.5902,651.5
251.6121,727.5
251.7098,757.6
251.7746,114.7
252.0039,345
252.0101,272
252.0366,818.3
252.0461,88360.7
252.0992,657.3
252.1142,17.2
252.3986,220.2
252.4427,91.4
252.4785,140.1
252.522,201.3
252.5892,605.3
252.6858,552.3
252.7239,123.1
252.747,179.3
252.9037,221.3
252.9171,414.3
252.9384,20.1
252.952,23.2
252.9976,55.1
253.0494,5878.9
253.2215,18.7
253.258,732.9
253.3255,577.8
253.3667,388.6
253.3896,98.8
253.4022,501.5
253.4953,692.5
253.4985,399.9
253.5422,127.5
253.5622,788.2
253.7175,306.1
253.7327,110.3
253.7616,826.2
253.8437,18.2
253.9329,111.6
254.0438,4432
254.0971,356.4
254.1379,363
254.2852,563.1
254.3491,109.8
254.3713,140.9
254.405,48.6
254.4079,110.3
254.5147,151.5
254.5467,605.2
254.5548,336.2
254.5913,410.8
254.6212,159.5
254.7125,668.3
254.7603,107.6
254.7895,18.6
254.8162,1857.5
254.8243,5455
254.8932,595.3
254.8987,18
254.9966,26.7
255.0333,24364.3
255.0468,584.8
255.0677,133.9
255.0715,21.5
255.1457,321.8
255.2483,318.7
255.3361,577.1
255.4952,501.6
255.5927,310.8
255.7745,185.8
255.855,167
255.9183,447.1
255.9784,744.3
256.058,188.1
256.0677,128.2
256.2682,113.8
256.2822,112.4
256.2971,116.2
256.3146,284.5
256.4662,115.6
256.5004,105.2
256.5165,374.1
256.5316,562.5
256.622,712.2
256.73,174.5
256.738,151.3
256.7716,20.6
256.7852,342.1
256.813,1443.3
256.8212,8384.2
256.8623,137.1
256.9078,20
256.9285,697.2
256.943,328.2
257.0125,22.7
257.0424,286.1
257.049,5546.3
257.0663,509.7
257.0749,61135
257.095,49.4
257.1202,103.1
257.1547,88.3
257.368,132.7
257.3996,251.5
257.4349,615.1
257.4531,440.6
257.7388,547.9
257.766,161.5
257.8858,640.6
257.9029,112.5
257.9795,140.8
257.9936,480.7
258.0282,32.6
258.0625,104.4
258.0781,1654
258.0917,349.5
258.1026,109.1
258.1106,20672.7
258.2298,153.5
258.3761,146.7
258.5441,214.7
258.642,529.3
258.6555,349.6
258.7526,579.1
258.8184,2303.2
258.8999,6570.4
258.9226,479.6
259.0099,447
259.023,261.5
259.0281,847.8
259.3414,23.7
259.3763,160
259.4915,116
259.4932,138.3
259.4947,112
259.5074,315.5
259.5112,246.9
259.5247,268.9
259.5363,281
259.6074,115.1
259.6596,302.5
259.7299,479.2
259.7885,102.4
259.9371,125.5
260.0173,76.5
260.0346,96.4
260.0884,126.8
260.1671,262.9
260.2646,442.4
260.3907,119.4
260.4288,21.6
260.5323,550.9
260.6743,439.7
260.8451,2459.8
260.8514,230.4
260.8967,719.9
260.9164,169.2
260.9242,20.5
260.9414,793.4
260.9494,7013
261.0473,415.7
261.1103,188.3
261.126,353.6
261.2114,263
261.2863,144.8
261.3597,133.4
261.4451,289.4
261.4601,110.2
261.4955,441.3
261.8278,111.7
261.947,568.9
261.9578,20.6
262.0442,167.8
262.0817,1193.7
262.0966,245.8
262.1165,324.4
262.1578,144.8
262.2108,75
262.2521,371.8
262.3109,97.8
262.3684,28.3
262.4551,535.1
262.5083,48.2
262.7764,149.2
262.8213,430.1
262.849,123.8
262.9465,2864.9
263.0148,341.4
263.0238,110.7
263.0319,422.3
263.0856,3291.2
263.1351,150.9
263.2513,451.4
263.2991,308.5
263.4962,180.6
263.5294,551.4
263.6057,432.9
263.6287,527.3
263.8827,202
263.9371,95.2
263.9831,116.9
264.0021,100.3
264.0263,100.1
264.1212,150.1
264.2131,382.8
264.2684,21.3
264.3237,225.1
264.3376,482.5
264.3912,609.3
264.5007,765.3
264.5707,233
264.6384,635.8
264.6551,109.7
264.8007,129.8
264.8452,2458.3
264.8531,4719.7
264.9338,2571
264.9642,509.6
264.9734,1247.7
264.9889,24
265.0155,605.7
265.0355,11172.6
265.0476,1985.1
265.2786,552.7
265.2967,808.7
265.3214,466.3
265.3663,121.1
265.5594,611.2
265.5697,428.8
265.5963,728.3
265.6187,167.5
265.6481,587.7
265.9795,162
266.0713,119
266.1426,23.7
266.1776,150.2
266.291,686.3
266.3993,145.8
266.5496,61.4
266.6248,213.9
266.6631,503.3
266.6825,247.5
266.7972,317.1
266.8501,4786.5
266.882,112.8
266.8946,2774.2
266.9042,772.5
266.9131,64.3
266.9623,154.1
266.9786,245.7
267.0133,163.1
267.0394,751.1
267.1643,660.7
267.1838,286.8
267.2079,112.4
267.3218,256.9
267.3751,157.4
267.4178,504.9
267.5004,275.9
267.5179,253.2
267.5437,389
267.6473,860.3
267.7293,119.4
267.8386,570.8
267.9224,16.9
268.0169,20.4
268.0321,188
268.1421,256.1
268.1894,323.4
268.2869,369.5
268.3278,535.6
268.4358,188.8
268.4446,518.4
268.4664,18.7
268.4846,188.2
268.5063,640.3
268.5101,119.2
268.598,88.6
268.6443,385.8
268.6545,397.9
268.6718,192
268.8047,18.3
268.8348,387.1
268.8474,484.1
268.8918,542.5
268.9222,19.3
268.9286,264.4
269.0013,131.3
269.0059,337
269.0079,338.1
269.0119,70
269.0276,55.6
269.0339,557.8
269.0453,17121
269.049,36010.4
269.2295,132.9
269.3056,52.7
269.3255,350.6
269.4164,170.8
269.528,370.4
269.613,180
269.7188,19.7
269.7374,24.2
269.9414,16.5
269.9444,106.3
269.9945,2321.7
270.0252,975.4
270.0477,26369.1
270.0553,130.9
270.129,165.5
270.1452,1606.2
270.168,18.3
270.4678,109.3
270.6514,451.4
270.6559,351.3
270.7115,122.8
270.7984,4208.2
270.8721,231.1
270.8787,630.4
270.9783,16728.6
271.0071,484.7
271.0193,53.4
271.0251,271.9
271.0507,1386.6
271.0651,245.1
271.0785,901.3
271.0909,1433.8
271.1684,160.9
271.2513,55.2
271.3025,687.7
271.3357,620.1
271.3484,94.8
271.4858,18.1
271.6009,135.4
271.7108,149
271.792,358
271.9442,247.8
271.9532,775.7
271.9733,212.2
272.0436,152.8
272.0808,313.9
272.197,178.7
272.3859,517.1
272.3901,132.5
272.4,212.1
272.5192,338.9
272.5503,535.5
272.5811,736.1
272.5923,432.3
272.7954,4165.9
272.869,472.5
272.8785,546.9
272.9454,863.4
272.9852,114.5
272.9991,148.6
273.0388,268.4
273.0488,6443.9
273.1057,19.1
273.1799,308
273.3904,214.1
273.3987,354.8
273.5532,666.9
273.7083,222.1
273.898,477.1
273.9629,222.9
274.0324,120.7
274.0403,27.9
274.0693,325.9
274.0804,759.3
274.0926,1561.5
274.1221,121.9
274.1474,303.4
274.2579,106.9
274.3292,59.7
274.5035,180.7
274.5197,17.6
274.6031,358.4
274.6254,17.7
274.6614,18.8
274.7921,1982.8
274.8233,110.8
274.8736,697.1
274.882,458.4
274.9084,369.2
275.1114,797.5
275.1331,108.2
275.2032,336.5
275.2965,426.3
275.3108,120.3
275.3548,64.3
275.3583,302.6
275.3712,510.7
275.3934,370
275.4101,848
275.4407,462.3
275.4922,107.3
275.5109,17.8
275.6484,358.1
275.6899,408.3
275.7312,23.2
275.7651,398.9
275.9234,508.4
275.9396,459.7
275.9705,372.8
276.0036,65.1
276.0851,148.5
276.1195,22.8
276.125,18.7
276.3469,106.4
276.5337,394.8
276.7403,155.8
276.7571,133.9
276.795,133.3
276.9235,8375.3
276.9473,483.7
277.134,470.8
277.2975,694.4
277.4468,135
277.467,18.5
277.5237,605.6
277.5451,587.5
277.6386,23.7
277.7355,270.6
277.7758,560.2
277.8258,370.2
277.895,212.8
277.9238,154.6
277.9416,802.4
277.9476,735.5
277.9552,486.3
278.0193,527.8
278.1512,116.9
278.204,162.7
278.29,345.3
278.3572,120.4
278.3869,262.3
278.3959,744.5
278.403,539.7
278.4052,311.6
278.4214,275.4
278.4329,91
278.4769,662.2
278.7789,134.7
278.8936,956.1
278.9203,1684.8
278.9803,527.2
278.9878,461.5
279.0232,20.7
279.0249,22
279.0268,18.9
279.0569,33919.8
279.1305,188.8
279.1707,399.3
279.1764,1038.8
279.5005,249.5
279.5979,340.6
279.7014,301.9
279.785,20.4
279.824,107.3
279.8378,463.7
279.8438,131.5
279.8539,543.2
279.8585,147.7
279.8639,235.1
279.8855,246.5
280.0053,140.8
280.0166,172.9
280.0335,122.9
280.0607,294.4
280.0926,810.5
280.1893,118.6
280.2061,513.5
280.2815,197.4
280.3067,127.7
280.3825,18.8
280.434,118.2
280.4685,121.5
280.493,156.9
280.7734,203.2
280.8269,2221.1
281.0097,3163.1
281.0258,203.4
281.0325,89.2
281.0517,236.2
281.1564,191.2
281.2534,112.1
281.3345,754
281.3443,19.6
281.4364,88.4
281.7662,520.6
281.9325,123
282.0144,755.3
282.0515,47.5
282.0651,422.1
282.0883,172.5
282.2267,133.9
282.3146,288.2
282.4346,666.6
282.4677,19.3
282.6364,574.4
282.6665,390.2
282.8241,2754.2
282.8411,20.5
282.8683,481.2
282.8964,417.3
282.9064,21
282.9846,304.7
282.9912,20.4
283.1707,234.2
283.5683,250.6
283.7055,330.8
283.8189,480.8
283.8322,173.7
283.8452,119.7
283.879,395
284.053,61.4
284.0634,149.1
284.2679,21.7
284.5595,304.2
284.5939,257.7
284.6569,178.2
284.8527,642.9
284.9198,19.5
285.0099,26.5
285.0223,22.9
285.3434,120.7
285.5478,108.4
285.5732,106.7
285.5867,701.6
285.6552,261.8
285.6898,414
285.7736,366
285.9051,719.2
285.9684,1179.9
285.9812,896.5
286.02,247.5
286.0965,57.9
286.1072,275.4
286.1156,148.1
286.1264,205.7
286.1711,18.2
286.3363,540
286.3691,21.4
286.4581,182.7
286.5339,21.2
286.7722,2159.5
286.7786,753.9
286.8208,129.9
286.8623,377
286.881,674.6
286.9523,8835.2
286.9876,143.1
286.9988,124.7
287.0557,40931.7
287.0925,21
287.1255,522.9
287.1382,20.9
287.1905,179
287.2375,226.5
287.3036,315
287.3878,243.6
287.4208,124.5
287.4404,18.9
287.4796,151
287.4815,149.3
287.4834,137.3
287.7126,50.5
287.7789,153.5
288.0136,23.6
288.0272,23
288.0589,1583.4
288.0851,122.2
288.1046,306.2
288.1559,24145.6
288.1951,101.2
288.2925,569.8
288.3952,1030.6
288.4284,311.7
288.6783,148.7
288.7625,527.5
288.7692,3319.5
288.8423,296.1
288.8475,890.1
288.8512,282.3
288.853,330.8
288.8608,975.4
288.8793,5607.9
288.8861,6976.2
288.8938,12874
288.8989,13483.1
288.9022,11258.7
288.9101,16209.7
288.9147,18952.1
288.9214,21700
288.9298,18206.6
288.9365,19814.1
288.9411,18422
288.9461,16287.9
288.9521,12338.1
288.9558,10353.2
288.9616,8464.9
288.9673,7689.3
288.9792,2671.4
288.9832,2405.8
288.9977,807.9
289.0038,1255.3
289.062,165
289.1589,1694.1
289.2094,265.9
289.3053,103.6
289.3572,451.5
289.3623,20.8
289.3742,303.1
289.4485,143.5
289.5523,107.9
289.567,186.5
289.5889,126
289.6811,96.2
289.838,128.5
289.8899,20.5
290.0566,286.5
290.1001,90.4
290.1291,589.6
290.153,134
290.2217,302.8
290.2465,18.7
290.3723,20.2
290.4451,145.5
290.4808,150.1
290.5177,260.6
290.5554,22.1
290.6601,17.9
290.6865,558
290.7271,20.1
290.7404,277
290.7665,1273.5
290.8554,989.7
290.8857,114.9
290.9949,25
291.027,3458.1
291.2522,493.9
291.2636,179.3
291.4322,633.9
291.568,704.3
291.5856,126.3
291.6057,571.4
291.6183,130.2
292.0799,236.5
292.1031,107.4
292.1364,248.3
292.1589,139.4
292.198,748.9
292.2336,575.1
292.4275,89.6
292.6131,263.1
292.6443,278.9
292.659,401.3
292.8975,308.7
293.05,181
293.0655,218.9
293.0674,290.1
293.0731,1922.4
293.0986,549726.9
293.1615,596.7
293.1669,327.9
293.1793,1173.9
293.2701,22.4
293.2871,18.5
293.3041,514.1
293.5864,101.4
293.6404,17.6
293.725,20.2
293.8657,140.8
293.8884,111.3
293.9382,185
293.9807,625.8
294.0271,740.2
294.043,193.8
294.0955,1699.6
294.1019,48803.5
294.2082,990.9
294.2447,124.2
294.2648,187.5
294.3857,299.4
294.4773,351
294.5222,363.3
294.6648,163.7
294.7762,143.8
294.8058,521.8
294.8096,578.3
294.8675,689.4
294.9487,135.8
294.9909,594.9
295.0309,1072.7
295.1028,5580.9
295.195,24793.3
295.318,377.7
295.3697,133.1
295.5852,20
295.6115,316.8
295.7642,302.2
295.939,303.7
295.9931,21.2
296.0099,1015.7
296.0488,163.7
296.0665,463.2
296.0764,128.7
296.1728,394.5
296.198,2844.7
296.2439,111.7
296.2552,591.8
296.3197,375.5
296.4703,400.4
296.6988,19.3
296.7047,121.7
296.7521,337.7
296.7883,748.3
296.8308,466.2
296.8378,124
296.9528,16.8
296.9877,406.7
297.0145,93.3
297.0415,176.9
297.0583,138.6
297.1662,266.6
297.2414,220.3
297.5276,566.6
297.6398,518.8
297.7913,257.3
297.8183,217.4
297.8869,168.2
297.9655,407.7
298.0259,2734.1
298.0426,15860.1
298.1221,113
298.5051,93.5
298.6694,19
298.8168,17.9
298.9307,135.9
298.9612,214.9
298.9867,98.7
299.0234,2887.2
299.0461,1453.8
299.0684,128.9
299.1072,250.1
299.1397,1467.8
299.2041,338.9
299.2101,192.5
299.298,138.6
299.5603,287.3
299.5821,294.6
299.6329,614.9
299.644,294.1
299.9555,767.3
300.0054,822.6
300.0388,165.4
300.0488,35
300.0756,491.1
300.1387,693.1
300.1955,172.8
300.3733,182.9
300.4133,421.7
300.662,342.3
300.9591,357.7
300.9861,304
300.9935,99.8
301.0091,551.3
301.0389,19700.4
301.0706,365
301.0755,27.8
301.0804,21.8
301.0846,226.8
301.1293,280.8
301.1413,582.8
301.2125,1423.7
301.2681,150.7
301.4599,449.7
301.4984,427.6
301.5966,331.8
301.7269,109.8
301.8192,24
301.8394,138.4
302.0122,1126.4
302.0203,142.2
302.0522,21.7
302.0643,5461.9
302.0735,25.3
302.1916,157.1
302.2349,153.9
302.304,122.1
302.4157,377.7
302.4346,393.7
302.4677,24.4
302.6543,284.9
302.6707,167.1
302.6808,1116.6
302.6869,506.2
302.7015,155.5
302.7089,116.2
302.746,537.8
302.8296,1673.4
302.917,115.2
302.9484,20.7
302.9874,126.5
303.0677,474.2
303.0745,336.2
303.1068,537.4
303.218,2987
303.463,156.2
303.5578,21.7
303.6268,422
303.7278,654
303.9533,164.1
303.971,775.9
304.0601,174.9
304.1264,212.3
304.1443,149.6
304.2783,348.7
304.2931,158.9
304.3001,432.2
304.5752,107.6
304.5813,192.5
304.7188,121.5
304.7432,1202.3
304.7504,144
304.8265,2330.2
304.9163,165.5
304.9405,555.3
304.9962,355.6
305.0603,235.1
305.1731,554.1
305.1801,386.4
305.2052,22.3
305.2327,421.9
305.2641,21.2
305.4155,703.1
305.5003,144
305.5238,17.4
305.5692,95
305.6459,598.8
305.8177,794.8
305.8956,16.1
305.899,24.2
306.0713,21.1
306.086,420.8
306.0955,71.6
306.1256,136.7
306.1619,20.7
306.1956,237.2
306.3048,121.2
306.5254,239.6
306.6725,143.1
306.7405,20.2
306.767,103.9
306.7725,127.2
306.8214,154.5
306.8668,620.8
306.8759,512.7
306.8898,302.2
306.9583,1565.7
306.9778,2403.1
307.0248,49
307.1089,21.4
307.1387,511.1
307.2634,436.6
307.2989,451
307.4115,387.4
307.4265,353
307.5312,356.3
307.6422,131.6
307.6625,304.3
307.9567,1297.4
308.0121,317.9
308.0591,565.3
308.142,456.7
308.2397,123.5
308.6075,585.4
308.738,778.1
308.7488,92.3
308.8793,2279.1
308.9444,601.1
308.9999,88.6
309.0066,461.6
309.0245,670.8
309.0375,3480.5
309.0828,2432.8
309.1845,236.8
309.2893,87.7
309.3128,688.5
309.3397,52.1
309.371,185.1
309.5391,439.1
309.7684,134.9
309.8473,119.5
309.8917,253.8
309.9866,109.7
310.1052,555.8
310.1735,172.3
310.3769,379.8
310.5527,368.9
310.6948,614.9
310.7406,232.4
310.8769,2147.2
310.9721,17.9
311.0034,193.2
311.1907,725.4
311.3555,21.2
311.5112,757.2
311.5363,628.8
311.5757,18.7
311.5816,144.3
311.6759,154.4
311.743,431.4
311.9218,133.8
311.9701,425.6
311.9837,1034.6
312.0412,4434
312.2405,221.3
312.3884,51.2
312.4465,20.9
312.5547,19.1
312.6639,149.8
312.8008,310.5
312.9428,20.2
313.0021,156
313.0372,721.8
313.0539,249.6
313.0664,357.1
313.1372,49.7
313.2744,48282.6
313.376,234.9
313.4111,822
313.4208,121.4
313.5217,203
313.5497,21.4
313.6582,192.8
313.7419,616.6
313.8496,560
313.9394,330
313.963,113.5
313.9999,710
314.0151,359.1
314.0196,630.4
314.0914,131.3
314.0955,367
314.2664,18.3
314.2777,6268.3
314.3084,605.9
314.4153,648.6
314.4349,143.8
314.5223,176.6
314.6761,224.9
314.6885,111.4
314.7367,233.2
314.7587,268
314.7807,431.9
314.8374,6190.8
314.9236,157.2
314.9994,5874.1
315.0043,933.5
315.0274,104.1
315.0287,109.6
315.0437,802.9
315.05,1310.7
315.0556,8552.7
315.0597,4080.6
315.0618,5299.1
315.0639,6752.9
315.0669,21655.3
315.07,30102.3
315.0733,17470.4
315.0805,8151560
315.0867,31597.3
315.089,16770
315.092,11600.5
315.0942,9033
315.0966,7699.8
315.0984,4903.8
315.1007,4003.2
315.1028,3050.3
315.1074,1420.6
315.1093,1865.2
315.1111,1552.9
315.1239,240.5
315.1286,169.2
315.1303,240
315.1475,427.2
315.1616,5524.3
315.3239,7644.4
315.4667,118.9
315.4863,452.4
315.621,307.6
316.0101,297
316.0537,34.6
316.0685,1884.4
316.0778,44477.2
316.0838,847654.1
316.1245,298.1
316.1384,102.8
316.1834,134.8
316.2604,266.1
316.3084,17.5
316.5708,19.2
316.9169,18.5
316.9871,2330.5
317.0117,157.8
317.023,689.4
317.0562,472.8
317.0656,1541.9
317.0844,99743.9
317.2349,140.8
317.5849,20.1
317.6512,127.4
317.7653,17.6
317.9167,421
317.936,97.2
317.9595,357.7
317.9863,1680.4
318.0879,10108.1
318.1559,21.5
318.2453,238.4
318.3482,288.9
318.4684,139.7
318.6321,20.1
318.7492,289.8
318.8039,2336.6
318.811,174.9
318.8205,119.8
318.8754,105.8
318.8985,345.4
318.9085,419
319.071,607.9
319.0882,127
319.1789,387.9
319.195,46907
319.2025,675.2
319.3549,232.4
319.5774,119.4
319.6501,207.9
319.6929,121.1
319.7126,157.5
319.9845,473.5
320.0004,604.7
320.059,245.2
320.0749,161.7
320.1213,174.8
320.1632,171.4
320.1984,7177.1
320.259,1240.7
320.2885,510
320.491,349.9
320.6957,506.4
320.7467,464.8
320.7663,594.1
320.791,640.3
320.8203,243.4
320.8411,19.8
320.9047,410.8
320.9121,653.2
321.1148,100.8
321.1531,18.7
321.2108,38208.6
321.2619,81.8
321.3146,27.2
321.3224,19.7
321.5273,515
321.5856,24.9
321.6729,478.4
321.6808,19.7
321.7059,388
321.7611,257.5
321.7789,223.3
322.0094,202.6
322.1232,393.9
322.149,186.6
322.1793,399.7
322.214,3813
322.2878,145.2
322.341,112.8
322.3779,121.7
322.4752,325.4
322.508,90.1
322.5889,383.9
322.7016,587.5
322.7599,17.5
322.7835,21.1
322.8986,106.8
322.991,321.1
323.0041,170.6
323.0209,9763.9
323.1401,731.8
323.2265,2382.1
323.4217,151.8
323.4561,92.9
323.6609,123.8
323.7265,126.7
323.7614,192.3
323.8651,107.4
324.0021,233.7
324.0508,160.4
324.32,21.8
324.4171,115.4
324.4529,23.6
324.4724,144.6
324.5639,4731.5
324.5691,3781.1
324.5724,3898.7
324.5766,2716.2
324.7955,389.4
324.8092,412.3
324.8537,1928
324.9054,118
324.9285,345.6
324.9637,486.2
325.0027,685.3
325.04,136.1
325.0566,1430.8
325.1006,479.8
325.1331,146.4
325.1998,521.3
325.2118,2491.9
325.2478,616.6
325.3284,18
325.623,374.7
325.8075,48.6
325.8885,170.7
325.8971,217.3
325.9201,20.6
325.9653,158.4
326.1366,141.4
326.202,60.7
326.3158,149.6
326.3179,258.3
326.3197,247.7
326.35,148.2
326.3584,135.7
326.4968,19.4
326.6127,708.9
326.6194,356.9
326.6348,103.1
326.679,194.2
326.7476,139.4
326.7814,118.8
326.7899,122.8
326.8078,323.6
326.8385,624.7
326.8503,1082.2
327.0159,4854.1
327.0522,2688.2
327.2163,238.6
327.2279,8571.8
327.2653,451.1
327.2926,110
327.3109,18
327.4087,420.2
327.8131,156.7
327.9842,148
328.0155,1614.3
328.1993,242.5
328.2721,591.7
328.3779,130.6
328.4179,242.7
328.4374,755.4
328.4451,22.6
328.7236,457.7
328.8769,94.3
328.9043,627.6
328.9298,440.9
328.9448,128.7
329.0189,136.7
329.0963,2015.6
329.1642,114.7
329.2761,189.8
329.3215,349.6
329.3789,90.1
329.7584,378.6
329.7905,169.9
329.9439,585.3
330.0595,139.5
330.0687,18.9
330.1342,629.7
330.4379,18.2
330.5491,586.2
330.5979,280.8
330.654,102.6
330.807,263.3
330.9159,136.9
330.9293,102.9
330.9897,18.9
331.0194,2514.9
331.0458,147873.8
331.0545,1319070.9
331.1418,197.9
331.2741,495.9
331.3132,611.8
331.4213,52.9
331.459,110
331.4917,22.3
331.4938,23.6
331.497,18
331.5987,437.6
331.9865,24
332.0236,398.7
332.0295,405.6
332.0396,426.7
332.0485,9153.1
332.0578,120660.3
332.1746,354.1
332.1992,617.5
332.2279,451.8
332.3377,53.8
332.3476,83.9
332.5087,175.7
332.5606,659.1
332.584,475.3
332.7384,144.2
332.7619,657
332.7695,113.6
332.8341,20.2
332.9602,476.5
332.9661,378.7
333.0419,113.4
333.0526,74869.1
333.0582,13609.5
333.3587,91.6
333.3818,486.9
333.4537,16.9
333.5344,371.6
333.6322,215.2
333.6831,176.8
333.7401,142.7
333.7546,619.8
333.77,81.3
333.8687,322
333.9835,52.9
334.0559,6936.1
334.0904,74.1
334.3493,115.5
334.4901,128.5
334.7614,268.7
334.7644,288.5
334.8156,690.5
334.8279,161.3
334.9085,565.7
334.9446,263.3
335.0209,1176.5
335.0387,559.2
335.0807,472.8
335.116,303
335.2846,223.7
335.8244,170.4
335.9325,330.1
335.9406,219.8
336.1264,253.4
336.1528,218.2
336.2676,121.8
336.3062,356.9
336.3675,111.3
336.3796,260.8
336.4009,733.4
336.4383,700.8
336.6318,99.8
336.7161,309.5
336.8884,50.8
336.962,470.4
336.9709,123.2
337.0367,10466
337.0501,21121.5
337.0625,629281
337.1718,186.3
337.1776,305.4
337.2023,47
337.2745,12595.3
337.6626,107.4
337.7187,113.7
337.8958,535.3
337.9224,20.2
338.05,331.1
338.0658,55233.4
338.103,20.5
338.1307,20.2
338.1539,98
338.2775,1540.9
338.291,105.9
338.3158,91.7
338.3374,112.6
338.3573,18.7
338.4343,797.6
338.7858,733.6
338.921,1023.4
338.9284,458.2
338.9544,164.5
339.0391,1443.6
339.0478,972.5
339.0662,4550.1
339.0886,126.4
339.2902,9563.3
339.3775,137
339.7121,502.3
339.7496,87.6
339.7847,339.5
339.8268,327.2
339.9665,21.2
339.9784,219
340.0159,20.2
340.0499,20.1
340.0941,389.5
340.4228,257.1
340.4433,104.2
340.5169,19.8
340.5643,351.2
340.7508,40.6
340.7829,1172
340.8333,17.4
341.0021,675.9
341.0186,51.3
341.0359,472.2
341.161,297.3
341.2206,314.9
341.3059,6782.5
341.3346,135.7
341.3914,235.9
341.4412,256.5
341.4668,19.1
341.6002,65.7
341.8533,275.9
341.9247,578.9
342.0089,120.7
342.0167,445.7
342.0668,370.9
342.1328,169.8
342.1516,170.9
342.236,89.2
342.4457,124.7
342.4726,127.3
342.9431,119
342.9554,156.2
342.9752,86
342.9897,2226
343.014,605.4
343.0256,830.5
343.1951,13703.4
343.3292,124.1
343.3952,505.7
343.6272,219.4
343.6764,130.8
343.8396,506.4
343.9417,671.8
344.0497,340.6
344.1274,130.9
344.2661,138
344.432,415.8
344.8111,236.5
344.9735,242.9
345.0346,637.3
345.1382,541.8
345.2107,4858.3
345.3235,447.8
345.36,585.4
345.7163,135.2
345.7419,102.6
345.7866,19.6
345.8984,274.9
345.9554,167.9
345.9854,22.7
346.0106,20.3
346.0177,107.2
346.1428,47.8
346.1902,182.6
346.3146,272.9
346.4363,50.6
346.4744,623.6
346.6172,331.3
346.6724,123.1
346.6774,544.1
346.8756,18.7
346.8937,20.5
346.9154,90
347.0329,788.6
347.0945,510
347.1443,121.8
347.3779,583.2
347.4915,556.3
347.5061,382.7
347.5119,770.7
347.6665,716.9
347.7669,139
347.8137,150.6
347.8907,418.6
348.1454,253
348.2118,429.7
348.4798,100.4
348.7915,825.4
348.8043,227.7
348.8158,773.8
348.8747,144.8
349.2467,22.7
349.3829,304.3
349.5407,165.1
349.6236,112.9
349.6838,304
349.8113,49.5
349.8742,385.7
349.8847,460.5
350.0045,28.3
350.014,89.8
350.2173,112.8
350.2801,138.5
350.3916,603.9
350.4317,515.8
350.6217,144.9
350.9459,104.1
350.9918,647
351.5123,257.1
351.5661,340.5
351.6101,359.1
351.6593,372.4
351.9393,397.3
352.0909,576.5
352.1233,432.3
352.384,275.3
352.4863,49.1
352.6016,329.2
352.8979,1637.2
352.9228,112.3
352.9984,627.1
353.0276,142438.4
353.0365,218085.3
353.1772,454.6
353.2288,26.3
353.4355,105.6
353.4659,757
353.6701,125.6
353.6765,305.8
353.6889,304.2
354.0309,11466
354.0398,20566.7
354.1273,300.6
354.2321,21.4
354.4674,624
354.5269,106.6
354.6846,24.9
354.7226,95.8
354.764,297.7
354.9174,374.4
354.9282,22.7
354.962,121.9
355.0124,2134.2
355.0221,108.7
355.0349,13170.2
355.0705,424.6
355.1263,204.8
355.1284,208.1
355.2178,664.4
355.4405,303.4
355.5359,377.1
355.7869,636.6
355.8033,100.2
355.8789,24.2
355.9635,125.3
356.0154,124.4
356.0702,44.8
356.09,97.6
356.1868,94.1
356.3836,267.8
356.5752,111.3
356.7674,49
357.009,1023.1
357.0211,373.5
357.0716,80.1
357.1344,302.6
357.3202,115
357.423,146.2
357.4415,137.7
357.5791,308
357.5879,20.9
357.6077,448.9
357.6307,611.1
357.6613,228.5
357.7172,314.8
357.8485,111.6
357.8719,129.7
358.0089,31.6
358.1542,261.7
358.33,392.1
358.3595,155
358.5568,616.4
358.627,625.5
358.7285,432.6
358.8247,212.6
358.8431,985.7
358.9635,620.2
359.0079,527.3
359.0321,12517
359.0445,329613
359.0957,251.6
359.1119,20.7
359.177,20.4
359.2401,370.9
359.2574,402.4
359.4884,712.1
359.5442,555.8
359.556,917.5
359.5645,304.5
359.5785,237.7
359.5962,299.5
359.6038,569.8
359.6124,150.2
359.6243,613.6
359.632,402.5
359.6415,89.6
359.6701,150.7
359.6916,510.8
359.7173,122.9
359.7269,142.2
359.8019,477.1
360.0122,19.9
360.0479,30714.7
360.0923,131.6
360.1701,18.1
360.2845,107.2
360.3244,378
360.6436,333.6
360.7671,408
360.9006,20.1
361.0208,2145.4
361.0354,151.6
361.1152,533.2
361.2059,277.6
361.2743,2035.4
361.46,248.9
361.6292,138.1
361.738,17
361.9575,584.5
362.137,18.2
362.2356,270.4
362.2766,98.8
362.5436,26.2
362.6646,120.3
362.7608,676.7
362.769,19.7
362.9079,17.4
362.9273,1879.8
362.9615,536.2
363.0421,825.3
363.0505,367.2
363.163,117
363.3657,210
363.3864,254.1
363.3959,509.7
363.5206,243.9
363.5293,128.3
363.5894,281.5
363.8016,177.2
363.8108,766.6
363.9747,344.7
364.2807,20.9
364.3147,184.2
364.7472,313.5
364.7877,466.7
365.1062,3229.9
365.1703,129.5
365.2431,391.8
365.4359,100.1
365.5371,569
365.7652,105.1
365.7713,284.5
365.8985,153.6
365.9312,19.3
366.1172,560.8
366.1408,48.7
366.3344,128.9
366.4066,393.5
366.6347,18.2
366.6618,200.1
366.8723,300.9
366.9521,331.3
367.0291,222.7
367.0556,744.9
367.1222,2062.9
367.1881,27.9
367.1953,1935.4
367.2218,87.1
367.3779,55.5
367.4834,486.3
367.5226,184.7
367.8026,619.1
368.1625,729.6
368.3629,151.8
368.4277,52
368.4952,289
368.8068,17.7
368.8726,166.4
368.9927,2112.8
369.0016,20555.5
369.0105,11071
369.103,18.8
369.2392,116
369.2689,19
369.6011,52.5
369.6176,492.1
369.6241,102.8
369.7825,148.2
369.9183,96.4
369.9385,20.3
370.0036,409
370.0151,123.2
370.0628,151.3
370.132,150
370.2982,360
370.4265,465.2
370.5485,184.2
370.6598,197.5
370.8174,111.4
370.9966,341.3
371.0801,379.2
371.1178,225
371.2643,584.6
371.3418,166
371.3938,741.6
371.4237,24.6
371.5504,127.6
371.6816,699.4
371.8723,102.3
372.0674,432.3
372.1387,138.3
372.2679,640.3
372.594,112.6
372.6951,407
372.8375,145.6
372.8524,567.7
372.9974,125.1
373.0788,109.4
373.47,141.6
373.6213,198.6
373.7806,520.2
373.8492,18.7
373.9158,422
374.1549,90.5
374.2886,405.1
374.6213,595.1
374.6599,536
374.7323,16.8
374.8714,121.1
374.9979,246.7
375.0096,131163.2
375.0184,109819.2
375.1014,16.8
375.2466,757.6
375.3345,131
375.9484,20.5
376.0127,10154.8
376.0218,8547.2
376.085,97.5
376.1152,517.3
376.1911,736.7
376.198,168.1
376.3514,19.3
376.4035,16.8
376.4326,124.8
376.4528,137
376.4582,531.4
376.5632,157.4
376.599,232.3
376.6462,18.9
376.7366,852.9
376.7974,193.5
376.912,335.4
376.947,548.3
376.9624,314.4
376.9944,899.2
377.0167,6063.4
377.0828,293.7
377.1271,171.4
377.1693,23.5
377.476,400.6
377.7683,19.8
378.008,928.3
378.0222,126.1
378.1222,123.2
378.1913,20.3
378.2732,91.7
378.3326,836.9
378.5399,309.2
378.5819,243.1
378.7665,557.3
378.8101,339.3
378.8125,360.9
378.8154,358.5
378.8506,203.5
378.8573,257
378.9646,604.9
378.9922,160.3
379.0035,213.1
379.1012,96.4
379.1477,190
379.171,20.5
379.2013,27.4
379.2468,676.9
379.3662,345.5
379.4581,145.7
379.4776,19.7
379.6244,138.3
379.6481,112.2
379.8449,142.5
379.8745,463
379.9734,419.1
380.0407,20.7
380.3429,811.1
380.3747,28.6
380.6061,427.6
380.7708,436.6
380.9109,378.6
380.9898,81.7
381.014,22597.1
381.0265,186290.8
381.0801,530
381.1165,296.3
381.3249,511.5
381.427,116.9
381.5452,143.6
381.5647,89.8
381.6083,202
381.8214,19.2
381.8472,133.6
381.8738,359.4
381.9409,554.3
382.0298,13543.8
382.2751,402.5
382.3878,578.9
382.4321,654
382.4799,227.7
382.5056,27.6
382.638,140.2
382.7676,688.5
383.0028,792.9
383.0122,947.3
383.094,152.6
383.1168,152433.4
383.1475,141.3
383.1729,585.7
383.2888,20.7
383.3771,359.2
383.5457,22.3
383.9063,165.7
383.9902,22.6
384.12,18568
384.2027,192.3
384.4188,618.3
384.7094,156.2
385.0063,219.2
385.1214,400.5
385.1444,154.8
385.1565,720.9
385.3418,130.8
385.7126,609.3
385.8518,457.8
386.0296,266.7
386.1206,659.7
386.4353,520.9
386.5253,358.7
386.5329,618.2
386.6508,139.1
386.887,426.7
387.0027,2201.2
387.0527,530
387.3852,226.1
387.6044,766.9
387.6698,20.4
388.1697,210.7
388.208,104
388.2144,336.6
388.2559,19.4
388.3287,537.7
388.4621,125.7
388.5595,141.3
388.6396,421.9
388.7123,649.1
388.913,107.7
389.1788,100
389.1853,447.5
389.1943,19.4
389.7327,142.3
389.9532,348.2
389.9738,728
389.9835,105.1
390.0453,134.8
390.1499,641.5
390.4819,104.7
390.6314,187.8
390.6947,111.3
390.7098,483.1
390.7991,1479.1
390.8497,239.1
390.8554,124.3
390.8703,23.1
390.8901,472.4
390.9223,300.4
390.9745,14300.2
390.9834,25162.1
390.9922,12795.5
391.0239,144.3
391.1364,21.1
391.189,21.1
391.6782,377.2
391.8885,193.3
391.9472,118.8
391.9871,285.4
391.9966,168.3
392.0862,579.8
392.1086,147.8
392.1848,95
392.4929,307.6
392.503,17.7
392.5846,20.8
392.7252,100.1
392.8187,104.9
392.856,118.7
392.959,55.3
392.9683,127.6
392.9908,543.9
393.0144,287.7
393.4999,104
393.5317,120.9
393.6788,176.7
393.9536,408.6
394.0195,141.7
394.1776,290.5
394.3837,105.7
394.4212,174.8
394.633,18.8
394.6507,250.3
394.9416,17.1
395.0032,749.8
395.0141,237.4
395.0378,135
395.1436,416.8
395.2156,255.4
395.2678,190.1
395.388,351.8
395.4551,114.3
395.5056,110
395.517,114.5
395.5507,335.8
395.8055,147
395.9792,165.3
396.1142,151.8
396.2833,207.7
396.3361,316.4
396.3488,277.9
396.3755,154
396.7448,549.8
396.9916,184641
397.0004,60361.9
397.0243,373.2
397.2351,394.7
397.4335,138.7
397.6736,126.5
397.6875,527.6
397.8009,18
397.8745,18.3
397.9846,19.5
397.9948,14719.9
398.0035,3305.6
398.1815,115.1
398.2039,1017.5
398.2423,11252.5
398.4252,698.2
398.6528,644.1
398.662,183.1
398.7018,122.6
398.7416,1079.5
398.8066,450.5
398.8682,17
398.9108,254.3
398.9756,72.4
398.999,1127.3
399.071,104.6
399.1224,182.1
399.206,326.6
399.2453,1760.9
399.3272,21.5
399.5416,123.8
399.5518,20.2
399.9805,37.2
400.2677,131.2
400.3431,574.5
400.3693,94.4
400.4469,371.7
400.6976,438.2
400.7127,723.3
400.7443,311.7
400.8292,808.4
400.9188,18.4
400.9845,1593.5
401.1882,62.8
401.2386,123.5
401.4855,432.6
401.4974,526.2
401.8279,274.7
402.0504,279.4
402.0621,21.7
402.1211,354.7
402.171,282.6
402.1963,171.8
402.2108,574.7
402.2923,254.9
402.4354,182
402.8248,1373.3
402.8444,492.1
402.9267,571.1
403.0085,249930.4
403.1706,337.3
403.1818,148.5
403.2695,107.6
403.5956,204.2
403.7869,369.7
403.8636,161.1
403.8818,597.4
403.9829,252.9
404.0118,21272.3
404.1455,705.8
404.1672,112.5
404.2246,105.1
404.256,572
404.4557,172.4
404.4923,752.3
404.5552,160.5
404.6876,422.9
404.7426,416.4
404.9736,602.3
405.0134,2400.2
405.4482,211
405.7168,307
405.8353,149.5
405.9483,720.2
405.9591,122.1
406.0084,20.7
406.1146,496.5
406.1327,356.7
406.2659,137.8
406.3299,1239.1
406.369,370.4
406.3855,415
406.5973,312.3
406.6814,392.3
406.8092,367.7
406.8775,402
406.9878,239.5
407.0538,498.8
407.3332,261.8
407.4159,427.7
407.5293,582.5
407.5602,750.4
407.8719,133.5
408.1139,544.6
408.5592,417.1
408.7407,101.2
408.7708,2217.8
408.9247,473.7
408.9852,3062.5
409.1108,112.5
409.1545,107.7
409.3643,477.7
409.4958,232.3
409.5287,101.1
409.6526,893.9
410.0782,373.7
410.3062,246
410.3759,19.1
410.417,121.1
410.5939,20.2
410.7671,453.4
410.8567,659.5
410.9693,56.2
411.0178,558.7
411.146,573.5
411.2013,151.7
411.3154,665.7
411.375,297
411.4426,132.6
411.5935,108.7
411.7122,160.1
411.7718,394.1
411.85,292.9
412.0816,137.1
412.1056,360.8
412.1443,99.9
412.2342,322.7
412.3215,1377.5
412.3759,638.2
412.3841,919.5
412.5188,663.2
412.5414,171.8
412.5688,158.3
412.6909,433
412.7642,520.9
412.7869,389.3
412.9441,335.7
412.9655,33227.5
412.9743,11808.8
413.0787,401.7
413.1176,769.7
413.2585,483.6
413.2668,1907.2
413.3249,162.4
413.5624,116.8
413.6131,423.8
413.8766,352
413.9116,185.6
413.9359,420.2
413.9535,118.8
413.9684,729.6
414.1317,121
414.2702,312.4
414.4561,342.7
414.4695,131.3
414.5421,488.5
414.6731,164
414.7157,918.9
414.9252,176.4
414.965,453.5
415.1843,117.8
415.2236,1225.2
415.3989,177.1
415.4205,160
415.4637,529.7
415.6422,347.3
415.9282,121.9
415.9536,114.7
416.1357,9501.1
416.2146,36325
416.2779,20.1
416.3149,348.5
416.5081,317
416.6366,123.6
416.7137,541
416.7744,96.4
416.8014,1359.4
416.8086,173.4
416.8629,441.3
416.9644,305.4
416.9916,226.5
417.0945,159.7
417.2178,3467.6
417.371,597.3
417.3951,399.8
417.5691,115.3
417.8949,161.5
417.9394,699.4
418.011,162.6
418.3586,446.8
418.4809,328.6
418.5762,19.4
418.9402,649.5
418.9824,91576.9
419.1929,509.2
419.2098,335.2
419.2566,1126.2
419.3273,22.2
419.4783,809.4
419.5523,317.6
419.6528,138.4
419.9858,7142
419.9946,761.2
420.1263,20.1
420.401,403.9
420.4286,20.5
420.7213,404
420.8853,1243.1
420.9584,1457.4
420.9806,3006.5
421.033,353.1
421.3882,398.5
421.5891,288.7
421.8342,593.2
421.904,363.2
422.0765,551.7
422.0887,420.2
422.1074,141.7
422.1777,19.2
422.3039,237.3
422.3098,461.8
422.7435,18
422.8199,400.1
422.9126,275.8
423.0557,107.6
423.0597,108.8
423.1858,194.6
423.1934,616.5
423.2864,26.1
423.3912,20.3
423.4304,370.2
423.4637,685.2
423.6416,749.8
423.6635,231.6
423.8834,225.6
424.1698,432.8
424.1922,437
424.2956,103.9
424.3198,819.1
424.3768,122.1
424.4625,18.4
424.4872,97.5
424.7445,371.4
424.8493,146.7
424.996,19.1
425.1449,20.8
425.1979,232.7
425.2411,17.6
425.2718,593.6
425.4777,100.2
425.5227,112.3
425.573,411.6
425.7534,104.5
425.9965,383.1
426.0285,255
426.2569,470.9
426.2736,684.5
426.4141,313.8
426.9559,166.3
427.0247,100.8
427.18,376.9
427.2992,243.1
427.3103,149.4
427.3506,612.8
427.5455,121.7
427.605,132
427.8187,150.9
427.8576,419.3
427.8801,618.6
428.0675,574.8
428.0936,390.2
428.1499,98.2
428.1612,514.9
428.1952,135.8
428.2107,424.1
428.3435,337.6
428.6107,668.2
428.8245,771.9
428.9396,2568.7
428.9614,395.9
428.982,1541.5
428.9939,604.9
429.0035,275.5
429.0179,295.1
429.0477,20
429.0894,228.7
429.2057,161.6
429.2423,21
429.3684,627.1
429.6667,762.2
429.7257,23.5
429.7869,22.1
429.8111,228.1
430.0501,657.4
430.0897,39.6
430.2771,193.9
430.3671,237.7
430.5187,165.9
430.5588,249.1
430.9152,988.2
431.1851,357
431.2179,3592.4
431.2688,139.7
431.4393,208.7
431.7593,95.2
432.0014,390.6
432.0685,360.5
432.188,19.7
432.2989,261.1
432.3812,435.7
432.4258,368.4
432.694,333.8
432.7406,20.8
433.0559,560.7
433.241,266.5
433.4549,99.5
433.4653,442.9
433.4887,369.6
433.5454,222.6
433.5727,143.1
433.584,19.6
433.89,285.7
433.9128,384.3
434.0728,407.6
434.1036,369.7
434.141,18.8
434.3617,21.6
434.4196,392.2
434.6898,275.5
434.9125,178.6
434.9563,20032.8
434.97,100
435.4315,198.4
435.8323,115.8
436.2611,127
436.5197,17.7
436.8597,779.2
436.9268,116.9
436.9541,376.6
437.1008,149.3
437.1863,19.4
437.2054,1122.3
437.3407,413.7
437.5597,311.1
437.9401,125.2
437.9949,262
438.0569,329.6
438.1965,857.1
438.2298,119
438.2606,105.2
438.7572,556.8
438.8728,360.1
438.9725,2338.7
438.9851,2974.6
439.2037,655.6
439.49,171.5
439.6064,58.2
439.7765,122.4
439.8009,21.8
439.9029,369.7
439.9254,100.1
440.0282,59.5
440.5581,136.8
440.8645,455.8
440.97,508.4
441.004,114.5
441.2703,100.8
441.2983,297.8
441.4492,639.7
441.7101,133.8
441.7215,141.1
441.9439,105.5
441.9526,21.1
442.2101,202.1
442.3013,47.1
442.4029,434
442.7223,446.8
442.7364,633.8
443.1068,151.8
443.727,287.1
443.8235,413.8
443.8684,312
444.2133,136.6
444.2232,344.3
444.2421,531.2
444.3326,131.6
444.3806,342
444.4262,138.5
444.5083,105.7
444.5872,516.5
444.7226,457.7
444.8341,286.3
445.0663,869.7
445.2322,1019.5
445.2701,997.7
445.3902,160.7
445.4172,20
445.5256,426.1
445.7806,433.8
446.2462,634.4
446.3393,183.6
446.375,119
446.6541,236
446.7631,495.7
447.2136,726.2
447.4444,553.5
447.551,125.6
448.2621,449
448.3841,18.8
448.4237,446.2
448.5433,115.3
448.7588,412.8
448.8077,518.5
448.9336,5684.2
449.1547,2048.9
449.2158,624.9
449.3803,66.4
449.4397,506.4
449.7109,21.1
450.0598,384.6
450.0809,72.2
450.158,379.3
450.2022,554.3
450.3675,327.5
450.4018,114.7
450.6552,142.9
450.7,401.7
450.8217,770.2
450.8519,449.6
450.8681,209.4
450.9306,1280.7
451.15,119.8
451.1581,693.7
451.6533,293.2
451.6638,488.1
451.7894,412
451.9112,114
451.9663,383.2
452.1522,20.6
452.1748,611.6
452.6493,645.9
453.147,20.7
453.2856,270
453.4132,850.2
453.4243,19.2
453.8563,710.3
454.0497,246.1
454.1393,253.6
454.3788,757.9
454.413,60
454.7985,103.7
454.9503,36197.6
455.0188,459.8
455.0616,18.9
455.1622,122.1
455.6852,307
455.701,141.3
455.8732,116.8
455.9532,967.9
456.0058,19.5
456.7006,423.5
456.7814,657.9
456.8417,106
456.9476,8909.6
457.2333,8793.1
457.3328,20.3
457.5395,448
457.6889,134.7
457.7706,259.7
457.8277,172.9
457.9505,908.7
458.3421,453.2
458.5199,132.7
458.6064,174
458.6516,86.7
458.6907,18
458.7701,217
458.9436,327.4
458.9623,3964.5
459.0155,116.4
459.249,459645.4
459.3195,156.5
459.3449,104.4
459.3582,23
459.4078,686.1
459.5215,107.8
459.5405,144.8
459.6254,280.7
459.9349,18.4
460.1973,284.7
460.2524,98797
460.2851,95.1
460.3672,135
460.5367,228.1
460.6815,779
460.7306,113
460.865,501.5
460.9672,77052.7
461.0027,142.4
461.0449,435.8
461.2065,455.5
461.2558,7150.8
461.3013,360.8
461.5182,164.2
461.7078,293.5
461.8122,134.1
461.8233,17.2
461.9705,5004.2
461.9979,584
462.0702,151.8
462.5157,691.5
462.7653,418.1
462.9642,20864.7
462.9763,145.7
463.0659,20.5
463.0833,18.9
463.1153,623.2
463.1442,364.4
463.5597,130.8
463.8268,160.8
463.9306,156.6
463.9677,955.4
464.0762,194.4
464.0847,20.2
464.1009,18
464.6026,339.4
464.7336,455.3
464.7717,110.1
464.7897,421.4
464.865,401.5
464.9794,9439.1
465.1318,292.6
465.4842,547.6
465.7333,476.9
465.7482,400.3
465.8083,116.5
465.9285,108.9
465.9822,703.2
466.0459,184.5
466.207,149
466.2986,18.3
466.3711,699.7
466.5269,113.3
466.6217,162.8
466.6435,250.2
466.6525,18.4
466.7289,410.9
466.8469,156.8
467.0605,165.8
467.5563,61.6
467.8371,95.4
467.8638,115.5
467.9509,353.2
468.2831,584.4
468.3095,575.5
468.4227,21.9
468.6168,140.4
468.6591,21.1
468.7294,127.2
468.8457,388.9
469.1417,62.5
469.1812,21.7
469.4113,477.9
469.4361,521.4
469.4533,691.4
469.8477,101.6
469.9808,230
470.3792,591.4
470.4408,130.5
470.5198,685.8
470.5813,232.2
470.5995,470
470.6314,457
470.8786,356.8
470.924,17707.6
470.9961,2636.1
471.1892,335.3
471.2773,492.3
471.3778,18.9
471.45,481.9
471.5501,18.7
471.674,133
471.7168,50.3
471.7284,499.4
471.873,329
471.9268,497.4
471.9699,51
472.1222,22.2
472.251,180.8
472.3057,873.6
472.399,20.8
472.4604,204
472.4837,264.5
472.6393,105.2
472.6738,397.2
472.7401,71.1
472.9082,20.6
472.9214,4775.1
472.9385,1442
472.9521,969.9
472.9662,945.1
472.9689,921.2
472.9773,281.2
473.0075,1044.4
473.1491,175.1
473.2062,113.7
473.2646,4206.3
473.2993,605.4
473.6783,112
473.6928,172.3
473.8206,86.1
473.9065,332.3
474.0534,292.8
474.1354,770
474.1861,24.6
474.4109,260.6
474.4221,19.7
474.5682,591.5
474.6935,21.9
474.7609,699.9
474.849,107.4
474.9972,157.7
475.0069,18.7
475.0538,165.4
475.2006,291.6
475.223,22057.6
475.2418,771.8
475.3002,507.9
475.3968,417.2
475.4645,17.8
475.6353,346
475.8933,215.6
476.0403,605.4
476.0927,18.6
476.226,4662.3
476.7573,1302.4
476.9411,42619.4
476.9551,600.7
477.0388,85.6
477.2205,497.8
477.2461,80.3
477.2609,33.2
477.267,22.8
477.3197,21.6
477.6336,304.1
477.9445,2903
478.0379,142.9
478.3299,48445
478.9382,14264.1
478.9977,158.8
479.2938,129.8
479.3333,7352
479.4719,232.4
479.9416,929.7
480.043,124.4
480.0518,288.3
480.6363,156.4
480.662,618.2
480.8347,130.3
480.8796,326
480.89,159.9
480.9215,259.8
480.938,272.9
480.953,3613.4
481.0928,121.2
481.2327,1951.1
481.3465,412.3
481.4262,316.9
481.472,22.9
481.4925,54
481.6812,818.2
481.9295,451.4
482.0372,159.9
482.0971,22
482.1211,18.9
482.1599,543.7
482.3475,570.9
482.3596,684.1
482.5213,117
482.5974,178.2
482.752,97.6
482.8512,133.3
483.0831,401
483.0941,365.2
483.2491,160112.2
483.3095,382.2
483.4574,216.6
483.8087,592
484.0113,21.2
484.0373,390.2
484.1683,57
484.2525,35536.8
484.2849,123.3
484.4294,160.1
484.5003,623.2
485.0479,454.7
485.0694,19.6
485.2345,311
485.2646,112452.4
485.2791,140.9
485.2963,344.5
485.6089,124.6
485.7151,602.4
485.8619,486.9
486.0686,294.8
486.2678,27960.9
486.3286,624.1
486.4316,93.5
486.6764,467
486.6917,264.9
486.8979,1159.1
486.9858,27.4
487.0197,368.7
487.1275,249.4
487.1512,26.5
487.2803,94389.4
487.3564,61.3
487.4928,355.6
487.7712,138.5
487.9094,172.6
487.9443,430.1
488.1976,692
488.268,353.1
488.2835,22327.2
488.8392,117.2
488.883,21.9
488.8954,443.7
488.9382,21
489.0859,26.8
489.1004,18.6
489.1571,203.6
489.266,145.8
489.2926,676.2
489.3043,651.8
489.3556,1820.9
489.4053,538.3
489.4645,533.5
489.4824,247.6
489.5012,267.8
489.5299,545.8
489.5455,759.2
489.5954,50
489.6821,22.7
489.7062,246
489.9079,112.1
489.9901,450.2
490.1612,137.3
490.2799,143.5
490.2914,7172.3
490.4302,53.3
490.7592,48.5
490.794,214.8
491.0858,389.5
491.126,85.3
491.2126,132.5
491.3693,146.5
491.3876,640.4
491.4723,229.9
491.5513,112.4
491.6358,23.6
491.9551,413.5
492.1227,529.8
492.2995,117.5
492.3423,187.8
492.4713,19.3
492.774,127.9
492.9151,8177.9
492.9776,122.6
493.9172,344.8
494.011,100.2
494.1389,345.2
494.2849,612.8
494.3248,6574.5
494.4042,552.8
494.4324,761.5
494.5766,20.8
494.868,239.5
494.9126,3496.2
494.9838,181.5
495.0054,107.1
495.1026,105.6
495.3063,531.6
495.332,234.5
495.3989,88
495.589,765.8
495.6857,164.2
495.7115,612.1
495.9723,278.2
496.2468,193.9
496.3406,453732.9
496.3797,53.8
496.5745,139.3
496.7934,457.9
497.0917,611.6
497.1094,513.5
497.3439,107343.7
497.4037,148.7
498.1421,636.3
498.2416,343.4
498.3467,11687.2
498.377,109.5
498.6329,596.8
498.8746,22.8
498.9284,835.4
498.9676,103.9
499.2229,8499.9
499.2451,177.2
499.2731,598.2
499.3778,17.8
499.5081,18.6
499.5164,139.2
499.6981,149.5
499.7897,280.7
499.8986,21.3
500.2255,1193.9
500.3064,129.9
500.699,628.2
500.7861,186.7
500.9428,373
501.1517,644.2
501.2081,608.1
501.2388,4776.1
502.0623,467.5
502.1104,196
502.2432,1183.1
502.3299,21979.5
502.4345,18.4
502.6926,432.4
502.7313,102.7
502.7616,197.2
502.9882,847.6
503.1083,68.6
503.1284,132.4
503.2544,6279.3
503.3335,4141
503.6342,426.8
503.7559,18.4
503.7872,413.2
504.1486,118.9
504.159,18.6
504.1783,123
504.2573,660.2
504.277,122.7
504.3066,3314.6
504.345,12969.4
504.6129,122.8
504.6553,126.6
504.6813,124.8
504.7588,120.2
504.9,290.8
505.1487,99.7
505.239,140.9
505.3477,834.1
505.6221,126.1
505.6572,477.9
505.7275,110.9
506.3345,171.3
506.3607,6233.2
506.4304,175.6
506.6309,113.2
506.7556,604.9
506.8565,525
506.8919,4022.2
507.2489,23934.9
507.3643,1114.1
507.426,17.9
507.5552,632.3
507.6288,294
507.6452,193.4
508.0019,607.1
508.0654,383.1
508.2522,5429.9
508.2936,105.8
508.3759,321.4
508.3902,122.3
508.6297,98.9
508.8473,416.7
508.8634,232.5
508.8886,2601.3
509.0054,2279.5
509.0202,525
509.1148,449
509.1272,168.8
509.2645,17134
509.3983,591.7
509.5789,125.2
509.6856,168.7
510.0415,106.9
510.2097,519.5
510.2681,4467.8
510.2941,618
510.3565,5808
510.3918,62.3
510.5888,291.7
511.0525,158
511.125,29.5
511.2426,119.6
511.4386,340
511.5517,174
511.7272,118.9
512.0723,119.7
512.132,105.7
512.3346,532.3
512.5274,22.5
512.5447,132.4
512.6632,309.5
512.6872,152.3
512.8476,222
512.9091,14749.9
513.2649,394.8
513.3569,691.3
513.3871,293.2
513.581,19.8
513.5947,54.1
513.7657,47.6
513.7799,130.5
513.9384,352.2
514.3183,627.7
514.3425,49.4
514.7738,326
514.906,9020.7
515.0217,1065.3
515.1526,769.5
515.3439,246.1
515.3587,170.6
515.5917,204.6
515.7908,405.3
515.9133,20.4
516.1101,154.9
516.3069,16850.8
516.5527,121.5
516.772,157.8
516.9048,801
516.9204,2091
517.1185,97.9
517.1449,575.2
517.311,1226
517.3581,113.5
517.4916,155.5
517.5373,475.7
517.682,162.5
517.6973,82.8
517.9069,527.9
518.12,108.1
518.3225,746616.6
518.4799,481.4
518.6225,328.6
518.6545,580
518.9258,25157.4
519.0813,470.6
519.1284,189.4
519.1836,109.3
519.2952,419.5
519.3259,185943.8
519.3698,145.5
519.3906,137.6
519.4095,232.6
519.6919,368.6
519.7128,100.7
519.9279,1963
519.9655,629.9
520.1396,736.4
520.2457,194.4
520.282,847.2
520.3405,148966.8
520.6129,271.1
520.707,471.6
520.9229,17701.8
521.1782,599.6
521.3438,38896
521.5007,416.3
521.9263,395.4
522.0145,343.9
522.2305,109.8
522.2576,1547.5
522.3562,123990
522.7504,116.3
522.7797,475.1
522.9196,1432.3
522.9377,6772.7
523.0643,233.1
523.15,83.5
523.1972,411.3
523.2399,270.7
523.3596,33625.4
523.6863,102.8
523.8189,384.2
523.8845,49.7
524.0253,158.9
524.0381,221.3
524.0614,962.3
524.2582,20
524.2699,662.7
524.3719,130729.4
524.4209,181.1
524.5126,108.1
524.6874,435.6
524.937,660.1
524.9799,734
525.1228,246.6
525.1444,412.8
525.2471,19.9
525.3055,116.3
525.3752,31907.9
525.4072,203.9
525.5178,676.3
525.5549,335.5
525.6192,293.2
526.1811,175
526.3302,2248
526.3781,976.4
526.8848,121.9
526.9502,537.6
527.0019,165.6
527.1402,109.4
527.1586,394
527.2088,21
527.2547,169.8
527.3717,481.6
527.6744,833.6
527.9344,758
527.9833,188.1
528.2125,128.3
528.3423,254.3
528.3792,23.2
528.4832,307.8
528.8831,8649.2
528.9549,3190.5
529.0433,218.4
529.2167,108.7
529.2395,90.6
529.7559,121.4
529.843,240.3
530.1636,702.1
530.2899,566.5
530.3116,120.4
530.3239,126.8
530.3579,1572.3
530.5869,312.8
530.7106,136.3
530.7223,754.1
530.8801,4876.7
531.1016,288.4
531.2492,4165.7
531.6215,450.9
531.6364,116.4
532.0517,448.9
532.2803,3820.9
532.3385,9683.6
532.4393,213.2
532.9503,666.4
532.9664,2419.1
533.1098,106.2
533.207,97.7
533.3262,501.4
533.3419,754.7
533.981,111.4
534.0259,596.3
534.2966,208894.7
534.3186,1144.9
534.3333,908.1
534.345,248.7
534.4557,97
534.6533,694.7
534.7113,99.9
534.8682,487
534.8998,16834.2
534.9363,241.7
535.0947,234.3
535.2999,50468.7
535.5864,286.2
535.7972,18.7
535.9029,894.4
535.921,634.9
535.94,146.7
536.052,392.3
536.295,11871.9
536.5132,150.5
536.6182,229.2
536.6542,520.5
536.7368,320.4
536.8077,197.2
536.8689,508.1
536.8969,10929
537.0468,559.4
537.0848,109.1
537.2979,818.2
537.329,156
537.9595,114.3
538.0708,134.7
538.225,689.5
538.2611,525.2
538.3873,571.2
538.4542,119.9
538.474,17.3
538.5675,330.9
538.8941,1631.8
538.9117,2171.5
538.9361,382.7
538.9951,1217.4
539.1024,220.3
539.1335,324.9
539.319,1143.9
539.3932,19.3
539.7968,637.8
539.8366,133.2
540.1229,367.9
540.3056,714.6
540.393,545.9
540.4706,138.8
540.5972,134.2
540.9105,369.2
541.2052,507.1
541.3093,132.6
541.3428,218.1
541.5183,527.7
541.6098,248.4
541.6605,315.9
541.8447,378.4
541.9712,120.6
542.2163,253.1
542.2528,131.2
542.3226,230191.5
542.5007,58.8
542.6312,294.8
542.6599,439.6
542.7816,142.9
543.0747,609.5
543.2452,141.8
543.3261,63126.6
543.4012,183.5
543.4894,301.4
543.7286,156
543.7886,369.1
543.8307,560.8
543.9946,112.8
544.0857,489.7
544.2733,579.1
544.3383,202785.1
544.5367,72.5
544.8566,1071.5
544.874,111.6
544.8971,749.3
544.9474,2177.8
545.0078,120.5
545.0266,18.9
545.1433,423.6
545.1797,117.6
545.238,670.5
545.2805,122.5
545.3417,55967
545.4907,184.6
545.5485,86
545.8257,172.6
545.9923,525.6
546.2591,1193.2
546.3539,198521.8
546.6443,105.3
546.7342,262.3
546.8516,361.6
546.8987,181.2
547.2873,141.8
547.3574,51389
547.4561,116.6
547.8029,19.6
548.0201,335.1
548.1555,321.7
548.3114,743.2
548.361,6300.6
548.8763,53
549.0534,124.3
549.3771,614.4
549.3961,644.9
549.4404,113.6
549.6374,259.2
549.9903,351.1
550.0677,570.2
550.0945,334.5
550.2594,165
550.589,130.7
550.6682,136
550.8741,3855.8
550.9644,911.8
550.9949,103.4
551.0658,143.8
551.8093,28.3
551.8212,194.8
551.8925,117.1
552.0266,417.1
552.5318,440
552.5448,540.9
552.6792,610.4
552.8714,4012.5
552.8867,21.3
552.9856,355.3
553.2511,131.5
553.4356,128
553.4563,401.7
553.5015,112.6
553.5877,233.6
553.6978,292.7
553.8181,311.2
553.8628,395.8
554.0457,210.2
554.1076,499.8
554.169,281.9
554.2183,102.3
554.3045,128.6
554.5065,148.2
554.6275,49
554.8143,303.9
554.8442,17.5
554.8697,143
554.9107,365.3
555.4298,513.9
555.8311,121.6
555.959,441.1
556.1801,738.2
556.4467,168.4
556.488,24.3
556.7033,22.4
556.7987,146.7
556.965,113.8
557.2723,46.5
557.4297,457.3
557.8261,293.6
558.0091,109.7
558.0416,563
558.1587,421.4
558.2966,70860.4
558.8702,58.2
559.1257,138.1
559.3001,16297.3
559.4141,696.7
559.5677,216.9
559.9439,98.8
560.0786,106.3
560.2951,2479.2
560.3122,54523.1
560.393,231.7
560.4133,124.8
560.5298,106.2
560.7454,270.1
560.9186,455
561.2486,473.1
561.2991,822.4
561.3156,10966
561.4144,1452
561.6758,100
561.7587,671.7
561.8617,593.5
561.9492,135.4
562.1214,175.1
562.2417,298.4
562.3111,1155.9
562.328,49571.1
562.6307,364.7
562.7199,19.9
563.0217,20.7
563.3314,13673.5
563.4984,17.8
563.5567,260
563.5898,471.6
563.6758,186.8
563.8601,212.1
563.9458,558.1
563.9625,300.5
564.1745,425.8
564.3075,708.2
564.3271,2208.2
564.5901,390.5
564.6851,319
564.7409,378.5
564.8969,413.9
565.0735,159.2
565.1663,124
565.3709,361.8
565.7295,370.6
565.7455,138.7
566.1514,539
566.1643,492.3
566.2601,185.5
566.3227,33237.8
566.8123,126.9
566.9759,230.9
567.0861,499.5
567.2958,60.3
567.3258,7460.3
567.4643,126.4
567.5442,108.2
567.5634,325.9
567.6448,553.8
567.6882,21.4
567.9562,127.6
568.1969,394
568.2292,296.7
568.3074,383
568.3383,26460.2
568.4467,166.7
568.7474,155.5
568.9598,363.2
569.0387,53.7
569.0643,553
569.2255,260.8
569.2831,18.3
569.3416,7245.1
569.7539,344
569.9211,361.2
570.022,123.2
570.1167,396.8
570.3513,731.5
570.5526,20.9
570.7596,808
570.8675,5161.9
571.059,861
571.2832,403.1
571.3693,862.4
571.4359,606.5
571.9621,318.8
572.148,123.6
572.3078,18.8
572.3721,1140.8
572.6451,50
572.865,3977.5
572.9821,401.8
573.0132,166.8
573.7587,19.7
573.8055,450.5
574.2824,2637
574.4139,18.4
574.8616,382.6
575.3771,323.2
575.423,17.9
575.5045,11983.4
575.7057,141.3
575.8334,649.4
576.2812,8328.3
576.3862,139.2
576.7997,203.4
576.8363,165.4
576.8846,8888.6
576.9988,123.6
577.1514,579.3
577.287,1179.1
577.4012,539.9
577.5198,85.7
577.6899,577.5
577.7994,208.2
577.9707,643.2
578.277,526.1
578.5182,179.8
578.6324,752
578.8816,8599.6
579.2303,112.2
579.8556,794
580.0962,187.4
580.1783,116.6
580.4069,20.1
580.8783,2131
580.8971,1928.4
581.0371,60
581.8012,727
581.8069,459.9
582.043,269.3
582.2126,320.5
582.2303,634.9
582.2971,8896.8
582.3132,205.3
582.3286,870.1
582.3491,235.5
582.3967,231.2
582.4045,455.8
582.4093,414.7
582.4242,294.9
582.4547,140
582.4723,486.2
582.4993,215
582.5147,480.7
582.5289,203.1
582.5819,664.8
582.6075,160.6
582.6317,418.4
582.6504,110.3
582.7049,129.4
582.7493,159.7
582.7672,521.7
582.895,445.4
582.9391,483.4
583.4237,411.2
583.5908,264.6
583.8497,763.4
583.9059,834.2
584.0339,310.5
584.3123,6827.1
584.3267,457.3
584.4129,18.5
584.5937,19.8
585.0449,157.8
585.0587,307.9
585.1494,599.8
585.1899,134.5
585.2713,1303.8
585.793,259.1
586.1321,297.5
586.31,6448.8
586.4105,156
586.8154,20.6
586.8415,2514.8
586.9142,515
587.0424,116.3
587.1762,20
587.2854,564.6
587.3201,92.9
587.4194,594.7
587.5044,297.4
587.6001,21.4
587.6352,19.8
587.8287,340
588.0484,461.5
588.4053,139.4
588.4883,231
588.5482,550.6
588.6339,644.8
588.8389,3015.9
588.9099,527
589.3155,62.1
589.3524,195.5
589.6739,149.1
590.0079,567.8
590.0872,18.7
590.1847,219.5
590.3226,5758.7
590.7031,220.2
590.7212,113.7
590.8467,413.3
591.0353,169.9
591.2612,367.4
591.4135,288.5
591.6046,828.7
591.7528,377.1
591.7734,311
591.8759,369.2
592.0142,653.9
592.0771,249.1
592.2562,845.2
592.27,228.9
592.3398,878.3
592.3747,59.7
592.3858,316.7
592.5555,19.6
592.6019,168.5
592.7164,52.3
592.8063,18
592.8277,110.5
592.8588,7447.8
592.8922,258.6
593.3866,109.3
593.53,130.7
593.5997,17.8
593.729,633.1
593.9855,447
594.1524,118.6
594.2125,812.6
594.3213,588
594.5461,100.7
594.7311,199.6
594.8559,7999.6
595.0437,123.2
595.8586,389.9
595.9861,169.5
596.2388,646.7
596.2522,189.8
596.3533,452.4
596.8236,520
596.8535,2187.1
596.8711,1029.1
597.1055,765.7
597.2125,650.6
597.3048,218.7
597.4505,5146.1
597.4701,413.8
597.4864,14340.9
597.5251,131.5
597.5848,138.8
597.7402,142.8
598.0947,144.6
598.099,149.3
598.2628,300.9
598.4645,429
598.4898,2357.3
598.6722,153.6
598.7825,394
598.826,632.2
598.8782,263.5
598.9495,305.8
599.0207,804.1
599.2021,554.9
599.4574,984.4
599.4677,1711.8
599.5039,2466.9
599.7439,145.7
600.2818,1319.5
600.4649,128.7
600.5087,159.8
600.6396,191.9
600.6971,22
600.7596,321.7
600.8138,210
600.9128,656.1
601.3114,512
601.4303,21.9
601.4489,705.9
601.5217,907.3
602.297,684.6
602.4646,1050.6
602.7973,221.4
602.8164,380.8
602.8685,530.2
602.8876,368.2
603.0446,389.9
603.3057,659.4
603.5376,60.6
603.7247,24.5
603.8174,638.5
603.8464,163
604.042,327.4
604.2981,640
604.312,1268.8
604.4575,307.4
604.629,332
604.7279,163.7
604.8145,486.8
604.9419,120.5
605.325,678.7
606.5953,63.2
606.7312,445.5
606.8076,305.8
606.8178,18.6
606.884,369.6
606.9712,800.1
607.1717,11572
607.3863,142.5
607.4285,128.7
607.8976,101.5
608.1606,762.4
608.1756,1471.4
608.2375,847.7
608.5123,123.3
608.8331,2219.5
608.8844,142.2
609.4122,409.1
609.4745,540.9
609.5744,349.2
609.6333,20.9
609.7922,441.2
610.2701,157.2
610.3739,467
610.4825,230.8
610.4963,159.3
610.5787,313.6
610.8309,2482.8
610.8572,330.2
610.9269,152
611.267,647.1
611.4627,584.3
611.4772,19.5
611.6827,113.6
611.9879,138.6
612.5876,22.7
612.649,54.6
612.8297,422.2
612.8895,112.5
612.9352,101.8
613.4849,738.9
614.1783,19.6
614.2115,1125.6
614.4259,416.5
614.6847,132.2
614.8488,323.2
614.969,109.9
615.2039,153.1
615.244,641.8
615.2664,142.1
615.4217,457.5
615.459,1475
615.5863,365.9
615.7226,21.7
615.7843,114.2
615.9087,158.4
616.0096,443.7
616.3193,774.3
616.4351,20.2
616.4664,753
616.6369,585.7
616.8206,660.3
616.8444,372.1
616.9493,112.1
617.0297,623.8
617.1212,463.7
617.4764,10959.5
617.5878,117.8
617.8437,385.6
618.0141,690.1
618.2899,125.9
618.2962,128.7
618.4227,425.1
618.4518,470.2
618.4804,2169.7
618.6777,238.3
619.0248,509.5
619.0937,242.5
619.1799,21.2
619.2062,162
619.2217,491.5
619.2563,260.4
619.3051,675.7
619.492,11112.2
619.9322,374.5
619.9449,156.9
619.9494,183.9
619.9553,145.8
620.1275,180.8
620.2776,333.9
620.3273,279.1
620.4954,1922.4
621.1554,159.4
621.4548,2095.1
621.4682,939.2
621.4855,3572.8
621.904,89.9
621.9367,389.6
621.9845,196.2
622.002,545.1
622.4489,337.7
623.0614,158
623.1368,36562.9
623.4661,1251.7
623.4742,1399
623.5017,3240
623.5359,105.7
623.5415,105.3
623.7624,154.1
624.1403,6437.8
624.2537,307.1
624.4235,181.8
624.4837,434.9
624.5978,557.8
624.8213,20.8
625.013,158.1
625.0671,252.5
625.1413,281.7
625.2304,569.3
625.4866,200.9
625.5024,577.8
625.517,819.3
625.9586,284.9
626.2817,205.6
626.3789,19.3
626.4889,598.1
626.6596,58.3
626.8058,496.5
626.9232,623.7
626.9616,80.6
626.9785,1382.7
627.129,169.2
627.2868,58.5
627.4968,705.3
627.5344,720.8
627.6206,181.4
627.96,611.1
627.9776,131.5
628.2001,120
628.4576,25.2
628.5393,52.6
628.7717,311.7
629.1537,80786.4
629.55,116.4
630.1574,14421
630.4094,269.8
630.9389,515.8
630.9718,137.2
631.0553,397.7
631.1404,135.9
631.1582,1627.1
631.3609,639.3
631.4533,486.1
632.0295,155.9
632.4893,160.2
632.9363,704.4
633.464,19.8
633.7075,252.8
633.929,340
634.0127,509.3
634.3732,18.2
634.5511,121.8
634.8422,3235.9
634.9408,225.5
635.0043,167.7
635.0532,615.7
636.359,18.2
636.3852,306.1
636.4748,443.4
636.5633,121.6
636.8398,3026.2
636.9113,131.3
637.5177,191.3
637.5742,494.9
638.4776,177
638.6225,584.7
638.6884,141
638.7256,126.5
638.8372,551.4
639.2373,474
639.687,22.1
639.8117,328.6
639.8672,98.9
640.9964,574.5
641.093,105.1
641.4495,199.2
641.5142,52.3
641.8239,490.8
641.9755,789.4
642.0792,469.7
642.2604,550.2
642.3527,215.5
642.4475,112.2
642.729,114.2
643.0205,195.5
643.7717,411
643.9197,18.1
644.1639,267
644.2505,370.6
644.3058,207
644.682,18.6
644.8471,528.7
644.9885,171
645.1187,26213.5
645.1265,20848.9
645.4369,180
645.6408,123.7
645.7597,257.2
645.8123,947.1
646.1228,3666.9
646.2897,19.1
646.4321,753.8
646.5075,21.9
646.8362,240.6
646.9481,208.3
647.0474,23.5
647.0701,373.4
647.0947,844.1
647.1246,515.9
647.3137,356.1
647.356,250
647.9424,793.4
647.9569,137.7
647.9674,118.2
648.1119,311.8
648.1885,569.3
648.2271,19.1
648.2899,117.2
648.5006,157.8
648.6345,116.9
648.8963,516.9
649.4684,466.4
649.8775,205.7
649.8934,162
650.3139,710.8
650.4399,4046.7
650.5187,105.1
650.571,481.2
650.6055,98.5
650.7046,132.7
650.7711,151.3
650.8175,2524.2
650.8866,17.7
651.1356,67992.6
651.5377,18.7
652.1393,12134
652.8147,2769.8
652.846,388
652.9266,167
652.9835,666.5
653.1112,690.1
653.1402,1161.2
653.3459,830.4
653.3658,539
653.8861,106.7
654.007,386.7
654.5899,155.2
654.6121,19.7
654.641,235.3
654.6556,230
654.6911,102.7
654.8115,1182.1
654.9195,141.9
655.2426,288.8
655.3212,776.9
655.4445,130.4
655.9747,118.5
656.0149,199.6
656.1551,562.8
656.1712,341.9
656.2825,346.7
656.2936,338
656.7121,362
656.8288,355.4
656.9144,450.2
656.9301,356.7
656.9519,314.7
657.2102,462.9
657.3007,31.9
657.3546,185.5
657.6774,155.6
658.281,102.6
658.3948,295.4
658.4305,163.4
658.6459,89.1
658.7437,505.1
658.8961,17.5
659.5259,254.1
659.7488,179.8
660.0577,105.4
660.2273,199.1
660.446,917
660.7171,56.2
660.8478,399.6
661.0835,14118.8
661.211,202.8
661.4041,680.7
661.4679,1579
661.8949,139
662.0881,441.3
662.202,789.5
662.2879,295.7
662.3466,63.1
662.4784,1174.2
662.5511,497.5
662.7654,128
663.0758,131.4
663.0904,125.4
663.2001,130.9
663.4096,546.5
663.4548,1334.3
663.7932,590.2
663.9915,19.5
664.0171,444.4
664.0422,18.9
664.0568,420.4
664.0705,513.1
664.1453,146.1
664.2136,436.2
664.3429,766.7
664.4686,1740.1
664.4914,142.1
664.6147,393.5
664.6678,571.4
664.7062,56.7
665.1194,153.6
665.6802,257.7
665.781,425.9
665.8635,353
666.4847,6287.2
666.7908,408.7
666.833,216.6
667.1001,31204.9
667.1633,113.3
667.1711,127.5
667.1785,99.2
667.286,24.3
667.3286,99.1
667.4635,267
668.1041,3637.8
668.1326,564.5
668.2147,189
668.2626,469
668.7876,974.5
669.0322,463.3
669.1081,107.2
669.3145,54
669.487,506.5
669.6089,375
670.1095,131.8
670.339,120
670.6389,598.7
670.6573,435.9
670.7461,530.7
670.8048,503.9
670.8273,130.5
670.8403,195.1
670.9436,762
671.059,156.1
671.6983,19.8
671.9023,181.1
672.2933,213.3
672.4228,3579.4
672.45,534.3
672.7946,314.2
672.9429,30.2
673.1175,58680.7
673.4696,119.6
673.5431,125.3
673.9146,243.2
674.121,10070
674.519,523.3
674.6615,104.9
675.0918,401.8
675.124,334.1
675.1493,78.9
675.3043,174.4
675.3383,235.1
675.4278,149.8
675.5446,13407.3
675.6696,164.2
675.7267,68.2
676.0478,119.7
676.1921,21
676.3235,727.6
676.4927,115.6
676.5293,134.7
676.5465,2704.6
676.7965,197.9
676.8313,312.4
676.8783,113.4
676.9305,549.2
677.0029,115.7
677.061,619.1
677.2836,123.2
677.3414,117.1
677.4551,135.5
678.0962,126.6
678.1176,385.2
678.2669,54.1
678.464,604.1
678.5143,211.4
678.9051,129.6
678.9547,110.2
679.0529,542.1
679.7173,105.9
680.0463,391.8
680.3204,21.8
680.8124,236.8
681.5046,586.3
681.9986,142.1
682.0075,140.9
682.0648,719.3
682.426,193.1
682.4586,761.8
682.6097,399.5
682.7555,359.3
682.9248,691.2
683.0651,8268.2
683.1578,19.2
683.3334,123.2
683.6864,119.4
683.9536,177.9
684.071,689.1
684.3113,168.6
684.3845,50.2
684.8312,533.6
684.8698,240.9
684.9147,208.3
685.4366,5553.6
685.8615,579.4
686.0293,214.9
686.1983,20.2
686.2462,87.7
686.3409,264
686.4423,521.8
686.5749,19.3
687.1488,775.5
687.1666,57.9
687.3701,732.6
687.5168,172.3
688.6615,121.8
688.9075,20.6
689.0817,21938.9
689.0915,19737.8
689.5228,57.2
689.5608,2401.7
689.8126,261.2
689.9402,481.5
690.0867,3051.1
690.0921,2833.3
690.231,479.1
690.2723,727
690.3156,446.9
690.4531,596.6
690.5648,1524.5
690.5873,349.9
690.6276,125.9
690.914,18.7
691.0674,293.2
691.0891,589.3
691.239,343
691.3142,117.4
691.3486,18
692.0154,296.4
692.0893,120.3
692.1555,141.7
692.2076,19.8
692.5323,208.5
692.8406,620.2
693.3901,59.8
693.5363,489.6
693.63,471.3
693.9513,342.7
694.0679,129.8
694.7179,448.2
694.799,1051.6
694.8485,208.1
695.0996,38359.4
695.4644,796.7
695.5099,667.6
696.1031,6027.1
696.6969,755.6
696.7131,573.5
696.7966,413.8
696.8624,642.3
696.9316,629.6
697.145,154.4
697.2374,21.5
697.499,99.9
697.5268,17295.1
697.9109,266.4
698.0729,360.7
698.2785,47.4
698.5301,5903
698.6002,460.4
698.8516,167.6
699.7892,621.2
699.9222,122.3
700.1495,21.3
700.5531,309
700.7622,137.5
700.8089,313.7
701.0084,187.8
701.3232,19.2
701.3867,774.7
701.41,327.3
701.5603,28229
701.6271,136.7
701.7581,285.8
702.0916,56
702.1652,706.4
702.2084,191.8
702.3423,3792.9
702.5277,772.2
702.5638,10547.1
702.7964,226.7
703.1567,653.6
703.3456,519.4
703.5349,205.5
703.5762,94945.1
703.8444,349
703.9157,293.6
704.0171,289.5
704.0456,168.1
704.3773,445.1
704.4494,4742.5
704.5795,32974.6
704.6507,188.1
704.7048,19.6
704.7833,56.6
704.8716,309.6
704.8975,590.8
704.9705,128.4
705.0298,382.5
705.0561,5384.1
705.2178,305.3
705.4513,624.5
705.5824,3264
705.6734,25.6
705.8529,323.7
706.0152,401.7
706.0596,170.9
706.0814,165.9
706.4097,16.8
706.5392,1280.9
706.5858,478.4
707.1497,142.8
707.1776,142
707.202,773.2
707.4218,141.7
707.7695,115.4
708.0035,131.9
708.1119,362.8
708.2462,410.2
708.4748,21.5
708.5379,524.2
709.5094,467.6
709.5803,460.6
709.6894,627.9
709.8668,560.3
710.6348,336.1
710.8342,399.5
710.8931,140.9
711.0632,12122.1
711.0744,14607.3
711.4545,116.7
711.5428,3348.1
712.0786,2240.5
712.2516,17.3
712.3623,108.9
712.392,146.1
712.4598,577.5
712.7714,318.2
712.8346,371.4
713.0629,123.4
713.1884,123
713.2063,542.1
713.3661,112.1
713.5012,1028.4
713.7735,266.4
714.0383,119.7
714.3783,136.4
714.4083,642.7
714.5017,403.2
714.5976,309
714.6491,118
714.8389,19.8
714.9911,699.1
715.1504,844
715.3161,228.3
715.4339,353.2
715.5826,491.1
715.6153,269.2
715.9075,406.5
715.9511,118.9
716.0742,17.5
716.2737,51.6
716.3437,144.4
716.5663,125.4
716.744,121.6
716.8072,326.8
717.0812,16929.8
717.1612,301.1
717.4215,1064.4
717.52,426.5
717.6797,150.2
718.0844,1655.1
718.3924,113.8
718.5113,19.5
718.8796,21.4
719.1861,123.2
719.3334,118.5
719.6996,119.4
719.9612,432.6
720.2519,1038.1
720.4233,769.9
721.3972,212.3
721.4793,62288.2
721.8393,371.5
722.4825,23733
722.5983,619.4
722.6314,216.7
722.7116,124.1
722.8153,91.5
722.8454,523.8
723.0173,141.3
723.2817,133.4
723.333,122.7
723.4079,723.8
723.4962,12908.8
723.5427,30778.1
723.7058,615.7
723.7483,185.9
723.8881,513.7
723.917,117.5
724.0092,22.3
724.3262,652.4
724.4234,288.7
724.4987,1033.8
724.546,10826.8
724.6307,124.1
725.0847,125.2
725.1516,291.1
725.3393,500.3
725.5144,151.6
725.5584,78623.6
725.9341,575.2
726.4688,294.9
726.562,33902.4
726.6904,270.5
726.9742,119.9
727.0378,2396.4
727.353,568.4
727.4013,381.5
727.5642,4567.1
727.8171,181.4
727.8622,23.4
728.0648,367.5
728.1339,394.1
728.5215,1775.7
728.8043,23.6
729.0341,132
729.041,143.5
729.0486,141
729.1649,124.9
729.2756,464.9
729.4794,248.5
729.5915,7405.7
729.7445,666.3
729.7939,126.2
729.984,535.4
730.1078,628.3
730.1954,490.5
730.5391,11213.9
730.5943,1692.2
730.7552,365.8
731.0006,106.8
731.3034,19.8
731.404,18.2
731.5047,191.1
731.5437,1873.2
731.6071,3401.6
731.8769,815.1
731.9781,360
732.5066,651
732.5552,49787.7
732.6121,617.9
733.0451,7749.6
733.0558,7071
733.3014,358.8
733.5589,19579.6
733.6164,23.3
733.8535,23.8
734.0479,201.5
734.2596,275.8
734.5716,9558.1
735.0499,213.2
735.0892,140.7
735.2065,177.8
735.2369,553.3
735.3461,105.1
735.4936,507.4
735.5739,1177.1
735.7583,21.3
736.2202,21.3
736.3253,392.2
736.6321,275.5
736.6914,607.9
736.7369,236.3
736.94,114.1
737.3795,595.8
737.4533,11347.1
738.3091,106.1
738.3744,131.7
738.4566,1479.5
738.6918,123.9
738.7314,144.3
738.8586,613.8
738.8911,857.7
738.9098,344.6
738.9491,1081.4
738.9795,1183.1
738.9873,1223.2
739.0175,404.2
739.0638,7796.5
739.1318,434.5
739.4665,1213.7
739.5177,1750.5
740.0213,244.9
740.0378,497.5
740.0678,1113.6
740.252,328
740.4397,652.7
740.521,860.8
740.915,345.4
740.9724,93.4
741.2464,119.8
741.2786,103.1
741.5323,10374.6
741.9868,20.9
742.2655,318
742.315,132.3
742.4522,280
742.5358,3134.4
742.5757,12443.8
742.6818,150.3
742.8082,148.1
742.8638,146.6
742.9946,761.4
743.0583,193.1
743.5011,131.6
743.5792,2468.5
743.7182,152.6
744.5553,7821.8
744.592,10840.4
744.9412,555.6
745.0449,192.6
745.1191,163.2
745.2653,912.3
745.3641,419
745.3868,456.3
745.4069,112.5
745.4793,25432.4
745.5591,1173.6
745.5953,3434.8
745.7394,21.7
745.8717,56
746.0169,238.9
746.2603,89.4
746.4826,8532.8
746.5188,279.2
746.5716,5097.9
746.6082,2396.6
746.8691,57.3
747.0864,864.1
747.1714,461.1
747.3585,134.3
747.4573,626.5
747.4952,12288.6
747.5735,1494.3
747.6109,417.7
747.6979,141.3
747.7506,22.8
747.8212,135.7
748.2251,736.2
748.2884,465.4
748.4994,3659.8
748.8084,142.1
748.9129,131.3
749.0167,2927.4
749.1205,163.3
749.2832,19.6
749.5105,3801.8
749.7025,103.6
749.784,419
750.2191,130.7
751.0436,277.5
751.4944,66.8
751.5506,102.1
751.5737,5576.7
751.6738,563.8
752.0905,132
752.1542,674.3
752.189,18
752.5221,8208.3
752.5774,641.2
752.6402,19
752.7668,728.7
753.2268,20.5
753.3893,20.1
753.5253,923.3
753.5913,2127.8
753.6212,124.5
753.8004,311
754.0969,147.4
754.1047,169
754.1103,157.9
754.5374,35833
754.5948,873.4
755.023,3461.6
755.0395,2277.6
755.3844,114.1
755.5415,13434.1
755.6348,1321.9
755.7506,146.4
756.0434,181.6
756.5552,51342.1
756.9039,75.2
757.0328,311
757.4886,158.6
757.558,19511.3
757.6207,557.5
758.0257,148.5
758.3917,325.7
758.5709,1342834.5
758.6251,472
759.0486,112.2
759.3166,337.2
759.4387,428.2
759.5743,590391.3
759.6379,3667.9
760.4512,373.6
760.5875,434019.8
760.6443,57.5
760.7247,168.6
760.9379,332.1
761.0446,1109.7
761.1059,336.2
761.1458,111.9
761.2218,142.4
761.2882,53.3
761.3947,208.3
761.4524,1886.5
761.5903,209962.1
761.7168,23.1
761.8962,422.9
762.1932,125.4
762.2144,640.3
762.2793,617.1
762.4559,1280.3
762.4932,399.5
762.5932,49131.2
762.6625,230.4
762.742,265.5
763.4686,1993.2
763.5959,4732.2
763.6775,17.5
763.7619,382.3
763.9969,166.4
764.1214,318.2
764.2554,94.2
764.3002,708.3
764.5558,1193.4
764.641,178.2
764.9743,1302.7
765.319,23
765.4076,509.9
765.4858,136.6
765.6777,201.6
765.7649,91.4
766.0547,1038.8
766.5374,1041.3
766.5756,22306.6
766.6275,641.8
767.5796,10464.2
767.8625,521.5
768.2748,113.3
768.3212,391
768.5527,1135.6
768.5919,36229
768.8326,118.5
769.066,147.4
769.4795,5005.9
769.5189,856.7
769.5952,16971.2
769.6205,175.9
769.8268,350.6
769.9339,337.4
770.4823,549.6
770.511,1149
770.571,1025.6
770.6082,10352.9
770.7512,340.4
770.9934,5502.9
771.2642,18.5
771.4843,98.3
771.5118,899.8
771.5742,305.7
771.6106,2286.1
772.0109,199.5
772.2615,58.8
772.4624,139.4
772.5864,16526.9
772.6303,226.5
772.816,21.6
772.9376,360.6
773.5073,337.6
773.5362,410.5
773.59,5153.1
773.6562,137.4
773.6751,257.9
773.7046,372
773.9314,281.2
774.6027,1491.7
774.6252,101.7
775.0773,18.5
775.6045,60.9
775.7868,218.1
775.8354,209.8
775.8689,344
776.0876,170.3
776.4936,361.4
776.5207,2682
777.0097,5164.6
777.1013,20.1
777.8634,156.8
778.0473,898.8
778.2082,934
778.414,18.8
778.4511,1213.5
778.5372,32655.2
779.0547,666.4
779.16,19.9
779.1964,209.6
779.5409,11134.4
779.672,177.9
779.7798,99.7
779.9106,1071.7
780.1479,105.9
780.3433,170.7
780.3865,113.6
780.4374,692.1
780.5531,765040.9
780.7567,93.7
780.8872,501.3
781.3476,145.7
781.4412,287.3
781.4964,403
781.5566,342215.5
781.6418,99.7
782.0609,108.1
782.3315,18.4
782.5706,677588.1
782.775,94.6
783.0287,3515.9
783.5738,320361.7
783.9509,461.7
784.0285,476.9
784.1489,19.7
784.4732,20.7
784.5871,436362.3
784.6549,604.1
784.7623,572.6
785.058,342.9
785.1048,365.9
785.2775,104.4
785.3057,641.5
785.3895,546.4
785.4595,566.9
785.4957,639.3
785.5903,212412
785.6541,3825.7
786.1518,628.9
786.4538,191.6
786.4959,106.5
786.603,302523.8
786.6543,835.3
786.7546,126.1
786.7705,527.6
786.962,318.4
787.1364,513.3
787.5637,116.3
787.5691,115
787.6059,153113.8
787.6707,1492.6
787.7717,120.1
787.7999,472
787.9319,118.5
787.9878,584.8
788.0735,116.7
788.1143,100.6
788.1725,446
788.1942,17.5
788.2546,127.4
788.4015,19.9
788.5185,129.4
788.5581,7306.8
788.6059,22234.9
788.6216,13239.7
789.351,21.6
789.546,1312.1
789.561,1632.9
789.6227,7376.5
789.674,116
790.0478,556
790.3841,338.9
790.5504,718.6
790.5743,16713.9
790.6888,241.3
790.7181,21
790.9809,626.5
791.054,895.6
791.24,166.4
791.3365,115.7
791.5766,4279.6
791.6205,673.3
792.2795,306.2
792.5545,996.6
792.5916,9712.1
792.6452,125.6
793.4297,256.5
793.4909,21.1
793.5455,125.2
793.5946,3560.5
794.1458,232.1
794.308,559.4
794.5113,3597.5
794.5685,6195.7
794.6075,39199.8
794.8858,18.8
795.2586,115.5
795.3879,303.5
795.5112,744.7
795.5696,208
795.6105,17797.1
795.6433,683.7
795.6826,277.5
796.5271,153891.9
796.5866,5031.8
796.6244,6713.9
797.3503,699.8
797.5304,62850.4
797.5961,342
797.6265,1658
797.7864,188.4
798.1941,758.5
798.2757,19.8
798.4846,138.1
798.5102,330.2
798.5442,38834.5
798.6019,1310.1
798.7449,287.7
799.001,1512
799.5161,70.8
799.5463,15724.8
799.6039,294.7
799.6728,809.2
799.7891,318
800.2126,429.2
800.2822,260.2
800.5207,579
800.7871,228.1
800.9177,311
801.3136,190.2
801.5431,781.8
801.887,143.8
801.9999,554.4
802.0467,873
802.1234,115.1
802.5372,28870.7
802.8113,318.4
802.9568,326
803.0844,19.1
803.1173,115
803.3691,1040.1
803.5416,10176.5
803.6807,124.8
804.306,146.9
804.5532,281068.8
804.9314,853.8
805.3148,607
805.3341,18.3
805.5236,543.4
805.5564,137882
805.901,182.9
805.9346,20.8
806.5699,343981
807.002,166.2
807.1511,593.6
807.4378,115.7
807.5731,163872
807.6344,193.3
808.1101,434.7
808.5861,212225.3
808.6349,245.6
808.8904,113.7
809.4869,820.6
809.5892,106091.4
809.7994,260.1
810.2715,136.5
810.4216,156.4
810.5578,349.3
810.603,124282.6
810.6887,136.1
811.457,115.8
811.6058,63473
811.6389,109.5
811.6705,6050.1
811.7282,965.6
811.885,426.5
812.391,109.4
812.4258,708.5
812.6196,39046
812.6731,2018.4
813.283,121
813.622,17758.3
813.6858,5417.8
813.9153,245.7
813.9471,20.4
814.3054,507.3
814.5724,480.2
814.6233,750.7
814.688,2400.6
814.8952,887.8
815.1231,98.4
815.3706,350.6
815.9771,1067.2
816.5896,11566.3
817.191,21.5
817.2247,57.2
817.4496,146.6
817.5929,5176.4
818.5137,3115
818.6061,3227.7
818.9805,129.4
819.0839,992.5
819.132,162.4
819.4003,595.2
819.4332,1345.7
819.609,314.5
820.3688,648.1
820.5269,56838.3
820.5597,656.7
820.5876,158.8
820.6237,918.4
820.6744,777.1
820.9122,421.5
821.0901,674.4
821.1943,155.9
821.2355,432.9
821.3393,393.2
821.5307,23743.3
821.6233,165.9
821.7,55.4
821.7547,70.8
822.0992,340.5
822.5433,41948.7
822.6356,554.2
823.5463,18409.1
823.8889,20.4
824.04,178.6
824.1775,127.2
824.559,22084.4
824.6196,409.4
824.6381,443.9
824.7106,127.5
825.314,551.6
825.4079,407.6
825.5618,5230.3
825.649,272.9
825.6864,292.9
825.7602,92.5
825.9134,401.4
826.3047,341.8
826.5047,21.2
827.058,772.5
827.1263,619
827.3207,461
827.3688,162.2
827.8236,546.3
828.1342,242.9
828.5531,74121
829.0733,84.3
829.445,56.5
829.4939,127.5
829.5564,37178.6
829.6889,1120.4
830.1172,122
830.1963,20.3
830.5696,50499.5
830.6219,378.3
830.8219,484.5
831.0336,339.7
831.4789,19.5
831.5726,20390.1
831.9169,356.7
831.9887,559.7
832.1066,478.7
832.126,117.2
832.5855,55561.5
832.8941,208.9
833.0704,89.6
833.3641,374
833.4653,23.1
833.5884,29385.9
833.6149,242.8
834.1286,145.2
834.6024,29656.1
834.9528,20
835.1063,20.6
835.2978,381.8
835.398,117.2
835.4851,588
835.6052,13850.7
835.6728,128.4
835.7181,393.1
835.8149,369
836.12,116
836.4957,395.1
836.6195,1895.6
836.7593,378
836.9087,486.1
837.4319,149
837.6209,1371.6
838.0646,263.5
838.2779,248.2
838.5134,1252.8
838.5363,363
839.149,609.1
839.3737,849.3
839.7361,306
840.0343,132.9
840.1804,164.1
840.3089,263.4
840.6502,159.7
840.7628,578.6
840.8202,567.3
840.8453,246
840.8941,533.6
841.0031,162.6
841.1255,309.6
841.3443,616.7
841.6377,111.6
842.3829,319
842.5068,570.7
842.9888,243.8
843.031,224.9
843.7344,18.9
844.0118,119.9
844.2294,113.3
844.3371,681
844.4174,259.1
844.528,12318.5
844.8788,1123.1
845.5317,4441.4
845.5664,332.4
845.8849,23.7
846.4403,60.3
846.5442,6044.9
846.5923,751.3
847.0169,301.8
847.0217,312.7
847.3866,171.2
847.4175,533.1
847.5452,1227
847.7486,618.9
847.771,622.2
848.5206,354.1
848.5581,5467.1
849.1112,21.8
849.2179,185.7
849.5464,1024.2
849.9399,665.4
850.0272,391.3
850.0487,190.8
850.0777,163.5
850.2624,124.6
850.4663,136
850.5816,723.9
851.1013,189.9
851.4563,426.6
851.5754,133
851.7762,250.9
851.8019,171.1
851.8307,590.9
852.0489,293.8
852.0699,343.4
852.578,131
853.4718,21.7
853.5687,303.2
854.4039,612.5
854.4505,261.1
854.5689,492.1
855.8745,18.7
855.9169,106.7
856.535,1022.2
856.5833,3288.1
856.7349,116
856.9856,163.6
857.4365,790.8
857.79,96.8
858.1288,233.4
859.4151,168.3
859.5964,319.2
859.6614,1002.6
860.0625,554.1
860.2957,1026.5
860.4977,17
860.8487,159.2
860.8945,768.4
861.0512,418.5
861.2804,242.7
861.3567,1697.5
861.7445,670.9
862.0279,575.5
862.1587,100.1
862.3235,1120
862.6544,3275.7
862.7323,339.1
862.8325,109.7
863.0976,122.9
863.4367,316.3
864.1874,508.9
864.372,402.7
864.3869,360.8
864.5807,440.5
864.8647,1095.3
865.5063,116.7
865.7928,510.6
866.4158,981.8
866.5484,143.2
866.6135,351.3
866.7308,23.3
867.0206,657.2
867.4573,731.9
867.473,857.7
867.6161,1176.4
867.7295,128.1
868.0195,26.3
868.4726,684.6
869.2487,20.8
869.6662,1390.2
869.73,804.7
869.8116,1152.1
869.8364,25.2
869.8696,513.1
869.9272,434.1
869.9783,1314.5
870.0044,952.3
870.0413,1611.1
870.09,925.8
870.1268,2468.4
870.1818,4077.6
870.2312,2697.3
870.267,3294
870.3253,2702.5
870.3532,1592.4
870.398,846.3
870.4196,354.1
870.4538,716.3
870.4804,21.2
870.5069,149.5
870.5692,188.7
871.0986,138.9
871.5271,128
871.5634,414.1
871.853,286
871.8652,289
871.9703,122.2
872.2521,588.4
872.3902,707.3
872.4546,102.9
872.4979,134.1
872.5316,232.9
872.5686,205.7
873.6295,700.8
873.8189,271.3
873.941,150.3
874.1599,64.9
874.8967,272.7
875.4396,335.8
875.8756,948.6
876.3032,244.5
876.4071,554.8
876.7128,589.3
876.7469,306
877.3349,645.5
878.1197,234.6
878.2866,689.2
878.9696,195.4
879.5201,145.7
879.9137,813.4
880.3068,189.2
880.4665,18.5
880.7814,110.9
880.8097,605.5
881.2414,111
881.5832,186.7
881.6268,96.4
881.8196,104
882.3245,227.7
882.3664,324.1
882.7769,426.9
883.0768,815.9
883.1122,490.6
883.224,926.1
883.2674,1195.6
883.3586,891
883.984,369.5
884.4298,128.6
884.6294,306
884.9651,566.3
885.1183,1276.1
885.1854,160.1
885.6137,123.8
885.7967,106.9
885.9375,1358.8
885.9718,670.8
886.1772,318.8
886.252,293
886.3368,704.1
886.6885,73.2
886.8082,433.1
886.8476,818.3
886.8888,254.1
887.073,71.8
887.3226,125.3
889.1684,923.1
889.3423,129
889.4558,514.8
889.9956,18.7
890.2009,412.7
890.2708,18.7
890.2863,17.2
890.3909,424.1
890.8466,20.9
891.1597,604.7
891.3671,20
891.5585,162.8
891.8374,148.1
892.0713,639.7
892.0929,440.7
892.2302,142.3
892.2642,113.4
893.1307,252.2
893.3074,19.1
893.7722,756.5
893.8451,475.7
893.9096,409.5
894.8338,573.6
894.9593,692.6
895.0998,398.1
895.1934,609.8
895.2684,139.3
895.9462,702.6
896.3495,225.7
896.5677,189.8
896.9273,111.3
897.0624,581.1
897.2221,697.7
897.4671,509.1
897.7035,239.7
898.5235,473.5
898.6563,488.4
899.6692,279
899.854,192.7
900.2702,158.2
900.3007,108.4
900.5305,154.7
900.7025,371.1
900.8106,763.1
901.0923,143.5
901.2098,170
901.7164,21.8
902.3488,141.3
902.4266,314.5
903.214,770.6
903.5318,19.1
904.0492,584
904.3485,220.1
904.8889,175.6
905.2749,841
906.2647,790.1
906.2969,451.9
906.4891,98.8
906.7289,66.7
906.7603,73.2
906.7776,68.2
906.9153,162.3
906.9888,525.5
907.2499,1419.6
908.131,554
908.3459,1804.6
908.4555,251.3
908.6156,402.7
908.734,150
908.9416,114.3
910.2111,568.1
910.9228,181.4
911.163,218.1
911.8165,61.2
912.6093,327.9
912.7108,462.5
912.8056,22.4
913.2927,315.5
913.3398,435.2
913.4486,119.5
913.706,85.4
914.3094,730.7
914.5814,128.6
914.6809,740.4
914.8059,101.7
914.9922,97.2
915.0943,66.8
915.3169,152.6
915.6669,529.9
916.5861,124.8
916.7043,1152.1
916.8007,1741.8
916.8913,20.3
917.0276,1432.3
917.361,381.3
917.7341,191.3
917.8393,18.9
917.8806,133
918.0275,388.2
918.0497,114.8
918.0813,124.4
918.2152,1519.2
918.3666,133.9
918.7962,253.3
919.0921,347.4
919.1267,548.8
920.0706,854.6
920.153,825.7
920.1978,711
920.7867,249.6
920.8428,540.9
920.9961,114.6
921.0545,19.2
921.3782,104.2
921.4991,128.6
921.5615,641.9
922.1607,18.6
922.2981,249.2
922.3987,312.5
922.6737,92.7
922.9086,105.8
923.0014,329.3
923.5777,155.6
924.2841,397.4
924.605,311.6
924.626,541.6
924.6653,270.6
925.2945,789.5
925.3459,584.6
925.6053,258.1
925.6545,1243.7
925.7767,380.5
926.1394,492.2
926.6868,2246
926.8354,521.6
926.8767,416.3
927.8049,160
927.9666,138.7
928.2293,118.7
928.2561,350.7
928.7861,403.7
929.1849,438.6
929.5164,323.9
929.5763,793.5
929.6947,413.1
930.6037,18.5
931.1241,360.1
931.5634,787.1
931.6606,19.8
932.1557,789.9
932.3954,18.3
932.7406,235
933.1835,18
933.3286,341.9
933.4232,21.2
933.6447,846.4
933.7656,25.4
933.8235,21.4
934.138,61.4
934.2122,555.8
934.2331,511.5
934.3286,227.6
934.3472,501.8
935.0702,488.1
935.2091,64
935.9293,390.7
936.2909,472.5
936.3559,129.3
936.7143,158.3
936.7427,416.8
936.7569,425.2
937.2165,810.3
937.3086,125
937.8322,172.9
937.8491,270.4
937.8557,265.2
938.1924,497.8
938.3933,247.5
938.453,135.6
938.9902,465
939.1299,133.9
939.2997,180.4
939.6003,122
940.1908,353.3
941.4355,215.6
941.5098,20
941.9083,598.2
941.9637,486.2
942.0111,702.3
942.1668,725.3
942.6566,152
942.7124,20.4
942.7439,257.2
942.8621,406.2
943.0242,21.2
943.2276,912.4
943.3039,19.4
943.625,97.6
943.7866,365.1
943.856,424.9
944.0021,555.3
944.0735,151.5
944.1021,357.3
944.2261,442.4
944.2604,769.2
944.3606,440.9
944.4478,596.6
945.1269,102.1
945.4526,728.6
945.7599,534.6
946.3619,154.5
946.4075,165
946.8584,734.5
947.1335,497.9
947.4304,340.3
947.617,742.7
947.7631,459.6
947.912,762
948.2162,890.7
948.3684,644.9
948.6831,349.6
948.7155,555.7
948.8336,57.4
948.8683,809.6
949.2338,19.4
949.5419,742.9
949.5804,646.5
950.1761,1025.2
950.4613,144
950.7475,446.7
950.8902,639.4
951.0807,751.4
951.4283,98.4
951.5528,504.5
951.6064,66.5
951.707,19.7
952.1388,101.2
952.623,636.3
952.7043,281.2
953.7942,349.8
953.9542,1283.1
954.8686,20.1
955.3882,172.4
955.6771,143.6
955.8147,1467.1
956.6152,710.3
956.726,284.4
957.1673,19.1
958.0137,364.8
958.1711,378.5
958.3612,563.2
958.8397,527.9
959.5101,17.3
959.7257,139
959.7744,135.6
959.8527,128.5
959.9483,813
960.9459,21.3
961.0777,1520.7
961.8999,159.8
961.9663,161.9
962.4168,340.4
962.5635,158.3
962.8305,19.3
962.8979,1623.2
963.1895,610
963.6966,392.4
963.8819,745.9
964.0722,495
964.2765,93.5
964.52,346.7
964.9087,580.6
965.0067,438.1
965.0564,401
965.1484,993.2
965.2145,1350.5
965.2488,1058.1
965.4978,399.2
965.6401,124.7
965.7749,521.1
966.1804,709.8
966.2151,140.3
966.9708,149.2
967,389.4
967.5286,24.1
967.5736,939.3
967.6206,312
967.7316,671.1
967.8255,618
967.9919,943
968.7129,1756.3
968.8996,721.7
969.1354,122.5
969.546,206.7
969.5876,19.9
970.0236,401.4
970.0557,1079.8
970.1234,104.6
970.488,1015.1
970.5588,740.1
970.5884,97.8
970.7366,113.8
971.0212,251.4
971.1701,1241.7
971.5618,655.4
971.7064,19.6
972.0412,858
972.5064,222
972.5523,645.7
972.6866,451.3
973.0351,247.6
973.0411,236.7
973.3699,1090.7
973.4896,676.2
973.6415,232.5
973.696,478.7
973.7364,660.3
974.2571,208.3
974.4879,288
974.8695,117.6
974.9006,115.5
975.3686,302.8
975.5929,412
976.0764,340.2
976.5109,741.5
976.6412,494.7
976.8073,97.7
977.1599,130.6
977.4231,168.1
978.3657,174.4
979.0164,79.3
979.1137,499.5
979.2157,184.9
979.5878,165.6
980.0699,75.6
980.4329,406.8
980.8759,1402.8
980.9062,517.7
981.3185,18.8
981.4787,674.5
981.6032,556.1
981.9982,60.4
982.0479,254.9
982.0663,396.5
982.0732,386.1
982.2269,562.5
982.4356,29.3
982.7382,1307.3
982.9199,335.4
983.0631,99.3
983.7552,658.5
984.0962,613.5
984.3656,238
984.4637,649.4
984.4971,175.5
984.609,770.7
984.6464,477.3
984.938,885.5
985.2175,18.9
985.3286,328.2
986.0675,355
986.715,653.9
986.9063,846.8
987.1915,355.9
987.2939,19.6
988.1591,128.8
988.2158,544
988.4139,133.9
988.6285,301.9
988.7967,64.3
988.9359,1417.5
989.713,684.7
990.0994,129
990.1663,897.3
990.3337,533.7
990.7203,116.1
991.0666,199.9
991.1217,794.4
991.498,114.3
991.6295,435
991.6832,862.6
992.643,594.1
992.7718,403.3
992.8664,1332.1
992.976,685.8
993.2034,488.3
993.5039,372.5
993.6236,477.1
994.2739,705.2
994.381,53.8
994.4162,126.3
994.7053,174.5
995.424,543.6
995.5266,437.8
995.7932,177.9
996.3881,1023.7
996.6282,162.3
996.7228,1034.7
997.1055,784.7
997.2205,19.8
997.2713,1177.4
997.5619,382.9
997.5737,375.5
997.7396,177.7
997.8398,350.1
998.0891,376.4
998.1223,531
998.4078,130.6
998.5211,1115.7
998.8481,659.1
999.4271,55
999.7684,666.5
