SPECTRUM - MS,
983.RAW,
FTMS + p ESI Full ms [50.00-1000.00],
Scan #: 1-40,
RT: 0.01-1.97,
AV: 40,
m/z,Intensity

50.0031,392.9
50.0237,77.1
50.0263,470
50.0381,190
50.0479,794.9
50.0594,185.5
50.0885,381.5
50.0891,139.5
50.0961,203.8
50.1101,241.6
50.1228,489.6
50.1287,94.5
50.1346,98.8
50.1386,128.7
50.1502,16.2
50.1628,411.9
50.1682,461.8
50.1901,468.8
50.1985,19.5
50.2222,81.8
50.2365,290.9
50.2628,321
50.2681,541.1
50.2708,102.6
50.282,275.5
50.2906,283.8
50.2969,419.1
50.3068,18
50.3142,100.1
50.3174,346.7
50.3229,508.3
50.342,66.7
50.3493,17.5
50.3573,420.1
50.3825,298.1
50.4024,55.1
50.4032,590.2
50.4151,200.6
50.4175,204.5
50.4381,241
50.4445,81
50.4663,320.8
50.4666,124
50.4909,176.9
50.5118,88
50.5685,16.9
50.5763,99.2
50.5802,296.9
50.5853,72.7
50.5907,245.2
50.596,250.8
50.6146,19.4
50.6197,99.3
50.629,141.2
50.6425,193.2
50.668,64.6
50.6695,609.4
50.6713,382.3
50.7111,95.5
50.712,205.3
50.7255,248
50.7271,78.6
50.732,557.4
50.7337,128.5
50.7635,15.4
50.7733,551.3
50.8012,268.6
50.8396,84.7
50.8436,67.9
50.8504,317.7
50.8577,648.6
50.8772,131.4
50.9064,257.6
50.9411,313
50.9443,459.6
50.9561,292.7
50.9568,478
50.9592,231.8
50.9824,185.4
51.0015,156.9
51.0316,701.2
51.0338,109.7
51.0385,168.4
51.0447,309.2
51.0761,87.6
51.0813,17.7
51.1008,255.7
51.1293,284.1
51.215,292.9
51.2158,389.9
51.2257,647.8
51.2472,304.9
51.2494,197.2
51.2625,149.5
51.2835,18
51.2884,16.6
51.3088,289.9
51.3339,138.2
51.3909,113.9
51.3924,85.8
51.4356,17.3
51.4381,192.7
51.4416,201.8
51.4437,280.5
51.4585,179.3
51.4708,583.7
51.4727,82.3
51.48,105.3
51.4933,263.5
51.4942,150.5
51.5003,274.6
51.5047,339.7
51.5132,116.9
51.5146,169.8
51.516,296.3
51.5184,533.7
51.52,240.5
51.5268,121.9
51.5442,296
51.5495,130.3
51.5537,198.5
51.5815,506.6
51.6091,563.4
51.6204,170.3
51.6302,476.1
51.633,242.4
51.6344,192.9
51.6349,151.7
51.6455,17.8
51.6484,101.3
51.6512,90.7
51.6651,518
51.6717,705.4
51.6839,18.4
51.6882,598.1
51.6958,581.9
51.7097,102.9
51.7128,261.8
51.7203,403.9
51.7399,62
51.7493,498
51.7628,239.3
51.7883,19.5
51.7888,442.4
51.8053,19.6
51.8126,336.6
51.8158,320.3
51.861,314.8
51.8627,531.1
51.8648,659.4
51.881,269.8
51.887,18.6
51.8984,75.6
51.9,199.9
51.9156,93.3
51.926,63.3
51.9388,160.3
51.9506,218.4
51.9517,502.1
51.9527,106
51.961,374.6
51.9772,17.9
51.9951,389.3
52.0128,101.8
52.0233,275.1
52.0269,560.3
52.0309,291.9
52.0489,88.8
52.0703,21.6
52.0851,397.8
52.0857,122.6
52.0921,16.7
52.1031,536.8
52.1143,123
52.1345,17.7
52.1354,439.2
52.1409,56.5
52.1474,15
52.1564,209.2
52.1807,122.4
52.198,407
52.2034,456.9
52.2071,321.4
52.2259,66.2
52.2315,101.4
52.264,123.2
52.265,115.4
52.2688,16.1
52.2726,143.3
52.2805,82.1
52.283,155.7
52.2965,479.1
52.3224,16.2
52.3266,156.6
52.3317,316.6
52.3379,14.3
52.3418,265.8
52.3603,606.6
52.3637,227.2
52.3677,186.9
52.3718,61.8
52.379,273.5
52.3944,132.7
52.3965,176.3
52.4109,304.7
52.4136,16.8
52.4169,87.9
52.4196,19.4
52.44,267.2
52.4433,479.3
52.4504,492.2
52.4831,108.5
52.4951,289.6
52.5026,77.5
52.5147,307.6
52.5192,237.1
52.5274,625.8
52.5384,136.8
52.5401,16.3
52.5489,17.8
52.5544,617.8
52.5563,243.3
52.5572,260
52.558,523.3
52.5605,515
52.5622,284.9
52.5859,338.5
52.5916,112
52.6123,434.6
52.6338,17.7
52.6434,274.9
52.6455,285.8
52.6625,297.7
52.6913,16
52.7004,124
52.7046,223.6
52.7138,160
52.721,331.6
52.7226,233.3
52.7667,659.3
52.7703,450.4
52.7711,548.9
52.7776,18.6
52.7798,16.3
52.7846,1088.5
52.7849,1217
52.7859,2268.4
52.7865,1551.4
52.7871,1371.8
52.7876,1916.9
52.7879,1171.4
52.7886,626.6
52.7889,490.1
52.7903,388.9
52.7906,174.5
52.7912,236
52.7918,285.8
52.7927,272.2
52.7961,80.2
52.7979,189.5
52.8028,17.6
52.8061,154.9
52.8186,19.1
52.8585,15.5
52.8792,261.3
52.8884,679.2
52.8893,315.9
52.8952,162.4
52.896,193.4
52.9068,526.9
52.909,191.4
52.9238,445.5
52.9403,119.2
52.9441,166.8
52.9647,150.6
52.9851,71
53.0012,54.7
53.0209,121.8
53.0216,408.2
53.0389,348.8
53.063,310.7
53.0651,163.3
53.0696,314.7
53.1215,149
53.1298,146.2
53.1327,149.9
53.1344,16.1
53.1367,89.9
53.1529,86.8
53.1725,284.7
53.191,315.4
53.212,205.4
53.217,653.6
53.2184,449.4
53.2458,99.4
53.2529,316.6
53.2541,104.9
53.2596,304.1
53.2815,196.2
53.2831,391
53.2869,63.5
53.3107,309
53.3185,329.2
53.3221,474.1
53.3309,69.9
53.3331,217.6
53.3737,185.5
53.385,16.1
53.4071,90
53.4202,141.4
53.439,144.7
53.4793,106.2
53.5118,316.5
53.5126,19.7
53.52,566.2
53.5443,16.9
53.5505,597.7
53.583,123
53.5869,93.2
53.5879,18.3
53.6066,113.8
53.6238,313.2
53.6245,95.7
53.6534,192.1
53.6566,17.3
53.6748,127
53.6822,406.6
53.6893,417.3
53.6901,337
53.6979,151.3
53.7136,18.5
53.7278,252.3
53.734,225.5
53.7539,157.5
53.7675,320.4
53.788,171.2
53.7899,445.5
53.7913,277.3
53.8024,76
53.8362,378.7
53.8416,75.3
53.8714,364.6
53.8994,98.9
53.9142,17.9
53.9319,150.6
53.9329,17.3
53.9378,459
53.9411,182.8
53.9434,323.7
53.9523,294.5
53.9551,136.2
53.9597,104.3
53.9647,122
53.9675,155.6
53.9817,132.3
53.9895,259.3
53.9994,320
54.0098,296.2
54.0221,17
54.0315,17.4
54.043,509.3
54.0567,202.1
54.0688,547.8
54.0837,608.2
54.0895,435.2
54.0975,129
54.1458,146.8
54.1601,342
54.1886,335
54.2121,295.1
54.2171,124.7
54.2324,260
54.2352,195.7
54.2434,235.6
54.2454,86.9
54.2557,22.4
54.2732,170.2
54.2843,305.4
54.2845,409.7
54.2903,128.4
54.3082,125.1
54.3142,173.5
54.3218,111.7
54.3242,345.6
54.3402,141
54.344,366.8
54.3459,124.8
54.3502,285.4
54.3652,666.2
54.3686,98.5
54.369,465.2
54.3769,329.9
54.3854,78.2
54.3874,303.9
54.4017,481.3
54.4062,307.5
54.4101,568.1
54.4116,84.2
54.4268,187.8
54.4364,17.1
54.4447,15.3
54.4535,102.8
54.4743,242.1
54.4812,481.8
54.492,97.1
54.5094,827.5
54.5319,70.3
54.5397,356.8
54.5568,111.6
54.5578,573.3
54.5876,125.7
54.5986,367.2
54.6135,267.7
54.6277,16.6
54.632,266.7
54.6419,196
54.6445,72.5
54.6457,14.6
54.6548,245.8
54.6596,178.9
54.6602,422.4
54.6701,101.1
54.6742,16.1
54.6782,58.5
54.6852,294
54.6889,123.8
54.6911,278.8
54.6931,72.3
54.6983,257.6
54.7031,164.4
54.7108,96.7
54.7123,72.4
54.7151,18.1
54.7202,470.2
54.7307,89.7
54.7441,464.7
54.7535,20.5
54.7668,159.9
54.7716,425.9
54.7792,455.7
54.7823,88
54.7979,397.7
54.8048,16.9
54.8065,320.2
54.81,14.8
54.8346,100.2
54.8582,15.3
54.876,95.2
54.8843,428.3
54.9004,622.6
54.9311,396.8
54.9479,375.8
54.9749,273.8
54.9815,195.2
55.0011,714.4
55.0216,98.5
55.0256,76
55.0622,107.6
55.0922,85.7
55.1132,16.6
55.1275,104.1
55.1289,172
55.132,202.3
55.1784,310.3
55.1908,136
55.1992,479.7
55.2228,133.6
55.2356,90.2
55.2471,16.1
55.2475,16.4
55.2501,835.3
55.2824,97.3
55.2967,328.8
55.3043,335.1
55.3315,104.5
55.3426,67.2
55.344,156.3
55.351,137.6
55.3606,616.2
55.3666,243.1
55.3763,133.2
55.3895,437.6
55.3957,296.3
55.4029,135
55.4258,108.7
55.4333,16.4
55.4507,270.4
55.47,426.7
55.4709,305.7
55.4758,131.2
55.4886,273
55.4971,315
55.5036,16.2
55.5062,108.3
55.5086,492.7
55.5394,286.8
55.55,327.2
55.5572,417.7
55.5596,147.2
55.5677,125.5
55.579,178.8
55.5848,452.3
55.5947,17.5
55.6064,551.8
55.6138,54.7
55.6333,24.1
55.6448,68.4
55.6458,494.3
55.6488,301.6
55.6492,120.9
55.6657,394.5
55.669,136.6
55.6826,289.7
55.6974,336.2
55.7031,168.3
55.7122,14.7
55.7134,537.8
55.7274,116.6
55.7283,98.9
55.7492,186
55.7577,232.8
55.7745,218.5
55.7781,328.2
55.7839,311.4
55.8125,341.6
55.8355,537.6
55.8477,14.7
55.8529,366.6
55.8653,588.3
55.8928,227
55.8938,64.8
55.8997,16.7
55.9024,143
55.9493,96
55.9624,103.7
55.9788,19.9
55.9823,18.9
55.9875,429.6
55.9987,513
56.038,160
56.0404,561.4
56.0452,544.4
56.0466,322.1
56.0482,18.6
56.0655,182.7
56.1113,255.5
56.1308,133.8
56.1341,559.1
56.1426,15.9
56.1479,20.2
56.1616,16.2
56.1663,310
56.184,379.7
56.1894,65.9
56.1919,273.7
56.1931,189.3
56.1952,525.8
56.2087,434.8
56.2136,16.9
56.2971,421.2
56.3085,16.8
56.3121,182.2
56.3127,540.7
56.317,382.7
56.3175,492.7
56.3448,704.5
56.3504,100.5
56.3575,20.7
56.3636,121.4
56.39,376.4
56.3984,345.4
56.4151,59.9
56.4183,99.5
56.419,553.2
56.4357,156.1
56.4382,394.6
56.4451,262.9
56.4495,184.8
56.4511,85.3
56.4747,528.7
56.4764,17.5
56.5151,452.9
56.5421,54.6
56.5582,61.9
56.5602,71.8
56.5679,570.3
56.5781,473.8
56.5876,17.6
56.5949,145.5
56.6004,351.6
56.6059,312.5
56.611,140.1
56.6388,426.9
56.6616,340.2
56.6851,129.8
56.7112,137.8
56.7249,84.4
56.73,80.6
56.7322,82.5
56.7646,128.8
56.7885,306.9
56.7939,73.4
56.8062,121.2
56.83,266.8
56.8589,64.7
56.8982,78.3
56.9077,134.3
56.9451,70
56.9524,86
56.9566,553.9
56.9626,481.4
56.9686,363.2
56.9914,154.1
57.0024,264.7
57.0042,378.8
57.0355,246.7
57.0363,279.6
57.0375,96.6
57.038,124.6
57.0422,251.9
57.0622,293.8
57.118,295.3
57.1266,93
57.1357,146.7
57.1366,528.2
57.1422,100.5
57.1833,130.4
57.1853,172.5
57.1879,641.4
57.191,20.5
57.1927,616
57.1959,132.9
57.197,71.1
57.2069,62.7
57.2109,142.4
57.2236,79.4
57.2375,183.8
57.2558,399.4
57.2584,93.5
57.2659,185.4
57.2881,529.4
57.2928,249.5
57.3016,73.4
57.3592,94.3
57.3832,271.1
57.3878,16.3
57.3922,124.5
57.393,90.1
57.4225,481.2
57.4233,106.1
57.4532,175.6
57.4886,354.4
57.5026,75.8
57.5285,254.3
57.5714,159.6
57.5783,156.9
57.6093,220.6
57.6522,165.7
57.6589,451.4
57.6641,87.9
57.6867,135.2
57.7067,215.3
57.7242,140.7
57.7346,65.3
57.7627,97.2
57.7633,158.5
57.7677,305.8
57.7682,110.2
57.7772,578.7
57.8132,161.3
57.8242,124
57.8407,141.7
57.846,329.9
57.8463,155.5
57.8618,69.1
57.8726,494.5
57.8765,135.5
57.8808,422
57.882,143.5
57.8956,266.7
57.8999,204
57.9249,16.6
57.9421,60
57.9429,252.8
57.9627,302.7
57.9676,400.8
58.0066,304.5
58.0276,204.5
58.0577,56.6
58.0691,77
58.0962,15.5
58.1046,412.8
58.1103,173.4
58.1245,130.9
58.1296,259.6
58.1312,332.5
58.1561,87.7
58.1787,149.7
58.1859,684.2
58.1948,283.2
58.2035,303.1
58.2086,219.8
58.2211,101.8
58.2235,136
58.2256,615.9
58.2293,488.3
58.2336,369.9
58.2363,477.6
58.2425,190.6
58.2494,60
58.2498,74.2
58.2614,351.2
58.267,164.1
58.2679,93.9
58.2697,440.1
58.2777,147.4
58.2807,139.3
58.2989,85.6
58.3083,107.5
58.3242,141.1
58.3351,189.7
58.3368,154.4
58.3446,57.6
58.3604,16.8
58.3677,513.7
58.3769,279.4
58.4206,125.5
58.462,508.9
58.4722,89.9
58.4809,249.6
58.489,169.1
58.4896,19.7
58.4917,501
58.4932,444.2
58.4975,119.9
58.5075,289
58.5141,302
58.5163,456.2
58.5178,467.9
58.5241,84
58.5402,101.3
58.5484,436.5
58.5529,296.8
58.5559,238.9
58.5764,16.4
58.5954,122.6
58.6007,311.4
58.6308,573.1
58.6356,142.3
58.6364,390.5
58.6377,92.5
58.6404,157.3
58.6869,102.9
58.7015,88.7
58.7058,522.3
58.7156,18.2
58.7165,53.2
58.7353,479.4
58.7383,118.1
58.7449,100.9
58.7682,97.3
58.7763,533.2
58.8106,58.7
58.8276,495.8
58.8406,110.9
58.8513,264.7
58.8677,97.7
58.9253,268.6
58.9842,443.9
59.001,144.9
59.0047,108
59.0359,98.3
59.059,17
59.0701,19.1
59.0982,513.2
59.1001,264.6
59.1272,266.9
59.1434,152.9
59.1467,643.5
59.1515,163.1
59.1918,376.8
59.1933,16.3
59.1999,342.5
59.2104,134.3
59.2141,141.9
59.2303,16.6
59.2592,192
59.2654,15.4
59.2663,106.5
59.2832,88.4
59.287,90.3
59.2942,150.6
59.2956,131.5
59.3003,417.1
59.3024,164.3
59.3049,140.4
59.3126,163.5
59.3241,149.4
59.3621,97.9
59.3861,367.3
59.3898,531.7
59.3967,126.8
59.3981,17.1
59.4053,553.9
59.4073,424.7
59.4121,386.9
59.4199,189.5
59.4378,477.7
59.4466,135.8
59.4526,271.6
59.4579,278.3
59.5009,685.6
59.5153,97
59.5273,481
59.5356,380.1
59.5397,276.8
59.5442,215.1
59.5694,25.6
59.5736,17.9
59.5795,507.2
59.5889,190.8
59.5899,365.9
59.5916,298.5
59.5927,262.8
59.6115,357.2
59.6233,18
59.6329,91.5
59.6344,487.6
59.6364,330
59.6381,134
59.659,202.1
59.696,17.6
59.703,16.8
59.7119,153.9
59.7154,458.2
59.7165,274.3
59.7376,16.9
59.7721,173.1
59.7747,356
59.7754,530.8
59.7792,17.5
59.7948,178.9
59.8012,521.5
59.8048,249.5
59.8229,83.1
59.835,195.7
59.8427,500.9
59.8461,440.9
59.853,160.4
59.8951,58.5
59.9071,165.1
59.9081,190.7
59.9205,18.5
59.9385,267.8
59.945,417.7
59.9521,431
59.9535,457.7
59.955,170.8
59.9653,87.6
59.9689,425.6
59.9813,140.9
59.9868,17.3
59.9975,137.8
60.0154,88.2
60.0265,465.8
60.0479,505.1
60.0613,90.2
60.0929,287
60.1255,295
60.1292,81.9
60.1349,135
60.1421,173.8
60.148,89
60.1604,417.3
60.1707,507.8
60.1713,17.3
60.1785,173
60.1895,143.6
60.2019,120.3
60.2137,185.1
60.2205,103.4
60.2312,406.1
60.2381,540.4
60.2591,116.7
60.2652,287.2
60.2869,273
60.2888,349.1
60.3118,375.4
60.3304,17
60.3424,593.6
60.3541,75.7
60.36,777.3
60.3856,240.1
60.3895,149.7
60.3974,442.1
60.4101,131
60.4159,140.3
60.432,16.5
60.4333,117.4
60.4387,203.2
60.4528,278.8
60.4637,103.4
60.4661,278.4
60.4691,410.6
60.504,17.6
60.5142,107.5
60.5308,267
60.5348,505.7
60.5461,487.8
60.548,16.8
60.5499,18.2
60.5563,457.1
60.5599,136.5
60.5674,152.6
60.5759,103.9
60.5788,274.7
60.5852,515.2
60.605,194.6
60.6113,76.6
60.6528,178.6
60.6537,269.3
60.6633,15.8
60.6835,495.9
60.6855,147.7
60.6927,357.9
60.7126,442
60.7159,383.3
60.7171,18.8
60.7186,315.4
60.7413,553.3
60.749,285.5
60.7565,286.8
60.7593,352.8
60.7736,384.4
60.7783,493.3
60.7925,481.2
60.7999,457.6
60.8088,327.1
60.8205,260
60.8279,245.6
60.8366,293.8
60.8575,395.4
60.8706,263.7
60.8867,18.6
60.8985,383.7
60.9248,239.7
60.9314,16.6
60.9356,492.8
60.9629,86.2
60.97,87.1
60.9813,267.1
60.9844,375.9
60.9922,95.5
60.9966,85.4
61.0149,272.4
61.0356,141.1
61.0395,126.6
61.0574,167.4
61.0714,430
61.0728,539.9
61.0752,15.6
61.094,505.1
61.1048,481.1
61.142,165.6
61.1616,320.1
61.1684,166.8
61.1734,15.3
61.1941,76.6
61.2105,404.7
61.2469,168.6
61.2564,150.7
61.2606,211.9
61.2687,470.3
61.2747,92.3
61.2819,206.8
61.2894,244.6
61.2911,134.4
61.3043,410.7
61.3138,18.4
61.3249,113.3
61.3298,17.7
61.3334,352.8
61.3403,79.1
61.3531,20.2
61.3541,87.4
61.3713,458.4
61.386,303.8
61.4056,576.8
61.4487,330.2
61.451,20.8
61.4607,227.8
61.4682,796
61.4846,414.2
61.4858,96.2
61.5185,94.3
61.5266,334.5
61.5358,164.1
61.5469,347
61.5492,17
61.5504,309.2
61.5806,258.5
61.585,354.6
61.6054,90.6
61.6065,19
61.6092,137.8
61.6295,489.8
61.6597,265.7
61.6669,107
61.6987,576.1
61.7244,83.7
61.7367,100.3
61.7475,172
61.7717,484.9
61.7744,108.1
61.7972,276.6
61.8035,70.3
61.8049,190.9
61.8162,64.9
61.8467,679.6
61.8848,301.8
61.8942,311.9
61.9212,352.3
61.9237,395.6
61.9456,100.5
62.0037,600.5
62.0134,65.4
62.0135,67.8
62.0157,146.3
62.0369,176.5
62.071,287.7
62.0764,114
62.0773,91.9
62.0855,165.8
62.1304,145.1
62.1376,17.4
62.1382,69.5
62.1555,470.1
62.164,116
62.1797,309.1
62.1803,18
62.1902,501.9
62.2079,130.8
62.2162,81.9
62.2227,428.4
62.2481,17.1
62.2618,18.5
62.2796,154.4
62.2859,163.1
62.2881,67.3
62.2905,285.5
62.2913,516.1
62.2942,145.6
62.3206,174.4
62.3271,111.6
62.3313,100.5
62.3422,97.8
62.3487,390.4
62.3708,80.7
62.3742,494.4
62.3886,205.4
62.3936,407.8
62.4136,183.8
62.4184,78.3
62.4406,89
62.4423,294.6
62.4428,98.9
62.4567,164.9
62.4657,229.6
62.4895,244
62.4931,369
62.5013,95
62.5144,16
62.5312,509.9
62.5425,170.5
62.5566,16.4
62.6184,230.1
62.6251,505
62.6257,105.6
62.627,106.1
62.6334,131.6
62.6399,358.6
62.6535,194.9
62.6609,559.1
62.6649,108.6
62.6912,152.7
62.7058,98.6
62.723,132.7
62.7329,16.2
62.745,19.7
62.7557,501
62.7619,126.1
62.7863,408.5
62.7961,89.3
62.8007,93.9
62.8236,590.8
62.8296,147
62.8363,379.1
62.8385,186.1
62.8779,131.8
62.8897,282.1
62.9642,516
62.9736,134.5
62.9765,115.4
62.986,289.6
62.9867,130.3
62.9948,501.4
63.0145,303.2
63.0208,311.3
63.0215,178.8
63.0255,277.9
63.0287,335.4
63.0347,287
63.0521,409
63.0872,206.5
63.0881,66.6
63.096,97.8
63.0985,226.3
63.1163,218.7
63.1428,332.9
63.1954,251.2
63.2312,474
63.2374,770.1
63.2431,83.4
63.2582,143.5
63.2626,520.5
63.2737,216.2
63.2756,78
63.2761,121
63.2797,193.5
63.2906,20.1
63.292,231
63.315,128.7
63.34,78.3
63.3492,87.5
63.3797,242.9
63.3906,17
63.4117,362.4
63.4147,199.5
63.4339,284.4
63.4355,249.6
63.4445,354.2
63.4463,102.4
63.4472,513.7
63.4679,261.1
63.4831,189.7
63.4848,268.3
63.4903,19
63.4946,605.7
63.5025,183.6
63.5136,541.7
63.5295,81
63.5317,297.4
63.5876,163.6
63.5967,20.6
63.6339,99.6
63.6404,461.9
63.6484,200.8
63.6487,155.8
63.6508,106
63.6567,120.5
63.661,288.7
63.6844,335.9
63.7062,67.7
63.7097,130.2
63.7103,214.8
63.7641,525.5
63.7855,188.9
63.7876,169.6
63.7968,399
63.8399,157.4
63.8718,133.2
63.878,104.9
63.8853,17.7
63.8859,465
63.887,187.2
63.9124,17.4
63.9296,478.8
63.937,263.5
63.9585,79.8
63.9883,16.4
64.0196,103.4
64.029,217.9
64.0295,603.5
64.0472,884.5
64.0508,524.8
64.0744,441.1
64.0823,253.1
64.097,730
64.1028,270.4
64.1048,152.3
64.1146,178.4
64.1151,362
64.1236,462.2
64.1271,170.3
64.1295,189.9
64.1327,84.2
64.1438,205.7
64.15,234.2
64.1545,16
64.1702,92
64.171,554.9
64.188,76.9
64.1911,323.9
64.1947,446.1
64.2077,139.8
64.2234,90.4
64.225,70.6
64.2519,90.3
64.2529,332.2
64.2571,95.9
64.2581,544.7
64.2641,151.1
64.2971,223.1
64.3063,108.1
64.3172,495.4
64.3314,297.5
64.3335,458.6
64.3402,541.8
64.3437,116.6
64.3588,186.1
64.3709,134.7
64.3806,19.5
64.3965,454.2
64.4274,170.7
64.4506,113.1
64.4508,135.6
64.451,101.1
64.4754,101.7
64.4777,122.1
64.4878,132.8
64.4899,175
64.5249,610.6
64.5564,200.7
64.5577,15.4
64.5667,150.7
64.5698,761.4
64.578,322.6
64.585,92
64.5928,17.2
64.6104,175.1
64.6314,159.1
64.6456,223.3
64.6478,18.3
64.6574,289.1
64.6672,342.8
64.669,181.5
64.6761,99.5
64.6876,116.5
64.6884,18.1
64.703,693.6
64.7291,116
64.7436,624.6
64.7631,327.8
64.7668,283.4
64.7919,58.3
64.8079,108.4
64.8112,381.9
64.8144,23.6
64.819,219
64.8306,170.6
64.8468,506.2
64.8622,310.4
64.8639,546
64.8829,60.1
64.8847,428.3
64.8908,374.7
64.891,374.9
64.8912,278.7
64.9288,286.4
64.9621,333.7
64.9678,16.9
64.9714,103.5
64.9718,97.4
64.9724,146.7
64.9767,266.2
64.9778,124.1
64.9937,227
65.0121,148.5
65.0236,78.9
65.0471,137.3
65.06,101
65.0699,106.5
65.0882,419.2
65.0923,498.4
65.0936,101.1
65.1076,586
65.1205,75.1
65.1377,79.2
65.1512,671.5
65.1771,519.3
65.1841,16.2
65.1921,191
65.2095,228.9
65.2096,228.8
65.216,404.5
65.2263,113.4
65.2522,729.2
65.2588,528.6
65.2795,517.7
65.299,628.7
65.3026,290.7
65.3206,63.7
65.3237,323.8
65.34,532.9
65.3583,105.8
65.3606,461.4
65.3749,272.5
65.3835,415.2
65.3906,347.1
65.4127,353.6
65.4237,288.4
65.4629,331.2
65.499,188.6
65.5021,89.8
65.51,363.8
65.5126,96.7
65.5558,106.5
65.5749,658.2
65.6165,429.3
65.6185,439.3
65.6242,422.7
65.6248,506
65.6299,631.3
65.6416,18.6
65.654,16.5
65.6629,274.9
65.6746,243.2
65.68,18.3
65.6892,443.8
65.7274,152.8
65.7647,409.5
65.7862,107.6
65.8249,422.1
65.8348,175.5
65.8405,535
65.8612,105.1
65.8729,637.3
65.9027,170
65.9052,358.6
65.9117,139.7
65.9414,96.9
65.9448,206.4
65.9497,79.1
65.9601,424.5
65.9831,140.1
65.9846,350.9
65.9951,434.4
66.0028,105.4
66.0064,100.5
66.0553,86
66.0738,282.9
66.0865,158.1
66.0892,18.1
66.0949,63.8
66.1108,647.6
66.1429,688.7
66.1613,279.8
66.1852,580.5
66.196,97.9
66.2288,308.1
66.2428,146.5
66.2443,170.9
66.2525,174.5
66.2574,122.3
66.2908,457.6
66.2938,108.8
66.3147,176.7
66.3437,89
66.3442,339.6
66.351,96.1
66.3524,23.8
66.3646,286
66.3713,401
66.4003,324.2
66.4006,280.3
66.4179,118
66.4192,173.6
66.4228,561
66.4244,233.1
66.4356,126.7
66.4603,402.1
66.468,546.1
66.4743,825
66.4773,718.7
66.4904,179.8
66.4986,152.5
66.5057,473.4
66.5096,16.5
66.5423,126
66.5521,387.4
66.5796,17.3
66.5959,637.5
66.5987,104.2
66.6073,364
66.6226,361.4
66.6331,235.4
66.6341,461.5
66.6377,467.8
66.6516,158
66.6574,460.2
66.6726,649.3
66.6845,252.2
66.6993,18.9
66.7052,183.4
66.7104,137.2
66.711,146.2
66.7127,105.2
66.7222,285.8
66.7231,277.5
66.7394,287.9
66.7711,95.6
66.7718,236.9
66.773,16
66.7847,116.4
66.8027,21
66.821,184.5
66.8257,219
66.8428,276.4
66.8548,80.4
66.8566,310.5
66.8604,58
66.8617,138.8
66.8873,118.4
66.9077,402.9
66.9105,228.8
66.9181,81.8
66.9298,185.4
66.9433,577.9
66.9646,110.2
66.9724,395.4
66.9741,198
66.9764,93.6
66.9787,235.9
66.9904,303.8
66.9912,93.5
66.9924,275.4
67.0039,99.2
67.013,376.2
67.0178,162.5
67.0361,101
67.0434,565.7
67.0539,52.5
67.0549,67.3
67.0581,493.9
67.0745,92.4
67.0814,84.3
67.0841,379.8
67.0885,415.4
67.1,226.4
67.1026,95.4
67.1088,255.1
67.1125,302.1
67.1205,114.8
67.1211,18.8
67.141,93
67.1581,161.9
67.1679,400.2
67.1912,198.1
67.227,331.2
67.2327,81.1
67.2505,659.9
67.2694,493.4
67.2804,20.7
67.3065,89.4
67.308,218.7
67.3158,305.5
67.316,289
67.3163,182.8
67.3223,17.2
67.3452,261.8
67.3506,107.3
67.3514,179.5
67.3571,88.5
67.3579,71.4
67.372,445.5
67.3737,242.9
67.4026,184.4
67.4117,530.8
67.4169,18.8
67.4238,18.3
67.4313,82.1
67.4628,230.8
67.4647,15.8
67.4722,17.8
67.4769,554.9
67.4832,590.4
67.4858,889.8
67.487,146.1
67.496,103
67.5239,266.4
67.529,167.6
67.5296,310.8
67.5491,102
67.5795,650.8
67.5898,532.3
67.6015,18
67.6091,515.7
67.6185,705.4
67.6203,211.1
67.6261,77.6
67.6599,433.5
67.6908,600.1
67.6989,96.2
67.7402,675.9
67.7651,133.3
67.776,289.9
67.8006,457
67.8137,173.2
67.8295,139
67.8505,453.6
67.8736,361.7
67.8747,528.2
67.8761,154.1
67.8799,282.7
67.8847,254.7
67.9226,163.3
67.9258,210.4
67.9269,159.3
67.931,142.6
67.942,397.4
67.9487,144.3
67.9719,546.8
67.9859,221.3
68.0095,486.8
68.0118,309.1
68.0471,531.2
68.0489,142.6
68.0534,300.6
68.075,640.5
68.0775,253.2
68.0861,521.4
68.1181,115.6
68.134,126.8
68.1566,171.5
68.1645,618.9
68.1657,498.7
68.1691,290
68.1725,501.8
68.1758,182.1
68.1874,331.8
68.19,246.5
68.2186,172.2
68.237,403.5
68.2382,105.1
68.2449,73.7
68.2512,586
68.2528,122.7
68.2607,180.1
68.2765,209.7
68.2948,358.8
68.2988,170.3
68.3062,430.3
68.3075,486.2
68.3099,141.1
68.3134,367.7
68.3238,117.4
68.3525,571.3
68.3559,283.4
68.4029,185.6
68.4182,16.5
68.4616,497.6
68.4976,166.4
68.5056,429.8
68.5361,191
68.5462,15.9
68.5627,96.5
68.5691,285.8
68.5711,239.3
68.5811,322.7
68.5892,71.5
68.6184,77.3
68.6223,96.3
68.6237,177.4
68.6452,151
68.6507,507.8
68.6538,83.6
68.6582,94.9
68.6628,173.5
68.668,642.1
68.6919,229.5
68.6973,127.5
68.7117,17.6
68.7278,560.8
68.7373,127.1
68.7596,258.1
68.771,139.9
68.7793,123
68.7951,140.7
68.7999,322.1
68.8011,507.1
68.8093,90.9
68.8116,164
68.8313,91.8
68.8371,238.2
68.8545,132.5
68.8598,115.4
68.877,293.3
68.8801,552.4
68.8846,135.7
68.8852,193
68.9201,370.3
68.9538,144.4
68.96,19.3
68.9967,451.3
68.9987,155.1
69.0202,94.9
69.0587,399.9
69.062,330.2
69.0782,160.1
69.0816,20.3
69.0973,289.6
69.1026,244.6
69.1211,644
69.1643,506.8
69.1732,97.4
69.2023,649
69.2039,297.8
69.2203,242.2
69.2228,72.4
69.2248,94
69.226,166.6
69.235,136.9
69.2701,91.3
69.2864,436.6
69.2917,304.4
69.3512,17.8
69.3806,222.5
69.3836,169
69.4345,130.1
69.4444,601.3
69.4669,176.3
69.4675,312.7
69.4753,59.2
69.4777,112.8
69.5267,104.5
69.5358,171
69.5634,229.3
69.5657,103.5
69.5687,121.2
69.5688,119.4
69.5997,146.9
69.6155,91.9
69.6258,194.2
69.6332,16.4
69.6398,96.3
69.6462,148.3
69.6606,573.6
69.6835,101.8
69.6952,114
69.705,408.5
69.7161,469.1
69.7191,449.9
69.72,97.6
69.7294,147.7
69.7349,163.7
69.7392,17.7
69.7446,208.5
69.7514,19.7
69.7701,286.8
69.7762,149.6
69.7812,103
69.7988,343.3
69.8047,389.1
69.8103,292.1
69.8412,115.9
69.8667,217.6
69.8953,20.4
69.9168,122.2
69.9189,132.1
69.9375,192.7
69.9449,101.4
69.9508,537.7
69.9533,146
69.9619,444.8
69.9636,339.4
69.9833,65.1
69.9894,116
70.0146,86.2
70.0147,87.4
70.0392,98.6
70.0412,155.5
70.0467,93.6
70.0662,277.3
70.086,95
70.0923,166.6
70.0997,277.9
70.1041,105.8
70.1135,132.1
70.1223,315
70.1282,171.9
70.1358,59.5
70.1869,393.1
70.1881,187.1
70.2004,298
70.2125,429
70.2339,287.4
70.2436,150.5
70.2525,521.6
70.2696,107.5
70.2759,155.9
70.2924,354.1
70.3062,149.8
70.3103,171.5
70.3136,16.8
70.3156,203.2
70.3168,210.8
70.4074,548.1
70.4231,221.1
70.4319,108.4
70.4449,179.5
70.4463,17.9
70.4679,106.4
70.4703,464
70.4781,274.7
70.4893,106.1
70.4913,96.5
70.4958,509.6
70.4996,90.6
70.5155,100.8
70.5222,415.2
70.5491,668.4
70.5514,497.4
70.5588,384.9
70.5816,174.6
70.5899,316.2
70.5952,114.7
70.6097,576
70.6218,89.5
70.632,501.9
70.6327,98.1
70.638,258.3
70.6381,264.9
70.6435,137.1
70.6764,171.1
70.6789,123
70.6793,192.5
70.7115,261.5
70.7182,504.1
70.7206,382.1
70.7228,99.3
70.7383,15.9
70.7544,160.5
70.7784,165
70.7854,103
70.8776,190.3
70.8891,160.8
70.9217,197.3
70.9671,114.9
70.9902,16
70.9936,373.8
70.9963,139.7
71.0087,101.4
71.0235,642.4
71.0392,17.7
71.0661,293.8
71.0692,126.6
71.0743,294.5
71.0879,95.6
71.0939,57.4
71.0945,92.8
71.1089,97.1
71.1124,146.9
71.1212,93.4
71.1459,107.4
71.1654,88.9
71.1691,333.1
71.1804,533.5
71.2071,556.6
71.2613,467.9
71.2713,180.7
71.2755,110.1
71.2905,141.3
71.2913,573.5
71.2965,177.9
71.3031,15.9
71.3087,264.9
71.3124,102.4
71.3159,92.9
71.3295,648.5
71.3359,78.7
71.3429,349.9
71.3618,313.4
71.3716,357.8
71.377,285.3
71.3901,93
71.4003,206.5
71.4525,104.7
71.4737,16.7
71.4759,509.6
71.4801,95.8
71.4898,349.5
71.4974,109.5
71.5304,125.7
71.5605,234.9
71.5626,143.6
71.5644,327
71.5671,110.5
71.5729,16.1
71.5773,356.4
71.5968,133.1
71.6126,15.9
71.6605,112.7
71.7372,90.8
71.742,159.5
71.8037,294
71.8207,499.5
71.8259,526.2
71.8289,176.6
71.8494,194.4
71.8517,63.3
71.8653,23
71.8765,280.4
71.8822,62.2
71.8872,130
71.8989,509.4
71.9174,410.6
71.9239,408.2
71.9489,563.8
71.9652,273.5
71.973,266.5
71.9747,127.9
71.9782,501.4
71.9924,424.4
72.0065,17.9
72.0086,76.5
72.0123,60.5
72.0173,20.8
72.0196,416.4
72.0219,117.9
72.0337,343.8
72.0391,261.6
72.0488,16.9
72.05,114.3
72.0531,560.2
72.0647,56.5
72.0805,551.7
72.0945,210.7
72.0967,387.3
72.0996,222.2
72.1305,105.3
72.1481,165.4
72.1572,265
72.177,603.7
72.2168,16.5
72.2207,306.9
72.2217,164.1
72.2227,19.6
72.2239,436
72.2246,718.1
72.2252,278.6
72.226,913.8
72.2279,722.8
72.2282,809.6
72.23,2906.7
72.2308,1921
72.2318,1400.1
72.2324,1224.4
72.2327,1154.8
72.2335,1548.4
72.2347,3116.3
72.2355,2240.7
72.2359,3161.5
72.2363,3258.6
72.2367,3992.8
72.2381,1547.3
72.2386,2582.9
72.2391,2200.1
72.2402,2521.6
72.2411,2008
72.2421,2213.5
72.2433,3112.9
72.2452,1303.9
72.2456,1554
72.2464,2271.9
72.2478,1849
72.2486,700.9
72.2504,816
72.2514,696.3
72.2525,718.8
72.255,101.5
72.2587,151.9
72.2604,160.8
72.2663,347.9
72.2758,303.5
72.2846,476.2
72.2898,94.7
72.3064,414.5
72.318,16.4
72.3291,100.3
72.346,135.3
72.355,200.2
72.3867,276
72.3959,543.1
72.4061,64.4
72.4151,255.8
72.4765,190.8
72.4776,120.9
72.4802,330.9
72.4826,340.6
72.5063,69.4
72.5163,102
72.5228,69.6
72.5535,635.4
72.5578,331.2
72.5681,19.2
72.5848,212.3
72.5954,575.5
72.6467,298.2
72.6816,16.6
72.6856,19.9
72.7104,193.9
72.7113,141
72.7215,574.3
72.7299,694.9
72.7361,280.8
72.7444,277.8
72.7803,103.9
72.7881,313.2
72.8086,17
72.8254,438.6
72.8315,604.9
72.8361,19.3
72.8415,104.8
72.8489,172.4
72.8557,501.4
72.8583,94.4
72.8612,402.1
72.881,671.9
72.8841,130.1
72.8848,378
72.9175,15.9
72.9372,336.8
72.9471,506.9
72.9538,294.1
72.9656,17.2
72.974,70.9
72.991,18.3
72.9921,141.4
72.9936,102.3
73.0106,275.6
73.0324,307
73.0446,133.3
73.0479,187.5
73.0777,814.7
73.0918,16.3
73.1039,473
73.1092,96.5
73.1574,15.8
73.166,169.2
73.1993,484.1
73.203,17.6
73.2041,244.1
73.2116,101.1
73.2187,434.7
73.2201,18
73.2647,73.3
73.284,142.1
73.2871,636.8
73.2922,195.8
73.2961,91.5
73.3037,97.1
73.3123,509.3
73.318,314.9
73.3201,131.4
73.3291,485
73.3649,192.7
73.3872,114
73.395,17.2
73.3983,17.7
73.4038,126.3
73.4195,427.9
73.4278,86.1
73.433,15.6
73.4529,173.3
73.4654,102.1
73.4664,18.4
73.4747,176.9
73.4868,212.3
73.4932,79
73.5066,108.5
73.5095,438.6
73.5196,77
73.611,429.4
73.6247,306.6
73.6344,561
73.6381,574.4
73.6932,407
73.7099,139
73.7177,171.3
73.7261,105.5
73.7306,164.5
73.7466,57.5
73.7754,357.9
73.8019,224.1
73.8028,117.5
73.8209,209.7
73.8255,475.3
73.8329,51
73.8463,92.5
73.8575,127
73.8606,130.2
73.8634,300.4
73.8977,444.3
73.9131,600.5
73.9227,568.2
73.9276,15.7
73.9298,112.4
73.9346,459.8
73.9531,170.2
73.959,114.7
73.9668,335.2
74.0028,319.7
74.0086,121.3
74.011,196.9
74.0146,137
74.0518,95.3
74.0598,3867.8
74.0707,291.8
74.0776,18.5
74.0839,192
74.1293,94.9
74.131,251.9
74.1414,263.7
74.1482,502.2
74.1528,163
74.1805,390.4
74.1923,337
74.2009,298.7
74.2409,180
74.2472,528.3
74.2491,650.3
74.2741,141.9
74.2805,150
74.3016,354.8
74.3052,18.5
74.3119,216.9
74.3317,93.7
74.3359,15.4
74.3381,15.7
74.3466,62.6
74.3809,75.8
74.4166,382.9
74.4386,53.8
74.464,100.7
74.4668,92.2
74.4682,19.6
74.4966,196.5
74.4979,93.2
74.5267,96.6
74.5431,105.4
74.559,57
74.5652,66.6
74.586,173.2
74.5978,296.1
74.6198,97.4
74.6349,307.4
74.6365,598.6
74.6566,134.1
74.6719,346.2
74.6943,175.9
74.7198,18.9
74.7212,77.4
74.7355,18.1
74.7753,131.3
74.7789,171.3
74.7794,394.2
74.7852,225
74.7896,497.6
74.8111,398.9
74.8121,110.2
74.8149,410.5
74.8302,101.9
74.8339,18.4
74.8796,17.8
74.8917,368.9
74.9018,428.8
74.9154,274.8
74.9351,532.1
74.9418,215.9
74.9495,110.7
74.9782,327.6
74.986,101.5
74.9937,18.3
75.01,351.9
75.03,660
75.0838,19.4
75.099,54.9
75.1011,130.1
75.1098,506.5
75.1108,693.3
75.1134,295.7
75.1183,19
75.1188,197.1
75.1378,168
75.1665,425.9
75.1713,251.4
75.1758,661.7
75.1919,259.1
75.1995,332.4
75.2064,359.2
75.2082,75.6
75.224,546.7
75.2672,574.1
75.2731,133
75.275,288.4
75.3187,342.8
75.3255,287.2
75.3373,480.5
75.3493,528.3
75.3594,590.1
75.3903,15.6
75.4111,96.1
75.4231,18.6
75.4248,164.8
75.4315,285
75.4323,104.6
75.4508,108.8
75.4612,475.2
75.4752,426.3
75.4888,251.4
75.4907,318.5
75.5067,20.7
75.5095,323.1
75.5212,260.2
75.5353,411.2
75.5359,126.1
75.5374,570.7
75.5447,240.7
75.5558,684.6
75.5932,405.6
75.6121,16
75.616,286.4
75.624,200.6
75.6998,402.8
75.707,116.8
75.7186,393.2
75.7199,268.6
75.7306,284.5
75.7504,17.8
75.7905,220.1
75.7912,76.2
75.7923,445.8
75.8595,21.1
75.87,17.5
75.8772,147.4
75.888,83.3
75.9116,91.7
75.9249,141.6
75.9316,364.9
75.9367,234.7
75.9751,342.1
76.0012,73.5
76.0051,16.3
76.0346,99.2
76.0393,112.3
76.0667,93.3
76.0884,596.2
76.0955,668.9
76.1087,60.7
76.1205,101.8
76.1388,516.1
76.1903,90.1
76.1968,769.1
76.2074,188
76.22,245.2
76.2259,94.9
76.2317,107.7
76.2458,398.8
76.2499,672.7
76.2605,380
76.2754,548.4
76.2758,540.7
76.285,479.6
76.2938,170.3
76.331,20.9
76.3455,136.5
76.3507,146.3
76.3599,62.6
76.3663,319.6
76.3759,97.5
76.4335,121.5
76.4397,282.2
76.444,86
76.4683,488.2
76.5103,19.4
76.5141,150.8
76.5247,374.3
76.5587,345.6
76.581,69.2
76.5932,149.8
76.6452,269.7
76.6494,209.3
76.652,428.7
76.6899,151.4
76.6966,63.8
76.7112,336
76.7129,431.5
76.7378,128.9
76.7462,163.9
76.762,17.8
76.8097,15.6
76.8107,322.2
76.8811,54.3
76.8851,322.5
76.8895,508.9
76.9154,524.6
76.9384,89.7
76.9493,505.6
76.954,296.6
76.98,264.7
77.0062,165.9
77.0154,364.7
77.0208,501.8
77.0239,80.6
77.0251,193.2
77.0316,83.9
77.0354,100.4
77.0383,125896.6
77.0525,216
77.0653,110.9
77.0914,16.4
77.101,280.1
77.1031,361
77.1046,253.7
77.1202,148.2
77.1486,17.8
77.1644,115.2
77.1659,139.1
77.1731,233.7
77.1748,643
77.2165,104.4
77.223,16.6
77.228,126.9
77.2549,269.1
77.2701,59.5
77.2965,380.7
77.3011,427.3
77.304,17
77.3069,132.1
77.3165,87.3
77.3203,207.7
77.3447,16.9
77.3832,468.3
77.4044,516.2
77.4193,114.2
77.4345,264.7
77.4502,320.9
77.4842,16.6
77.4863,90
77.4948,112.9
77.5079,112.6
77.5549,25.2
77.56,18.1
77.5624,81
77.5699,82.7
77.579,197.1
77.5867,123.2
77.6126,193.8
77.6402,398.5
77.6515,307.2
77.6582,146.4
77.6723,325.2
77.6831,191.4
77.7053,96.6
77.7306,90.5
77.7338,82.2
77.7727,166.9
77.7784,306.7
77.7957,267.2
77.8233,116.7
77.8297,205.6
77.8351,17.6
77.8442,307.8
77.848,167.3
77.8506,137.1
77.8603,159.3
77.8879,64.5
77.9112,81.4
77.9134,370
77.9161,274.7
77.9355,21.6
77.9404,305.6
77.9587,105.1
78.001,110.5
78.0417,4205.3
78.0462,21.7
78.0567,105
78.0822,111.6
78.1141,123
78.1913,96
78.2085,409.8
78.2341,18.1
78.2404,498.7
78.2418,444.5
78.2468,218.6
78.248,18.3
78.2509,93.7
78.2594,128.8
78.2759,16.1
78.3008,648.6
78.3221,458.6
78.3241,156.1
78.3402,268.3
78.3752,642.3
78.3845,477.9
78.3983,17.7
78.4346,131.2
78.4465,138.6
78.4816,87.7
78.4841,382.1
78.4865,319.8
78.4916,105.9
78.4976,134.9
78.5532,143.6
78.5716,57.2
78.6,236
78.6297,135.4
78.6579,343.7
78.6614,111.2
78.6773,128.6
78.6828,510.2
78.693,476.8
78.7443,19
78.756,488
78.7856,198.9
78.7933,574.3
78.8015,322.8
78.8123,75.2
78.8151,75
78.8264,19.6
78.8311,79.6
78.8465,95.6
78.8752,199.6
78.8993,17.2
78.9079,97.1
78.9086,309.9
78.91,88.4
78.9765,215.4
78.9786,58.5
78.987,80.8
78.9947,88.1
78.9968,227.8
78.9975,165.4
79.0046,631.4
79.0258,308.1
79.0281,584.3
79.0506,438.9
79.054,2203.2
79.0719,101
79.0855,427.2
79.0871,17.7
79.0894,159.9
79.1237,371.3
79.1417,230.5
79.1454,335
79.1463,357.7
79.1757,89.4
79.2094,15.9
79.2171,264.4
79.2229,711.7
79.2657,290.7
79.2663,342.8
79.2747,235.6
79.2796,17.7
79.2846,353.9
79.3065,80.5
79.3288,521.1
79.3403,129.5
79.398,16.1
79.4089,111.6
79.4457,82.5
79.5152,389.8
79.5159,370.9
79.5853,17.6
79.6069,141.5
79.6099,542.2
79.6106,70.9
79.6299,19.6
79.6361,382.7
79.6397,161.5
79.6421,280.3
79.6447,434.5
79.7126,196.3
79.7324,149.3
79.7671,16.5
79.7701,88.3
79.7765,581.4
79.7916,448.4
79.8006,16.4
79.8077,353.4
79.8628,112.1
79.8745,611.5
79.8892,499.4
79.8895,530.5
79.8897,568.3
79.8959,97.5
79.9154,353.5
79.9289,17
79.936,632.9
79.957,316.3
79.9768,19.7
79.9798,458.1
80.0444,18.2
80.0468,132.3
80.0573,54.3
80.1062,137.1
80.1734,194.6
80.1745,542.9
80.183,113
80.1916,117.5
80.1975,127.3
80.1997,538.4
80.2024,550.8
80.2112,108.3
80.2331,291.4
80.2669,135.7
80.2698,318.3
80.3279,128.1
80.3467,22.1
80.3653,420.3
80.4046,88.1
80.4066,482.9
80.4131,531.8
80.4157,419.4
80.4272,523.9
80.4279,183.5
80.4381,329.1
80.4837,491.8
80.502,436.7
80.5085,111.5
80.5244,280
80.5362,100.1
80.5466,82.7
80.5638,16.7
80.571,147.5
80.5944,174.3
80.599,91.9
80.621,106.4
80.634,90.1
80.6348,209.6
80.6401,20.6
80.6464,102.4
80.649,225.7
80.6511,149.5
80.6596,429.5
80.6785,83.5
80.7573,18.1
80.7638,192.5
80.7972,348.2
80.8513,22.1
80.8633,18.1
80.8674,18.7
80.8696,16.6
80.8747,140.6
80.8836,274.3
80.9068,153.9
80.9205,119.1
80.9401,162.1
80.9476,72314.6
80.9656,118.9
80.9708,428.3
80.9746,103.1
80.9984,93.6
81.0079,150.8
81.0237,157.1
81.0243,420.4
81.0292,166.2
81.033,143.6
81.0682,101.9
81.0696,1187.8
81.0756,215.1
81.0789,97.8
81.0846,61.6
81.0887,156
81.1248,177.3
81.1375,847
81.1406,541.8
81.1408,539.7
81.1414,1011.3
81.1429,169.7
81.1439,270
81.1451,512.2
81.1745,254.4
81.1808,591.5
81.2132,290.8
81.2145,17.4
81.2176,131.5
81.2348,396.5
81.2375,431.6
81.247,153.6
81.2566,569.7
81.2843,17.4
81.2964,690
81.304,239.3
81.3295,164.1
81.3484,292.5
81.3524,109.4
81.3682,118.5
81.3803,17.4
81.412,110.9
81.4151,17.7
81.4322,74.9
81.4397,257.8
81.4489,112.1
81.4582,61.6
81.469,178
81.515,682.2
81.5242,122
81.5334,85.8
81.5358,73.6
81.5562,97.4
81.5599,110.1
81.57,308.7
81.5719,121.8
81.5757,140.9
81.585,642.6
81.5999,113.9
81.6146,204.5
81.6573,316.5
81.6762,20.5
81.6929,565.8
81.6935,185.3
81.7053,110.3
81.7062,292
81.727,156.4
81.731,90.9
81.7438,104.6
81.7478,672.2
81.7596,110.4
81.767,194.1
81.7863,65.5
81.7936,168
81.8131,19.1
81.8164,16.2
81.8257,280
81.8491,23.9
81.8606,201.5
81.8649,82.5
81.9217,148.8
81.9226,450
81.9269,378.8
81.9284,17
81.9527,83.2
81.9643,132.5
81.9674,18.9
81.9687,259.6
81.9736,295.7
81.9803,178.8
81.9953,145.3
82.0095,17.3
82.0151,288.8
82.0209,161.2
82.0263,318.1
82.0563,112.7
82.0571,178.4
82.0647,310.9
82.0696,22.5
82.0711,101.4
82.0991,90.8
82.1103,164.7
82.1457,428
82.1616,512.8
82.1651,541.7
82.1825,105.9
82.185,345.3
82.1903,100.9
82.1978,181.4
82.2269,109.9
82.2488,56.5
82.2553,97.5
82.259,71.8
82.27,87.6
82.274,16.2
82.2882,19.6
82.2905,506.7
82.2912,181.8
82.3126,77
82.3364,499.7
82.3847,94.7
82.3855,17.1
82.4322,211.8
82.4338,89.2
82.4373,167.6
82.4397,194.1
82.441,69.4
82.4485,55.6
82.4843,630.6
82.4967,101.5
82.5172,76.3
82.5304,83.4
82.547,101.1
82.6179,210.1
82.6342,137.4
82.6581,185.3
82.676,319.4
82.7143,272.4
82.7189,17.5
82.7246,103
82.74,18.2
82.772,99.1
82.7886,511.4
82.8126,19.5
82.8591,16.9
82.8831,65.5
82.8929,82.4
82.9256,698.7
82.9447,19031.5
82.9699,19.3
82.9722,17.6
83.0073,473.1
83.0213,647.4
83.0354,468.6
83.0646,66.6
83.084,264.1
83.0853,104.5
83.1059,86.9
83.1278,156.3
83.1473,461.3
83.1485,597.8
83.1681,16.8
83.1719,430.3
83.1834,20.2
83.1917,767.8
83.1951,315.8
83.2027,63.3
83.2167,150.7
83.3098,647.9
83.3118,98.6
83.322,355.4
83.3528,18
83.3592,82.3
83.3631,111.2
83.3802,15.7
83.3896,98.5
83.3948,56.8
83.4041,135.8
83.4049,698
83.4178,507.1
83.4709,19.3
83.484,100.6
83.4966,76.1
83.4987,84.2
83.5066,148
83.5125,19
83.5402,200.3
83.5557,260.9
83.567,18.8
83.5968,262.3
83.6526,507.5
83.6729,17.6
83.6767,18
83.6845,286.4
83.696,514.7
83.6988,208.5
83.6997,109.1
83.7147,325.4
83.7156,241
83.7167,108.2
83.7185,370.9
83.7744,107.5
83.7787,274.9
83.7926,541
83.8027,93.4
83.812,262
83.8323,110.4
83.8374,472.3
83.9062,383.5
83.9224,544
83.9319,20.6
83.938,140.7
83.9476,191.7
83.9519,113.5
83.9537,373.4
83.9892,16.2
84.0292,83.7
84.0441,1124.7
84.0453,320.3
84.0806,620.6
84.1032,130.1
84.12,539.9
84.1457,644.1
84.1545,73.4
84.2415,194.3
84.2421,74.8
84.2554,152
84.2604,128.8
84.2763,165
84.2784,155.6
84.3023,102.9
84.3587,76.1
84.3614,455.3
84.3778,98.2
84.3793,548.6
84.3811,451
84.4239,16.7
84.4256,365.2
84.4268,246.6
84.4332,607.9
84.4346,112.7
84.4375,222.8
84.4415,154.1
84.4566,147.1
84.4898,89.4
84.5134,17.3
84.5212,323.7
84.5325,16.3
84.5457,19.8
84.568,199.7
84.5732,431.5
84.5904,179.1
84.5978,306.2
84.6057,275.6
84.6125,201.3
84.6255,102.6
84.6495,257.9
84.6512,126.3
84.7086,133.7
84.7531,259.1
84.799,429.6
84.8135,518.1
84.8657,139.5
84.872,106.7
84.8761,478.1
84.8996,101.5
84.9595,19050.9
84.9727,142.6
84.9843,75.2
84.9976,542.6
85.007,162.1
85.027,146.6
85.0282,854
85.0578,133.8
85.0789,542.7
85.1009,112.1
85.1079,155.5
85.1281,614
85.1578,99.9
85.1643,16.5
85.1653,339.6
85.1819,20.5
85.1896,397.5
85.2141,474.1
85.2208,16.7
85.2726,87.9
85.2797,339.3
85.2985,121.2
85.3103,505.3
85.3149,584.8
85.3661,70.4
85.375,585.6
85.3948,638.2
85.4052,108.6
85.4217,285
85.4302,19.4
85.4809,19.5
85.497,183
85.5366,503.5
85.5507,143.6
85.5653,360.6
85.5665,72.2
85.5811,510.3
85.619,484.4
85.659,278.7
85.7415,102.2
85.8148,93.4
85.8206,359.8
85.8279,364.9
85.8304,18
85.8348,475.5
85.8623,99.1
85.864,103.1
85.8745,98.1
85.8897,150.2
85.8967,111.6
85.9161,213.8
85.936,102.2
85.9814,336.1
85.9928,437.4
86.014,94.4
86.015,107.9
86.0459,183.5
86.0571,410.3
86.0577,641.2
86.0598,36794
86.0756,193.2
86.078,157.3
86.0962,107559.6
86.1049,246.8
86.1317,650.7
86.1432,280.5
86.1464,117.9
86.1568,404.8
86.1604,469.6
86.1671,180
86.1782,237
86.2001,377.4
86.211,104.3
86.2546,19.7
86.2742,104
86.2903,129.9
86.2957,108.3
86.322,517.7
86.3565,93.4
86.3774,529.2
86.3784,115.8
86.3951,65.3
86.4242,19.3
86.4298,160.3
86.449,149.3
86.4518,21.3
86.4699,159.5
86.4714,104.3
86.4862,94.5
86.5328,275.7
86.5674,570
86.5714,151.7
86.5803,114.6
86.615,239.6
86.6278,203.3
86.6579,109.3
86.6625,502.6
86.678,274.4
86.6943,19
86.7199,349.2
86.7235,583.6
86.743,354.6
86.7557,299.3
86.7663,89.3
86.8339,103.2
86.8377,20.3
86.8689,411.7
86.9053,458.6
86.9163,65.8
86.9223,535.6
86.9293,17.9
86.9373,94
86.9441,101.3
86.9531,399.3
86.9834,122.4
86.9948,162.3
87.0028,123.8
87.0059,98
87.0159,19.1
87.0171,103.8
87.022,142.4
87.0441,97.1
87.0766,17.6
87.0919,101.3
87.0979,334.2
87.1023,264.9
87.1039,20.6
87.1183,100.5
87.1714,509.4
87.1741,17.9
87.1876,122.9
87.1993,558.6
87.2246,21.8
87.2391,370.1
87.2719,360.9
87.3009,111.5
87.3383,220.8
87.3804,22.6
87.3878,398
87.4243,457.6
87.4507,337.9
87.4766,19.7
87.4925,102.8
87.4993,425.2
87.5187,470.1
87.5538,373
87.5719,89.2
87.5929,686.8
87.6125,450.1
87.6294,252.1
87.6427,75.1
87.6441,396.6
87.6478,111.3
87.6554,125.8
87.6583,159.1
87.6745,17.9
87.6984,305.2
87.7038,159.1
87.7208,339.5
87.7402,362
87.7629,157.8
87.7763,496.8
87.779,68.7
87.7831,263.3
87.7963,101.8
87.8094,146.2
87.8306,90
87.8333,349.1
87.8691,92.6
87.872,172.3
87.881,598.8
87.8961,146.6
87.9255,318.8
87.928,171.6
87.9318,17.1
87.9685,700
87.9716,76.6
88.0012,257.3
88.0391,8102.2
88.045,101.5
88.0532,102.4
88.0628,684.5
88.0696,19.2
88.0878,182.3
88.0945,628.5
88.0989,182.1
88.1005,486.4
88.1203,421.9
88.1232,19.9
88.128,481.7
88.1441,307.4
88.1521,86.3
88.1891,214.1
88.2118,183.4
88.2232,18.2
88.2349,150.3
88.2628,128.8
88.2714,310.9
88.2808,283.2
88.3347,122.7
88.337,16.5
88.3443,304.8
88.3689,120.4
88.3789,114.6
88.3949,513
88.4238,16.2
88.4459,567.5
88.4569,157.3
88.523,191.7
88.5444,341
88.5701,159.1
88.575,235
88.6355,116.9
88.6896,510.6
88.7036,292.8
88.7176,84.6
88.7198,278.4
88.7487,450.4
88.8099,227.7
88.855,622.3
88.889,74.8
88.8905,124.2
88.8972,173
88.9211,18.5
88.9241,127.1
88.9248,199.7
88.9524,19.7
88.9699,484
88.9881,19.5
88.9954,437.8
89.006,205.8
89.0125,114.9
89.017,637.9
89.0444,263.9
89.0467,134
89.0478,18.3
89.0577,541
89.0593,17.7
89.0901,492.4
89.1058,465.2
89.13,281.7
89.1318,19.5
89.1437,230.4
89.2195,16.6
89.2257,159.1
89.2356,288
89.2369,428.4
89.244,141.8
89.2575,98
89.3071,497.8
89.3398,17.2
89.3634,667.1
89.3686,114.6
89.4307,122.3
89.4406,112.5
89.4419,581.3
89.4772,565.5
89.482,514.4
89.4846,158.8
89.5117,122.2
89.5366,301.6
89.5403,526.1
89.5695,312.2
89.5791,113.9
89.601,19
89.6056,131.1
89.6149,330.6
89.6349,517.6
89.6574,574.5
89.6837,214.4
89.7017,100.3
89.7386,114.6
89.7402,222.7
89.7578,114.5
89.7624,690.9
89.7996,492.6
89.8213,92.4
89.826,316.5
89.8282,22
89.838,285
89.874,19.4
89.9006,304.6
89.9059,102.9
89.9204,305.1
89.9307,97.5
89.9351,107.2
89.9719,602.8
89.9986,938.7
90.0015,354.1
90.0017,355.5
90.0205,340.1
90.0421,559.1
90.0463,364.9
90.0708,17.5
90.0906,74.4
90.0995,283.4
90.1034,422.7
90.1165,553.5
90.1225,430.1
90.1609,521.6
90.1659,349.6
90.1732,359.9
90.1776,284.7
90.2098,592.4
90.2236,512.2
90.2483,353.2
90.2627,341.1
90.2749,474.9
90.2846,101.2
90.3243,215.8
90.3493,115.3
90.3517,18.2
90.3878,396.1
90.4265,696.3
90.4666,183.9
90.4742,621.3
90.5189,87.1
90.5252,686.3
90.5276,117.3
90.5498,245.3
90.5957,18.4
90.5984,141.6
90.641,306.9
90.6774,18.5
90.6815,306.8
90.7001,481.8
90.705,158.2
90.7239,157.3
90.7543,210.4
90.782,232.5
90.7826,93.1
90.7877,110.5
90.7928,602.4
90.8213,341.6
90.8231,171.6
90.8329,323.3
90.8489,21.1
90.9011,80.2
90.909,260
90.9169,155.9
90.9181,157.4
90.9204,263.1
90.9279,159.3
90.9476,166.2
90.9506,755.5
90.9531,315.8
90.9753,103.4
90.9765,10511
90.9881,258.3
90.995,338.3
91.0118,194.2
91.0123,260.9
91.0151,18.3
91.023,402.2
91.0266,157
91.0354,417.5
91.0529,188.6
91.0541,1366.3
91.0625,265.9
91.1573,563.6
91.1665,276.9
91.192,556.3
91.1944,18.6
91.2128,160.6
91.2597,20.3
91.2627,439.8
91.2688,314.2
91.277,107.3
91.2861,476.9
91.2924,136.6
91.3024,134.3
91.311,465.2
91.3438,236.6
91.4144,412.9
91.4481,120.9
91.4501,153.2
91.4587,847.5
91.4613,483.4
91.5022,393.7
91.5256,585.8
91.5294,98.9
91.5666,19.1
91.5952,20.4
91.6028,165.8
91.6227,326.3
91.6563,295.2
91.6629,126
91.6642,189.8
91.6724,19.8
91.6782,523.1
91.7018,112.4
91.7193,319.2
91.7324,98.3
91.7359,147
91.7389,394.1
91.7453,422.9
91.7632,719.2
91.769,513.1
91.7881,551.5
91.8015,504.3
91.8023,286.3
91.8466,19.9
91.8589,274.8
91.8794,577.7
91.9957,23.6
92.0214,106.9
92.0266,101.3
92.0571,358.2
92.067,105.5
92.0899,348.9
92.0985,321.1
92.1062,321.9
92.115,374.5
92.1368,538.5
92.1371,487.6
92.1375,406.5
92.1643,16.3
92.1781,132.7
92.1907,81.1
92.2029,386.7
92.2067,538.1
92.2345,20.2
92.2538,281.7
92.2937,142.4
92.346,320.2
92.3477,728.6
92.3677,107.8
92.3932,482.5
92.45,677.2
92.4568,657.1
92.4792,738.5
92.4916,720.9
92.5215,80.7
92.5364,691.1
92.5524,279.5
92.5607,68.5
92.5642,280.1
92.5856,96
92.6141,185.1
92.6525,274.8
92.6638,212.1
92.7035,369.1
92.7263,298.8
92.7822,279
92.7965,169.5
92.801,300.7
92.8364,94.9
92.8592,241.8
92.9041,140.2
92.905,665.9
92.9123,407.2
92.9185,184.8
92.9637,117.7
92.9686,449.1
92.9711,120.5
92.9786,20.9
92.9793,134.1
92.9923,400.6
92.9988,178.4
92.9999,512.2
93.0126,656.7
93.0142,104.8
93.0618,695.8
93.0687,414.3
93.0697,147.7
93.0931,286.9
93.1501,141.4
93.2602,409.9
93.288,245.4
93.3154,64.1
93.3407,192.6
93.3526,126
93.3667,420.8
93.377,72.5
93.4083,213.8
93.4254,603
93.4434,471
93.4824,100.8
93.5235,383
93.5247,20
93.5266,279.8
93.5425,236.1
93.5454,427.5
93.5598,270
93.5636,422.9
93.5646,329.5
93.5683,132.6
93.572,676.1
93.6027,26.7
93.614,774.6
93.6341,296.1
93.6393,107.4
93.6528,609.8
93.6942,134.2
93.7106,367.4
93.7295,103.3
93.7379,188.2
93.7497,18.2
93.8871,117.9
93.9067,83.7
93.9115,397.3
93.915,269.5
93.9404,91.9
93.9576,111.3
93.9857,262.4
94.0085,111.7
94.0275,17.9
94.0412,56867.9
94.0686,685
94.076,342.1
94.102,96.4
94.1319,159
94.1412,223.7
94.1487,462.4
94.1521,115.1
94.2026,261.1
94.2053,108.2
94.2457,404.3
94.285,21.3
94.2912,331.4
94.2987,259.6
94.3279,80.3
94.3368,701.7
94.3406,444.8
94.3479,72.4
94.3748,155.9
94.3882,165.8
94.3922,17.1
94.4058,17
94.4159,214.6
94.4448,72.3
94.4555,487
94.464,127
94.4718,88.4
94.4781,135.2
94.5228,259.7
94.536,182.5
94.5386,213.8
94.5487,101.2
94.5955,138.8
94.6041,17.6
94.6089,98.5
94.6232,101.7
94.6602,179.3
94.6618,442.3
94.7447,67.3
94.7502,139.1
94.7521,620.7
94.7625,554.1
94.7877,107.9
94.8016,317.9
94.8145,286.6
94.8384,363.9
94.857,79.1
94.8846,104.5
94.971,506.1
95.0087,122.8
95.0236,22.8
95.0331,208.2
95.0356,74.4
95.0446,1261
95.0462,33
95.047,115.4
95.0477,336
95.049,436156.5
95.0516,27.3
95.0526,25.9
95.0625,33.3
95.079,305.3
95.0836,526.3
95.0854,661.2
95.0893,24.6
95.0923,669.4
95.1163,23.1
95.1445,166.4
95.1689,676.5
95.2095,240.5
95.2447,299.1
95.2816,347.5
95.3036,101.8
95.3224,142.4
95.388,99.5
95.4108,447.5
95.4355,409.3
95.4405,17.3
95.4433,71.5
95.4512,531.1
95.4746,17.2
95.4935,181.3
95.5234,78.3
95.5349,629.6
95.5444,18.3
95.5534,126.5
95.6088,327.1
95.6243,103.3
95.6265,126.8
95.6293,146.1
95.6844,65.4
95.7165,353.9
95.7191,156.4
95.7299,19.1
95.7456,18.2
95.7491,156
95.7514,308.2
95.7523,295.8
95.7565,246.7
95.772,187.7
95.8369,455
95.8394,90.7
95.9091,254.4
95.9196,169.3
95.921,654.3
95.9301,58.9
95.9319,464.6
95.9433,365.3
95.9708,211.2
95.9852,534.6
95.9908,15.7
96.0038,206.6
96.0449,427.1
96.0523,19680.9
96.0733,98.3
96.0773,98.9
96.0853,172.1
96.1009,75.3
96.1094,93.2
96.1205,83.1
96.1327,262.9
96.1511,18.2
96.1691,356.1
96.304,347.7
96.3631,82.2
96.4156,19.4
96.4342,509.3
96.444,96
96.4665,834.7
96.4697,110.4
96.4768,229.7
96.4879,274.9
96.5092,98.5
96.5151,258.3
96.5278,97.1
96.5287,217
96.5616,20.1
96.5786,462.4
96.5841,264.2
96.6151,75.8
96.66,70.4
96.6911,362.2
96.6994,89.6
96.7145,326.2
96.7184,116.4
96.7247,154.5
96.733,16
96.766,455.1
96.774,135.6
96.7873,77.9
96.7968,159.5
96.8567,279.4
96.8639,536.6
96.8682,107.1
96.8808,22.8
96.8911,106.1
96.9174,278.4
96.9216,173513
96.9387,89.9
96.9544,100.7
96.9865,84.3
97.0075,212
97.0104,23.9
97.0465,19.7
97.0487,521.4
97.0532,83.1
97.0557,30.6
97.0735,257.7
97.095,329.7
97.1011,23.1
97.1116,323.3
97.1426,88.9
97.2181,298.6
97.2476,17
97.2697,99.6
97.2785,67.1
97.2912,131.7
97.297,441.5
97.316,172.5
97.336,18.8
97.34,401.6
97.3669,485.9
97.3861,94.2
97.4116,368.6
97.412,453.7
97.4125,222.8
97.4255,84.1
97.4278,205.3
97.4485,18.6
97.4509,436.1
97.4597,677
97.4691,89
97.4734,91.4
97.5128,383.2
97.5352,334
97.621,62.3
97.6983,17.6
97.7187,451.5
97.731,846.5
97.7335,695.6
97.7572,434.6
97.7785,214.5
97.7878,282.9
97.8158,496.1
97.8233,96.5
97.8361,209
97.8426,105
97.8908,101.8
97.9274,531.8
97.9309,431.2
97.9322,419.3
97.9341,153.6
97.9609,478.7
97.9983,103.4
98.0185,140.1
98.0837,21.8
98.0892,81.4
98.1087,109.9
98.127,589.6
98.1564,165.6
98.1613,313.2
98.1795,141.5
98.1814,105
98.224,364.1
98.2303,599.8
98.2583,128
98.277,277.5
98.2875,211.3
98.321,143.2
98.3214,140.4
98.3299,703
98.3469,18.7
98.3611,264.8
98.3717,258.8
98.3857,108.8
98.4266,485.7
98.4607,169.2
98.461,199.2
98.4616,194
98.4855,351.4
98.5183,406.9
98.5205,234.5
98.5745,303.6
98.6068,109.9
98.6398,92.1
98.6721,98.4
98.706,18.9
98.7297,478
98.7763,654
98.7772,572.2
98.7842,465.8
98.7848,448.4
98.8084,162.8
98.8531,104.6
98.8603,16.3
98.8607,16.8
98.8923,368.7
98.9187,49997
98.9197,7663.5
98.954,96.6
98.9752,16864.9
98.9776,152.6
98.9805,497.9
98.984,121.9
98.9954,1190.7
98.999,516.4
99.0475,335.2
99.073,388.5
99.0809,578.2
99.0914,18.6
99.0963,357.7
99.1054,17.7
99.1164,87
99.1214,265.6
99.1997,78.1
99.2259,99.1
99.2725,20.6
99.279,107.3
99.3727,415.1
99.3806,88.1
99.3811,87.6
99.4662,236.4
99.4751,85.8
99.4762,368.7
99.488,128
99.4951,350.3
99.5126,169.8
99.5416,171.2
99.5525,155.5
99.6161,109.8
99.6212,180.5
99.6227,330.6
99.6851,577.5
99.7473,20
99.7522,711.8
99.807,165.6
99.8377,199.3
99.875,22.9
100.0004,124.5
100.0806,340.2
100.1287,102.3
100.1687,503.9
100.1795,96.6
100.1883,21.2
100.1969,380.3
100.1974,374.5
100.2186,105.4
100.2319,517.3
100.2687,157.4
100.2938,85.5
100.3198,359.6
100.3373,152.5
100.3412,102.5
100.3486,309.4
100.3553,147.6
100.3813,396.3
100.4052,389.3
100.426,423.9
100.4727,182.6
100.4764,165.4
100.5112,190.5
100.5292,120.5
100.5553,389.1
100.5672,85.4
100.6008,259.4
100.6178,313.6
100.6358,109.1
100.7014,259.1
100.7313,210.8
100.7566,17.6
100.7631,85.7
100.7676,99.4
100.802,19.4
100.8073,357.5
100.8395,89.8
100.8744,99.6
100.8966,102.3
100.8979,316.1
100.9141,427.1
100.9169,1298.1
100.9494,324.8
100.9574,375.6
100.9817,520.8
101.0419,16.7
101.047,2056
101.0554,16.9
101.0666,378
101.0708,1286.4
101.0734,106.4
101.1247,59
101.1559,524.2
101.158,91
101.1639,245
101.1764,624.3
101.1829,98.5
101.1903,221.5
101.2203,21.3
101.2341,123.2
101.2487,567.1
101.2623,22.1
101.271,545.1
101.4025,192.4
101.4069,85.2
101.4096,159.1
101.4107,96
101.4397,436
101.4439,763.2
101.4598,17.2
101.477,199.4
101.4831,315.4
101.5011,498.2
101.5217,91.7
101.5464,183.5
101.6098,462.4
101.6206,320
101.6415,651.2
101.6502,529.2
101.6863,106.5
101.7401,554.8
101.7723,84.8
101.8147,279.8
101.8497,107.1
101.8612,311.9
101.8686,530.9
101.9175,269.6
101.969,571
101.9788,162.4
102.0002,15.5
102.0548,4817.4
102.0794,417.1
102.1023,179.6
102.1065,183.8
102.111,172.4
102.2172,409.4
102.2191,310.6
102.2393,563.4
102.2397,596.3
102.2402,460.6
102.2429,111.7
102.2834,615.4
102.2869,171.9
102.2986,462.9
102.2995,164.6
102.3251,95.1
102.3457,471.2
102.3764,382.4
102.4031,342.3
102.4117,220.7
102.4277,72.7
102.4343,17.8
102.4413,183.1
102.463,442.4
102.4696,152
102.4717,231.6
102.4744,170.6
102.5071,156.1
102.5412,389
102.5542,181.8
102.5722,201.9
102.5738,18.4
102.6818,716.6
102.7025,384
102.7117,94.4
102.746,232.3
102.773,224.7
102.859,812.5
102.8799,167.2
102.9334,17.6
102.9663,304.5
102.9701,562.1
103.0075,19.1
103.0209,133.1
103.0294,292
103.0719,221.1
103.1272,93.8
103.1296,221
103.1646,635.2
103.1749,496.6
103.2094,342.6
103.2216,270.4
103.2857,385
103.3377,17.8
103.3509,274.1
103.4224,473.7
103.5117,120.1
103.5583,90
103.5599,128
103.5927,394.8
103.6071,228.2
103.685,83.7
103.6914,137.3
103.6976,103
103.7598,200.6
103.7708,439.2
103.7721,90.9
103.7905,112.2
103.7913,498.3
103.8021,17.5
103.8202,107.2
103.8505,173.2
103.877,357.7
103.8785,509.5
103.8926,349.1
103.8998,177.1
103.9719,691
103.9767,234.5
103.9841,109.4
103.9946,155
104.0164,669.9
104.0576,133.1
104.0734,445.2
104.0857,373.7
104.104,17.2
104.1069,544691.4
104.1114,347.6
104.1398,148.6
104.1456,80.4
104.1544,72.6
104.1555,201.1
104.1747,145.6
104.2081,117.8
104.2345,137
104.2444,558.3
104.2822,546.1
104.309,457.3
104.3241,112.8
104.3334,315.4
104.3694,152.1
104.3825,62
104.4211,188.2
104.4287,541.9
104.4967,700.7
104.5318,17.9
104.5484,268.7
104.5885,305.1
104.6088,431.4
104.6647,173.5
104.6718,140.3
104.6954,161.6
104.7157,162.7
104.7548,262.4
104.7613,63.8
104.7929,554.3
104.8275,460.4
104.8479,165.8
104.8491,19.7
104.8642,106.2
104.9076,53.9
104.9168,84
104.9366,222.8
104.9394,73.6
104.949,173.8
104.9632,158.6
104.9921,2337.1
105.0038,100.2
105.0296,433
105.0446,41159.6
105.0699,26.1
105.1036,398.9
105.1074,100.5
105.1102,19929.3
105.116,233.6
105.1246,470.2
105.1362,104.5
105.1382,142.6
105.1436,113.9
105.1614,151.4
105.1717,92.9
105.2421,357.5
105.2517,134
105.316,213.6
105.3215,93.5
105.3229,163.3
105.3417,115.7
105.3656,75.9
105.4312,264
105.4954,147.5
105.5331,88.9
105.5545,76
105.5684,242.5
105.5896,91
105.6019,614.3
105.6193,288.8
105.6322,90.1
105.6576,95.8
105.7653,17.9
105.791,311.4
105.8088,719.7
105.8274,19.4
105.9179,539.6
105.9674,560.4
105.9758,325.5
106.0316,18.6
106.0331,100.9
106.0405,98.3
106.048,1238.1
106.1602,328.4
106.1987,105.8
106.2229,545.3
106.2328,129.4
106.2427,324.2
106.2596,106.6
106.277,389.1
106.3005,451.2
106.3198,17.9
106.3662,109.9
106.3705,100.3
106.3731,135.1
106.3753,142.3
106.3953,588.4
106.3967,452.5
106.4001,248.4
106.427,225.3
106.4313,117.6
106.4762,192
106.4791,98.8
106.4889,302
106.5022,96.5
106.5161,162.3
106.5261,164.6
106.5539,17.2
106.5732,454.8
106.6128,19.7
106.6591,131.6
106.7534,624.6
106.754,591.5
106.7634,339.8
106.7953,96.8
106.7994,119.3
106.855,191.8
106.8569,135.9
106.8576,141.5
106.8616,97.9
106.8822,154.9
106.9279,61.8
106.9433,169
106.9505,2672.8
106.9768,578.2
106.9918,116.5
107.0062,17.5
107.0282,99.9
107.0466,381.1
107.049,697.7
107.0663,182.7
107.0798,146
107.0855,22.8
107.0874,104.7
107.1705,116.6
107.2147,303.9
107.2226,15.9
107.229,255.6
107.2388,164.4
107.2472,313.6
107.2852,151.4
107.3306,128.3
107.3609,144.3
107.3706,156.3
107.405,118.9
107.4129,294.8
107.5051,77.7
107.5228,247.4
107.5424,178.5
107.5666,551
107.5937,187.7
107.5946,105.3
107.5964,312
107.612,111.9
107.6214,621
107.7181,242.7
107.7265,18.7
107.7417,132.5
107.7474,149.3
107.7519,128.7
107.7668,72
107.8306,540.3
107.8666,129
107.8717,288.9
107.889,358.6
107.9017,299.8
107.9217,470.4
107.9488,18.8
107.971,176.3
107.9809,896.2
107.9939,20.9
107.9956,129.6
108.0058,290.7
108.0107,504.8
108.014,321.7
108.032,99.8
108.0413,141.9
108.0568,25.8
108.0646,485.1
108.0898,408.9
108.0924,421.1
108.1187,76.4
108.129,172.7
108.1321,132.2
108.1422,471.5
108.161,288.3
108.1902,537.8
108.193,98.8
108.2312,274.7
108.2449,357.9
108.2968,139
108.3054,265.3
108.3396,112.8
108.3539,480.4
108.3591,308.1
108.3884,104.3
108.4174,119.3
108.4738,17.1
108.4891,135.5
108.5079,297.5
108.525,624.4
108.5291,161.7
108.5482,658.3
108.5866,475
108.603,114.3
108.6586,126.7
108.6769,275
108.7118,429.9
108.7142,160.7
108.734,81.9
108.7926,171.2
108.8344,114.4
108.8395,356.4
108.8545,818.4
108.8833,91.4
108.8871,466.6
108.9011,17.9
108.9062,124.1
108.9115,117.8
108.9187,18.2
108.9322,317.1
108.9777,633.5
108.9825,92.9
108.9932,567.8
109.0212,567.3
109.0247,156.4
109.0443,60.1
109.0647,60889
109.1011,277.2
109.1097,362.3
109.136,282.8
109.1503,184.7
109.1715,286.7
109.267,477.2
109.2703,303.8
109.3306,412.9
109.367,100.1
109.3828,80.9
109.3846,176.1
109.3876,489.1
109.3886,115.5
109.4302,135.8
109.4559,288.1
109.4582,544.5
109.4689,408.5
109.4819,196.7
109.504,425.4
109.5198,91.9
109.5938,290.5
109.5963,166.4
109.6403,337.4
109.6479,571.7
109.6558,18.6
109.6583,289
109.747,20.9
109.7639,415.8
109.7699,177.6
109.8084,304.7
109.8653,200.6
109.872,113.6
109.9338,113.3
109.9443,19.7
109.9828,264.4
109.9969,104.1
110.0278,155.7
110.068,2153
110.0712,1109.9
110.0991,83.3
110.1211,134
110.1247,135.6
110.1304,253.9
110.1562,82.1
110.1715,301.5
110.1893,459.1
110.2669,100
110.2744,101.1
110.2772,438.9
110.2871,450.3
110.2985,357.9
110.3045,203.6
110.3087,135.7
110.3273,458
110.3476,285.7
110.352,18.2
110.3751,387.1
110.387,95.7
110.4469,488.5
110.4875,297.6
110.5063,150.1
110.524,441.6
110.5326,17.2
110.5469,342.7
110.5536,294.1
110.5608,624.5
110.5744,93.3
110.6181,140.1
110.6206,20.4
110.6321,465.3
110.6332,99
110.6438,15.9
110.6803,17.5
110.7021,205.1
110.7386,174.7
110.7523,216.8
110.8028,299.6
110.8107,363
110.8215,67.1
110.8325,155.5
110.8696,107.6
110.871,322.8
110.887,434.3
110.8925,89.5
110.9124,76.2
110.9569,508.1
111.0232,420.1
111.0439,460.5
111.0877,142.2
111.1034,359.8
111.1138,140.9
111.1467,74.5
111.1642,673.2
111.2097,69.8
111.3929,16.4
111.3953,18.3
111.4481,106.3
111.4522,556.3
111.4593,196
111.4695,684
111.5111,371.6
111.5302,352.6
111.5323,74.3
111.5637,146.9
111.5749,116.4
111.584,17.2
111.6219,286.8
111.6536,99.9
111.6682,437.3
111.6795,183.6
111.6976,625.1
111.7057,317.9
111.721,414.5
111.7477,125.5
111.7696,78.3
111.7708,18.6
111.7902,114.1
111.8021,491.4
111.866,293.1
111.8747,138.4
111.9468,633.4
112.005,17.9
112.0132,538.8
112.0171,395.4
112.0544,411.6
112.0665,156.7
112.0876,163.3
112.1,457.5
112.178,138.2
112.2057,19
112.2302,17.8
112.2347,668.5
112.2615,157.3
112.2842,549.3
112.4185,648.4
112.4799,109.2
112.5288,679.1
112.5432,483
112.5524,142.3
112.5818,101.4
112.5945,106.2
112.6139,142.5
112.6869,19.1
112.692,121.1
112.7143,681
112.7161,101.2
112.7493,141
112.7598,108.8
112.7921,88.8
112.8318,17.9
112.8568,97.4
112.8731,166.9
112.8815,496.9
112.8922,58.8
112.8956,368731.3
112.9506,96
112.9664,62
113.0115,18
113.0234,103.3
113.1329,561.7
113.1419,150.9
113.1614,267.3
113.2003,205.4
113.2022,63.1
113.2055,188.7
113.233,488.8
113.2505,533.1
113.2561,301.3
113.3306,164.4
113.3738,377.8
113.3926,588.8
113.4316,185.8
113.4557,102
113.4622,516.2
113.4783,193.4
113.4929,90.7
113.5083,481.2
113.5149,174.7
113.5356,171
113.5518,527.3
113.5556,132.7
113.5672,476.7
113.5699,18.7
113.5731,310.5
113.6057,168.5
113.6374,77.9
113.6771,164.4
113.718,121.3
113.7592,141
113.7841,393.5
113.7939,592.4
113.7985,154.2
113.8013,417.5
113.8074,18.9
113.8237,720.8
113.8294,130.2
113.8606,113.1
113.9693,153.3
114.0315,487.7
114.0408,230.8
114.0424,262.5
114.0527,115.3
114.0549,51149.5
114.0607,21.3
114.0661,4598.8
114.1277,295.7
114.2065,103
114.2276,104.1
114.2667,469.3
114.2842,20.2
114.3255,335.7
114.3708,104.6
114.3975,129.6
114.4093,225.9
114.4114,162.4
114.4157,103.5
114.4605,17.3
114.6032,16
114.6379,654.7
114.6457,91.2
114.6789,723.4
114.7085,314.7
114.8187,166.8
114.8415,66.3
114.8607,435.5
114.8927,114416.7
114.8988,566.4
114.9333,106.4
114.9465,114.1
114.9901,152
114.9955,21.6
115.0123,114.5
115.0289,17.3
115.0325,335.2
115.0514,176.3
115.0582,959.7
115.0691,17.8
115.0864,907.7
115.1204,93.3
115.128,267.1
115.1666,268.8
115.1709,108.3
115.2028,75.9
115.2229,17.3
115.2701,400
115.3115,58.8
115.3216,599.5
115.324,106.8
115.3355,102.4
115.3393,77.7
115.4061,315.8
115.4117,458.5
115.4138,122.6
115.4729,19
115.4814,60.4
115.5007,511.8
115.5016,93.2
115.5397,159.6
115.602,177
115.6106,471.3
115.6384,95.2
115.6722,19.6
115.6756,410.6
115.6785,162.6
115.6994,286.5
115.7095,100.4
115.7421,97.2
115.8325,509.8
115.8362,138.2
115.8472,172.7
115.9294,89.9
115.9792,25.9
115.9927,461.2
116.006,120.7
116.0201,552
116.0248,468.5
116.0359,205.8
116.0705,2178.5
116.0732,253.9
116.0846,475.4
116.0901,158
116.1417,447
116.2018,192.5
116.2663,22.9
116.2919,351.9
116.332,491.2
116.3418,193.4
116.3535,202.8
116.3701,367.2
116.3862,190.7
116.4192,144.6
116.421,17.2
116.4258,79.8
116.4536,393.7
116.4593,159.7
116.4859,95
116.5097,23.7
116.5529,303.5
116.5861,141.4
116.6215,537.8
116.6584,295.1
116.6714,669
116.6738,144.9
116.6794,580.1
116.6846,148.8
116.7077,579.5
116.72,359.1
116.7501,155.9
116.7617,410
116.8387,509.7
116.8465,157.7
116.8817,16.7
116.8908,12287.4
116.8931,249.5
116.9026,142.6
116.9111,354.5
116.9667,19.5
116.9857,1101.7
117.0058,17.8
117.0365,105.1
117.0519,217.1
117.1041,100.9
117.109,306.4
117.138,346.4
117.1534,732.8
117.1565,113.5
117.2231,393
117.2337,369.5
117.236,217.1
117.3478,339.2
117.3589,337
117.3742,125.1
117.4062,521.3
117.4376,348.3
117.4447,71.9
117.5055,20.3
117.5232,61.3
117.5482,20.3
117.5616,139.3
117.6504,171.9
117.682,347.1
117.6919,126.3
117.7002,435
117.7037,570.1
117.72,346.4
117.8199,160.6
117.8321,176.9
117.8653,198.4
117.9239,204.3
117.9275,18.7
117.957,164.9
117.9833,361.9
118.0158,406.6
118.0238,482.2
118.0358,133.6
118.0494,71.1
118.0627,708.7
118.0734,217.3
118.0863,589.9
118.0945,17.7
118.1176,16.2
118.1522,17.7
118.1619,118.2
118.1922,290.5
118.2284,17.1
118.2694,125.5
118.2733,15.6
118.319,17.8
118.3366,17.1
118.3472,20
118.3579,109.2
118.3767,137.6
118.3845,454
118.4355,260.1
118.4873,19.9
118.4942,147.3
118.5037,206.1
118.5062,96.8
118.5225,176.9
118.5395,16.9
118.5605,86
118.6343,17
118.6491,147.9
118.738,577
118.7417,239.8
118.7469,17.7
118.7877,489.1
118.8102,130.8
118.8265,95.1
118.8314,478.8
118.8444,408.1
118.846,20.2
118.8682,67.5
118.8954,150.4
118.8978,118.2
118.9426,24.1
118.9719,266.5
119.0188,22.1
119.0859,757.1
119.1356,406.3
119.154,529.3
119.1699,155.7
119.1926,202.5
119.211,164.8
119.2227,169.3
119.233,789.5
119.242,417.9
119.2951,77.3
119.3343,113.3
119.3874,105.4
119.4177,190.2
119.4493,288.4
119.5025,321
119.5149,132.6
119.516,117
119.5489,59.2
119.5502,692.5
119.5633,129.3
119.5871,406.5
119.5929,81.7
119.6052,197.9
119.617,239.3
119.6234,373.9
119.6795,597.4
119.7997,93.5
119.836,18.4
119.8627,401.6
119.8906,104.2
119.9325,455.6
119.9623,209.3
119.9681,197.2
120.0031,3389.2
120.0589,58.9
120.0807,17931
120.0898,340.7
120.1447,157.8
120.1853,316.6
120.2136,96.2
120.2462,56.8
120.2467,55.4
120.2518,535.2
120.2883,188.9
120.2984,605.7
120.3599,110.2
120.3773,115
120.5011,93.9
120.5159,307.8
120.5183,301.7
120.5343,78.2
120.5366,317.3
120.5483,570.4
120.5707,416.6
120.5841,355
120.6003,157.4
120.6534,544.6
120.6787,17.5
120.7192,19.5
120.7427,153.2
120.7671,346.7
120.8035,225.6
120.8349,348.6
120.8397,694.9
120.9315,22.5
120.9585,273.1
120.9808,178
120.9871,576.4
120.9916,411.4
121.003,109.1
121.0075,403.2
121.0245,353.2
121.0284,262.6
121.0396,68.2
121.084,497.5
121.116,258.7
121.1184,654.9
121.2748,18.6
121.2899,151.8
121.3123,73.5
121.335,108.4
121.4348,102.5
121.4699,598.9
121.5259,90.4
121.535,443.5
121.5412,18.1
121.5434,94.6
121.6234,163.8
121.6671,173.5
121.6718,188.7
121.729,610.7
121.7315,22.3
121.7668,391.2
121.7726,138
121.8087,406.5
121.8264,181.5
121.8468,65.9
121.8923,99
121.9308,308.9
121.9393,176.2
121.9439,120.6
121.9578,387.3
121.9716,622.6
121.9798,129.1
121.9909,17.7
122.0146,82.5
122.0712,167
122.1713,95.6
122.1855,18.4
122.2038,482
122.2046,571.3
122.2416,100.8
122.3012,401.6
122.3186,99.5
122.3514,18.5
122.3574,21.6
122.409,291.3
122.4109,104.3
122.4688,76.5
122.4889,79.9
122.5646,17
122.579,303.9
122.5941,674.4
122.6143,419.7
122.6546,486.2
122.6955,491.1
122.7312,350.8
122.734,19.9
122.7463,144.4
122.7616,447.8
122.8238,214.9
122.8573,217.3
122.9062,510.5
122.9151,895.3
122.919,67.5
122.9244,15228.9
122.9282,315.2
122.9782,146.1
122.9863,490.3
122.9987,334.3
123.0364,96.7
123.0427,20
123.0531,120.5
123.072,408.5
123.0805,61.7
123.1074,197.1
123.1171,275.3
123.1513,102.2
123.1732,135.6
123.1793,313.1
123.1831,140.1
123.2583,98.1
123.2694,96.5
123.2719,228
123.2763,77.5
123.2919,304.7
123.3784,278.3
123.3791,335.9
123.4259,119.7
123.4392,433.9
123.4873,139.2
123.502,374.8
123.556,551.9
123.5775,653.4
123.584,311.1
123.587,428.2
123.6078,573.7
123.6144,282.6
123.6328,551.3
123.6697,93.2
123.6749,460.8
123.6805,176.3
123.7392,129.4
123.7524,706.1
123.7586,686.8
123.8042,390.8
123.8055,560.7
123.8351,194.9
123.8798,254.1
123.8913,511.5
123.9408,548.7
123.9708,17
123.9736,148.7
123.974,129.1
123.9958,219.2
124.0253,197.2
124.0343,357.3
124.0538,16.9
124.0583,207.3
124.1128,353.9
124.1188,113.6
124.1814,304.8
124.1893,93.7
124.2897,787.9
124.3013,460.6
124.3252,740.7
124.3512,149.2
124.3738,115
124.3927,434.9
124.394,211.2
124.4902,18.2
124.5182,704
124.66,300
124.6623,145.2
124.6779,127.4
124.7094,1130.1
124.7575,277.8
124.8186,534.2
124.9008,87.3
124.9225,644.4
124.9311,173.6
124.9611,168.3
124.9865,465.9
124.9933,18.1
124.9976,213.2
124.9998,8146.7
125.0055,314.5
125.0071,19.2
125.015,118.4
125.0187,15.9
125.0205,102.9
125.0389,269.5
125.0461,282.8
125.0596,21.4
125.0636,538
125.0925,144.4
125.0992,121.3
125.0998,111.7
125.1005,74.6
125.1399,510.6
125.1461,103.7
125.222,116.4
125.2492,231.7
125.3014,346.4
125.3074,149.5
125.348,297.6
125.3993,223.7
125.4399,191.5
125.4424,307.9
125.5075,127.4
125.5331,19.8
125.5985,290.7
125.6106,92.2
125.6269,64.9
125.6453,336.5
125.7078,268.3
125.7111,404.4
125.7946,661.8
125.9056,16.1
125.9473,138.2
125.9722,18.7
125.9949,176.5
126.0625,17.8
126.0701,17.4
126.0832,545.5
126.089,1376.1
126.1018,155.1
126.1146,18.5
126.1356,122
126.1812,98.9
126.1878,536.1
126.2557,130.9
126.2602,382.6
126.2613,71.4
126.2861,599.7
126.3082,71.7
126.3358,60.3
126.35,279.8
126.3645,227.4
126.4665,105.7
126.5167,522.4
126.5305,485
126.5426,240.7
126.6428,18.6
126.7826,381
126.8027,102.9
126.8104,401.4
126.8315,18
126.8386,20.3
126.8957,218.8
126.971,122.9
126.9969,215.6
127.0063,341.9
127.0393,426
127.0478,128.5
127.1107,301.7
127.1113,183.3
127.1132,89.3
127.1284,122.9
127.1306,254.3
127.1466,138.7
127.1625,62.1
127.2018,277.6
127.204,274.2
127.2693,18.7
127.2795,375.4
127.294,251.6
127.3317,419.3
127.34,372.2
127.3409,624.5
127.3656,119.2
127.4216,270.7
127.4472,361.5
127.467,267.8
127.5217,21.9
127.5241,557.9
127.565,110.2
127.5797,145.9
127.6247,659.4
127.6276,79.5
127.7633,429.7
127.7824,104.9
127.8146,575.9
127.9112,203
127.9484,228.3
127.9592,23.8
127.986,543.1
128.0271,327.3
128.1394,143.3
128.1763,197.9
128.2008,271.3
128.2127,233.1
128.2199,172.7
128.2484,85.6
128.2778,539.3
128.3218,859.8
128.3283,655
128.3698,18.1
128.3767,490.8
128.4079,96
128.4134,110
128.5697,16.9
128.6195,243.5
128.6443,572.3
128.6617,73.8
128.6696,363.6
128.6925,21
128.7308,380.7
128.814,108.4
128.8362,485.7
128.8655,154.5
128.947,174.1
128.9615,99.8
128.9672,117
128.9754,133.9
128.9767,368.9
128.9888,594.2
129.0032,1416.1
129.0548,21.3
129.0594,291.8
129.1022,84.7
129.126,576.8
129.1686,297.9
129.1695,338
129.176,499.7
129.1787,157
129.204,206.4
129.2406,456.3
129.3599,484.9
129.3701,278.9
129.3901,788.5
129.457,434.6
129.4943,201.3
129.4954,136.6
129.5246,487.5
129.539,293.9
129.5509,156.5
129.5972,470.9
129.6091,292.2
129.6452,602.8
129.73,61.1
129.8544,101.2
129.9607,421.2
129.9789,129.8
130.0028,16.9
130.0163,202.7
130.0444,23.4
130.0461,435.1
130.0498,4098.4
130.0839,85.9
130.1193,84.5
130.1268,134
130.2471,90.3
130.2795,276.5
130.3159,104.4
130.3834,147
130.425,97.8
130.5133,106.9
130.5762,184.9
130.6012,96.4
130.621,517.4
130.6314,18.8
130.6658,63.8
130.6925,645.4
130.7375,163.6
130.754,221.4
130.769,484.6
130.7698,330
130.7895,628.7
130.8099,164.1
130.8153,395.5
130.8242,122.8
130.8431,132.7
130.8815,229.5
130.8963,173.2
130.9019,182.8
130.9548,197
130.9637,175.6
131.0112,623.5
131.0149,360.2
131.0305,504.9
131.0777,88.8
131.1273,180.1
131.1304,403.2
131.1373,697.3
131.1567,19.9
131.1634,120.2
131.1798,134.8
131.208,18.2
131.2353,88.1
131.2401,408.7
131.2476,154.3
131.2629,290.8
131.2654,158.3
131.3045,177.5
131.3051,188.7
131.3309,529.6
131.4019,291.6
131.4199,102.1
131.4706,98.6
131.5346,21.6
131.5515,18.5
131.5676,148.5
131.5775,62
131.6374,133.7
131.6572,159.6
131.6768,163.4
131.7175,589.4
131.8081,505.4
131.8287,247.6
131.8421,393.6
131.8721,130.9
131.8907,596.1
131.9182,510.6
131.933,18.6
131.9476,202.7
131.9837,183.8
131.9871,58.2
132.0032,26715.9
132.0469,19.2
132.0593,125
132.0604,93.7
132.0655,87648.2
132.0768,2903.6
132.139,170.5
132.1783,226.7
132.2139,454.7
132.2839,788.2
132.3017,214.7
132.3099,97.4
132.3343,140
132.3517,411
132.3955,554.5
132.4606,114.2
132.4711,322.7
132.5058,71.4
132.529,577
132.5419,118.4
132.5659,137.6
132.593,333.9
132.6663,522.7
132.7352,199.9
132.752,94.2
132.7605,431.6
132.7995,348.9
132.9027,23.4
132.9515,56.6
132.9583,52.7
132.9872,4232.6
133.0429,480.2
133.0539,70.8
133.0585,99.1
133.0689,2581.4
133.0807,234.6
133.0971,19039.4
133.1013,83.2
133.1644,590.7
133.1977,287.3
133.2013,56.3
133.2079,78.9
133.2474,19.2
133.2764,529.4
133.3169,375.8
133.3374,601.2
133.4954,209.4
133.5019,569.9
133.5061,300.6
133.6299,556.1
133.6632,244.1
133.7127,710.5
133.7322,511.2
133.7918,269.7
133.8075,680.6
133.8299,92.3
133.8391,180.1
133.8602,421.3
133.889,535.2
133.8977,389.3
133.9011,80.4
133.9123,505.5
133.9298,408.6
133.9338,174.3
133.9574,216.9
133.9974,169.2
134.0188,10988.3
134.0876,104.8
134.1249,145.8
134.1413,295.4
134.1769,543.9
134.2468,276.3
134.2752,425.8
134.3189,198.4
134.3232,159
134.4777,89.8
134.4826,105.9
134.4951,399.1
134.5551,145.3
134.5965,73.4
134.6038,310.3
134.6141,499.6
134.713,208.9
134.7365,153.7
134.7788,296.4
134.8353,199.4
134.9508,523.1
134.9965,83.6
135.0028,77242.8
135.0233,56.4
135.0525,368.3
135.0759,177.3
135.1169,287.7
135.1656,304.2
135.1971,90.6
135.2442,454.6
135.2527,268.5
135.4126,280.1
135.5071,167.6
135.5326,19
135.5542,181.4
135.5747,492.2
135.5757,21.4
135.6489,63.6
135.746,97.4
135.7689,100.9
135.7696,128.6
135.77,109.1
135.8086,299.6
135.8216,656.7
135.8327,118.3
135.875,22.3
135.8797,174.2
135.9475,108.7
135.9496,87.5
135.9552,319.6
135.9771,2669.7
135.9832,19
136.0063,369.1
136.0481,23578.8
136.0619,27.9
136.0757,11923.1
136.1386,107.8
136.1824,245.1
136.1872,124.9
136.2631,161.9
136.2867,292.5
136.3091,63.1
136.3286,537.1
136.3356,244.2
136.3656,60.9
136.3736,397.1
136.3885,108.4
136.4018,141.7
136.405,18.7
136.4224,119.2
136.5014,361.4
136.5323,835.4
136.5539,101.5
136.6035,606.6
136.6187,239.7
136.63,119.1
136.8383,140.2
136.8569,129.7
136.8631,375.9
136.8846,80.9
136.9311,2831.1
136.9375,21.4
136.9456,821.4
136.958,233.5
136.974,396.2
137.0032,555.2
137.0594,20.2
137.0701,431.2
137.0793,761.7
137.0965,368.5
137.0985,180
137.1625,344
137.1695,210.2
137.1924,179.7
137.2163,97.8
137.2898,488.6
137.2904,666.8
137.2915,421.8
137.3915,151.5
137.4375,106.4
137.4397,205.7
137.4729,84.1
137.484,17.7
137.5635,103.2
137.5904,17.3
137.6315,163.6
137.6392,306.7
137.7337,345.6
137.7639,95.6
137.7925,150.9
137.8554,448.4
137.8867,390.2
138.0525,3621.6
138.0664,26.1
138.0763,471.7
138.0833,216.6
138.143,162.6
138.1554,450.3
138.1798,339.7
138.1838,247.9
138.1884,72.8
138.2165,468.4
138.2489,501.7
138.2655,79.8
138.272,262.6
138.2925,79.9
138.3051,376.3
138.3422,968.6
138.3483,131.1
138.3568,145.4
138.3639,512
138.3668,215.6
138.3674,280.8
138.3679,206.8
138.3754,96
138.4062,174.1
138.4434,523.3
138.4562,98.2
138.6025,162.5
138.6221,438.2
138.6433,367
138.6498,393.5
138.6988,177.9
138.7166,17.6
138.7479,547
138.7586,157.9
138.9064,6088
138.9341,157.6
138.9705,575.4
138.9784,250
139.0289,100.8
139.1793,83.4
139.1855,130.3
139.227,78.4
139.2639,118.5
139.2835,95.3
139.2912,117.2
139.2934,17.3
139.3062,80.7
139.3437,311
139.3915,103.8
139.399,391.1
139.4037,469.4
139.4677,64.8
139.4834,283.9
139.528,146.9
139.5435,465.4
139.5889,16.5
139.5995,448.9
139.6047,554.4
139.6074,231.3
139.6245,525.6
139.6491,704.6
139.6816,733.8
139.6927,76.6
139.6953,153
139.7567,567
139.7796,176.1
139.848,141.2
139.8569,330.5
139.9391,266.4
140.0165,1201
140.0682,1762
140.1042,400.1
140.18,21.4
140.2962,449.7
140.3169,323.1
140.3596,390.5
140.3895,116.1
140.3977,277.8
140.4316,93.7
140.494,64.7
140.5516,128.5
140.5658,345.9
140.634,462.1
140.6855,324.5
140.7148,300.5
140.7321,19.9
140.773,311.8
140.7853,18.2
140.7933,111.2
140.8554,320.7
140.864,72.4
140.9035,3630.6
140.9375,114.4
140.9558,94
140.9953,20
141.0005,16461.6
141.0617,67.6
141.1076,333.3
141.1311,423.1
141.1434,624.8
141.1695,294.3
141.1918,23.1
141.2733,241.1
141.3061,723.4
141.3499,490.1
141.3605,146.3
141.3699,260.5
141.3906,142.9
141.4091,117.4
141.4273,65.3
141.4716,137.4
141.4834,102.5
141.5272,677.4
141.5916,565.3
141.5993,319.4
141.6025,68.5
141.6433,79.8
141.7408,549.7
141.7788,166
141.7906,104.8
141.7957,212.5
141.8441,213.8
141.8852,432.6
141.8943,104.6
141.9081,190.5
141.9258,101.4
141.9503,105.7
142.0038,459.8
142.0176,117.6
142.0252,275.3
142.0348,284.2
142.0476,1196
142.0498,300.4
142.0737,94.8
142.0936,281
142.1358,292.8
142.1431,308.1
142.1498,193
142.2326,137.6
142.2494,126.4
142.2774,178.9
142.2825,454.7
142.3344,328.3
142.3771,61.2
142.3828,210.6
142.5219,18.6
142.5482,432.6
142.5567,314.2
142.5701,447.7
142.5723,118.3
142.5871,355.6
142.6453,794.6
142.6852,144.6
142.6896,101.5
142.7764,16.1
142.837,122.8
142.8511,83.1
142.8915,169.8
142.895,146.9
142.9032,283.4
142.9071,664.2
142.9088,280
142.9191,269.4
142.948,731.6
142.9812,351.6
142.9963,435.7
143.0061,23.7
143.0189,1501.5
143.0538,773.1
143.0815,471.7
143.1161,710.6
143.1192,357.3
143.1392,497.7
143.1658,195.1
143.1685,402.5
143.1898,209.1
143.1983,562.3
143.287,197
143.2961,460.6
143.3029,16.3
143.3127,19.3
143.3622,17.3
143.3778,428.7
143.4106,282.6
143.4543,289.4
143.5168,301.2
143.561,194.6
143.5737,18.5
143.7061,568.1
143.7268,18.5
143.7405,338.6
143.7717,116.9
143.7775,377.3
143.8034,653.2
143.8395,141.5
143.9325,74.5
143.9659,17.7
143.9795,297.1
144.0104,452.8
144.033,179.1
144.0632,20.7
144.0891,468.5
144.094,161.8
144.1019,1062.7
144.2176,729.6
144.2633,303.5
144.2741,137.8
144.3202,18.9
144.3332,711.3
144.3455,474.7
144.372,205.4
144.3744,102.5
144.3935,342.2
144.5036,86.7
144.5515,19.6
144.6038,20.7
144.6437,19.9
144.6471,169.1
144.7027,19.5
144.7089,101
144.727,570.9
144.9282,17.1
144.981,2975.5
144.9908,180.5
145.0092,556.5
145.0332,17.6
145.0408,465.6
145.0471,431.4
145.1139,73.7
145.1577,17.5
145.2115,195.2
145.2624,230.3
145.2793,19.7
145.2826,194.7
145.3021,18.7
145.3282,685.6
145.3419,235.7
145.3466,580.6
145.3645,382.2
145.3988,314.1
145.4261,150.9
145.4424,18.2
145.4623,530.1
145.4749,16.3
145.5153,409.7
145.5282,59.2
145.5368,411.6
145.5563,120.8
145.5925,161.4
145.6174,175.6
145.6626,125
145.716,272.4
145.7284,252.2
145.7429,243.3
145.7761,103.1
145.7855,641.4
145.8253,385.6
145.9329,344.1
145.9424,151.5
145.9627,68.6
145.9641,696.2
145.9744,101
145.9771,204.9
145.9803,113.6
145.9878,243.1
146.0125,3807
146.0188,16635.3
146.0543,208.8
146.0574,892
146.0901,137.6
146.1896,410.7
146.2171,110.4
146.2456,60
146.3271,133
146.3453,94.9
146.3943,147
146.4358,157.3
146.445,22
146.4978,287.3
146.523,483.1
146.5354,19
146.6512,168.7
146.6686,156.2
146.6746,739
146.6888,185.4
146.7267,224.4
146.7335,144.4
146.7525,121.1
146.7759,78.8
146.8075,95.9
146.8119,388
146.8178,413
146.8811,266.9
146.8834,153
146.8854,747.3
146.9401,113.1
146.9468,562.3
146.9645,99.8
146.9818,112689.4
146.9908,258.6
147.0483,109.2
147.0496,838.5
147.0588,519.1
147.0764,34023.9
147.089,487.3
147.0904,459.3
147.0944,100.4
147.1128,26841
147.1168,195.3
147.1252,165.3
147.2343,312.1
147.2522,416.1
147.2601,253.9
147.2668,16.5
147.403,615.3
147.427,353.2
147.5402,222
147.543,615.7
147.5502,130.9
147.5578,293
147.5658,496.9
147.5998,130.9
147.704,67.5
147.7594,103.2
147.7769,358.5
147.7979,62.9
147.7998,297.9
147.8026,504.2
147.8043,249.2
147.9052,220.4
147.9221,113.6
147.9805,184.9
147.9841,563.4
148.0388,162.2
148.046,91
148.105,20.6
148.1157,98.3
148.1225,278.9
148.1435,403.6
148.1767,197.9
148.3398,132.4
148.3509,173
148.435,292.2
148.4377,120.4
148.5321,3450.1
148.5634,18.1
148.5786,106
148.5943,701.6
148.6387,242.7
148.7042,84.8
148.7158,18.5
148.7676,265.1
148.7899,266.4
148.8242,136.9
148.867,16.9
148.8893,521.8
148.9611,3546.7
149.0025,63.7
149.0185,4808.7
149.0234,4951.5
149.1206,490.3
149.1325,161.6
149.1445,118.1
149.1645,102.2
149.2075,212.5
149.2646,150
149.2707,275.7
149.275,18.9
149.3174,105.4
149.3204,211.3
149.3705,452.6
149.3947,119.1
149.4465,75.7
149.4806,769.9
149.5396,549.5
149.5979,182.9
149.6117,122.5
149.6174,115.4
149.687,121.2
149.8632,19
149.8833,582.1
149.9456,474.8
149.9484,21.4
149.9702,17
149.9928,7100.1
149.9991,17.5
150.0139,4371.2
150.0267,83.1
150.1167,16.7
150.1233,524.8
150.263,22.5
150.2853,550.9
150.3271,397.2
150.3402,479.2
150.3917,96.5
150.4212,125.1
150.466,640.4
150.5245,427.9
150.5381,77.2
150.5644,85.3
150.7408,151.6
150.7471,172.9
150.7616,185.1
150.8127,252.1
150.8134,442
150.8247,19.9
150.9095,87.1
150.9201,109.1
150.9443,314.7
150.9469,332.4
150.9768,43223.9
150.9842,317.9
151.004,488.4
151.0069,27.7
151.0173,284.3
151.0181,275.1
151.041,68.1
151.0478,1798.1
151.057,112.9
151.124,218
151.1346,18.1
151.196,100.6
151.2204,146.8
151.2472,19.6
151.362,64
151.4072,279.1
151.4204,304.3
151.4254,317.6
151.4869,121
151.492,212.2
151.5709,328.3
151.5811,141.5
151.6341,333.5
151.6439,479.8
151.6758,16.3
151.6986,245.9
151.7367,298
151.753,133.9
151.8312,602.2
151.8595,137.8
151.9012,209.3
151.9066,565.8
151.9802,408.8
152.0221,24392.9
152.0317,1207.9
152.0499,19.1
152.095,207.4
152.1142,79.5
152.1894,280.7
152.3551,110.8
152.3565,718.5
152.3606,202.2
152.3639,175.3
152.369,71.2
152.3988,275.2
152.4125,604.7
152.5128,164.8
152.5402,16.4
152.682,20.7
152.7026,400.9
152.7051,333.5
152.7163,319.7
152.7256,358.9
152.7646,615.1
152.8013,295.8
152.8467,112.3
152.8718,85.7
152.9006,98
152.954,20.7
152.9584,534.9
152.9749,1576.5
152.9852,268.6
153.0027,19.2
153.025,404.2
153.0567,165.9
153.0931,21.9
153.1047,21.1
153.1587,179.5
153.2636,286.5
153.2772,359
153.3218,451.6
153.3233,338.4
153.3629,21.3
153.403,106.3
153.4155,146.4
153.4251,491.3
153.427,488.5
153.4328,566.5
153.4387,465.1
153.4526,223.4
153.4807,159.6
153.5393,155.5
153.5857,260.9
153.5864,266.3
153.6322,350.8
153.6595,113.8
153.6663,443.7
153.6724,160.2
153.7086,121.5
153.7278,296.9
153.7736,333.6
153.8213,17.8
153.8948,98.3
154.0111,333
154.0277,415.7
154.0587,5076.9
154.0628,17.8
154.0649,116.6
154.1047,154.9
154.1555,123.2
154.2458,153.5
154.3132,289.4
154.3305,178.3
154.377,372.8
154.3795,669.9
154.3886,196.9
154.4201,354
154.4226,130.9
154.4321,681.5
154.4419,184.6
154.4456,161.6
154.4947,120.4
154.5066,19.3
154.5111,211.5
154.5136,147.5
154.5315,359.9
154.6125,310.9
154.7772,514.3
154.822,193.3
154.8448,74.7
154.8569,17.4
154.8803,700.8
154.9074,82.1
154.9234,327.2
154.9291,344.3
154.9418,28.8
154.9502,77
154.9564,101.3
154.9691,839.3
155.0072,191
155.0092,389.7
155.0383,19.2
155.0427,1309.7
155.0492,1028.3
155.054,5516.9
155.061,18.7
155.079,564.5
155.0814,22.8
155.1542,96.7
155.1561,259.3
155.2448,402.1
155.2555,432.9
155.2616,405.4
155.2806,626
155.4038,317.2
155.4115,77.7
155.4637,441.7
155.5023,341.3
155.5088,110.7
155.5302,372.3
155.6126,374.6
155.6281,155.1
155.6564,678
155.753,330.5
155.7769,220
155.8077,17.1
155.8283,352.2
155.8403,104.3
155.8455,611.1
155.8461,612
155.8912,19.2
155.9279,326.1
155.9477,210.7
155.9576,316.3
156.0009,407.9
156.0099,222.6
156.0422,1541.1
156.0482,302.1
156.0572,27.6
156.0768,38952.3
156.0969,19.1
156.1307,72.7
156.1502,647.7
156.1529,526.7
156.2006,105.4
156.2513,380.4
156.2691,461.4
156.3363,20.4
156.3456,283
156.365,181.8
156.438,455.1
156.451,19
156.4889,155.2
156.5054,471.7
156.5443,304
156.5762,400.2
156.5839,21.5
156.5866,500.8
156.6865,375.8
156.7187,378.6
156.8265,191.3
156.852,481.8
156.8611,167.2
156.8775,880.5
156.8941,278.4
156.9012,17.6
156.9157,90.4
156.9241,455.5
156.934,793.6
156.94,111.8
156.9742,35.6
157.0207,261.2
157.0285,251.6
157.0545,350.3
157.0652,479.7
157.0973,337.1
157.1474,107.4
157.1728,503.6
157.2387,172
157.2951,116.7
157.386,659.3
157.3978,124.8
157.4029,110
157.4183,134.8
157.419,156.9
157.4197,153.2
157.4273,223.8
157.433,18.3
157.4637,18.9
157.4989,368
157.5526,181.3
157.578,473
157.5952,487.1
157.615,104.3
157.6323,431.1
157.7437,528.4
157.769,485.2
157.7857,676.5
157.8555,420.6
157.8619,313.6
157.9495,257
157.9722,367.3
158.0124,426.5
158.0271,3954.8
158.1154,120.8
158.1738,726
158.1846,19.1
158.2142,412.4
158.2423,442.5
158.2707,106.8
158.2866,367.2
158.3609,353.5
158.4499,83.3
158.4538,284.7
158.4824,488.1
158.5559,313.9
158.6016,112.6
158.6145,57.9
158.6424,95
158.8392,687.1
158.9279,2089.4
158.9358,102.8
158.9547,91.2
158.9642,13477.1
158.9884,428.2
158.9922,449.7
158.9965,9848.1
159.0112,27.7
159.0305,130.1
159.0766,641.2
159.0918,76.2
159.1313,359.6
159.1548,79.7
159.1626,17.3
159.212,434.5
159.2969,487.1
159.3384,247
159.3561,681.7
159.3733,129.3
159.411,529.5
159.442,151.5
159.5933,114.2
159.643,385.8
159.6775,17.3
159.6854,81.6
159.7288,251.9
159.7614,114.4
159.8092,648.7
159.8121,520.8
159.8207,327
159.8216,438.8
159.8409,362.1
159.857,185.8
159.8749,174
159.942,112.3
159.9737,162.3
160.0345,10886
160.0605,98284.7
160.0705,334.7
160.2208,293
160.2232,19.5
160.3711,693.4
160.3805,563.5
160.5541,95.7
160.5608,437.6
160.6112,177.7
160.6409,239.3
160.6702,78.4
160.7241,639.5
160.7591,312
160.789,18.3
160.8179,637.5
160.8727,270.8
160.913,415
160.9309,16.9
160.9509,166.8
160.9576,218.7
160.9764,20.4
160.9906,22.9
161.019,383.4
161.0584,18.3
161.0639,4129.2
161.0724,267.2
161.0867,90.2
161.1325,49.2
161.1579,16.8
161.2173,345.8
161.3587,233
161.3612,74.3
161.3672,241.1
161.399,238.2
161.4717,512.1
161.4824,563.4
161.5194,88.6
161.5323,559.1
161.5626,274.3
161.5698,466
161.5967,654.3
161.6316,365.5
161.7084,147.9
161.7577,110.2
161.7642,18.2
161.7688,186.6
161.7851,250.7
161.8261,658.1
161.871,188.7
161.9067,324.9
161.9196,138
161.9337,146.4
161.9514,480.3
161.9982,174.4
162.0502,20152.5
162.0566,19.2
162.1545,99.7
162.2029,205.2
162.2233,22.1
162.2308,74.6
162.2917,147.3
162.3312,241.1
162.3423,333.6
162.3726,243
162.44,536.1
162.4439,273.3
162.5302,85.6
162.6283,345.5
162.6405,110.8
162.7428,138.6
162.819,159.4
162.8369,146.6
162.865,197.9
162.8675,507.6
162.9468,641
162.9557,2204.8
162.9789,157.3
162.985,99.2
163.0156,3489.9
163.0394,20.4
163.0834,541.5
163.1205,160.2
163.1481,92.1
163.2073,129.5
163.2391,399.1
163.245,18.1
163.2652,438.9
163.2792,167.8
163.3034,515.8
163.3941,297.6
163.4284,161.1
163.5179,71.4
163.5766,676
163.62,121.9
163.6434,155.5
163.6456,588.9
163.6505,846.3
163.6532,166.3
163.6593,22.2
163.6696,244.7
163.7571,260.7
163.8087,498.9
163.8282,481.9
163.8607,524.6
163.9167,295.5
163.9931,105
164.0128,324.8
164.0185,287.8
164.0229,223.3
164.0295,18552.3
164.0328,135.9
164.0418,304.9
164.2762,159.8
164.3171,197.8
164.3926,141
164.4256,143.7
164.474,17.2
164.527,73.1
164.5512,367.4
164.6827,19.6
164.7339,556.3
164.7866,62.9
164.844,511.5
164.8966,284.3
164.9022,644.5
164.9117,358.6
164.9178,123.9
164.9206,4644
164.9301,25976
164.9351,1444.9
164.9473,17.4
164.9594,284.7
164.9923,406.9
165.0029,175.3
165.0138,341.5
165.0335,264.3
165.0467,158.2
165.0668,620.9
165.082,440.4
165.0911,1477.4
165.1998,493.8
165.2173,640.5
165.2326,90.9
165.254,268.2
165.2561,149.2
165.2669,284.6
165.3713,106.2
165.4139,130.6
165.4194,495.6
165.4392,279.8
165.6546,560.5
165.6761,88.4
165.6832,200.3
165.8163,151.6
165.8785,109.4
165.8943,123.3
165.9003,218.7
165.9355,196.1
165.947,17.6
165.9789,641.5
165.9879,1244
165.9951,88.1
165.9975,19.4
166.0576,270.5
166.0693,764
166.084,6728.1
166.1023,655.8
166.1542,696.4
166.1924,91.1
166.3283,257.7
166.4407,130.5
166.4964,146.8
166.5591,445.8
166.5712,194.4
166.6168,115.9
166.7431,117.2
166.7464,661.6
166.7987,367.5
166.8208,157.2
166.8518,19.6
166.861,18.2
166.9032,112.6
166.9119,171.7
166.9508,13187.5
166.9837,158.4
167.0217,2165.8
167.0692,295.1
167.0921,463.3
167.1325,152.6
167.1448,223.2
167.1578,144.2
167.1773,95.6
167.3231,477.4
167.3259,189.9
167.3349,110.7
167.3663,494
167.387,159.2
167.4247,148.2
167.5621,103.8
167.5785,317.1
167.597,194.6
167.7598,22
167.8076,321.8
167.8572,19.3
167.862,78.8
167.8681,341.9
167.8834,480.3
167.8927,102.1
167.8935,104.3
167.954,323.8
167.9567,76
167.9816,547.3
167.9945,1359.3
168.0207,22.9
168.0628,343.1
168.0876,459
168.1171,98.4
168.1475,160.5
168.2071,643
168.3771,174.6
168.4077,105.5
168.4169,318.6
168.4494,291.2
168.484,16.8
168.4998,125.7
168.5488,464.2
168.5693,159.5
168.601,21.4
168.637,312.5
168.6552,559.8
168.688,117.7
168.773,69
168.8195,18.8
168.8713,514.1
168.9063,304.6
168.9371,113.4
168.9488,826.2
168.9594,314.5
169.0585,41914.4
169.065,915.2
169.0887,35.3
169.0948,2131.2
169.0973,429.7
169.1148,366
169.1176,659.3
169.18,576.7
169.1987,475.5
169.2579,269.4
169.2811,623.6
169.2937,345.6
169.3486,120.6
169.3525,148.8
169.3793,309.5
169.4772,454.2
169.4919,20.7
169.5815,679
169.5854,73.8
169.7047,522.4
169.7265,18.3
169.7619,648.6
169.7685,129.5
169.8103,16.4
169.8146,152.8
169.8858,355.6
169.9091,396.8
169.983,96.9
169.9859,4038.1
169.9913,171.4
169.9948,292.8
170.0327,4489
170.049,686.1
170.0618,302.8
170.0925,25329.1
170.1758,404.2
170.3233,18.6
170.326,454.9
170.3458,21.6
170.3552,369.5
170.4634,101.4
170.5092,310.2
170.5132,171.5
170.6904,387.4
170.6963,314.1
170.7505,19.3
170.7565,240
170.7596,137.1
170.776,188.1
170.782,407.3
170.8345,124.8
170.8545,4731.1
170.9366,326.5
170.9653,19.7
171.0054,377
171.0168,844.9
171.0279,858.4
171.1427,214.3
171.1866,152.5
171.1955,689.9
171.2061,326.1
171.2751,541.3
171.3043,90.8
171.4087,142.8
171.4132,107.2
171.4144,106.3
171.4455,214.2
171.6062,88.4
171.6178,385.4
171.6621,691.6
171.6659,279.1
171.6766,66.6
171.6813,115.6
171.7444,34.9
171.7705,119.7
171.7975,17.9
171.8011,295.1
171.8088,263
171.8658,370.4
171.9121,121.4
172.0283,913.1
172.0773,17.8
172.1806,210.9
172.2055,18.9
172.2104,87.2
172.2274,17
172.2413,202.6
172.3326,357.2
172.3479,381.9
172.3728,76.1
172.3835,113.1
172.3882,468.1
172.4061,732.6
172.4335,300.8
172.5329,87.7
172.557,18.9
172.6356,385.2
172.6523,17.6
172.7095,91.2
172.7586,143.8
172.7649,162.7
172.7668,157.4
172.8361,97.9
172.8514,2015.9
172.8856,402.7
172.9313,164.4
172.9523,50.6
172.967,793.1
172.9786,19.3
173.0269,242.4
173.0297,355.2
173.0476,290.3
173.059,412.2
173.0693,103.1
173.0893,102
173.0963,169.3
173.1527,19.7
173.188,282
173.2002,102.2
173.2078,362.8
173.2547,265.8
173.2745,443.3
173.3077,112.9
173.3871,432.6
173.4414,194.3
173.5597,95.6
173.598,411.4
173.6093,102.1
173.6461,151.4
173.7031,113.1
173.7124,113.1
173.7181,107.2
173.728,259.8
173.7374,131
173.7465,297.3
173.805,116.6
173.82,623.2
173.9819,538
174.0129,502.5
174.0409,874
174.0463,92.2
174.0872,188.1
174.0987,159.3
174.135,333.6
174.1592,496.6
174.1939,19.3
174.2697,120.2
174.3801,250.2
174.4449,289.3
174.4739,505.2
174.5126,294.5
174.5343,93.2
174.5485,134.2
174.6785,262.2
174.7428,212
174.7699,160.4
174.7752,327.2
174.8385,573.2
174.9171,321.5
174.9337,422.8
174.9382,5450.1
174.9851,25.7
175.029,113.2
175.0343,8686.4
175.0456,3564.2
175.0578,6420.6
175.0658,163.5
175.1191,80980.5
175.1533,400.8
175.3336,114.6
175.3562,99.6
175.4954,25.3
175.6418,125.9
175.7354,270.6
175.775,777.1
175.8058,140
175.8883,162.9
175.919,524.8
176.0085,4024.3
176.0408,926.7
176.0659,24289.6
176.1031,3887.2
176.1091,273.1
176.1221,1022.7
176.1607,24.5
176.2272,587.2
176.2578,144.4
176.2986,797.4
176.3061,111.9
176.3301,308.2
176.3433,215.9
176.3638,610.5
176.4135,334.1
176.4462,134.2
176.4954,488.5
176.5503,416.5
176.5525,19.3
176.6557,299.5
176.6753,244.4
176.792,283.4
176.8123,150.9
176.9482,332.4
176.9927,753.3
177.0247,4666.4
177.0271,61.6
177.0611,11270
177.0692,453.2
177.087,561.9
177.1628,437.4
177.231,21.4
177.243,92.7
177.2754,181.6
177.4494,18.1
177.511,96.7
177.5503,516.1
177.5703,391.4
177.5802,18.1
177.5933,86.9
177.6344,17.4
177.6847,414.3
177.748,522.4
177.8374,115.6
177.8627,120
177.8744,380.9
178.0029,312.1
178.0088,11014.6
178.0242,7490.9
178.0588,6337.4
178.105,465.3
178.1187,453.5
178.1976,99.6
178.2978,487
178.3171,16.4
178.3625,512.9
178.3856,303.5
178.5007,576
178.5037,21.9
178.5147,138.8
178.5422,114.4
178.6104,150.4
178.6517,113
178.7542,108.1
178.7984,93.8
178.8109,116.8
178.8708,20.3
178.9726,448.5
179.029,494
179.0333,17
179.0766,85.9
179.0895,134.6
179.1679,251.9
179.2813,17.8
179.3368,64.8
179.4459,113.1
179.4546,296.8
179.4643,574.7
179.5269,126.3
179.5654,622.8
179.7191,149.8
179.7593,134
179.7615,733.3
179.8504,115.2
179.8607,84.8
179.8785,141.2
179.9301,282.4
179.9369,22
180.0035,7871.5
180.0154,532.5
180.0289,752.3
180.0364,20.6
180.0386,495
180.126,104
180.134,351.4
180.165,512.3
180.1993,189.2
180.2078,110.3
180.3006,186.5
180.3687,20.7
180.5356,892.4
180.5676,106.8
180.6421,135.6
180.7975,425.8
180.8946,1775.7
180.9041,10603.8
180.9575,1154.1
180.9736,99.4
180.9871,409.7
181.0021,16.5
181.065,5742.9
181.1412,114.9
181.2022,133.5
181.2447,74.1
181.2785,617.1
181.2901,128
181.3484,122.2
181.455,180.4
181.5675,81.9
181.6322,133.9
181.7493,460.4
181.7766,347.6
181.8873,17.8
181.9065,98.7
181.9489,296
181.9735,212
181.999,300.7
182.0426,31089.4
182.058,1066.7
182.0789,1323
182.1172,435.2
182.1524,440.9
182.1794,214.6
182.2802,714.9
182.3424,270.8
182.4584,325.2
182.4826,83.2
182.6434,23.3
182.6459,329
182.6634,367.1
182.7183,518.8
182.7611,152
182.8366,223.1
182.9025,114.6
182.9902,319.2
182.9939,84.9
183.0204,353.4
183.0288,220.1
183.0448,887.2
183.1402,310.2
183.184,1141.6
183.1994,651.5
183.213,141.8
183.2421,303.2
183.2661,246.5
183.4848,348.8
183.4882,216.1
183.4949,117.5
183.6598,104.9
183.8464,123.3
183.9649,704.9
184.0076,245.9
184.0335,667.4
184.0372,1713.2
184.0735,4973826.5
184.0775,6260
184.0838,693.5
184.1098,1284.4
184.1343,88.6
184.1698,52.1
184.1758,126.2
184.1822,1056.5
184.2185,360.1
184.2446,23
184.2498,534.9
184.277,79.1
184.3243,194.5
184.3504,101.7
184.3567,202.8
184.3918,95.9
184.414,475.5
184.4514,157.4
184.4695,219.6
184.4732,94.7
184.5584,428.8
184.6435,306.4
184.6554,376.7
184.7153,611.5
184.7374,111.8
184.7446,652.4
184.7473,99.4
184.7625,155.2
184.7724,101.2
184.8143,422
184.8708,315.5
184.9301,186.6
184.9959,564.8
185.0324,34164.7
185.0604,575.4
185.0705,10436.6
185.0768,233231.4
185.0794,3493.7
185.1254,84.7
185.1529,213.8
185.2534,143.9
185.259,84.2
185.2773,450.8
185.6048,123
185.633,17.9
185.6436,307.8
185.6493,170.6
185.7445,694
185.782,85.8
185.8006,95.8
185.8341,17.2
185.8887,598.1
185.9095,190.1
185.9599,3941
185.9925,213.7
186.0031,95.8
186.0079,397.4
186.0739,121.6
186.0777,34706
186.0855,400
186.103,95.7
186.1854,108.8
186.3319,240.1
186.3553,338.6
186.4234,207.4
186.4457,545.4
186.5231,106.8
186.5717,387.3
186.5855,136.3
186.6718,270.8
186.7089,312.4
186.7835,15.9
186.8896,197.4
186.9121,3814.6
186.9857,550.8
187.0452,211.3
187.0579,3200.7
187.0715,1797.1
187.0778,798.1
187.0815,457.1
187.0916,114.4
187.1079,11819.7
187.1461,104
187.1841,330.2
187.1958,113.7
187.2112,601.7
187.326,288.8
187.4008,176.2
187.432,285.4
187.4699,415.3
187.4853,92.8
187.5168,344.5
187.5226,136.7
187.5261,279.6
187.5891,367.2
187.6253,90.8
187.6367,575
187.7218,137.2
187.8966,122.5
187.9988,95.2
188.0606,173
188.1751,161.2
188.2174,621.7
188.2473,142.1
188.272,18.1
188.2779,152.1
188.3483,111.6
188.3859,490.5
188.3988,107.9
188.4116,115.3
188.4286,21.1
188.4441,425.2
188.4701,164
188.6484,18.8
188.7099,208.2
188.7289,413.7
188.7844,219.5
188.8123,223.9
188.8544,112.1
188.8739,516.9
188.9241,593.9
188.9449,1113.6
188.9779,419.6
189.0496,76
189.0612,2251.2
189.0736,641
189.0871,7318.9
189.1041,452.4
189.1968,98.9
189.2105,319.5
189.2478,857.8
189.2959,122.6
189.3405,485.7
189.3615,21.2
189.3897,102.8
189.4153,537.7
189.5237,557.3
189.5818,18.7
189.6662,585
189.7234,249.5
189.7264,17.4
189.8056,20.1
189.921,17.6
189.9711,133.3
190.0342,402.3
190.0683,94.1
190.0796,93.6
190.1584,91.8
190.1845,195.2
190.3214,549.3
190.5287,17.5
190.5803,74.7
190.6286,123.9
190.6637,640
190.7574,107
190.841,21.6
190.8514,261.1
190.8733,459.8
190.912,1153.3
190.9331,552.9
190.9447,83.1
190.9718,333.3
190.9764,120.6
190.99,146.7
191.0081,3974.3
191.032,1025.3
191.0405,113069.7
191.0508,75.6
191.0732,235.3
191.0769,28300.7
191.1026,100.1
191.1473,16.2
191.1594,320.9
191.2563,95.1
191.3953,204.4
191.4217,72.3
191.4549,229.5
191.5247,19.2
191.6115,401.7
191.8025,101.3
191.8185,160.4
191.97,306.2
191.9772,338.3
192.0149,409
192.0277,102.1
192.0399,10237.2
192.0438,3417
192.0746,315.6
192.1901,87.1
192.2239,295.8
192.2422,552.9
192.2494,82.3
192.2904,529.7
192.3034,95.9
192.3148,446.8
192.376,106
192.429,203.7
192.5595,324.5
192.5649,95.9
192.6729,104.6
192.6909,755.1
192.7684,150.3
192.7716,108.5
192.8662,287.4
192.9158,513.2
192.9988,4027.3
193.0351,4452.6
193.1099,120.1
193.2672,146.7
193.2695,19.6
193.2881,598.6
193.3185,152.3
193.3759,376.2
193.6033,18.5
193.6092,108.9
193.8371,84.1
193.8412,168.8
193.8561,619.2
193.8944,526.1
193.919,194.6
194.0054,180.7
194.0114,105.4
194.0152,105.1
194.0328,1312.7
194.0892,108.2
194.1034,17.6
194.1493,324.4
194.154,90.9
194.2068,219.8
194.2164,131.1
194.2343,17.3
194.303,95.2
194.3189,588.2
194.4319,434
194.4537,606.7
194.5163,107
194.6346,17.3
194.6629,163
194.7666,68.2
194.7778,571.6
194.8035,108.3
194.8852,377.2
194.9215,90
194.9614,689.4
194.9921,123.1
195.0266,19.9
195.0416,190.2
195.0445,168.9
195.2224,473.5
195.2632,203
195.2689,16.3
195.2739,259.3
195.2924,100.5
195.3116,98.3
195.3189,253.1
195.398,738.9
195.4323,17.6
195.4581,95.7
195.4967,356
195.6802,18.5
196.0622,139.9
196.0668,502.8
196.0792,81.4
196.105,348.3
196.1081,73.5
196.1708,789.8
196.1977,111.2
196.3148,404
196.3242,16.4
196.3508,81
196.45,151.5
196.4665,408.6
196.489,98.3
196.527,17.7
196.6597,17.2
196.679,437.6
196.6829,356
196.7675,107.2
196.8233,513
196.8652,11130.4
196.8781,1208.7
196.9518,372.6
196.9638,312.1
197.0238,131.8
197.1013,1328.5
197.1279,104.2
197.1293,106.6
197.1303,102
197.1732,41.9
197.2361,254.5
197.3284,103.4
197.3363,215.3
197.3473,124.6
197.4279,151.5
197.4319,340.4
197.4558,137.3
197.5682,197.7
197.5938,188.2
197.6013,137.4
197.8377,91.3
197.8945,176.6
197.9025,109.7
197.9479,311.4
198.0073,199.3
198.0529,943.1
198.0851,15401.2
198.0886,174.7
198.1855,4988.9
198.2324,99.2
198.2432,169.1
198.2713,485.3
198.3423,304.6
198.3735,156.1
198.4708,458.1
198.5822,344.8
198.6137,110.1
198.6398,432.9
198.6847,135.8
198.7535,17.3
198.8623,11636.8
198.8883,339.1
198.9438,166.2
198.9688,477.8
198.989,764
199.0172,165.6
199.0459,78.8
199.0689,259.1
199.0756,1310.8
199.0808,201.1
199.1696,105.6
199.1888,259.1
199.2597,20.3
199.2645,460.6
199.2821,105.8
199.3056,405.1
199.3209,924.1
199.4809,293.9
199.597,19.1
199.6506,405
199.7072,153.8
199.7246,555.9
199.779,240.2
199.7904,136.2
199.8127,146.6
199.9023,424.7
199.914,164.5
199.9908,28943.1
200.0007,106.4
200.0183,235.3
200.0323,285.3
200.0408,18347.4
200.0685,167.1
200.0817,9711.2
200.1049,86.1
200.165,229.5
200.1739,316.5
200.2329,111.8
200.4141,370.8
200.4543,582
200.4619,324.8
200.5093,21.2
200.5869,101.6
200.6537,17.2
200.7098,21.3
200.7488,163.7
200.7666,17.7
200.7857,67.3
200.8558,18.2
200.8593,2560
200.9896,181.7
201.0139,73.2
201.0549,246.1
201.0873,507.8
201.1123,205
201.1238,610.6
201.1304,141.8
201.2172,120.7
201.2766,23
201.3099,409.1
201.3219,116.4
201.4261,119.1
201.4352,150.1
201.4902,72.8
201.5183,109.6
201.566,102.6
201.6308,574.5
201.6471,18.7
201.6833,868.1
201.7645,116.7
201.7823,576.1
201.9736,181.1
202.0572,79.5
202.0683,385
202.0864,304.9
202.2105,242.4
202.2848,22.5
202.3653,83.2
202.3736,166.4
202.4584,13738.4
202.4905,141.8
202.5308,126.3
202.54,306.8
202.5431,115
202.5519,120.7
202.6722,446.2
202.7115,333
202.7802,658.6
202.7849,196.5
202.8669,381.2
202.9141,190.4
202.9421,123.7
202.9741,166.8
202.9955,68.5
203.008,1244.8
203.0323,580.9
203.0528,1496545.9
203.06,219.7
203.0769,7298.1
203.2294,336.4
203.3112,19.4
203.3275,218.8
203.3367,105.4
203.3974,17.9
203.4454,250.3
203.4656,379.3
203.5401,198.5
203.6001,87.6
203.6368,353.3
203.7042,18.6
203.8274,486.6
203.9457,63.6
203.9986,546.9
204.0245,41221
204.0423,74.1
204.0561,74471.6
204.0868,1063.9
204.1824,416.4
204.2301,153.8
204.2769,97
204.304,20.3
204.3467,297.3
204.4972,501.8
204.5003,202.7
204.5315,19.9
204.5944,437.1
204.6016,19.4
204.6783,96.2
204.683,172.8
204.8403,160.8
204.8562,555.4
204.8887,567.4
204.9354,601.5
204.9632,520.6
205.0128,376.7
205.027,134
205.0393,95.3
205.0571,12831.5
205.0685,4781.1
205.0836,138.5
205.1016,190.1
205.1225,86.1
205.1407,478.3
205.1693,161.6
205.217,17.8
205.2813,279.9
205.2983,131.6
205.3529,97.8
205.3586,500.5
205.4298,411
205.4407,18.9
205.5565,450.3
205.5759,741
205.6205,224.7
205.7611,91
205.7939,339.6
205.9173,534.7
205.9697,437.8
206.0476,22.7
206.0555,1496.5
206.2216,510
206.2301,382
206.5937,669.9
206.6398,18.2
206.6693,347.8
206.6846,91.7
206.7636,87.4
206.8013,507.6
206.845,839.7
206.8633,155.3
206.889,678
206.8941,25994.3
206.9196,376
206.9824,1382.4
207.0145,63010.6
207.0442,1524.8
207.0508,10690.7
207.1686,574.6
207.1713,406.4
207.2084,718.2
207.4521,112.5
207.5316,18.3
207.5409,335.6
207.5454,245.3
207.6943,75.6
207.7252,366.5
207.8153,64.9
207.8193,355.8
207.8378,101.7
207.8444,338
207.9619,112.7
208.0137,1532.8
208.0174,492
208.0372,140.8
208.0439,100.7
208.0531,217
208.1612,539.7
208.3402,155.3
208.3881,161.7
208.4504,102.8
208.5494,295.6
208.5998,428.3
208.8269,207.8
208.8698,132
208.883,22.6
208.8911,13795.5
208.9356,599.5
208.9551,83.4
208.9978,828.6
209.0124,2173.1
209.103,258
209.1467,118.2
209.2689,149.7
209.4352,239.5
209.4879,663.3
209.5295,82
209.5449,104.7
210.6606,160.9
210.6753,228.2
210.7582,226.5
210.8003,386.8
210.8235,436.5
210.8885,925.6
211.0346,533.3
211.0381,265.7
211.0538,684.4
211.0566,237
211.0691,451.6
211.0832,331.8
211.1011,163.4
211.1245,111.8
211.1332,9441.4
211.1359,7152.3
211.1387,9230.9
211.1467,32201.5
211.1492,23474.4
211.155,6806.8
211.1608,4784.5
211.1636,4453.2
211.1655,3437.6
211.1722,563.9
211.2189,279.6
211.3831,82.9
211.4218,328.3
211.4985,97.3
211.5346,210
211.5429,712.2
211.555,129.8
211.7555,316.1
211.7915,18
211.834,201.2
211.8923,134.9
211.9187,384.1
211.9689,156.1
211.9897,19.3
212.0088,306.6
212.0403,64.1
212.0743,64.3
212.1323,110.9
212.1469,106
212.2402,172.6
212.4258,103.8
212.4466,20.4
212.4823,143.1
212.4933,111.7
212.5376,120.1
212.6021,21.3
212.6351,228.6
212.7435,197.5
212.8037,402.2
212.8226,170.1
212.8393,2133
212.8671,17.1
212.8833,23.3
212.9785,1260.2
213.0124,599.5
213.0169,473.1
213.055,570.2
213.1374,485.4
213.1542,168.8
213.1646,157.9
213.2065,279
213.2258,151.4
213.2353,571.5
213.2717,317.7
213.4631,157.8
213.5756,291.8
213.5897,182.8
213.6783,21.6
213.7402,18.3
213.8321,141.8
213.9005,480.3
213.929,20.6
213.9561,345.2
213.9621,70.3
213.9847,927.4
214.0064,726.8
214.0102,443.9
214.0266,73
214.05,153.6
214.059,17842.5
214.0899,812.3
214.1559,563.5
214.1932,177.1
214.3416,174.5
214.3574,324.8
214.3751,416
214.3782,588.1
214.427,127.2
214.4356,72.6
214.4955,118.8
214.5547,243.6
214.591,169.7
214.6571,219.3
214.6712,541.5
214.8144,193.8
214.8276,528.2
214.8362,3648.1
214.8411,565.4
214.8472,154
214.918,120.8
214.9208,17.5
214.9501,18.3
214.9726,106.6
215.1734,102.7
215.2395,256.6
215.399,529
215.4597,18.6
216.0149,7426
216.0179,1141.9
216.0275,20.6
216.0335,629.1
216.0407,104.1
216.1057,22.2
216.202,145.5
216.2882,291.9
216.294,106
216.3132,299.1
216.3823,422.9
216.4098,113.9
216.414,568.3
216.4965,243.2
216.5122,146.1
216.5767,385.1
216.6652,20
216.7323,89
216.8334,470.3
216.8556,362.1
216.8801,116.9
216.9229,58354.1
216.9847,47
217.0189,39.5
217.0325,219.6
217.0581,105.2
217.1223,202.7
217.1391,297.8
217.1899,230.6
217.2061,60
217.259,289.7
217.2824,457.4
217.3167,484.9
217.3694,216.7
217.4203,280.7
217.4924,344.5
217.51,613.4
217.5197,298.5
217.6653,92.2
217.7101,696.4
217.7398,420.3
217.7754,18.4
217.8656,164.1
217.8807,172.2
217.9085,509.9
217.9206,172.9
218.0159,175
218.1007,374.1
218.1422,194.8
218.1518,85.8
218.1842,65
218.2939,20.4
218.3702,337
218.4243,773.6
218.4349,172.8
218.4437,862.2
218.5378,143.4
218.5443,413.8
218.5573,284.5
218.5863,387.1
218.6355,110.1
218.6582,90.9
218.7901,843.3
218.7995,153.9
218.8554,17.7
218.8617,239.1
218.8767,145.9
218.92,16402.3
218.9792,293.3
219.0177,1057.2
219.0268,1260293.1
219.0831,10270.5
219.1632,304.3
219.3164,19.2
219.4345,150.5
219.4902,672.3
219.6419,393.2
219.6491,223.7
219.7543,399.1
219.8201,19
220.0205,80.9
220.0301,66505.4
220.0375,487.3
220.067,27386.4
220.0857,493.5
220.1676,478.4
220.2944,20.4
220.3805,590.7
220.3949,286.1
220.5132,150.9
220.5141,162.4
220.5155,88.8
220.5284,515.4
220.536,164.2
220.5445,87.2
220.6186,198.7
220.8657,535.2
220.8734,591.1
220.935,817.9
220.9968,178.1
221.0034,357
221.0249,78969.9
221.031,10595.7
221.0425,510
221.0512,579.3
221.0852,333.4
221.0869,332.8
221.1709,39.7
221.1839,136.3
221.2717,162.8
221.3146,120.1
221.3694,591.5
221.4123,206.8
221.4156,189
221.4793,337
221.5489,466.2
221.5972,20.7
221.6744,18.6
221.6826,102.9
221.8384,116.9
221.9028,182.7
221.9564,236.6
221.9675,114.6
221.9736,422
222.0285,1826.5
222.0635,562
222.0788,274.6
222.2578,302.3
222.271,17.8
222.3121,20.3
222.3533,100
222.4888,165
222.5642,484
222.6304,178.5
222.6417,80.9
222.6575,578.4
222.7107,95.5
222.7534,23.7
222.8099,105.2
222.8323,209.8
222.8681,15851.2
222.8795,1342.9
222.8885,401.3
222.9087,92
222.9884,4131.7
223.0023,96.2
223.0391,172.1
223.0538,176.4
223.0719,606.5
223.0831,361
223.0995,500.1
223.1835,210
223.2099,17.4
223.2143,668.6
223.433,100.1
223.4425,117.6
223.4461,265.4
223.4791,18.6
223.4825,439.3
223.4885,17.5
223.5654,306.3
223.6636,293.6
223.667,371.1
223.7707,113.2
223.9345,293.9
223.9428,305.8
223.9533,73.6
224.0017,480.5
224.0295,1398.9
224.0501,599.3
224.2239,16.3
224.5229,365.4
224.5273,422.9
224.5571,171.5
224.6003,122
224.6166,117
224.7237,283.4
224.788,75
224.8388,699.8
224.849,328.8
224.865,10599.7
224.9203,20.2
224.9508,169.8
224.9656,77.3
224.9719,248.4
225.0143,445.3
225.0549,23803
225.0847,102.3
225.3084,98.1
225.3191,429.6
225.4518,368.4
225.4629,75
225.5358,106.1
225.6343,92.6
225.6577,567
225.7148,332.8
225.7162,358
225.7175,326.3
225.8326,98.5
225.9437,19.9
225.9518,31.3
225.9623,18.3
225.9704,102.6
225.9882,599.1
225.9897,544.3
225.9916,748.8
226.0023,79.1
226.0065,1826.6
226.0242,8945.1
226.0395,155.9
226.0452,2958.7
226.0586,302.8
226.1818,19.6
226.1879,100.2
226.3077,705.6
226.3525,875.3
226.3583,17.9
226.4234,236.9
226.5873,103.6
226.6243,165.4
226.6505,409.2
226.674,181.7
226.7259,351.1
226.7494,333.8
226.7544,427.6
226.8343,193.4
226.9237,121.5
226.9517,50791
226.9717,781.7
227.008,109.6
227.0228,19.9
227.0342,958.1
227.043,249.8
227.0642,591.2
227.0866,309.6
227.1066,480.2
227.1132,17.8
227.2328,128.5
227.2412,84
227.2653,143.1
227.415,19.2
227.4847,128.5
227.5936,526.6
227.6407,146.2
227.8403,111.3
227.8947,114.9
227.9551,635.8
227.9636,125.6
228.0005,347.5
228.0222,706.5
228.0445,156.7
228.0646,705.5
228.0689,284.7
228.0891,18.2
228.1111,350.3
228.1543,19.4
228.1587,213.6
228.1703,18.8
228.4134,691.5
228.601,82.3
228.6402,115.6
228.7033,86.7
228.7269,19.5
228.8084,139
228.8342,23.4
228.9914,867.6
229.0131,412.8
229.0516,204.6
229.0785,774.4
229.0883,670.2
229.2415,567.5
229.4089,310.5
229.5859,97.8
229.626,185.8
229.6562,655.2
229.7419,312
229.8945,241.6
229.9298,20
229.9385,187.2
229.9572,460.6
229.9642,96.9
230.012,136.9
230.0335,201.5
230.1143,319.6
230.1275,642.1
230.169,117.8
230.2793,109.2
230.3004,20.4
230.3894,85.8
230.3961,106.3
230.5169,157.6
230.5479,297.8
230.6237,434.1
230.6466,356.2
230.7437,94.9
230.8185,160
230.8658,337.9
230.9248,229.5
230.9432,96.5
230.9906,104
231.034,17.2
231.0563,21.3
231.0743,18.6
231.0841,15733
231.1132,194.8
231.1221,19.5
231.174,113.8
231.3288,325.2
231.3364,199.3
231.346,388.1
231.3757,505
231.5666,123
231.5855,107.4
231.7171,143.5
231.8038,762
231.8118,311.5
231.8911,70
231.9144,434.2
231.9503,437.5
231.9635,584.1
231.9954,356.3
232.0105,399.3
232.0329,21.4
232.1858,193.2
232.414,467.4
232.4642,388.3
232.567,357.2
232.6009,163.8
232.6563,875.3
232.6845,402.2
232.7113,172.5
232.7194,130.6
232.7958,103.5
232.8207,315.5
232.8425,25.9
232.8516,102.8
232.8555,209.9
232.8619,609
232.8969,37967.1
232.9621,335.8
232.9857,27939.3
233.0511,8302.8
233.1138,282.3
233.1655,515.1
233.1725,19.1
233.4489,20.1
233.5789,151.1
233.849,88.1
233.8895,143.7
233.9349,20.6
234.003,100.1
234.1831,19.1
234.2086,17.1
234.3366,509.3
234.34,516.1
234.3427,90.2
234.366,19.3
234.4298,481.2
234.4452,89.5
234.5401,114.4
234.5909,235.2
234.8939,9153.5
234.9509,913
234.9817,11646.7
235.057,4999.7
235.0667,1353.7
235.0725,190.4
235.0928,14474.7
235.1808,167.7
235.2954,192.2
235.3053,566.4
235.3337,412.4
235.381,168.2
235.5084,692.6
235.5182,18.3
235.5722,617.5
235.6114,643.3
235.6262,279.4
235.6336,146.6
235.7042,113.6
235.83,539.6
235.8362,186.6
235.9914,91.5
236.0173,24.6
236.041,10990.5
236.0537,21.6
236.0718,41984.7
236.0961,260.8
236.1154,117.5
236.1352,200.4
236.1599,209.6
236.2975,526.4
236.7653,338.1
236.7765,195
236.803,101.2
236.8127,69.2
236.8272,467.7
236.9705,159.6
236.9813,19.6
237.0523,519
237.0752,1753.6
237.0992,510.9
237.1089,385.4
237.1832,411
237.2088,159.1
237.2952,326.3
237.3094,427
237.3575,308.8
237.3671,329.1
237.3737,153.2
237.979,384.7
238.0265,495.6
238.069,722.9
238.0777,20.1
238.1249,102.1
238.1576,452.6
238.2449,577.8
238.4523,154.5
238.5122,694.8
238.5876,206.6
238.5927,98.3
238.6885,199.6
238.7633,349.9
238.8421,4588
238.8534,379
238.863,525.4
238.9053,101.6
238.9661,258.1
238.9912,236.2
239.0177,407.9
239.0505,367.4
239.0643,814.8
239.068,599.5
239.14,367.2
239.1728,105.3
239.1842,338.9
239.2013,627.9
239.2307,507.9
239.3115,19.2
239.3963,119.9
239.5131,303.7
239.5672,260.6
239.5869,181.9
239.5937,518
239.6538,265.9
239.6771,20.4
239.6918,304.9
239.7215,186.4
239.8151,139.3
239.8297,21.2
239.852,516.5
239.9407,90.9
239.9604,110.5
240.0781,182.9
240.1003,1523.2
240.1281,334.9
240.242,117.6
240.3983,113.7
240.4831,120.8
240.5067,222.4
240.5551,105.5
240.5749,405.1
240.6038,289.3
240.6359,62.3
240.7643,613.2
240.7965,212.2
240.8316,397.2
240.839,3654.4
240.8435,101.9
240.8796,298.7
240.9339,19
240.9402,272.5
240.9551,1531.9
240.9674,2815.3
241.0946,411.9
241.1284,17.7
241.1345,261.6
241.1424,205.1
241.2336,707.6
241.2921,125.1
241.3029,219.9
241.3071,163.9
241.32,428.8
241.3511,72.4
241.5302,366.8
241.5802,141.3
241.6295,143.1
241.6736,89.2
241.844,142.3
241.8711,189.8
241.8836,233.5
241.9375,201.4
241.9827,520.2
242.0193,2003.3
242.1666,105.3
242.2058,465.4
242.2408,502.2
242.2487,16.6
242.4026,107.3
242.4192,179.3
242.6285,504.3
242.9004,140.9
242.9114,290.9
242.9257,24926.9
243.0531,1930.8
243.0655,7592.2
243.0753,315.1
243.1597,20.6
243.2111,179.4
243.2549,325.2
243.2949,390.1
243.3615,566.5
243.5071,19.1
243.5883,545.1
243.6192,569
243.646,555.2
243.7521,114
243.8145,178.2
243.8259,111.9
243.8337,476
243.8491,339.8
243.8969,273.9
243.9728,204
244.0128,382.3
244.0189,190
244.344,496
244.3473,469.5
244.4351,18
244.4991,148.2
244.5064,307.8
244.5516,438.5
244.6752,18
244.8708,7096.3
244.892,667.6
245.013,24.1
245.0751,661.4
245.1356,176.1
245.1816,20.9
245.2077,717.8
245.4786,179.2
245.5642,81.2
245.7925,176.5
245.8087,301.7
245.8566,158.4
246.0015,242.8
246.0113,25.5
246.0141,24.1
246.143,154.4
246.164,155.9
246.1747,133.7
246.1791,184.8
246.2962,737.2
246.4224,317.1
246.4498,135
246.4627,532.6
246.5605,473.5
246.6796,423.3
246.7193,532.8
246.7843,509.1
246.8577,221.2
246.868,1482.7
246.9006,365
246.9382,277
246.9864,599
247.0371,568
247.0487,88.2
247.0523,159.2
247.0582,9398.1
247.0666,626.8
247.0927,6480
247.2074,148.3
247.2309,163.4
247.2343,373.9
247.2394,134.1
247.2638,100.3
247.3456,197.1
247.3919,121
247.4755,415.4
247.598,18.7
247.6072,457.9
247.6364,554.5
247.6526,523.8
247.7243,703.1
247.7714,195.1
247.9186,309.7
247.9937,219.8
248.0962,66.9
248.1244,10329.9
248.1876,356.8
248.2618,299.4
248.2792,624.2
248.4159,295.6
248.5025,456.7
248.5218,269.1
248.5313,119.3
248.5573,96.8
248.6111,167.7
248.6363,693.9
248.6662,18.5
248.7773,198
248.784,159.1
248.8709,8212.5
248.9597,20787.2
248.9993,469.3
249.0161,896.5
249.0613,12797.5
249.206,113.1
249.2276,601.9
249.3443,312.9
249.3753,474.2
249.3912,365.1
249.5014,190.7
249.5493,103.7
249.7329,456.8
249.7992,513.4
249.8588,305.4
249.9321,613
249.9668,374.9
249.9856,622.5
250.0573,614.6
250.1949,161
250.2082,93.9
250.2456,175
250.2493,61.2
250.2733,219.5
250.4777,214.3
250.55,419.3
250.5797,79.6
250.7554,354.3
250.7795,187.5
250.7942,423.6
250.8678,1366.1
250.9148,516.2
250.9204,2403.2
250.9557,4421.2
251.0009,67.8
251.0339,819.8
251.168,141.2
251.3113,109
251.329,18
251.3589,94.2
251.3691,517.8
251.7075,95.4
251.7603,178.4
251.8258,101.7
251.8546,143.7
251.8922,613.5
251.9254,287.1
252.015,330.5
252.0358,505.7
252.0407,21.8
252.0458,77327
252.0914,338.9
252.1982,486
252.2707,157.9
252.3785,92.7
252.5068,317.5
252.5285,98.4
252.5351,245.8
252.6812,352
252.7953,327.6
252.8186,124.7
252.8322,813.7
252.8351,156
252.8826,260.3
252.8925,256.5
252.9174,1136.4
252.9977,45.1
253.0489,4475.5
253.14,91.3
253.2246,237.2
253.2502,109.5
253.5717,181.8
253.7199,393.8
253.7283,616.6
253.7869,784.7
253.8311,105.3
253.8945,515.8
254,148.7
254.0434,1211.2
254.3688,112.5
254.393,22.1
254.6952,62
254.7523,495.8
254.8165,580.6
254.824,13089.7
254.8725,109.9
254.9,819.6
254.9235,110.8
254.9705,570.5
254.976,192.6
254.9965,27.1
255.0331,20693.6
255.0374,191.4
255.0466,426.1
255.1829,202.9
255.3302,205
255.3318,138.9
255.3668,180.6
255.4554,96.6
255.5314,21.8
255.5688,299.6
255.6025,131.8
255.6726,361.3
255.6977,318.4
255.7549,643.6
255.9678,241.4
255.9785,1566.9
256.0595,228.5
256.0685,94.7
256.0974,81.8
256.1105,412.8
256.1353,569
256.1579,153.9
256.1656,174.6
256.5145,697.7
256.6423,615.9
256.6897,218.2
256.7191,391.3
256.7531,107.6
256.8128,637.5
256.821,18778.5
256.9323,655.2
256.9436,430.8
257.0191,303
257.0488,6676
257.0583,66.6
257.0661,689
257.0747,47162.9
257.0863,16
257.3081,96.2
257.3345,745.3
257.3609,18.2
257.4153,525.5
257.4654,22.7
257.4754,189.7
257.5945,136.9
257.6116,266.8
257.8788,144.6
257.9252,177.2
257.9324,137.9
257.9891,188.9
258.0285,28
258.0317,254.7
258.0359,284.8
258.0462,400.9
258.0745,221
258.078,1204.7
258.1104,24558.8
258.2493,22.4
258.253,95.9
258.27,23
258.2919,692.1
258.3259,96.8
258.4143,128.4
258.5294,310.5
258.5902,154.5
258.6417,124.2
258.8181,8535.5
258.8819,105.4
258.8997,2418.6
259.013,709.5
259.0297,19.3
259.0649,489.3
259.169,18.8
259.3419,139.8
259.4938,620.7
259.5151,615.4
259.5237,409.9
259.5552,166.4
259.6214,402.1
259.6417,274.8
259.7399,116
259.7544,605.4
259.7948,319.5
259.9651,732.1
259.9713,283.5
260.0173,57.7
260.082,126.6
260.1218,434.4
260.1459,72.2
260.2475,21.9
260.2542,212.1
260.2889,66.6
260.3562,135.5
260.4404,324.7
260.6503,20.8
260.7474,374.4
260.8152,841.4
260.8377,224.9
260.8448,2904.7
260.8978,694.7
260.9493,7455.3
261.0097,20.1
261.0321,201.8
261.0463,806.3
261.0677,18.4
261.0756,177.5
261.1771,272.7
261.219,149.1
261.2469,318
261.3163,493.3
261.6649,493.5
261.8244,460.8
261.9469,96.1
261.9678,17.8
262.0001,364.6
262.0818,2970.1
262.1688,114.6
262.3737,539.9
262.428,60.5
262.5249,505.2
262.6504,153.5
262.7437,20.1
262.7603,623.8
262.8418,407.8
262.8533,384.1
263.0301,18.9
263.0852,7374
263.3249,117
263.5385,182.4
263.5601,130.5
263.6046,787.3
263.8028,18.2
263.8172,179.2
263.82,303.7
263.8212,270.5
263.9796,215.7
263.9944,559.6
264.1825,20.4
264.2264,359.7
264.2456,201.1
264.3919,223.2
264.4123,363.9
264.4222,371.6
264.4878,98.8
264.5072,468.5
264.5618,165.8
264.5877,99.9
264.8447,593.3
264.8529,8673.8
264.8804,531.9
264.9337,25080.7
264.9603,297.7
264.9884,337.6
265.0166,298.9
265.0354,6449.3
265.0474,2958.6
265.2813,222.6
265.3354,410.9
265.5125,406.5
265.591,217.9
265.694,417.2
265.6998,571.5
265.9232,670.7
265.9418,137.9
265.9542,18.4
266.0189,362.5
266.0253,275.4
266.0607,606.8
266.0933,102.6
266.1308,702.3
266.164,19.5
266.2952,974.1
266.4598,555
266.7311,162.4
266.85,7980.1
266.8946,1145.6
266.9315,273.8
267.0135,176.1
267.3866,370.3
267.8158,138.8
267.9667,21.2
267.994,114.5
268.014,23.1
268.0218,86.3
268.032,266.8
268.0848,712.6
268.0912,110.1
268.1518,237.8
268.2854,142.6
268.6104,422.9
268.6312,180.8
268.8469,1269.3
268.9312,529.3
268.9729,160.6
268.9967,667.1
269.0124,43.4
269.0348,718.1
269.0452,15737.9
269.0488,38607.1
269.0738,407.8
269.1245,398.5
269.2557,564.9
269.2831,114
269.3568,356.1
269.4051,127.5
269.4125,272.6
269.4336,360.2
269.54,339.7
269.6347,233.6
269.6848,507.9
269.994,2580.3
270.0113,98.7
270.0249,1073
270.0475,27708.1
270.0644,23.6
270.1452,1547.6
270.1538,213.7
270.2154,337.7
270.2455,482.5
270.252,215.7
270.3023,605.6
270.3373,137.1
270.3475,81.8
270.5421,211.2
270.5502,103.2
270.5586,130.3
270.576,192.5
270.6082,711.9
270.6126,527
270.6417,489.6
270.6456,399.5
270.7355,223.9
270.7819,231.6
270.7979,6513.3
270.8242,17.8
270.9581,404.6
270.9781,15739
270.9943,178.7
271.0245,391.6
271.0508,333.8
271.0781,484.2
271.0884,359.2
271.2445,593.6
271.2548,291.7
271.3584,429.5
271.4064,173.3
271.4229,281.1
271.4602,407.2
271.5983,301.1
271.6521,174.1
271.6943,552.5
271.8824,85.4
271.9646,493.3
272.0264,140.5
272.0435,178.3
272.0486,110.4
272.0805,293.4
272.3529,321.8
272.735,18.7
272.7582,121.7
272.7833,431.4
272.795,8098.4
272.8459,118.7
272.9044,20.2
272.9075,87
272.9446,767.4
273.0485,2260.7
273.0561,278.5
273.0763,188
273.397,22.1
273.4645,363.7
273.5202,857.6
273.6288,497.8
273.9623,997.8
273.9947,186.1
274.0694,261.6
274.0926,1789.5
274.5609,131.5
274.6474,335.3
274.7919,3611.6
274.7982,159.8
274.8258,281.1
274.8349,21.7
274.8679,185.9
274.8814,403.6
274.9523,17.9
275.0324,182.7
275.1107,780.1
275.2779,174.8
275.2857,322.1
275.3447,628.3
275.4792,206.1
275.6968,110.5
275.7093,525.7
275.7319,542.2
275.819,360.2
275.9313,575.9
276.0034,133.8
276.079,439.6
276.085,120.2
276.3011,139.2
276.3879,18.7
276.4485,92.4
276.4556,504.9
276.5103,203.6
276.5711,586.6
276.5984,123.7
276.7448,198.9
276.747,203.1
276.7848,541
276.8571,848.1
276.8785,386.3
276.9233,4787
276.9334,328.1
277.0088,289.3
277.0704,457.5
277.0907,886.3
277.2699,21.3
277.2994,18.3
277.4177,104
277.6973,18.6
277.7731,351
277.793,118.2
277.8706,172.8
277.8843,156.5
278.0192,534.4
278.0628,433.6
278.0989,106.6
278.3626,67.4
278.4147,226.8
278.431,203.7
278.4371,138.5
278.4634,18
278.7524,17.4
278.8323,20.5
278.8858,98.3
278.8936,1307.4
278.9203,1377.5
278.979,68.2
279.0567,35642.2
279.3049,201.6
279.3861,118.3
279.4315,289.6
279.551,99.9
279.5961,103.2
279.6474,91.6
279.842,16.4
279.8448,17.7
279.859,532.1
279.8684,379.6
279.9197,76.1
279.9505,102.2
279.9929,205.9
279.9989,41.2
280.0155,568.2
280.0555,499.7
280.0571,533.3
280.0597,373.3
280.092,538
280.3791,21.3
280.4572,634
280.6149,124.7
280.8269,3014
280.8415,81.5
280.855,244.7
280.8795,20.7
280.8941,501.4
280.9381,209
280.95,159.6
280.9632,1113.9
280.9846,16.8
281.0103,1592.6
281.0517,182.9
281.2151,22.8
281.2267,21.6
281.2357,161
281.3176,472.7
281.3567,127.3
281.4308,252.4
281.554,362.4
281.5785,97.8
281.79,20.6
281.9021,532.2
281.9728,19.4
282.0082,238.7
282.0148,166.7
282.0649,412.7
282.13,202.3
282.1784,156.2
282.1979,82.3
282.2061,285.2
282.21,22
282.4288,213.6
282.6255,327.9
282.6682,315.8
282.7456,1011.4
282.8044,20.3
282.8239,3338
282.9296,437.3
282.963,324.7
283.0194,118.6
283.0278,1157.9
283.0484,23.7
283.0523,351.3
283.0602,193.4
283.081,17.7
283.1617,644.1
283.1865,367.6
283.2206,199.2
283.2446,327.5
283.4006,694.7
283.4439,548.7
283.5234,511.9
283.7492,159.9
283.7694,62.6
284.0523,50.3
284.063,126.9
284.0765,482.4
284.1054,501.7
284.1387,20
284.4427,669.1
284.4592,22.9
284.5327,197.8
284.5468,394.3
284.596,559.9
284.68,653.1
284.7483,164.4
285.023,28.6
285.0817,151.8
285.2798,158.5
285.3467,22.1
285.3565,16.7
285.4234,339.1
285.4755,94.2
285.515,19.3
285.6552,112.7
285.6778,103.2
285.7317,85.5
285.8431,366
285.8765,105
285.9683,1088.5
286.0199,331.8
286.0269,7032.6
286.0629,107.2
286.0965,29.3
286.1306,276.8
286.221,561.7
286.2935,95.8
286.4975,93.7
286.5191,790.8
286.6302,17.9
286.6761,268.2
286.7123,144.6
286.7298,110.7
286.7721,2333.1
286.9521,4205.1
286.9647,19.9
286.9984,192.6
287.0423,18.6
287.0469,174.5
287.0555,31855
287.1006,1914.3
287.1175,407.9
287.2445,178.2
287.5146,68.3
287.5481,70.9
287.6079,65
287.853,19.1
287.9304,82.9
287.997,470.4
288.0356,283.1
288.0586,1473.6
288.0849,158.3
288.0933,162.1
288.1084,544.7
288.1234,104.4
288.1558,43025.8
288.2775,104.1
288.3192,264.3
288.5093,222.9
288.769,2445.9
288.8808,385.5
288.8869,710.2
288.8929,2625.2
288.8961,2772.3
288.8978,2790.3
288.8999,2895.1
288.9049,5616.6
288.9171,10185.6
288.9243,13128.7
288.9275,14875.7
288.936,14598.8
288.9409,21113.3
288.9465,16126.9
288.9504,15679.3
288.9554,17845
288.9615,22341.4
288.9682,14835.9
288.9734,10030
288.9817,12502.8
288.9871,9424.5
288.9936,6070.3
288.9983,5030.6
289.0124,1420
289.0209,950
289.0617,30.1
289.0837,368.1
289.159,2443.8
289.2903,160.5
289.4145,524.8
289.6302,381.5
289.6898,17.9
289.8116,447.5
289.8646,296.1
289.8697,374.2
289.9667,109.4
290.0009,468.6
290.1005,79.9
290.2475,24.4
290.3416,112.3
290.4583,285.2
290.4634,357.9
290.5198,107.8
290.6076,164.6
290.766,1038.2
290.8977,18.2
290.9098,291.2
291.0214,300.2
291.0268,2578.5
291.0463,222.2
291.0694,63.4
291.1834,102.8
291.3988,437.8
291.4307,18.9
291.4852,366.8
291.5565,139.6
291.5801,231.5
291.5972,181.1
291.8124,288.4
291.9934,111.4
292.0799,216.2
292.2257,178
292.2382,194.3
292.2957,745.5
292.4098,18.9
292.4808,104.9
292.4861,20.2
292.516,325.5
292.5706,87.7
292.8686,228.3
292.8972,683.4
292.9406,1511.6
292.9751,109.5
293.0065,369.2
293.0724,973.2
293.0984,347435.1
293.1602,17.9
293.1796,1224.4
293.2703,136.9
293.373,94.3
293.668,464.4
293.7307,18.9
293.7617,19.5
293.8031,277.2
293.8202,107.6
293.8554,286.9
293.9599,193.4
294.0646,399.2
294.0954,525.4
294.1018,28240.1
294.2382,102.6
294.276,150.3
294.451,142.2
294.4523,143.5
294.5993,103
294.676,439.8
294.9495,387.9
294.9908,518.6
295.0303,988.5
295.0847,252.9
295.1025,2939.7
295.1513,271
295.1948,19589.4
295.2584,357.6
295.3297,120.7
295.3828,22.8
295.454,349.7
295.4729,19.2
295.5162,280.5
295.5959,17.1
295.7233,411.7
295.7296,453.5
295.7781,128.1
295.7952,164.2
295.9395,208.7
295.9664,20.1
296.0216,18.4
296.0456,549.7
296.106,108.2
296.1458,142.2
296.1985,721.4
296.2591,308.3
296.3726,183.1
296.512,608.7
296.7148,20.2
296.723,224.9
296.7675,501
296.8008,383.8
296.8131,1520.3
296.8764,119.3
296.921,446.5
296.9878,266.6
297.0572,357
297.1278,18.7
297.264,112.8
297.4526,106.4
297.4982,318.9
297.6976,322.7
297.928,292.6
297.9827,216.9
298.0253,1047
298.0424,15146.6
298.0707,65.4
298.1778,133.9
298.2178,92.7
298.2897,75.3
298.349,480.2
298.4321,79
298.5544,454.1
298.607,148.2
298.6943,22.6
298.8762,19.4
298.9073,300.7
298.9866,134.3
298.9933,18.7
299.023,2256.9
299.0392,19.6
299.0458,557.4
299.0529,20.5
299.1397,784.1
299.1622,18.4
299.1777,851.9
299.221,98.2
299.3527,357.2
299.4938,149.5
299.6188,203.4
299.6582,530.9
299.7553,100.3
299.7879,84.1
299.9432,428.5
299.9632,432.6
300.0044,1872.5
300.0386,202.1
300.0465,173.1
300.0756,425.8
300.0917,142.4
300.1732,21.1
300.1859,103.1
300.1966,23.9
300.2913,123.1
300.512,286.9
300.5934,740.8
300.6048,321.2
300.657,128.2
300.6945,167.6
300.8317,81.8
300.9009,156.2
300.9505,21.7
300.97,124.2
300.9867,151.6
301.0387,19886.3
301.0759,49.8
301.1417,220.5
301.2753,431.3
301.5486,135.3
301.5951,296.1
301.6468,149.6
301.6585,529.6
301.7199,122.9
301.7833,490.6
302.0122,1433.4
302.0201,118.5
302.0355,35.1
302.0425,157.8
302.0642,5086.5
302.0743,21.8
302.1183,146.5
302.284,177.6
302.3621,224.3
302.4835,561.9
302.6941,666
302.7035,707.7
302.7063,572.7
302.7229,93.6
302.7264,220.8
302.8297,4667.2
302.9186,19.8
302.9695,607
303.0675,472.2
303.0745,2301.5
303.2585,17.4
303.3094,346.2
303.3564,248.5
303.465,31
303.4799,109
303.5504,499.1
303.623,21.6
303.6775,191
303.7267,23.2
303.7421,197.7
303.7887,365.1
303.8417,101.6
303.8554,18.9
303.9808,219.4
303.9867,136.2
303.993,137.4
304.0176,666.8
304.0278,154.4
304.0382,252.1
304.0599,199.3
304.0659,279.1
304.071,401.9
304.1034,153.9
304.1183,90.9
304.1372,142.2
304.1946,94
304.3061,18.4
304.3379,68.3
304.4039,801
304.4508,112.5
304.4589,538.6
304.474,20.8
304.6473,214.6
304.7429,459.1
304.763,484.8
304.777,19.3
304.7836,22.9
304.8267,3166.9
304.8349,330.2
304.8963,939.3
304.9556,145.3
304.9929,99.2
305.0492,505.9
305.1974,318
305.2639,194.7
305.3044,593.3
305.4164,159.1
305.4732,115.4
305.5357,113.7
305.676,261.7
305.7242,16.1
305.8065,198.3
305.8801,657.8
305.9082,18.1
306.0538,20.5
306.0953,74.9
306.1035,112.2
306.1263,388.5
306.1378,18.8
306.2075,78.6
306.236,439.5
306.414,515.9
306.4319,307.8
306.4902,376.3
306.5172,242.6
306.5585,22
306.6202,336.9
306.6778,364.9
306.8451,371.6
306.9018,671.9
306.9221,344.4
306.958,1817.9
306.9776,4943.8
306.9951,432.9
307.0533,3383.7
307.1243,19.7
307.238,173.9
307.2557,303
307.3475,179
307.433,528.4
307.4884,152.2
307.551,1298.7
307.5749,183.6
307.6606,350.5
307.7152,616.1
307.8166,64.6
307.8919,315.8
307.9014,116.3
308.069,961.8
308.1531,700
308.2905,112.4
308.4171,112.1
308.4702,71.7
308.643,668.1
308.7624,444.6
308.7954,90.3
308.8703,197.3
308.8791,3898.9
308.8889,375.2
308.9664,128.5
309.0065,428.2
309.0221,356.7
309.0377,2298.4
309.0826,8748.8
309.1442,156.1
309.2286,180
309.2983,954.8
309.3299,632.1
309.397,262.7
309.4068,466
309.4671,291.4
309.4737,126.5
309.5541,475.4
309.7643,99
309.8187,20.5
310.1721,212.6
310.3736,87.4
310.4034,284.6
310.5626,77.1
310.5978,196.3
310.8761,3692.5
310.9539,156.5
311.0034,187.5
311.0136,519.2
311.0627,469.1
311.0694,645.3
311.1029,127.8
311.2946,18.7
311.332,256.1
311.3643,254.6
311.4367,19
311.4823,461.8
311.5803,84.7
311.6016,313.4
311.8506,75.8
311.8822,75.9
311.92,21.3
312.0409,1796.6
312.1311,210.1
312.1571,314.5
312.1914,142
312.3885,251.3
312.4599,523.6
312.4851,120.5
312.615,142.6
312.7264,19
312.7834,470.1
312.7957,320.6
312.8588,1141.4
312.8727,431.2
313.0023,140.2
313.0903,134.9
313.1751,70.8
313.218,472.1
313.2742,34852.3
313.4346,17.4
313.6401,156.6
313.9031,614
313.9417,470
313.9677,484.2
314.0147,298.5
314.0912,124.1
314.2463,225.7
314.2777,6170.8
314.3601,113.7
314.3732,185.9
314.5323,328.6
314.6761,163.3
314.6829,470.6
314.7799,1418
314.8078,20.5
314.8372,2923.6
314.8658,341.4
314.8723,123.7
314.989,398.3
314.9992,4717.2
315.0043,1060
315.0283,152.7
315.045,226.3
315.0554,7562.1
315.0596,2908.1
315.0616,2723.8
315.0641,4229.5
315.0668,16391.6
315.0697,20679.2
315.0733,16220
315.0804,6140631
315.09,12587.9
315.0918,8524.7
315.094,4530.6
315.0966,3350.8
315.0985,4119.6
315.1004,2304.1
315.1024,1506
315.107,574.9
315.1113,476.4
315.1155,285.2
315.1174,206.7
315.1614,5170
315.2605,151.6
315.3237,3624.2
315.4189,109.5
315.4863,404.5
315.6221,494
315.6421,354.2
315.7208,371
315.7781,18.8
315.8446,21.9
315.8962,412.4
315.9845,216.3
316.0016,382.6
316.0533,43.2
316.0683,1159.8
316.0776,32868.7
316.0837,632991.8
316.1118,1644.4
316.1767,172.3
316.2001,16.7
316.4252,462.2
316.7337,222.2
316.8336,436.6
316.8896,266.6
316.9869,1794.2
317.0139,278.9
317.0564,734.6
317.0653,2503.3
317.0842,72343.9
317.2386,449.5
317.3111,343.7
317.336,111.7
317.3656,302.1
317.5312,391.8
317.6749,230.1
317.7432,683
317.788,439.9
317.7939,21.9
317.8459,18.2
318.0877,6619.8
318.0956,21.9
318.1412,101
318.2171,149.7
318.4052,290.1
318.5519,208.6
318.56,64
318.63,1172.1
318.6379,19.7
318.6702,164
318.7112,96.1
318.7278,387
318.7917,1212.6
318.8038,2201.1
318.9411,20.4
319.1069,312.9
319.1587,330
319.1948,38437.8
319.3189,517.8
319.379,553.4
319.4237,845.5
319.6919,156.1
319.7764,345.9
320.0748,215.9
320.0879,175.3
320.1984,4878.4
320.2353,407.3
320.259,1678.3
320.2933,219
320.332,164.2
320.4569,411.4
320.6359,71.5
320.785,151.8
320.8005,822.5
320.9186,473.1
320.9258,720.3
320.9619,19.7
321.1113,77.4
321.1989,428.7
321.2105,27063.5
321.2577,654.1
321.2638,663.9
321.2782,136
321.306,223.6
321.3248,95.2
321.3402,126.9
321.4126,285.1
321.43,19.7
321.7558,720.9
322.0093,208.3
322.1159,191.6
322.1213,198.7
322.1365,18.7
322.214,3496.7
322.2265,115.8
322.2716,433.8
322.3146,86.1
322.3724,505.2
322.381,80.1
322.4171,113.6
322.4613,228.5
322.4895,113.5
322.5274,567.2
322.589,294.5
322.6655,105.7
322.7374,18.6
322.8114,923.7
322.8872,679.3
322.9723,19.1
323.0206,8519.7
323.0468,512.1
323.0634,699.9
323.0729,281.5
323.1072,908.7
323.1399,85.5
323.1719,185.6
323.1853,16.8
323.226,2389.3
323.418,156.5
323.4954,270.7
323.5691,610.2
323.6041,69.9
323.6649,210.7
323.7415,596.9
323.7756,124.3
323.7835,324.8
324.0024,254
324.0304,201.2
324.0467,102.9
324.1548,106.8
324.191,256.9
324.4032,709
324.4952,641.3
324.5121,595.1
324.5492,1679.7
324.5578,4902.3
324.5654,3179.5
324.5712,2152.4
324.5868,227.6
324.7365,406.7
324.7477,88.2
324.8084,1508.3
324.8529,2415.2
324.9204,947.9
324.9295,375.5
325.0024,908.5
325.0566,2452.8
325.2107,93.3
325.3206,422.9
325.345,268.2
325.4137,179.5
325.4675,711.8
325.5046,204.6
325.5167,112.1
325.5326,490.4
325.6145,477.5
325.7719,126.5
326.0043,26
326.0325,663.8
326.0506,19.7
326.1757,304.1
326.3157,18.9
326.3724,307.5
326.4591,282.5
326.5425,611.6
326.8051,376.5
326.8501,2095.3
327.0158,4228.3
327.0523,2798.7
327.1189,517.7
327.1299,334.6
327.1783,717.9
327.2219,24
327.2276,2284.5
327.2814,467
327.4215,394.2
327.4648,82.3
327.4951,257.6
327.5308,396.5
327.8469,122.6
328.0148,1663.8
328.1749,287.1
328.2397,115.8
328.2721,130.1
328.3385,117
328.3583,464.3
328.377,167.4
328.4303,802.7
328.4367,118.9
328.4483,315.5
328.4593,354.4
328.7569,735.5
328.8208,350.8
328.8324,618.9
328.9493,163
329.096,899.3
329.3528,493.5
329.416,260.5
329.4993,489.4
329.5143,386.2
329.5986,421
329.7314,105
329.8083,101.7
329.8423,110
329.902,285.8
330.0591,218.6
330.069,33.6
330.1604,479.9
330.5623,121.3
330.5979,417.9
330.6093,507.8
330.6887,101.7
330.7344,211.8
330.7533,540.2
330.7918,184.2
331.0195,1700.2
331.0455,114154.1
331.0543,730427.9
331.1703,105.7
331.2001,655.3
331.2494,529.8
331.3016,97.5
331.3485,371.7
331.4253,202.2
331.4482,328.5
331.5446,186.5
331.6266,97.2
331.6583,22
331.7567,146
331.8749,539.4
331.9913,107.8
332.0067,781.4
332.0484,7555.4
332.0576,69209.8
332.1515,104
332.48,108.3
332.5636,113.8
332.6475,465.5
332.6815,208.2
332.6935,21.8
332.8407,380.2
332.8601,404.4
332.9615,627.2
333.0332,99.7
333.0524,41639.3
333.058,7767.1
333.1262,216.5
333.1638,528.5
333.2755,18.8
333.3202,330.5
333.3528,93.9
333.6389,302
333.6517,205.8
333.6946,405.4
333.7009,547
334.0248,330.3
334.056,2275.3
334.0762,134.7
334.0904,94.3
334.0977,657.3
334.2729,560.7
334.2835,537.4
334.3558,729.5
334.3741,104.2
334.5364,19.7
334.5553,147.7
334.5639,127.8
334.6678,179.8
334.7104,558.3
334.7217,363
334.7647,389.2
334.8417,112.2
334.8992,241.7
334.9186,186.7
334.9604,210.7
335.0385,671.9
335.0567,148.9
335.1085,159.8
335.2247,332.7
335.5601,18.6
335.5916,240.8
335.7545,279.9
335.779,298.8
335.8501,302.1
335.874,78.9
335.9078,20.7
335.9965,173.7
336.0291,189.8
336.1463,440
336.192,473.6
336.2033,85.4
336.2129,63.2
336.3402,465.7
336.4798,210.7
336.8518,515.3
336.9438,330.3
337.0363,9223.1
337.0498,20505.6
337.0623,566419.8
337.0737,560.5
337.1086,113.1
337.2742,9994.6
337.3055,177.1
337.312,71.9
337.4495,154.9
337.4778,368.5
337.5493,258.2
337.5771,170.4
337.6144,464.9
337.7243,304.8
337.7587,229.6
337.8013,72.8
337.8707,21.2
338.0501,121.3
338.0656,49678.4
338.342,52.7
338.4842,178.6
338.6398,273.7
338.7836,321.4
338.9925,286.5
339.0385,1632.8
339.0477,991.2
339.0662,6067.9
339.1318,730.1
339.2026,297.5
339.2898,7461.4
339.4653,308.5
339.4927,17
339.7712,298
339.7933,309.4
339.906,310.9
339.9761,104.9
340.1972,850.6
340.3024,674
340.3899,17.9
340.473,156.1
340.5334,232.6
340.6673,220.5
340.783,544.2
340.9738,770.3
340.9986,247.4
341.0191,356
341.0512,306.4
341.0583,19.3
341.1793,1431.4
341.188,97.7
341.2606,532.1
341.3055,5753.3
341.3877,296.7
341.5859,573.9
341.6527,761.3
341.8578,342.4
342.0156,1184.7
342.2987,104.5
342.3572,411.7
342.3618,532.5
342.3665,168.7
342.4144,221.5
342.5478,126.4
342.6257,17.8
342.6744,23.3
342.7091,413.3
342.7869,119.2
342.875,81.5
342.9894,1030.2
343.0455,442.8
343.118,659.9
343.195,19295.7
343.5388,533.9
343.5743,364.5
343.7712,261.5
344.1979,1454.3
344.4041,169.6
344.57,310.4
344.6313,355.5
344.7926,354.6
344.8869,407.9
344.9704,516.6
345.014,181.8
345.0278,119
345.0654,597.3
345.1918,632.5
345.2105,2104
345.2426,247.6
345.3126,128
345.5679,326.3
345.6361,103.9
345.7479,296.7
345.7885,354.7
345.9838,2814.3
346.0092,33.1
346.0892,385.3
346.1441,357.2
346.1946,107.8
346.2525,19.9
346.2818,118.8
346.287,20.3
346.5953,131.7
346.61,93
346.6178,211.8
346.6273,177
346.7112,109.9
347.0171,396.5
347.0519,932.4
347.0944,221.3
347.1778,18.4
347.3578,362.2
347.3746,287.8
347.4976,106.7
347.9059,372.6
347.9691,19.5
348.0905,211.5
348.3237,119.5
348.5226,109.1
348.7131,99.1
348.8142,478.1
348.8326,415.7
348.9726,19.1
349.0182,192.4
349.0279,452.3
349.0543,313.1
349.0731,22.8
349.2993,391.7
349.8785,480.9
349.8879,654.1
349.9427,370.6
349.962,72.9
350.0138,50.2
350.0762,324.4
350.1831,111.9
350.2329,92.8
350.2903,22.6
350.3009,183
350.3632,18.5
350.4786,365
350.5301,158.9
350.8935,21.7
350.8994,772.2
350.942,359.4
351.0025,182.6
351.067,280.1
351.2348,142.8
351.5461,212.9
351.619,429.3
351.6457,317.7
351.8564,19.2
351.8733,103.4
351.9386,596.7
351.9508,668.5
352.0628,108.5
352.163,391.9
352.4458,404.7
352.858,361.7
352.8975,947.7
353.0274,123033.8
353.0363,153220.9
353.0969,180.5
353.1393,690
353.1593,90
353.2359,424.8
353.3687,158.9
353.3852,104.9
353.4082,367.4
353.4192,100.5
353.56,136.5
353.6345,169.1
353.7296,552.5
353.8551,411.9
354.0305,6876.1
354.0397,14160.6
354.1208,270.5
354.1771,207.2
354.3127,543.1
354.3209,704.2
354.4157,198
354.487,787.3
354.6011,488.4
354.6845,371.6
354.7712,547.7
354.8953,638.6
355.012,2266
355.0345,7648.2
355.0706,441.9
355.1748,200.8
355.2354,115.6
355.2681,194.6
355.3513,114.8
355.82,620
356.0148,84.6
356.0427,681.2
356.0692,49.9
356.1918,18.2
356.2725,19.5
356.3821,97.8
356.3924,190.8
356.4762,335.4
356.5346,132.6
356.64,213.9
356.757,326.1
356.944,426.1
357.0089,823
357.0205,176.4
357.027,131.3
357.0428,105.1
357.0877,114.2
357.1785,222.2
357.2331,20.4
357.4161,102.4
357.5258,18.9
357.613,755.4
357.6649,18.7
357.733,321.1
357.7591,23.4
357.8784,20.2
357.9769,26
358.2044,865.3
358.2718,125.1
358.3928,734.3
358.4234,477
358.4504,330.5
358.4579,122.5
358.5922,118
358.6092,393.4
358.8429,644.3
358.9765,110.5
359.0076,480.9
359.0317,12606
359.0443,330324.7
359.1356,19.2
359.1867,296.5
359.2395,170.9
359.2577,444.8
359.3647,439.1
359.3773,495.2
359.4327,22.4
359.4736,132.8
359.497,206
359.5109,346
359.5372,217.7
359.5545,165
359.5715,581.5
359.5821,882.2
359.5944,751.6
359.6031,18.5
359.6103,521.9
359.6218,408.7
359.6312,132
359.6371,654.5
359.6454,442.6
359.7697,174
359.8831,17.9
360.0111,31.3
360.0476,29241.8
360.1724,129.1
360.3243,319.3
360.6258,675.1
360.6349,198.7
360.9066,322
360.9213,239.3
361.0204,4671.8
361.1019,190.1
361.1835,129.9
361.2681,113.4
361.2742,670.1
361.4118,601.7
361.4297,244.8
361.5841,378.7
361.6815,573.7
361.8105,19
361.859,18.7
361.8721,439.1
361.958,1069.5
362.0548,287.1
362.0611,16.2
362.2656,19.1
362.2774,135.3
362.3897,185.4
362.4449,161.9
362.6161,155.4
362.7844,619.2
362.9269,1152
362.9674,72.9
363.176,18
363.4607,187.8
363.586,128.4
363.6417,140.6
363.7282,623.2
363.8908,216.2
363.9243,779.1
363.9608,676.5
363.9758,19.1
363.9973,122.2
364.2386,816.8
364.262,566.8
364.3788,301.3
364.4814,93.8
364.5663,115.9
364.6499,350.7
364.7658,222.6
364.8034,487.6
364.8551,104.7
364.902,580
364.9164,385.8
365.0117,423.4
365.1058,12675.3
365.1393,65
365.1744,539.2
365.4167,360.4
365.433,710
365.56,166.5
365.7292,110.3
365.7846,327.1
365.7944,515
365.9224,346.1
366.0636,23
366.2643,325.3
366.7413,17.2
366.815,152.4
366.927,608.5
366.9601,271.8
366.9724,80.7
367.043,152.4
367.0585,16.9
367.0663,128
367.1946,1748.3
367.2535,718.2
367.545,326.4
367.5563,663.6
367.7357,253.6
367.7512,107.5
367.7833,67.6
367.806,151.2
367.834,19.9
368.0535,89.1
368.1219,216.8
368.2016,23.5
368.2589,541.9
368.3691,427.3
368.5649,94.9
368.6106,500.5
368.7814,122.8
368.8707,1799.8
368.9926,1073.2
369.0013,10934.7
369.01,4401.8
369.352,21.1
369.3792,639.8
369.439,129.2
369.5234,438.2
370.0041,389.9
370.0242,350.2
370.182,164.2
370.3638,309.5
370.4264,17.4
370.5244,311.7
370.5637,19
370.6365,504.6
370.6658,471.2
370.7371,232.2
370.8018,350.1
370.8674,18.3
370.925,649.8
371.007,300.7
371.0344,127.2
371.2445,80.8
371.3229,344.2
371.4513,21.9
371.5404,487.6
371.8491,19.5
372.0278,322.7
372.1032,733
372.1401,163.9
372.1821,109
372.1934,466
372.279,143.7
372.3695,112.4
372.4247,23.2
372.4774,177.8
372.5314,166.7
372.6304,63.4
372.7386,2479
372.8089,664.6
372.8631,17.8
372.9115,243.8
373.0439,148.3
373.171,106.6
373.5463,150.6
373.5564,367.3
373.6936,600.8
373.7179,109.2
374.073,653.2
374.1327,133.4
374.2504,204.8
374.3804,451.1
374.4392,261
374.5926,170
374.7353,733.1
374.8109,67.9
374.8921,296.4
374.9322,564.1
374.9599,551.7
375.0093,123662.9
375.0182,81706
375.0446,422.4
375.1298,92.8
375.1692,418.7
375.184,184
375.568,175.1
375.6375,212.6
375.6396,215.3
375.6439,123.9
375.7011,98.4
375.7964,18
375.8077,485.7
376.0125,9025.4
376.0216,7361.2
376.1107,796.1
376.2355,355.9
376.365,439.1
376.448,119.1
376.6653,21.4
376.881,491.7
376.9747,67.6
376.9939,1263.9
377.0166,2427.3
377.0517,340.7
377.069,721.2
377.1921,633.9
377.3414,137.3
377.462,423.1
377.5868,408.2
378.0074,750.4
378.0432,201.5
378.0624,113.7
378.1536,80.8
378.202,192.7
378.2774,107.1
378.3341,544.7
378.492,259.4
378.8476,102.3
378.9002,759
378.9255,93.8
378.9912,21.9
379.194,399
379.2429,18.7
379.7444,353.4
379.8266,121.7
379.9838,223.4
380.0497,177.4
380.2393,543.1
380.2706,116.8
380.3069,185.2
380.3532,191.7
380.3936,524.7
380.4626,109.5
380.7701,2475.3
380.8976,620.1
380.9833,358.1
381.0137,18291.5
381.0262,198124.8
381.0794,1956.8
381.3513,164
381.3993,248
381.4711,392.6
381.4779,208.3
381.7617,130.9
382.0296,17301.1
382.0579,383.4
382.0747,18.5
382.2354,163.8
382.2402,369.6
382.3375,160.6
382.601,358.2
382.6622,712.3
382.723,356
382.7673,2368.5
382.8332,157.7
383.0292,354.5
383.1165,207395.6
383.6606,363.2
383.7236,147.5
383.8206,63.3
383.9402,397.9
383.9777,117.7
384.0853,99.9
384.1198,26567.6
384.1324,144.5
384.1647,286.2
384.2526,325.7
384.3639,226.2
384.3696,488.2
384.7249,70.6
384.7645,1074.1
384.8116,113.1
385.0865,183.7
385.1204,2324
385.1619,18.4
385.2737,91.6
385.2842,361.6
385.4231,314.1
385.9712,728.9
385.9793,729.4
386.146,19.5
386.1658,421.5
386.2392,19
386.2496,524.7
386.2796,316.7
386.3599,185.9
386.3807,19.9
386.4879,354.1
386.5753,203.6
386.6393,165.9
386.7468,115.5
386.7813,168.3
387.0029,748.7
387.1491,19.8
387.2399,82.3
387.3795,495.4
387.4963,305.9
387.6429,174.6
387.8379,123.4
388.1889,687.5
388.2766,18.2
388.4081,21.7
388.4532,147.3
388.5723,252.5
388.7127,2025.9
388.771,482.3
388.7856,430
388.9118,570.2
388.959,444.1
389.1063,334.9
389.1532,296.5
389.1851,131.7
389.6325,23.7
389.7178,153.7
389.9735,2090.4
390.03,406.7
390.0666,416.2
390.19,123.1
390.4249,99
390.4607,209.3
390.4824,147.1
390.5905,517.8
390.6982,79.5
390.708,1400.4
390.7992,3764.4
390.8523,458
390.8724,189.1
390.9091,274.3
390.9209,488.9
390.9396,413.3
390.9742,12120.8
390.9832,17596.5
390.9922,7722.4
391.0582,610.1
391.2178,166
391.3375,346.6
391.4423,18.9
391.4771,493.1
391.6353,61.2
391.8774,20
391.8911,217.1
391.8977,20.1
391.9766,624
391.9871,167.1
392.017,21.7
392.1153,300.8
392.2522,246.1
392.4415,100.2
392.4607,315.2
392.5665,94.3
392.7964,2229.6
392.8579,142.3
392.8687,378.8
392.8969,18
392.907,918.3
392.959,49.7
392.9906,296.5
393.2161,91.3
393.3168,439.3
393.3838,126.7
393.5907,822.7
393.6365,645.2
393.8425,177.9
393.8783,69.7
394.0991,346.6
394.1812,104.4
394.3522,135.4
394.3692,157
394.4776,648
394.6764,188.6
394.7166,180.7
394.7928,458.1
395.007,361.5
395.5018,512.1
395.5854,125.5
395.6013,399.3
395.7829,201.3
395.842,339.8
396.1652,144
396.319,573.7
396.4064,228
396.7442,1668.3
396.778,111.2
396.847,107.4
396.8661,278.4
396.8735,584.4
396.9186,299.6
396.9912,174627.7
397.0001,53507.5
397.0574,18.1
397.0984,21.2
397.231,83.5
397.3323,501.3
397.4357,566.3
397.7184,105.4
397.9944,13776.9
398.0036,1860.8
398.1534,19.6
398.2419,4446.9
398.464,162.4
398.7413,3213.5
398.7616,1144.1
398.7705,510.2
398.8169,749.9
398.8357,87.1
398.9749,69.9
398.9998,191.8
399.0822,305.1
399.1454,167.1
399.1787,435.1
399.1997,158
399.2774,235.7
399.293,485.5
399.3333,112.4
399.6453,171.7
399.7214,490.4
399.7495,313
399.783,197.4
399.8286,462.6
400.0004,19
400.0616,368.8
400.2224,18.7
400.2847,107
400.3494,407.2
400.5019,111.9
400.5254,727.1
400.584,501.8
400.7201,783.5
400.7384,1400.4
400.7707,18.1
400.8282,1540.4
400.8779,184.9
400.9211,132.6
400.9734,19.4
400.9843,1547.1
401.1151,78.6
401.2061,69.3
401.2576,212
401.2663,340.5
401.3835,164.7
401.4094,140.6
401.5406,361.7
401.8151,465.1
401.8362,472.3
401.9509,19.1
401.9957,368.3
402.1112,17.1
402.1601,161.5
402.3935,137.7
402.4206,538.1
402.4608,102.9
402.5537,447
402.5934,20
402.6499,110.4
402.6664,496.8
402.6892,469.9
402.7345,349.1
402.7656,480.8
402.8247,1394.3
402.9918,494.3
403.0082,227758.6
403.1867,78.2
403.3109,223.8
403.3928,224.7
403.5386,102.4
403.6626,186.2
403.9223,228
403.9676,111.2
404.0114,18312.1
404.1068,431.1
404.1423,202.3
404.1706,461.7
404.1811,124.5
404.4007,21.1
404.427,560.1
404.4455,205.8
404.5355,17.5
404.5756,115.9
404.631,286.5
404.7598,294
404.9733,121.6
405.0124,959.2
405.1626,174
405.2601,17.3
405.5249,17.9
405.621,341.2
405.8341,126.4
405.9476,433.3
406.0297,536.3
406.0755,288.9
406.3296,1373.1
406.3659,174.8
406.4124,746
406.4277,326.2
406.4363,529.7
406.4844,101
406.619,403.8
406.684,388.2
406.7344,105.3
406.7733,1396.6
406.9446,21.6
406.9562,233.9
407.2721,37.2
407.3335,441.8
407.3786,88.3
407.433,169
407.6114,521.1
407.62,19.6
407.7077,98.8
407.7514,265.1
407.8014,88.4
408.183,200.6
408.217,357.3
408.3351,61.2
408.5583,474.2
408.6921,212.8
408.7699,1585.6
408.9845,2173.8
409.0497,749.7
409.15,78
409.189,250
409.1996,517.8
409.2966,124.8
409.4084,98
409.7208,18
409.732,121.6
409.9024,137.5
409.9194,201.7
410.0613,486.5
410.2981,175.6
410.6306,106.1
410.6527,72.4
410.6604,17.8
410.6824,18.3
410.7673,1369.2
410.8213,379.2
410.8554,475.1
410.9062,34.5
410.9607,306.1
411.016,20.8
411.0295,195.9
411.1478,411.3
411.2616,683.8
411.2828,175.3
411.3794,449.1
411.458,334.7
411.5972,34
411.8253,547.9
412.1558,159.6
412.2779,703.4
412.3216,1856.1
412.7155,600.4
412.7499,189.3
412.8358,412.3
412.9652,23665.7
412.974,6115.9
413.2667,2055.1
413.3137,18.3
413.3248,152.4
413.6046,94.3
413.8058,211.6
413.8194,143.6
413.9679,577.4
414.1018,612.1
414.2701,303.3
414.3529,173.5
414.4104,81.2
414.7157,349.4
414.9048,96.1
414.9983,722.2
415.058,133.3
415.1043,211.7
415.2203,437.9
415.235,150.8
415.2628,163.9
415.2736,26.5
415.2819,2021.1
415.5318,20.5
415.8684,19.1
416.1014,95.2
416.1353,10938.1
416.2145,19776.1
416.4472,103.5
416.5386,117.6
416.6083,21.7
416.7123,467.1
416.7598,705.5
416.8025,1480.3
416.8346,21.6
417.1377,682.9
417.1828,20.4
417.2067,233.2
417.2177,2597.7
417.2631,159.2
417.3138,24.9
417.3969,147.4
417.4536,20.2
417.5576,82.5
417.5808,113.1
417.7135,386.7
417.7927,118.8
417.8145,89.9
417.8561,171.8
418.0102,19.7
418.0545,317.3
418.0794,243.9
418.1003,574
418.1173,157.4
418.1321,183.1
418.3647,121.5
418.4356,180.1
418.5657,84.1
418.665,633.4
418.7986,1257.2
418.8516,85.9
418.9821,64128.5
419.2566,489.4
419.269,105.6
419.5592,20.2
419.6164,671.9
419.7178,461.3
419.849,67.1
419.9855,2572.5
420.5834,588.2
420.6586,318.8
420.7482,145.5
420.8857,1191.1
420.9387,174.8
420.9573,442
420.9804,1325.8
421.6349,188.5
421.9176,107.4
422.0947,534.1
422.2093,213.8
422.2418,399.2
422.3034,72.6
422.4709,174.6
422.535,140.9
422.6799,407.5
422.737,273.6
422.7406,284.3
422.9319,591.8
422.9499,141.1
423.1541,188.5
423.2263,20.2
423.3238,103.8
423.4204,119
423.8666,18
423.8915,103.5
424.0419,201.9
424.1544,485.9
424.2708,820.7
424.41,127
424.5152,367.9
424.8643,419.8
424.9077,700.8
424.9303,78.1
425.0708,118
425.3372,174.8
426.132,223.6
426.2189,252
426.4113,101.8
426.6884,591.9
426.7136,105.6
426.7472,356
426.9206,177.9
427.223,328.3
427.3181,409.4
427.5727,665.2
427.8929,172.6
427.9079,104.9
427.9965,36
428.0148,99.5
428.2593,90.8
428.3882,535.2
428.6526,18.8
428.7892,392.5
428.8152,655.9
428.8296,776.9
428.9296,82.1
428.9393,647.1
428.9497,77.2
428.964,255
428.9902,355
429.003,250.4
429.0895,232.9
429.1072,207.9
429.2279,484.7
429.3893,449
429.4065,686.4
429.6055,131.5
429.874,609
430.2003,97.5
430.3268,595.2
430.4389,347.7
430.696,510.9
430.7318,202.9
430.9144,1679.1
431.0726,18.3
431.1251,17.8
431.2174,4986.7
431.5011,642
431.641,191.4
431.9693,179
432.0073,20.2
432.0544,424.8
432.1337,253.6
432.4055,316.6
432.4621,104.8
432.5367,97.2
432.5675,536.8
432.6765,21
432.6937,1289
432.7708,411.4
432.8799,79.6
432.9561,314.6
433.0187,121.3
433.1488,107.2
433.5369,17.8
433.78,211.5
433.9854,17.8
434.0508,106.3
434.0856,191.6
434.107,125.1
434.2196,312.1
434.6039,120.1
434.6883,363.3
434.7595,110.2
434.9101,19.4
434.9561,7502.9
435.2294,406.5
435.2775,269.4
435.4078,749.4
435.4761,318.1
435.5702,143.2
435.7898,412.7
435.8929,515.7
435.9134,514.1
436.6777,571.4
436.7619,301.8
436.8211,346.4
436.9181,159.1
436.9576,101
437.534,155.2
437.7119,170.5
438.134,575.9
438.1694,104.4
438.3971,125
438.4813,209.4
438.5089,408
438.6874,201.6
438.7898,504.3
438.8587,100
438.9724,1019.2
438.985,3761.8
439.2024,224.2
439.2338,184.1
439.3037,358.9
439.4609,21.7
439.5406,145
439.5585,159.5
439.7434,99.3
439.8872,180.1
440.1376,21
440.2941,20.2
440.402,79.2
440.5356,460.3
440.5552,515.2
440.5932,412.2
440.6681,148.8
440.7257,1895.3
441.299,397.7
441.524,283.9
441.7093,75.3
441.8248,235.9
441.9945,387.6
442.1763,145.9
442.2709,81
442.332,180.2
442.5534,153.8
442.5754,160.1
442.6178,145.8
442.6894,267.8
442.7121,425.9
442.7233,743.7
442.8811,94.7
443.0954,117.6
443.19,19.2
443.2047,312.8
443.2362,87.8
443.4094,210.3
443.4488,293.1
443.4677,510
443.556,71.4
443.6947,272.7
444.0163,776.2
444.34,271.6
444.6159,516.5
444.6875,217.9
444.7473,232.9
444.7557,18.8
444.766,480.6
444.7822,410.6
444.8233,772.7
445.058,674.6
445.1524,178.2
445.2329,1473.3
445.2694,1704.7
445.4195,582.8
445.6106,340.2
445.63,21.3
445.6484,313.4
445.7154,720.4
445.7868,117.9
445.9226,418.3
445.9423,113.7
446.0401,408.7
446.0688,18.5
446.2125,147.6
446.2427,334.5
446.4742,738.8
446.4983,160.2
446.6711,1167.3
447.1562,115.4
447.2061,66.2
447.6404,218.9
448.0113,330.1
448.0668,136
448.1097,518.4
448.2028,360.1
448.2218,305.2
448.3822,711.7
448.5617,151.1
448.6227,494.6
448.6676,551.2
448.7125,344.8
448.757,346.3
448.8254,195.8
448.9329,4200.6
449.0363,411
449.1545,1973.8
449.2538,103.9
449.3243,121.9
449.4652,593.5
449.6464,523.1
449.9025,146.9
449.9139,378
450.0726,178.2
450.1582,380.1
450.3171,163.8
450.3662,295.3
450.4973,740.7
450.5757,85.2
450.6639,280.6
450.7543,370
450.8263,24.8
450.9296,948.9
450.9554,621.8
451.1497,122.1
451.3982,351.7
451.5871,20.5
451.7331,20.2
451.7891,171.3
451.7986,105.2
451.9819,18.5
452.2567,307.1
452.34,286.2
452.6364,500.5
452.6803,82.6
452.8237,598.4
453.0287,77.2
453.2217,85.9
453.5299,103.3
453.704,147.1
454.211,726.8
454.3243,451.5
454.3905,730
454.3991,63.5
454.7213,317.4
454.8758,219.6
454.8829,327.8
454.9336,334.3
454.9499,41697.1
455.5649,292.2
455.602,225
455.6479,312.6
455.724,496
455.8018,112.2
455.8418,107.3
455.9535,1620.1
456.4989,250.9
456.5104,20.6
456.6999,1058.6
456.7431,300.5
456.947,11232.4
457.2331,10425.9
457.2531,168.4
457.3784,103
457.4333,291.8
457.4527,352.7
457.6068,19.7
457.7167,95.9
457.7835,599.9
458.0635,106.2
458.1677,545.9
458.2031,530.9
458.2837,259.2
458.3498,142.1
458.5035,325
458.698,348.3
458.836,107.9
458.8465,405.4
458.8637,483.2
458.9135,318.4
458.9614,3583.2
459.2272,769.5
459.2487,348148.7
459.2801,347.6
459.4017,458.1
459.723,130.7
459.8091,905.6
460.252,69078.5
460.6207,318.9
460.7716,96.4
460.783,532.6
460.9667,68957.4
460.9927,364.2
461.2549,2626.3
461.3055,265.1
461.4409,205.1
461.6264,95.7
461.6588,105.8
461.7917,133.1
461.9703,2997.5
462.2663,216.1
462.4946,24.4
462.6242,18.9
462.7937,174
462.9639,16482.9
463.0493,117
463.1018,437.6
463.4934,414.2
463.5579,416.5
463.7771,179.1
463.9018,321.5
463.9789,731.7
464.3012,210
464.5126,141.6
464.5925,104.7
464.6419,781
464.6738,184.1
464.8308,180.4
464.9123,147.8
464.9785,7983.5
465.0964,21.5
465.116,164.8
465.9833,357.9
466.003,18.3
466.0205,230.2
466.0327,295.2
466.0852,390.3
466.3909,267.4
466.5501,472.4
466.6359,18.7
466.8357,205.5
466.8489,176.7
466.9423,752.4
467.2099,611
467.3335,199.8
467.6705,158.6
467.7508,828.7
467.8117,103.4
467.9591,316.6
468.137,564.6
468.2148,296.9
468.3089,4100.9
468.4968,150.6
468.7813,19.9
468.8123,118.1
468.979,629.4
469.0978,134.5
469.1463,91
469.1726,74.7
469.2843,238.5
469.3661,655.2
469.8447,126.3
469.8514,67.9
469.8843,18.8
470.4674,21.2
470.4934,69.6
470.7161,424
470.9237,13422.3
470.9956,1723.1
471.039,83.1
471.1514,495.5
471.4164,23.1
471.9796,248
472.2684,509
472.303,661.4
472.3443,477.6
472.4312,20.7
472.445,370
472.5786,20.6
472.9213,3397.5
472.9402,1336
472.952,1148.2
472.9613,369.8
472.974,145.9
472.9838,1383.2
473.0423,294.9
473.1489,135
473.2641,3389.7
473.334,173
473.3944,516.5
473.8559,301.5
473.9824,196
474.0277,327.7
474.499,339
474.5538,154.9
474.6439,388.4
474.7153,681.9
474.7602,648.8
475.0148,357.8
475.0617,453.4
475.1648,811.2
475.2226,11224.1
475.7035,456.7
475.7465,159.5
475.7724,19.5
475.8077,547.1
475.9109,98.5
475.9215,85.6
475.9721,90.4
476.0268,475.1
476.2262,561.1
476.3135,585.2
476.3992,508.4
476.9408,31905.1
476.9566,378.3
477.2095,556.9
477.2212,398.6
477.3561,315.2
477.4125,482.8
477.645,104.3
477.7462,187.6
477.7807,397.5
477.8487,503.3
477.9445,588.8
477.9648,377.5
478.015,143.2
478.2323,109.8
478.3296,48334.9
478.5964,151.3
478.7015,633.2
478.9378,9949.2
478.9839,435.6
479.0032,471.4
479.0381,309.4
479.1354,171.2
479.2594,365.4
479.3329,7360.3
479.5525,99.9
479.6176,260.4
479.6704,60.4
479.8423,128.2
479.911,385
479.9405,163.8
480.1607,528.1
480.2017,65.8
480.667,540.8
480.8957,228.3
480.9527,1469.3
481.0923,128.2
481.2329,1039.7
481.267,19.7
481.4342,100.6
481.6615,514.4
481.6975,285.8
481.8974,179.4
482.2817,113.2
482.312,104.5
482.3591,334.5
482.671,22.1
482.7328,163.5
482.8074,299.8
482.8279,391
482.88,503.4
482.8923,80.4
482.913,497.2
482.9586,602.7
483.2487,141552.9
483.5335,199.2
483.7539,823.4
483.8412,392.8
484.2519,29648
484.3374,490.2
484.4646,260.6
484.568,398.5
484.7541,337.5
484.8212,232.3
484.9155,125.4
485.2642,99515.6
485.358,129.2
485.3721,526.6
485.4199,118
485.7357,551.6
485.8009,693.7
485.9144,261.8
485.9881,348.6
486.1564,415.2
486.1809,19.2
486.2168,20.4
486.2449,126.2
486.2675,19386.5
486.3815,232.7
486.4535,110.9
486.5306,738.8
486.6732,344.1
486.7339,19.4
486.8982,1079.1
486.9654,157.1
487.1489,21.1
487.2799,92551.5
487.4767,545.5
487.5124,171.6
487.5403,165.5
487.5637,405.8
487.6024,100.5
487.9996,19.9
488.0253,461.7
488.2396,107.7
488.2832,18949.2
488.3108,366.8
488.445,450.2
488.5166,17.8
489.0865,61.5
489.1842,142.7
489.2856,850.7
489.3257,372.4
489.3387,121.8
489.3622,308.1
489.381,292.8
489.4723,303.6
489.5759,27
489.6517,19.6
490.2908,8587.6
490.3925,491.2
490.4607,494.9
490.4842,339
490.5534,338.6
490.5786,631.7
490.6501,330.3
490.7273,205.9
490.8351,109.9
490.8689,412.9
490.9725,582.9
491.0837,21.9
491.2923,611
491.3362,73.2
491.8844,20.6
492.1471,361.3
492.1561,349.6
492.2563,639.6
492.2956,134.4
492.4482,357.4
492.6321,108.2
492.9147,3136.6
493.6472,295.2
493.8549,251.5
493.9472,18.6
494.0249,145.9
494.3023,131.2
494.3244,6541.7
494.4956,531.1
494.6215,765.6
494.8256,140.3
494.9123,989.1
494.9764,165
495.011,232.6
495.0409,224.4
495.178,435
495.1945,106.3
495.3061,664.1
495.4719,20.9
495.5453,210.3
495.7151,240.5
495.8464,85.3
496.3147,82.9
496.3402,438486.7
496.5157,108.3
496.7733,120.8
496.8356,414.1
496.9314,516
496.9848,189
497.257,401.6
497.323,108.1
497.3435,105098.2
497.3765,147.7
497.4952,295.6
497.5579,66.5
497.6333,527.3
497.7504,19.6
497.9382,157
498.0479,200.1
498.1968,632.9
498.3472,7235.7
498.4147,842.3
498.6829,388.8
498.9295,255.7
499.2225,3071.9
499.2548,551.9
499.4087,190.1
499.5183,18.4
499.7047,87.2
499.7402,18.3
499.7697,107.5
500.0615,522.3
500.1688,19.9
500.45,317.1
500.5621,553.1
500.5961,105
500.6727,129.3
500.6906,603.1
500.7488,232.3
500.8738,487.4
500.984,1623.4
501.0229,128.9
501.2382,2029
501.2551,128.6
501.3229,395.5
501.3565,508.3
501.3829,18.9
501.6669,726.5
502.0839,494
502.1622,227.7
502.3295,21807.5
502.4564,86.4
502.5606,379.1
502.7282,365.5
502.8646,75.7
502.8946,449
503.0321,572.7
503.1078,36
503.2537,3640.6
503.3331,2341.5
503.5544,595
504.0455,734.2
504.0723,618.4
504.1214,308.1
504.3064,4379.7
504.3454,8784
504.3809,105.3
504.4064,181.4
504.6295,528
505.0694,462.3
505.2328,803.7
505.6065,188.6
506.0367,216.7
506.2641,1181.8
506.3604,6941.6
506.5278,238.9
506.6287,621.5
506.793,142.2
506.8917,2844.1
506.9809,67.8
507.2485,26611.2
507.2676,372
507.286,323.6
507.2994,418.8
507.365,657.9
507.3956,18.1
507.5527,143
507.8736,184.6
507.9454,324.3
508.1801,314
508.2176,147.2
508.2519,5901.3
508.2814,268.1
508.3767,1361.5
508.5584,119.8
508.7135,505.9
508.8481,342.3
508.868,181.1
508.8885,1492.7
508.9467,109.6
509.0049,2005.7
509.0917,93.6
509.2185,133.8
509.2641,11685
509.298,532
509.7313,476.2
510.204,142.9
510.2212,78.3
510.2489,479.7
510.2674,2236.1
510.3559,1506
510.7271,18.3
510.7635,147.3
510.8929,340.6
510.9332,537.4
511.0177,254.9
511.0674,378.8
511.1261,42.5
511.3591,807.5
511.4431,118.9
511.7399,96.9
511.7767,81.9
511.8936,273.1
511.9783,103.5
512.0105,125.8
512.1542,300.9
512.3356,1020.1
512.559,198.6
512.8101,19.7
512.8943,422.3
512.9085,20393.3
513.0785,325.6
513.2503,354.5
513.343,560
513.46,437.7
513.5683,522.2
513.572,456.2
513.7059,224
513.7655,578.5
513.7788,130.3
513.9119,1856
513.9299,444.1
514.5588,236.3
514.6588,1140.2
514.7058,121.5
514.7323,98.8
514.838,19.7
514.8684,544.9
514.9055,12449.8
514.9776,157.7
515.0074,202.9
515.2635,321.3
515.4094,99
515.6152,399.4
515.8496,69
515.908,107.2
515.9344,288.2
515.9713,152.8
516.0667,186.8
516.1972,90
516.2553,138.1
516.3067,14300.7
516.3199,20.1
516.3388,745.1
516.628,20.9
516.6555,883.5
516.7828,263.5
516.8482,99.5
516.8625,180.9
516.8863,598.1
516.9071,336.1
517.3096,1457.2
517.3756,745.9
517.5151,373.3
517.5483,259.3
517.5831,153
517.7497,17.6
517.887,109.4
518.2479,153.9
518.2923,284.3
518.3221,636425.5
518.345,143.5
518.5619,107.9
518.677,119.9
518.726,316.7
518.8362,610.6
518.9253,29437.7
519.1349,492.9
519.1905,162.1
519.3255,155009
519.8264,284.6
519.8853,205.3
519.8997,106.3
519.9293,1068.1
519.9484,265.5
519.9722,19.8
520.3292,18204
520.3402,156197.6
520.4779,554.2
520.4988,106
520.5435,223.3
520.639,625.5
520.9225,16123.4
521.1015,94.5
521.3436,40723.7
521.4225,453.6
521.4666,17.1
521.4839,328.1
521.5124,843.8
521.851,256.1
521.925,914.1
522.0669,94.6
522.1509,66.8
522.3558,125253.8
522.398,668.6
522.599,400.4
522.7936,123.4
522.8641,1025.4
522.9197,1156.3
522.9378,6063.7
522.9677,412
523.0255,275.5
523.3007,784.5
523.3107,21.6
523.3243,22
523.3592,31622.1
523.7038,707.6
523.9248,349.8
523.9596,20.5
524.037,1320.2
524.0524,1161
524.0731,838.1
524.1069,101.3
524.167,107.4
524.3715,148991.1
524.6328,368.6
524.6881,391.1
524.787,649.7
524.8938,89
524.9343,483.4
525.0114,209.5
525.2327,132.9
525.2602,123.8
525.3749,40028
525.4573,81.8
525.4841,140
525.608,221.4
525.6218,303.1
526.2449,19.3
526.3294,1989.5
526.3781,3337.5
526.8254,523.2
527.2254,764.4
527.2837,313.7
527.3331,89.9
527.4984,101.1
527.5744,98.3
528.3004,104.2
528.3577,540.8
528.4965,394.5
528.6079,483.6
528.8821,9352.2
528.9537,1498.9
529.2625,413.6
529.3497,447.6
529.7051,316.9
530.3217,1893.6
530.3355,204.5
530.381,105.4
530.5801,181.2
530.6317,932.2
530.804,176
530.8795,2958.8
530.9751,443.8
531.0446,494.8
531.1759,680.6
531.2486,4938.1
531.5565,22.2
531.6527,495.8
531.8197,115.9
531.9238,72.7
532.2526,1157.7
532.2806,2169.4
532.3377,7806.7
532.7236,98.5
532.8293,183.7
532.8772,369.8
532.967,1670.7
533.2386,438.5
533.3466,94.3
533.4421,237.8
533.7236,217.9
533.7841,185.5
533.8456,362.6
533.8645,105.5
533.9425,118.7
534.024,173.8
534.0353,117.3
534.0794,150.4
534.2372,21.2
534.28,491.1
534.2962,138591.5
534.3169,1409.8
534.3543,507.5
534.4079,201
534.492,427.2
534.7605,118.5
534.8613,260.1
534.8992,12652.5
535.0215,234.6
535.1742,133.6
535.2992,30472.4
535.342,131.1
535.3746,19.7
535.8877,519.8
535.9034,388.7
536.2079,185.2
536.2131,201.8
536.2943,5214.3
536.5954,20.7
536.6306,80.3
536.7754,340.2
536.8963,8887.4
536.9719,497.9
537.0244,244
537.0635,213.4
537.092,91.1
537.2974,769.1
537.343,308
537.4293,19.1
537.4771,402.8
537.67,413.9
537.6911,155.1
537.8295,438.7
537.9869,302.5
538.1933,152.1
538.4881,178.9
538.8331,114.4
538.8441,24
538.9111,1876.4
538.9317,1745.2
539.1059,306.4
539.1756,552.7
539.3998,108.6
539.9845,324.2
540.0244,152.3
540.7898,64.8
541.1317,92.9
541.3948,281.7
541.6069,71.6
541.6998,395.4
541.8471,538.8
541.9596,123.7
542.3222,232906.1
542.503,19.5
542.5836,263.4
542.5961,85
542.74,284.5
542.9326,24.7
543.1045,562.9
543.3255,58094.2
543.4533,520.6
543.9038,510.8
544.0069,123
544.1073,180.3
544.2726,355.2
544.338,186008.9
544.43,19.2
544.5637,293.2
544.657,570.9
544.8565,529.2
544.8638,622.3
544.869,629.9
544.9489,2116.3
545.3413,45489.4
545.5231,348.9
545.7244,120.9
545.7352,20.3
546.2381,573.1
546.252,83.7
546.3535,186907.1
546.4557,372.1
546.6205,546
546.8256,94.9
546.9802,200.1
547.0596,347.6
547.1286,114.9
547.1873,343.2
547.3064,607.6
547.3568,48177.2
547.3949,245.5
547.5119,666.7
547.9375,235.1
548.1621,205.3
548.2327,161
548.3101,809.6
548.3442,114.7
548.3601,5751.6
548.6121,98.4
549.0478,218.2
549.0878,165.5
549.1524,581.4
549.3604,760.2
549.4776,366.8
549.5764,693.7
549.6091,73.6
549.6329,66.2
549.8437,292.6
549.9491,247
549.9534,213.4
550.0695,443.9
550.1061,227.2
550.2602,105
550.4697,97.3
550.5217,85
550.6034,463.2
550.711,97.2
550.848,131.9
550.8735,2027
550.8869,155.3
550.9874,366.7
551.2301,333.4
551.2975,107.5
551.5542,430.6
551.6403,213.1
551.6596,245.6
551.8612,306.9
551.9509,117.4
552.0292,204
552.1198,688
552.2563,439.5
552.6001,78.3
552.7017,294.4
552.7233,194.1
552.8703,780.2
552.9765,446.1
553.2978,523.3
553.4234,613.6
553.8363,95.6
554.0156,715
554.135,121.1
554.2603,207.8
554.2762,224.9
554.3951,211.5
554.9627,173.1
556.0853,125.1
556.2489,527.8
556.2786,98.5
556.9782,484.7
557.3857,17.9
557.673,137.3
557.801,391.6
558.009,254.8
558.2039,108.1
558.2677,220.9
558.2961,51738.4
558.3163,639.1
558.9188,476.8
558.9762,520.9
559.103,491
559.2997,12492.6
559.4902,322.6
559.7875,190.8
560.0425,371
560.1048,718.3
560.2488,114.8
560.294,968.8
560.3118,36109.4
560.5034,281.4
560.8464,113.4
560.936,339.2
561.0745,101.1
561.0881,708.1
561.1543,172.4
561.2085,142.4
561.315,7872.3
561.3284,446.7
561.413,577.7
561.7721,275.5
562.1968,589.3
562.2438,316.8
562.2806,677.7
562.312,1214.5
562.3274,36226.4
562.4061,98.5
562.9025,683.6
563.0219,157.8
563.1595,751.4
563.2871,721.5
563.3308,9467.9
563.5934,384.1
563.6417,490.6
564.0714,477.7
564.0991,167.1
564.3062,1767.8
564.3252,1138.6
564.849,1070.5
565.0241,234.5
565.1315,142.8
565.2311,143.6
565.351,362.4
565.3823,824.6
565.4819,693.4
565.8194,141
566.0342,20.6
566.2378,146.2
566.3223,48348.9
566.3519,93.4
566.5815,487.9
566.6919,334.5
566.7938,22.7
566.9628,948.9
567.3255,11077.8
567.3429,795
567.7301,574.5
568.2242,19.8
568.3378,22976.2
568.8425,321.4
569.0159,636.1
569.0404,574.2
569.0826,192
569.3416,3566.7
569.3673,106.9
569.5664,210
569.7048,206.2
569.8572,349.4
569.9061,24.3
570.0714,561.7
570.6183,380.2
570.637,143.4
570.8673,8052.9
570.893,759.6
570.9279,324.5
571.0351,397.7
571.2104,833.3
571.2912,183.2
571.7324,107.3
572.2704,301.2
572.3698,895
572.8171,117.8
572.8645,8170.4
572.9085,541.9
572.976,249.3
573.3026,289.5
573.3514,519.7
573.632,882.7
573.9907,232.1
574.2839,2305.6
574.6004,172.9
574.6862,104.9
574.8608,944.8
574.8998,303.5
574.9392,84.4
574.9752,389.4
575.0645,715.6
575.0869,433.3
575.1322,107.2
575.2205,165.2
575.5037,13549.2
575.6883,141
575.747,20.6
576.038,246
576.213,204
576.2809,9659.1
576.4934,483.3
576.5818,123.1
576.6447,380.9
576.8841,8914.4
577.0515,112.2
577.2833,1516.8
577.5168,780.1
577.6086,323.5
577.7556,130.7
577.8181,360.3
578.1289,184.2
578.2773,1266.1
578.5108,1066.6
578.8813,10590.5
579.2161,464
579.2872,397.6
579.4161,144.4
579.9332,300.7
579.9567,210.6
580.0092,216.3
580.2952,520.4
580.4672,135.7
580.8784,2476.2
580.8964,1639.9
581.0183,336.4
581.1819,163.3
581.4331,564.2
581.4555,121.7
581.5291,255.4
581.6344,107.3
581.7486,82.6
581.8483,643
582.1817,78.6
582.2317,532.5
582.2617,422
582.2648,426.1
582.2958,8123.5
582.3382,312
582.344,228.5
582.3794,211.2
582.3997,303.3
582.4228,606.5
582.4426,277.9
582.4628,470.2
582.4709,449.1
582.4838,582.6
582.4931,545.6
582.5135,159.8
582.5373,1573.1
582.5409,1582.3
582.5543,422.4
582.5603,423
582.5789,111.8
582.8818,100.1
582.8925,507.8
583.2987,1254.2
583.8495,85.1
583.8716,185.2
583.879,116.1
583.9139,416
583.9249,121.3
583.9429,98.7
584.1376,641
584.3127,1147.9
584.537,626
584.5723,166
584.6431,466.5
584.7084,115.9
585.0161,197.3
585.0571,129.4
585.1733,161
585.2035,200
585.2702,111.8
585.8814,329.6
585.905,204.2
586.3098,6861.1
586.3857,356.9
586.4288,126.4
586.8022,537.6
586.8413,2789.2
587.1219,199.6
587.3119,644.9
587.3579,21.9
587.3865,272.2
587.4081,175.8
588.1666,229.7
588.2943,646.7
588.3667,117
588.4414,566.4
588.8386,3193.7
588.9889,21.6
589.06,269.4
589.0681,299.5
589.1788,494.8
589.2117,528.8
589.4804,235
589.5656,23.3
590.0133,367.3
590.0446,474.5
590.2907,132
590.3222,9648.8
590.5208,462.9
590.5399,440.8
590.6042,483.1
590.6571,115.8
590.8298,746.2
591.0627,297.4
591.3258,1653.5
591.4651,21.1
591.6355,519.5
592.0466,19.6
592.3381,2290
592.4281,118.7
592.4549,558.2
592.711,193.5
592.7942,232.9
592.8199,276.2
592.8581,6309.2
592.9262,19.2
593.6411,320
593.7179,254
593.8001,130.5
593.8611,377.2
594.0186,125.6
594.2262,19.5
594.3273,547.2
594.855,5886.7
595.3973,339
595.4262,153.9
595.5997,182.2
595.6174,209.3
596.2414,460.9
596.8518,1088
596.87,913.2
596.8914,389.2
597.0613,484.7
597.2747,397.6
597.3122,225.7
597.4478,4884
597.486,10701
597.5793,20.6
598.1183,138.2
598.29,130.4
598.4553,181.6
598.4685,308.9
598.7363,258.6
598.7837,111.1
599.1807,73.1
599.3481,150.6
599.4495,327.3
599.4632,1199.9
599.4805,718.9
599.5034,2062.7
599.6888,761
599.7602,528.9
599.9815,135.1
600.2536,304.4
600.2812,1215.2
600.3539,248.8
600.3841,591.7
600.4504,98
600.4718,261.7
600.5079,1247.1
600.8117,114.9
601.0202,313.4
601.1733,21.8
601.2819,155.9
601.5197,1125.9
601.7001,101.6
602.0089,376.2
602.197,247.5
602.2813,1004.2
602.2964,1359.1
602.4016,86.3
602.4752,325.5
602.6888,179.9
602.7263,666.6
602.8892,403.5
603.0629,748.9
603.2678,158.2
603.3518,408.1
603.5353,675.3
603.8621,107.2
604.0696,22.6
604.0855,117
604.1165,217.1
604.1523,158.7
604.242,91.7
604.5095,97.3
604.5358,543
604.5491,89.7
604.798,24.2
604.8832,607.9
605.2488,315.5
605.2948,265.5
605.4496,198.1
605.7782,386.2
605.9814,318.9
606.1265,22.3
606.2971,809.9
606.3104,1138.8
606.6709,163.3
606.858,496.6
606.9912,437.1
607.1712,6721.8
607.9973,216.9
608.1751,735
608.393,338.2
608.6829,163.8
608.8031,442.3
609.0713,111.7
609.1093,329.5
609.5233,87.8
609.8866,654.3
610.1993,335.5
610.3089,1248.6
610.5194,186.1
610.5829,593.4
610.6046,383.8
610.6445,239.4
610.6704,23
610.8291,932.9
610.9482,708.3
611.1021,211.5
611.1516,295.9
611.3234,343.2
611.9393,167.3
612.0438,390.4
612.1165,429.7
612.2641,110.7
612.4553,335.7
612.8267,159.6
612.8591,313.7
612.919,741
613.4661,106.9
614.1182,626.2
614.2847,210.4
614.3214,84.1
614.3425,682.9
614.4391,114.3
614.5287,236
615.0498,110.1
615.1099,20.3
615.4653,641.6
615.8079,662.8
616.36,674.1
616.4882,143.3
616.5053,21.2
617.3692,527.5
617.4759,8150.5
617.7673,620
617.8355,154.7
617.8817,18
618.3718,285.4
618.4828,1893.3
618.7187,385
618.881,379.3
619.2627,218.5
619.4292,346.5
619.4384,217.7
619.4918,10851.2
619.8045,192
620.4938,1123.7
620.9167,724.4
621.2381,198.3
621.3304,207.8
621.4455,967.2
621.4611,577.9
621.4858,6566.3
621.5121,469.3
621.8079,770.5
621.9339,112.2
622.0951,440.8
622.4659,131.8
622.4903,846
622.5968,125.1
623.0685,797.9
623.1363,26426.5
623.4651,345.9
623.4747,562.6
623.5034,570.3
623.6844,413.1
623.866,502.2
624.1399,4193.4
624.2422,240.8
624.3243,104.4
624.4517,322.1
624.4629,701.4
624.6813,249.5
624.7577,186.5
624.8172,76
624.8688,136.7
625.0588,20.2
625.1407,465.3
625.2693,20.7
625.4724,762.1
625.504,333
625.5549,232
625.7723,163.7
625.9829,120.8
625.993,88.8
626.1139,109.5
626.8977,480.8
626.9871,767.8
627.1408,109.9
627.5361,519.5
627.6956,637.9
627.7495,312.9
628.5401,61.6
628.6255,588.7
628.6556,556.4
628.8302,154.5
628.933,634.6
629.1532,53830.4
629.3498,102
629.4806,147.5
629.5435,216.5
629.8758,117.7
629.9627,688.9
629.9839,635.8
630.1569,9097.2
630.6783,504.7
630.9421,125.4
631.1292,463.7
631.1589,996.7
631.3203,106.6
631.5353,94.7
632.239,148.4
632.2724,17.5
632.3805,223
632.6528,21.6
632.6753,20.4
632.8378,466.4
633.7704,103.4
633.9454,466.4
633.9815,130.9
634.265,370.1
634.3495,199.4
634.8436,3026.7
635.1921,445.9
635.2672,176.9
635.4631,871.3
635.6516,250.2
635.7331,754.4
635.7481,117.6
635.8056,539.3
635.9962,351.2
636.1994,245.9
636.4479,103.4
636.615,95
636.6969,190.6
636.727,217
636.8395,3188.8
636.8673,176.5
636.9317,196.2
637.0796,675.9
637.1217,358.7
637.3918,166
637.4377,89.8
638.1393,116.1
638.4494,1159.9
638.478,233.1
638.8374,1171.4
638.9381,790.7
639.2896,156.5
639.4666,19
639.5273,106.5
640.0715,144.1
640.1227,22.7
640.2616,426.9
640.371,103.4
640.6296,130.7
641.0478,242
641.1394,651.5
642.2197,207.1
642.2994,462.7
642.8778,22.5
643.5531,18.3
643.7925,410
644.2933,465.6
645.0597,130.4
645.1183,18856.2
645.2677,163.2
645.3849,724.7
645.4568,115.7
645.5433,20.3
645.7543,298.7
646.1221,2755.4
646.4264,786.4
646.4496,188.2
646.567,318.5
647.0192,483.1
647.0934,305.2
647.1366,380.9
647.1504,730.7
647.2741,433.6
647.2897,84
647.5142,576.4
647.6157,153.6
647.6519,19.8
647.9561,71.1
648.0469,17.7
648.2118,138.5
648.3624,150
648.3859,682.9
648.4768,184.1
648.8388,413.4
649.1559,209
649.1918,347.9
649.4921,679.8
649.5183,154.1
649.5627,156.5
649.5962,569.8
649.6923,100.9
649.7064,19.3
649.7412,144.1
649.9286,245
650.2855,91.4
650.3535,193.1
650.4413,843.6
650.5703,100.2
650.817,1393.3
650.8357,381.6
650.9393,112.7
651.1351,51429.3
651.7438,546.7
651.8473,221.3
652.1389,9584.8
652.2976,345.8
652.3839,24.5
652.4392,81
652.4932,265.1
652.6056,23.2
652.8143,2779
652.9976,372.5
653.1119,436.5
653.1412,1329
653.178,565
653.2327,106
653.5934,162.7
653.6408,90.4
653.9117,188.8
654.0176,24
654.5451,165.7
654.5928,99.3
654.6118,695.3
654.639,365.6
654.8107,475
655.3085,20
655.8821,341
656.0532,376.7
656.2473,189.6
656.5229,225.7
656.5999,437.9
656.7774,378
656.8336,396.2
656.8498,171.2
656.9808,481.4
657.0197,307.2
657.0519,145.9
657.0893,117.9
657.171,403
657.2709,452.4
657.4672,176.4
657.6586,107
657.9251,201.3
657.9664,18.9
658.4359,137.2
658.6782,500.1
658.7747,340.9
658.8523,330.6
658.9759,283.2
658.998,127.7
659.2122,99.2
659.4393,672.7
659.6416,492.5
659.693,21.2
659.718,363.5
659.7932,24.3
659.9535,17.5
660.0827,98.4
660.2107,469.5
660.4229,121.5
660.57,422.3
660.7144,23.7
660.904,104.3
661.0833,8044.2
661.3236,101.6
661.3885,723.3
661.5454,164.9
661.7545,64.6
662.0864,452.9
662.1329,253.3
662.3109,273.8
662.3297,111.2
662.6392,101
662.7667,21.9
662.8429,414.6
663.052,276.2
663.0882,323.1
663.1555,679.7
663.4403,830.9
663.453,588.2
664.008,154
664.1753,767.6
664.217,188.1
664.4664,1155.1
664.6092,182.3
665.0346,88.4
665.0687,174.5
665.3307,524.4
665.6315,96.4
665.9826,24.9
666.1082,17.7
666.4701,712.2
666.4841,4292.2
666.7132,322.2
667.0998,23242.8
667.4885,1330.2
667.6317,199.6
667.6658,293.6
667.77,549.1
667.9467,167.5
668.1029,3292.9
668.2067,21.3
668.3966,294.3
668.4757,482
668.5862,367.9
668.7886,351.9
668.8458,357.8
669.0755,248.3
669.1454,701.3
669.8446,734.8
669.9211,317.6
670.0247,702.8
670.3145,402.3
670.4793,364.8
670.5936,349.8
671.4737,261.2
671.5702,101.6
671.9488,91.9
672.1421,104.5
672.2804,370.1
672.295,316.5
672.3874,440.8
672.4231,1591.4
672.8343,24.3
673.1171,52841
673.1728,79.2
673.25,561.3
673.4199,268.1
673.4656,323.4
673.53,874.5
673.6844,125.6
673.8302,17.9
673.8991,298.2
674.1209,9468.4
674.3638,421.7
674.4597,165.8
675.1213,908.2
675.1665,131.2
675.5219,689.4
675.5445,18639.5
675.6132,154.9
675.7833,20.5
676.0051,253.2
676.0475,227.8
676.4797,329.1
676.5478,5036.4
676.6664,264.9
676.6837,342.5
676.7297,20.9
677.0133,96.7
677.0435,20.4
677.1313,101.4
677.2461,284.2
677.3608,358.3
677.4885,289.3
677.5261,422.4
677.7133,19.8
677.7935,112.5
678.0647,118.8
678.1251,797.5
678.3947,662.2
678.4417,106.2
678.5649,91.9
679.0215,18.8
679.2605,148.3
679.5103,22.6
679.9028,99.2
680.309,361.4
680.6398,339.2
680.677,166.4
680.7193,74.7
680.7289,73.5
680.8663,561.4
680.9653,380.6
681.102,100.3
681.2287,454.6
681.5605,587.5
681.7635,173
681.9077,309.3
682.0649,743.9
682.1561,355.1
682.4689,82.7
682.5667,20.3
683.0179,241.7
683.045,103.5
683.0649,3500.4
683.2991,120.7
683.4498,1423.7
683.575,467.9
683.6905,631.2
685.1241,469.9
685.4367,1516.2
685.4756,236.4
685.4944,346.2
685.7854,135.6
686.2297,116.7
686.3773,19.7
686.4381,389.2
686.46,279.8
686.6527,733.4
686.7887,139.9
686.9461,457.7
687.111,341.3
687.1496,468
687.34,448.9
687.3697,505.4
687.7928,19.5
687.8342,120.9
688.1171,555.4
688.4093,220.2
688.4243,450.2
688.5576,393.4
688.5816,201.8
688.7784,146
689.0812,17772.9
689.4196,603
689.5596,5226
689.5925,412.6
690.0855,1971.9
690.1689,21.6
690.5637,1365.5
690.6209,139.7
690.8207,65.8
691.0599,220.9
691.0864,313
691.4105,154.3
692.0428,328.2
692.2126,231.8
692.2688,245.2
692.7395,794.8
693.1856,123.9
693.2775,229.1
693.5263,301.3
693.5716,344.1
693.6188,672.7
694.6186,518.5
694.6803,158.4
694.7991,1113.2
695.0991,36111.2
695.267,149.9
695.417,104.4
695.469,434.2
695.5099,555.2
696.037,97.4
696.1027,6635.5
696.1473,256.4
696.4981,100.4
696.6622,163.8
696.7044,178.4
696.8211,364.8
697.0222,107.3
697.0987,189.8
697.5264,18233.5
697.7382,334.5
698.058,381.6
698.1601,245.5
698.3466,536.7
698.5295,6229.3
698.6891,404.5
699.0419,131.4
699.1538,192
699.3775,22.4
699.4537,378
699.4901,66.2
700.0212,423.7
700.3197,197.1
700.4677,152.2
701.1148,407.4
701.2713,99.8
701.3162,123.5
701.41,177.8
701.5014,250.5
701.5601,34789.4
701.603,614.5
701.9129,116.2
702.2425,507.8
702.3433,1882.2
702.5637,14557.9
702.7037,188.2
703.2065,100.3
703.2335,73.6
703.3586,846.6
703.3919,466.6
703.5758,95949.8
703.779,683.1
703.9185,183.3
704.0461,432.3
704.0638,545.5
704.2267,481.6
704.3983,20.9
704.4478,3039.4
704.5793,37879.6
704.8966,242.2
705.0563,2918.9
705.0803,102.4
705.1267,455.5
705.2277,88
705.4786,138.2
705.5821,3444.5
705.7826,683.8
705.8067,19.3
706.1672,186.6
706.5399,4428.9
706.642,229.5
707.0698,784.9
707.542,1256.6
707.7146,330.3
707.7843,217.5
707.8099,356.6
708.2143,18.4
708.3981,411.6
708.5753,97.2
708.6047,667
708.6787,168.2
709.4108,211.3
709.4399,795.6
709.862,317.6
709.9515,254.1
710.1024,123.9
710.5602,194.5
710.6559,759.2
710.7179,694.7
711.0075,109.5
711.0634,9746.1
711.074,11221.8
711.2696,244.7
711.5425,4683.3
712.0653,402.1
712.0928,129
712.441,326.8
712.5472,892.3
712.7483,537.5
712.7743,1298.5
712.9375,461.6
712.9439,670.1
713.2562,560.6
713.3638,155.6
713.5003,1349.7
714.3471,90.9
714.5066,698.7
714.5256,950.9
714.5553,85.6
715.1846,533.3
715.4257,165.2
715.6086,909.7
715.6942,96.3
715.9025,97
715.9728,392.5
716.1281,488
716.4664,21.9
716.5287,336.4
716.5595,143.2
716.7958,614.2
717.0812,16937.7
717.5563,198
717.8348,714.3
717.9764,446
718.0846,2739.4
718.1889,613.9
718.4355,18.9
718.5727,306.2
718.8539,143.3
718.8894,545.5
719.19,21.3
719.4926,119.2
719.6551,399.2
719.8973,98.8
720.0267,432
720.1913,96.9
720.3606,127.8
720.4322,18.8
720.5779,540.1
721.0325,168.6
721.3732,136.9
721.3972,453.2
721.4488,155
721.4788,51745.6
721.5101,603.1
721.9029,468.6
721.9829,251.5
722.159,477.1
722.2716,535.1
722.4239,125.1
722.4568,103
722.4822,19811.6
723.3375,86.4
723.4258,147.8
723.4949,9878.2
723.542,28738.4
723.9944,18.8
724.009,77.7
724.1779,348.7
724.496,433.8
724.5456,9132
724.8173,132.5
724.9922,455.7
725.1808,1027
725.2733,20.9
725.3611,19.4
725.5309,102.3
725.5579,77093.5
725.8848,100.2
725.9819,77.5
726.0313,766
726.3322,312.5
726.35,164.5
726.39,18.8
726.5612,29993.6
726.6012,496.8
727.038,1071
727.517,191.9
727.5645,3835.6
727.7192,113.7
728.1544,296.7
728.2753,428.6
728.522,2519.4
728.6186,706.2
728.722,63.1
729.0462,526.6
729.2299,299.4
729.3864,508
729.5257,1039.8
729.5913,8867
729.6242,187.1
729.8178,68.5
729.9296,288.8
729.9933,152.1
730.0351,19.6
730.1694,109.9
730.2259,289
730.539,10392
730.5953,2061.3
730.8528,182.5
730.9472,74.6
731.3707,143.9
731.5427,1732.8
731.6073,5323.8
731.8909,141
732.291,677
732.5065,299.8
732.5548,50330.9
732.6108,861.9
732.672,633.8
732.7051,128.7
733.0438,5976.6
733.0575,5807.8
733.3241,302.1
733.5115,166.2
733.5585,19782.8
733.979,611.1
734.0463,647.6
734.0963,280.7
734.1427,84.7
734.1667,734.5
734.201,617
734.4995,68.2
734.5711,10588.5
735.0465,113.9
735.2807,65.1
735.383,166.8
735.4245,171.3
735.4592,152.9
735.5745,610.3
736.0012,142.9
736.7629,276.6
737.0696,94.7
737.1131,261.5
737.2916,65.1
737.4528,7965.8
737.4816,18.8
737.5067,837.2
737.5826,99.3
738.0501,107
738.6855,118.3
738.8966,338.4
738.9803,1642.2
739.0084,270.4
739.0629,10639.1
739.1447,117.2
739.1649,813.4
739.3272,536.7
739.4639,502.9
739.5159,2760.4
739.5349,142.6
739.9698,21.7
740.0654,420.8
740.2336,311
740.2816,498.5
740.5613,22.4
741.0067,318.8
741.1741,429.2
741.3532,197.6
741.5311,5093.6
741.7986,117.6
741.9189,113.4
742.4024,407.6
742.4825,21.8
742.5366,1258.3
742.5755,17237.6
742.6462,505.7
743.0595,625.2
743.1099,351.5
743.1636,77.1
743.1816,755.3
743.2439,202.9
743.2862,194.3
743.4196,289
743.4637,844.8
743.5006,97
743.5789,5428.6
743.7195,423.5
743.771,942.5
744.5549,2355.8
744.5917,22201.4
744.9819,282.3
745.2175,17.7
745.479,25880.9
745.5587,1286.3
745.5947,6987.6
745.6213,19
745.9031,20
746.4823,7353.8
746.525,500.6
746.5708,5121.9
746.6069,1352.2
746.7986,672.2
747.2851,447.6
747.311,371.6
747.4955,9478.6
747.575,621.3
748.0081,197.7
748.4207,488.7
748.4982,2116.3
748.6684,201.4
748.7086,112.8
748.7284,20.6
748.8989,134.2
749.0089,1175.1
749.4022,98.9
749.511,4640.7
749.67,563.7
750.4901,22.1
750.5151,1336.2
750.8954,893.3
751.1334,363.2
751.1418,394.2
751.5741,4490.1
752.1824,123.8
752.5209,6381.3
752.571,195.5
752.6574,96.8
752.9524,276.8
752.9873,125.8
753.0374,114.3
753.5237,1338.3
753.5927,708.9
753.8143,233.3
753.9172,27.4
754.1248,329.8
754.1524,113.5
754.1991,636.6
754.5369,34253.4
754.7532,373.9
754.993,328.7
755.0256,3180.7
755.0383,2773.1
755.368,588.6
755.5405,13351.4
755.7177,584.8
755.818,331.4
755.843,701.3
755.9583,199.4
755.9894,122.8
756.5548,45072.4
756.7328,108.4
756.939,178.3
757.0079,145.3
757.0539,66.1
757.3257,110.5
757.5582,20423.9
757.6227,1902.6
757.6429,442
757.8233,212.2
758.0857,114.1
758.39,407.1
758.5205,116.6
758.5705,1169360.3
758.6271,1281.1
759.057,765.7
759.084,194.1
759.415,435.8
759.4461,20.7
759.4671,164
759.5739,516810.9
759.6389,2048.6
759.8576,494.4
760.0357,250.6
760.3984,473.6
760.5873,371898.4
760.6333,357.1
760.8925,317.5
761.0441,3812.1
761.1151,387
761.2159,598.4
761.59,180678
761.639,478.3
761.6662,339.1
762.1766,596.3
762.4797,122.5
762.5928,42450.2
763.2356,175.6
763.4958,101.8
763.5951,5377.2
764.1278,217
764.3443,277.1
764.5322,309.7
764.5581,6398.6
764.7247,318.5
765.2045,21.4
765.3324,17.8
765.45,151.4
765.5591,980.6
766.0305,158
766.5752,45668.4
766.7259,124.9
766.8325,687.2
766.8705,85.3
766.9865,510.3
767.104,503.8
767.5787,19523.3
768.0558,116.6
768.0841,520.3
768.1745,995
768.2772,98.9
768.554,4121.6
768.5918,48594.3
768.6752,19.5
768.7024,803.4
768.8071,419.1
769.1247,185.5
769.479,4934.1
769.5521,407.2
769.5947,21708
769.7371,93.9
769.8678,644.4
770.0975,70.1
770.1785,493.2
770.2772,19.3
770.4777,867.5
770.5115,238.2
770.5707,2494.8
770.6082,9606.6
770.9912,3505.7
771.0156,341.8
771.124,306.9
771.3615,69.6
771.532,136.3
771.6109,2798.6
771.7838,497.9
772.0057,149.6
772.348,330.8
772.4704,127.8
772.5437,20.3
772.5867,17949.9
772.7639,477
773.0479,341.4
773.2304,94
773.5142,864.6
773.5899,4203.9
773.6238,342.6
774.6024,1197.8
774.6348,613.2
774.6576,397
774.7009,668.7
774.9018,581.1
775.3403,666.4
775.6055,479.4
776.4344,92.2
776.5217,1774.4
776.9582,532.1
777.0092,6703.9
777.2984,21.3
777.5382,684.9
777.5719,158.4
777.9163,750.6
778.0135,1309.6
778.5369,24962.7
778.5737,72.4
778.6381,272.3
778.7581,92.7
778.8223,653.7
778.9645,207.9
779.055,771
779.2757,19.1
779.5401,7115.8
780.0239,21.1
780.0761,219.9
780.2323,17.1
780.2999,136.6
780.5526,634322.1
781.0038,20
781.1647,344
781.5561,285058.2
781.5919,332
782.1303,19.5
782.5703,710840.9
782.9907,469.4
783.0274,4902.3
783.4985,561.1
783.5442,503.9
783.5736,330426.2
783.7002,116.6
783.815,751.6
783.8618,123
784.5871,319350.2
784.6242,501.4
784.7798,97.6
784.9968,443.7
785.1736,358.8
785.3251,680.5
785.4098,311.1
785.59,160617.7
785.6541,7418.8
785.9153,106.5
786.256,302.6
786.4342,354.6
786.55,1009.3
786.6025,322821.1
786.6553,1638.4
786.7116,119.8
786.7396,87
787.0957,221.7
787.1712,604.6
787.5559,305.9
787.6055,155703.6
787.6706,1802.1
788.0925,343.3
788.5577,11704.3
788.6054,25435.4
788.6215,16328.8
788.6725,853
788.8385,95.1
788.9965,109.2
789.0377,365.9
789.0806,80.5
789.2459,1565.8
789.3307,268.4
789.5593,3103.2
789.6224,8538.3
789.7542,405
790.2127,528.1
790.4922,353.5
790.5506,818.7
790.5742,21951.7
790.6237,1081.4
790.6673,984.6
790.8882,36.6
790.9552,631.6
791.2113,23.7
791.2799,164.1
791.4539,1348.1
791.5767,6917.8
791.9958,388.6
792.187,138.8
792.3575,129.9
792.4008,86.5
792.5543,269.7
792.591,19217.8
792.6773,107.8
792.7918,18.3
792.9282,290.7
793.4214,109
793.5942,8396
793.844,120
793.8666,746
793.9523,131.3
794.0549,170.5
794.5102,728.9
794.57,5011
794.6072,39991
794.6867,20.2
795.1435,17.6
795.4607,269.2
795.5746,295.4
795.6104,17280.2
795.6544,447.2
795.8746,23.6
795.9167,114.3
795.9374,141
796.3327,318.1
796.5265,95083.8
796.5855,10411.2
796.624,7369
796.9454,545.9
797.05,287.4
797.5298,36846.9
797.5888,763.7
797.6276,1789.6
797.835,166
797.981,473.2
798.2958,783.7
798.543,23524.7
798.6048,1218.2
798.8096,323.9
798.9567,113.1
799.003,646.1
799.0691,24.3
799.5457,9690.9
799.6676,1046.8
800.3107,81.3
800.6094,145.2
800.9172,176
801.092,209.3
801.2016,524.1
801.3998,558.8
801.5213,648
801.545,721
801.5956,509.4
801.8444,396.4
802.5368,38050.4
802.7584,367.9
802.9315,486.4
803.067,152.1
803.3087,566
803.5403,15840.1
803.8657,193.2
803.9596,721.6
804.0612,185.4
804.1948,23.8
804.5527,283368.9
804.9144,648.7
805.225,337.9
805.4136,132.2
805.4949,138.8
805.5192,234.2
805.5558,135454.4
805.8765,608.7
805.9015,158
806.1758,257.1
806.2215,722.7
806.4559,580
806.57,327951.1
806.7743,238.5
806.8442,471.1
806.9538,139.4
807.3171,81.7
807.5732,159125.1
807.8409,351.3
808.5435,341.8
808.5858,217451
808.6386,115.9
808.6944,342.4
808.9842,1170.7
809.3962,430.6
809.5888,109188.5
809.654,767.6
809.7148,633.1
810.064,208.4
810.2537,166.1
810.4091,87.6
810.5232,18.9
810.6027,156914.8
810.6382,574.8
810.6553,120.4
810.9137,720.7
811.0726,20.1
811.1047,660.7
811.2049,563.4
811.2297,156.9
811.6055,80148.4
811.6694,9307
812.235,23.2
812.2934,1270.7
812.5388,567.7
812.5624,156.2
812.6043,5805.1
812.6198,31678
812.6732,4358.1
813.1687,20.7
813.2277,170.9
813.3122,367.2
813.6221,16224.7
813.6862,6626.5
813.852,529.4
813.8966,182.2
814.1556,820.2
814.2032,315
814.5334,774.8
814.5747,1691.2
814.6223,1903.8
814.6439,122.5
814.6893,2741.7
815.1007,184.3
815.5752,867.8
816.0593,121.5
816.4457,20
816.5542,706.3
816.5892,14953.5
817.039,684
817.4161,18.8
817.4857,648
817.5922,2051.3
818.333,141.4
818.5111,1723.2
818.5657,1335
818.6083,2213.5
818.7165,132.2
818.784,198.1
819.223,149
819.4642,774
819.6069,868.4
819.883,468.4
820.0551,80.8
820.5266,46018.7
820.5853,1144.2
820.6249,122.5
820.9454,667.2
821.2284,679.8
821.5299,19060.6
821.6265,679.9
821.7794,87
822.5427,17403.4
822.6032,879.1
822.6386,861.2
822.9892,18.9
823.2519,294.6
823.5463,4160.9
824.0986,106.3
824.5585,15060.2
825.0381,312
825.0641,177.5
825.4845,115.2
825.561,4309.7
826.1817,949.6
826.2056,292
826.5408,106.8
826.7009,100.8
827.0223,1121.9
827.0567,388
827.3859,522.8
827.4237,478.5
827.6613,18.6
827.7595,370.6
827.9094,333.7
828.482,312.5
828.5525,95593.9
828.9736,101.6
829.0501,189.1
829.2246,200.3
829.2726,17.4
829.4459,755
829.4726,506.8
829.5558,47185.7
829.6209,229.9
829.6971,967.7
829.9898,735.6
830.141,643
830.5695,51797
830.809,1100.8
830.9433,138.5
831.1156,97.7
831.15,723.8
831.233,158.3
831.3214,117.3
831.4624,179.5
831.572,24209.9
831.809,144.7
832.5847,64457.9
832.7736,20.5
832.8327,94
833.0406,883.3
833.088,307.5
833.588,30667.5
833.6547,240.5
833.7898,166.1
834.6023,38511.8
834.6922,494.5
834.9916,63.1
835.3331,640.1
835.5131,463.8
835.605,19152.8
835.6677,626
835.7113,808.3
835.732,903.9
835.8505,120.4
835.9456,444.1
836.3488,94.7
836.6196,4164.2
837.0406,2142.9
837.3861,275.8
837.6223,1956.3
837.878,93.4
838.5114,151.7
838.6051,1826
838.9173,458.2
838.9574,144.1
839.6289,77.9
839.8549,94.1
839.917,77.1
840.6335,711.6
840.6906,22.6
840.7436,178.2
840.7895,417.4
840.8414,426.4
840.8659,184.3
841.1806,23.4
841.292,297.5
841.6661,375.5
841.8557,195.9
841.9436,313
842.5237,807.7
842.6168,208.5
843.1382,536.8
843.2132,335.8
843.3251,22.7
843.3494,244.6
843.5373,206.5
843.7719,564.4
844.3925,20.5
844.5269,9680.1
844.7028,811
844.7662,631.1
844.8537,277.1
845.1061,385.4
845.3196,19.8
845.3735,114.6
845.5297,2064.2
845.6329,712.6
845.6621,375.6
846.0107,881.6
846.3752,479.4
846.5151,118.8
846.5429,3934.1
846.706,427.2
846.8801,751
847.2694,453.6
847.398,550.6
847.6489,396.4
848.1988,528.1
848.3468,417.4
848.5572,5102.2
849.1762,134.9
849.5204,230.9
849.545,949.7
850.6292,367.5
851.0423,596
851.2931,252.5
851.627,366
851.9222,130.4
852.04,804.7
852.269,184.1
852.4541,236.6
852.6983,1034
852.8113,642.5
853.129,187.8
853.1636,429.5
853.6499,108
853.888,156.7
854.5711,1203.5
854.9605,346.2
855.0088,273.5
855.0794,229.8
855.1735,25.4
855.2514,605.5
855.3671,561.8
855.4373,106.6
856.3922,366.6
856.5846,7541
856.9476,1140
857.5868,1006.3
857.6832,351.2
858.3651,105.8
858.5083,455.4
859.0035,392.9
859.0508,108.5
859.5673,19.8
860.4939,240.2
860.6679,519.7
860.798,162.4
861.435,474
861.5508,463.5
862.3014,19.6
863.2566,162.6
863.439,902
863.8682,387.1
864.2678,244.7
864.3184,400
864.3566,974.3
864.4364,299
864.548,160.3
864.6933,360.2
864.7688,104.9
864.807,635.1
865.0338,675.1
865.0898,795.6
865.2982,21.7
865.5619,105
865.8759,142.6
866.3036,305.5
866.367,101.3
866.4311,230.9
866.5685,305.5
866.8877,89.5
867.1727,325.2
867.2631,211.4
867.3632,462.5
868.0266,406
868.0612,95.8
868.3734,192.5
868.4237,161
868.8531,209.5
869.0294,308.8
869.6711,137.5
869.7319,701.4
869.78,633.5
869.8187,589.5
869.8544,1107
869.9526,1855.3
869.9786,921.4
870.0175,3097.6
870.0709,1769.4
870.1159,5170.7
870.1537,2836.7
870.2014,2846.2
870.2357,1466.1
870.2686,1117.4
870.294,554.1
870.324,702.3
870.3493,349.7
870.364,339.5
870.3743,352.5
870.4213,552.3
870.7009,241.1
870.8205,645.4
871.4048,181.4
871.4248,26.2
871.4716,97.7
872.578,91.3
873.2218,368.7
873.3778,255.3
873.5075,99.4
873.5471,1194
873.81,619.7
874.4938,186.6
874.7219,546.2
874.8274,586.5
875.0514,305.9
875.0951,237.3
875.2935,863
876.0027,643
876.0289,205.2
876.102,1344.7
876.2542,282.8
876.6309,625.8
876.9752,203.2
877.5634,1525.9
877.8419,929.7
877.9176,365.6
878.0392,305.7
878.3663,887.7
878.6889,188.5
878.9866,564.9
879.0662,669.1
879.7506,450
879.9836,131.8
880.0124,624.9
880.2036,309.6
880.4249,133.6
880.9171,1113.9
880.9816,194.8
881.0292,92
881.1175,275.6
881.2111,218.3
881.2859,299.4
882.7871,565.6
883.067,531.5
883.2736,589.1
883.3752,179.2
884.3197,18.4
884.8707,1065.8
884.8923,483.7
884.9691,127.6
885.3163,20.3
885.7411,297.7
886.0821,82.3
886.1769,767.7
886.5196,106.2
886.6219,1559.5
887.1964,793.6
887.8162,123.7
887.9679,122.4
888.0284,74.2
888.0665,243.8
888.4911,483
888.508,527.4
888.6376,284.7
888.6524,163.6
889.2412,845.8
889.6895,295
889.8146,309.7
889.985,586.4
890.1232,143.2
890.5953,222.1
890.7752,217.3
890.9147,106.9
891.0862,287.5
891.6476,130.3
891.7886,558.8
892.0319,335.4
892.7424,20.1
893.0954,199.2
893.4383,70.7
893.5922,711.4
893.6779,21.2
893.7158,73.6
893.9052,197.3
894.0418,875.2
894.1055,101
894.5189,19.3
894.9525,521.8
895.4864,22.3
895.9285,597.8
895.9582,792.6
895.9962,614.1
896.5015,107.9
896.8168,80.7
897.0298,118.4
897.2328,173.3
897.6409,690.4
898.2504,782.2
898.3316,524.9
898.3545,459.1
898.5188,633.3
898.5989,786.2
899.3175,154.9
899.5882,736.7
899.6515,128.3
899.7713,470.1
900.1731,685.9
900.5437,2235.6
900.7591,384.9
901.014,947.1
901.1567,196.4
901.3126,804.7
901.3882,1092.5
901.7727,245.5
901.9732,454.4
902.0171,179.7
902.1804,69.7
902.3917,839.1
902.8094,96.3
902.8967,684.9
903.1061,19.7
903.1944,466.7
903.5527,560
904.5423,869.5
904.837,937.2
905.2904,464.3
905.5563,563.2
905.719,2155.5
906.0068,570.5
906.4394,437.1
907.1199,168.8
907.7991,819.1
908.0635,171.1
908.389,313.2
908.6557,265.7
908.6826,163
908.9173,385.5
909.2983,20.7
909.5006,583.9
909.6511,814.3
909.8188,21
909.9205,157.5
910.4645,141.5
910.8436,17.1
910.859,17.8
910.9562,164.8
911.0488,568.4
911.1274,390.3
911.9686,544.1
912.086,347.3
912.1822,470.9
912.4646,146.7
912.6066,1878.9
912.9641,384.4
913.0661,645.4
913.4493,659.3
913.6229,370.3
914.8542,254.7
915.4846,611.3
915.5698,149.4
915.7358,970.8
916.7429,147.1
916.7987,132
916.9707,1953.5
918.1997,250.9
918.2474,138.1
918.2749,67.7
918.6079,1139.1
918.8477,534.7
919.0331,453.4
919.1295,244.3
919.1611,210.4
919.5424,201.1
919.5997,292.5
919.6595,320.2
919.8181,286.7
919.9713,112
920.0894,904.6
920.1144,1134.2
920.2763,140.2
921.2478,370.6
921.3627,1934.4
921.4409,22.7
921.8113,398
921.9331,201.2
922.054,162.1
922.7103,96.2
923.2129,683.1
923.3281,88.8
924.1824,958.7
924.282,1024.2
924.348,892.1
924.7508,614.7
925.0065,485.3
925.2122,204.1
926.177,705
926.3155,380.7
926.4957,690.7
926.6901,796.1
926.9514,709.1
928.718,843.2
929.0679,1376.1
929.2595,251.3
929.3878,20.3
929.5112,76.5
929.5907,21.8
929.6675,124
929.7077,636.2
929.9814,80.5
930.1156,358.5
930.8137,355.6
931.3057,1193.9
931.6803,302.4
931.8223,260.6
932.0265,78.6
932.0682,20.6
932.1689,69.7
932.2863,899.1
932.3542,472.6
932.3689,439.8
932.4148,118.3
932.8208,111.1
933.0407,420.9
933.4439,393.7
933.8264,292.3
933.9354,242.5
934.1936,317.4
934.542,167.9
934.6921,499.3
935.0476,833.3
935.1753,227.8
935.2374,141.5
935.8238,334.7
936.1052,676.2
936.1336,179.3
936.1877,202.6
936.3549,1725.3
936.7166,204.5
937.5751,17.8
937.8833,189.2
938.1062,445.9
938.2292,630
938.2984,845.8
938.4417,129
939.3636,814.8
939.6518,1434.6
939.778,428.1
939.9484,107.3
940.3201,200.2
940.5074,267.1
940.5924,672.7
940.6563,112.7
942.5221,122.1
943.2266,601
943.6486,25.4
944.0356,706.1
944.2447,98.7
944.3408,138.6
944.412,148.3
944.4929,2693.8
944.5795,1277.2
944.8192,94.8
944.9471,1547.5
945.1895,192.3
945.768,18.6
945.9739,347.8
946.2244,479.8
946.8625,72.3
947.1003,351.8
947.4484,150.7
948.0855,81.4
948.2259,539.8
948.3691,1848.7
948.4897,21.9
948.5165,236.4
948.5488,579.6
948.7862,78.6
949.0908,19.1
949.2836,148.8
949.3154,1639.1
949.449,187.6
949.5031,21.3
950.1658,366.6
950.6524,359.4
950.7804,203.6
951.2461,25.1
951.4551,536
951.6831,1383.8
952.2624,824.9
952.4429,204.9
952.7238,794.7
952.7634,425
952.9232,510.4
953.0272,120.9
953.1997,296.7
953.3592,1238.4
953.4964,706.8
954.3893,144.5
955.1524,86.4
955.3172,438
955.4878,361.9
955.8439,109
956.3949,267.2
956.7489,124.6
956.8631,195.7
957.0519,83.2
957.2149,776.8
957.363,590
957.3949,1457.4
957.5051,891.3
957.798,21.9
958.5005,94.3
959.128,356.6
959.1891,351.2
959.3827,779.1
959.4307,498
959.4599,82.3
960.0814,762.6
960.196,83.8
960.3421,542.6
960.6893,596.9
960.8229,176.9
961.0004,884
961.2623,670.7
961.3477,171.1
961.4256,84.5
961.5413,2103
961.6183,337
962.2977,573.8
962.6568,115.9
962.7458,151.6
963.1485,355
963.5222,20.6
963.6095,530.9
963.9245,225.8
964.0191,470.6
964.1088,361.6
964.1868,146.6
965.0334,1060.5
965.1862,672.5
965.2086,224.9
965.2669,301.9
965.3278,308.6
965.5063,164.9
965.832,82.6
965.9254,685.7
965.9657,582.8
966.2035,25.1
966.302,222.5
967.1811,141.8
967.3119,971.6
967.3571,159.2
967.5168,129.6
967.8408,96.8
967.9315,467.4
968.2563,447.6
968.5021,558.4
968.5418,1792.6
968.7495,894.9
969.0603,440
969.4975,464.1
969.5306,487
969.6128,706.3
969.9285,136
970.0789,441.3
970.3041,127.6
970.3327,139.5
970.5024,107.5
970.6259,1215.7
971.8474,605.1
971.8774,936.8
971.9936,145.4
972.0416,854.4
972.1614,425.6
972.197,546.5
972.3117,801.9
972.8295,759.9
972.8756,21.6
973.237,101.3
973.4322,638
973.4869,133.1
973.7472,814.6
973.8147,21.5
974.1424,125.4
974.2162,83.1
974.5325,521
974.628,105.9
974.7002,123.8
974.829,762.9
975.5592,1053.1
975.6241,689.9
976.0594,2019.9
976.1632,512.1
976.4221,464.7
976.5291,949.5
976.7598,90.9
976.825,91.5
977.0664,602.9
977.2565,76.2
977.3255,92.3
977.3729,854.2
977.4527,730.3
977.5356,861.4
977.967,755.6
978.8218,340
978.8765,22.2
978.9675,452.9
979.4177,567.5
979.9436,570.8
980.0679,623.4
980.101,605.1
980.1579,806.9
980.2573,593.5
980.3704,722.2
980.5774,683.5
980.6094,294.5
981.1686,118.2
981.4867,110.9
981.6985,682.9
981.7198,369.1
981.7852,386.5
981.912,479.2
982.368,912.8
982.4995,484.8
982.5912,336.1
982.7489,141.9
982.8012,109.2
983.0986,20.2
983.1826,116.3
983.2886,303.7
983.3364,843.7
983.3675,670.9
983.3783,705.5
983.6504,19.8
983.7029,285.3
984.2491,681.9
984.5508,658.6
984.7785,810.7
985.0107,533.4
985.0534,436
985.213,541.8
985.9474,699.8
986.8471,473.8
986.9785,1159
987.0874,1150.6
987.1913,167.8
987.6709,677.4
988.2345,23.2
988.2625,229
988.9029,463.1
989.0938,522.9
989.9482,618.2
989.9969,91.1
990.6008,267.6
990.8596,101.9
991.1732,175.2
991.4733,357.8
991.9585,447.9
992.2563,530.3
993.0267,754.1
993.504,394.1
993.5462,22.2
993.5853,364.7
993.6948,75.7
994.0855,630.1
994.4473,852.8
994.6114,170.3
994.6718,191.6
994.7162,112.8
994.85,135.7
995.2221,691.3
995.2466,90
995.4248,18.6
995.4526,336
995.7022,21.8
996.3034,241.2
996.4269,819.1
996.4486,812.3
997.3464,485
997.7477,126.9
997.8889,152.9
998.2643,218.8
998.4203,20.6
998.4978,21.4
998.6089,728.9
998.6378,104.9
999.074,236.2
999.2612,854.3
999.6122,147.8
999.88,473.1
