SPECTRUM - MS,
991.RAW,
FTMS + p ESI Full ms [50.00-1000.00],
Scan #: 1-40,
RT: 0.01-1.98,
AV: 40,
m/z,Intensity

50.0071,17.3
50.0101,93.2
50.0167,64.2
50.0248,94.2
50.0471,371.6
50.056,282.5
50.0584,305.1
50.061,661.2
50.1041,62
50.1083,373.6
50.1145,15.5
50.1265,406.7
50.1373,147.1
50.1448,451.5
50.1572,134.6
50.1606,511.2
50.1742,101.4
50.1841,74.4
50.209,217.2
50.2262,322.6
50.2334,489.8
50.2511,280.8
50.2572,248.3
50.2614,91.7
50.263,41
50.2686,174.9
50.282,191.5
50.2828,116.6
50.2949,287.3
50.3012,67.6
50.3068,90.5
50.3191,169.9
50.3278,123.3
50.3288,146.1
50.3301,17.4
50.3351,86.1
50.3514,135.1
50.3643,293.7
50.3732,17.2
50.3777,16.1
50.3884,82.6
50.3961,582.6
50.401,57.7
50.421,65.4
50.432,16.7
50.4333,261.5
50.463,256.2
50.4804,416.6
50.4919,77.7
50.4944,280.4
50.5043,68.5
50.5091,65.7
50.531,64.5
50.5368,67.4
50.563,63.1
50.5724,247.5
50.5789,360.9
50.58,85.7
50.5862,87.4
50.6153,67.5
50.6227,95.8
50.6356,14.8
50.641,146.3
50.6538,108.3
50.6561,103.3
50.6604,75.9
50.67,304
50.7234,79.2
50.7246,15.1
50.7477,690.7
50.7563,428.2
50.7622,488.3
50.7641,81.7
50.7783,62.3
50.7803,529.4
50.7972,93.2
50.8136,533.3
50.8608,193.7
50.8728,186.5
50.8843,93.2
50.8923,424.9
50.8999,17.7
50.9084,177.7
50.9113,18.7
50.9163,65.5
50.9188,516.6
50.9476,91.2
50.9645,302.9
50.9673,129.5
50.9704,76.1
50.971,85.1
50.9774,57.1
51.0017,18.6
51.0357,237.8
51.0369,66.2
51.0544,391.6
51.056,460.3
51.0661,68.6
51.0727,17.3
51.1093,105.7
51.1157,56.4
51.1523,216.8
51.1541,193
51.1687,370.1
51.195,102.2
51.2093,78.1
51.2175,137.7
51.225,270
51.2309,102.4
51.2516,513.4
51.268,115.6
51.2698,58.1
51.2757,15.9
51.2771,71.7
51.2897,17.4
51.2918,188.4
51.3234,299.4
51.3267,95.9
51.3299,445.1
51.3432,80.9
51.3435,478.8
51.3548,796.7
51.3574,78.5
51.3954,510.9
51.4163,400.9
51.4224,15.7
51.4244,208.5
51.4294,508.7
51.4337,186.7
51.4397,18
51.4509,74.6
51.4518,445.9
51.4525,221.9
51.4588,538.6
51.464,275.2
51.4669,286.7
51.5215,16
51.5232,78.5
51.5329,440.5
51.5376,87.8
51.5558,80.7
51.5636,63
51.5731,271.1
51.5829,243.5
51.5982,61.1
51.6155,403.7
51.6225,402.7
51.6368,94.4
51.6499,17.1
51.6502,126.2
51.6762,623.3
51.6836,92.6
51.6848,17.8
51.694,166.5
51.6943,387.7
51.6952,70.6
51.7351,78.1
51.7358,17.3
51.7435,186.5
51.7497,16.2
51.7612,97.5
51.7845,95.7
51.8288,501.3
51.8298,121.3
51.83,479.8
51.8451,119.2
51.8457,295
51.847,300.2
51.8522,420.8
51.8613,98.1
51.8622,88.7
51.8676,17.4
51.879,82.3
51.8927,76.4
51.897,274.3
51.9543,546.2
51.9722,60.1
51.9791,81.6
52.0039,167.5
52.0056,546.6
52.0202,117.9
52.0284,227.8
52.0579,133
52.0592,693.7
52.068,73.5
52.0768,76.1
52.0791,17.6
52.0824,74.3
52.0855,376.1
52.0907,96.9
52.1106,16
52.1195,113.2
52.1208,16.8
52.1221,557.1
52.125,20.3
52.1405,94.8
52.1422,441.5
52.1499,72.6
52.187,164.5
52.2073,84.8
52.21,117.5
52.2182,70.6
52.2279,19.7
52.2314,63
52.2479,17.9
52.249,270.7
52.2657,176.4
52.2712,15.2
52.2741,677.8
52.2891,124.7
52.3004,137.5
52.3146,299.1
52.3197,80.3
52.3211,15.4
52.3292,616.1
52.3294,461.4
52.3342,62.5
52.3353,58.1
52.3385,285.5
52.339,543.3
52.3431,88.8
52.3442,14.5
52.3459,166.2
52.3565,141.7
52.3625,90.4
52.3695,89
52.3781,191.3
52.3791,542.6
52.3937,277.1
52.3996,19.3
52.4034,78.2
52.4038,95.7
52.4173,116.3
52.4503,66
52.4525,68.8
52.4536,442.2
52.4721,207.9
52.4756,95
52.4812,73.4
52.4869,421.6
52.4909,23.7
52.4941,104.8
52.5151,135.6
52.5329,92.6
52.5363,86
52.5514,439.2
52.5522,15.9
52.5559,189.5
52.57,338.4
52.5723,115.3
52.5798,132.3
52.6152,290.3
52.6167,95
52.6184,114.7
52.6198,144.3
52.6234,111.5
52.6287,20
52.6314,484.8
52.6464,121.1
52.6469,74.1
52.6477,76.9
52.6642,276.5
52.6683,260.5
52.678,252.5
52.682,441.7
52.6882,443.5
52.6921,68.6
52.6934,79
52.6996,61.6
52.7059,541
52.738,472.5
52.742,81.1
52.753,347.7
52.755,17.4
52.762,378.6
52.7632,334.3
52.7778,230.9
52.7814,90.8
52.782,35.3
52.7842,1836.5
52.785,627.5
52.7855,1056.5
52.7858,1051.2
52.7864,2789.1
52.7871,2642.1
52.7874,4549
52.7881,653.4
52.7897,59.7
52.7917,498.5
52.8066,66.7
52.8351,116.5
52.8489,83.1
52.852,583.8
52.8535,514.2
52.8619,391.8
52.8846,87.4
52.8911,119.5
52.8962,765
52.9057,16.9
52.9071,79.7
52.9184,237.2
52.9186,304.6
52.9187,311.7
52.9345,407.3
52.9571,105.3
52.9625,189.2
52.9636,544.8
52.9665,355.3
52.973,344.5
52.9732,505.6
52.9836,173.5
52.9947,16.6
53.0229,84.5
53.0332,68.5
53.0535,171.6
53.0654,442.8
53.069,81.5
53.0785,66.5
53.0833,494.5
53.0909,70.4
53.0959,15.8
53.0996,411.9
53.1045,100.9
53.134,308.4
53.1486,174.5
53.1586,442.6
53.2143,65.5
53.2349,132.8
53.2417,70.1
53.2429,339.2
53.2494,17.6
53.255,80.8
53.2601,73.3
53.2932,101
53.2967,114
53.3039,102.8
53.3064,160.1
53.3115,183.2
53.3278,393.3
53.331,301.2
53.3314,68.6
53.3346,183
53.3353,66.8
53.341,101
53.3568,179.8
53.3618,90.8
53.3663,166
53.3899,238.5
53.3934,88.4
53.3944,15.8
53.4075,345.8
53.4097,99.6
53.4128,75
53.4229,544.2
53.4238,81.9
53.4354,403.8
53.4384,275.2
53.468,94.6
53.4707,577.1
53.4787,77.7
53.4821,109.3
53.4847,14.8
53.5226,624.4
53.5242,89.6
53.5265,16.3
53.5299,81.1
53.533,75.6
53.5483,401.6
53.5525,16.2
53.555,184.6
53.5555,76.8
53.5679,79.5
53.5761,561.8
53.5886,309.7
53.6095,159.3
53.6274,96.7
53.6288,69
53.6503,343
53.6549,466.6
53.659,450.7
53.6677,77.7
53.6909,300.4
53.6998,408.6
53.7002,623.5
53.7211,167.8
53.7309,131.1
53.7415,87.7
53.7589,471.6
53.7775,334.6
53.7988,578.5
53.8041,331.3
53.8285,199.6
53.8455,368.2
53.8466,123.7
53.8596,90.6
53.8607,424.8
53.863,522.3
53.8645,187.4
53.8892,464.9
53.907,82.5
53.9155,78.2
53.9304,96.8
53.9313,57.1
53.9374,499.1
53.9389,161.2
53.9444,199
53.9478,79.8
53.9556,88.5
53.9598,91.4
53.964,761.2
53.9668,296.4
53.9682,130.8
53.9687,60.3
53.9699,294.6
53.9714,262.4
53.9763,192.2
53.996,57.9
54.0032,101.8
54.0098,114.9
54.0128,90.1
54.0197,110.3
54.0395,61.8
54.04,108.3
54.0483,209
54.0564,74.4
54.0642,77.7
54.0951,204.7
54.0978,82.6
54.0989,65.9
54.0993,196.5
54.1316,297
54.1326,86.5
54.1501,475.1
54.1829,85.1
54.1928,362.4
54.1934,408
54.2043,57.8
54.2147,113
54.2272,61.8
54.2345,85.7
54.238,688.6
54.2446,350.3
54.2457,588.7
54.2499,246.1
54.2517,176.5
54.2526,139.6
54.2557,547.8
54.2718,69.4
54.2777,18.5
54.2806,84.6
54.2975,18
54.3094,17.1
54.3415,301.5
54.35,18.2
54.3659,84.1
54.3673,419.2
54.3683,65.6
54.3757,105.1
54.3797,280.1
54.3817,120.3
54.3872,75.2
54.3934,16.5
54.3985,237
54.4003,95.3
54.4009,98.8
54.4089,107.5
54.4108,303.7
54.4145,374.7
54.4292,74.5
54.4388,91.5
54.4405,65.4
54.4425,100.2
54.4597,198.1
54.4705,82
54.4956,195.2
54.5138,301.3
54.5231,197.9
54.5327,15
54.5466,19.6
54.5472,70.7
54.5558,274.5
54.5653,330.1
54.5756,91.9
54.5775,71.8
54.5846,423.4
54.5902,385.4
54.5925,385.7
54.6057,134.3
54.6209,115.9
54.6245,101.2
54.6319,183.2
54.6381,303.5
54.6594,592.5
54.6637,267.6
54.6651,126.6
54.6798,110
54.6955,199.2
54.704,522.8
54.7251,536.4
54.7344,112.3
54.7548,20.1
54.7625,238.1
54.7773,442.9
54.7877,141.6
54.7918,178.1
54.7942,158.3
54.7964,100.5
54.8,523.3
54.8021,92.3
54.8154,504
54.8343,57.7
54.851,87.3
54.8779,94.6
54.8916,62.4
54.8954,354.1
54.9023,410.4
54.9189,461.3
54.9298,81.9
54.9327,16.9
54.9419,111
54.9488,61.1
54.9629,168.2
54.9897,141.3
55.0042,113.6
55.0056,16
55.0087,62.6
55.0178,18.1
55.0296,86.6
55.0393,113
55.0517,245.5
55.0528,83.6
55.0564,75.9
55.0829,73.6
55.1024,186.2
55.1108,349.7
55.1162,128.4
55.1167,116.1
55.1334,482.7
55.1615,243
55.1759,18.7
55.1895,113.7
55.2011,18.1
55.2028,410.2
55.21,65.2
55.2278,90
55.2296,385.7
55.2361,97.3
55.2367,233.8
55.2456,60.7
55.2624,68.5
55.2686,97.2
55.2813,170.6
55.2928,174.5
55.3005,266.8
55.3134,162.2
55.315,185.5
55.3278,19.1
55.3291,243.2
55.3306,74.3
55.3327,424.7
55.3332,71.7
55.3526,414
55.3618,176.3
55.4007,93.9
55.4044,172.5
55.4126,15.4
55.4353,607.7
55.438,230.5
55.4416,98.3
55.4849,19.3
55.51,18.1
55.5419,202.8
55.5428,60.8
55.5593,173.5
55.5725,93.4
55.5831,419.4
55.6044,17.2
55.6336,465.3
55.6387,87.3
55.6483,176
55.6498,228.7
55.6578,70.2
55.6614,252.5
55.6627,392.2
55.6765,590.2
55.6791,77.3
55.6808,75.8
55.6984,100.6
55.7222,192.7
55.7229,269.7
55.7326,76.1
55.776,119.2
55.7959,447.3
55.819,281.1
55.8282,16
55.8348,215.8
55.849,427.4
55.8727,566.7
55.878,123.2
55.8784,513.4
55.8803,244
55.883,453.2
55.8999,489.7
55.9188,174.1
55.9306,17.6
55.9313,20
55.9371,176.6
55.9488,259.5
55.956,97.2
55.9666,95.8
55.9805,514.3
55.9858,89.7
55.9863,83.2
56.0263,298.7
56.0367,181.1
56.0406,417.6
56.0416,89.2
56.0578,110.7
56.0752,64.3
56.0757,70.1
56.0872,65.5
56.0975,19.8
56.1081,102.6
56.1139,532
56.1202,102.5
56.1442,69
56.1509,193.2
56.1593,430.3
56.1601,79.5
56.1643,15.1
56.1776,242.3
56.1847,420.6
56.2024,68.1
56.2058,16.5
56.2085,214.6
56.2219,272.3
56.2352,715.9
56.2425,158.2
56.2439,525.2
56.2525,15.9
56.3183,159.7
56.3188,293.5
56.3264,362.3
56.3308,107.1
56.357,88
56.3654,66.6
56.3955,108.1
56.4082,289.9
56.4139,104.8
56.4237,462.8
56.4662,159.7
56.4678,161.1
56.4833,303.5
56.4843,170.6
56.4891,263.9
56.5051,491.9
56.5158,372
56.5244,138.5
56.5281,371.9
56.536,15.8
56.5578,294.2
56.5688,173.5
56.5967,154.5
56.5991,106.3
56.6076,406.4
56.6127,101.9
56.6422,83.4
56.6457,18.6
56.666,340.8
56.6785,82.5
56.6947,242.1
56.6981,560
56.7146,166.9
56.7406,18
56.7569,459.3
56.7667,81.1
56.7747,136.6
56.7924,75.5
56.8021,83.5
56.8108,19.2
56.823,440
56.8236,151.8
56.8269,20.4
56.8305,248.2
56.8468,106
56.8474,312.8
56.8873,268.1
56.8925,63.8
56.8953,108.2
56.9075,291.1
56.9188,240.1
56.947,79.3
56.9624,117.4
56.9671,89.4
56.9957,253.4
57.0027,317.5
57.022,562.4
57.029,305.6
57.0418,171.7
57.048,61.2
57.0683,148
57.0874,169.9
57.0995,80.9
57.1159,62.3
57.127,58.7
57.1301,65.3
57.1317,213.4
57.1327,574.1
57.1371,95.6
57.1587,517.9
57.1836,290.6
57.1852,78.7
57.1867,105.3
57.1894,617.1
57.1945,83.4
57.2116,315.7
57.2199,126.9
57.2264,72.1
57.2297,74.1
57.2329,116.7
57.254,103.9
57.2565,16.6
57.2688,122.3
57.2711,467.4
57.2859,19.4
57.2957,282.5
57.3107,293.8
57.3125,57.6
57.3164,352.7
57.3189,80.4
57.322,70.4
57.33,567.7
57.3369,423.1
57.3509,16.5
57.3585,67.2
57.3608,76.2
57.3615,90.3
57.3679,346.3
57.3691,120.7
57.3838,75.6
57.3906,545.7
57.3908,548.2
57.4065,354.1
57.4111,264.9
57.4236,79.7
57.4272,180
57.4393,220
57.4462,113.3
57.4815,572.5
57.49,247.7
57.5098,93
57.5219,90.8
57.5533,70.5
57.5636,17.4
57.5874,189.4
57.5963,62.1
57.6044,104.2
57.6063,127
57.6089,103.4
57.6279,73.8
57.6526,103.8
57.6602,15
57.6701,261.2
57.6774,122.7
57.6819,114.6
57.6901,73.7
57.731,249.1
57.733,88.3
57.7366,454.5
57.7369,320
57.7384,232.8
57.7454,17.6
57.7477,277.7
57.7547,420.9
57.7639,82.8
57.7665,67.7
57.7741,197.5
57.8093,185.7
57.8107,99.2
57.821,165.8
57.8661,19
57.8805,124.9
57.8865,74.4
57.9219,83.8
57.9345,69.1
57.9371,98.7
57.9403,77.2
57.9471,74.6
57.9714,21.5
57.9815,411.9
57.9981,80.3
58.0039,502.9
58.0061,408
58.0133,236.3
58.0595,138.7
58.096,82
58.104,70.9
58.1054,469
58.115,17.2
58.1239,430
58.1267,543.9
58.1443,95
58.1491,337.8
58.1664,276.9
58.1685,203.4
58.169,91
58.1778,338.3
58.1805,70.6
58.1893,241.1
58.2039,271.1
58.2119,296.6
58.2194,119.2
58.2261,17.4
58.2266,244.6
58.2498,397.9
58.251,74.1
58.2544,16.9
58.2596,114
58.2741,67.6
58.2919,20.2
58.2938,678.5
58.3105,573.1
58.311,84.1
58.3226,97.5
58.344,149.7
58.3489,481.2
58.3595,285.3
58.3819,161.4
58.3942,136.9
58.4291,147.4
58.4402,409.1
58.4413,137.8
58.4422,335.7
58.4486,357.2
58.4557,17.4
58.4837,19.2
58.4869,21.6
58.4968,101
58.515,94
58.5226,125.2
58.5311,315.7
58.5363,17.5
58.5368,284.6
58.5487,16.6
58.5507,450.4
58.5524,280
58.554,136.3
58.5545,16.1
58.5563,105.6
58.5571,262.6
58.5644,101.4
58.5764,519.5
58.579,270.8
58.5812,84.2
58.5922,75.8
58.6142,95.1
58.616,442.5
58.6172,89.6
58.6437,184.9
58.6473,15.6
58.6655,90.2
58.7107,496.3
58.7309,78.1
58.746,393.7
58.7689,290.6
58.7766,94.4
58.7794,65
58.8071,299.1
58.8111,574.4
58.8133,225.6
58.8151,450.7
58.8191,75.6
58.8312,95.8
58.8406,226
58.8442,104.2
58.8509,70.7
58.8547,264.8
58.8557,792.4
58.8909,64
58.8946,63.4
58.8982,72.8
58.9075,90
58.922,204.7
58.9306,261.1
58.9325,91
58.9401,29.3
58.966,389.2
58.9747,385.6
58.9783,170.8
58.9821,134.9
58.9843,140
59.0027,270.8
59.0068,617.4
59.0139,377.6
59.0166,541.9
59.031,97.2
59.0343,81.4
59.0462,433.6
59.0474,116.2
59.066,370.1
59.0776,572
59.0787,15.6
59.0823,17.4
59.0828,149.6
59.1005,340.4
59.1027,63.8
59.1051,286.3
59.115,131.1
59.1314,102.2
59.133,60.9
59.1603,74.1
59.2032,226.3
59.227,291.6
59.2332,82.2
59.2371,59.3
59.2651,96.1
59.2673,163.6
59.278,220.6
59.2862,75.8
59.3008,16.1
59.3686,15.8
59.3945,508
59.4039,499.6
59.4045,103.8
59.4122,108.8
59.4334,289.9
59.4399,134.4
59.451,181.3
59.4517,64.1
59.4563,92.9
59.4639,364.5
59.4951,80.4
59.4956,553.5
59.5077,426.4
59.5164,130.4
59.5184,70.1
59.5294,114.7
59.5494,451
59.5747,89.4
59.5897,75.3
59.5918,327.4
59.6034,105
59.6417,139.2
59.6451,116.1
59.6494,330.7
59.673,104.5
59.7022,168.3
59.7047,664.6
59.7195,16.6
59.7528,15
59.7534,18.8
59.8025,311.9
59.8309,405.1
59.8396,274.8
59.8413,88.9
59.8486,83.3
59.8512,183.3
59.8523,16.9
59.8676,66.2
59.893,122.6
59.8985,167.5
59.8998,150.6
59.9026,148.2
59.9088,481.2
59.9282,175.8
59.9301,16.4
59.9489,475
59.9523,159
59.9609,354.7
59.9709,68.6
59.9725,168.2
59.9775,245.7
59.9783,526
59.9903,168.8
60.0112,190.1
60.0249,567.3
60.0468,186.1
60.0661,107.1
60.0798,408
60.0896,115.8
60.0974,129.3
60.1093,107.6
60.1287,68.5
60.134,217.8
60.142,91.4
60.1458,264.5
60.1467,584.9
60.1526,373.3
60.1685,257.3
60.1696,79.5
60.1742,21.7
60.1798,81.5
60.1858,90
60.1892,550.6
60.1924,71.8
60.1985,17.3
60.2077,618.6
60.251,88.1
60.2559,104.7
60.2794,383.3
60.2805,114.1
60.288,64.9
60.2887,557.1
60.2912,170
60.2958,102.4
60.3019,18.1
60.3057,518.4
60.3156,536.1
60.3169,372.8
60.3185,269.2
60.3321,341.7
60.3375,283.8
60.3477,351.7
60.3734,116.1
60.3832,187.1
60.3905,186
60.3914,20.6
60.4027,61
60.4066,80.9
60.4132,160.2
60.4243,276.1
60.4457,430.4
60.4676,108.4
60.4712,251.4
60.497,16.2
60.5011,429
60.5201,96
60.5279,418.6
60.5394,56.7
60.5412,100.2
60.5429,394.3
60.5438,194.3
60.5527,85.8
60.5749,66.5
60.5948,140
60.6024,556.8
60.6136,87.8
60.621,117.9
60.6236,577.5
60.6268,149.9
60.6283,88.4
60.6431,90.4
60.6463,206.6
60.65,110.6
60.6546,465.5
60.6587,535.1
60.6638,138
60.7012,307.5
60.7041,80.9
60.7298,73.9
60.7505,643.6
60.7771,75.1
60.7811,174.7
60.7853,267.9
60.7875,106.9
60.7917,267.5
60.7951,254
60.8026,299.9
60.804,111
60.8042,117
60.8043,99.4
60.814,114.6
60.8165,279.9
60.8186,402
60.8368,223.8
60.8407,90.1
60.9107,74.7
60.9138,15.6
60.9207,558.6
60.9381,85.5
60.9471,69.4
60.9476,560.9
60.9533,463
60.9573,280.4
60.9586,114.7
60.9694,338.7
60.9759,321.9
61.0116,184.7
61.0217,100.9
61.0507,15.5
61.0649,81.4
61.1161,323
61.1203,63
61.1494,125.6
61.1528,445.2
61.1537,184.4
61.1631,106.8
61.1714,16.5
61.1728,515.4
61.1807,356.4
61.1815,427.1
61.1828,170.3
61.184,64.1
61.1846,81.6
61.191,338.4
61.2214,101.4
61.2303,421.1
61.2414,98.5
61.266,605.4
61.2773,16.2
61.286,520.8
61.2874,76.1
61.29,96.9
61.3048,500.1
61.3171,292
61.3206,717.1
61.3217,454.5
61.3221,93.6
61.3361,102.6
61.3395,15
61.3485,188.4
61.361,288.2
61.3677,87
61.4045,109.4
61.4141,106.3
61.4211,101.6
61.4342,69.5
61.44,90.6
61.4436,96.3
61.466,192.8
61.4664,20.1
61.4944,220.2
61.4966,352.9
61.5013,505.9
61.5029,252.3
61.5287,180.1
61.5407,221.1
61.5414,62.2
61.548,425
61.5535,302.4
61.5567,461.7
61.5736,283.6
61.599,18.2
61.6116,91.3
61.6368,76.3
61.6456,564.6
61.6485,100.5
61.6504,101
61.6515,106
61.6853,248.8
61.6858,231.6
61.6888,63
61.6891,77.8
61.6892,85.5
61.7308,265
61.739,84.3
61.7817,467.6
61.7996,245.7
61.8021,210.5
61.8071,276.3
61.8296,415.7
61.8557,17.6
61.8582,70.7
61.8649,533.7
61.8807,178.5
61.8839,253
61.891,500.3
61.8911,515.8
61.8914,468.6
61.9023,16.3
61.9308,111.1
61.9427,192.9
61.9791,113.5
62.0166,167.1
62.0215,465.1
62.0398,18.9
62.0406,383.1
62.0674,100.8
62.0741,22.1
62.0778,17.6
62.0793,570.6
62.1096,452.5
62.1115,120.1
62.1211,65.5
62.1285,583.7
62.1407,434.9
62.1475,14.5
62.1498,113.5
62.1637,409.3
62.1644,18.7
62.1679,67.5
62.1858,87.9
62.2005,180.2
62.204,117.3
62.2045,96.9
62.2487,121.8
62.255,297.2
62.2696,83.2
62.2879,98.9
62.3357,113.3
62.3416,114.5
62.3438,101.2
62.3667,64.3
62.3697,116.8
62.3786,342.9
62.4134,393.4
62.4169,266.6
62.4242,317.6
62.4361,16.9
62.4576,64.5
62.4644,170.2
62.4715,448.5
62.4835,156.8
62.4982,111
62.5219,146.5
62.528,63.3
62.5311,80.7
62.5357,147.3
62.5405,82.9
62.5425,97
62.5438,414.2
62.5454,290.2
62.5852,82.1
62.5874,128.1
62.5964,18.5
62.6131,175.6
62.6138,126.6
62.6458,411
62.6683,75.3
62.6719,340.8
62.6928,473.3
62.7074,69.9
62.7122,134.6
62.7201,90.6
62.7224,15.9
62.7382,389.2
62.7411,139.7
62.7499,181.2
62.7641,90.8
62.7776,98.9
62.7896,347.1
62.7905,111.2
62.797,435.9
62.7984,548.8
62.8016,104.5
62.818,20.4
62.8401,511.5
62.8526,225.1
62.8558,92.2
62.8689,94
62.8702,15.4
62.8963,19.9
62.8986,253.5
62.9141,132.5
62.9155,203.9
62.9202,157.1
62.9365,416
62.9384,17
62.9423,18.9
62.947,165.8
62.9523,113
62.9632,24.3
62.9732,225.9
62.9994,255
63.0064,528.9
63.0524,97
63.0542,65.2
63.0702,248.5
63.0784,17.9
63.087,78.7
63.103,285.1
63.1189,85.1
63.1343,431.1
63.1641,369.5
63.1646,150
63.1763,18.6
63.1885,223.6
63.1914,16.9
63.2234,452.4
63.2397,90.7
63.2454,212.9
63.2669,253.7
63.2717,193.9
63.2742,483.3
63.2767,101.4
63.2789,107.6
63.3074,187.1
63.3161,73.9
63.3306,114.3
63.332,80.5
63.3379,99.7
63.3883,463.8
63.3954,18.4
63.4277,169.7
63.4288,62.6
63.4339,69.4
63.4432,579.3
63.4563,200.6
63.4631,16.5
63.4744,766.8
63.4847,156.7
63.4856,64.6
63.4966,17.5
63.4989,93.6
63.5304,15.6
63.5429,78.5
63.5455,331.3
63.569,84.7
63.5738,82.5
63.5861,312.1
63.6079,520.7
63.6171,192.3
63.6223,71.8
63.6239,18.5
63.6333,17.7
63.6397,76.9
63.6545,107.1
63.6613,122.6
63.665,89.6
63.6696,425.6
63.6927,258.3
63.6995,330.9
63.703,105.9
63.729,599.8
63.7336,277.5
63.7635,70.9
63.7774,284.5
63.7847,229.6
63.7923,121.6
63.795,98.2
63.7967,18
63.8053,142.5
63.8116,345.9
63.8763,363.9
63.8808,102.5
63.8873,133.2
63.8968,103
63.9295,171.6
63.9329,115.8
63.9437,324.3
63.9539,100
63.9543,294
63.9763,319.2
63.9771,78.2
63.9823,19.9
63.9878,101.1
63.9902,188.3
63.9938,96.6
64.0112,148.2
64.0224,292.5
64.029,76.1
64.0357,580.8
64.0466,379.7
64.063,85.3
64.0648,697.7
64.0696,174.3
64.0733,19.3
64.1006,84.8
64.1172,287.8
64.1306,427.5
64.1567,20.4
64.1628,199.7
64.1647,177.4
64.1657,72.6
64.1727,115.7
64.1775,67.3
64.1808,76
64.1921,16.7
64.197,80.8
64.201,17.3
64.2428,525.4
64.2443,15.3
64.2514,107.9
64.2847,501.2
64.317,79.8
64.3352,167.6
64.3642,17.1
64.4201,15.5
64.4285,668.5
64.4504,282.3
64.4624,595.7
64.4645,391
64.4661,109.7
64.472,189.1
64.4843,111.3
64.4898,21.6
64.5153,145.4
64.5166,149
64.5698,115.8
64.6067,410.6
64.609,113.4
64.6232,16.7
64.6344,70.2
64.6407,448
64.6418,574.7
64.6575,67.4
64.6602,180.6
64.663,300.9
64.6893,290.2
64.7036,19.5
64.7105,96.8
64.7243,144.2
64.7316,221.4
64.7327,355.6
64.7372,93.4
64.741,462.4
64.7508,95.8
64.7584,176
64.7649,105.2
64.7946,464.8
64.8101,145.3
64.814,443.2
64.8285,127.6
64.8408,345.7
64.8446,124.7
64.8724,241.9
64.8741,177.7
64.884,618.1
64.899,114.5
64.9172,131.7
64.9274,303.5
64.929,179.7
64.9499,60.9
64.9804,67.9
65.0057,81.8
65.0066,16.2
65.0091,121.9
65.0293,270.7
65.0307,369.1
65.0319,120.3
65.0327,475.2
65.0376,197.1
65.0493,97.9
65.057,90.1
65.0685,103.1
65.0699,700.1
65.071,233
65.0737,96.9
65.1003,562.2
65.1013,87.8
65.112,16.7
65.1199,111.5
65.1246,16.7
65.1281,65.7
65.1323,454.2
65.1413,500.3
65.1713,183.1
65.1873,171.1
65.2119,15.8
65.2275,232.6
65.2471,69.3
65.2538,121.7
65.2641,72.6
65.2713,124
65.2769,636.7
65.2775,425.5
65.2971,157.3
65.298,243.3
65.3008,85.6
65.3027,446.3
65.3111,88.2
65.3314,18
65.3324,17.7
65.353,15.3
65.3735,259.3
65.3843,130.1
65.3872,520.3
65.3908,440.3
65.4103,123.4
65.4394,106.8
65.4432,522.3
65.4571,17
65.4678,110
65.4917,110.3
65.5018,600.3
65.5387,107.7
65.5461,70.2
65.5623,73.3
65.5693,297
65.571,101.1
65.5825,94
65.5842,281.9
65.5895,284.5
65.5909,114.2
65.6003,75.5
65.6078,123.7
65.6097,443.8
65.6307,167.4
65.6449,76
65.6783,185.5
65.6812,88.4
65.6872,504
65.6907,194.5
65.7106,353.2
65.7161,21.4
65.7256,75.9
65.7314,68.5
65.7333,146
65.7446,280.3
65.7918,170.6
65.8018,296.4
65.8143,232.6
65.824,65.6
65.8253,19.8
65.83,412.3
65.8377,267.5
65.8406,263.3
65.8414,550.3
65.8658,420.3
65.8706,211.5
65.8798,85.5
65.9027,76.2
65.9126,124
65.971,484.7
65.9759,414.6
65.9793,188.2
65.9834,82.5
66.0066,495.6
66.0073,256.2
66.0109,221
66.0124,17.1
66.023,526.8
66.0298,417.9
66.059,298.8
66.0725,304.4
66.078,233.1
66.1043,73.6
66.1251,398.1
66.1262,18.1
66.1302,84.8
66.1957,437.2
66.2129,84.5
66.2338,275
66.2355,434.3
66.2365,18.1
66.2394,115.3
66.2408,325.6
66.2414,63.1
66.26,184.2
66.3055,18.3
66.3295,129.3
66.3348,302.6
66.336,80.7
66.3457,246.7
66.3614,65.9
66.3634,478
66.3778,431.6
66.3922,185.8
66.3943,176.6
66.3993,154.3
66.4129,155.7
66.4415,427.6
66.4436,557.2
66.4521,153.1
66.4556,71.1
66.4697,533
66.4705,40.7
66.4911,513
66.4929,70.4
66.5131,97.5
66.523,112.6
66.5278,208.6
66.5283,78.9
66.531,216.9
66.5487,255.7
66.5599,91.2
66.5717,185.8
66.5828,254.6
66.596,68.1
66.5989,134.9
66.6032,164.8
66.6064,478.4
66.6161,248.4
66.6322,89.9
66.6455,264.5
66.6496,254.2
66.6834,585.1
66.6993,111.2
66.7075,147.9
66.7126,182
66.7806,16.1
66.7819,605.7
66.7916,274.2
66.806,84.2
66.8202,197.5
66.8631,95.8
66.87,15.6
66.9256,257
66.9282,104.3
66.9382,426.8
66.9409,17
66.9459,247.8
66.9713,457.1
66.9728,135.6
67.0038,86.6
67.0137,74.5
67.0164,87.3
67.0505,16.2
67.0539,110.9
67.0762,252.6
67.1298,124.8
67.1465,116.4
67.1491,176.9
67.158,665.6
67.1628,108.9
67.181,105.7
67.1839,243.3
67.2011,353
67.2318,165.7
67.238,84.8
67.2441,180.9
67.2595,524.7
67.2647,113.2
67.2968,60.2
67.299,156
67.3071,423.4
67.3115,78.2
67.3137,65.4
67.3285,102.5
67.3312,66.5
67.3405,175.8
67.3514,296.9
67.3588,121.5
67.3779,68.6
67.385,80.2
67.3885,247.2
67.394,69.5
67.4018,300.1
67.4027,267.8
67.4177,459.5
67.4422,111.3
67.4618,18.3
67.4683,91.2
67.4735,250.9
67.4746,136.8
67.4827,283.2
67.4864,73.3
67.4939,276.5
67.4988,120.4
67.5108,261.6
67.5316,491.4
67.5346,459.6
67.5391,592
67.5474,158.1
67.5973,17.7
67.6052,189
67.6327,110.3
67.6334,67.6
67.6573,123.8
67.666,88.1
67.6778,444.5
67.678,472.7
67.7095,461.8
67.7543,61.2
67.7765,16.6
67.8021,117.6
67.8046,183.8
67.8333,326.1
67.8409,23.9
67.8513,80
67.852,79.3
67.8551,179.9
67.867,384.2
67.882,17.2
67.8918,134.7
67.9069,179.3
67.9251,19.7
67.9537,110.7
67.9684,472.9
67.9754,479.3
67.978,94.2
67.9815,17.9
67.9822,101.1
67.9851,149.3
67.9856,691.7
68.0789,18.9
68.0819,212.9
68.0955,114.3
68.1005,79.6
68.1017,372.3
68.1116,17.9
68.1346,390.1
68.1576,546.1
68.1679,210
68.1896,161.7
68.2356,119.4
68.2447,546.4
68.2739,398.3
68.2968,254.8
68.3242,75.6
68.3308,223.5
68.3735,197.3
68.4191,543.2
68.4205,84.7
68.4318,366.4
68.4348,123
68.4468,240.7
68.4821,262.1
68.4849,89.7
68.4881,115.8
68.4909,518.3
68.4947,103.9
68.571,86.2
68.5721,484.3
68.5789,174
68.6238,388.4
68.6264,108.7
68.6433,221.2
68.6449,262.2
68.6834,601.3
68.707,146
68.7169,76.6
68.7236,80.7
68.7345,496.8
68.7365,71.1
68.7383,82.4
68.7386,109.6
68.7509,141.5
68.7521,136.3
68.7583,130
68.7839,104.2
68.7937,330
68.8305,170
68.8469,461.9
68.851,77.7
68.8968,86.8
68.8975,88.1
68.8987,71
68.9069,164.1
68.9177,70.3
68.9265,174.2
68.9273,119.6
68.9318,355.6
68.9517,119.2
68.965,72.8
68.9732,290.2
68.9796,18.7
69.0084,18.8
69.0146,567.3
69.0281,87.2
69.0354,87
69.0422,116.3
69.0449,407.3
69.0512,21.9
69.0773,423.8
69.087,90
69.1254,315
69.141,157.6
69.1551,448.1
69.1681,355.2
69.17,82.7
69.2028,274.5
69.2218,181.3
69.2268,268.3
69.2274,17.8
69.2609,82.1
69.2638,122.9
69.2882,99.2
69.2983,18.6
69.3008,543.8
69.3066,130.3
69.3093,205.4
69.3143,103.9
69.3326,173.6
69.3408,131.2
69.3516,422.6
69.3527,264.1
69.3733,494.8
69.4097,190.8
69.4125,255.4
69.4206,710.3
69.4282,98.2
69.4462,93.1
69.4531,428.4
69.4638,256.6
69.489,87.7
69.5307,342.7
69.5382,455.1
69.5558,149.5
69.5635,340.9
69.5748,85.2
69.5845,80.2
69.5886,453.5
69.6025,366.4
69.6366,342.3
69.6442,71.5
69.6471,79.9
69.6604,168.7
69.6644,401.4
69.6833,716.1
69.6915,85.9
69.6927,364.5
69.7142,407.3
69.7239,16.6
69.7337,377.3
69.8019,18
69.8161,79.5
69.8211,528.6
69.8217,193.1
69.8246,109.5
69.8258,90.5
69.8622,358.4
69.868,188
69.8815,92.5
69.9323,74
69.9429,487.4
69.9727,91.8
70.0139,119.3
70.0649,139
70.0695,74.7
70.0803,487.8
70.0813,479.5
70.1089,129.4
70.1164,63.3
70.1482,328.6
70.16,110.4
70.2053,534
70.2198,159.8
70.2588,260.4
70.2652,179.2
70.2718,292.2
70.285,201.6
70.2999,76
70.3131,78.4
70.338,476.9
70.3398,191.4
70.3406,18.1
70.3463,142.7
70.357,98.2
70.3711,188.9
70.3718,117.3
70.3772,18.7
70.3913,482
70.446,22
70.4466,92.5
70.448,372.2
70.4493,17.7
70.4577,545.6
70.4646,81.8
70.4759,17.5
70.4786,122.3
70.4928,104.2
70.4994,274
70.5011,398.1
70.5028,286
70.5065,445.6
70.5376,468.8
70.559,68
70.576,439.5
70.5844,174
70.5955,319.9
70.6091,81.2
70.6345,19.8
70.6457,19.3
70.6475,181.5
70.65,372.1
70.6555,74.9
70.6577,102
70.6592,93.5
70.6732,443.7
70.6747,91.1
70.687,266.2
70.7013,88.2
70.71,301.6
70.7157,191
70.7239,16.8
70.7314,592.1
70.7714,94
70.7732,432.2
70.7758,432.2
70.7798,96.2
70.7976,254.2
70.8321,397.3
70.8511,436.2
70.8575,139.6
70.8737,91.7
70.8806,16.9
70.8966,581.9
70.9012,203.3
70.9224,20
70.932,72.6
70.9384,272.1
70.9428,173.9
70.9461,177.8
70.9547,165
70.9689,16.6
70.9758,18.7
70.9793,93.9
71.0005,391.9
71.0032,71.9
71.0169,15.9
71.0176,312.1
71.0197,360.3
71.0289,130.4
71.0368,253
71.0395,284.1
71.043,15.5
71.0629,97.5
71.0651,164.4
71.0724,247
71.0734,85.4
71.0962,425.5
71.103,481.9
71.1271,243.9
71.1325,104.2
71.1621,504.2
71.1657,61.1
71.1728,459.2
71.1835,359.9
71.1946,20
71.2138,519.8
71.276,20.6
71.3153,95.7
71.3167,211.2
71.3183,255.1
71.3242,76.9
71.3553,103.3
71.3678,77.6
71.3772,262.5
71.3782,111.3
71.3801,96.9
71.3827,99.1
71.39,104.7
71.4013,203.9
71.4089,106.9
71.4183,272.9
71.4594,198.3
71.4603,19.7
71.4628,222.5
71.4859,71.9
71.4883,390.8
71.49,83.8
71.4923,645.3
71.5064,586.5
71.5331,106.8
71.5508,105.5
71.554,116
71.5704,17.7
71.5869,124.5
71.6264,98.3
71.6432,486.4
71.6463,91.5
71.6518,464.7
71.6541,81.3
71.6577,17.7
71.6723,199.8
71.681,17.1
71.6875,495.2
71.6883,78.2
71.6906,684
71.7069,186.9
71.7376,79.8
71.808,400.5
71.8178,19.3
71.849,496.7
71.8593,99.9
71.8609,265.8
71.8701,627.8
71.8778,115.7
71.8823,685.6
71.8871,521.8
71.9022,294.8
71.9243,139.8
71.9494,181
72.002,259
72.0081,447.3
72.0201,97.2
72.0569,264.1
72.0667,399.5
72.0712,17.9
72.0804,528.7
72.0871,89.3
72.092,74.2
72.1107,239.1
72.1254,209.3
72.1386,118.1
72.1463,121.3
72.1621,234.5
72.166,20.9
72.2095,614.1
72.2161,240.9
72.2185,16.4
72.2203,319.8
72.221,103
72.2226,216
72.2238,708.1
72.2256,26
72.2264,223.3
72.2275,757.7
72.2291,1117.8
72.2295,1139.1
72.2297,1168.8
72.2301,1543.2
72.2309,2117.1
72.232,1442.8
72.2325,2532.3
72.2332,1418.6
72.2338,1659.3
72.2344,1600.1
72.2357,2227.3
72.2366,2674.7
72.2369,2936.9
72.2377,2702.1
72.2387,2087.5
72.2396,3215.5
72.2402,3411.1
72.2414,3825.7
72.242,1942.3
72.2436,1974.6
72.2443,1894.8
72.2454,2066.7
72.2461,1896.1
72.2472,1553.9
72.2477,852.1
72.2484,562.9
72.2497,639.9
72.2504,152.2
72.253,73.4
72.2547,377.6
72.262,16.7
72.3087,222.6
72.3323,414.9
72.3582,211
72.3699,107.2
72.3798,303.1
72.3809,779.3
72.382,150.9
72.3822,148.8
72.4165,16.5
72.418,65.6
72.4289,466.4
72.4349,200.4
72.4542,179.1
72.4662,90.4
72.4701,290.9
72.4721,295.8
72.4826,100.5
72.4885,355.3
72.4974,487.4
72.5072,181.7
72.5356,101.4
72.5486,110.9
72.5661,462.7
72.5765,838.4
72.5975,89.2
72.6003,128.7
72.6034,243.9
72.6311,355.1
72.666,356.2
72.6754,444.6
72.6857,17.7
72.6933,468.9
72.7045,17.1
72.7094,102.6
72.7293,238.4
72.7298,93.9
72.7348,273.2
72.7375,438.8
72.7382,442.7
72.7412,341.3
72.7522,138.2
72.7601,91.6
72.7725,144
72.7764,21
72.8065,195.9
72.8183,455.3
72.8193,73.7
72.8618,103.7
72.8751,88.4
72.8805,274.6
72.8877,536.4
72.8891,67.9
72.9066,129.9
72.9231,440.7
72.9368,252.5
72.9499,22.3
72.9762,667.3
72.9804,190.7
73.0033,200.1
73.0243,111.1
73.0435,181.1
73.069,89.4
73.0696,231.5
73.0721,90.3
73.084,24.1
73.085,91.7
73.1005,126.7
73.1136,92.3
73.1201,423.8
73.1206,637.2
73.1292,20.7
73.1628,123.5
73.1697,112.1
73.1736,15.9
73.1908,19
73.2084,405.1
73.2155,17.1
73.2248,81
73.228,91.5
73.2283,135.3
73.2472,21.7
73.277,253.2
73.289,19.1
73.297,19.6
73.306,70.8
73.3579,279.3
73.3614,335
73.368,185.8
73.3815,83.5
73.39,17.5
73.3915,88.3
73.395,181.3
73.4034,418.4
73.4138,370.7
73.4213,21.5
73.4234,66.4
73.4346,248.4
73.4358,66.8
73.4799,85.2
73.4839,187.2
73.4857,234.7
73.4939,292.3
73.509,160
73.5166,62.2
73.5211,403.7
73.533,97.5
73.5726,599.3
73.5761,73.2
73.5779,456.9
73.5984,522.7
73.6185,85.9
73.6243,75.5
73.6574,19.1
73.6614,162.8
73.6741,77.9
73.6786,113.7
73.6863,114.4
73.7071,512.8
73.7247,304.9
73.8139,17.4
73.8247,811
73.8431,425.6
73.8465,127.4
73.8485,100.5
73.8523,75
73.8777,419
73.8883,308.6
73.9034,80.8
73.9208,147.8
73.928,20.6
73.9439,548.1
73.9823,16.5
73.9903,475.8
74.0021,117.2
74.0238,173.5
74.0418,225.9
74.0511,127.8
74.056,241.8
74.0598,4044.4
74.0808,278.8
74.089,94.6
74.1051,297.5
74.1298,18.9
74.1437,76.6
74.1473,372.1
74.1566,138.6
74.1749,115.9
74.1852,64.9
74.219,69.7
74.2273,174
74.2494,270.4
74.2649,188.1
74.2786,529.5
74.3224,87.9
74.3321,608.3
74.3402,674
74.3621,18.5
74.3913,69.2
74.3958,230.7
74.4034,16.7
74.4049,94.6
74.4201,480.1
74.4399,168.9
74.4846,160
74.488,467.8
74.4986,74.8
74.4999,239.7
74.5113,72
74.5141,258.7
74.5172,85.7
74.5399,325.3
74.5673,76
74.5909,75.8
74.6122,411.6
74.6216,17.2
74.6346,288.1
74.6567,381.2
74.6889,145.3
74.6946,289.9
74.7003,148.6
74.7146,82
74.7569,574.5
74.7655,200.4
74.7683,853.6
74.77,95.9
74.7783,88.2
74.7792,476
74.7957,109.6
74.8046,62.7
74.8097,73.2
74.8114,19.7
74.8373,77.9
74.8503,18
74.8778,78.4
74.8886,97.6
74.899,295.4
74.9,432.1
74.9225,134.6
74.9528,101.4
74.9546,19.6
74.9702,209.7
74.9793,293.8
74.9998,90.6
75.0076,484.9
75.0313,92.9
75.035,517.3
75.0467,17.3
75.0536,444.5
75.0567,253.6
75.0585,72.4
75.0644,72.4
75.067,150.3
75.0892,92.9
75.0952,146
75.1051,391.9
75.1172,19
75.1419,75.2
75.153,585
75.1663,240.6
75.1774,69.1
75.207,65.1
75.2211,17.8
75.2231,288.4
75.2261,309.1
75.2438,79
75.245,548.5
75.2688,201.1
75.2709,92.3
75.2722,712.9
75.3583,275.5
75.3876,554.3
75.4561,72.1
75.458,377.4
75.4732,310.5
75.504,112.1
75.5126,17.3
75.5163,380.2
75.5194,177.2
75.5252,86.8
75.534,133.8
75.5612,18.3
75.5726,76.6
75.5784,487.4
75.5914,457.1
75.5948,278.1
75.6032,77.7
75.6048,380.7
75.6064,261.2
75.6092,297.7
75.653,455.2
75.6668,241.8
75.6732,78.9
75.6767,104.5
75.6821,18.4
75.7012,250.6
75.7269,84.3
75.7625,18.4
75.7887,119.8
75.7963,161.8
75.7994,293.8
75.8171,118.5
75.82,426
75.8212,76.4
75.8247,314.6
75.8333,177.9
75.875,118.5
75.9123,640.7
75.9508,301
75.9519,99.1
75.9602,73.1
75.9667,17
76.0056,81.3
76.0583,220.7
76.0852,66.1
76.0955,102.7
76.0961,341.6
76.1053,113.6
76.1154,121.4
76.1161,505.1
76.1423,22.8
76.1923,95.4
76.1935,84
76.2118,265.5
76.2222,128.6
76.2271,360.8
76.2343,88.5
76.2484,328.3
76.2523,83.6
76.2981,16.9
76.3056,576.9
76.3136,244.5
76.3314,273.8
76.3459,103.4
76.3522,110.6
76.3556,129.7
76.3587,134.2
76.3611,298.9
76.3695,401.8
76.3736,250.5
76.3829,81
76.3853,217.3
76.386,82.1
76.4068,102
76.4835,58.8
76.4878,269.6
76.4951,17
76.4976,67.7
76.5022,219.3
76.5177,16.1
76.5321,62
76.5539,97.5
76.5561,19.6
76.5673,292.5
76.5776,287
76.58,20.1
76.5941,335.9
76.5992,455
76.6181,157.7
76.6275,529.1
76.6345,137.1
76.6408,484.5
76.6666,91.4
76.6856,114.9
76.7048,195.9
76.7124,349.1
76.7286,69.9
76.734,190.3
76.7558,101.7
76.7629,499.7
76.7936,75.7
76.8117,184.1
76.8177,81.7
76.8199,20.4
76.8311,118.5
76.8458,16.7
76.9113,451.2
76.921,175
76.9499,305.5
76.9956,574.3
76.9968,63.4
77.0053,125.8
77.0071,190.8
77.0138,459.2
77.0229,115.1
77.0282,87.2
77.0314,20.5
77.0332,104.2
77.0346,28.7
77.0353,119.1
77.0371,19.5
77.0383,131765.3
77.047,284.5
77.0634,314
77.0692,573.5
77.075,135.4
77.0797,517.1
77.0843,134.6
77.1041,287.4
77.1084,189.4
77.1106,17.2
77.1524,15.7
77.1554,63.1
77.163,129.4
77.1974,228.6
77.1985,116.6
77.2018,464.7
77.2103,319.4
77.2233,104.6
77.2373,96.3
77.245,83.5
77.2705,454.7
77.2829,343.4
77.2894,19.2
77.2975,17.3
77.3127,109.4
77.3151,265.2
77.3917,118.2
77.4134,21.4
77.419,72.8
77.4651,248
77.468,88.9
77.4791,186.5
77.5057,17.3
77.5248,81.3
77.5434,184.9
77.5451,479.2
77.5537,456.6
77.571,100.1
77.5785,17.5
77.6021,100.5
77.6215,237.4
77.6357,286.2
77.6391,353.9
77.6499,20.3
77.6556,410.7
77.6772,655.6
77.6859,95.9
77.7068,592.7
77.7379,204.4
77.7604,479.2
77.7659,77.8
77.7896,72.1
77.8092,404
77.8492,497.3
77.8629,181.9
77.8767,86.4
77.8796,114.8
77.8894,315.4
77.8923,68.7
77.9012,214.5
77.9455,169.3
77.9724,145.4
77.9776,17
77.9838,212.8
77.9993,603.4
78.0417,4941
78.0615,95.6
78.0971,81.8
78.1045,326.5
78.106,18.8
78.1116,69.6
78.1123,18.3
78.12,541.1
78.1216,103
78.1281,84.7
78.1344,65.4
78.1457,329.2
78.1843,273.6
78.1849,21.1
78.2072,537.9
78.2082,120.2
78.2241,137.7
78.236,490.9
78.2389,329.8
78.2422,95.9
78.2444,614.7
78.2656,82.4
78.2686,112.2
78.3006,97.4
78.3154,20
78.3303,416
78.3364,498
78.3499,78.6
78.3724,412.4
78.4243,17.6
78.4362,20.5
78.4395,485.8
78.4527,72.6
78.4704,16.7
78.5003,227
78.5013,449
78.5049,157.6
78.5123,98.9
78.5198,17.6
78.5221,494.8
78.5273,91.2
78.5371,815.7
78.5575,188.1
78.5592,322
78.5679,263.5
78.5801,18
78.5944,78.2
78.6006,418.2
78.619,112.1
78.6303,66.4
78.6445,187.5
78.6502,406.5
78.6648,363.1
78.672,315.6
78.6745,104
78.6858,170.8
78.6953,85.6
78.7243,16.8
78.7751,612
78.7923,497.4
78.7954,91.8
78.7982,20.2
78.8226,332.2
78.8267,236.5
78.8815,420.6
78.8891,212.2
78.897,80.9
78.9361,18.6
78.95,514.1
78.9733,570.3
78.9756,158
78.9887,167.3
78.9968,242.2
79.0447,76
79.0511,490.2
79.054,2376.9
79.0666,66.8
79.0964,513.7
79.1099,89.9
79.12,108.4
79.1207,211.1
79.1331,72.9
79.1522,190.4
79.174,113.4
79.1763,17.7
79.1814,464.1
79.1859,80.7
79.2252,482.6
79.2379,477.3
79.2637,87
79.2765,70.6
79.2786,105.2
79.2817,100.9
79.2886,387.5
79.2894,18.5
79.2946,644.5
79.2983,65.6
79.3139,313.1
79.3309,475.4
79.3689,87.5
79.3814,417.3
79.4035,431.5
79.4445,494.2
79.4815,308.4
79.5093,356.4
79.5216,96.1
79.5274,71.8
79.5472,350.6
79.6426,305.4
79.6623,90.8
79.6895,154.6
79.7058,109.5
79.7146,127
79.7229,622
79.7298,161.8
79.7476,591
79.749,498
79.7523,116
79.757,132.6
79.7629,77.7
79.8022,439.3
79.8052,277.2
79.8063,426.4
79.8177,263.6
79.8341,535.6
79.8733,262
79.8975,581
79.918,489.3
79.9189,423.7
79.9205,450.1
79.9276,579.9
79.9548,81.3
79.9677,18.3
79.9799,298.4
79.993,109.9
79.9952,185.5
80.0021,180.7
80.0031,116.1
80.0039,287.2
80.0113,88.5
80.0124,15.9
80.0148,301
80.0271,458.6
80.0478,77.3
80.0573,35.5
80.0622,118.1
80.0632,69.1
80.0791,100.8
80.1249,285.3
80.1329,603.2
80.1519,84.7
80.2031,182.1
80.2236,82.2
80.2391,65.1
80.2406,136.4
80.2453,104.6
80.2568,477.2
80.2589,544.6
80.2656,16.8
80.2701,82.8
80.2818,541
80.2879,17.8
80.2965,16.4
80.3052,106.6
80.3157,83.3
80.3236,121.5
80.3275,92.5
80.3348,19.4
80.3359,17.3
80.339,127.1
80.3698,299
80.382,91.5
80.4276,19.3
80.4829,141.4
80.4911,184.9
80.5021,134.2
80.5101,447.3
80.5314,15.9
80.5346,115.3
80.541,126.1
80.544,567.3
80.5621,20
80.5655,18.3
80.5978,81.1
80.6,80.9
80.6041,229.5
80.6433,216
80.6511,568.1
80.6564,408.9
80.6576,287.7
80.6611,102.1
80.6642,131.6
80.6698,81.1
80.7021,18.3
80.7217,75.5
80.7303,215.5
80.7481,388.4
80.7792,569.7
80.7897,69.1
80.8047,118.3
80.8057,85.5
80.8376,220.5
80.848,585.1
80.8662,92.4
80.8722,18.7
80.8755,17.1
80.8863,198.9
80.8886,424.9
80.8923,81.7
80.9019,138.1
80.9096,16.4
80.9173,447
80.9231,602.2
80.928,69.2
80.9361,18.5
80.9426,426.4
80.9476,60705.3
80.9666,184.1
80.968,217.6
80.9937,197.8
81.0097,116.2
81.025,162.1
81.06,284.6
81.0683,68.3
81.0697,1582.5
81.0726,86.8
81.0938,16.1
81.1042,490.2
81.1063,81.8
81.1092,183.4
81.1372,177
81.1396,297.6
81.1406,329.2
81.1413,1037.6
81.1425,165.8
81.1435,426.6
81.1442,590.3
81.1454,74
81.1464,465.8
81.1494,259
81.16,85.9
81.1628,74.1
81.1753,250.3
81.1822,21.8
81.1852,82.1
81.2058,152.6
81.2106,194.1
81.2892,293
81.2948,270.5
81.2962,91.7
81.3003,318.1
81.3287,93.6
81.3622,484.4
81.3805,169.9
81.3812,97.8
81.4364,83.6
81.442,278.1
81.4459,77.6
81.4556,156.8
81.4602,279.5
81.4671,127.6
81.5027,85.5
81.5217,20
81.5582,461.5
81.567,307.1
81.5806,579.9
81.5895,109
81.607,20.2
81.6278,87.2
81.6314,80.9
81.6505,338.9
81.6636,83.4
81.6714,397
81.6742,682.3
81.6772,81.1
81.682,21.6
81.6862,16.1
81.7312,70.8
81.7354,137
81.7508,100.7
81.7664,19.1
81.7754,144
81.7815,131.7
81.801,127.7
81.8199,92.7
81.8274,265.3
81.8325,16.3
81.8374,90.1
81.8434,430.4
81.9086,100
81.9141,325.2
81.9326,18.9
81.978,588.8
82.004,83.7
82.065,19.8
82.0839,19
82.0906,119.6
82.1121,28.1
82.1512,124.1
82.1524,153
82.1636,76.7
82.1673,182.8
82.2281,508.7
82.2494,76.4
82.2527,19.8
82.2551,278.5
82.2581,184.1
82.2808,18.7
82.3,125.7
82.3027,82.6
82.3324,167
82.3636,310.2
82.3917,143.6
82.4472,119.4
82.4485,82
82.456,299.5
82.4615,104.7
82.4646,113.4
82.5041,426.1
82.5233,313.4
82.5289,74.7
82.5322,73.4
82.5414,120.9
82.5452,20
82.5874,428.2
82.5988,107
82.6297,316.6
82.6872,83
82.717,16.3
82.7365,416.1
82.7686,292.8
82.8002,71.9
82.8252,320.1
82.844,20
82.8472,474.1
82.857,103.7
82.8815,666.9
82.8988,180.7
82.9162,700.4
82.9171,79.4
82.9182,74.2
82.9447,17005.7
82.9509,297.8
82.9619,207.4
82.97,314.2
82.991,92.3
83.0184,273.9
83.0201,80.5
83.0213,42.2
83.0503,213.8
83.0666,18.2
83.078,303.6
83.0854,21.8
83.1092,356
83.1369,87.7
83.1759,139.2
83.2075,103.7
83.2125,258.5
83.2136,169.7
83.2185,144.6
83.2375,384.9
83.2709,271.3
83.2721,124.1
83.2788,19
83.2975,126.1
83.3133,524.2
83.3259,102.5
83.3376,202.7
83.3781,399.8
83.3937,579.4
83.3988,265.5
83.4116,284
83.4291,102.5
83.4313,65.9
83.4338,284
83.4746,20
83.4902,552.6
83.4966,77
83.5123,84.4
83.5165,83.8
83.5193,78.4
83.5234,137.9
83.5507,265.7
83.5827,424.3
83.5889,298.6
83.6117,119.5
83.6847,227.7
83.7,101.4
83.7015,832.6
83.7284,111.8
83.7441,122.5
83.7451,92.9
83.7476,85.4
83.7485,472.7
83.7514,82.5
83.7675,19.4
83.7886,288.2
83.8006,484.2
83.8079,70.2
83.8111,63.6
83.8123,668.4
83.8306,531.2
83.8564,596.9
83.8762,216.9
83.8984,111.2
83.9278,66.4
83.9342,182.4
83.9418,188
83.9464,204.5
83.9476,463.2
84.0101,125.4
84.0443,17.3
84.1029,87.9
84.1062,16.8
84.1168,441.6
84.1369,62.4
84.1512,91.8
84.152,66.9
84.1528,19.9
84.1617,89.9
84.1631,469.6
84.1856,109.8
84.2023,549.6
84.2063,17.7
84.221,89.1
84.2244,86
84.2323,283.1
84.233,647.4
84.2427,381.6
84.2475,84.3
84.2556,513.5
84.2877,292.4
84.2981,639.3
84.3008,300.6
84.3078,96.9
84.3159,85.5
84.3805,67.4
84.448,346.1
84.4487,199.6
84.4743,210.6
84.5203,141.8
84.5531,16.2
84.5573,113.6
84.5703,337
84.5852,67.3
84.6373,64.8
84.664,167.8
84.6658,90.1
84.673,18.9
84.6806,175.5
84.7153,70.6
84.7593,564.4
84.7967,15.6
84.8035,641.2
84.8291,174.5
84.8471,82.7
84.8681,18.9
84.9325,439.5
84.9488,19.2
84.951,122
84.9532,63.8
84.9595,16102.3
84.9631,456.2
84.9705,328.6
85.0008,116.3
85.0063,176.2
85.0221,164.9
85.0282,1304.1
85.0341,281.5
85.0693,300.5
85.0719,83.8
85.0786,167.6
85.1127,213
85.1305,176.8
85.1438,515.2
85.1716,459.6
85.18,101.1
85.3117,179.2
85.3492,313
85.3807,65.6
85.4115,299.5
85.4201,159.5
85.4768,250.3
85.48,17.5
85.4986,91.1
85.5485,109.1
85.5656,185.8
85.5668,77.8
85.5831,18.2
85.5873,21.2
85.5976,18.8
85.6044,320.5
85.6056,80.7
85.611,619.1
85.6319,430.5
85.7018,18.3
85.7119,269.1
85.7121,266.8
85.7157,16.9
85.7385,99.3
85.7422,90.8
85.7916,417.5
85.8011,99.1
85.8046,600.7
85.8153,131.3
85.8223,390.9
85.8303,634.7
85.8503,497.2
85.8547,202.6
85.892,16.3
85.9334,252.3
85.9564,160.9
85.984,76.7
86.0021,563.4
86.006,440
86.0092,104.8
86.0305,78.1
86.0316,17.4
86.055,108.1
86.0599,36735.6
86.0744,72.3
86.0962,99092.6
86.1116,114
86.1136,73.5
86.1339,86.4
86.1359,354
86.1729,99.3
86.1781,183.7
86.2261,125.4
86.2656,186
86.2749,145.3
86.3058,19.7
86.3083,305.5
86.3327,483.1
86.4356,111.3
86.4412,251.3
86.4435,75.1
86.4691,123.6
86.4699,391
86.4811,17.7
86.4881,649.9
86.4902,535.4
86.5032,123
86.5267,140.7
86.5444,103.5
86.554,107.9
86.5695,231.5
86.5724,457
86.5886,16.5
86.5937,19.2
86.5951,562.3
86.6106,73.3
86.6232,443.2
86.6265,120.7
86.651,147.3
86.6564,125.3
86.6684,78.3
86.6947,483.4
86.7387,231.8
86.7625,64.2
86.7746,18.1
86.7781,288.8
86.7956,120.4
86.8159,18.3
86.8257,69.1
86.9374,17.2
86.9526,22.9
86.9708,341.6
86.98,63.3
86.9922,165.4
87.0308,75.3
87.0452,318.2
87.084,93.9
87.0997,1623.4
87.1092,386.9
87.1156,722.7
87.124,86.3
87.1462,688.2
87.1577,242.6
87.1625,602.7
87.1711,20
87.1727,106.8
87.1943,136.9
87.1965,261.9
87.2155,137.1
87.2287,359.2
87.2317,196.9
87.2451,115.2
87.298,426.1
87.3054,20.1
87.3126,263.5
87.3208,542.3
87.3426,16.7
87.3738,304.5
87.3814,461.6
87.4289,104.5
87.4318,79.1
87.4556,91.5
87.4948,286.8
87.5201,77.1
87.5565,18.7
87.5834,16.5
87.5966,99.2
87.6101,200.9
87.6611,81.8
87.67,447.7
87.6738,81
87.6748,107.3
87.6893,163.2
87.6948,201.2
87.7105,123
87.7302,164.6
87.7586,120.5
87.7636,65
87.8182,85.8
87.8392,17.3
87.8502,100
87.9038,147.6
87.9384,84.4
87.9476,87.1
87.9603,336.7
87.9623,246.4
87.9635,599.7
87.9643,146.7
88.015,23.2
88.0301,135.6
88.0392,8923.7
88.0877,128.3
88.0907,65.5
88.0927,479.7
88.1014,138.8
88.1022,645.1
88.1471,687.4
88.1569,329.4
88.2193,111.1
88.2284,428.4
88.2312,553.4
88.2418,83.8
88.2694,82.1
88.318,465.7
88.354,455.3
88.3917,71.4
88.4235,84.1
88.4266,76.3
88.44,71
88.4835,123.2
88.5277,184.2
88.5292,102
88.5448,89.4
88.5602,15.3
88.5857,340.3
88.6176,95.2
88.6209,164.4
88.6224,94.4
88.641,264.3
88.6574,259.4
88.673,88.3
88.7514,231.5
88.7554,331.1
88.7702,640.4
88.786,226.8
88.7904,221.8
88.8468,524.3
88.8479,108.3
88.8614,403.3
88.8779,845.2
88.8984,324.7
88.905,433
88.9069,339.7
88.9156,102.5
88.9433,78.4
88.9521,20.4
88.9611,110.3
88.9649,204.2
88.9987,75.2
88.9993,16.8
89.0284,132.8
89.0844,66.5
89.1291,346
89.1382,69.7
89.1408,86
89.1489,601.5
89.1585,331.6
89.1802,543.6
89.1856,164.7
89.2273,327.5
89.2429,628.2
89.2787,283
89.3071,165.9
89.3184,191.6
89.3597,89.1
89.374,76.9
89.3794,87
89.4066,19.9
89.4191,68.1
89.4628,417.5
89.4767,19.6
89.5771,106.2
89.5871,464.5
89.5924,217.6
89.5932,83.5
89.6078,484.8
89.6697,81.2
89.6963,96.3
89.7111,177.8
89.7553,305.4
89.765,78.5
89.8074,18
89.8253,180.7
89.8288,84.4
89.8631,337.3
89.8797,157.3
89.8973,102
89.9,102.4
89.9042,446.5
89.9358,613.2
89.942,195.2
89.9607,22.4
89.9635,186.9
89.9974,76
90.0413,163
90.0492,610.8
90.0634,86.1
90.0806,90
90.0894,252.9
90.1173,18.9
90.1508,271.6
90.1585,103.8
90.2148,682.4
90.2216,74.6
90.2381,74.7
90.2561,22.3
90.2676,16.1
90.2687,459.2
90.3132,18.6
90.3252,93.7
90.3739,18
90.4125,392.5
90.4198,18.6
90.4245,87.8
90.4794,15.7
90.4835,306
90.5002,410
90.5192,82.1
90.5232,417.1
90.5252,116.2
90.5545,115.8
90.5601,495.6
90.5725,192.5
90.5799,311.7
90.6244,564.8
90.6724,268.6
90.6932,383.5
90.7079,558.4
90.7141,84.9
90.7181,426.9
90.7477,88.5
90.7852,160.6
90.7886,243.8
90.7902,430
90.7989,212.5
90.8305,118.5
90.8642,82.1
90.893,79.2
90.901,14.9
90.9155,101.2
90.9337,382
90.943,244.2
90.9475,1091.1
90.9689,66.2
90.9765,11970.1
90.9781,310
90.9943,571.3
91.007,77.4
91.0187,298.6
91.0391,17.8
91.0441,222.6
91.0541,1888.3
91.0596,17.7
91.1278,99.1
91.1335,137.4
91.1404,107.8
91.1448,656.1
91.1616,18.2
91.2445,113.5
91.2511,673.5
91.2592,482.2
91.2741,83.7
91.2821,18.3
91.297,147.3
91.3055,84.9
91.3207,95.3
91.3644,460.6
91.4213,23.1
91.5393,69.9
91.5418,107.2
91.5792,139.3
91.5798,534.4
91.6201,167.1
91.625,325.3
91.643,92.6
91.6727,179.7
91.6842,17
91.6861,373.5
91.6929,493.6
91.7041,100.9
91.7074,289.7
91.7158,20.4
91.7213,271.9
91.7697,117.4
91.7975,82.5
91.8026,125.7
91.8079,462.3
91.825,304.4
91.8347,94.4
91.8813,88.3
91.8843,94.7
91.8975,378
91.9081,515.7
91.9125,126.1
91.9415,84.1
91.9888,293.8
91.9953,348
91.9993,18.6
92.0042,675.3
92.0186,467.1
92.0341,67.8
92.0493,121.2
92.0538,637.1
92.0668,288
92.0699,437.9
92.0752,137.8
92.0966,64.9
92.1248,849.2
92.1316,90.9
92.1364,207
92.1552,90
92.1663,71.4
92.19,80.5
92.2282,115.2
92.2416,76.3
92.2494,317.3
92.2559,118.5
92.2685,144
92.2736,102.6
92.3024,16.9
92.3251,246.9
92.3419,83.8
92.3545,476.2
92.3739,88.2
92.3798,415.6
92.4177,450.7
92.4449,112.3
92.4579,88.9
92.5457,159.1
92.5572,629.5
92.573,446.8
92.5874,166.7
92.5904,284.8
92.6054,68.2
92.6058,72.3
92.6568,288.7
92.6579,99.8
92.6866,18.7
92.7089,113.4
92.7112,280.3
92.7229,105.4
92.7383,587.7
92.7717,397.7
92.7737,270.5
92.7839,248.4
92.8284,79.6
92.8482,291.3
92.891,686.9
92.9071,35.2
92.9237,277.3
92.9354,572.3
92.976,18.9
92.9999,121.2
93.0126,635.7
93.0305,61.2
93.0333,26.3
93.0702,117.3
93.0992,91.6
93.1232,95.9
93.1345,175.1
93.1546,135.5
93.1569,250.6
93.1577,104.3
93.1596,482.4
93.1617,99.4
93.1634,284.7
93.2194,300.1
93.2239,283.6
93.2498,158.3
93.2781,86.2
93.286,102.6
93.2937,468.8
93.3015,196.9
93.3211,476.4
93.3358,416.3
93.3758,99
93.4504,118.8
93.4722,844.6
93.4922,20.4
93.5206,289.4
93.5374,18.1
93.5505,126.8
93.552,502.2
93.5954,534.6
93.6264,725.2
93.6352,247.5
93.6357,288
93.6539,91.7
93.6547,639.6
93.6603,107.2
93.6715,650.7
93.68,19.1
93.6829,67.6
93.6974,222.8
93.7036,18.4
93.7054,132.8
93.7177,419.1
93.7711,88.2
93.775,119.7
93.8204,95.5
93.8221,245.5
93.842,381.1
93.8639,104.7
93.8657,70.2
93.898,268.2
93.9118,520.2
93.9425,101.5
93.9767,120.8
93.9867,17.5
94.001,95.4
94.0226,175.2
94.0256,210.1
94.0412,60611
94.0827,98
94.0865,75.7
94.0916,325.2
94.0932,86.6
94.0943,335.2
94.0955,312.9
94.1094,109.5
94.1125,472.2
94.1146,65.3
94.124,320.8
94.1511,604.8
94.1621,413.5
94.2195,20
94.2432,612.2
94.2918,574
94.3007,65.9
94.3089,17.5
94.3328,565.8
94.407,173.6
94.4236,364.8
94.43,103.4
94.459,135.6
94.4982,103.7
94.5178,310.9
94.546,304.2
94.5762,250.6
94.5958,605.7
94.6072,294.3
94.6168,80.6
94.621,19.3
94.6377,22.4
94.6889,284.1
94.6928,334.8
94.6961,84.3
94.7027,329.8
94.7284,145.4
94.7492,187.7
94.7533,89.4
94.7542,366
94.8344,678.7
94.8516,237.6
94.864,410.2
94.9312,102.3
95.0088,25.8
95.0152,156.8
95.0356,35.8
95.0445,1031.2
95.0462,19.5
95.0473,196.3
95.049,460479.6
95.0625,60
95.0838,590.5
95.0854,1322.5
95.0907,168.2
95.0923,95.3
95.0939,84.5
95.1068,88.9
95.1115,92
95.1326,416.7
95.1519,86.8
95.1897,65.1
95.2205,67
95.2243,85.2
95.2356,276
95.2959,73.5
95.3163,379.4
95.3433,516
95.3463,129.8
95.402,454.5
95.4558,150.9
95.4612,57.4
95.4645,16.7
95.4692,94.1
95.4932,236.9
95.5298,289.1
95.5722,58.8
95.5988,189.2
95.6145,593.3
95.6254,18
95.6932,482
95.6974,680.2
95.7699,631.7
95.7708,93.3
95.8233,127.8
95.843,107.5
95.855,87.9
95.8636,87.9
95.9215,124.9
95.9237,663.7
95.9685,114
96.003,175.5
96.0044,332.9
96.0176,19.1
96.0524,24108.8
96.0553,23.6
96.0614,109.2
96.0739,101.1
96.0806,19.9
96.0947,518.7
96.0976,344.5
96.0993,126.4
96.1374,123.3
96.1658,577.3
96.1895,111
96.2149,179.6
96.2257,328.5
96.2268,142.5
96.2295,406.6
96.258,91.5
96.305,640.8
96.3122,592.7
96.3247,129.7
96.3312,130.8
96.3411,482.5
96.3575,633.9
96.359,138.9
96.3788,133.7
96.3847,15.5
96.4067,447.5
96.4223,18.7
96.4356,361.6
96.44,20.8
96.4557,180.1
96.507,260.1
96.5519,69.2
96.5722,135.1
96.5756,140.2
96.6213,160.1
96.6369,187.1
96.6758,548.3
96.6797,64.8
96.6991,661.7
96.709,337
96.7179,209.1
96.7229,92.2
96.7792,97.2
96.7817,109.8
96.7976,68.7
96.799,18
96.8159,153.4
96.8883,246.1
96.8948,183.6
96.9217,182109.6
96.9329,351.9
96.9374,17.9
96.9397,77.6
96.9458,318.2
96.9634,594.9
96.9864,289
97.0074,159.2
97.0105,51.1
97.0151,66
97.0216,78.2
97.0348,116.9
97.0408,94.4
97.0447,316.4
97.0532,100.4
97.0557,69.7
97.0885,430.7
97.101,24
97.1492,77.5
97.1605,73.9
97.1922,345
97.2009,173.9
97.205,70.4
97.2163,110.3
97.2212,356.7
97.2343,132.2
97.2482,435.3
97.2579,81
97.2686,62.3
97.2979,454
97.3208,611.6
97.3226,609.4
97.3452,306.1
97.3935,62.4
97.4115,101.9
97.4215,67.4
97.4398,241
97.4487,608.7
97.462,454
97.466,99.6
97.5205,122
97.5328,615.1
97.5363,88.7
97.5645,150.2
97.5982,94.2
97.6107,311.8
97.629,422.2
97.7063,101.8
97.7198,311.4
97.7346,25.3
97.7485,80.9
97.7553,133.7
97.8487,18.7
97.8751,293.1
97.9479,75.2
97.9575,186.5
98.0205,72.9
98.0396,100
98.0693,78.1
98.0939,158.8
98.1019,507.1
98.121,21.6
98.1909,88
98.2505,212.5
98.2698,566.8
98.2764,172.8
98.2784,168
98.2856,118.6
98.2925,94.5
98.303,151.8
98.3167,145.7
98.3418,114.5
98.3823,262.2
98.4358,632.1
98.4394,20.7
98.4405,528.1
98.5332,597.3
98.5404,546.3
98.5698,115.7
98.6019,94.3
98.6041,254
98.609,71.6
98.6324,480.8
98.6459,712.7
98.6709,19.6
98.6749,112.5
98.6832,275.4
98.7568,100.3
98.8195,241.5
98.8204,437.7
98.8304,192.2
98.8428,123.7
98.8444,332.6
98.8468,20.8
98.8501,447.8
98.851,96.7
98.884,231.4
98.9116,83.1
98.9144,127.8
98.9187,55658.4
98.9198,9181.8
98.929,17.8
98.9752,9286.4
98.984,82
99.0123,17.6
99.0592,448.2
99.0804,19.3
99.136,16.4
99.1576,390.2
99.1842,519.9
99.2362,325.5
99.2766,224
99.3659,96.2
99.4569,447.6
99.4684,541.4
99.531,303.8
99.5547,156.8
99.6294,192.9
99.6346,376.2
99.6396,93.7
99.6423,24
99.6565,20.1
99.6593,86.8
99.734,528.1
99.7651,464.9
99.7753,117.6
99.8158,80.9
99.8354,127.1
99.8405,309
99.8867,115.4
99.9103,78.2
99.9123,15.6
99.941,121.2
99.9443,19.7
99.9803,76.9
99.9913,118.8
100.0014,99.6
100.0189,450.1
100.0582,113.8
100.0629,422.5
100.0965,359.8
100.1172,78.5
100.1925,20.3
100.2654,596.4
100.305,16.4
100.3467,97
100.3816,78.5
100.3836,267.4
100.3945,205.9
100.4331,72.1
100.4698,478.5
100.4831,183.4
100.5026,149.5
100.5074,124.6
100.5517,187.6
100.5785,708.3
100.6541,20.6
100.6551,70.7
100.6854,102
100.7202,220.1
100.7287,419.9
100.7559,270
100.7635,174.6
100.7654,106.6
100.767,129.5
100.8052,142
100.8385,90.3
100.8573,550
100.8617,18.4
100.9055,100
100.9112,64.3
100.9168,2257.1
100.9397,299.6
101.0247,80.9
101.0471,2876.4
101.0708,1009.7
101.1569,256.8
101.1879,359.9
101.1934,401.7
101.2219,97.3
101.2243,80.8
101.2292,111.7
101.2559,442.1
101.2729,125.9
101.2753,280.5
101.3001,348.3
101.3189,482
101.3609,416.9
101.3805,20.8
101.3884,168.6
101.4023,67.9
101.4498,18.8
101.4843,430.1
101.6447,316.9
101.6521,340.4
101.669,69.7
101.6696,71.7
101.7482,233.2
101.7702,112.9
101.7919,332.3
101.8427,112.7
101.8775,72.3
101.9173,85.9
101.9214,149.6
101.9427,80.3
101.9636,65.3
102.0408,103.1
102.0549,5006.8
102.1191,386.2
102.1281,88.5
102.1315,77.1
102.1359,18.5
102.1385,138.6
102.1496,99
102.2008,554.5
102.2017,21.7
102.2127,185.4
102.2216,203
102.2379,356.2
102.2598,21.9
102.261,288
102.2703,447.8
102.2825,605.1
102.2857,113.9
102.3318,156.4
102.34,58.1
102.3419,621.1
102.3458,209.4
102.4121,348.2
102.4341,90.7
102.437,97.4
102.4485,501.8
102.4768,75.8
102.493,66.8
102.5212,18.7
102.5248,102.5
102.5454,285.5
102.5593,96.9
102.577,122.1
102.7243,150.1
102.7594,537.6
102.7834,314.2
102.8162,124.6
102.8249,94
102.8327,335.9
102.8343,81.8
102.9702,581.8
102.9996,68.2
103.0379,96.2
103.0561,605.6
103.075,20.3
103.0773,18.9
103.1278,487.5
103.1687,95.9
103.1933,126.5
103.2076,137.3
103.2309,20.7
103.2459,453.1
103.2646,111.8
103.266,356.3
103.2717,87.7
103.4014,293.4
103.4076,188
103.4253,392.1
103.4336,22.6
103.4605,213.7
103.5247,398.6
103.5458,178.7
103.6201,19.6
103.6773,81.7
103.6873,115.1
103.6876,113.4
103.7054,113.8
103.7278,264.9
103.7557,325.2
103.7588,404.8
103.7644,102.6
103.7993,104
103.8216,158.2
103.831,745.8
103.859,101.4
103.9288,209.5
103.957,447.5
103.9787,475.7
103.999,18.8
104.0011,89.3
104.0664,181.9
104.068,93.4
104.0706,84.9
104.0972,17.2
104.1069,502163.3
104.1636,20.7
104.1771,421.1
104.2001,117.2
104.2207,132.5
104.2213,127.9
104.2293,165.4
104.2768,305.3
104.3617,84.7
104.3863,64.2
104.406,434.6
104.4119,490
104.4398,191.4
104.4479,91.8
104.4729,370.1
104.4812,282.6
104.4828,90.2
104.5746,16.6
104.6413,707.6
104.6504,74
104.654,67.8
104.6661,92.8
104.7301,69.2
104.7523,129.2
104.7937,75.7
104.823,180
104.8416,477.4
104.8463,242.6
104.8884,141.1
104.948,104.3
104.9632,1439.7
104.9922,1841.2
105.0134,333.4
105.0446,43583.8
105.0698,20.2
105.1102,17104.2
105.1167,72.5
105.1352,581.9
105.2016,105.4
105.212,18
105.2178,204.2
105.2416,551.4
105.2462,441.2
105.2533,320.1
105.2852,784.5
105.2875,18.2
105.29,260.8
105.3015,235.7
105.3916,364.6
105.3977,222.3
105.4465,73.5
105.4844,156.9
105.5787,18.2
105.6302,458.3
105.6358,103.6
105.6393,106.2
105.6859,199.1
105.6921,126
105.7027,203.8
105.745,514.4
105.7592,477.5
105.7613,111.5
105.7687,288.7
105.8225,87
105.8332,617.1
105.8792,107
105.8872,76.3
105.9121,137.4
105.9553,277.2
105.9648,172.7
105.984,188.8
106.0012,117.8
106.0266,73.3
106.0312,264.2
106.048,640.3
106.0588,18.9
106.077,75.2
106.1515,115.5
106.1585,230.2
106.177,291.4
106.1814,103.8
106.1916,100.9
106.2169,160.3
106.2585,396.9
106.3064,17.9
106.3075,337.5
106.3264,162.1
106.3514,481.3
106.3624,400.3
106.3644,176.1
106.3686,431.5
106.3829,113.8
106.4163,105.8
106.431,222.2
106.5225,75.7
106.5689,317.5
106.6409,102.3
106.6812,116.8
106.6988,93.2
106.7107,68.4
106.7992,313.3
106.8208,100.9
106.8306,715.4
106.8383,813.2
106.841,86.9
106.847,19.8
106.8787,289.2
106.8896,703.2
106.8989,124.4
106.9183,17.6
106.9342,90.9
106.9505,4950.7
106.9918,56.3
107.0282,113.7
107.049,459.5
107.0605,16.5
107.0777,231.3
107.1023,613.1
107.1114,18.2
107.1388,189.3
107.195,322.7
107.2374,134.2
107.2532,162.6
107.2592,81.8
107.2887,337.9
107.3038,178
107.3073,135.4
107.3456,319.8
107.3579,190.2
107.3635,440.2
107.3673,152.4
107.371,581.7
107.3813,100.8
107.383,270.5
107.391,313.6
107.3945,378.4
107.4223,104.1
107.4326,473.5
107.4522,378.1
107.4637,371.6
107.4978,22.5
107.5022,226.8
107.5546,396.9
107.5723,539.7
107.6102,459
107.6434,16.9
107.6605,158.2
107.6862,388.8
107.6914,123.8
107.7582,16.6
107.7847,337.7
107.8082,333.2
107.8334,111.1
107.8551,341
107.8689,96.6
107.88,67.7
107.8821,398.3
107.9934,257.6
107.9945,294.6
108.0108,501.4
108.0235,17.2
108.0332,22.9
108.0542,77.4
108.0738,171.9
108.1566,99.1
108.1582,257.6
108.1593,227
108.1695,82.8
108.2048,95.6
108.2119,88.6
108.2388,265.6
108.2538,130.5
108.2876,78.8
108.3222,183.3
108.325,304.5
108.3556,18.6
108.3585,118.4
108.4127,417.8
108.4145,444.4
108.417,97
108.4272,415.6
108.4421,19.7
108.4505,167.5
108.4812,19.1
108.4871,494.8
108.5315,120.7
108.5454,183.4
108.5896,253.6
108.6583,756.6
108.6593,78.7
108.6761,64.4
108.6845,93.6
108.7644,113.7
108.8047,18.8
108.8424,692.8
108.9232,170.2
108.9347,462.2
108.9809,233.2
108.9891,150.6
109.0355,257.9
109.0435,169.1
109.0559,256.4
109.0647,65801.4
109.0664,45.8
109.0922,67.9
109.0938,89.9
109.1011,218.2
109.1192,151.6
109.1454,122.2
109.1494,468.4
109.1956,243.7
109.2081,175.1
109.2581,187.7
109.2928,279.8
109.3259,336.4
109.3524,398.7
109.3575,156.9
109.3602,341
109.3928,466.7
109.4198,463.5
109.4384,297.3
109.5245,74.2
109.5738,163.6
109.5751,272.5
109.5785,89.7
109.5875,502.6
109.6391,527.4
109.6411,434
109.6581,83.7
109.6695,16.5
109.6844,153.2
109.705,15.9
109.7105,400.7
109.7625,174.8
109.7711,587.1
109.7875,100.8
109.7912,258.6
109.8156,21.6
109.8221,17.4
109.8255,488.7
109.8347,116.5
109.8416,64.4
109.8578,705.3
109.8844,537.1
109.8884,96.6
109.9502,159.5
110.0681,2201
110.0712,337.9
110.1384,380.5
110.1405,67.1
110.154,17.9
110.1725,18.5
110.1774,114.7
110.2475,154.3
110.2674,114.9
110.2944,466
110.296,432.4
110.303,310.2
110.3166,298.5
110.323,165
110.4299,96.5
110.4389,101.8
110.5519,16.9
110.5827,126.9
110.6094,136.5
110.6284,396.5
110.6435,568.3
110.6796,16.8
110.6823,110.6
110.7061,69.2
110.7088,119.3
110.7165,94.3
110.7305,126.9
110.765,337.3
110.8028,583.4
110.8378,18.6
110.8707,636.3
110.8968,21.8
110.9258,18
110.9485,86.6
110.9681,75.8
110.9817,564
111.0058,82.5
111.0232,314.8
111.0261,607.6
111.0376,120.2
111.0439,271.2
111.0492,94.9
111.0691,21.1
111.0714,22.2
111.1356,92.3
111.1788,18
111.2527,17.4
111.288,202.1
111.3448,94.6
111.3956,616.9
111.4182,106.9
111.4307,300.7
111.4345,85.9
111.4804,96.2
111.4917,98.2
111.5373,596.4
111.5881,393.7
111.5923,88.9
111.6139,291.4
111.6375,88.7
111.6452,124.1
111.654,16.9
111.6823,181.9
111.7034,440.6
111.723,112.2
111.7306,79.7
111.7419,90.6
111.7995,123.9
111.8875,468.5
111.901,17
111.921,176.4
111.9484,258.9
111.9585,115.2
112.0236,270.1
112.0525,662.4
112.0675,18
112.0776,105.8
112.0794,76.7
112.0808,577.6
112.0994,71.3
112.1468,118
112.1555,592.9
112.1603,201.9
112.1819,367.5
112.2193,165.4
112.2331,300.1
112.2599,154.8
112.2705,20
112.2803,87.6
112.2939,95.1
112.3104,644.4
112.3121,65.2
112.3752,60.9
112.3888,321.9
112.4158,98.7
112.4703,198.6
112.4952,67.8
112.5298,18.6
112.5489,200.6
112.5745,114.8
112.5774,69.7
112.5868,18
112.5965,21
112.6549,277.4
112.6595,321.5
112.6654,111.9
112.7051,84.1
112.7972,270.5
112.8398,88.4
112.8453,187.2
112.8957,500136.3
112.9236,321.5
113.0493,158.9
113.0756,19.1
113.1073,104.4
113.1455,91.8
113.1485,394.5
113.1948,20.1
113.2366,77.4
113.2819,837.8
113.3048,375.1
113.3782,82.9
113.396,92.3
113.3967,83.6
113.4526,238.1
113.4983,175.8
113.5004,548.8
113.5478,96.7
113.5515,15.6
113.5519,15.1
113.5618,19.5
113.5907,93
113.6092,246
113.6735,19.8
113.7046,241.2
113.7286,22.5
113.7539,77.9
113.7628,224.7
113.7699,351.8
113.7711,124.3
113.7984,73.9
113.8048,232
113.8149,145.8
113.8483,183.6
113.8508,16.3
113.9014,234.8
113.9637,23.3
113.9725,173.4
113.9784,551.5
114.0232,312.9
114.04,71.3
114.0549,51358.9
114.0661,450.6
114.1315,123.6
114.1733,528.7
114.182,117
114.2011,467.7
114.2217,158.7
114.2227,393.4
114.3118,347.9
114.3284,142.1
114.3383,472.3
114.4117,89.3
114.4928,71.7
114.5224,128.9
114.5451,100.9
114.55,458.5
114.5718,442.1
114.6241,16.8
114.7312,70.7
114.7425,158.5
114.7988,241.9
114.8218,106.4
114.8657,301.9
114.878,148.7
114.8927,156168.5
114.9481,321.5
114.9614,108
114.9632,150.6
114.9919,92.8
115.0467,128.8
115.0583,1711.1
115.1102,77.7
115.1197,255.5
115.1228,100
115.1364,220.1
115.1715,317.8
115.2369,92.4
115.2654,447
115.3222,288
115.4088,19
115.4128,18.8
115.4225,289.1
115.48,402.1
115.4856,639.7
115.489,175.6
115.502,165.6
115.5074,495.7
115.51,89
115.5118,253.2
115.5564,198.1
115.5613,19
115.5698,17.6
115.5802,332.3
115.5831,329.8
115.5929,108.9
115.6304,553.7
115.6676,78.2
115.7331,19.7
115.753,213.8
115.7748,306.7
115.7764,18.4
115.8315,17.6
115.8358,83.8
115.8957,389.5
115.8984,239.9
115.969,331.1
115.9756,21.1
115.9793,378.5
115.9889,447.3
116.0197,75.1
116.037,438.4
116.0452,200.1
116.051,187.5
116.0705,1613.7
116.1001,19.2
116.1307,67
116.1361,261.3
116.1663,92.6
116.2057,247.6
116.2092,89.5
116.234,343.6
116.2512,168.3
116.2638,627
116.2991,462.5
116.3656,334.5
116.4639,75.8
116.4751,597.3
116.4907,86.9
116.5356,91.8
116.6,380.5
116.6976,80
116.7619,85
116.7836,127.6
116.8092,128.3
116.8198,20.9
116.8263,313.4
116.8282,521.1
116.8452,313.8
116.8488,16.6
116.8648,99
116.8881,19.2
116.8908,17105
116.9258,341.9
116.9406,18.6
116.9632,26.5
116.9757,116.8
116.9859,690.4
116.9924,565.4
117.0156,349
117.0241,102.6
117.0373,88.1
117.0697,54.3
117.0818,494.9
117.0835,281.9
117.0893,181.3
117.1412,93.2
117.1637,67.1
117.2624,85.3
117.2979,71.6
117.3031,104.8
117.3069,109.9
117.3114,113.5
117.333,186.3
117.4023,103.7
117.407,254.6
117.4429,190.6
117.4904,177.6
117.5406,349.7
117.5825,16.8
117.5928,444.3
117.594,432.8
117.6257,86.9
117.6381,420.8
117.7065,322.7
117.7139,78.4
117.7177,233.9
117.7294,102.7
117.7627,76.5
117.7787,504.3
117.7881,110.2
117.8153,19
117.8707,101
117.927,208.7
117.9353,108.4
117.9711,84.5
117.9733,192.6
118.0139,72.9
118.0208,119
118.0335,18.9
118.0763,95.4
118.1102,119.7
118.1115,198.9
118.17,84.6
118.209,554.6
118.2323,110.5
118.2362,82.2
118.2753,126.7
118.3013,247
118.314,237.1
118.33,294.5
118.4059,124.7
118.4751,130.9
118.4894,288.7
118.4998,165.1
118.5153,397
118.5357,101.8
118.5398,85.3
118.5518,492
118.6053,174
118.6653,139.5
118.669,704.1
118.692,77.5
118.7149,311.3
118.7389,109.2
118.7407,325
118.7822,456.3
118.7826,451.4
118.842,79.6
118.8477,461.2
118.8741,386.6
118.9258,133.9
118.9305,202.9
118.9425,270.4
118.9645,503.5
118.9789,285.7
118.9995,521.5
119.0014,80.1
119.0137,81
119.0188,22.8
119.0553,77.7
119.0776,711.3
119.0803,106.1
119.0812,146
119.0816,133.5
119.0859,101
119.0885,246
119.0958,604.7
119.1286,204.9
119.1615,123.4
119.1668,90.8
119.2197,101.8
119.2309,299.3
119.2927,287.7
119.3109,94.9
119.3131,17.4
119.3552,312.8
119.397,445.9
119.4785,616
119.4894,129.6
119.4915,73.2
119.5578,95.3
119.6087,18.5
119.6164,77.5
119.6233,68.7
119.6402,431.9
119.661,221.1
119.6685,118.6
119.7194,488.1
119.7595,234.5
119.7893,64.1
119.8176,16.3
119.8434,302
119.856,82.2
119.8895,86.6
119.9088,270.3
119.9265,163.5
119.9322,241.7
119.9966,71
120.0032,7035.1
120.0061,107.8
120.0076,291.3
120.0128,189.9
120.0286,304.2
120.0807,11910.5
120.0898,292.1
120.0993,234.9
120.1069,102.5
120.1105,129.3
120.1862,153.7
120.2183,477
120.31,124.6
120.3258,96.6
120.3399,75.9
120.5026,112.5
120.5096,190.6
120.5193,109.7
120.5296,18.8
120.5676,471.5
120.5943,17.5
120.6329,170.8
120.7097,68.6
120.7327,242.5
120.7453,77.5
120.7493,235.9
120.7516,95.1
120.7668,69.1
120.7715,17.5
120.7862,355.7
120.7905,123.7
120.8679,125.1
120.9584,16.9
120.974,16.7
120.9748,17.6
120.9773,70.6
120.9807,147.5
120.9987,17.9
121.0076,322.4
121.0283,328.5
121.0396,62.1
121.0746,395.5
121.1012,70.8
121.1416,64.2
121.1468,82.9
121.1484,77.8
121.1756,17.8
121.2151,91
121.2367,18.1
121.3063,117.5
121.3569,15.7
121.4059,64.1
121.4165,97.7
121.423,88.4
121.4641,18.4
121.5143,114.3
121.5211,340.9
121.5242,63.6
121.5393,198.3
121.5652,93.2
121.5752,18.1
121.5795,344.5
121.596,121.7
121.6096,683.6
121.6134,79.4
121.6473,141.4
121.6503,119.9
121.6937,17.7
121.7729,119.3
121.8261,435
121.8305,109.1
121.8463,20.5
121.8534,109.5
121.8654,407.2
121.8858,85.3
121.9166,99.9
121.9398,171.1
121.9704,133.4
121.995,262.1
122.0474,16.2
122.0489,616.4
122.0896,134.3
122.1807,151
122.205,142.4
122.2113,149.7
122.2249,326.9
122.2437,419.1
122.2848,218.7
122.299,179.6
122.3028,275.4
122.3482,261.6
122.4102,17
122.4369,539.5
122.5321,92.8
122.6442,122.7
122.6633,79.1
122.7345,79.8
122.7562,88.5
122.8366,119.4
122.8719,73.2
122.9245,29103
122.9545,303.4
122.9739,57
123.0032,73
123.0504,366.1
123.0637,144.4
123.0724,205.9
123.0804,63.5
123.0916,71.4
123.1011,285.6
123.1169,523.4
123.1705,106.3
123.2017,18.1
123.2515,139.7
123.2833,374.2
123.3382,218.2
123.3472,121.6
123.3554,156.7
123.4387,282.6
123.4599,61.4
123.4758,104.3
123.4811,769.3
123.4879,128.1
123.5731,129.5
123.586,83.7
123.6094,18.2
123.6412,128.5
123.6596,114.8
123.7115,84.1
123.7136,647
123.7226,17.7
123.7304,136.8
123.736,19.1
123.8312,210.5
123.8381,104.8
123.8535,19.1
123.8785,494.7
123.9548,106.3
123.9903,214.4
124.0301,16.8
124.0342,592.3
124.0541,660.2
124.0961,407
124.1017,331.8
124.1148,111.9
124.1449,78.7
124.1526,84.9
124.1606,411.6
124.1831,280.7
124.2072,77
124.2294,249.3
124.2466,114.4
124.2894,17.7
124.321,72.6
124.3854,493.7
124.3929,481.5
124.4703,103.4
124.4977,630.4
124.6093,271.2
124.6133,205.3
124.6697,459.9
124.7547,128.8
124.7783,101.1
124.8255,22.4
124.836,135.2
124.9226,2536.9
124.9438,294.5
124.9487,376.9
124.9563,20.8
124.9843,395
124.9998,6132.1
125.0055,755.4
125.0389,222.5
125.0538,449
125.0596,29.9
125.0663,72.7
125.0906,410.3
125.0964,450
125.1075,79.4
125.1985,273.1
125.2068,299.6
125.2217,332.9
125.2395,114.6
125.258,90.6
125.2645,74.8
125.3346,76.3
125.4061,80.5
125.4254,563.1
125.4518,372.5
125.4662,103.2
125.4758,18.6
125.4962,73.7
125.5135,493.1
125.5268,98.1
125.5361,231.8
125.5606,74.4
125.607,16.3
125.7202,123.9
125.7251,135.3
125.8254,301
125.8359,109
125.8397,68.3
125.9085,125.2
125.9226,632.7
125.9865,245.1
125.9927,174.5
126,79.1
126.0089,21.7
126.0201,125.4
126.0298,308.4
126.049,472.4
126.1105,305.2
126.1313,257.7
126.1522,487.2
126.2041,94.5
126.2105,100.3
126.2164,335.4
126.2884,78.8
126.3084,18.1
126.3256,450.7
126.355,121.9
126.3895,99.4
126.4356,199.1
126.4809,503.1
126.4837,100.8
126.4969,164.7
126.5074,311.9
126.5253,115.6
126.5287,439.7
126.5685,97.4
126.5789,77.9
126.7091,22.2
126.7434,224.9
126.7673,585.2
126.8199,19
126.8296,277.3
126.9203,16.7
126.9707,17.9
126.9854,18.3
127.0098,81.5
127.0181,382.7
127.0222,19.7
127.043,18.7
127.0478,195.4
127.0551,197.6
127.1597,19
127.3895,329.2
127.4245,115.7
127.4272,97.3
127.4731,100
127.4864,321.1
127.5251,259.4
127.5267,124.2
127.566,19.9
127.7644,181.8
127.7907,448.1
127.8517,122.6
127.935,17
127.9698,70.1
128.0313,261.2
128.0351,148.5
128.0494,591.7
128.0551,101.2
128.0673,138.2
128.1105,192.7
128.1213,19.6
128.1412,162.1
128.1935,92.2
128.1982,300.6
128.2079,70.7
128.2285,267.7
128.2505,342.9
128.2527,149.4
128.3262,127
128.3615,195.6
128.374,200.9
128.4541,425.9
128.4926,313.6
128.5533,95.2
128.6765,85.9
128.6935,664.5
128.7377,345.4
128.7495,207
128.7721,335.2
128.7813,93
128.801,516.5
128.8724,202.2
128.874,105.6
128.876,90.4
128.8854,76.3
128.9097,65.8
128.922,104.9
128.9531,323.8
128.9638,206.7
128.9859,633.1
129.0033,658.4
129.0253,18.2
129.0699,21.2
129.1023,568
129.1047,520.1
129.1523,287.5
129.2275,296.4
129.2295,77.8
129.2707,436.7
129.2981,157.6
129.3672,280.5
129.3947,99
129.4303,181.1
129.5242,1315.5
129.5297,116.2
129.5616,19.5
129.5703,117
129.5883,89.4
129.5925,628.1
129.6095,264.9
129.6327,85.9
129.6338,18.4
129.6488,154.2
129.6989,374.2
129.703,62.3
129.7071,483.2
129.7616,271.1
129.7896,20.7
129.8153,89.9
129.8692,143.6
129.9372,552.2
129.9511,552.2
129.9587,53
130.0157,91.4
130.0249,71.7
130.0499,5592
130.081,318.3
130.1073,145.6
130.1352,415.1
130.1632,183.6
130.1835,390.3
130.1996,17.5
130.2141,170.9
130.2817,277.5
130.3438,499.8
130.3455,202.7
130.376,510.2
130.3786,22.5
130.4347,178.6
130.4977,155.4
130.5013,287.5
130.5264,103.4
130.5716,99.7
130.5806,17.6
130.6183,149.1
130.642,425.6
130.7626,71.2
130.7668,71
130.8026,376.1
130.8187,542.6
130.881,592.1
130.8875,17.6
130.9374,693.4
130.9421,101.3
130.9553,428.2
130.9899,312
131.0022,111.9
131.0089,76.3
131.01,65.4
131.0129,456.6
131.0152,390.9
131.0193,579.3
131.0256,129.2
131.0297,350.9
131.0488,21.2
131.057,16.3
131.0856,20.4
131.0875,197.8
131.2948,444
131.3525,750.7
131.3642,17.7
131.4048,154
131.4185,96
131.4622,109.3
131.4883,77.1
131.6323,86.3
131.6979,183.5
131.701,90.1
131.7096,603.8
131.7476,257.2
131.772,491
131.7871,143.8
131.8301,178.9
131.8853,102
131.8965,369.1
131.9188,564.7
132.0032,23855.2
132.0112,78.1
132.0606,124.5
132.0615,123.1
132.0656,90603.3
132.0737,146.4
132.1623,168.4
132.2363,17.4
132.2409,249
132.2433,87.8
132.2958,96.8
132.3314,130.9
132.3654,108.2
132.3797,123.5
132.4446,434.8
132.4519,114.2
132.4645,21.8
132.4868,432.7
132.4992,113.8
132.5185,95.8
132.545,449
132.5628,125.7
132.5692,352.6
132.5768,17.8
132.614,107.8
132.626,100.4
132.6317,18.5
132.6701,106.2
132.6883,74.7
132.7055,70.8
132.8284,419.6
132.8714,67.4
132.8832,72.7
132.8857,113.1
132.8956,82.8
132.9025,24.6
132.9102,20.7
132.9285,314.4
132.9582,190.8
132.9635,191.3
132.9695,24.5
132.9872,5210.4
133.0098,71.4
133.0174,230.6
133.0223,102
133.0514,71
133.0689,2556.3
133.086,19.5
133.0971,14529.6
133.101,118.7
133.1142,651.7
133.1379,258.3
133.1538,18.6
133.1605,294.5
133.1716,87.9
133.1902,74.8
133.1967,21.7
133.2318,133.2
133.2435,124.7
133.2543,303.9
133.2727,260.4
133.2891,110.9
133.3133,585.2
133.3301,130.3
133.4073,17.4
133.4506,109.4
133.4787,531
133.5113,448.2
133.5612,703.9
133.5805,17.5
133.6471,592.9
133.6789,100.1
133.6829,18
133.6995,137.7
133.7119,130.4
133.722,120.4
133.7949,564
133.8404,92.9
133.8974,20.1
133.8987,17.4
133.9397,298.6
133.9842,778.2
133.9909,389.5
134.0189,10198.2
134.0654,351.8
134.0927,348.2
134.2433,543.5
134.2857,392.7
134.2877,421.6
134.3435,470
134.3559,475.1
134.3696,170.9
134.3812,19.1
134.4434,564.9
134.4579,92
134.4628,360.6
134.5348,96
134.5527,99.1
134.7501,456.5
134.777,476.3
134.7926,179.7
134.8467,85.3
134.8631,571
134.8721,412.4
134.8922,162.9
134.9151,71.2
134.9237,272.2
134.9589,19.4
134.9772,141.1
134.9793,340.9
134.9891,56.6
134.9912,284
134.9964,29.4
135.0029,80087.9
135.0352,165.4
135.043,94.9
135.0534,330.1
135.0911,179.2
135.0969,704
135.1017,564.5
135.1167,28.1
135.141,106.7
135.2353,279.7
135.3104,265.2
135.3503,101.4
135.3642,17.9
135.3971,170.3
135.4361,101.1
135.4861,491
135.5099,236.9
135.5136,332.7
135.5201,134.7
135.5425,91.7
135.5854,77.9
135.6051,86.1
135.6257,270.4
135.6443,18.4
135.6824,293.9
135.6878,20.4
135.6958,17.9
135.7087,100.3
135.7366,106.5
135.7699,112.9
135.7927,310.6
135.8096,91.6
135.8514,591.2
135.8891,64.6
135.9771,3599.6
135.9789,460.3
136.0064,412
136.02,407.9
136.0337,296.4
136.0481,3066.9
136.0619,27.4
136.0757,9034
136.144,467
136.2136,438
136.2515,17.8
136.2946,208.8
136.3576,192.9
136.4009,689
136.4405,117.7
136.4609,20.6
136.4662,292.1
136.4671,690.4
136.501,111.3
136.5243,468.6
136.5533,121
136.5917,126.7
136.5958,68.9
136.6787,125.1
136.6981,17.9
136.7284,279.4
136.7583,90.7
136.8477,18.8
136.8677,116.1
136.8803,320.4
136.9311,1345.5
136.9378,435.7
136.9532,23.3
136.9845,19
137.0265,585
137.0582,426.3
137.0776,492.3
137.0804,163
137.0869,123.7
137.1096,193.9
137.1161,65.8
137.1845,705.1
137.1942,184.9
137.2044,86.8
137.2344,637.3
137.2745,116.8
137.2877,539.5
137.305,119.5
137.3412,483.7
137.4171,731.3
137.4235,559.6
137.4813,125.5
137.5015,478.5
137.5602,107.4
137.5693,694.6
137.6015,460.3
137.6682,112.3
137.7456,80.5
137.7555,125.1
137.7733,395.9
137.7954,78.5
137.806,353.1
137.8561,340.7
137.8648,280.9
137.8729,18.5
138.0266,93.3
138.0526,4147.8
138.0639,76.5
138.0663,41.7
138.124,179.3
138.1909,133.7
138.2688,18.5
138.2928,18.8
138.3354,25.5
138.345,155.9
138.3521,18.3
138.404,94.6
138.5193,103.9
138.572,202.6
138.5948,67.5
138.6115,81.9
138.6236,81.9
138.6717,93.5
138.6868,141.1
138.7153,134.3
138.7992,106.8
138.8292,25.5
138.8445,165.2
138.9065,2621.4
138.9449,264.4
138.9737,116.7
139.0182,150.8
139.024,389
139.0479,107.3
139.0721,95
139.0916,636.3
139.1025,159.9
139.1169,160
139.1309,326.2
139.152,126.4
139.1964,64.3
139.2479,248
139.2632,186.3
139.3476,85.4
139.3515,202
139.3635,339.4
139.4216,59.9
139.4484,218.2
139.4562,100.2
139.4583,117.6
139.4599,105.3
139.4926,674.4
139.5343,553.3
139.591,85.5
139.6749,561.1
139.6926,115.2
139.6951,360.1
139.7209,100.4
139.7678,515.5
139.8101,332.5
139.8196,70.2
139.8249,184.3
139.8741,445.8
139.9383,96.1
140.0063,360.5
140.0165,2736.2
140.0682,3204.4
140.0708,271
140.0716,401.5
140.0722,467.4
140.0994,78.1
140.1152,76.6
140.1973,112.8
140.2027,103.6
140.2247,94.8
140.2491,507.5
140.277,18.8
140.3017,78.3
140.3178,91.7
140.4056,73.6
140.4756,461
140.5082,65.3
140.5701,19
140.6451,649.5
140.6473,520
140.6727,660
140.7293,600.5
140.7399,183.1
140.7659,143.4
140.9036,2184.7
140.9183,90.4
140.9698,143.9
141.0005,17329.1
141.0181,314.9
141.0198,159.1
141.0418,102.2
141.0621,628.1
141.0654,20.5
141.0838,360.8
141.094,86.8
141.1029,526.6
141.114,122.3
141.1229,770.7
141.189,17.3
141.2014,169.6
141.2265,95
141.2511,180
141.3128,101.7
141.3199,115
141.3273,127.2
141.3875,428.4
141.4616,19.4
141.4727,93
141.4771,282.7
141.5362,106
141.6282,347.2
141.688,81.3
141.7809,107.7
141.809,471.1
141.8141,111.9
141.82,145.2
141.8376,683.9
141.8435,102.6
141.8579,232.8
141.9038,263.6
141.9065,426.4
141.9377,278.4
141.995,101
142.0003,21.8
142.0038,295.4
142.0121,67.2
142.0174,486.6
142.0315,72.4
142.065,163.4
142.1217,123.3
142.1366,111.2
142.2688,435.1
142.3117,118.3
142.3301,119.8
142.3357,115.1
142.4125,650
142.4345,97
142.4445,88.6
142.4691,399.9
142.4734,165.4
142.6402,292.9
142.6812,138
142.7353,106.1
142.7459,113.9
142.7675,474.6
142.8591,146.6
142.8821,106.4
142.9318,65.6
142.9385,333.3
142.9481,831.2
142.9759,246.8
142.9814,626.4
142.9964,488.7
143.0188,914.8
143.0348,19.4
143.0473,368.6
143.0625,71.7
143.0729,549.6
143.0773,309.8
143.0817,350.6
143.1051,231.1
143.1332,198
143.1745,430.5
143.2297,505.7
143.2549,432.3
143.2647,334.8
143.269,18.5
143.2763,103.3
143.3223,238.3
143.3801,266.1
143.4484,221.3
143.4533,144
143.5506,94.6
143.5523,102.8
143.7118,675.2
143.809,571.8
143.8304,85.7
143.858,265.9
143.9001,503.3
143.9807,76.2
143.9969,143.7
144.0106,420.1
144.081,18.3
144.1579,82.4
144.3598,577.8
144.3696,96.2
144.3924,124.4
144.4763,139.3
144.4844,614.5
144.5312,72.6
144.5542,180.7
144.5612,109.4
144.568,156.4
144.58,239.5
144.5831,19.8
144.6153,441.3
144.6874,124
144.7428,247.1
144.795,321
144.7966,17.7
144.9346,178
144.9808,1024.7
144.9979,130.3
145.0289,259.2
145.0639,75.3
145.0988,98.7
145.1179,180.9
145.1209,69
145.1368,460.7
145.2648,437.2
145.2696,281.6
145.3446,117.8
145.3546,258
145.3606,101.8
145.4187,459.1
145.4613,546.8
145.4624,390.4
145.5282,92.9
145.5439,101.1
145.5872,257.7
145.5916,20
145.597,288.8
145.6615,91.7
145.6713,252.2
145.6836,109.2
145.7295,285.8
145.7626,19.6
145.7894,252.7
145.8643,20.9
145.9304,96.5
145.9634,310.4
145.9703,22.1
145.9731,71.9
145.9757,429.4
145.9777,18.3
145.9797,185.9
145.9838,662
145.9921,344.4
146.0126,2187.7
146.0189,15575.7
146.0263,25.9
146.1992,438.7
146.3111,111.5
146.3305,123.7
146.3463,312.3
146.392,136.6
146.4227,210.3
146.5279,520.6
146.5285,652.6
146.5293,658.6
146.5809,121.1
146.644,142.5
146.7659,88.1
146.7699,529.9
146.8383,323.6
146.8878,19.4
146.9052,23.4
146.945,437.8
146.9487,77.6
146.9676,78.8
146.9743,17
146.9818,111144.8
147.0066,91
147.0115,354.8
147.0765,42381
147.1056,20.4
147.1128,20974
147.117,483.9
147.1315,387
147.1557,112.4
147.1704,396.7
147.3903,78
147.4261,111.3
147.4461,427.1
147.4502,92.3
147.4578,305.1
147.4774,303.9
147.5167,138.7
147.5345,81.9
147.5855,359.2
147.6352,299.6
147.6986,304.1
147.7662,259.4
147.7854,103.7
147.8272,275.1
147.8515,513.3
147.8641,545.4
147.8853,78.3
147.9237,410.6
147.9351,80.6
147.9954,486.8
148.0289,352.2
148.0346,512.2
148.0807,117.9
148.0904,107
148.1119,22.5
148.1378,223.3
148.1494,214.1
148.159,15.7
148.2097,131.1
148.2638,352.3
148.2662,91.1
148.2688,549.7
148.291,301
148.3585,361.6
148.3703,536.1
148.4125,550.5
148.4252,101.5
148.4918,114.7
148.4949,325.3
148.5145,271.5
148.5321,3865.4
148.5931,133.3
148.5946,73.7
148.5956,69.6
148.618,73.8
148.6217,18.4
148.6307,18.3
148.6418,106.3
148.6612,556.5
148.6616,547
148.6644,266.8
148.6851,17.2
148.7204,397
148.7424,115.6
148.7701,69
148.8565,668.7
148.8657,373.8
148.8676,20.3
148.9018,86.5
148.9353,375.3
148.9612,3330.1
148.9888,70.2
149.0025,62.2
149.0186,4148.4
149.0234,6081.5
149.0451,48.4
149.1326,20.3
149.1738,156.8
149.2085,117.8
149.2349,158.7
149.2941,75
149.3007,204.4
149.3613,540.4
149.3659,498.4
149.371,111.3
149.3866,497
149.4416,725.2
149.545,86.4
149.5833,18.8
149.5861,287.2
149.6787,93.6
149.6971,285
149.708,17.9
149.725,17.8
149.8349,20.2
149.8602,539.6
149.9047,107.3
149.9603,354.3
149.9611,359.6
149.962,345.2
149.9743,534.6
149.9929,6675.3
150.0138,7947.2
150.0236,218.5
150.0267,181.9
150.0512,18.6
150.0705,425.2
150.0923,135.4
150.1047,259
150.1665,456
150.2728,249.8
150.2783,79.6
150.2827,20.2
150.3483,417.6
150.3672,18.6
150.3801,183.8
150.4395,119
150.5041,205.4
150.5416,326.3
150.584,253.7
150.5961,83.6
150.6446,18.8
150.6554,18
150.7654,193.5
150.8163,284.9
150.9179,690.9
150.9415,116.4
150.9688,21
150.9769,48548.8
150.9841,2432.9
151.0479,926.2
151.0909,291.7
151.1805,127.5
151.2268,194.7
151.3185,21.2
151.3248,459.5
151.384,17
151.3898,538.9
151.3934,462.7
151.4198,85.9
151.485,438.6
151.626,80.9
151.6357,116.9
151.6922,17.6
151.7059,91.7
151.7449,20
151.8033,197.2
151.8116,411
151.8425,118.9
151.911,472.9
151.9136,235.6
151.9469,74.6
151.9617,69.7
151.98,375.5
151.9875,156.4
152.0222,5997.5
152.0319,1963.3
152.0513,283.9
152.0899,214.6
152.1444,141.7
152.2507,627
152.2551,430.3
152.294,17.2
152.3055,389.4
152.3217,140.4
152.3316,17.8
152.4183,74.5
152.4579,18.2
152.5051,94.5
152.672,70.2
152.7944,766.6
152.8966,92.1
152.9083,114.4
152.9102,773.3
152.9401,721
152.9641,885
152.9693,78.1
152.975,1674
153.007,122.7
153.0116,493.5
153.2418,733.1
153.2958,139.8
153.3051,279.9
153.3384,315.8
153.3806,75
153.4324,113.5
153.4616,118.8
153.4862,112.2
153.5048,285.3
153.5124,144.3
153.5468,20.8
153.579,882.6
153.7351,98.2
153.7408,19.3
153.7461,89
153.7895,121.4
153.8216,423.8
153.8353,92.1
153.8642,311.5
153.8714,134.8
153.9281,497
154.0111,939.8
154.0186,326.4
154.0523,98.6
154.059,693.9
154.0645,93.5
154.105,263.9
154.1327,95.9
154.2718,21
154.377,19.1
154.3892,317.2
154.4054,92.8
154.4146,97.5
154.4298,17.7
154.4373,647
154.4398,623.2
154.4675,343.3
154.4731,82.4
154.4828,407
154.486,104.8
154.616,190.1
154.7013,276.4
154.7344,515.4
154.767,89
154.7733,130.4
154.8517,573.4
154.878,344.4
154.9074,99.7
154.9416,1491.5
154.9694,328.9
155.0291,84.6
155.0428,836.3
155.0492,189.6
155.054,5124.5
155.0793,1368.5
155.0841,75.6
155.105,63.2
155.1107,478.7
155.1496,623.4
155.2046,403.2
155.3274,485.3
155.33,125.1
155.4098,90.6
155.4119,174.6
155.4145,80.6
155.4258,18
155.4631,436.6
155.4708,86.1
155.5076,89.3
155.5092,19.4
155.5118,467.8
155.5283,525.2
155.5326,20.1
155.5654,91.8
155.5795,66.3
155.6197,546.8
155.6248,21.1
155.6785,65.3
155.811,19.3
155.8666,188.1
155.8781,384.8
155.8901,687.1
155.9628,108.4
156.0064,207.5
156.0145,76.7
156.0422,3722
156.0574,89.1
156.0616,22.4
156.0768,31161.8
156.0793,337.4
156.114,116.1
156.2397,90
156.2914,68.1
156.3401,521.5
156.35,205.2
156.3604,91.2
156.4213,288.1
156.4999,166
156.5219,177.6
156.8314,133
156.8564,560.6
156.8681,467.2
156.8778,181
156.9745,30.4
157.0063,78.9
157.0189,88.1
157.0442,102
157.0633,247.5
157.0652,262.4
157.0972,157.8
157.1078,76.5
157.1579,22.2
157.191,109
157.2548,96.1
157.2845,398
157.3181,19.2
157.4219,273.6
157.4623,266.9
157.5157,20.7
157.5191,327.7
157.5354,110.8
157.5702,19.5
157.5877,357
157.6395,595.9
157.6532,188.6
157.6707,140.2
157.6814,68.7
157.7375,114.7
157.7496,487.3
157.7559,181.4
157.978,463.7
157.9953,103.1
158.0126,94.5
158.0177,23.8
158.0201,619.4
158.0239,305.7
158.0271,3528.8
158.0495,234.8
158.1858,532.6
158.2573,148.6
158.3428,351
158.4789,554.4
158.5088,91
158.5695,191.9
158.7037,78.7
158.8834,27.7
158.9276,918.8
158.9597,18.9
158.9642,13730.9
158.982,631
158.9966,4521.2
159.0305,83.1
159.0506,386.2
159.0585,255.2
159.0713,91.2
159.1032,143.4
159.1156,84.1
159.2872,87.9
159.289,88.2
159.3398,149.5
159.349,79.8
159.3699,145.7
159.3779,194.3
159.4173,467.9
159.4224,149.7
159.4303,690.8
159.4438,182.4
159.4521,266.2
159.5073,535.7
159.5488,84.5
159.6445,20.4
159.6568,463.7
159.6783,19.9
159.7095,75.3
159.7345,268.2
159.7417,98.2
159.8116,95.8
159.8256,313.5
159.8329,94.7
159.8806,19.2
159.8864,156.7
159.9095,75.7
159.9189,461.6
159.9676,105.2
159.9811,77
160.0147,112.4
160.02,16.5
160.0237,296.9
160.0346,10403.2
160.0376,98
160.0606,102253.5
160.0774,90.1
160.1556,103.5
160.1754,120.2
160.2163,183.4
160.2171,204.5
160.2923,107.7
160.3427,265.3
160.3727,18.7
160.3873,81.9
160.4071,642.7
160.4096,22.4
160.4401,456.1
160.4598,208
160.4797,18.7
160.495,22.4
160.5145,131.8
160.5951,17.9
160.6507,129.1
160.663,536.2
160.7217,463.6
160.7363,160.4
160.7863,99.8
160.8346,98.7
160.9489,458.9
160.9921,60.3
161.0523,89.8
161.064,4521.4
161.0957,101.7
161.1285,2806.9
161.1342,466.3
161.1469,317.6
161.1566,21.5
161.3403,175.1
161.5009,417.6
161.5122,126.7
161.6309,147.2
161.6523,452.6
161.6548,87
161.675,80
161.6974,101.5
161.7178,19.5
161.7388,605.1
161.7537,18.2
161.8685,88.1
161.893,127.8
161.9095,713.8
161.9769,475.7
161.9845,20
161.9884,185.9
162.0503,15738
162.0547,89.3
162.1124,247
162.117,95.5
162.122,139.6
162.1528,479.4
162.1816,80.9
162.2621,353.7
162.2965,272.9
162.3242,300.4
162.3656,19.1
162.3736,104.3
162.3831,111.5
162.4426,331
162.4824,244.5
162.4904,153.2
162.5423,363.1
162.5613,17
162.5654,100.3
162.5724,103.7
162.5945,83.9
162.6287,144.6
162.6414,541.8
162.6536,619.4
162.6727,79.1
162.7055,68.8
162.7248,465.4
162.7268,80.9
162.7689,25
162.8777,26.8
162.9467,576.3
162.9559,3600.7
162.9705,312.7
163.0156,2441.2
163.0302,277.1
163.0459,106.9
163.0648,389.4
163.1228,92
163.35,413.6
163.3941,109.3
163.4327,243.8
163.448,139.3
163.4985,117.4
163.5488,561.7
163.6185,125.6
163.6254,82.6
163.6446,467.5
163.6471,158.2
163.6514,99.9
163.6545,151.9
163.6665,184
163.675,19.2
163.6987,17.5
163.7085,297.3
163.7181,88.7
163.8266,98.5
163.8818,18.2
163.9379,148.9
164.0232,171.1
164.0296,16356.1
164.1295,106.4
164.1447,424
164.1844,72.4
164.2357,194.7
164.257,73.1
164.27,18.9
164.3124,422
164.4205,96.6
164.4832,499.2
164.5182,177
164.5576,18.6
164.5793,281.3
164.5879,465.5
164.5927,248
164.6552,478.4
164.671,17.2
164.7499,93
164.806,290
164.8997,775
164.9207,4307.4
164.9253,106.1
164.9301,20706
164.9352,3848
164.9458,100.6
164.9926,1375.7
164.9954,86.5
164.9999,238.2
165.0092,316.1
165.0822,310.4
165.0911,976
165.1402,286.1
165.1563,342.5
165.1731,583.8
165.1894,533
165.1959,115.2
165.202,99.4
165.2665,89.6
165.3895,448.6
165.4831,297.5
165.4946,20.6
165.5028,18.6
165.5535,197.8
165.5599,103.6
165.5677,172.9
165.5945,86.7
165.6906,268.4
165.6931,108.2
165.7827,20.3
165.8271,490.9
165.8344,248.7
165.8432,114.9
165.8599,379.9
165.9335,111.2
165.9668,1703.4
165.9878,6246.1
165.9951,925.7
166.0589,85
166.076,75.4
166.1987,86.3
166.2502,173.4
166.2874,204.3
166.409,404.1
166.4261,458.4
166.4668,258.8
166.4696,278.7
166.4905,102.9
166.5627,96.3
166.582,19.6
166.5913,828.4
166.6033,106.4
166.7271,530
166.7449,19.3
166.8973,80.3
166.9168,282.7
166.9509,21264.4
166.9616,163.5
166.9901,463.6
166.9987,19.4
167.0219,5471.5
167.0614,132.7
167.0678,341.8
167.0852,328.3
167.1047,113.8
167.1382,17.4
167.1976,119.3
167.2448,67.3
167.3685,159
167.4994,613.6
167.5057,289.2
167.5125,78.9
167.5717,513.2
167.5929,18.3
167.603,534.4
167.644,634.2
167.6689,86.9
167.7921,124
167.8992,485.4
167.9099,81.2
167.9946,1742.6
168.0058,989.9
168.0476,182.8
168.1059,434.2
168.13,78.2
168.1983,103.5
168.2536,93.4
168.3999,82.2
168.444,18.1
168.4696,439.6
168.5076,109.7
168.5676,372.4
168.6027,79
168.6292,321.4
168.644,67.5
168.6473,121.8
168.6502,108.2
168.656,507.9
168.707,473.7
168.7131,122.6
168.7795,313.8
168.8042,440.5
168.9253,54.5
168.9375,55.9
168.949,1887
168.9597,80
168.9692,103.8
168.9825,621.9
168.9928,106.5
169.0446,90.8
169.0585,37974.1
169.0667,216.8
169.0746,131.3
169.0948,957.2
169.179,104.7
169.2657,580.4
169.3102,246.5
169.3217,297.3
169.3371,78.8
169.3691,19.8
169.3902,75.8
169.3978,64
169.4008,299.7
169.4154,200.3
169.4249,18.8
169.4362,765.5
169.5162,176.5
169.5269,114.5
169.5667,88.8
169.5753,18.5
169.5997,99.7
169.6296,302.1
169.6637,70.3
169.6746,17.6
169.6983,124
169.7071,468.8
169.7578,179.6
169.7931,19.6
169.8092,119.7
169.8128,472.8
169.8506,251
169.8636,549.4
169.9542,116.3
169.9857,1019.9
170.0328,1988.6
170.0498,294.7
170.0617,887.6
170.0873,307.1
170.0925,8156.1
170.1049,119.7
170.112,17.8
170.1439,459.8
170.1565,169.8
170.164,388.1
170.37,124.6
170.4468,250.1
170.4515,417.2
170.5342,113.2
170.5538,20.4
170.5796,685.5
170.6045,200.4
170.6077,717.5
170.739,109
170.7655,296.9
170.8287,173.5
170.8546,6144.6
170.8651,321.2
170.9142,93.5
171.0003,112
171.0025,19.3
171.0168,2353.8
171.0215,21.3
171.028,299.6
171.0346,330.4
171.0529,411.4
171.0805,222.9
171.1394,294.6
171.161,112.2
171.2977,293.9
171.3039,118
171.3093,81.3
171.3107,81.1
171.3573,93.2
171.3779,68.8
171.3916,688.2
171.4155,456.3
171.4483,99.4
171.4547,88.2
171.5025,315
171.545,114.3
171.5749,307.4
171.6101,19.7
171.6198,90.7
171.6405,75.1
171.6448,106.5
171.6765,540.5
171.8025,104
171.8598,103
171.9756,355.7
172.0284,479.4
172.0308,304.2
172.1013,111.2
172.1757,320.3
172.181,82.1
172.1956,170.2
172.2119,18.2
172.3229,200.4
172.3493,15.9
172.353,98.2
172.3831,127.1
172.4778,77.1
172.4936,24.4
172.5357,83.6
172.5515,222.3
172.5783,97.9
172.6059,164.4
172.6689,254.5
172.672,195.2
172.6783,99.4
172.71,304.3
172.7289,316.9
172.747,114.8
172.8119,214.8
172.8516,2530.8
172.9523,21.7
172.9672,763.3
173.0268,258.9
173.03,525.3
173.071,70.2
173.0942,296.9
173.0964,168.2
173.2311,274.7
173.2719,67.3
173.2866,242.7
173.3183,20.7
173.3863,288.5
173.447,467.2
173.5084,550.4
173.5279,119.5
173.6399,102.4
173.6465,127.8
173.6642,487
173.6701,70.9
173.7206,101.3
173.7385,514.1
173.8054,19.1
173.8094,871
173.8701,26.7
173.9947,128
174.0008,26.8
174.093,78.1
174.173,290.3
174.1773,69.6
174.1838,17.5
174.3411,422.5
174.391,415.7
174.4079,549.8
174.4357,507.7
174.4642,539.8
174.5286,88.2
174.5386,93.5
174.5488,20.8
174.6562,89
174.7053,108.5
174.7809,353.7
174.7923,217.9
174.8044,17.8
174.8281,93.7
174.8897,100.3
174.9003,89.7
174.9157,137.5
174.9382,7337.8
174.9412,266.3
174.9526,480.6
174.9883,121.7
174.9924,146.1
175.0089,445.5
175.0158,20.2
175.0204,21.8
175.0343,6860.9
175.0456,1553.8
175.0678,18.1
175.1191,73533.2
175.2507,105.9
175.365,89.6
175.3812,93.1
175.4583,578.6
175.4718,17.8
175.4901,224
175.5218,448.4
175.5912,321.3
175.6296,394.9
175.6514,454.2
175.6681,19.7
175.7383,587.6
175.7663,17
175.8713,19.6
175.8926,76.5
175.9247,324.1
175.9495,78.3
176.0086,4779.3
176.066,22896.3
176.1031,292.8
176.1176,157.3
176.1224,1288.4
176.1917,281.9
176.22,18.1
176.2779,95.1
176.3211,442.6
176.3946,118
176.4354,23.1
176.584,20.4
176.5886,97.4
176.7537,78.5
176.7641,536.4
176.7872,443.1
176.7973,17
176.8457,113.3
176.8799,340.7
176.8888,18.2
176.894,148.8
176.917,114.6
176.9371,70.7
176.9698,71.7
176.9927,1712.8
177.0088,74.7
177.0133,110
177.0248,4663.8
177.0382,73
177.0612,10671.3
177.0712,149.9
177.0873,651.3
177.1109,146.3
177.1662,348.4
177.238,94.2
177.3255,81.9
177.3455,18
177.3711,121.2
177.3846,475.7
177.5272,140.6
177.5291,156
177.5624,546.4
177.5858,191.3
177.5898,94.3
177.6194,231
177.7977,126.3
177.9712,99.1
178.0089,8726.8
178.0163,16.9
178.0243,7641
178.0344,22.1
178.0392,438.5
178.0438,72.8
178.052,198.5
178.0589,3587.1
178.0702,90.2
178.0863,78.3
178.0908,291.9
178.1329,92.4
178.2528,85.1
178.3032,328
178.3523,18.6
178.3847,286.3
178.4167,274.5
178.462,60.6
178.5611,88.7
178.6135,99.4
178.6406,120.9
178.6607,78.9
178.7735,247.3
178.8977,76.6
178.9219,22.2
178.9538,19.8
178.9651,524
179.0029,98.3
179.0552,18.6
179.0644,123.5
179.1055,833.7
179.1895,116.9
179.2021,17.4
179.2414,76.6
179.3002,23.3
179.3904,306.8
179.4538,497.2
179.4747,301.7
179.481,224.8
179.4929,166.2
179.5586,696.3
179.6105,109.7
179.6237,409.7
179.7183,19.7
179.7523,618.6
179.9843,18
180.0036,9980.7
180.0116,31.9
180.2193,112
180.3824,608.3
180.4205,101.2
180.4699,157.9
180.6268,120.7
180.6412,95
180.6562,658.6
180.6709,111.9
180.6916,80
180.7913,214.5
180.8308,251.5
180.8326,17.4
180.8393,451.8
180.8764,136.5
180.8884,198.2
180.8947,2212.7
180.9041,12165.9
180.9575,473
180.9732,430.7
180.9837,192.4
181.0316,18.7
181.0531,125.3
181.0651,5063.7
181.1925,110.3
181.259,107.4
181.281,122.4
181.3519,122.8
181.4079,431.4
181.463,99.4
181.477,342.3
181.5142,74.5
181.6115,303.1
181.6162,90
181.6906,97.3
181.735,85.1
181.7644,74.8
181.8351,205.5
181.8781,320.9
181.9091,290
181.9203,83.5
181.9516,796
181.9619,320.6
181.9753,87.4
182.0127,119.9
182.0426,25526.1
182.0665,686.2
182.1022,355.4
182.1494,21.3
182.1705,84.7
182.1965,106.7
182.3369,86.7
182.3438,223.9
182.3546,281
182.3774,303
182.4652,221.5
182.574,20.3
182.6008,452.6
182.6371,110.6
182.7612,187.1
182.833,84.2
182.8905,17.2
182.9022,349.3
182.9485,95.6
183.0445,1279.2
183.0761,87.7
183.0784,429
183.0982,101.4
183.1789,246.5
183.2108,114.8
183.2332,93.9
183.3324,126.2
183.4021,298.5
183.4385,87.9
183.4804,123.9
183.5376,198.1
183.596,301.5
183.6127,317.5
183.6504,69.9
183.6551,673.9
183.7339,371.5
183.8206,569.3
183.824,81.9
183.8433,17.3
183.8928,487.8
183.957,84
183.9648,1327.2
183.9931,421.5
184.0008,126.9
184.0287,300.6
184.0373,2274.2
184.0577,411
184.0657,1492.2
184.0681,1534
184.0735,4251043
184.0821,532.3
184.1098,2718.5
184.1251,19.9
184.1363,16.7
184.1471,153.8
184.1605,512.5
184.167,71.5
184.1822,1828.6
184.3604,104.4
184.6375,164.9
184.7162,200.7
184.7461,408.3
184.8285,113
184.8672,95.8
185.0325,50552.7
185.0372,23.2
185.0705,9704.7
185.0769,204667.8
185.0796,3825.6
185.1043,549.2
185.1155,307.2
185.3091,187.5
185.3557,266.5
185.3625,275.4
185.3849,284.5
185.4016,18.2
185.4131,258.8
185.4422,23.1
185.6199,319
185.8184,63.7
185.8395,24.2
185.9414,18.9
185.9447,465.8
185.9598,1633.9
185.9992,324.6
186.0357,667.4
186.0422,113.3
186.045,37
186.0596,18
186.0778,28235.5
186.2065,265.9
186.2144,111
186.2294,558.8
186.2463,19.3
186.265,669.8
186.3035,360.6
186.3092,652.2
186.3802,20
186.4088,82.5
186.4403,18.1
186.4968,18.2
186.5114,18.1
186.542,97.6
186.6447,845
186.7075,155.1
186.739,106.5
186.7898,102
186.8286,313.5
186.8526,683.4
186.9122,4404.9
186.9235,17.6
186.9722,69.1
187.0306,1412.3
187.046,114.1
187.0579,6477.5
187.0716,2207
187.1075,492.1
187.2461,136
187.3763,484.3
187.3976,125.8
187.4131,266.4
187.4784,18.1
187.4812,85.9
187.5067,214.2
187.5808,501.7
187.6237,522.6
187.6317,443.3
187.6947,94.5
187.7533,92.5
187.81,71.7
187.8781,68
187.9225,20.8
187.9755,334.2
187.9875,273.5
188.0138,512.6
188.0318,683
188.0388,20.5
188.0597,78.7
188.1687,18.3
188.2464,93.8
188.2588,110.8
188.2654,466.6
188.323,164.1
188.34,18
188.433,287.4
188.4786,545
188.5114,96.2
188.6508,127.7
188.7015,75
188.7251,171.4
188.7646,113.5
188.855,71.3
188.8581,100.9
188.8889,232.5
188.8914,468.8
188.9194,604.3
188.9449,942.6
188.9864,113.5
189.0212,26
189.0613,2681
189.0788,635.7
189.0872,5732.9
189.1473,88.6
189.2096,412.3
189.2847,101.7
189.4671,547.3
189.5365,469.4
189.7219,248.5
189.7711,75.3
189.9424,98.3
189.9916,111.2
189.996,467.1
190.0273,86.4
190.0969,191.6
190.134,201.5
190.3038,259.1
190.3089,509.4
190.3118,316.8
190.3729,18.5
190.4855,96.1
190.5119,86.7
190.6335,127.1
190.6772,250.3
190.7633,73.9
190.8205,362.5
190.8636,126.4
190.8727,124.3
190.8846,149.9
190.9121,2360.6
190.9316,327.6
190.9395,133.5
190.9445,74.6
191.0003,89
191.0083,6475.5
191.0405,145623.8
191.0769,23199.3
191.1204,284.4
191.1869,465.5
191.2455,356.4
191.2529,548.3
191.3058,214.4
191.3686,71.7
191.3787,20.3
191.4453,190
191.4583,137.1
191.5186,87.9
191.5953,115.7
191.6944,120.8
191.697,499.1
191.7697,70.9
191.8742,297.4
191.9705,121
191.9826,495.9
192.0147,358.2
192.0399,11359.3
192.0439,4737.1
192.0544,74.6
192.1182,81.9
192.2612,62
192.3169,362.4
192.3208,81.9
192.3316,651.7
192.3498,134.9
192.3693,304.3
192.3787,18.9
192.4047,99.2
192.4303,81.1
192.5853,217.1
192.7136,20.5
192.7791,823.8
192.9044,208.9
192.9104,644.3
192.9798,82.1
192.9912,186.9
192.9959,21.2
192.9988,5075.4
193.0161,53.3
193.0353,4781.3
193.0432,292.9
193.0674,99.6
193.0757,191.1
193.1337,106.2
193.188,93
193.23,186.7
193.5035,143.9
193.5393,81.3
193.6357,514.2
193.6483,729.2
193.6754,526.9
193.7126,86.1
193.8377,204
193.8565,598.8
193.9162,176.3
193.9983,1458.7
194.0053,123.6
194.033,1446.9
194.0352,20.9
194.0991,21.6
194.1078,76
194.1553,522.4
194.2006,185.9
194.2715,17.6
194.3257,429.8
194.3326,608.6
194.4118,438.9
194.4633,284.1
194.4753,282.5
194.5129,488.1
194.5938,252.1
194.639,147.7
194.6742,311.2
194.8595,184
194.9049,113.9
194.9312,188.8
194.938,17.1
194.9713,17.5
195.0043,72.3
195.0443,86
195.0582,699.4
195.117,107
195.1854,16.5
195.188,135.2
195.1956,97.7
195.2272,19.7
195.2364,102.8
195.2619,477.5
195.2862,321.7
195.3045,123.7
195.323,168.8
195.3779,168.3
195.4128,77.6
195.4518,273
195.4724,17.7
195.579,77.5
195.6601,196.9
195.7086,18.1
195.7233,379.3
195.7261,191.2
195.7381,207.4
195.7802,120.4
195.7841,320.9
195.8077,18.3
195.8122,285.8
195.8189,315.3
195.9537,109.3
195.956,425.2
195.9776,759.6
196.0232,374.4
196.0475,161
196.0684,17.8
196.0783,417
196.1698,255.2
196.2302,22.5
196.4266,477.9
196.5682,290.3
196.5938,360.1
196.6269,618.4
196.7374,96.4
196.7524,67.6
196.8097,19.2
196.8653,6889.3
196.8686,353
196.8781,1952
196.9171,70.3
196.9326,131.4
196.9746,19.2
197.0397,17.9
197.0781,571.6
197.1014,524.7
197.1731,22.3
197.1805,18.5
197.1836,348.9
197.1953,208.2
197.2419,87.2
197.2763,153.5
197.3129,380.4
197.3338,80.1
197.3802,22
197.4186,79.8
197.444,316.5
197.5078,109.2
197.5676,439.5
197.6093,101
197.6663,640.2
197.8912,328.1
197.9013,101.7
197.907,128.7
197.9196,135.2
197.9301,17.4
197.9434,177.6
198.0284,285.8
198.0347,79.6
198.0373,201.6
198.0852,4281.2
198.088,87.1
198.1171,129
198.141,78.6
198.1671,80.3
198.1855,5473
198.2165,19.4
198.2255,89.9
198.2988,63.8
198.4641,284.1
198.5519,130.4
198.6088,301.3
198.6989,324
198.7467,19.1
198.7583,98.6
198.7625,160.3
198.8398,430.3
198.8624,8498.1
198.9456,503.8
198.9681,503.8
198.9738,39.5
198.9813,234.5
199.0165,41.8
199.0324,107.7
199.0406,102.8
199.0691,1027.6
199.0757,1394.9
199.0805,104.6
199.0884,460.5
199.1058,483.1
199.1507,98
199.1888,229.7
199.2024,19.4
199.2384,300.2
199.2583,344.2
199.3959,20.7
199.4017,113
199.4537,83.4
199.5868,80.2
199.6143,356.4
199.7383,162.3
199.7394,166.6
199.7504,88.6
199.8481,20.1
199.8872,18.8
199.9172,80.4
199.9661,22.6
199.9909,26495.7
200.018,610.7
200.0409,17667.8
200.0598,320.8
200.068,5486.4
200.0733,90.5
200.0939,352.2
200.1504,102.3
200.299,18.5
200.4038,459.8
200.4413,17.2
200.4707,660.9
200.5621,130.3
200.5754,166.8
200.6117,92.9
200.6616,108.8
200.6704,114.2
200.7048,78.7
200.7912,431.9
200.8596,1275.5
200.8945,529.2
201.0065,132.1
201.0217,577.9
201.0872,371.3
201.1334,19
201.1535,95.6
201.2179,491.4
201.2244,17.8
201.2403,261.2
201.2445,526.7
201.3414,156.4
201.3521,492.7
201.4536,19.7
201.4585,85.2
201.6252,719.5
201.6594,95.9
201.669,151.2
201.7472,285.3
201.806,323.7
201.865,51
201.8943,25.5
201.9959,48.5
202.0474,635.6
202.0861,87.2
202.1369,91.2
202.1996,354.9
202.2326,275.1
202.2827,18
202.2884,72.7
202.2968,76
202.3668,83.1
202.4204,96.2
202.4505,12028
202.459,79.4
202.4776,209.8
202.5323,25.9
202.5972,77.9
202.6425,214.1
202.6581,295.3
202.7262,350
202.7322,80.7
202.7453,72.9
202.7511,318.5
202.8861,770
202.8957,19.1
202.9958,20
203.032,2869.8
203.0528,961048.6
203.077,7344.5
203.0895,70.4
203.1029,76.1
203.1791,133.7
203.2159,416.5
203.2308,153.2
203.2365,575.8
203.2741,137.5
203.3013,174.8
203.3308,236
203.4968,80
203.6788,132.7
203.6938,452.5
203.7715,190.8
203.7932,176.7
203.8169,91.4
203.9035,161.2
203.9452,109.8
204.0038,85.1
204.0246,32827.4
204.0562,51029.7
204.0869,132
204.1678,270
204.206,202.6
204.2838,640.7
204.3218,65
204.3447,93.1
204.407,195.1
204.464,423
204.5198,300.8
204.634,124.4
204.6805,21
204.7606,199.3
204.7828,73.2
204.7998,657.7
204.8642,175.4
204.8889,936.5
204.9408,182.3
204.9573,475.5
204.994,655
205.0571,5963.2
205.0837,134.3
205.1186,71.8
205.1301,100.7
205.1935,488.5
205.3159,531.5
205.3343,20.2
205.4831,254.5
205.6852,110
205.7039,198.6
205.8685,21.9
205.8891,18.5
205.9137,319.1
205.9448,455.1
205.9717,316
206.0476,47.6
206.1049,563.2
206.1536,227.7
206.2169,290.3
206.2594,149
206.3549,105.5
206.3774,199.3
206.4184,152.6
206.4346,131.3
206.7722,94.6
206.7875,176.3
206.7913,149.5
206.8732,144
206.8879,68.1
206.8942,21693.5
206.9171,176.9
206.9307,107.5
206.9463,281.2
206.9825,1537.1
206.9982,24.9
207.0145,93963
207.0444,811.5
207.0509,9025.3
207.0731,343.1
207.2028,115.6
207.2063,21.4
207.2559,273.1
207.3879,302.7
207.3978,20.3
207.4219,17.8
207.4261,297.6
207.4825,454
207.5869,109.1
207.5901,343.4
207.6445,17.1
207.7221,19.4
207.7421,90.2
207.8365,72.7
207.8816,89.4
207.8876,101.8
207.9247,106.4
207.9601,65
207.991,319.1
208.0139,2183
208.0179,3351.1
208.1854,22.3
208.4594,108.8
208.4702,455.5
208.5135,117.8
208.8231,141
208.8539,126
208.8712,97
208.8834,439.6
208.8912,14016.4
208.9547,21.8
208.9976,261.6
209.0091,778.6
209.0126,2731.4
209.1661,114.7
209.3612,95.2
209.3831,129.6
209.4495,17.7
209.4524,544
210.001,21.9
210.7275,17.2
210.7652,97.3
210.7988,105.4
210.8026,205
210.8227,100.4
210.8306,557.3
210.8882,770.2
210.8924,101.9
210.948,25.8
211.0258,296.2
211.0534,339.2
211.0565,253
211.0695,196.1
211.0901,764.8
211.1215,107.2
211.1253,614.5
211.1317,6386.8
211.134,4606.2
211.1395,14422
211.1438,26157.7
211.1468,25673.8
211.1493,27926.2
211.1596,626.5
211.1666,359.7
211.1736,401.6
211.2589,130.3
211.4305,74.1
211.4938,126.4
211.6978,80.9
211.7929,22.5
211.9156,141.2
211.9462,24.7
211.959,41.4
212.0246,75.2
212.0373,199.4
212.0743,62.4
212.1684,19.3
212.1699,20.9
212.1711,18.7
212.1967,193.6
212.3493,108.2
212.3681,66.5
212.3861,21
212.4226,183.3
212.458,61.4
212.5604,189
212.5802,117.5
212.6013,110
212.6662,128.6
212.7144,297.2
212.8394,3291.6
212.9658,22.5
213.0365,581.7
213.0562,896.6
213.0749,591.1
213.0889,17.2
213.2566,363.9
213.3306,194.5
213.3741,262.8
213.522,184.7
213.739,87.3
213.7699,177.5
213.8197,18.4
213.823,373.5
213.8425,329.5
213.877,345.4
213.9399,110
213.9622,1276.8
213.9848,358.2
214.0065,381.2
214.0263,129.8
214.0279,147
214.0591,7730.5
214.0899,855.9
214.1436,106.6
214.213,193.5
214.3617,94.7
214.3841,417.4
214.4106,340.1
214.4302,707.5
214.5691,292.2
214.606,209.7
214.733,421
214.7396,131.6
214.8362,3889.3
214.8735,53
214.8929,632.5
214.9101,71.8
214.9178,1308.1
214.9654,22.8
214.9773,292
215.0341,88
215.053,248.7
215.0925,438.1
215.1114,111.5
215.1142,90.5
215.1184,112.3
215.1985,261.1
215.2245,313
215.234,138.6
215.2836,119.8
215.3684,426.1
215.4717,312.2
215.5249,213.7
215.5732,167.7
215.5846,316.4
215.593,534.1
215.6172,18.8
215.6873,109.9
215.7527,501.5
215.8708,188.9
215.9113,604.8
215.9287,433.4
215.9652,207.1
216.0149,10728.9
216.1894,85.6
216.2189,99.3
216.2462,117.5
216.2658,376.3
216.2806,375.6
216.3153,599.7
216.4203,172.4
216.4881,285.7
216.6333,381.3
216.6935,100
216.8308,532.5
216.8766,429.7
216.8904,624.7
216.923,59536.2
217.0101,151.8
217.0184,21.3
217.029,670.8
217.0826,116.6
217.1081,183.4
217.1307,91.8
217.2257,340.8
217.286,205
217.2999,70.1
217.3128,323.3
217.3313,101.4
217.5929,302.2
217.8567,252.7
217.8692,291.8
217.8795,116.9
217.9093,266.6
217.9267,553.2
217.9371,100.6
218.007,24.2
218.0106,81.1
218.0221,241
218.0466,114.8
218.1339,226.2
218.1516,25.1
218.1919,73.4
218.2739,17.6
218.2892,20.3
218.3025,708.1
218.3591,87.7
218.3789,476.2
218.4144,403.9
218.4665,168.3
218.5761,485.7
218.6372,75.2
218.7182,17.7
218.8677,75.7
218.9046,409.4
218.92,18397.4
218.9466,690.6
219.0268,1152986.3
219.0478,26
219.0538,93.4
219.0831,11572.5
219.096,493.5
219.1264,464.7
219.1343,230.3
219.1373,251.9
219.1663,21.7
219.4249,486
219.4632,115.1
219.4701,219.1
219.5256,79.9
219.531,601.2
219.5483,104.2
219.556,17.3
219.5938,22.1
219.7719,112.1
219.842,571.9
219.8453,77.8
219.8691,17.5
219.8763,346.2
219.8891,210.3
219.9042,23
219.9446,94.6
219.9988,366.2
220.006,21.9
220.0302,58873.2
220.0373,817.7
220.0537,18.2
220.0672,10065.3
220.0721,308
220.1446,486.2
220.1676,772.2
220.2365,267
220.3178,74.2
220.6287,107.8
220.716,80
220.7525,488.8
220.85,108.7
220.8702,181.7
220.8841,26.7
220.9045,18.4
220.9231,484.8
220.9347,942
220.9729,128.3
221.0249,73361.2
221.0311,8683.3
221.0513,1321.7
221.0847,189.8
221.0878,123.9
221.1127,473.2
221.1183,179.2
221.1922,94.2
221.2114,81.8
221.3461,477
221.3615,22.3
221.5059,119.5
221.6873,99.3
221.7224,499.4
221.7724,295.6
221.8355,148.1
221.8401,111
221.8957,451.1
221.9565,255.1
221.984,652.6
221.9952,19.2
222.0067,80.6
222.0283,1623.1
222.0902,212.1
222.1521,74.4
222.2496,253.2
222.347,107.2
222.3865,137.4
222.4162,20.3
222.5709,73
222.6104,294.3
222.7083,514
222.7193,585.4
222.7535,116.2
222.8523,96.7
222.8681,20679.1
222.8798,1385.8
222.8888,786.6
222.899,141.5
222.9077,486.6
222.9211,192.5
222.9414,145.2
222.9543,472.9
222.9726,19.1
222.9885,10242.8
223.0249,1329.7
223.0294,481.9
223.0909,505.8
223.2713,91.8
223.2953,247.1
223.3108,118.2
223.4003,492.5
223.4226,100.4
223.4299,113.4
223.4801,575.2
223.7453,84.8
223.8019,170.5
223.8977,19.5
223.9207,278.9
224.0298,6388.9
224.1422,673.3
224.2494,691.7
224.3121,467.8
224.3247,1010.4
224.3556,94.4
224.4162,18
224.4535,494.3
224.5086,260.3
224.5251,562.8
224.5348,392.9
224.5905,488
224.6834,124.1
224.6886,321
224.7293,409.7
224.8651,13148.6
224.9276,67.2
224.9571,160.3
224.9865,1053.1
225.055,15259.6
225.0758,22.1
225.086,101.3
225.102,19.2
225.2215,114
225.2599,19.8
225.3764,160.9
225.4773,706.8
225.4872,105.9
225.5093,201.8
225.5159,62.9
225.7753,499.7
225.8339,284.6
225.8493,107.2
225.8839,152.7
225.9244,350.1
225.9523,55.5
226.0018,89.9
226.0066,2033.8
226.0244,7505.9
226.0453,8658.8
226.0578,392
226.1058,18.6
226.262,253.1
226.3063,75.9
226.4053,120
226.4746,18.5
226.4882,114.1
226.5495,288.6
226.5792,88.5
226.6739,109.7
226.6834,75.7
226.79,375.5
226.8623,484.7
226.9447,17.4
226.9518,57416
227.0344,340
227.0748,83.7
227.0794,1386.9
227.0868,285.6
227.1649,198.3
227.2046,20.6
227.2532,594.1
227.2844,361.7
227.4606,322.6
227.4735,475.5
227.5172,19.2
227.5672,336.3
227.5898,94
227.6004,169.1
227.6213,131.8
227.7298,72
227.7988,16.9
227.9553,1750.6
227.9619,181.2
228.0006,266.9
228.0235,76.8
228.0567,470.3
228.1666,759.4
228.2187,322.8
228.2989,100.8
228.3172,86.4
228.7305,439.6
228.7861,18.5
228.8281,90.4
228.8324,122.2
228.9249,231.8
228.9601,91.5
229.0198,387
229.0475,193.6
229.0555,81
229.0666,114.9
229.1189,315.2
229.1759,65
229.2279,136.1
229.2962,119.9
229.3964,115.8
229.4036,85.9
229.5099,363.6
229.584,345.1
229.5898,83.8
229.6071,561.7
229.6702,86.4
229.8182,505.2
229.9572,4190.9
229.9921,406
230.0115,319
230.0333,306.3
230.0636,242.6
230.0967,83
230.226,208.8
230.262,83.5
230.3323,77.6
230.3502,331.3
230.4136,69.7
230.4143,71.1
230.4387,261.2
230.4898,260.2
230.5638,91.9
230.6246,508.4
230.6477,920.7
230.6554,151.7
230.8102,1258.9
230.8811,82.4
230.8902,215.8
230.9099,105.2
230.9253,87.8
230.9404,123.7
230.9556,629.7
230.9605,160.7
230.9672,20.9
230.9903,67.8
231.0557,184.5
231.1752,16.9
231.1965,101.6
231.6067,207.1
231.6118,401.7
231.6544,270.5
231.6901,19.3
231.7,182
231.7716,95.4
231.8628,420.8
231.8658,550.7
231.9203,417.3
231.9472,399.2
231.9536,52.6
231.9576,122.1
231.9728,68.7
231.9784,117.7
231.9953,270.8
232.0107,644.1
232.1543,174.9
232.1607,112.6
232.2093,83.8
232.266,197.8
232.283,144.2
232.5043,78
232.5254,449.4
232.5773,153.2
232.5993,114.5
232.6185,84.9
232.8503,71.4
232.8838,33.8
232.897,51940.3
232.9204,524.3
233.0085,93.3
233.0512,6572.4
233.0919,623.5
233.2459,129.2
233.297,129.2
233.3301,298.7
233.3585,18.5
233.3817,88.8
233.419,114.4
233.7255,133.8
233.7348,90.2
233.9532,25.8
233.9579,406.6
234.0919,279.3
234.1289,115.2
234.1673,312.2
234.376,273.8
234.4957,190.5
234.5733,447.2
234.7015,131.5
234.7257,62.9
234.8938,12282.2
234.9818,4258.7
234.9882,77.3
235.0011,73.5
235.0257,146.7
235.0571,7306.2
235.0667,1422.6
235.0929,14133.1
235.2124,87
235.4009,462.8
235.4098,483.1
235.5545,17.9
235.5837,184.5
235.6078,138.2
235.6325,72
235.7532,297.7
235.7703,406
235.7818,298.1
235.786,137.5
235.932,102.4
236.0412,6735
236.0719,40513.8
236.0962,319
236.1509,358.4
236.1941,339.7
236.2725,80.3
236.2837,1135.3
236.2902,463
236.4196,140.4
236.4472,21.3
236.4574,654.2
236.4664,85.5
236.4816,18
236.5186,150.1
236.5466,17.9
236.5826,439.4
236.6295,94.2
236.6348,657.3
236.697,125.1
236.7011,477.5
236.7146,97.1
236.7453,128.3
236.8506,146.1
236.8609,187.8
236.8787,354.4
236.8921,462.9
237.053,440.5
237.069,20
237.0754,1869
237.1252,110.7
237.1478,95.8
237.1695,106.6
237.4085,191.9
237.4915,74.1
237.8963,682.5
238.0201,198.9
238.0528,163.9
238.0677,658.9
238.0768,23.7
238.0951,461.5
238.1297,111.5
238.1875,440.5
238.2036,687.6
238.365,17.3
238.3895,204
238.4003,75.9
238.7121,435.2
238.7482,71
238.8421,6980
238.8489,21.6
238.8534,547.8
238.8627,321.2
238.9278,426.9
238.9436,23.4
238.9602,207
239.0094,2169.3
239.0396,331.3
239.0459,168
239.0492,412.4
239.0644,120
239.0684,600
239.0796,186.6
239.1102,19.1
239.1201,529
239.2236,311
239.234,172.9
239.3496,23.4
239.3616,93.8
239.3774,230.6
239.4585,494.7
239.4635,381.4
239.4708,123
239.7274,144.9
239.7658,80.8
239.7744,144.7
239.8228,843.9
239.8733,251.6
239.8972,18.4
239.9217,269.8
239.9707,126
240.0037,2998.3
240.0088,88.9
240.0314,537.9
240.0997,1994.3
240.1204,75.7
240.1237,129.3
240.152,216.3
240.212,580.4
240.2607,203.9
240.3572,311.4
240.3889,291.9
240.4981,196.3
240.5437,84.7
240.5801,112.3
240.6434,89.3
240.6469,19.7
240.6544,291.5
240.7073,442.2
240.7826,358.8
240.796,754.5
240.8147,599.3
240.8391,4601.6
240.844,738
240.8753,477
240.955,1602.6
240.9673,1818.3
240.9865,697.6
241.0315,532.5
241.0836,705.5
241.0876,125.7
241.1252,144.8
241.2107,84.2
241.2341,135.4
241.2907,77.8
241.2979,350.8
241.301,128.9
241.3242,100.8
241.3337,127.9
241.4585,67.8
241.7934,134.8
241.8587,186.7
241.8859,273
241.9517,111.2
241.98,29.4
241.9983,2396.3
242.0194,2668.4
242.0794,219.8
242.1711,124.5
242.3566,158.8
242.4168,249.7
242.4986,99.9
242.5043,68.1
242.5148,21.9
242.6308,487.9
242.658,23.1
242.7857,290.4
242.7933,17.9
242.8733,212.9
242.9257,32182.5
242.9772,109.5
243.0066,122.9
243.0533,5825.1
243.0656,6082.9
243.0834,96
243.1273,80.4
243.2089,18.9
243.3774,103.8
243.4088,409.8
243.5692,114.2
243.6167,497.4
243.6351,129.1
243.723,65.4
243.7402,121.1
243.749,91.2
243.858,324.3
243.8604,326.8
243.8892,127.4
243.9156,305.8
243.9265,218.6
243.9424,114
243.9686,85.6
243.9729,1499.4
244.0127,324.7
244.0454,146.6
244.1062,764.1
244.1477,131.9
244.1808,68.2
244.3397,92.9
244.5074,18
244.5797,194.1
244.702,65.3
244.7141,210.5
244.7428,107.6
244.7583,162.8
244.7874,711.8
244.852,292.5
244.8708,7377.9
244.9239,1798.8
244.9731,31.1
244.9761,51.9
245.0064,20.7
245.0412,72.2
245.078,105.1
245.2115,93.8
245.4121,76.6
245.4415,360.2
245.5142,339.2
245.5779,381
245.7743,274.6
246.0015,194.6
246.0131,274.5
246.0394,232.2
246.0853,17.5
246.1014,174.2
246.1801,19.5
246.3054,105.8
246.3968,557.6
246.4664,299.4
246.597,153
246.7729,732.4
246.8628,105.3
246.8678,1007.2
246.9046,93.1
246.9358,121.5
246.9519,255.7
246.9928,17.3
247.0538,140.1
247.067,1015.1
247.0929,6394.9
247.1011,305.6
247.1265,564.4
247.1692,679.6
247.2968,74
247.428,176.6
247.4928,334.3
247.5521,111.7
247.5893,120.9
247.6468,121.2
247.6484,196.7
247.6495,175.6
247.7749,783.3
247.8579,412.3
247.9678,310.4
248.0504,20.1
248.0979,331.4
248.1245,17683.9
248.135,136.9
248.2065,112.6
248.368,760.8
248.4323,104.2
248.6135,71.3
248.7309,498.5
248.7573,312.8
248.7911,118.5
248.8709,13760
248.8818,324.2
248.8915,22.3
248.9487,81.9
248.9848,20.9
248.9994,942.2
249.0086,17
249.0165,1004.4
249.0254,17.9
249.0392,156.7
249.0614,18721.9
249.0792,308.8
249.1015,347.4
249.1279,586.7
249.3182,153.9
249.4111,249.3
249.484,384.6
249.7031,243.7
249.815,19.7
249.8454,455.4
249.866,19.5
249.8705,224.5
249.9073,21.5
249.9521,122
249.9726,676.3
249.9975,81.3
250.0386,341.2
250.1237,253.2
250.1452,19.6
250.167,129.2
250.1993,437.8
250.213,88.4
250.5415,20.2
250.5602,565.1
250.5988,102.6
250.6032,102.8
250.6166,166.4
250.6787,633.7
250.804,466.9
250.8679,2360.5
250.8847,103.6
250.8942,47.2
250.9206,2186
250.925,126.7
250.9557,1057.5
250.9949,463.5
251.0007,33.5
251.0314,19.3
251.0642,100.5
251.0843,514.5
251.1076,210.2
251.1085,204.1
251.1104,121.6
251.194,119.4
251.2082,482.3
251.2292,438.3
251.3329,288.8
251.4478,552.2
251.4586,341.5
251.5364,96.5
251.6245,515.8
251.7024,186.6
251.7594,153.1
251.9752,120.6
252.0369,185.6
252.0459,86107.3
252.0734,340.3
252.078,118.8
252.0885,87.5
252.1446,370.5
252.2329,20.8
252.2683,133
252.3734,104.3
252.3872,76.3
252.4406,176.7
252.5228,88.3
252.5866,18.7
252.6129,82.9
252.6464,131.2
252.6505,113.1
252.6523,109.2
252.654,67.4
252.7177,309.9
252.7745,516.4
252.792,105.4
252.7943,179.3
252.8471,21.2
252.917,1465.4
252.9513,65.9
253.0436,80.1
253.0493,5191.7
253.4779,151.8
253.6129,80.3
253.6189,80
253.7617,17.7
253.8558,488.1
253.9691,299.7
254.0355,104.7
254.0442,1413.8
254.0521,494.9
254.0994,518.6
254.1145,19.5
254.2993,85.1
254.4205,191.8
254.4384,503.5
254.4583,23.8
254.5476,129.9
254.6372,73.4
254.8162,1750.6
254.8241,11945.1
254.8391,277.9
254.8952,512.2
254.8999,1120.4
254.9861,48.4
255.0088,79.9
255.0333,20911.2
255.0466,636.4
255.1966,68.3
255.2106,446.8
255.2515,106.6
255.32,320.8
255.3296,223.1
255.575,215
255.6387,94.5
255.8998,91
255.9172,17.8
255.9783,2023.3
255.9832,279.7
256.0035,144.5
256.0208,126.6
256.0387,206.2
256.0585,109
256.066,107.5
256.1315,309.4
256.2932,17.1
256.3196,112.8
256.4287,367.8
256.4507,118.3
256.466,90.7
256.6531,329.1
256.719,362.1
256.7486,444.1
256.8125,465.8
256.8211,16193.1
256.9327,845.6
256.9414,730.8
256.9629,504.4
256.9778,78
257.0221,264.1
257.0489,6921
257.0664,301.3
257.0748,41309.3
257.1607,19.1
257.1809,302.5
257.2264,146.7
257.3522,173.8
257.4353,80.9
257.5223,126.1
257.524,135.4
257.5257,112.4
257.5732,183
257.6124,268
257.7094,514.9
257.8208,194.5
257.8271,603
257.9522,56.7
257.9874,339.6
257.9936,358.1
258.0306,315.5
258.0561,18.7
258.062,75.5
258.0744,221.7
258.0782,1681.5
258.1105,16782.4
258.1245,103.2
258.1564,17.5
258.3262,111
258.4678,650.9
258.494,162.3
258.6287,88.9
258.734,87.7
258.8182,6422
258.8356,311.7
258.8998,6350.3
258.933,21.9
259.0318,467.2
259.0659,118.7
259.1607,96.9
259.285,186.3
259.3691,656.2
259.4365,129.7
259.4924,311.9
259.5099,118.5
259.5414,195.1
259.5628,625.6
259.6166,442.2
259.6439,77
259.6643,886.9
259.6713,203.8
259.6802,800
259.6852,170.9
259.6922,523.7
259.8789,114.3
259.9657,626.3
260.002,421.1
260.0171,88.1
260.1341,360.4
260.144,117.1
260.1496,349.3
260.1583,78.6
260.1684,449.3
260.1779,147.1
260.358,100.9
260.5472,24.3
260.5781,769.8
260.8156,898.9
260.8448,4376.1
260.8983,850.3
260.9094,493.2
260.9494,9167
261.0472,409.7
261.3095,273.5
261.3195,105.2
261.3644,290.2
261.4117,126.5
261.4503,203.3
261.4605,492.8
261.524,294.4
261.5786,78.2
261.6996,195.1
261.7333,486.9
261.9837,43.2
262.0556,23.3
262.0818,2326.1
262.1435,96.1
262.178,120.2
262.2748,188.2
262.3121,322.8
262.3644,207.3
262.5002,128.7
262.5051,304.5
262.577,300.9
262.6193,455.4
262.6351,244.6
262.7942,85.5
262.8202,536.3
262.8418,927.6
262.8858,291.7
262.9133,76
262.9422,19.6
262.9463,1654.9
263.0261,124.9
263.0853,2353.8
263.2132,147
263.5057,307.3
263.5651,82.4
263.7962,243.8
263.8268,142
264.0821,84.8
264.1166,356.3
264.1877,123.6
264.2689,145
264.3017,213.9
264.3717,152.9
264.4475,359.1
264.5754,144.8
264.5864,78.1
264.7862,73.4
264.845,2275.8
264.8531,8529.6
264.9359,384.7
264.9735,1259.6
264.9888,6521.3
265.0166,165.1
265.0354,12357.4
265.0475,868.4
265.0651,333.9
265.326,176.9
265.4029,117.4
265.4919,91.2
265.543,20.5
265.5629,18.6
265.583,112.8
265.6424,312.9
265.7806,71.6
265.8255,77.1
265.8774,120.1
265.9107,686.7
265.9582,30.4
265.9785,230.3
265.9904,73.6
266.0405,73.4
266.0502,76.5
266.077,93.2
266.1532,618.7
266.1644,712.3
266.1754,90.4
266.187,417.9
266.5026,821.8
266.5094,262.7
266.6748,168.5
266.6768,178.4
266.7305,567.5
266.7373,641.2
266.776,90.8
266.8012,113
266.85,7526.6
266.8946,1590.2
266.9338,82.9
266.9583,27.1
266.99,473.1
267.0133,58.1
267.0591,314.9
267.0649,471.6
267.1304,338.7
267.1718,18.9
267.2957,147.9
267.317,121.4
267.3553,19.1
267.5735,278.2
267.578,294.1
267.7192,199.9
267.7625,351.3
267.8479,97.8
267.9737,84.5
267.994,446
268.0085,21.3
268.0303,274.8
268.0972,301.6
268.1096,76.5
268.5086,741.5
268.5174,20.3
268.5328,88.5
268.6439,144.1
268.6639,94.9
268.6825,290.1
268.7755,129.1
268.8472,964
268.8589,577.8
268.8755,292.2
268.8913,1808.7
268.9581,370.1
268.9972,23.6
269.0109,125.2
269.028,276.4
269.035,487.3
269.0489,34197.5
269.0848,427.2
269.2378,540.6
269.258,98.9
269.3307,301.9
269.3402,178.3
269.3571,77.1
269.3755,19.8
269.4718,211.9
269.6674,101.1
269.7171,88.4
269.8022,215.5
269.8762,306.7
269.9517,25
269.9895,150.7
269.9941,3181.9
270.01,32.2
270.025,7296.8
270.0476,21287
270.1451,1121.6
270.173,20.2
270.2426,313.2
270.2609,144.3
270.6151,214.6
270.6422,583.2
270.7087,756.1
270.798,4471.5
270.9658,507.7
270.9782,15364.9
271.0246,381.6
271.0283,575.1
271.0325,18.1
271.0509,379.6
271.0783,300.2
271.0905,674.7
271.1263,266.1
271.1487,452.2
271.1571,501.8
271.2597,91.3
271.3805,374.7
271.4113,496.8
271.4942,98.8
271.4964,135
271.4978,137
271.5281,202.7
271.646,632.8
271.7387,112.4
271.7724,535.5
271.9177,628.5
271.9528,1300.1
272.0207,182.8
272.0275,180
272.0432,92.7
272.0467,108.1
272.0628,521.6
272.0806,263.4
272.1307,67.1
272.3547,83.3
272.5382,84.7
272.6577,530.6
272.6727,135.7
272.7214,100.8
272.732,109
272.7854,492.1
272.7952,5186.7
272.8207,89
272.8653,259.6
272.9312,293
272.9443,760.3
273.0488,2811.3
273.2069,144.9
273.2985,640.5
273.4164,589.4
273.4213,611.5
273.4298,733.4
273.4483,650.6
273.54,19
273.5979,94
273.7408,89.2
273.9307,80.9
273.9357,78.8
273.9629,5168.4
273.9999,503.9
274.0332,19.5
274.0408,28.5
274.0692,233.7
274.0926,1711.9
274.1104,220.9
274.2152,173.9
274.2282,643.9
274.2489,475
274.4065,119.5
274.4195,411.9
274.4539,17.7
274.5261,719.2
274.5347,141.8
274.5968,106.3
274.6608,98.5
274.7207,109.9
274.7283,593.7
274.792,1729.5
274.8552,101.9
274.874,655.7
274.8815,1370.4
274.8917,147.4
274.966,131.4
275.146,324.1
275.2398,18.3
275.2747,93.3
275.3598,525.7
275.5164,22.8
275.5515,312.7
275.7782,20.3
275.792,616.8
275.8057,139.8
275.8121,233.7
275.8791,17.4
275.9218,93.1
275.9388,350.6
276.0037,154.2
276.0847,70.5
276.1134,78.8
276.2533,117.4
276.2721,491.9
276.301,83.3
276.3202,461.6
276.444,332.1
276.5493,96
276.6654,103.2
276.8567,90.7
276.9233,8620.9
276.9839,18.1
277.0116,633.7
277.1136,150.4
277.1152,136.4
277.1523,88.9
277.3876,412.8
277.4596,19
277.4713,169.7
277.5394,168.3
277.5494,20.8
277.555,87.7
277.6117,465.8
277.6761,122.9
277.6958,80.6
277.8907,73.1
277.9129,373.8
277.9315,166.5
277.9535,465.6
277.967,324.9
277.9901,618.7
278.0003,73
278.0192,536.8
278.0209,572.2
278.0637,309.7
278.1549,136
278.3187,110.8
278.4726,120.8
278.8937,3165.2
278.9203,1983.2
278.9872,661.9
278.9884,622.4
279.009,209.2
279.0228,26.9
279.027,90.9
279.0434,19.3
279.0568,30661.1
279.3154,107.8
279.3865,432.6
279.3934,624.3
279.5443,324.3
279.6107,125.5
279.6786,133
279.8459,119.9
279.8524,76
279.867,107.3
279.9186,246
279.9424,86.5
279.9733,154.5
279.9868,113.1
279.9992,110.3
280.0118,90.7
280.0161,240.7
280.0556,268
280.0603,827.4
280.0926,1328.3
280.1003,300.8
280.1331,101.3
280.1938,603.5
280.5902,305.4
280.71,184.3
280.827,2686.3
280.9126,571.3
280.9752,142.3
280.9962,97.7
281.0098,3092.4
281.0516,204.4
281.061,110.5
281.1288,80.9
281.1956,115.6
281.2624,105.8
281.2914,19
281.297,457.5
281.3246,70
281.461,18.8
281.4702,393.5
281.5369,20.6
281.577,88
281.7481,102.4
281.8594,88.7
282.0149,154.8
282.0192,356.1
282.065,458.6
282.0784,279
282.2912,149.4
282.4516,79.3
282.4853,100.6
282.5062,85.4
282.6188,116.3
282.7545,85.2
282.7958,729.7
282.8241,3197.8
282.8573,20.6
282.8686,637.5
282.9451,360.3
283.034,278.3
283.0438,150.8
283.0522,713.3
283.0665,36.4
283.441,486.7
283.5663,560.2
283.6116,328
283.717,19
283.9278,18.5
283.9895,55.1
284.0044,25.2
284.0247,70.2
284.05,39.9
284.063,175.8
284.1388,125
284.2119,67.3
284.2547,467.8
284.2664,19.1
284.2909,644.7
284.2999,95.6
284.3431,437.4
284.5624,333.5
284.5639,295.7
284.5828,409
284.5869,286
284.5943,92.3
284.6776,374.5
284.6841,321.8
284.7581,79.6
284.7884,85.7
284.7953,458.4
284.807,92
284.8205,671.1
284.9029,379.5
284.9804,519.1
285.0231,134.4
285.0717,435.8
285.1762,727.6
285.6077,78.3
285.852,86.3
285.8627,288.7
285.9679,574.1
285.9876,471.6
286.008,141.3
286.0199,2105.7
286.0774,475.9
286.0963,26.8
286.1206,147.5
286.1352,437.3
286.212,353.4
286.3529,116.8
286.391,185.9
286.4573,488.9
286.463,748
286.5123,80.5
286.5313,20.4
286.6065,531.9
286.6312,188.2
286.7066,198.4
286.7721,2790.4
286.803,74.8
286.8383,79.4
286.952,6533.3
287.0231,208.9
287.0556,24379.9
287.1926,402.1
287.4173,436
287.4247,127.4
287.5184,131.6
287.5839,396.3
287.5986,209
287.6621,94
287.6951,74.6
287.8816,116.7
287.8979,334.1
287.9967,18.4
288.0352,378.8
288.0586,693.6
288.0849,129.8
288.1315,594.2
288.1558,12663.2
288.3375,70.9
288.6378,460.1
288.7691,3588
288.7884,19.2
288.8551,261.5
288.8588,264.5
288.8639,838
288.8799,625.6
288.8852,1126.8
288.8903,1267.6
288.898,2606.5
288.9053,2504.1
288.9151,5190.4
288.9237,12949.9
288.9334,14140.5
288.9395,16985.6
288.9435,15052.2
288.9484,13163.8
288.9514,12741.4
288.9589,17731.3
288.9626,16608.2
288.969,16409.8
288.9764,9320.2
288.9841,6535.2
288.9876,8621.8
288.9934,5882.5
288.9978,4266.5
289.0059,1841.5
289.0119,514.8
289.019,224.5
289.0257,146.8
289.0617,355.4
289.159,464.4
289.1782,113.8
289.1824,210.5
289.3191,96.8
289.3653,562.7
289.4317,87
289.5331,462.3
289.5385,17
289.6267,78.7
289.7278,522.8
289.7562,94.7
289.7609,674.7
289.8035,522.2
289.8508,345.4
289.9021,20.3
289.9178,23.5
289.9243,325.1
290.0089,78.6
290.1284,484.7
290.1833,113.4
290.1921,119.3
290.1974,68.1
290.2104,288.2
290.4001,714.2
290.6105,18.4
290.7213,216.1
290.7322,110.4
290.7658,1195.4
290.8294,508.4
290.8566,963.4
290.8779,204
290.9487,115
291.0174,321.1
291.0269,1399
291.1126,108.3
291.1225,610.4
291.4181,157.7
291.4927,111
291.5884,830.3
291.6227,114.1
291.7511,20.5
291.7776,66.1
291.8212,204.1
291.9668,79.2
291.9839,342.1
292.0093,187.3
292.0798,72.5
292.0948,383.6
292.1325,168.6
292.3044,152.3
292.3732,119.8
292.4753,461
292.5512,178.2
292.5591,746.9
292.5744,313.3
292.6027,19.2
292.6282,527.2
292.8535,302.7
292.8969,718.4
292.9608,18.3
293.006,230.7
293.0304,296.2
293.0726,1169.2
293.0912,130.4
293.0985,346625.8
293.1197,74
293.145,203.6
293.1792,2082.8
293.4268,221.3
293.5952,87.5
293.6632,102
293.6974,86.4
293.8789,17.7
293.8891,22.1
293.9084,468.6
293.9361,521.1
293.9982,634.3
294.0707,100.7
294.0957,1000
294.1019,29446.7
294.12,403
294.1437,298
294.3466,77.2
294.5971,101.7
294.6118,408.1
294.7603,80.8
294.7829,524.8
294.8421,391.8
294.8667,707.9
294.9165,361.6
294.9392,714.3
294.9435,390.3
294.9908,331
295.0308,1145.8
295.1027,3405.7
295.1294,88.1
295.1434,20.3
295.1868,18.1
295.1949,18115.8
295.2257,117.7
295.2385,301.2
295.3584,611.5
295.4515,408.5
295.4705,253.6
295.4756,111.6
295.5357,83.7
295.5444,96.8
295.5713,534.7
295.598,751.1
295.6826,201.9
295.8831,188.7
295.9051,155.5
295.9135,116.4
296.03,117.1
296.066,311.4
296.1045,192
296.1486,145.3
296.1978,1128
296.3442,286.7
296.4164,87.2
296.6013,88.6
296.8005,419
296.8646,556.7
296.936,302.7
296.9876,150.2
297.0449,16.9
297.1171,192.1
297.2565,67.2
297.3979,205.4
297.5565,100.9
297.5807,635.6
297.7226,341.1
297.8741,186.1
297.9583,472.9
298.0256,891.6
298.0426,11774.2
298.0484,105.4
298.0701,98
298.3782,140.6
298.4296,473.8
298.5108,103.1
298.5454,446
298.6024,108.1
298.7113,584.4
298.7683,295.1
298.809,453.6
298.8431,17.6
298.8497,293.2
298.9192,109.8
298.9864,110.1
299.0234,1367.4
299.0345,196.8
299.0458,584.7
299.0862,332
299.1397,4267.9
299.3654,627.7
299.4439,16.9
299.5089,118.7
299.5502,490.7
299.5841,218.1
299.6143,126.4
299.7554,292.8
299.7884,20.6
299.8584,304.9
299.9788,20
300.0054,1331.2
300.0351,639.5
300.0479,22.5
300.0755,437.8
300.1346,410.5
300.1966,29.1
300.2202,583.7
300.3051,281.1
300.4275,704.3
300.5539,472.9
300.7014,84.4
300.765,273.6
300.8696,505.1
300.8919,77
301.0015,328.4
301.0283,318.3
301.0388,19327.2
301.0758,21.4
301.079,39.5
301.1094,159.5
301.1411,547.5
301.2187,289.8
301.4291,255.3
301.4594,297.2
301.5816,196.1
301.5968,99.6
301.6268,22
301.727,126
301.8523,125
301.994,2004.2
302.0203,363.7
302.0355,36.3
302.0425,375
302.0514,117.2
302.0642,4659.2
302.0971,873.1
302.1449,21.9
302.2139,95.7
302.2895,21.4
302.4963,19
302.5112,299.8
302.5564,771.9
302.5766,523.7
302.6858,79.8
302.6932,20.6
302.7004,1001.2
302.7026,931
302.8297,5476.7
302.8463,591.4
302.8555,123.4
302.8721,90.7
302.9265,1497.5
302.9409,535
302.9692,640.4
303.0243,858.8
303.0675,500.2
303.2176,2363.1
303.2457,516.1
303.2964,333.4
303.3065,158.7
303.416,21
303.7426,76
303.7867,246.2
303.8063,225.1
303.9862,139
304.0599,228.1
304.079,287.7
304.0804,320.6
304.0854,590.6
304.2175,21
304.2361,501
304.3763,114.1
304.4618,17.3
304.5332,274.8
304.5788,256.3
304.5963,65.8
304.6385,329.1
304.7341,263
304.7428,439.3
304.8146,22.8
304.8267,1247.8
304.8494,84
304.8961,1077.7
304.981,251.4
304.9878,24.2
305.1962,492.9
305.2218,89.7
305.246,543.5
305.4564,545
305.5035,292.8
305.5837,220.1
305.6076,477
305.6226,78.9
305.7078,113.5
305.8189,80
305.8989,299.7
305.9404,211.7
305.9466,493.4
306.0858,84.3
306.0922,21.6
306.0961,73.1
306.1204,231.6
306.3141,143.2
306.3298,75.4
306.3564,514.9
306.478,18
306.5509,176.3
306.6402,82.3
306.6494,116.8
306.7667,294
306.868,89.5
306.9583,1815
306.9775,2640.2
306.9944,507.9
307.097,89.1
307.1194,93.8
307.1363,22.3
307.2484,138.9
307.6423,335.5
307.7258,97.9
308.4303,478.1
308.5554,193.2
308.5609,846.1
308.5999,95.7
308.6646,142.2
308.7226,202.3
308.7519,560.6
308.7628,835.6
308.7851,258.2
308.8793,3889.7
308.9393,211.1
309.0064,282.2
309.029,79.7
309.0378,2133.2
309.0749,295
309.0827,381.9
309.0952,253.7
309.1114,327.6
309.3278,150
309.4928,592.8
309.5636,88.3
309.5711,17.5
309.5873,279.5
309.7549,452.6
309.7708,106.9
309.8506,24
309.8951,290.4
309.9357,91.8
310.0194,533.4
310.0755,17.3
310.3019,351.6
310.3274,19.8
310.3456,180
310.4295,257.6
310.5307,173.6
310.5573,141.2
310.6633,106.1
310.7032,138.4
310.8764,2795
310.9132,589.2
310.923,96.9
310.9887,19
311.0033,142.1
311.0219,65.3
311.1673,152
311.2161,105.3
311.2391,22.1
311.3942,139.4
311.4325,98.5
311.5028,465.5
311.5633,20.2
311.6325,130.2
311.6713,66.6
311.6823,147.1
311.8803,152.6
311.8961,99.4
311.9998,19.7
312.0191,39.1
312.0412,1933.4
312.0884,1267
312.2422,387.4
312.2942,750.6
312.3071,281.7
312.436,93.6
312.4438,17.8
312.7657,711.4
312.8386,749.7
312.8585,1384.7
312.8729,747.7
312.926,194.7
312.949,219.3
312.9941,125.9
313.0031,39.2
313.0263,380.3
313.0352,621.6
313.1143,18.5
313.2743,38372.2
313.4388,86
313.6107,449
313.618,264.5
313.8931,18.6
313.9079,138
313.9211,109.8
313.9573,17.7
314.0149,2472.7
314.0911,162.1
314.1565,103.3
314.2472,148.8
314.2777,4029.4
314.4619,103
314.7588,22.2
314.7801,334.7
314.7981,28.4
314.8117,496.4
314.8373,2498.1
314.8561,502
314.877,516
314.8846,19.6
314.9014,115.6
314.9994,3575.3
315.0183,300.1
315.0235,17.6
315.0427,339.5
315.0554,8495.4
315.0597,2304.5
315.0616,2224.2
315.0639,3294.6
315.0671,15734.6
315.0697,20235.2
315.0733,11662.5
315.0805,5064720
315.0869,17698.9
315.0919,7069.5
315.094,5078.8
315.0964,4051.4
315.0984,3473.9
315.1028,1099.1
315.1048,797
315.1067,673.7
315.1112,204.9
315.12,145.4
315.1219,136.9
315.1236,131.3
315.1301,111.8
315.1518,104.7
315.1532,105.7
315.1616,4670.8
315.1994,17.6
315.2224,358
315.2477,296.6
315.2607,134.2
315.3239,3304.7
315.4072,171.7
315.414,543.8
315.4866,506.6
315.5468,119.2
315.5998,529.2
315.6211,382.6
315.6489,150
315.7313,174.9
315.8491,22.3
315.8923,108.4
315.9411,746.1
316.0025,86.9
316.0105,29.6
316.0333,611.2
316.0534,53.2
316.068,1257.9
316.0778,26998.3
316.0838,520236.5
316.2082,98.3
316.3883,302.4
316.4155,17.2
316.6212,115.3
316.7773,591.6
316.85,580.9
316.9101,25
316.9405,23.4
316.9867,2679.3
317.0129,179.9
317.0564,894.3
317.0654,1985.8
317.0843,56957
317.1153,287.1
317.2259,287.6
317.3866,114.1
317.6998,133.3
317.8028,110.6
317.8224,27.8
317.8799,274.6
317.8936,638.3
317.9309,822.8
317.9695,552.1
317.9865,439.1
318.0333,95.7
318.0588,77.5
318.0878,4714.8
318.0963,343.3
318.5414,510.8
318.6972,22
318.746,490.8
318.756,19.8
318.7912,1006.3
318.8036,3106.2
318.9086,322.3
318.93,21.4
319.0204,295.6
319.0379,20.9
319.1262,275.1
319.1348,691.1
319.1648,301.2
319.1712,148.4
319.1949,41128.4
319.6087,284.3
319.6538,121.9
319.7563,83.7
319.8651,563.7
320.003,412.3
320.0272,126.3
320.0748,185.6
320.1215,366.1
320.1665,22.7
320.1984,6116.7
320.2589,2069.1
320.2743,510.4
320.3277,201
320.3433,19.6
320.6033,120.3
320.6626,67.7
320.801,1623
321.1693,292.8
321.2012,744.8
321.2106,46650.6
321.2623,116.4
321.362,82.4
321.674,24.9
321.726,203.6
321.7321,747.6
321.7809,178.8
321.9334,500.3
321.9964,20.1
322.0091,162.2
322.0767,94.4
322.189,514.5
322.2141,8391.8
322.3323,493.8
322.4194,379.1
322.5116,133.2
322.74,404.5
322.7618,87.1
322.8109,455.4
322.9316,1100.7
322.9481,307.9
322.9819,17
323.0208,8460.8
323.0319,200.5
323.2263,1722.6
323.3811,534.3
323.4776,469.5
323.5539,22.1
323.6055,122.3
323.6221,449.8
323.8004,86.6
324.0022,4262.7
324.1742,115.5
324.2126,87.1
324.2527,73.7
324.2753,791.1
324.3884,268.9
324.4019,150
324.4126,449.5
324.5355,115.5
324.5465,111.8
324.5587,2090.5
324.5705,5019.2
324.5775,2228.6
324.7259,120.7
324.7367,234.8
324.8091,1018.9
324.853,754.1
325.2117,3108.9
325.6698,549.1
326.0051,60.7
326.0387,369.4
326.3378,317.3
326.4336,273
326.5684,577.3
326.5864,208.7
326.6192,523.9
326.68,90.3
326.718,170.8
326.7592,493.5
326.824,348.6
326.8501,2364.6
327.0158,7220.3
327.0522,2589.8
327.1485,357.4
327.218,727.6
327.2276,10947.7
327.4886,18.4
327.5712,599.5
327.6586,500.7
327.6997,137
327.9018,84.7
327.9538,403.2
328.0153,627.3
328.1731,489.9
328.2207,756.2
328.2305,892.8
328.416,131.9
328.4389,287.9
328.4599,990.5
328.4786,103.1
328.8209,338.1
328.9345,119.6
329.0963,919.5
329.1193,100.8
329.1467,138.8
329.1587,199.5
329.1745,121.2
329.3204,474.1
329.4313,74.9
329.4476,640
329.459,105.4
329.4679,85.8
329.475,75.8
329.4999,19.9
329.8207,108.7
329.8308,172.1
330.0591,198.1
330.0947,109.7
330.3168,316.8
330.3408,100.3
330.403,503
330.5611,477.4
330.7553,501
331.0193,768.7
331.0457,85762.9
331.0544,670392.4
331.1411,106.1
331.1749,536.7
331.1856,191.4
331.2048,214.4
331.2741,267.7
331.6229,18.8
331.7366,97.3
331.8089,389.4
331.8201,86.4
331.833,24.1
331.8488,97.4
332.0484,4903.8
332.0578,60036.3
332.1956,21.8
332.3381,86.1
332.3508,467.6
332.5186,289.1
332.801,24.1
332.8097,179.8
332.8303,169.7
332.8406,1116.5
332.8887,256.7
332.9002,145.5
332.9606,2078.1
333.0526,37336.5
333.0582,6823.8
333.1666,25.4
333.3952,233.9
333.4227,185.1
333.6162,95.8
333.7164,581.3
333.9542,19
333.966,86.6
334.0559,3089.3
334.079,100.6
334.0902,77
334.141,101.1
334.244,254.4
334.2497,645.2
334.3434,120
334.3642,135.6
334.4231,426
334.5565,466.7
334.5782,473.6
334.7405,188
334.8378,526.2
334.8803,348.1
334.9015,203.9
335.0025,71.7
335.0311,108.2
335.0385,613.8
335.1675,1072
335.7445,211.2
335.8166,20.5
335.9529,166.4
336.0091,246.5
336.0673,498.4
336.5352,206.7
336.7924,94.8
336.8638,136.9
336.8741,20.5
336.9716,95.5
337.0366,10992.2
337.0499,17434
337.0625,458506.4
337.1832,298.9
337.2744,10600.7
337.6288,442.7
338.0658,42597.2
338.1245,286.8
338.1474,154.4
338.2427,98.4
338.3424,48.7
338.3491,195
338.4782,322
338.5977,94.7
338.6957,204.2
338.7173,122.2
338.7866,785.8
338.9061,306.1
338.9215,1382.4
338.9909,118
339.0386,2765.2
339.0473,1555.1
339.0663,3648
339.1463,815.7
339.1993,54.5
339.2282,178.4
339.2899,9298.9
339.412,130.2
339.4752,121.8
339.5105,93.8
339.6957,184.3
339.7787,143
339.8534,110.9
339.9667,113.5
339.9758,131
339.9938,186.6
340.034,441.9
340.293,823.9
340.4147,188.5
340.4478,17.4
340.4654,91.1
340.527,526
340.7833,508.3
340.803,633.2
340.8383,81.7
340.8949,338.4
340.9675,221.4
341.0177,24.6
341.0684,581.2
341.1067,98.7
341.1405,464.1
341.2078,497.4
341.2803,19.6
341.3057,5701.1
341.3712,79.1
341.4366,264.7
341.5017,19.8
341.6779,290.2
341.6899,364.1
341.7034,21
341.7504,197.3
341.9411,21.2
341.9569,458.1
342.0156,4437.6
342.0536,74.4
342.0658,375.1
342.2028,462.2
342.2192,100.8
342.2709,78.8
342.3454,566.3
342.5739,413.6
342.6265,91.3
342.7795,438.2
342.7882,18.6
342.794,494.2
342.8246,715
342.8688,973.3
342.886,302.8
342.9688,21
342.9895,3466
343.014,84.9
343.1456,75.3
343.195,10521.3
343.2018,634.8
343.3171,17.7
343.3221,100.8
343.4556,20.3
343.4972,338.9
343.5613,165.8
343.7834,698.2
343.8247,74.2
343.9402,368.1
343.9477,18.6
344.0394,355.6
344.1053,466.3
344.1198,157.8
344.1983,1330.3
344.2611,175.4
344.2999,457
344.6062,108
344.6666,21
344.7925,111.3
344.8366,78.2
344.9885,72.4
345.084,242.5
345.1474,314.8
345.1621,19.2
345.202,146.1
345.21,156.7
345.2794,161.3
345.3307,235.2
345.4855,92.1
345.6276,95
345.7518,133.4
345.8863,121.7
345.9841,17197.6
346.0097,101.4
346.0209,84.9
346.035,19.4
346.0417,25.8
346.5541,85.8
346.9198,90
347.0182,917.1
347.0499,95.9
347.0815,339.5
347.1829,20.2
347.2932,222.6
347.4532,580.9
347.66,394.7
347.6799,66.2
347.7496,20
347.9227,552.4
348.1248,22.4
348.1322,97.1
348.1847,224.4
348.3064,451.7
348.5437,293.7
348.8139,324.4
348.9824,104.1
348.9988,81.6
349.0192,1625.1
349.029,19.3
349.2747,436.5
349.308,20.5
349.5966,224.5
349.6639,127.5
349.7395,724.5
349.9083,265.6
349.9423,445.3
349.9807,494.1
350.2202,131.2
350.344,93.1
350.3606,282.1
350.5498,20.3
350.5834,83.3
350.6792,540.1
350.6837,491.3
350.74,215.2
350.7526,374.9
350.8117,1547.7
351.0144,127.5
351.1485,180.7
351.2512,22.6
351.2673,67.8
351.7565,377.6
351.7749,252.1
352.1178,281.2
352.2385,94.1
352.2829,17.8
352.3817,189.5
352.4212,71.3
352.505,147.2
352.689,171.4
352.7902,122.4
352.8387,19.3
352.8476,84.4
352.8982,1672.6
352.927,506.5
353.0275,83163.9
353.0364,151932.9
353.1247,192.5
353.217,147.2
353.3034,24.7
353.318,283.4
353.6864,439.2
353.7048,160
353.8707,506.8
353.8863,114.7
353.919,463.8
354.0307,5541.2
354.0397,13645.7
354.1436,552.7
354.3921,120.3
354.515,71.4
354.796,21.7
354.8121,124.1
354.8575,147.2
354.9594,572.7
355.012,2335.6
355.0346,7892.1
355.0572,545.7
355.0703,431.1
355.1415,451.5
355.1431,438.2
355.1469,280.8
355.191,505.1
355.4301,132.7
355.5024,112.2
355.5303,92.4
355.568,18.6
355.5865,126
355.6669,320.5
355.6821,500.2
355.6981,17.1
356.0154,52.5
356.0705,33.3
356.4974,20.1
356.7136,125.4
356.785,176.6
356.8068,256.2
356.8136,535.6
356.857,327.6
356.8915,156.7
356.9468,228.2
357.0091,669.1
357.0218,78.1
357.0672,40.5
357.0799,367.7
357.0968,274.9
357.269,452.5
357.3098,126.6
357.5972,296
357.6231,583.1
357.7837,121.1
357.9782,898.7
358.0242,112.5
358.0608,594.6
358.1775,17.9
358.585,89.1
358.7575,158.7
358.8342,316.9
358.9172,105
358.9409,305.5
358.963,360
359.012,630.9
359.032,11298.4
359.0444,265708.3
359.074,225.3
359.0921,588.2
359.1676,178.2
359.2577,95.4
359.3091,108
359.4199,138.2
359.432,18.5
359.4377,717.5
359.4504,105.5
359.4646,213.3
359.4725,290.6
359.4946,145.5
359.5084,702.2
359.5178,428.7
359.5473,610.7
359.5575,535
359.5726,101.5
359.5974,1000
359.6118,1094.6
359.6173,445.3
359.6276,263
359.6359,265.8
359.647,553.6
359.6591,116.8
359.7372,146
359.8701,556
359.941,82
360.0052,20.6
360.0107,30
360.0478,23535.8
360.1804,210
360.2126,82.5
360.2223,353.9
360.3243,299.5
360.5535,681.2
360.5911,130.8
360.6029,229.7
360.7935,97.5
360.812,196.1
361.0206,7137.5
361.0286,156.2
361.0487,1367.3
361.2743,1921
361.5751,20.2
361.6459,294
361.8992,368.3
361.9581,3449.2
362.0589,720.5
362.5631,483.8
362.5802,187.2
362.7643,271.4
362.9269,1680.7
362.9343,376
362.9439,113.8
363.0754,330.4
363.1711,126.1
363.2309,269
363.353,437
363.5662,511.5
363.6047,281.2
363.7602,146.2
363.9516,77.4
363.9582,108.7
363.9976,604.8
364.1102,124.9
364.2242,105.7
364.4198,81.3
364.5193,339.5
364.5368,81.7
364.5811,120.4
364.588,265.9
364.7918,84.5
364.9168,370
364.9707,68.1
365.009,432.1
365.0124,465.8
365.1043,739.3
365.1879,471.8
365.3554,17.8
365.3714,79.8
365.4163,259.9
365.427,18.3
365.4817,21.1
365.528,173.5
365.5429,75.7
365.7885,436.8
365.9344,579.6
366.0357,525.9
366.1851,219.7
366.1944,95.2
366.2567,281.8
366.3149,305.6
366.3332,87.5
366.4182,309.4
366.4765,442.4
366.7221,364
366.822,179.4
366.8293,202.2
366.8437,150.5
366.913,434.1
366.9562,103.9
367.0013,448.4
367.0513,21.9
367.1217,1733.5
367.1949,2376.8
367.4663,161.1
367.5855,18.6
367.6469,461.6
367.8668,85
367.9912,804.2
368.0025,93.4
368.2018,421.9
368.2574,466.6
368.2904,591.1
368.3329,204.9
368.8257,290.4
368.8641,101
368.8711,519.9
368.8948,77.9
368.9487,25.9
368.9925,761.4
369.0013,8820.9
369.0104,5031.3
369.042,21.3
369.1396,89.5
369.1464,388.8
369.2548,148.3
369.3509,222
369.742,71.3
370.0063,194.1
370.2967,533.2
370.67,132.6
370.8639,80
370.9818,125.9
371.0002,888.9
371.0864,20.2
371.1719,140.6
371.181,200.3
371.2212,22.3
371.3127,187.8
371.3326,136.7
371.6934,235.3
371.745,295.3
371.7893,124.9
371.99,78.5
372.182,127.9
372.2161,299.5
372.2534,111.5
372.4204,494.3
372.48,19.1
372.5482,88
372.7388,892.4
372.7825,161.9
372.8684,414.4
372.8949,112.5
372.9408,377.1
373.0137,120.3
373.2543,19.1
373.3405,106.6
373.4768,215.6
373.6434,349.8
373.7225,132.6
374.2235,82
374.7356,1264.8
374.8491,137.4
374.8611,291.2
374.98,330.3
374.9864,90.4
375.0095,83765.6
375.0184,79962
375.0343,30.3
375.1161,83.4
375.1343,91.6
375.2151,595.5
375.3223,252.4
375.4385,442.2
375.5007,91.6
375.8047,75.1
375.9888,541.2
376.0124,2922.4
376.0217,7105.8
376.048,287.2
376.1194,385.2
376.1375,309
376.1882,151.1
376.3276,112.3
376.4555,396
376.4629,1073.5
376.4723,139.9
376.5639,485.1
376.6933,549.8
376.8172,68.5
376.9651,257.6
376.9946,2449.3
377.017,3342
377.1676,462.7
377.2571,251.1
377.3347,457.8
377.4066,235.1
377.7112,97.2
377.9172,21.4
378.0718,19.3
378.107,104.9
378.3346,255.5
378.3431,137.4
378.9013,822.3
379.0036,70.5
379.131,90.5
379.1894,145.5
379.2097,326.1
379.3003,138.9
379.3363,28.7
379.4264,494.4
379.4563,84.7
379.4838,292.5
379.5086,116
379.6535,135.4
379.712,178
379.9886,127.8
379.9964,320
380.168,616.8
380.237,172.3
380.271,233.6
380.2979,564.1
380.3205,141.1
380.3443,591.5
380.4037,19.8
380.4269,378.9
380.444,20.9
380.5145,186
380.5438,269.6
380.7706,720.2
380.7906,98.3
381.0138,19861.9
381.0264,169708.7
381.1022,302.8
381.1825,139.1
381.2315,475.6
381.2686,350
381.329,122.9
381.3703,21.2
381.444,143.3
381.4851,226.9
381.5478,333.5
381.6776,356.4
381.8097,265.1
381.9179,102.7
381.9458,205.1
382.0116,129.5
382.0298,13364.3
382.4347,104.8
382.7313,122.9
382.7672,2719.3
382.8473,341.5
382.8558,18.9
383.0111,376.7
383.0977,133.5
383.1166,132704.4
383.1871,140.1
383.2702,135.2
383.2939,99
383.523,17.5
383.8735,192.2
383.9658,526.4
384.0964,100
384.1199,13574.3
384.1689,476.6
384.2602,33.8
384.4678,237.4
384.5726,599.2
384.6145,19.6
384.6361,748.7
384.7156,75
384.7645,1365.8
384.8196,461.1
384.8351,89.7
384.8452,565.5
384.9009,81.2
385.086,166.5
385.11,103.1
385.255,107.1
385.2738,647.3
385.3371,76.5
385.3517,18.2
385.3822,330.1
385.5132,303.3
385.6776,19.7
385.7408,244.9
385.7873,313.1
385.8018,125.4
385.8655,242.4
385.9796,3138.6
386.3499,272
386.549,80.3
386.7153,797.1
386.7499,93.5
386.8308,18.8
386.9825,168.4
387.2602,519.6
387.2676,227.4
387.3911,127.3
387.4875,300.1
387.5462,96.8
387.668,87.4
387.6889,178.3
387.7195,18.1
387.9185,135.8
388.012,18.4
388.0882,84.7
388.1245,81.5
388.2191,20.4
388.2503,415.1
388.6608,241.6
388.7126,1094.7
388.772,129.2
388.9331,345.2
389.0406,194.9
389.0764,19.1
389.1972,18
389.2599,394.9
389.3625,318.6
389.4611,455.3
389.5337,185.5
389.8063,17.9
389.8312,265.3
389.9534,374.7
389.974,16529.1
389.9914,326.3
390.0143,433.6
390.0214,20.7
390.3662,277.1
390.4268,98.9
390.4932,80.9
390.5535,20.2
390.5617,19.1
390.6317,481.6
390.7094,770.6
390.7988,1901
390.8341,193.5
390.8706,143.3
390.8752,372.9
390.8802,367.7
390.8914,713.9
390.9745,5872.8
390.9833,13028.8
390.9923,9091
391.0265,132.9
391.083,93.9
391.115,583.3
391.1797,140.4
391.3047,479.4
391.3069,512.6
391.5509,84.3
391.705,118
391.7135,336.7
391.8115,22.3
391.8417,273.1
391.8516,334.7
391.8636,441.5
391.9532,88.5
391.9875,153.5
391.9951,146
392.0669,612.7
392.1614,136.6
392.2647,26
392.3589,248.1
392.3828,336.4
392.3973,91.7
392.4607,178.8
392.5488,367.7
392.5837,487.4
392.6824,89.8
392.7686,21.4
392.7962,3396.6
392.8968,168.4
392.9692,124.9
392.9823,678.3
392.9905,286
393.0264,76.3
393.0557,81.4
393.1412,109.8
393.2548,89.9
393.8648,126.9
394.0214,218.4
394.1323,163.2
394.2712,245.9
394.414,196
394.7934,622.3
394.8758,579.9
394.9207,20.9
394.9615,21.8
394.9963,72.9
395.0049,91.7
395.4118,346.8
395.434,312.8
395.5099,524.2
395.6366,86.4
395.897,83.6
396.1392,119.9
396.7442,1653.3
396.7837,361.5
396.9914,128233.5
397.0003,53324
397.0301,139.6
397.095,81.9
397.1913,558.8
397.3621,582.8
397.7597,238.2
397.7994,208.3
397.835,67.4
397.9946,10960.8
398.0036,3679.5
398.0438,23
398.0924,20.9
398.2422,3315.8
398.5282,85.2
398.6518,86
398.741,3432.4
398.7614,1042.6
398.817,675.4
398.8901,315.3
398.9984,882.4
399.264,752.1
399.521,531.4
399.5591,345.3
399.7042,224
399.7115,18.4
399.802,611.5
399.8882,610.1
399.9472,19.6
399.9617,121.6
400.0801,148.2
400.2048,225.4
400.2858,285.1
400.2942,196.6
400.3812,83.1
400.4199,110.1
400.4949,195.5
400.5677,723.1
400.649,133.2
400.7388,1403
400.7749,124.3
400.8274,1050.3
400.9846,313.2
401.1013,220.8
401.2772,19.9
401.5441,18.9
401.5844,766.3
401.8423,508.2
401.869,19.5
401.9534,238.1
402.1898,347.9
402.2219,661.8
402.2924,93.8
402.3579,294.5
402.4659,96.3
402.5714,107.9
402.8047,18.4
402.8255,1369.1
402.935,97.5
402.9891,282
403.0083,206842.5
403.0678,74.5
403.0833,81.5
403.2161,185.7
403.4901,95.9
403.7757,627
403.8019,221.7
403.9196,126.4
403.9512,84.4
403.9967,239.8
404.0115,20736.4
404.2185,526.2
404.2516,171.4
404.3131,19.5
404.3712,90.2
404.5797,20.7
404.6527,79.9
404.6872,387.6
404.7928,124.8
404.8798,87.6
404.9016,189.6
405.0127,989.7
405.081,137.2
405.2503,172.1
405.7399,389.1
405.9184,158.8
405.9479,9296.3
406.1203,116.5
406.208,168.2
406.2745,76.3
406.3297,1356.7
406.5911,279.7
406.6829,744
406.6921,148.2
406.7207,86
406.773,2737.5
406.8789,181.9
406.9413,18.5
406.9564,313.6
406.9787,103
407.2905,706.3
407.3327,142.5
407.3628,390.5
407.4504,369.3
407.4767,136.5
407.6857,103.6
407.8839,362.6
408.1013,177.7
408.4418,574.6
408.77,2146.5
408.9845,1732.2
408.9989,125.1
409.0576,22
409.2168,315.3
409.3437,726.5
409.3768,132.9
409.4576,302.7
409.7207,643.1
409.9419,487.6
409.9683,478.7
410.0705,111.1
410.0939,333.3
410.1264,521.8
410.1977,498.8
410.4076,17.7
410.5587,348.9
410.6537,310.7
410.7673,302.9
410.8568,950.3
410.9551,220.9
411.0676,204.5
411.3144,519.7
411.4027,105.2
411.413,306.6
411.4452,167.1
411.4817,117.3
411.5389,292
411.5673,598.5
411.6014,221.1
411.7562,285
411.8418,444.2
411.8511,71.9
412.0214,18.9
412.3216,1954.1
412.4017,21.3
412.6175,92.2
412.6967,196.3
412.7192,413.6
412.8228,517.6
412.8537,830.1
412.9379,21.6
412.9652,24668.2
412.9742,8130.6
413.0564,292.1
413.1353,120.7
413.2669,3103.7
413.2965,333.5
413.3249,197.5
413.4932,143.1
413.7848,20.3
413.9657,585.8
414.1137,106.1
414.1492,556.9
414.2702,280.9
414.4834,102.4
414.611,584.5
414.7157,618.9
414.8034,174.4
414.8259,583.1
414.9644,683.7
415.0797,19.2
415.2222,596.6
415.2574,215.8
415.2925,477.9
415.5173,546.9
415.7466,77.5
415.7753,188.5
415.9728,124
416.0248,248.6
416.1356,7887.1
416.1521,558
416.1923,662.5
416.2146,29696.9
416.5256,19
416.601,184.1
416.6392,21.1
416.7249,19.7
416.7916,229.1
416.8025,719
417.2178,2575.8
417.6396,555.4
417.777,106
417.8239,18.9
418.4442,106.6
418.6704,80.9
418.7774,401.4
418.9822,77323.7
419.0118,123.8
419.2566,1719.3
419.5212,116
419.6805,82.3
419.742,86.6
419.9749,563.9
419.9855,5885.1
420.0512,800.1
420.198,401.8
420.4392,24.4
420.5173,169.3
420.5868,629
420.8697,208.4
420.8856,1818.8
420.9585,1200.3
420.9804,2301.9
421.189,149.3
421.2282,92.4
421.2346,25.4
421.2728,19
421.3732,205.1
421.4873,153.9
421.7214,82.7
421.7688,178.4
421.7809,20.1
421.9217,1253.1
421.9554,73.5
422.068,267.8
422.1271,129.2
422.18,105.3
422.266,587.4
422.3036,27.6
422.7961,75.6
422.9509,258.5
423.2742,429.4
423.6754,17.9
423.8272,105.6
423.8406,658.3
424.1838,264.4
424.2277,349.2
424.2521,91.7
424.6008,423.1
424.9303,18.5
425.1017,260.3
425.1206,418.8
425.1421,465.4
425.2537,93.8
425.3632,264.2
425.8421,81
425.8921,94.6
426.3228,260.5
426.3572,784.1
426.4631,105.7
426.6892,511.5
426.7104,115.7
426.7291,449
426.9332,662
426.9501,188.2
427.2154,363.5
427.516,128.3
427.5325,83
427.6479,380.9
427.846,107
427.9478,500.3
428.056,765.6
428.06,555
428.0716,136.5
428.3564,289.6
428.7485,187.5
428.828,667.2
428.9386,1629.4
428.9479,146.6
428.9877,664.1
428.9982,548.5
429.0226,568.5
429.0373,973.5
429.0895,517.9
429.2995,299.1
429.3905,513.6
429.6083,535.7
429.739,134.6
429.8885,727.1
429.9389,19.3
429.946,114.4
430.0811,102.8
430.1616,465.2
430.1905,226
430.2493,124.4
430.325,209.7
430.402,18
430.5757,104.3
430.6122,621.1
430.696,319
430.8107,180.1
430.9143,2010.2
430.948,22.2
431.0852,26.5
431.1212,615.6
431.1718,17
431.1789,489.6
431.2175,2366
431.2797,104.4
431.3197,18.9
431.5192,240.4
432.516,435.7
432.5623,91.8
432.6004,239.6
432.6943,1033.5
432.712,330.5
432.9282,305.7
433.2497,60.7
433.2591,66.8
433.3554,214.8
433.4411,119.2
433.5368,478.4
433.7006,681.9
433.8008,179
433.8441,277.6
433.9216,79.7
434.0119,106.4
434.1654,73.1
434.2177,315
434.2983,289
434.4763,87.8
434.534,85.3
434.6767,187.4
434.7161,289.3
434.8593,96
434.9563,13438.5
435.0288,101.9
435.2189,91.2
435.322,19.1
435.3371,322.9
435.4034,149.8
435.4123,98.5
435.6126,18.7
435.81,347.4
435.8489,152.6
435.9575,284.4
435.9688,213.6
436.0047,570.7
436.0189,205.4
436.3792,84.6
436.3925,125.1
436.42,280.6
436.8256,313.3
436.9468,190.6
436.9545,945.4
437.1569,140.2
437.2135,109
437.232,113.1
437.287,315.9
437.3283,76.6
437.3472,341.6
437.5876,91.7
437.8042,355.6
437.9904,18.2
438.015,531.6
438.0596,94.6
438.1179,113.8
438.5717,365.8
438.6495,619
438.7216,324.4
438.7285,335.5
438.9726,1927.9
438.985,3394.5
439.0022,122.5
439.0835,23
439.2047,123.7
439.7392,136.4
440.0034,139
440.1389,18.8
440.3194,120.4
440.4744,446.2
440.4935,447.5
440.7259,507.2
440.7468,297.5
440.9691,854.2
440.9829,242.9
441.0166,101.7
441.2983,235.1
441.5275,76.9
441.7452,181
442.022,83.6
442.0721,339.2
442.3409,20.4
442.4325,412.8
442.5273,172.2
442.5545,241.6
442.5642,138.6
442.6486,131.1
442.7234,598.5
442.9068,532.8
442.9838,383.6
443.0411,334.1
443.2534,1736.3
443.6224,152
443.6366,672.1
443.7254,20.8
443.7993,81.5
443.9391,83.4
444.0116,19.9
444.086,18.6
444.2822,310.6
444.3604,98.7
444.6632,259.3
444.7243,293.5
444.9423,382.1
444.9601,135.4
444.9862,128.1
445.0749,467.6
445.125,382.5
445.2328,1425.8
445.4589,22
445.8645,673.5
446.1101,590.9
446.2469,85.8
446.3031,532.1
446.5285,595.8
446.6358,734.3
446.7579,623.5
446.7623,638.9
446.8887,596.3
447.488,74.8
447.5048,20
447.5442,296.6
447.6954,357.4
447.9323,658.5
447.997,293.2
448.1101,136.5
448.3308,713.4
448.4234,187.6
448.668,914.3
448.6836,166
448.7583,370.4
448.8443,280.4
448.8683,84.2
448.9332,2851.3
449.0489,122.6
449.1546,2228.2
449.6163,175.8
449.8103,558.9
449.8337,144.6
450.1579,471.1
450.3356,88
450.3732,317.8
450.465,196.7
450.6662,375.7
450.7558,827.2
450.8095,513.4
450.9302,431.4
450.9765,629.1
451.11,24.6
451.1505,115.1
451.2531,78.3
451.8715,567.9
451.8898,198.9
452.0164,102.4
452.2138,209.1
452.2691,20.2
452.3283,244
452.4574,123
452.7403,19.4
452.8899,541.4
452.9316,277.4
453.0545,155.6
453.1723,656.5
453.2112,114.4
453.3333,75.4
453.4993,222.5
453.5402,433.5
453.6419,20.8
453.7223,105.5
453.9443,647
454.2933,108.4
454.3968,554.4
454.5074,328.7
454.7338,170
454.7472,537.5
454.8173,544.4
454.9501,29804.5
455.0808,248
455.2253,150.3
455.3612,192.4
455.4126,243
455.9022,333
455.9537,641.9
456.0966,124.9
456.1276,74.3
456.4249,181.6
456.6431,206
456.6532,471.8
456.7005,1008.5
456.9472,6442.9
457.0301,378
457.233,9544.2
457.5488,480
458.0906,20.9
458.2362,674.2
458.2705,20.9
458.5067,304.1
458.533,77.8
458.6968,387.8
458.9011,739.9
458.9612,1136.1
459.2488,336346.1
459.334,353.7
459.4451,75.6
459.7083,543.2
459.802,295
460.1424,363.2
460.2521,69664.9
460.3414,117.5
460.6952,879.6
460.7837,591.4
460.9669,63726.3
461.1571,121.8
461.2553,4502.5
461.4237,584.9
461.4516,715.1
461.5507,147.4
461.9702,3933.7
462.4271,256.9
462.6039,441
462.6407,236.9
462.8858,125.2
462.9637,19516.1
463.0084,79.2
463.1654,17.8
463.203,1650.9
463.2615,76.5
463.2824,474.7
463.4252,671.9
463.7785,329.7
463.812,514.9
463.9066,292.2
463.9511,76.8
463.9657,594.6
464.0406,96.8
464.1461,18.2
464.4259,374.3
464.5597,560.8
464.7306,544.5
464.9048,16.9
464.9785,6382.6
465.1712,95.4
465.2921,106.6
465.3553,16.7
465.8423,19.3
465.8806,136.4
466.0233,206.8
466.391,151.2
466.5211,123.8
466.6583,163.1
466.8052,634.6
466.8141,20.7
466.8228,234.6
466.8505,74.2
467.0046,20.4
467.0527,111.3
467.1271,75.9
467.1481,18.2
467.2256,478.7
467.3231,18.2
467.5283,94.6
467.6672,112.5
467.6956,118.6
467.8353,73.4
468.0753,149.4
468.0931,594.8
468.3532,481.3
468.726,360.6
468.805,161
468.8656,183.7
469.1474,679.1
469.2352,333.3
469.3303,21.2
469.404,130.5
469.4647,191.7
469.6764,100.1
469.7988,111.1
469.9244,203.4
470.1721,315.3
470.5776,225.7
470.5889,639.1
470.6214,550.8
470.6757,295.9
470.8529,310.8
470.924,11759.4
470.9961,1611.3
471.2848,896.6
471.3662,76
471.4051,529.7
471.5398,138.1
471.572,206.7
471.7091,461.9
471.7206,18.5
472.1931,19.6
472.333,350.3
472.4412,492.4
472.54,493.2
472.6098,116.7
472.6467,137.1
472.7588,1017.4
472.921,1604.4
472.936,110.4
472.9464,845.4
472.9635,379.8
472.9835,955.7
473.1488,78.5
473.2648,3877.8
473.75,108.4
473.827,114.4
473.8636,100.8
473.8738,312.5
473.9351,70.3
474.2788,140.1
474.5446,147.3
474.7456,110
474.7621,353.2
474.9967,21.7
475.0467,509.7
475.2227,16219.5
475.3828,244.9
475.5176,322.4
475.5661,339.5
475.6547,146.5
475.7303,189
475.8226,89.3
475.8914,544
476.0664,97
476.1171,20.7
476.167,115.8
476.2256,1271.4
476.7046,101.1
476.9409,37033.8
477.1508,89.8
477.9074,354.6
477.9443,1041.6
478.2306,18.3
478.3297,39262.3
478.459,318.1
478.65,18.8
478.7802,289.2
478.9168,110.5
478.9381,12352.4
479.0033,127.6
479.0537,17.6
479.3332,5541.9
479.5289,262.5
479.9413,832.4
480.276,522.7
480.3465,1489.8
480.7926,20.8
480.8684,18
480.952,1817.6
481.0918,833.9
481.1177,122.2
481.1715,325.1
481.2334,979.1
481.2448,685
481.4559,150.5
481.6619,328.7
481.8662,123.5
481.9519,115.1
482.0949,204
482.3245,1330.7
482.7011,469
482.8695,223.1
482.8834,514.1
482.9199,18.1
482.9403,110.6
483.0522,77.5
483.0698,423
483.094,352.1
483.2488,136086.8
483.598,201
483.7011,320.3
483.9699,18.4
484.2521,29083.7
484.2833,391
484.3641,94.5
484.9676,123.5
485.1055,17
485.1437,509.7
485.2644,126299.3
485.7917,94
485.965,24.1
486.069,768.7
486.1216,126
486.2678,30597.5
486.3218,119
486.3409,90
486.4537,313.3
486.7377,243.7
486.7799,19.2
486.898,898.5
487.1782,93.2
487.2801,85731.5
487.4603,389
488.0055,321.4
488.2833,15961.2
488.6878,166.4
488.8304,136.7
488.9189,650.4
489.0855,32.2
489.2849,1306.7
489.3285,77.3
489.3634,489.8
489.3771,766
489.3984,287.5
489.4915,204.7
489.6025,442.9
489.9115,312.7
489.922,154.8
489.9281,344.4
490.0499,260.6
490.1296,496.8
490.1744,96.1
490.1907,471
490.2747,394.5
490.2913,2087.3
490.3217,152.6
490.5476,102.8
490.6609,483.5
490.827,310.1
491.0495,102.6
491.1267,74.3
491.1895,291.6
491.2394,107.5
491.2623,116.8
491.31,188.1
491.3676,470.6
491.4467,600
491.9563,911.5
492.1067,476.5
492.2869,153.7
492.4384,317.4
492.8322,104.2
492.898,93.9
492.915,6567.7
493.0564,69.6
493.1671,557.6
493.2482,20.1
493.4307,123.6
493.479,96.7
493.9177,309.1
494.0806,18.1
494.1098,122.6
494.1462,284.9
494.2768,619.4
494.282,619.6
494.3244,3877
494.4579,146.5
494.5211,173.1
494.6752,87.3
494.9121,1451.2
494.9976,137.2
495.377,567
495.7839,77.9
495.9708,155.2
496.1881,327.1
496.3404,328057.3
496.5147,324
496.6615,553.7
496.9321,882.1
496.9719,82.8
497.0245,112
497.0391,233
497.3436,81332.4
497.5934,83.4
497.7168,128.9
498.0357,536.7
498.3467,4444.1
498.5913,552.9
498.6134,514.8
498.6384,149.5
498.6837,376.2
498.8114,17.4
498.9014,562.2
498.9284,489.4
498.9773,78.3
499.188,88.9
499.2121,763.2
499.2228,7241.3
499.3525,171
499.4702,151.5
500.2263,703.5
500.6809,500.2
500.9037,131.8
500.9324,297.1
500.9844,876.9
501.0351,304.5
501.0964,485.8
501.2386,6801.7
501.2606,319.4
501.9222,310.5
502.1344,625.8
502.3295,19827.9
502.7569,471.7
502.8355,135.7
502.9761,639.9
503.0515,331
503.0795,80.7
503.102,707.7
503.1604,78.2
503.2322,530.6
503.2538,4205.7
503.3325,3042
503.4932,73.5
503.8976,79.5
503.9618,177.7
503.9856,384.3
504.1438,462
504.3069,3573.5
504.3453,11169.5
504.3655,282.6
504.6292,571.7
504.8416,149.9
504.8546,19.1
504.8896,328
505.034,597.4
505.1611,79.8
505.2325,1904.2
505.3485,1788.2
505.4578,105.2
505.5128,483.2
505.6136,88.7
505.6913,100.4
505.8478,18.2
505.8902,232.5
505.9365,305.1
506.181,167.4
506.3608,4073.7
506.4966,265.1
506.8333,542.4
506.8917,4485.9
507.075,195.9
507.2487,31378.1
507.2788,268.3
507.548,157.8
507.8129,284.1
508.2519,4550.3
508.2794,302.4
508.4183,257.8
508.6258,347.4
508.6734,80.3
508.7125,354.7
508.7556,469.2
508.889,1865.1
509.0047,1616.9
509.0344,72
509.2642,7071
509.3095,79.4
509.3415,464
509.4158,18.4
509.5676,260.3
509.62,465.9
509.6978,18
510.1634,275
510.2678,859.6
510.3556,4591.1
510.6598,131.5
510.9036,855.5
511.4793,138.6
511.5941,247.8
511.6068,200.5
511.8786,553.5
511.9172,133.2
511.9994,109.7
512.2426,126.1
512.3372,455.3
512.4793,324.7
512.8105,131.5
512.9087,15432.8
512.9421,318.8
513.3366,512.9
513.4339,569.6
513.7526,93.9
513.8303,609.2
513.913,267.6
514.0008,257.1
514.0737,345.5
514.1201,188.7
514.3821,208.5
514.6587,653.9
514.6862,152.1
514.9054,8907.8
515.0213,385.9
515.1119,200
515.6051,691.1
515.8863,151.3
516.2194,373.9
516.3067,13059.1
516.4323,163.4
516.4763,284.7
516.6405,210.5
516.7036,95.3
516.7819,217.2
516.9202,988.3
516.9548,113
517.1513,18.2
517.2949,143.3
517.3098,1703.5
517.715,81.7
517.74,134.6
517.8992,279.2
517.9766,94.4
518.1361,626.6
518.2046,270
518.2919,84.1
518.3223,529141.7
518.4488,21
518.5662,107.8
518.5921,287.9
518.9255,26816.7
519.2852,241.6
519.3078,616.7
519.3256,134313.7
519.4767,64.9
519.5781,127.7
519.651,205.9
519.6791,102
519.9293,1469.2
519.9684,116.2
519.9779,206.3
520.0325,153.4
520.2243,198.9
520.3403,118204.4
520.3975,117.6
520.4661,126.1
520.53,586
520.6301,161.8
520.675,211.6
520.7095,86.6
520.866,20.7
520.9227,14356.6
520.9362,758.5
520.9472,557.1
521.0476,145.6
521.0943,129
521.3437,29621.6
521.5025,566.4
521.9268,592.5
522.1123,106.2
522.1236,17.5
522.2583,271.6
522.356,142250.1
522.7049,21.7
522.7192,20.1
522.8647,475.1
522.9196,1475.3
522.9376,3459.5
522.9681,348.4
523.1579,329.5
523.3593,38350.7
523.4747,149.1
523.7259,285.4
523.8952,187.4
524.0231,26.8
524.0272,21.9
524.0468,431.7
524.0907,88.2
524.2469,214.3
524.3383,326.8
524.3717,110923.9
524.782,291.2
524.9351,602.5
524.991,91.4
525.0608,332.2
525.0962,79.8
525.2313,237.4
525.271,289.5
525.3749,30463.9
525.4221,279.9
526.1547,331.4
526.1768,547
526.27,143.7
526.2835,22.1
526.2961,515.3
526.3293,5378.6
526.5779,90.9
526.7247,672.2
526.8389,196.3
526.9983,111.6
527.0926,420.4
527.2272,633.1
527.3364,74.1
527.5057,496.8
528.4769,122
528.8826,7614.1
528.9546,1862.3
529.0062,264.7
529.0856,316.8
529.2457,133
529.3796,77
530.0401,68.5
530.2182,412
530.3568,750
530.6724,101.3
530.8795,1688.4
531,106.4
531.2488,4113.9
531.2706,422.8
531.3887,111.8
531.5075,477.7
531.7518,597.9
531.9395,652.5
532.0811,109.4
532.1317,296.5
532.2808,2173
532.3381,9146.9
532.5223,138.4
532.8031,232.7
532.914,614
532.9655,1161.2
532.9791,109.7
533.0266,94.7
533.632,667.1
533.7782,123.3
533.869,318.1
533.8901,644.4
533.9182,19.7
534.1752,144.4
534.2544,481.5
534.2963,142458.2
534.3503,146.5
534.4688,76.5
534.8067,19.2
534.8185,320.9
534.8793,21
534.8994,16782.9
535.0573,85.8
535.2996,35807.7
535.442,87.7
536.0376,166.3
536.1223,21.2
536.1861,19.7
536.2948,6909.6
536.4913,114.4
536.6392,497.1
536.6965,316.9
536.851,76.5
536.8618,350.6
536.8966,9732.2
536.993,20.1
537.0653,142.2
537.297,912.5
537.3799,27.4
537.7853,17.3
538.0308,104.5
538.2642,622.9
538.5592,19.2
538.7352,21.3
538.8398,110.8
538.8941,1755.2
538.9114,1190.7
538.9325,2271.4
539.2067,119.3
539.2497,151.9
539.4345,95.7
539.4925,231.4
539.5843,191.6
540.1426,20.3
540.2931,106.1
540.3052,565.3
540.3287,481.9
540.4246,232
540.5833,722.4
540.6415,95.6
540.6602,351.4
540.7512,305.2
541.0348,112.5
541.1967,313.9
541.2625,154.3
541.5232,360.4
541.6106,105.7
542.0557,300.8
542.161,133.8
542.2291,84.2
542.3224,204982.9
542.3945,224.5
543.0691,119.8
543.3256,50698.6
543.7024,301.9
543.8443,332.1
544.1696,112.6
544.2518,149.8
544.2733,1352
544.338,219712.4
544.5122,230.9
544.7521,19.4
544.8429,117.3
544.8559,512.7
544.9489,1897
545.1406,232.3
545.171,201.9
545.3415,56970.5
545.4183,102.3
545.5494,103.5
545.67,34.4
545.8679,105.3
546.0332,546
546.0362,590.1
546.041,326.2
546.1402,233.8
546.3536,159828.5
546.3919,75.6
546.6132,203.4
546.8549,507.4
547.1977,126.8
547.2844,344.9
547.3232,18.5
547.357,45021.1
547.4159,163
547.5502,674.4
547.7196,193.6
547.8725,97.4
547.9663,527.9
548.2773,734.8
548.3108,668.4
548.3605,2628.4
548.7813,66.7
548.8895,24.8
548.9077,229.3
549.0407,85.7
549.3627,681.4
549.485,1354.8
549.5702,369.8
549.7626,123
549.8419,322.7
549.9574,108.9
550.1157,349.1
550.3896,120.7
550.4016,75.2
550.5808,179.9
550.5898,179.2
550.7257,268
550.8732,2459.8
551.172,141.8
551.2531,336.8
551.394,17.7
551.4867,368.7
551.6839,669.4
551.9708,93.1
552.0295,334.9
552.0422,276.6
552.061,18.4
552.2005,271.1
552.2722,125.5
552.8432,187.9
552.8709,1447.5
552.9143,564.7
553.1231,118.1
553.1726,98
553.29,513.3
553.3213,136.8
553.3661,729.4
553.5962,641.4
553.6712,17.2
553.8731,321.7
554.0799,481
554.1004,436.7
554.2112,342.7
554.3059,271.9
554.415,187.4
554.4339,241.9
554.5338,111.2
554.8508,331.3
554.8878,149.3
555.4384,293.9
555.7412,104.9
555.8157,205.5
555.8946,93.9
555.9119,22.8
555.969,140.5
556.272,144.2
556.6355,173.1
556.6573,74.3
557.2936,21
557.4423,118.8
557.4749,71.6
557.5364,341.3
557.654,528.8
558.1392,20.6
558.2963,56458
558.5471,95.8
558.8304,95
558.8641,497.3
559.0665,18.8
559.2998,14917.1
559.3508,357
559.3573,147.2
559.6241,353.4
559.653,99
559.9483,166.2
560.2942,1602.4
560.312,58835.9
560.6363,343.5
560.9222,1268.6
561.3153,12648
561.5312,215.6
562.3102,2544.2
562.3276,36959.7
562.6062,569.1
562.9222,670.3
562.9876,109.9
563.1468,670.5
563.1633,108.6
563.2437,105.1
563.3313,8068.7
563.7023,22.3
563.8651,455.7
564.2872,394.4
564.3066,1068.5
564.327,1009
564.7165,683.8
564.8506,952.1
565.3738,84.2
565.5086,566.5
565.5897,96.5
565.6201,520.6
565.6631,123.1
565.9929,20.4
566.0883,21.4
566.1002,309.8
566.3224,40687.7
566.4718,117.8
566.5105,84.8
566.6724,21.3
566.8259,198.5
566.8466,561.7
566.9546,86.4
567.0051,368.6
567.1086,391.9
567.1235,468.7
567.326,10590.6
567.5501,141
567.8371,125
568.0331,442.4
568.3384,14637.1
568.4962,261.3
568.7659,113.1
569.0326,204.5
569.3415,1111
569.3859,353.9
569.9062,89.3
570.3559,636.8
570.8671,5434.2
570.9146,19.5
570.9977,84.1
571.0602,625.9
571.2838,66.8
571.4894,117.7
571.6469,80.9
571.7393,222.5
571.8121,365
572.0474,85
572.3714,752.9
572.3954,108.1
572.6105,119.8
572.8646,6553.2
572.9802,457.1
573.1069,80.7
573.1274,101.8
573.2601,267.4
573.3943,95
573.7107,118.2
574.0216,423.7
574.253,339
574.5049,109.2
574.8623,947.1
575.1844,105.4
575.2083,908.9
575.289,685.2
575.5043,8854.3
576.1331,18
576.1617,89.3
576.2809,6029.8
576.5069,1808.2
576.5339,107.6
576.6346,122.4
576.7425,279.6
576.8843,7090.8
576.9141,92.7
576.9325,139.4
576.9704,158
577.218,111.1
577.2827,109.6
577.4589,501.7
577.5196,299.7
577.6214,530.3
577.6396,164.1
577.6471,90.4
577.8846,20.6
577.9078,278.8
578.1543,82.7
578.6766,230.2
578.7082,104.3
578.8815,9157.7
578.9602,293.2
579.2667,362.3
580.011,170.6
580.0172,141.3
580.024,149.8
580.0785,218.3
580.2471,216
580.2933,933.8
580.8489,137.6
580.8791,1102.4
580.8955,1586.8
580.9098,298.2
580.999,17.5
581.0648,104.9
581.1338,667.4
581.366,144.3
581.5129,86.3
581.5603,24.8
581.7337,120.5
581.8861,76
582.244,86.8
582.2752,212.1
582.2962,11626.3
582.3785,217.9
582.3998,483.4
582.4544,334.6
582.4709,109.5
582.4938,240.6
582.5326,634.6
582.5755,18.1
582.5997,18
582.7751,171.5
582.8177,128.9
582.8921,380.4
583.3,553.2
583.4157,302
583.4704,392
583.8786,123
583.9404,779.8
583.9892,365.7
584.1542,311.2
584.2816,153.4
584.3119,1398.3
584.3351,673.4
584.6548,110.9
584.7,218.4
584.8367,129.7
584.8594,265.7
584.8705,180.3
584.951,113.5
584.9666,107.5
585.0413,141.4
585.0774,75.1
585.1583,713.2
585.1887,121.9
585.3151,661
585.4059,552.6
585.457,131.3
585.5469,108.7
585.6791,77.7
585.9108,106.1
586.228,19.4
586.2748,83.4
586.3101,5228
586.4821,212.1
586.6921,349.9
586.717,247.7
586.8417,2166.1
586.9139,427
586.9315,104.4
587.132,617
587.3137,652.9
587.3527,87.7
587.4115,88.9
587.4656,511.4
587.73,278.7
587.736,243.4
588.1274,402.9
588.6072,103.6
588.8393,2007.3
588.9099,564
588.991,162.3
589.2365,254.4
589.3066,128.4
589.5702,22.3
589.7276,146.7
590.3229,6741.4
590.4068,668.8
590.4543,104.4
590.6982,180.8
590.7725,346.1
590.9255,377.5
591.0102,108.5
591.1166,218.6
591.2619,547.5
591.3856,385.6
591.6281,217.9
591.736,20.4
591.8076,92.8
591.953,107
592.1038,525.2
592.1883,481
592.2565,689
592.3711,493.9
592.4909,713.8
592.5123,104.5
592.8584,5961.7
593.0182,731.9
593.0952,740.9
593.5217,285.1
593.6265,214.8
593.694,36.8
593.8427,230.1
593.8614,407.1
593.9367,117.1
594.6738,311.2
594.8552,5011.3
594.9324,275.2
594.9747,262.3
595.0882,254.2
595.4407,853.8
595.4536,597
595.5011,20.5
595.643,103.7
595.7778,284.9
595.8072,367.1
595.86,434.4
596.551,466.3
596.6179,720.8
596.767,314.4
596.8529,1378.2
596.8712,540.1
597.0036,109.9
597.1123,22.1
597.3807,424.2
597.4561,2194.8
597.4864,11984.4
597.9169,554.3
598.2352,121.2
598.2682,383.9
598.4893,1964.3
598.7513,19.6
599.0473,582.3
599.1256,334.9
599.1823,348.2
599.4644,1039.3
599.5029,1312
599.5297,515
599.6095,468.2
599.7984,84.9
600.281,596.4
600.3886,21.8
600.5041,147.1
600.7445,905.8
600.7675,100.9
600.8128,133.3
600.8475,132.4
601.1032,71.3
601.2322,310.6
601.5214,997.8
601.5997,338.8
601.6579,191.4
601.856,73.7
601.8762,816.8
602.2959,1713.3
602.5502,493
602.8158,1080.2
602.8498,148.6
602.867,186.8
602.9085,342.4
602.9919,783.5
603.2739,327.7
603.5361,498.6
603.8488,18.9
603.9921,279.6
604.0809,701.5
604.3122,944.5
604.6329,148.1
604.8841,288
605.2941,588.4
605.4581,129
605.5511,153.4
605.967,133.7
606.0083,482.6
606.1585,185.6
606.2967,1537.7
606.3066,629.3
606.3864,712.9
607.0955,206.9
607.1715,4778
607.3802,548
607.7225,476.4
608.1586,97.1
608.1647,135.2
608.1753,462.7
608.4179,307.7
608.4383,74.6
608.734,159.5
608.8322,1124.1
608.9116,407
608.9461,77.8
608.9915,84.4
609.0433,467.1
609.1477,76.8
609.2677,74.9
609.4444,139.7
609.4701,116.2
609.6734,668.5
610.0554,79.7
610.1311,118.3
610.1687,19.2
610.2769,76.1
610.3098,1612.1
610.5469,86.3
610.8298,1416.3
610.8688,20
611.1833,106.2
611.8011,18
612.0099,368.6
612.3254,1861.4
612.6523,279.2
612.7069,120.7
612.8896,18.2
613.2567,153.9
613.4407,268.8
613.548,236.5
613.8619,320.1
614.1378,301.4
614.3363,460.8
614.3471,96.2
614.5624,104.8
614.6243,21.9
615.4458,135.6
616.0212,271.4
616.5896,123
616.7786,21.2
617.0021,210
617.2097,149.6
617.4763,3640.2
617.5897,379.5
617.6238,76.7
617.661,824.2
618.1006,320.6
618.3638,545
618.4284,81.2
618.717,263
618.739,105.4
618.8903,281.1
619.0166,21.6
619.3086,86.7
619.4906,1473.1
619.5247,139.3
619.6055,17.8
619.8044,81.6
620.232,504.2
620.2908,325.9
620.4801,178.2
620.8392,110.4
620.8956,20.1
621.3635,313
621.453,2963
621.4856,9953.1
621.707,98.6
621.7546,113.4
621.8359,20.4
621.9945,403.7
622.0238,19.2
622.2309,78.7
622.4873,348.5
623.0027,445.7
623.1366,18756.9
623.1939,78
623.2622,454.6
623.4731,379.4
623.4858,238
623.5033,2829.4
623.7529,19.3
623.9255,218.6
624.1403,3359.9
624.2623,353
624.3806,137
624.4323,90.8
624.5826,229.6
625.1422,140.3
625.2158,26.2
625.4421,19.7
625.5183,592.7
625.7726,241.9
625.9329,445.2
626.047,77.6
626.238,113.2
626.2796,198.3
626.522,691.1
626.8229,618.2
626.8416,470.2
626.9916,106.9
627.4814,347.8
627.5339,1756.1
627.7722,266.1
628.1137,95.9
628.2998,610.8
628.5484,348.1
628.6002,298.3
628.623,428.1
628.8055,277.8
629.0189,423.5
629.1535,40032
629.6898,116.8
629.9253,96.8
630.1435,877.8
630.1571,7139.5
630.2653,841.9
630.5826,330.9
631.1127,182.5
631.1296,459.4
631.1602,1096.5
631.3915,427.9
631.546,102.1
631.5684,97.4
632.0612,98.2
632.1231,73.1
632.1738,120.9
632.2613,88
632.395,225
632.4408,515.9
632.6351,577.2
632.7531,79.8
632.9814,356.5
633.0542,433.8
633.2377,209.2
633.5048,688.8
633.7213,85
633.8172,103.2
633.8731,223.5
633.8971,309
633.9046,292.1
634.2315,350.1
634.3189,182.5
634.3729,81
634.5032,22.5
634.8434,2415.7
634.9024,21.4
634.9914,227
635.0682,729.7
635.1121,148.7
635.1177,124.1
635.225,755
635.2783,136.2
636.8399,3404.8
637.0327,137.8
637.5166,316.1
637.6328,142.8
638.1012,538.8
638.158,80.5
638.1964,478.5
638.2565,490.8
638.3596,128.5
638.3746,578.3
638.4388,22
638.452,865.1
638.8372,376.5
639.0034,127.6
639.4275,86.3
639.4744,474.5
639.545,222
639.5752,80.4
639.9125,156.2
640.1122,80.1
640.2635,76.8
640.4047,115.7
640.4277,21.4
640.81,121.1
640.9456,348.4
641.0503,121.8
641.602,98.5
641.6234,79.4
641.6766,415.1
642.1042,20.3
642.2329,390.9
642.3134,444.1
642.4149,21.6
642.5826,157
642.7222,143.5
642.8168,264.4
642.8425,216.1
643.4045,21.6
643.7776,351.6
644.2416,105.9
644.2515,109.9
644.2931,97.2
644.5437,258.1
644.8526,91.2
645.0037,199.9
645.1186,11746.3
645.1526,80.8
645.3206,620.8
645.4225,109.1
645.5019,20.4
645.5794,226.7
645.9828,106.1
646.0338,87.6
646.1221,1969.7
646.2516,219.6
646.3276,120.4
646.4306,712.7
647.0222,97.5
647.0951,868.3
647.1004,998.8
647.2053,109.1
647.2473,74
647.4747,319.4
647.5161,465.1
647.7001,189.9
648.0741,88.9
648.5074,21.5
648.7894,88.7
649.1011,83.7
650.0539,120.5
650.0847,294.4
650.4397,659.6
650.684,510.6
650.8166,1388.5
650.9786,107.4
651.0157,69.2
651.1355,37553.8
651.3174,89.8
651.4517,312.8
652.0636,341.8
652.1392,6714.9
652.2528,19.8
652.4511,307.2
652.5684,481.4
652.662,447
652.7187,513.9
652.8146,2632.3
652.8874,136.8
653.0836,22.2
653.1112,954
653.1412,400.2
653.5054,78.4
653.5979,104.5
653.9493,141.9
654.1565,316.2
654.2327,122.7
654.5495,445.4
654.5924,21.8
654.6247,212.3
654.812,550.6
654.836,231.4
655.23,179.8
655.265,317.1
655.4751,116.4
655.8949,86.3
656.0889,198.6
656.1777,18.5
656.3204,84.2
656.3562,757.5
656.9378,111
657.006,21.5
657.1171,378.9
657.3632,582.1
658.0872,133.5
658.2035,91.1
658.3857,418.2
658.4292,896.6
658.9362,114
658.9429,105.6
658.9509,91.9
658.9628,599.7
659.0305,21.6
659.4328,260.2
659.8426,89.3
659.9138,501.3
660.0832,2435.3
660.1857,550.1
660.7473,92.5
660.8936,686
660.9859,106
661.0832,3939.1
661.2621,80.9
661.3294,85.7
661.4682,737.2
661.5069,643.1
662.0736,89.5
662.086,92.4
662.2597,20.5
662.4808,382.8
662.5903,305.7
662.6719,444.9
663.0609,455.5
663.0849,92.8
663.2154,125.7
663.2958,353.3
663.4551,524.3
663.5932,158.5
664.049,99.2
664.2758,570.2
664.4688,4343.1
664.52,318.2
664.6221,133.9
664.7151,128.3
665.0296,81.9
665.087,84
665.1748,20.5
665.3003,815.7
665.4924,94.2
665.7058,506.8
665.9693,426.5
666.2285,606.6
666.3769,18.8
666.4842,6316
666.7097,552.9
667.1003,13888.7
667.2174,17.6
667.4186,21.6
667.4887,930.9
667.8366,17.3
667.8919,646.8
668.0123,228.3
668.1048,1313.6
668.111,1194
668.4484,117.1
668.5229,20.6
669.0163,308.4
669.0765,259.3
669.1031,170.8
669.496,195.1
670.1216,101.5
670.3326,22.6
670.4738,208
670.5449,18.4
670.9333,699
671.3689,339.3
671.9082,356.1
671.9376,312.3
671.9693,113.3
672.0578,72.1
672.4233,1438.1
672.482,403.7
672.5341,354.8
672.8116,595.9
672.9147,223.4
672.9828,100.8
673.0684,692.4
673.1173,41534.6
673.1642,381.5
673.3051,245.8
673.331,91
673.5293,885.3
673.7201,379.9
673.9324,282.7
674.1209,7853.9
674.434,81.5
674.8235,112.3
674.959,18.5
675.0385,803.3
675.0943,482.1
675.5445,12475.1
676.0478,2480.5
676.1179,163.5
676.3432,144
676.5467,1300.9
676.8291,394.5
677.0003,617.3
677.048,358
677.4053,399.7
677.8062,89.3
677.9651,93.5
678.0728,101.1
678.1375,217.8
678.1595,495.6
678.1843,478.7
678.3095,287.4
678.5146,18.8
678.6335,190.6
680.2535,682.1
681.2662,475.6
681.3024,99.1
681.5865,72.9
681.8764,449.6
682.065,7407.5
682.7041,321.8
682.9776,392.8
683.0657,1242
683.1759,771.2
683.4518,1581.8
683.8413,385
683.8722,620.2
684.1654,565
684.1716,583
685.0506,93.3
685.0745,223.2
685.4363,4231
685.4782,115.6
685.5695,284.4
686.037,560.8
686.4399,1039.7
686.8947,168.8
687.0571,330.8
687.0824,81.5
687.2208,261.4
687.3198,291.9
687.5607,92.8
687.9603,119.5
687.997,109.7
688.1268,19
688.2929,304.3
688.5474,557.6
688.894,78.1
688.9958,313.7
689.0816,9410.3
689.0916,9777.8
689.2201,159.5
689.5601,3217.7
689.8882,269.6
689.8978,213.2
689.9044,206.9
690.051,146.9
690.0961,1008.3
690.2502,295
691.8796,445.6
691.9364,579.5
692.0043,18.4
692.2361,128.8
692.6214,20.3
692.9644,84.5
693.0614,111.5
693.0962,98.4
693.2912,22.9
693.4664,200.5
693.6564,457.2
693.7265,504.3
693.9176,670
694.4549,95.4
694.7989,1414.7
694.8593,105
695.0996,25999.2
695.1311,304
695.4327,110.1
695.5105,3248.4
695.6038,67.6
696.1028,4052.6
696.1585,596
696.4158,22.1
696.5144,194.2
696.7649,527.3
697.05,99.1
697.1068,220.6
697.5266,13681.6
697.8172,668.9
698.0382,973.5
698.53,2096.4
698.7283,165.5
699.5688,299.8
699.937,82.8
699.9855,126.6
700.3098,95.7
700.5214,184.1
700.5426,541.7
700.8309,102.6
700.9964,494.1
701.0997,457
701.1139,22.2
701.4121,240
701.5602,33640.1
701.6326,352.2
702.0218,98.7
702.3426,3670.4
702.5294,480.9
702.564,12549.2
702.9843,102.7
703.0731,176.6
703.1316,21.9
703.2306,92
703.3464,720.7
703.576,79015.8
703.6536,359.4
703.7317,19.8
704.0469,4103.6
704.2071,103.1
704.26,600.3
704.5794,29269.9
704.6564,112.1
704.782,194
704.8013,220.1
704.9343,148.4
704.9955,442.6
705.0577,1598.6
705.1294,72.2
705.3646,554.6
705.5823,3725.8
705.9621,71.2
706.0601,155.2
706.1068,134.8
706.176,21.4
706.2445,85.4
706.3588,91.1
706.4462,18.9
706.5397,1318.4
706.9626,309.3
707.1488,124.2
707.2232,168.8
707.2579,164.6
707.3506,20
707.5699,313.2
707.7279,88
707.8643,130.7
707.9713,141.5
708.2057,1000.7
708.7019,176.1
708.7759,254.3
709.0812,19.3
709.4035,452.5
709.6604,23.2
709.9615,79.7
709.9931,371.1
710.0337,165.3
710.1704,494
710.4315,194.9
710.5928,154
710.742,80.3
710.7731,940.6
710.808,488.2
710.8936,109.5
710.9815,422.8
711.0745,9569.9
711.542,5323.3
712.0774,986
712.3594,199.1
712.4163,1136.7
712.4312,1080.1
712.6565,677.5
712.7705,571.7
712.9826,166.8
713.0667,226
713.102,81.7
713.3983,468.9
713.5023,1625
713.5461,169.6
713.8747,17.6
714.0052,160.3
714.2849,476.8
714.5599,233.7
714.6607,101.2
714.6925,301.8
714.7921,510.4
714.8915,492
715.09,484.7
715.3448,19.1
715.4476,22.1
715.9892,349.2
716.1397,102.1
716.2943,143.9
716.6642,79.6
716.82,122
717.0813,14177.2
717.1726,19.2
717.5926,722.6
717.8999,535.2
717.9199,22
718.0858,385.5
718.8676,130.3
719.0856,129.4
719.28,75.5
719.4616,1968.6
719.7123,103.1
720.0194,317.8
720.1435,92.1
720.255,264.5
720.4607,328
721.0739,483.8
721.4086,379.1
721.4791,50339.2
721.5536,135.5
721.5762,348.7
721.7251,104.7
721.8155,339.3
722.059,136
722.134,111
722.4828,16639.5
722.717,502.8
722.7465,21.1
723.321,297.7
723.4953,8416.3
723.5421,32373.8
723.6121,644.9
724.4986,1075.2
724.5458,11395.8
725.1963,385.7
725.3949,295.9
725.4842,106
725.558,64216.5
726.0294,1654.5
726.1044,577.3
726.1616,629.3
726.2569,129.1
726.3679,541.3
726.5615,23967.5
727.0395,397.1
727.1211,214.9
727.2719,107.8
727.5329,162.5
727.5654,1536.4
727.7797,111.9
727.9031,98.2
728.0339,186.2
728.6487,119.5
728.8089,187.2
728.8943,496.1
729.0236,76.6
729.5291,168.2
729.5919,8228.3
729.7806,73.3
730.1029,519.7
730.5042,20.2
730.5394,9015
730.5939,3250.9
730.6199,209
730.7648,139.9
730.8217,92.7
731.1072,88.1
731.4582,510.4
731.4967,106.2
731.5427,1823.4
731.6077,2476.8
731.8573,153.7
731.9939,85.5
732.2503,199.7
732.3353,508.1
732.5552,28030.4
732.6093,574
733.0567,5346.8
733.5586,9320.5
733.6353,134.2
733.6592,320
733.9447,17.3
734.1108,103.9
734.5129,107.9
734.5719,6479
734.6954,227.9
735.2953,110.7
735.4769,116.2
735.5031,114.1
735.573,956.2
735.6267,93.3
735.826,23
736.2306,94.3
736.2794,75.9
736.4279,640.8
736.5626,477.3
736.6074,249
737.164,624.4
737.3349,77.4
737.453,11647.7
737.7704,112.1
737.8435,21.6
737.9819,82.9
738.0176,131.6
738.4527,157.4
738.9747,157.4
738.9864,100.6
739.0107,910.8
739.0637,7125.5
739.0918,128.7
739.4326,632.7
739.5171,4075.1
739.6825,112
740.0665,565.1
740.4386,74.1
740.5209,1491.7
741.2853,18.7
741.5322,8527.5
741.6617,82.1
742.0011,228.7
742.2439,19.4
742.4075,307.1
742.535,1341.1
742.5757,11741.2
743.1109,17.5
743.5349,66.8
743.5791,2765.4
744.0244,174.9
744.161,23.2
744.1823,449.6
744.2482,106.3
744.555,7351
744.5916,9306.1
744.8455,136.8
745.1058,721.3
745.479,24673.6
745.5592,2306.9
745.5952,1686.4
745.8145,130.5
745.8406,647.6
745.9584,443.9
746.4818,9133
746.571,5765.2
746.6074,5402
746.8535,69.3
747.4951,11585.8
747.5397,31.4
747.5725,989.7
747.6091,850.6
747.8249,251.9
748.2196,73.3
748.4157,318.8
748.4977,1257
748.6909,224.7
748.7533,1038.9
749.0195,221.7
749.0889,301.5
749.1656,21.3
749.1905,108.7
749.209,112.8
749.3621,81.2
749.5102,2510.2
749.7172,154.6
750.0204,103.4
750.2752,19.6
750.413,83.5
750.5147,268.7
750.7347,104.8
750.897,83.4
751.0445,92.3
751.329,319.3
751.5737,5333.6
751.7919,362.1
752.1237,20.9
752.2517,125.3
752.2782,65.2
752.5209,4359.5
752.574,465.5
752.6626,217.5
752.7547,513.2
752.9679,125.2
753.1037,147.8
753.2077,241.6
753.4707,306.9
753.5265,1158.5
753.5873,698
753.7286,815.5
753.8888,260
754.3364,448.7
754.496,168.6
754.5371,19637.1
754.5618,79.7
754.5939,175.6
754.7543,505.6
755.0245,1659.6
755.038,1806.2
755.2137,726.5
755.5407,6178.5
755.5606,480.1
755.6799,19.7
755.7274,475.2
755.7669,165.6
755.8952,682.4
756.314,295.2
756.4515,501.9
756.4719,83.1
756.555,46186.5
756.5907,281.2
756.6421,648.8
756.9263,281.6
756.9409,270.9
757.1319,70.8
757.2711,89.5
757.4326,124
757.5584,17064
757.6239,1223.2
757.9011,21.7
757.9432,17.9
758.5708,1010946.9
758.6269,139.6
758.754,79.4
758.8953,18.4
759.3876,501.9
759.4757,98.6
759.502,260.6
759.5741,436851.8
759.6387,914.7
759.8107,172.6
760.4098,21.3
760.5876,296768.6
760.6165,79.8
760.6381,140.5
760.9,20.2
761.0452,3074
761.2131,242.1
761.3469,105.4
761.3748,203.8
761.4527,3523.7
761.558,220.3
761.5902,144334.8
762.1221,116.6
762.3909,79.2
762.5932,33261.8
763.2759,199.2
763.5952,3232.3
763.7891,694.6
764.0688,543.1
764.2688,585.7
764.3149,207.6
764.5583,772.7
765.0265,497.3
765.3058,18.9
765.3755,84.1
765.4298,491
765.4864,155.4
765.5599,476.8
765.7014,94.2
766.3153,257
766.3402,617.6
766.4922,256.4
766.5371,3386.6
766.5759,27209.1
766.8886,160.2
766.9801,842
767.3343,104.1
767.579,11133.5
767.9512,19.3
767.9943,99.4
768.2142,541.6
768.2366,104.4
768.398,128.2
768.5544,2710.4
768.5914,32194.3
768.8212,174.2
768.8497,141
769.0689,92.4
769.1056,17.6
769.1449,580.4
769.4792,4588
769.5594,748.7
769.5953,13958.5
769.878,125
769.9946,70.7
770.0356,199.1
770.4818,2480.3
770.5721,619.2
770.6083,6186.5
770.7184,86.4
770.7828,627.7
770.9924,1042.1
771.1271,537.1
771.27,20.6
771.2971,20.6
771.3243,84.4
771.4049,964.5
771.4956,1226.7
771.5493,70.1
771.611,2201.2
772.2735,264
772.5865,19139.2
772.6226,869.2
772.7046,125
772.8488,71.8
773.2319,360.4
773.4636,130.5
773.5114,1203.1
773.5901,7647.7
773.7496,339.9
774.0263,299
774.0875,17.8
774.4584,1040.4
774.6034,2007.4
774.7182,142.7
774.9647,86.3
775.2401,76.7
775.4765,163.7
775.506,112.9
775.5491,436.6
776.0023,95.8
776.0878,83.1
776.3144,241.1
776.3975,427.9
776.5467,572.7
777.0098,3714.4
777.5146,159.6
777.5451,1144.5
777.77,107
777.92,468.6
777.957,273.6
778.0076,464.9
778.0475,790.5
778.3226,141.8
778.5371,25472.9
778.6552,523.9
779.0151,344.8
779.2067,18.8
779.4339,77.2
779.541,11078.3
779.7667,108.5
779.9488,125.8
780.5528,564883.9
780.5913,598.5
781.5563,254989.8
781.9342,438.5
782.3622,279.1
782.5705,627423
782.643,290.4
782.9664,371.2
783.0274,3672.5
783.1391,224.7
783.3397,144
783.5739,294871.7
783.7367,123.1
784.0283,110.7
784.3859,125.9
784.4894,23.1
784.5872,307873.3
785.0622,616.4
785.2131,295.6
785.465,467.5
785.5902,155098.1
785.6268,623.3
785.6547,7131.4
785.7303,473
786.1872,220.7
786.6028,272212.8
786.6588,1603.7
786.9506,345
787.0998,896.2
787.4957,331.2
787.6058,134989.1
787.6707,394
788.1104,521.2
788.5577,7473.8
788.6058,21492.2
788.6219,11665.9
788.6967,141.9
789.3585,19.8
789.5412,446.7
789.5617,1457.1
789.6229,7618.3
789.6563,108.4
789.9458,172.6
790.0472,398.2
790.1794,72.1
790.5352,203.2
790.5743,14931.2
790.6253,458.8
790.7164,928.4
791.0007,283.9
791.3276,155.2
791.4136,98.8
791.5761,621.4
791.6014,124.4
792.1824,151.9
792.3715,479.7
792.5508,1171.8
792.5914,16986.8
792.9841,792.7
793.5572,1068.6
793.5947,6465.9
793.9154,102.1
794.0844,109.3
794.2724,350
794.511,2378.5
794.5694,7240.1
794.6075,38808.4
794.6978,696.4
794.7868,125.8
795.1848,17.8
795.508,21.9
795.5752,965.2
795.6105,17744.9
795.9526,189.3
796.5266,99684.7
796.5864,8662
796.6243,2672.4
796.707,181.3
797.2424,180.6
797.3146,85.9
797.53,44702.6
797.5897,1366.6
797.6256,888.9
797.6496,79.6
798.5437,24365.8
798.5999,1041.9
798.7269,129.4
798.8433,548.8
798.8848,525.1
799.0017,645.5
799.3972,24.4
799.5461,10307.9
799.6702,1995.4
799.816,105.2
799.8374,386.2
800.1551,593.9
800.171,822.4
800.2638,318.7
800.3447,500.4
800.3763,351.5
800.5279,82.3
800.5512,792.2
800.6715,259.5
800.7185,128
801.0356,122.6
801.267,473.2
801.5455,195.7
801.5773,603.8
802.3037,322
802.3929,609.1
802.5369,25126.4
802.6538,1128.9
802.9574,135.1
803.3972,209.5
803.5401,9139.9
803.6907,103.9
803.9124,92.7
804.0267,338.2
804.3052,586.6
804.3506,86
804.5528,269409.1
804.6743,493.4
804.871,18.1
804.9649,725.2
804.9955,330.6
805.2422,206.4
805.5561,126206.4
805.5835,167.1
805.9427,120
806.5701,297607.4
806.8321,441.2
806.9031,113.2
806.9477,630.7
807.0649,210.1
807.122,345.1
807.1936,111.5
807.4856,73.6
807.5732,148931.4
807.6478,511.3
807.7583,216.5
808.3923,19.1
808.4915,491
808.586,201262.7
808.6618,132.3
808.8544,459.3
809.589,100934.4
810.1957,212.2
810.2875,18.1
810.359,778.2
810.5179,490.7
810.6029,125771.7
810.6634,125.9
810.9467,215.8
811.6057,65317.4
811.6704,10789.1
812.5234,75.4
812.6041,5238.4
812.621,15791.7
812.6735,2726.1
812.7105,181.6
812.764,149.7
812.8622,485.2
813.5548,154.2
813.6225,6870.9
813.6562,92.5
813.6863,7366.2
814.1664,183.8
814.4433,24.2
814.4937,205.6
814.5754,1515.5
814.6304,84.6
814.6645,137.3
814.69,2977.7
814.7171,117.1
814.7795,20.6
815.0462,470.2
815.1365,98.2
815.2075,328.1
815.427,163.4
815.5529,563.3
815.5816,846.6
815.663,248.1
815.7133,429.9
815.8881,257.6
816.3844,122.4
816.498,141
816.5896,13283
816.9,120.3
816.9619,255.4
817.114,203.1
817.2001,87
817.2557,297.4
817.4327,24.8
817.5924,2716.1
817.8187,154.4
818.5102,2814.5
818.6077,3394.3
818.8096,105.2
819.1255,373.4
819.1907,258.4
819.2207,561
819.396,19.6
819.5707,1391.9
819.6102,479
820.4568,313.5
820.5267,50440.4
820.5859,1385.9
820.622,1409.7
820.7928,127.5
820.8729,411.4
821.5298,20415.9
821.8611,17.8
822.3793,426.3
822.461,208.9
822.5433,25913.7
822.6356,700.7
822.9865,88
823.0742,513.8
823.4897,21.7
823.5459,11949.4
823.603,162.9
824.0781,695
824.3143,1101.6
824.4676,146.6
824.559,19995.9
824.6125,317.8
824.7507,108.3
824.9117,144.9
825.2699,25.6
825.3465,136.3
825.5611,4925.3
825.9199,109.7
826.246,288.6
826.5346,895.7
826.6179,729.3
827.2435,88
828.5528,82941.1
828.8238,254.9
829.5562,39654.2
829.7201,215.6
829.7987,296.4
829.8232,591.4
829.9497,413.6
830.2338,99.3
830.4799,177.9
830.5696,48903.7
830.8342,97.6
830.918,236.5
831.0216,93.6
831.1763,184.4
831.2104,452.8
831.5727,23601.3
831.8918,20.6
832.4071,620.8
832.5851,61039.5
833.4468,475
833.5373,806.6
833.5884,30433.5
833.6562,2165.8
833.8462,655.6
834.1372,124.7
834.2415,533.1
834.3364,281.1
834.6025,27483.9
834.6523,117.4
834.8292,344.2
834.9763,95.8
835.0983,589.1
835.1665,18.6
835.2741,656.8
835.6057,9767.3
835.6684,135.6
835.7122,1086.5
835.7723,210.8
835.8976,150.3
836.2923,290.2
836.3617,110
836.6207,1333.4
837.6204,749.2
837.7574,20.6
838.5113,2036
838.54,288.7
838.6313,410.3
838.7193,314.2
839.6389,405.5
839.766,20.9
839.8112,90.5
840.0829,302.3
840.2057,583.2
840.3725,18.7
840.516,180.5
840.8033,159
840.8557,401.5
840.9781,336.8
841.0031,162.6
841.0418,256.5
841.6068,601.3
841.7565,565.7
842.5113,83.1
842.8544,305.1
843.0103,20.6
843.0746,112
843.5364,286.6
844.0431,140
844.1196,116
844.2751,539.3
844.2908,316.5
844.5268,14047.5
844.7791,474.5
845.2183,99.1
845.5308,4614.9
846.0401,189.8
846.2284,260.4
846.3621,125.3
846.4944,691.7
846.5428,5895.5
846.5858,637.6
846.8634,402.7
846.9551,276.8
847.3303,1076.5
847.3585,1766.5
847.5077,419.8
847.5474,738.9
847.5739,1094.6
847.7897,143
848.0218,208.6
848.3363,586.4
848.3959,321.7
848.5578,6595
848.8591,317.8
849.0302,69.9
849.0952,99.7
849.5609,1579.7
849.652,98.5
849.6787,700.5
849.7185,99.4
849.9651,626.4
850.1578,106.3
850.2269,164
850.2486,165.6
850.3344,1053.9
850.3734,374.4
850.6306,20.6
850.6514,398.8
850.8501,95
851.7859,439.2
851.8986,20.5
852.017,598.4
852.0808,81.8
852.5728,212.5
852.6958,98.8
853.18,100.1
853.806,306.9
854.0311,139.6
854.3202,974.1
854.568,2680.2
855.2283,127.3
855.3179,166.3
855.9831,631.8
856.3965,132.9
856.5853,4776.4
856.7043,107.9
856.9815,147.8
857.0316,111.6
857.5358,75.5
857.5906,800.5
858.1565,691.8
858.6464,98.4
859.0119,180
859.653,201.7
859.9223,771.5
860.1227,323.4
860.3298,20.9
860.5742,189.6
861.4186,542.8
861.6372,1419.7
861.9213,151.8
862.0107,127.2
862.0556,637
862.4252,107.4
862.515,213.8
862.856,118.3
862.9525,134.7
863.1288,186.4
863.8029,1551.3
863.9135,81.7
863.9633,575.4
864.0782,334.9
864.2745,384.3
864.3661,157.8
864.3899,21.3
864.5132,367.2
864.6547,146.1
864.6787,390.5
864.7575,529
864.7803,280
865.0125,133.9
865.5097,409.4
865.6502,20.7
866.424,330.9
866.5398,155.6
866.6019,295.1
866.8366,287.4
866.9182,172.1
867.1651,87.9
867.8596,106
867.9705,529.6
868.316,557.7
868.3641,597.8
868.61,245.4
868.8974,214.2
868.9327,106
869.3116,588.8
869.6108,273.7
869.6752,585.6
869.7173,436.6
869.8092,723.5
869.8482,364.3
869.8763,970.4
869.9027,947.4
869.9266,965.5
869.9556,1221.5
870.0057,986.2
870.0492,1747.5
870.0786,3068.7
870.106,3277.8
870.1387,1352
870.1837,1716.9
870.216,2738.3
870.2557,1578.4
870.3143,597.7
870.342,96.3
870.4619,567
870.6709,481.7
870.9601,429.4
871.0007,270.1
871.7584,342
872.358,794.8
872.4047,87.3
872.9634,569.6
873.0905,537.8
873.3372,257.4
873.356,19
873.5442,2210.6
873.6488,207.1
874.1443,102.9
874.6823,86.5
874.9281,1708.9
875.2396,95.6
875.4936,76.5
875.9922,1877.3
876.4637,220.9
876.95,110.8
877.0041,252.8
877.3232,662.7
877.6278,1335.2
877.7595,478.7
877.7818,97.6
878.1466,215.6
878.2739,696.9
878.5304,366.1
879.2019,279.4
879.3768,316.9
879.7086,173.2
879.9681,99.4
880.6881,91.3
880.7414,159.7
880.9205,650
880.9491,467.5
881.3656,337.2
882.2035,219.9
882.6336,874.3
882.8091,161.4
882.8503,522.7
882.9034,127.6
882.9409,353.6
883.4931,117.3
883.6107,162.3
884.0702,1040.7
884.2742,674
884.3155,101.7
884.7586,290
884.8717,190.3
885.5547,614.5
885.8175,291.7
886.0477,213.2
886.4395,118.4
886.4913,817.7
886.945,123.6
887.0806,112.3
887.1935,102.2
887.2678,522.2
887.3918,91.8
887.6786,683.7
887.8966,133.9
887.96,20.1
888.391,985.6
888.6472,388.2
888.792,19
889.4885,135.8
889.5556,22
889.7403,20.3
889.8553,533
890.5068,95.6
891.3793,328
891.6936,177.8
892.2297,180.2
892.3952,85
892.7681,449.1
892.8388,594.8
893.1578,306.9
893.2794,21.2
895.0869,21.8
895.1803,549.9
896.4468,283
896.5737,168.4
896.8852,156.6
897.0817,290
897.1803,96
897.4035,619.1
897.481,482.3
897.5393,792.8
897.7975,750.7
899.065,99.9
899.3824,160.8
899.5898,132
899.9233,202.5
900.3822,119.9
901.1309,80.7
901.2753,324.8
901.3459,151.4
901.4893,357.7
901.8018,241.2
902.2359,251.4
902.6054,174
903.1033,322.4
903.3377,508
903.3904,282.7
903.5328,262.6
903.8851,128
904.1023,198.2
904.3143,346.2
904.4375,1107.8
905.2949,99.9
905.358,74.5
905.6741,17.4
906.6522,539.4
907.1951,18.3
907.5086,92.4
907.6354,286.3
907.727,218.3
908.026,657
908.0999,124
908.6653,98.2
909.5159,301.7
909.9086,365.3
910.3826,639.1
910.8521,77.1
911.1765,127.2
911.4452,81.4
911.5465,678.1
911.6554,80.8
911.8279,1531.1
912.6744,21.2
913.224,612.6
913.3604,72.8
913.8709,92.9
914.129,106.9
914.9572,104.6
915.211,583.8
915.3924,194.4
915.5449,256.1
915.5755,192.6
915.7434,182.9
915.7935,138.7
916.4271,165.6
916.9526,20.3
917.2682,138.7
917.4849,19.2
917.5719,684.2
919.132,181.6
919.2799,219.1
919.3503,337.4
919.4392,67.7
919.4742,218.8
919.6637,550.4
919.8439,138.8
920.1884,489
920.9437,134.5
921.7299,453.7
922.3195,580.5
922.4197,637.1
922.4734,102.3
922.5762,123.2
922.7007,281.3
923.0385,86.1
924.1231,21.9
924.5185,383.2
924.7914,162.4
925.2179,23.1
925.6265,522.5
926.0928,1374.6
926.2445,883.7
926.3407,648.1
926.7518,482.2
927.0328,348.7
927.0774,172.2
927.136,83.2
927.3616,529.4
928.3608,541.5
928.6858,537.3
928.9725,331.8
929.1713,116.9
929.7941,110.3
930.221,354.3
930.2767,735.7
930.3977,705.6
930.4784,192.6
930.7066,251.9
931.2997,120
931.6836,482.1
931.7729,250.2
931.94,115.2
932.1776,134.2
932.4608,932.9
933.1617,316.1
933.9089,108.5
934.4369,703.8
934.5122,200.8
934.5394,92.1
934.6064,155.6
934.7027,153.6
934.83,353.3
934.9703,169.5
935.9023,230.5
936.2204,516.3
936.2867,464
936.3552,1960.7
936.9236,411.5
936.9671,83.9
937.064,19.2
937.2861,104.3
937.4911,135.7
938.3064,525.3
938.3692,121.6
938.6409,549.4
938.6914,109.6
938.9242,1368.8
939.1303,219.4
939.1882,115
939.343,468
939.3978,79.1
939.756,1087.4
939.8977,161.9
940.4305,330.4
942.1776,228.8
942.6319,168.1
942.9851,107.3
943.2317,90.6
943.5981,464.2
944.1137,533.3
944.3969,121.8
944.4706,417.8
944.7616,22.4
944.8866,538.5
945.0008,96.7
945.193,631.6
946.0303,99.6
946.1339,217.6
946.163,320.2
946.4933,559.3
946.5332,238.7
946.9858,180
947.2086,563.5
947.2858,745.1
947.3637,319.1
947.9408,471.3
948.158,228.5
948.2044,76.4
948.2787,256.5
948.5329,1204.3
948.6539,359.8
948.679,91.2
948.8815,590
948.9323,454.8
949.8322,857.9
950.3642,94.7
950.4831,572.7
950.7036,111.1
951.0982,301.6
951.4072,20.5
951.5193,16.9
951.7128,20.9
951.7935,21.8
952.0658,114.4
952.8017,84.7
953.3561,1179.5
953.4715,1666.3
953.5912,868.6
953.6429,460
953.7871,672.1
953.8448,669.8
953.9325,760.3
955.1137,255.3
956.1619,566.5
956.5429,1125.2
956.6446,246
956.9585,103.7
957.2812,158.2
957.4195,86.9
957.4886,599.5
957.7015,22
957.8714,458
958.1821,84.4
958.2174,1241.6
958.4514,122.6
959.14,97.4
959.1847,351.4
959.6514,354.1
959.852,19.5
959.9459,111.7
960.3208,457.7
960.4794,290.7
960.5584,614.2
960.7548,224.4
960.8127,549.6
961.7322,18.5
961.9923,128.7
962.2825,127.9
964.3543,1055.1
964.5975,196.5
964.7333,22.7
964.9893,530.1
965.1747,121
965.2079,510.4
965.23,440.7
965.2518,657.2
965.2737,1273.8
965.3113,489.7
965.3334,330.1
966.3707,437.2
966.6806,1267.8
966.9965,113.7
967.0401,75.9
967.1993,689.2
967.5296,211.7
967.5712,172.6
967.5806,149.2
967.7044,88.9
967.7959,322
967.876,570.4
967.9272,207.1
968.1407,102.8
968.4689,242.9
968.8234,608.5
968.9521,98.5
969.1273,469
969.2025,628.3
969.2803,131.3
969.7112,124.9
969.8055,339.8
969.9887,90
970.0787,112
970.1151,132.3
970.3326,516.8
970.4047,101
970.5164,174.3
970.7656,988.6
970.8836,700.4
971.3465,463.2
971.8975,245.1
971.9384,1466.3
972.057,75.8
972.2574,888.4
972.4957,135.3
972.549,575
972.8062,84.6
972.9377,1807.5
973.0253,147
973.2208,140
973.8601,76.3
974.0626,377.4
974.1308,103.9
974.1594,95.4
974.3277,461.1
974.8822,68
975.7529,460.6
976.353,18
977.6455,660.1
977.7361,36.6
978.1674,115.1
978.376,72
978.5276,301.2
979.9003,276.8
980.1582,214.8
980.6528,1239.6
980.7959,515.2
980.8805,117.8
981.1833,196.3
981.4513,24
981.9119,1050.1
982.2488,185.8
982.4408,663.9
982.5255,19.8
982.7527,193.4
983.2966,22.6
983.4117,333.6
983.4698,20.7
983.6485,583.2
984.3682,888.4
984.4695,165
984.5011,510.6
984.6811,452.3
985.4616,309.2
985.575,501
986.0115,579.1
986.1161,509.1
986.4518,237.5
986.5039,324.7
986.6213,87.2
986.7124,642.3
986.7859,437.1
986.9203,432
987.1924,126.1
987.2766,405.3
987.7571,100.1
988.0603,186.5
988.2283,513.6
988.2759,80.7
988.4322,22.8
989.613,356.9
989.8855,532.3
991.2292,975.6
991.5149,584.5
992.7181,268.8
992.8036,107.6
993.2658,646.4
993.4386,293.8
993.5463,17.2
993.8235,594
994.1007,387.9
994.2038,580.5
995.0568,512
995.3508,22.9
995.6557,84.6
995.7559,270.2
995.8087,135.7
995.8688,201.8
996.674,1194.1
996.7966,371.1
996.9157,477
997.2753,534.4
997.9681,100.4
998.3803,820.3
998.4658,83.7
998.9857,124
999.0349,644.7
999.0573,277.4
999.3784,1266.2
999.6591,672.2
999.8615,540.6
999.9026,86.5
