SPECTRUM - MS,
1185.RAW,
FTMS + p ESI Full ms [50.00-1000.00],
Scan #: 1-40,
RT: 0.01-1.97,
AV: 40,
m/z,Intensity

50.0055,610.3
50.0177,216.4
50.0211,342
50.0249,103.4
50.0331,106.3
50.0347,75.8
50.0692,18.6
50.0797,446.1
50.0932,97
50.139,16.8
50.1686,524.9
50.1733,407.9
50.1821,462.6
50.1947,329.1
50.2088,133.2
50.2176,102.6
50.2387,97.7
50.2428,249.4
50.2492,291.7
50.255,18.5
50.2571,57.4
50.2665,455.2
50.2674,16.4
50.2731,259.3
50.308,17
50.321,167
50.3246,18.3
50.3417,421.7
50.3445,313
50.3451,99.2
50.3859,83.8
50.4057,71.5
50.4238,204.2
50.4339,500.7
50.4391,297
50.4744,17
50.4747,217.8
50.4911,329.9
50.4987,17.3
50.5071,233.8
50.5176,289.2
50.5362,88.4
50.5508,102.2
50.5516,17
50.5674,162.1
50.5774,258.9
50.5829,219.3
50.5854,512
50.5856,518.5
50.5891,20.9
50.5944,89.7
50.6018,19.2
50.6029,145.4
50.6096,265
50.613,450.9
50.6207,88.1
50.6258,223.1
50.6286,19.5
50.6467,324.8
50.6536,443
50.6719,107.8
50.679,19.8
50.6971,204.9
50.7073,217.1
50.7312,79.7
50.732,270.1
50.7717,191
50.7766,143.5
50.786,122.9
50.8089,496.4
50.839,56.2
50.8476,305.6
50.8483,94.6
50.8801,204.2
50.8812,290.6
50.8877,102.8
50.899,280.6
50.9065,264.3
50.9111,202.8
50.9187,109
50.9454,76.7
50.9508,180.8
50.9596,299.5
50.9707,359.5
51.0006,81.1
51.0029,204.8
51.0083,73.7
51.0163,83.1
51.0349,142.1
51.0435,162.3
51.0578,70.1
51.0655,322.2
51.0852,146.9
51.0884,15.9
51.1087,109.6
51.1112,20.2
51.1431,357.5
51.1442,91.6
51.1648,172.3
51.1695,308.1
51.1775,274.5
51.1854,115.1
51.1885,281.9
51.1958,379.5
51.1989,80.5
51.2128,443.6
51.2379,16
51.2551,490
51.2563,272.7
51.2738,207.5
51.2771,240.4
51.278,57.1
51.2851,114.9
51.2932,341.6
51.2979,93.8
51.3011,85.9
51.3023,96.4
51.303,465.6
51.3205,321.1
51.3354,126.4
51.3539,93.1
51.3579,119.5
51.3683,371.5
51.382,311.6
51.3848,415.9
51.3895,136.2
51.4086,85.8
51.4111,286.3
51.4132,174.7
51.4201,211.5
51.4397,108.5
51.4454,542.9
51.451,207.3
51.4524,60.1
51.4591,260.5
51.4678,239.1
51.4824,83.5
51.4855,223.8
51.4876,90.5
51.5186,113.1
51.5197,18.3
51.5282,193.6
51.5373,197.6
51.5441,144.1
51.5605,18.5
51.5699,103.5
51.5784,433.1
51.5823,178.8
51.5858,197.3
51.592,476.9
51.5959,15.8
51.597,283.3
51.6109,125.7
51.6224,308.3
51.6405,360.7
51.6583,104.5
51.6723,135.3
51.6819,366.6
51.7067,149.9
51.7346,574.6
51.7444,240.1
51.7526,251.7
51.7582,90.7
51.7929,484.4
51.8126,18.7
51.8757,96.9
51.8893,519
51.8915,472.2
51.9109,184.6
51.9277,417.1
51.9285,123.6
51.9349,75.2
51.9416,470.6
51.9734,126
51.9799,435.8
51.9856,326.1
51.986,18.6
51.9978,20.3
52.0256,84.5
52.028,113.5
52.0291,202.8
52.0432,241.7
52.0577,228.2
52.064,89.1
52.078,435.8
52.0856,18
52.0875,86.4
52.089,253.3
52.1,98.9
52.1033,92.1
52.1148,161.6
52.1271,499.8
52.1385,16.9
52.1388,519.8
52.1426,313.2
52.1434,96.1
52.1487,503.1
52.1562,96
52.1591,383.3
52.1612,63.1
52.1654,99.2
52.1736,294.9
52.1787,422.5
52.18,299.8
52.1821,142.6
52.1886,262.4
52.203,95.7
52.2243,18.5
52.2311,204.3
52.2328,92.2
52.2367,226.4
52.2499,97
52.2685,16.5
52.2776,204
52.2988,158.2
52.3051,78.9
52.3118,293.9
52.3122,336.4
52.3144,159.6
52.328,17.2
52.3537,187.6
52.3579,477.7
52.3592,427.8
52.3621,117
52.3632,452.4
52.3815,97.9
52.4118,57.9
52.4353,398.5
52.4463,187.4
52.4613,15.6
52.4695,94
52.4721,638.2
52.4753,83.5
52.4841,99.8
52.4979,89.1
52.4996,161.3
52.502,150.1
52.5085,432.2
52.5229,216
52.5452,105.8
52.5506,368.6
52.5606,126.7
52.5667,17.4
52.6022,131.2
52.6039,246.2
52.6048,145.3
52.6208,156.9
52.6236,190.9
52.6521,172.6
52.6527,16.2
52.6793,196.1
52.6847,99.4
52.6878,506.1
52.7131,507.3
52.7169,190.6
52.7183,538
52.7199,130.5
52.7319,345.9
52.7331,755.8
52.7353,110.5
52.7425,193.6
52.7504,276.2
52.7587,365.7
52.7649,95.1
52.7765,211.2
52.7777,18.8
52.7788,411.9
52.7825,263.7
52.7829,217.7
52.7833,1128.9
52.7838,924.9
52.7843,2837.3
52.785,710.1
52.7853,1286.7
52.7858,448
52.7864,1390.9
52.7869,747.9
52.7874,353.5
52.788,344.7
52.7897,86.1
52.7908,405.8
52.7982,198.6
52.8003,503.9
52.8008,94.2
52.8025,125.3
52.814,15.1
52.8243,259.5
52.8251,18.2
52.8279,21.3
52.848,88.7
52.88,16.1
52.8921,193.2
52.8927,442.7
52.8938,526.1
52.9052,259
52.9091,221.5
52.9098,54.4
52.9353,129
52.9416,79.8
52.9507,570.7
52.9921,60.4
52.9976,132.9
52.9979,140.7
53.0055,18.6
53.0091,101.8
53.0163,16.7
53.0221,548.3
53.0447,68.2
53.0468,130.8
53.0542,535.6
53.0705,189
53.083,364.4
53.1071,14.8
53.1232,214.7
53.1278,342.5
53.1342,86.9
53.1482,70.8
53.1507,133.5
53.1536,18.7
53.1547,17.6
53.1958,63.5
53.2354,153.2
53.2407,21.1
53.2425,90.5
53.2608,156
53.2694,167.7
53.3131,16.4
53.319,526.1
53.3267,253.4
53.3277,413.2
53.3282,15.8
53.3387,99.3
53.3872,101.1
53.408,16
53.4098,510
53.4186,632.9
53.4426,110.6
53.4462,18.6
53.4512,168.9
53.4567,220.8
53.4921,483.3
53.5219,74.2
53.5335,83.2
53.5353,78.3
53.5471,319.9
53.5507,171.5
53.5664,107.8
53.5735,121.2
53.5832,115.3
53.5979,17.3
53.6065,208
53.6084,79.9
53.6349,303.8
53.6612,298
53.6879,132.7
53.7034,177.9
53.7174,318.3
53.7262,88.8
53.7399,98.7
53.754,196.5
53.7732,408.5
53.7776,558.3
53.7917,211.9
53.8152,398.1
53.8445,125.4
53.8482,99.9
53.8493,105.3
53.8566,502.3
53.8638,523.2
53.9052,18
53.9284,133.6
53.9555,124.8
53.9601,88.1
53.9813,67.9
53.9862,128.7
53.9876,459
53.9918,89.3
54.0016,538.1
54.0366,16.4
54.0427,508.2
54.0575,589.2
54.0616,96.8
54.0641,106.8
54.0707,272.1
54.0978,292.5
54.1152,58.3
54.1194,213.6
54.1223,124.9
54.129,449.6
54.1309,143.7
54.1381,577.8
54.1423,231.7
54.1463,103.3
54.1487,340.5
54.1689,16.7
54.1763,242.1
54.1814,478.2
54.1959,87.6
54.2077,200.2
54.2104,318.1
54.2582,314.5
54.2655,275.5
54.3014,529
54.311,90.3
54.324,89.2
54.3276,87.1
54.3363,515.7
54.3428,175.5
54.3441,89.1
54.3708,303.6
54.3861,61.6
54.3905,92.4
54.4451,123.1
54.4658,114.3
54.5216,252.9
54.5373,200.6
54.5382,308.1
54.5414,655.8
54.5487,16.9
54.5541,344
54.5568,269.3
54.5588,106.7
54.5617,258
54.567,197.7
54.5706,261.6
54.5713,60.7
54.5719,277.4
54.6014,88.9
54.626,455.4
54.634,382.7
54.6489,182.7
54.6571,17.3
54.6696,189.2
54.6858,109.4
54.691,416.1
54.6966,146.5
54.7056,214
54.7233,244.1
54.7302,81.1
54.7322,79.2
54.7584,248.2
54.7596,83.1
54.7719,125.1
54.7766,249.3
54.7798,452.3
54.786,99.7
54.7902,101.9
54.82,154.5
54.8523,246.9
54.8588,145.5
54.871,353.8
54.8779,136
54.9241,76.6
54.9367,16.7
54.9413,104.7
54.942,102.2
54.9432,16.4
54.9469,233.3
54.9498,252.6
54.9754,18.3
54.9795,52.6
54.9931,19.3
55.0103,65.8
55.0321,78.5
55.0425,115.9
55.0471,308.6
55.0614,16.2
55.0686,97.2
55.0791,515.1
55.091,309.5
55.0938,161.1
55.1015,209.4
55.1142,186.7
55.1431,233.5
55.158,54.9
55.1786,189.9
55.1809,97.6
55.1816,338
55.1925,379.4
55.1958,211.5
55.2109,347
55.2175,24.7
55.221,188.1
55.2713,16.2
55.2728,276.9
55.2781,19.1
55.2866,100.7
55.292,97.5
55.3034,100.5
55.3094,254.3
55.3215,84.3
55.3304,259.2
55.3336,103
55.3412,517.6
55.3752,208
55.3828,111.1
55.3845,91.4
55.3874,543.4
55.3958,213.1
55.4028,143.3
55.4055,182.5
55.4136,293.1
55.4584,278.9
55.4716,166.3
55.4761,208.2
55.4766,196.4
55.4844,206.3
55.5012,92.1
55.5384,80.4
55.5525,14.8
55.5532,291.8
55.5676,552.5
55.5728,328.8
55.5797,237.1
55.5833,294
55.5922,555.4
55.5977,82.4
55.6397,352.6
55.6699,126.4
55.6733,294.6
55.6876,329.2
55.6997,353.7
55.7272,16.2
55.7374,119.1
55.7438,206.7
55.7477,478.4
55.7951,359.4
55.8191,22.5
55.8336,471.3
55.8518,248.6
55.8702,236.5
55.8737,134.9
55.8905,17.1
55.9108,171.2
55.9115,82.9
55.9169,62.1
55.9231,17.8
55.9371,330
55.9389,152.4
55.958,234
55.976,166
55.9984,16.2
56.0008,16.9
56.0048,264.1
56.0056,98
56.025,189.9
56.0415,86.3
56.0456,187.5
56.0476,83.6
56.0492,91.8
56.0639,111.6
56.0644,16.3
56.0648,318.7
56.0748,407
56.0818,277.4
56.1252,56.4
56.1272,165.3
56.1418,401.9
56.1779,152.9
56.2139,188.3
56.2274,17
56.2362,16
56.2366,488.4
56.2416,239.2
56.2438,79.8
56.2492,114.1
56.2552,209.2
56.2585,195.8
56.2614,183.6
56.2786,79.7
56.2822,292.1
56.304,16.2
56.3232,170.2
56.3315,473.5
56.3854,128.6
56.416,237.6
56.4266,269.3
56.4339,20.7
56.4419,68.2
56.4466,510.3
56.4708,447.3
56.4835,98.4
56.4868,178.9
56.4947,131.8
56.5049,474.5
56.5076,136.7
56.5146,457.8
56.5277,195.3
56.5305,183
56.6027,52.6
56.6087,410
56.6133,101.3
56.6343,99.7
56.6368,115.9
56.6414,314
56.6554,414.2
56.6637,75.4
56.6738,375.8
56.6817,110.9
56.694,262.6
56.7027,206.6
56.7148,76.6
56.7193,83
56.7216,194.4
56.7281,109.4
56.7298,538.8
56.7338,498.2
56.7468,22.1
56.7504,183.9
56.7518,95.9
56.7675,416.9
56.7824,18.7
56.7832,177.3
56.7912,185.9
56.8009,580.1
56.8203,202.8
56.8505,163.8
56.8601,715.5
56.8811,186.7
56.8937,84.3
56.9088,18.1
56.9119,324.6
56.9261,221.7
56.9276,227.3
56.9319,215.9
56.9441,173.2
56.9559,168.2
56.9571,114.8
56.958,211.2
56.9663,368.5
56.9693,105
56.9883,114.1
57.007,178.4
57.0156,199.1
57.0185,252.7
57.0209,100
57.0544,402.6
57.0551,619.6
57.0589,510.1
57.0834,513
57.0948,94.9
57.0964,194.1
57.0989,250.8
57.1098,72.6
57.1107,18.8
57.1146,112.8
57.1235,15.9
57.1259,412.6
57.1311,65.6
57.1327,94.7
57.1741,95.3
57.1873,556.9
57.1976,152.6
57.215,66.3
57.2163,106.8
57.2284,21.4
57.2468,309.8
57.2537,217
57.2569,371.3
57.2615,167.7
57.2792,342.3
57.2811,18.2
57.3305,179.5
57.3311,100.4
57.3461,176
57.3556,314.8
57.3575,258.7
57.3608,252.2
57.3698,515.1
57.4034,251
57.4329,92.1
57.4578,496.5
57.4598,198.4
57.4767,301
57.4862,175.5
57.4876,496.3
57.4961,106.9
57.4985,81.3
57.5451,209
57.5491,235
57.5501,73.7
57.6034,17.3
57.6056,282.9
57.6162,299.4
57.6239,351.3
57.6622,16.1
57.6679,320.2
57.6932,98.7
57.6959,15.3
57.7083,90
57.721,245.6
57.7424,16.9
57.7431,295.3
57.7445,384.7
57.7557,203.5
57.7607,305.9
57.7651,300.6
57.7729,104
57.7745,178.1
57.7866,260
57.7952,18.8
57.8111,16.6
57.8123,124.6
57.8346,130.2
57.8349,347.6
57.835,334.1
57.8359,126.2
57.8416,111.6
57.8569,168.8
57.8698,15.6
57.8745,169.9
57.8899,343.3
57.8931,103.4
57.9027,291.5
57.917,70.7
57.9306,146.6
57.9347,16.5
57.9587,134.4
57.9684,99.8
57.9843,238.2
57.9887,536.9
57.998,86.6
58.0097,101.6
58.0133,111.1
58.0158,101.1
58.0217,376.5
58.0376,89.3
58.0631,163.4
58.0638,326.9
58.0728,363.1
58.0904,123.9
58.0947,101.7
58.1085,360.9
58.1611,351.3
58.17,88.1
58.1759,185.7
58.2061,84.5
58.2082,267.5
58.2091,564.6
58.2121,99.3
58.2241,312.8
58.2244,145.3
58.2282,319.7
58.2411,469.7
58.2599,328.6
58.2626,18.2
58.2719,129.4
58.2727,476.3
58.274,362.6
58.2759,532.8
58.2938,252.4
58.3196,227.8
58.3259,328.6
58.327,86.1
58.3367,72.7
58.3545,193.5
58.3584,176.9
58.3707,338.8
58.3748,448.6
58.381,202.7
58.3844,334.9
58.3896,161.3
58.3909,216.1
58.4255,57.2
58.4262,353.3
58.44,511.6
58.4822,168.5
58.4834,659.7
58.501,118
58.5131,202.7
58.5547,213.1
58.5585,86.1
58.5708,18.1
58.5713,309.3
58.615,367.6
58.6339,523.1
58.644,537.1
58.646,232.9
58.659,116.7
58.6615,230.9
58.6703,348.4
58.6805,254.5
58.6915,224.8
58.6932,111.5
58.722,115.2
58.7568,106.3
58.7625,180.3
58.7643,92.9
58.7644,92.7
58.7681,90.8
58.7882,506.4
58.8039,201.5
58.811,406
58.8126,236.8
58.8267,147.3
58.8327,75.5
58.8461,15.7
58.8563,321.2
58.862,286.2
58.8748,92.8
58.8772,355.7
58.8793,492.3
58.8798,125.6
58.8813,310.4
58.9019,109
58.9074,89.2
58.9128,243.5
58.9265,114.9
58.931,355.4
58.9321,93.2
58.9372,226.8
58.9476,95.4
58.9699,374.9
58.9745,227.6
58.9816,266.9
58.9895,281.3
59.0293,501.6
59.0336,212.3
59.044,15.5
59.0538,87.4
59.0676,191.4
59.0689,94.3
59.0753,193
59.1033,18
59.1162,237.9
59.1224,18.8
59.1273,379.7
59.1568,87.5
59.1669,243.4
59.1795,127.8
59.1933,19.9
59.2053,17.4
59.2149,178
59.2159,135.2
59.2198,176.4
59.2212,540.4
59.236,210.6
59.2485,81
59.2618,91
59.27,485.1
59.2721,418.3
59.2731,203.1
59.2849,14.9
59.2924,84.1
59.2933,290.1
59.3226,525.7
59.33,17.9
59.3437,448.3
59.3536,389.1
59.3643,297.4
59.3709,82.4
59.3867,181.3
59.3958,105.8
59.4012,130.3
59.4102,208.6
59.4156,221.6
59.417,16.9
59.438,91.3
59.4461,222.4
59.4634,100.2
59.465,200
59.4713,78
59.4961,162.1
59.4976,109.1
59.5042,488.2
59.5054,15.7
59.5146,89.3
59.5182,313.5
59.5235,78.4
59.5405,199.1
59.5574,362.1
59.6081,345.2
59.6145,491.8
59.6292,508.9
59.632,226.8
59.6349,240.6
59.6802,19.4
59.6849,292.3
59.7701,364.1
59.7747,175.1
59.7795,105.9
59.7834,127.9
59.7943,255.8
59.8012,20.2
59.828,17.7
59.8294,85.7
59.8423,428.2
59.8469,80.6
59.8551,340.3
59.8649,343.7
59.8699,516.9
59.8731,117.5
59.8763,222.8
59.877,368.7
59.8798,184.3
59.8828,17.5
59.8947,93.7
59.8966,249.7
59.9286,17.6
59.9319,15.3
59.9464,169.8
59.9471,91.5
59.9515,366.8
59.952,213.6
59.9656,80.2
59.9695,262.4
59.9993,546.8
60.0013,99
60.0182,178.2
60.0194,392.9
60.0371,98.6
60.0386,223.5
60.0414,684.1
60.0542,176.3
60.0592,16.5
60.0646,315.2
60.0959,367.4
60.1094,289.9
60.1108,75.2
60.114,16.5
60.1305,720.1
60.1409,196.3
60.1583,211
60.1612,89.4
60.177,254.9
60.193,243.5
60.2373,233.8
60.2696,340.9
60.274,440.5
60.2787,16
60.3147,204.7
60.3205,301.1
60.327,164.5
60.3301,78.7
60.3318,103.1
60.3377,160.3
60.3531,92.5
60.3548,195.5
60.3753,209.4
60.3992,239.8
60.4044,108.6
60.4292,203.8
60.4485,167.8
60.4516,84
60.4736,87.2
60.4846,96.6
60.4915,17.3
60.5098,126.5
60.5126,103.1
60.5216,344.5
60.5245,331.8
60.5249,104.1
60.5332,202.9
60.5342,100.1
60.5486,107.6
60.5549,20.3
60.563,109.5
60.5777,181.8
60.5859,58.8
60.6189,15.2
60.6228,98.1
60.6256,196.3
60.6292,235.6
60.6366,100.8
60.6415,285.8
60.6462,140.2
60.6532,180.3
60.6623,151.3
60.6628,209.8
60.669,78.4
60.6698,126.9
60.7013,208.5
60.7218,185.1
60.7234,17.3
60.7275,616
60.7399,96.5
60.7441,135.7
60.7452,113.8
60.7545,173.2
60.7584,327.6
60.761,203.2
60.7652,400.4
60.7781,104.6
60.7875,274.1
60.7934,568.6
60.8151,261.8
60.8261,19.2
60.8268,178.6
60.8386,235.5
60.8635,16.4
60.8823,220
60.8857,16.8
60.931,103.6
60.9671,191.4
60.9735,233.2
60.9799,283.7
60.9921,434.2
60.997,165.7
61.0145,267.3
61.0208,371.1
61.0211,102.6
61.0282,248.5
61.0313,348.2
61.0383,289.5
61.046,473.7
61.0514,108.7
61.0536,99.1
61.0605,113.7
61.0617,101.7
61.0733,87.9
61.0958,126.2
61.0969,98.5
61.108,515.1
61.1197,294.1
61.1335,199.7
61.1599,203
61.1876,449.7
61.1887,21
61.1936,527.9
61.1991,394.2
61.207,473.5
61.2107,304.5
61.2181,187.4
61.22,332.7
61.2271,348.4
61.2282,134.6
61.243,77.5
61.2601,147.7
61.266,309.2
61.2861,98.1
61.2928,123.4
61.3194,215.4
61.3239,134.1
61.3329,358.1
61.3389,265.1
61.348,163.4
61.3584,86.2
61.3733,547.2
61.3735,538.3
61.3736,378.3
61.3748,103.3
61.3915,96.4
61.3921,107
61.3979,206.5
61.4355,277.8
61.4385,58.3
61.4465,17
61.4509,418.7
61.4696,71.6
61.4719,17.2
61.4981,93.7
61.5195,16.6
61.5252,180.6
61.5282,126
61.5301,91.1
61.5387,139.9
61.5571,91.7
61.5716,400.2
61.5881,129.6
61.5888,272.2
61.6103,204.4
61.6134,17.6
61.633,138.6
61.6557,15.2
61.6593,197.6
61.6607,88.4
61.6648,164.9
61.6706,273
61.687,682.3
61.7219,168.9
61.7225,111.5
61.7377,17.7
61.7403,328.7
61.746,184.9
61.7541,234.2
61.7664,196.5
61.768,95.9
61.8257,163.8
61.8395,321.8
61.8943,317.4
61.8998,88.9
61.918,267.9
61.9476,188.3
61.9637,239.8
61.9687,329.7
61.9844,90
61.9871,137.1
61.9925,87.8
62.032,22.2
62.0552,336.1
62.0572,470.5
62.0624,200.1
62.0724,278.8
62.0727,316.1
62.0841,295.7
62.0884,76
62.1036,16.7
62.1056,102.4
62.1305,212.6
62.1375,124.7
62.1602,353.3
62.1624,128
62.1661,322.6
62.167,97.4
62.1709,115
62.1826,252.3
62.187,19.5
62.1925,18.4
62.2044,272.8
62.232,451.4
62.2333,14.8
62.2705,159.7
62.2784,281.2
62.289,101.4
62.2901,266.6
62.2963,15.2
62.3089,208.3
62.3126,176.5
62.3268,81
62.3329,94.9
62.3386,88.6
62.3472,201.2
62.3534,56.6
62.3588,96.9
62.3728,107.8
62.3752,62.6
62.385,88.7
62.3857,93
62.425,458.3
62.427,64.9
62.4294,59.9
62.4323,316.4
62.4599,131.9
62.5022,265.4
62.5033,323.5
62.5038,228.4
62.5099,124.1
62.5272,83
62.5335,411.2
62.5379,150.8
62.5521,210.8
62.5742,98.7
62.5798,247.9
62.5939,74.8
62.6032,235.9
62.6067,225.4
62.6168,494.5
62.6196,76.7
62.622,17.5
62.6349,357.1
62.639,99
62.6418,501.9
62.6447,222.1
62.6508,94.9
62.701,91.6
62.7192,199.5
62.7229,429.6
62.7263,102.5
62.741,206.6
62.746,87.4
62.7513,139.1
62.7611,167
62.7652,538.5
62.771,130.4
62.773,432
62.791,289.2
62.7979,157.9
62.7982,286.7
62.81,16
62.8145,16.8
62.8442,86.8
62.8462,85.6
62.8528,222.7
62.8611,222.8
62.885,405.9
62.8921,150.1
62.8938,309.2
62.8974,446.7
62.9047,127.7
62.9087,17
62.9129,106.8
62.9135,280.7
62.9172,163.1
62.968,415.6
63.0079,386.5
63.0287,141.2
63.0364,114.7
63.0463,560.4
63.0484,84.5
63.0531,17.9
63.0668,146.2
63.0762,148.8
63.0767,309.7
63.0822,393.5
63.1383,468.8
63.1473,109.7
63.1556,104.9
63.1683,171.9
63.177,315.2
63.1961,316.6
63.1966,69
63.2118,68.7
63.2253,382.7
63.2319,70.8
63.2401,95.5
63.2589,20.2
63.2611,283.1
63.2821,285.9
63.3194,120.6
63.321,15.7
63.3429,113.4
63.3433,80.3
63.3451,484.8
63.3462,300.7
63.3685,278
63.3702,15.3
63.3722,261.2
63.3828,102.4
63.3958,88.2
63.4086,307.5
63.4099,589.7
63.4459,57.5
63.4516,335.6
63.5206,105.6
63.5227,188.9
63.5242,195.3
63.5701,365.2
63.5827,326.5
63.5844,207.1
63.6275,97.2
63.6414,138.1
63.6643,15.8
63.6776,112.7
63.693,335.5
63.7067,19
63.7165,17.8
63.7387,303.9
63.749,117.3
63.7539,213
63.7781,141.2
63.7887,256.4
63.7941,321
63.8093,114.5
63.8127,17.7
63.8351,601.6
63.8424,118
63.8475,154.8
63.8524,82.9
63.8581,149.9
63.8728,96.2
63.8846,362.5
63.8956,287.4
63.9253,202.8
63.9268,102
63.9536,165.5
63.955,394.8
63.9603,98.4
63.9622,382
63.9694,302.6
64.0053,427.8
64.0677,262.2
64.0708,227.3
64.0743,103
64.0766,231.6
64.0807,312.8
64.0816,83.3
64.0865,321.6
64.0977,273.2
64.1011,304.5
64.1056,137.5
64.1108,99.1
64.1136,93.6
64.1406,142
64.149,15.5
64.177,354.5
64.1925,17.8
64.2035,440.5
64.2154,307.3
64.2157,78.2
64.2171,85.5
64.2185,119.9
64.2329,69.4
64.2986,587.3
64.3185,17.2
64.3262,304.1
64.3272,300.3
64.3313,108.1
64.3375,607.3
64.3391,90.6
64.3486,17.6
64.3496,500.6
64.3842,327.9
64.385,349.1
64.3898,526.4
64.4261,413.8
64.4299,456.3
64.4363,20.8
64.4424,130.1
64.4471,400.1
64.4515,212.9
64.4518,299.9
64.4535,440.1
64.4788,16
64.5049,301.8
64.5064,314.9
64.5184,175.7
64.5195,154.9
64.5525,189.2
64.5587,215.2
64.5943,90.3
64.6341,85.8
64.6953,15.7
64.7456,17.2
64.7558,228.8
64.7565,152.2
64.7652,119
64.7708,143.4
64.7828,292.1
64.7895,195.3
64.8195,93.1
64.8349,168.1
64.8477,135.4
64.8503,66
64.876,148.2
64.8777,17.2
64.9312,262.5
64.9513,234.8
64.966,105.9
64.9689,111.9
64.9753,490.5
65.0138,130.4
65.0293,192.4
65.0383,21.3
65.04,287.1
65.0418,15.6
65.0423,201.1
65.0549,80.4
65.0621,402.6
65.068,104.6
65.0842,152.5
65.0927,106.6
65.0945,282.9
65.1065,136.4
65.1086,152.5
65.1091,514.7
65.1211,257.3
65.1613,93.3
65.1703,90
65.184,301.6
65.1902,144.6
65.2038,558.5
65.2162,187.3
65.2307,206
65.2465,113.4
65.2808,83.3
65.2975,168.9
65.2985,298
65.3037,79.6
65.3449,399.4
65.3626,98.1
65.3722,531
65.3746,16.3
65.3936,201.6
65.3968,126.3
65.4079,75
65.4093,117
65.4246,162
65.4415,106.5
65.4544,112.6
65.4613,279.2
65.4625,168.1
65.472,225.6
65.4773,80.4
65.509,504.1
65.534,388.5
65.5475,494.8
65.5589,299.3
65.5601,93.1
65.5653,382.6
65.5669,304.1
65.5671,340
65.5673,293.5
65.5683,421.1
65.5819,216.7
65.5982,108.4
65.6204,83.5
65.6329,17.6
65.6465,178.6
65.7131,17.8
65.7325,131.2
65.7444,374.7
65.7462,402.6
65.7471,75.8
65.7741,103.9
65.7802,127.8
65.7899,283.6
65.8283,324.8
65.8448,111.2
65.8541,206.6
65.8587,102.1
65.8652,71.1
65.8899,235.7
65.9054,387.7
65.9389,91.5
65.9438,19.6
65.9626,498.1
65.982,359.2
65.9845,381.7
65.9936,282.5
65.9955,17.3
66.0034,93.5
66.0298,18.8
66.0473,92.3
66.0771,73.7
66.0914,130.6
66.096,204.3
66.1023,295.5
66.1292,91.6
66.1588,135.8
66.1613,18.9
66.1723,456.3
66.1725,445.3
66.1727,365
66.186,227.3
66.2036,18.4
66.2116,60.7
66.2196,278.1
66.2321,299.9
66.2332,335.5
66.2368,97.1
66.2415,92.4
66.2493,484
66.2515,21.1
66.2556,89.8
66.263,117.2
66.2644,106.7
66.265,156.8
66.269,305.8
66.2847,407.8
66.2954,538.6
66.3081,20.5
66.3098,97.4
66.3169,116.9
66.3204,141.1
66.3284,182.8
66.3373,230.9
66.3493,260.7
66.3538,417.5
66.3598,117.9
66.37,109.8
66.3926,74.6
66.4177,15.8
66.4296,166.3
66.4444,512
66.4682,68.7
66.4806,97.8
66.4892,59.8
66.4898,67.7
66.495,457.8
66.5005,427.4
66.5012,62.1
66.5058,531.5
66.5067,96.7
66.509,164.1
66.5317,232.3
66.5328,565.9
66.5475,298.4
66.551,99.2
66.5839,19.7
66.5941,97.4
66.6013,285.3
66.6126,96
66.6166,255.3
66.6201,133.3
66.6235,364
66.6414,90
66.6507,80.9
66.6661,455.4
66.7108,21.6
66.7143,120.6
66.7243,213.4
66.7473,226.8
66.753,16.9
66.7668,66.8
66.7701,21.9
66.7733,141.2
66.7824,131
66.8184,112.7
66.8454,197.9
66.853,361.5
66.8633,97.6
66.8723,225.6
66.8745,191.5
66.8933,570.6
66.8938,87.3
66.9014,343.6
66.9109,165
66.9171,114.3
66.9273,391.8
66.9441,224.8
66.9587,389.2
66.9764,420.7
66.9789,16.4
67.0201,16.3
67.0389,220.3
67.046,407.5
67.054,80.8
67.0729,99.2
67.0935,93.6
67.1168,108.9
67.1223,90.8
67.1282,130.6
67.1542,126.2
67.1652,404.9
67.1864,346.2
67.2,584.9
67.2063,354.4
67.2329,140.5
67.2424,167.9
67.2503,16.1
67.2685,159
67.2763,97.2
67.2792,288.5
67.2842,567.1
67.2852,112.8
67.2907,293.7
67.307,471.3
67.3378,206.6
67.3403,18.8
67.3515,139.2
67.3644,99.8
67.37,278
67.381,17.3
67.3822,103
67.4005,19.2
67.421,80.6
67.4378,18.5
67.4631,327.5
67.4745,18.8
67.4781,16.5
67.4848,221.6
67.5106,123.6
67.5164,67.2
67.5299,551.9
67.5367,519.2
67.5496,190.6
67.5569,19.2
67.5645,155.4
67.5683,17.5
67.5754,15.6
67.5993,307.3
67.6117,18.9
67.6516,281.3
67.6799,56
67.681,100.3
67.6824,321.3
67.6841,538.7
67.7072,197.3
67.7503,213.9
67.7864,351
67.7955,16.9
67.8099,19
67.8404,16.4
67.8464,184.8
67.8621,259.2
67.8644,208.3
67.8671,94.4
67.8784,80.2
67.8836,76
67.8935,17.6
67.8941,401.2
67.8982,18.8
67.8994,17.7
67.9041,132
67.9137,350.7
67.917,209.9
67.9302,330.6
67.9397,95
67.9554,131.4
67.9807,99
67.9853,104.8
68.0182,110.4
68.0315,325.3
68.0326,281.2
68.044,446.1
68.046,19.3
68.0636,80.5
68.096,199.7
68.0989,385
68.1065,73.9
68.1073,219.1
68.138,20.2
68.1728,358.9
68.1774,329.4
68.1844,121.9
68.1849,279.5
68.212,289
68.2267,458
68.2627,305.4
68.276,111.3
68.3323,170.3
68.3498,20.1
68.3622,286.6
68.3653,109.1
68.3745,20.9
68.3883,76.8
68.4,200.1
68.4008,205.7
68.4458,456.2
68.4818,115.4
68.4945,411.5
68.5318,556.1
68.5813,186.5
68.5937,210.6
68.6268,102.3
68.6352,308.6
68.6569,417.5
68.6653,18.6
68.6708,123.3
68.684,203
68.711,17.7
68.713,111
68.7377,83.1
68.7499,154.4
68.7596,279.5
68.7724,356.5
68.7864,320.3
68.7881,274
68.7956,327.3
68.7982,87
68.8068,241.4
68.8075,17.9
68.8209,657
68.8249,345.8
68.8272,68.7
68.8307,413.3
68.8332,432.9
68.8522,105.1
68.8548,379.2
68.8584,135.3
68.891,247.3
68.8999,147.1
68.965,72.1
68.9859,423.3
68.9915,184
69.0133,579.1
69.0285,597
69.0467,98.4
69.1035,87
69.124,115.9
69.1333,634.9
69.1404,219.2
69.1511,401.8
69.1679,419.7
69.1731,510.1
69.1738,82.2
69.1756,451.5
69.18,599.8
69.1902,70.1
69.2009,302.9
69.2078,176.5
69.2138,16.7
69.2194,202.9
69.2336,90.5
69.2697,148.2
69.2832,96.8
69.2898,19.3
69.3138,130.6
69.3194,550.5
69.3201,84.4
69.3364,517.8
69.3462,109.3
69.3583,19.3
69.3596,210.8
69.3852,16.4
69.4118,317.3
69.4221,288.8
69.4226,488.7
69.428,206.2
69.4643,344.9
69.4816,105.2
69.4907,18
69.4926,119.5
69.4968,227.6
69.5088,204.4
69.5114,485.8
69.5186,275.2
69.5278,149.8
69.5426,354.4
69.5464,312.8
69.5604,204
69.5882,93
69.6053,108.8
69.6085,322
69.6142,123.2
69.6236,93.5
69.6509,253.8
69.7017,116
69.7058,15.9
69.716,525.2
69.7167,132.9
69.7193,107.6
69.7276,335.2
69.7809,94.9
69.7894,74.4
69.796,67
69.8044,137.4
69.8057,192.2
69.8076,197.7
69.8081,97.8
69.8104,215.3
69.8211,235.1
69.8304,95.5
69.832,535.2
69.8424,17.5
69.846,135.5
69.8538,18.5
69.8579,285.8
69.8619,155.8
69.8738,140.8
69.8956,342.3
69.935,117.3
69.9486,18.2
69.9546,99.7
69.9555,491.4
69.9683,235.8
69.9796,102.8
70.0011,84.5
70.0134,260.5
70.0275,78.3
70.0549,131.1
70.0636,231
70.0649,2202.2
70.0728,114.4
70.0891,17.1
70.1022,76.9
70.1168,207.7
70.1252,311.2
70.1257,430.1
70.1421,407.3
70.1478,107.2
70.1529,76.9
70.1803,14.8
70.1837,208.5
70.1922,128.1
70.1939,440.2
70.1978,16.5
70.2003,255.4
70.2017,570.1
70.2091,96.5
70.2183,298.6
70.2466,79.7
70.2696,103.5
70.2767,106.5
70.2846,196.2
70.3399,17
70.3716,292.3
70.3744,199.3
70.3796,351.7
70.4134,268.9
70.445,283.8
70.4479,328.7
70.4607,219.8
70.466,457.6
70.4786,252.1
70.5199,16.6
70.5233,117.7
70.5348,275
70.5452,146.7
70.5541,101.1
70.559,263.1
70.5622,20.8
70.5657,181.8
70.5827,138.1
70.5875,111.1
70.6133,299.1
70.63,254
70.652,17.1
70.6666,107.1
70.674,466
70.6917,15.8
70.7121,16
70.7131,304.8
70.7138,110.7
70.7206,354
70.7281,61.3
70.7474,213
70.7525,200.9
70.7893,225.5
70.8112,16.4
70.8376,221.2
70.8405,114
70.8452,300.3
70.861,476.2
70.8793,184.5
70.8909,218.3
70.912,125.8
70.9325,301.5
70.9653,270.6
70.9719,106.1
70.9724,248
70.9782,388.9
70.9974,93.1
71.0178,752.8
71.026,238.8
71.0335,256.6
71.0356,19.2
71.0387,19.1
71.0529,201.8
71.0636,110.1
71.0726,82.6
71.074,398.5
71.0933,92.2
71.1248,570
71.1348,278.8
71.1447,16.2
71.1541,245.8
71.1667,16.2
71.1831,197.4
71.1842,101.2
71.1985,83.6
71.2099,272.5
71.2111,58.3
71.2114,57.9
71.2141,102.2
71.2275,206.7
71.2803,107
71.2823,202.6
71.3015,320.7
71.3184,272.8
71.32,706.7
71.3211,98.9
71.3402,16.4
71.3755,136.2
71.3989,345.9
71.4067,371
71.4089,80.1
71.4377,162.4
71.4701,274.4
71.4823,187
71.4937,289.2
71.4974,110.5
71.5249,108.9
71.5298,545.4
71.5377,213.9
71.5407,88.2
71.5498,100.6
71.5683,74.8
71.5775,352.6
71.5844,220.2
71.5908,341.7
71.5949,393.4
71.597,282.4
71.6095,89.9
71.6295,427.8
71.6296,424.4
71.6301,412.9
71.6331,230.4
71.6455,300.4
71.6473,18.5
71.6501,509.1
71.6531,17.5
71.6589,174.3
71.6621,113.3
71.6659,448.8
71.6962,125.4
71.7112,104.6
71.7165,480.5
71.7175,15.6
71.7339,20.3
71.7363,300.5
71.737,330.4
71.7738,200.3
71.7858,268.2
71.7878,106.2
71.8027,192.2
71.8071,144.6
71.8193,329.3
71.8207,209
71.8273,146.1
71.8432,293.5
71.8576,107.8
71.8814,299.4
71.8939,283.5
71.9004,18.4
71.9094,110.7
71.9104,388.2
71.9216,98.7
71.9336,88.2
71.9506,340.7
71.9524,138
71.9808,88.1
71.9817,76.1
72.001,59.7
72.0038,162.9
72.0084,204.5
72.0254,386.9
72.044,21.5
72.0564,315.6
72.0611,18.2
72.0805,1057
72.0852,197.9
72.0866,186.8
72.0878,84.7
72.0934,114.9
72.0941,101.6
72.1236,95.9
72.1411,205.6
72.1736,338.3
72.1786,94.9
72.1798,158.3
72.1838,75.8
72.1845,345.4
72.1958,73.6
72.1965,269.1
72.2021,151.8
72.2035,141
72.2088,249.6
72.2097,284.1
72.2102,383.4
72.211,451.6
72.2121,571.5
72.2127,1072.3
72.2135,1035.1
72.2142,201
72.2146,418.1
72.2154,1325.1
72.216,1114.6
72.2169,1169.5
72.2182,1761.6
72.2185,1700.5
72.2199,3518.4
72.2213,3200.1
72.2224,2530
72.2231,2074.2
72.224,2816.1
72.2242,2945.9
72.2243,2971.6
72.2256,2223.2
72.2263,3406.8
72.2269,2379
72.2281,2750.1
72.2293,1529.4
72.2299,955.8
72.2305,1333.5
72.2312,1163.8
72.2318,912.1
72.2328,1622.9
72.234,2267.3
72.237,92
72.2377,243.1
72.2407,297.5
72.2417,438.9
72.2672,327
72.2686,150.2
72.2889,398.8
72.2973,471.7
72.32,158.3
72.3351,352.7
72.387,17.3
72.4023,71.9
72.4054,106.1
72.4061,527.6
72.4249,24.9
72.4401,348.6
72.4444,145.3
72.4608,505.5
72.4635,195
72.4749,96.3
72.4773,91.1
72.4853,20.3
72.4902,545.4
72.5395,205.7
72.5587,257.9
72.5808,198.4
72.5811,208.4
72.5814,109.8
72.6145,363.8
72.6154,18.1
72.6334,322.6
72.6396,209.1
72.6495,107.8
72.6781,209.9
72.6905,269
72.695,147
72.7015,105.4
72.7031,216.1
72.7153,229.9
72.7231,127
72.7302,208.3
72.7621,345.8
72.7691,16
72.7891,70.6
72.7897,275
72.814,258.4
72.8445,285.9
72.8817,304.3
72.8883,130.4
72.9035,161.2
72.9103,176.6
72.9106,263.9
72.9274,81.3
72.9369,926.9
72.9569,374.6
72.9644,81.6
72.9995,521.4
73.0047,209.8
73.0147,267.9
73.0371,134.2
73.0755,108.6
73.0965,128.7
73.1169,122.3
73.1204,339.7
73.1301,90.7
73.1324,95.2
73.139,128.8
73.1403,60.1
73.1497,465.2
73.1542,90.6
73.2063,128.9
73.211,18.3
73.2395,350.3
73.2437,273
73.2893,95.4
73.3042,77.1
73.3068,66.3
73.316,224.6
73.3392,267.4
73.3455,282.3
73.3931,571.8
73.4057,69.4
73.4175,139
73.4189,500.7
73.4283,326.8
73.4367,231.6
73.4453,187.3
73.4481,16.2
73.4715,331.7
73.489,187
73.4905,111.9
73.5079,16.9
73.5436,160.1
73.5465,93.1
73.5536,149.8
73.5582,205.1
73.5607,498.2
73.5662,254.1
73.5784,509.1
73.5929,224.1
73.6008,68.8
73.6049,89.8
73.6096,97.4
73.6189,193.2
73.6201,218
73.6248,376.1
73.6261,347.1
73.6269,301.7
73.6318,323.8
73.6387,449.6
73.6566,219.3
73.7238,396.2
73.7403,321.4
73.7441,70.2
73.7506,222.9
73.7644,342.2
73.7678,496.3
73.7692,108.7
73.775,116.5
73.8044,129.2
73.8325,19.4
73.8532,197.7
73.8595,279.1
73.8699,85.3
73.8802,55
73.8809,20
73.9071,94.4
73.918,555.6
73.9264,151.4
73.9483,177.6
73.95,117.2
73.9532,85.3
73.9611,123.5
73.9875,16.5
74.007,261.4
74.0209,330.1
74.0257,70.6
74.0598,3168.8
74.0635,19.1
74.0845,305.6
74.0924,105.2
74.0989,249.8
74.1303,396.8
74.1849,229
74.1905,380.6
74.1943,237.5
74.201,116.2
74.2029,283.3
74.211,97.1
74.2272,195.7
74.2311,17.3
74.2598,281.5
74.2647,322.1
74.2791,139.8
74.2838,123.7
74.2847,155.4
74.2863,262.2
74.29,118.1
74.3034,71.6
74.3053,148.2
74.3251,17.2
74.3397,119.9
74.3754,120
74.3965,420.5
74.4505,200.2
74.47,219.2
74.4744,183.6
74.4873,367.7
74.494,147.2
74.5021,308.9
74.5221,18.4
74.5371,91.8
74.5472,314.8
74.5534,16.5
74.5573,145.1
74.5595,148
74.5725,443.3
74.6229,80.4
74.6263,280.4
74.6285,17.9
74.6526,86.1
74.6571,191.4
74.6688,259
74.6949,89
74.7097,304.1
74.7131,109.5
74.7271,99.4
74.7413,151.2
74.7767,162.1
74.8049,74.1
74.8313,199.2
74.8347,474.1
74.8515,318.8
74.8524,152.9
74.8562,19.9
74.8611,323.5
74.8914,130.3
74.9068,205.5
74.911,21.4
74.9131,20.2
74.9355,86.7
74.9514,100.6
74.96,165.9
74.9911,78.9
75.0181,129.8
75.0228,23.9
75.0299,96.6
75.0353,125.5
75.0374,501.7
75.0522,100.6
75.0535,310.9
75.0564,100.4
75.0577,134.4
75.0825,17.2
75.1038,224
75.106,414
75.1071,15.8
75.1092,367.4
75.1235,341.5
75.1254,17.3
75.1287,281.5
75.1317,130.8
75.142,676.1
75.1627,307.8
75.1755,289.8
75.1825,314.5
75.1919,101.8
75.198,273.4
75.2045,401.8
75.2052,92.7
75.2072,100
75.2487,95.3
75.2501,287.5
75.2555,525.9
75.2969,279.3
75.3079,293.7
75.3105,249.2
75.3178,195
75.3228,71.8
75.3236,301.4
75.3296,206.7
75.3316,96
75.3334,86.5
75.3369,307.6
75.3488,183.4
75.3548,111.1
75.3707,101.5
75.3725,219.4
75.3808,218.2
75.409,425.9
75.4361,127.3
75.4423,406.2
75.4822,384.3
75.5011,126.4
75.5202,178.6
75.5212,243
75.547,18.3
75.5523,204.6
75.5535,200.1
75.5601,129.2
75.5613,120.3
75.5646,520.1
75.6153,78.5
75.6292,557
75.6423,158.5
75.6441,557.6
75.6602,86
75.6637,171.8
75.6662,23.1
75.688,103.2
75.693,15.7
75.6974,320.7
75.7054,98.9
75.7081,193.4
75.7089,403.4
75.76,65.3
75.7976,595.2
75.8482,107.5
75.8512,140.5
75.8592,768.4
75.8653,111
75.8967,199.5
75.9108,264
75.9539,361.3
75.9548,141.4
75.9609,310.2
75.9688,242.1
75.9782,126.6
75.9791,180
75.9966,17.6
76.0053,481.2
76.0246,140.9
76.0568,212.3
76.1104,89.2
76.1119,321.5
76.1155,106.6
76.1281,63.7
76.1327,296.3
76.1456,17.7
76.1474,16.8
76.1495,287.2
76.163,495.3
76.194,17.4
76.2059,379
76.2096,360.9
76.2208,66.8
76.2637,289.5
76.2647,547.8
76.282,303.7
76.3017,58.9
76.3048,20.8
76.3135,530.7
76.3201,372.7
76.3439,522.3
76.351,133.2
76.4276,137.3
76.4346,98.3
76.4538,569.9
76.4784,487.8
76.5027,388.8
76.5042,229.4
76.5169,18.2
76.5322,149.5
76.5631,403.8
76.5842,138.7
76.5921,98.1
76.6096,330.2
76.652,111.4
76.6628,238.1
76.6708,189.7
76.686,19.2
76.7432,17.1
76.7452,267
76.7548,420.5
76.769,224.6
76.7927,202.3
76.8119,19.8
76.8191,17.6
76.8201,75.4
76.8319,185
76.8362,17.1
76.8454,106.9
76.8522,497.5
76.8797,238.6
76.8937,93.5
76.914,217.6
76.9193,100.9
76.9369,104.3
76.9561,83.1
76.9571,176.8
76.9704,138.9
76.9783,98.7
77.0168,131.1
77.0218,326
77.032,77.2
77.0323,81
77.0332,82.8
77.0334,84.3
77.0355,95.1
77.0366,16.8
77.0368,20.4
77.0384,132199.2
77.053,168.4
77.0584,286.1
77.0921,336.1
77.1046,271.5
77.1419,85.1
77.1429,19.9
77.147,16.2
77.1929,398
77.2033,343.9
77.2761,89.8
77.2784,20.5
77.2998,322.2
77.3378,17.3
77.3463,365.1
77.3586,271.3
77.3593,74.3
77.3927,16.9
77.3953,209.9
77.4034,426
77.4054,197
77.4067,443.1
77.4285,212.5
77.4326,524.8
77.4761,386.5
77.4997,147.2
77.5107,123.1
77.5256,272.4
77.5454,400.3
77.5647,398.7
77.5795,500.7
77.5875,172.7
77.6115,144
77.6245,17.5
77.645,125.4
77.6584,20.4
77.7236,502.8
77.7341,102.6
77.7881,208.8
77.792,16.7
77.7936,21.1
77.8224,233.1
77.8455,197.3
77.8561,89.6
77.8684,200.3
77.8808,125
77.8994,318.5
77.9011,218
77.9074,528.3
77.908,516.5
77.9096,81.2
77.9272,17.7
77.9287,213
77.9338,372.3
77.9521,159.1
77.9573,142.8
77.9638,16.9
77.9666,98
78.0418,3832
78.0534,100.9
78.0598,288.2
78.0625,102.4
78.0636,117.3
78.0687,194.5
78.0877,214
78.0959,79
78.0984,87.4
78.1076,135.3
78.1458,407.3
78.1574,353.4
78.1701,194.4
78.1766,261.5
78.2,87.6
78.2205,283.5
78.2445,96.8
78.2565,89.4
78.2599,104.6
78.2669,216.8
78.2896,106.5
78.2907,110.9
78.3272,135.4
78.3524,208.6
78.4087,274.4
78.4184,90
78.4251,133.8
78.4289,326.6
78.4322,108.3
78.45,381.4
78.4539,17.4
78.4693,270.3
78.4857,240.3
78.5104,73.1
78.5383,157.1
78.5606,137.7
78.5711,166.4
78.5945,298.5
78.5965,91.6
78.6029,166.8
78.6177,190.5
78.6423,513.1
78.6878,588.7
78.7197,251.3
78.7274,19.4
78.7555,331.3
78.7574,589.1
78.7771,403
78.7883,255.4
78.8007,339.5
78.8036,104.2
78.8451,320.2
78.8737,71.4
78.8783,220.5
78.8887,194.3
78.911,205.1
78.9299,102.3
78.9435,20.3
78.9919,517
78.9948,85.8
78.9969,160.3
79.0331,18
79.0504,92.9
79.054,2133.6
79.0675,108.4
79.0778,410.6
79.0784,191.9
79.0871,18.8
79.1035,513
79.1494,18.6
79.2212,388.3
79.2372,205
79.2645,172.1
79.2742,68.6
79.2811,237.7
79.2895,17.5
79.3084,549.6
79.328,270.3
79.3365,463.2
79.3562,105.7
79.359,541.8
79.3641,136
79.3695,19.5
79.3808,16.9
79.3978,590.6
79.4075,193.9
79.4224,192.7
79.4253,19.3
79.4282,17.4
79.4554,88.3
79.4562,76.8
79.458,17.9
79.4788,649
79.5101,129.8
79.5191,275.9
79.5204,144.2
79.5279,91
79.5347,179.5
79.5434,310.1
79.5632,388.1
79.5671,18.6
79.5855,102.8
79.5927,360.3
79.6028,60.4
79.6217,354.8
79.6257,94.1
79.6803,527.8
79.6816,265.8
79.7067,334.1
79.7577,509.1
79.7735,138.5
79.7745,233
79.7869,242.2
79.7981,217.6
79.8023,188.2
79.8068,101.5
79.8088,18.5
79.8298,320.8
79.8522,269.5
79.8665,309.6
79.8693,351.4
79.8716,205.7
79.9153,271.2
79.9213,381.1
79.9644,105.4
79.9799,181.9
79.9836,115
80.008,295.8
80.0414,113.5
80.0433,312.3
80.0447,172.3
80.0493,21.4
80.0511,200.2
80.0622,608.6
80.0647,412.4
80.0712,74.5
80.0747,291.2
80.0972,139.9
80.1275,100.6
80.1505,208
80.1521,18.9
80.1919,315.4
80.2046,531.9
80.2627,118.5
80.2675,344
80.3087,439.7
80.3099,140.5
80.3139,102.5
80.3177,87.3
80.3298,353.2
80.3516,91
80.3624,290.9
80.4335,494.1
80.4507,413.5
80.4666,201.1
80.5655,170
80.5758,143.2
80.5802,362.9
80.6025,83.9
80.6263,277.3
80.6394,494.8
80.6643,106.3
80.6748,260.6
80.6763,211.1
80.6777,18.1
80.6873,187.9
80.6919,222.3
80.7005,277.1
80.7624,375.6
80.8035,270.2
80.8207,415.6
80.8674,16.1
80.8724,276.4
80.884,301.2
80.9001,374.9
80.9016,314.3
80.9293,125.5
80.9477,70050.1
80.9528,16.6
80.9569,209.7
80.9859,172.6
80.9925,108.6
80.9977,111.1
81.0071,306.2
81.0346,22.7
81.0583,207.8
81.0697,1345.8
81.0728,430.6
81.0843,181.5
81.0863,19.5
81.097,18.8
81.1088,450.5
81.1292,220.8
81.1305,436.8
81.1389,313.6
81.1397,133.4
81.1406,993.3
81.1416,1130.7
81.1422,247.6
81.1438,93
81.1452,607.7
81.146,238
81.1502,537.7
81.1699,19.5
81.1714,347.3
81.1764,193.7
81.182,113
81.2222,96
81.2564,78.4
81.2851,268.9
81.2896,97.9
81.2981,108
81.3028,91.5
81.3073,630.1
81.3774,97.1
81.3805,184.7
81.5041,132.6
81.5409,307.6
81.6109,290.8
81.6176,205.4
81.6234,18.8
81.635,315.4
81.6476,473.1
81.6582,17
81.6852,16.7
81.6946,545.4
81.7008,313
81.7145,19.6
81.755,267.2
81.7774,363.6
81.7818,92.5
81.7882,145.7
81.7989,398.2
81.8103,516
81.8384,429.3
81.8691,216.7
81.9065,414.1
81.9196,263
81.9206,232.8
81.9936,126.5
82.0006,131.7
82.0292,193.8
82.0638,215.8
82.0989,280.8
82.1015,333.9
82.1076,145.3
82.1336,283.1
82.1682,232.2
82.1693,168.3
82.1768,211.3
82.1792,95
82.1896,20.2
82.2094,99.5
82.2495,520.3
82.2524,371.4
82.2548,118.9
82.2701,685
82.2852,128.4
82.287,81.2
82.2928,132.5
82.3022,360.1
82.3174,179.1
82.3218,133
82.3344,17.6
82.3631,320.8
82.3707,20.8
82.3787,406.5
82.3818,374
82.3883,18.5
82.3937,285
82.398,577.8
82.3991,494.4
82.4037,108.6
82.4553,308.6
82.526,188.2
82.5337,355.5
82.5694,308.6
82.595,62.6
82.6506,80.3
82.6653,16.2
82.6739,197.1
82.6784,275.8
82.6938,288.2
82.6987,71.5
82.7222,134.1
82.735,263.7
82.7376,112.8
82.7454,197.6
82.7665,97.3
82.7686,186.1
82.784,415.4
82.7868,301.7
82.81,72.7
82.8281,381.5
82.8449,310.2
82.8769,592.1
82.886,357.7
82.887,170.1
82.9048,408.4
82.912,91.6
82.9288,220.8
82.9336,316.5
82.9379,91.1
82.9447,19514.5
82.9517,18.1
82.9817,321.8
82.9826,18.4
82.9917,203.7
82.9926,152.2
83.0214,810
83.0351,21
83.0368,76.1
83.0492,107.8
83.05,237.3
83.0604,219
83.0852,129.6
83.1033,138.9
83.1063,419.6
83.1186,104.6
83.1472,112.4
83.162,275.5
83.1633,227.3
83.2027,217
83.2085,19
83.2241,321.3
83.2857,394.3
83.3207,98.8
83.3305,219.7
83.348,322.9
83.3512,562.7
83.364,304
83.3859,433.3
83.3931,122.7
83.4126,124.7
83.4137,220.2
83.4286,203.6
83.4364,210.2
83.4557,223.6
83.4684,142.8
83.4693,18.3
83.4878,155.3
83.5089,222.9
83.5267,154.7
83.534,323.1
83.5357,360.7
83.5738,589.7
83.5797,90
83.5873,16
83.607,16.5
83.6357,98.9
83.6485,105.3
83.6508,139
83.6859,127.9
83.687,20.7
83.7564,161.2
83.757,91.1
83.7773,17.3
83.7987,94.8
83.8116,17.8
83.8157,274.3
83.8548,109.2
83.8678,263.2
83.875,97.3
83.8785,95.1
83.8941,73.3
83.9083,70.7
83.9171,90.3
83.9339,166.5
83.9544,372.1
83.9982,229.4
84.008,324.8
84.0244,82.6
84.0351,150.3
84.0444,558.9
84.0586,415.8
84.0678,402.7
84.077,122.9
84.105,268
84.1081,377.4
84.1238,327.3
84.151,114.8
84.1645,97.1
84.185,84.2
84.2384,196.3
84.2557,230.5
84.2771,95.7
84.287,18.4
84.297,539.9
84.2982,305.5
84.334,17.3
84.3457,270.4
84.3786,152.8
84.4132,214.2
84.4454,290.4
84.4487,533.3
84.4607,143.7
84.4726,18.7
84.5064,93.6
84.5563,78.7
84.5717,306.8
84.5781,182.8
84.5794,84
84.5909,336.7
84.6289,187.7
84.6368,187
84.643,17.4
84.6602,86.8
84.6626,17.5
84.6726,97.3
84.6873,614.5
84.7238,82.4
84.7451,318.2
84.7557,127.3
84.7569,191.1
84.7646,230.7
84.787,342.1
84.8472,439.2
84.8537,430.8
84.8651,150.1
84.8689,19.9
84.889,21.5
84.9169,219.2
84.919,357.7
84.9431,260.1
84.9596,24689
84.9892,18.4
84.9968,80.7
84.9993,133.1
85.007,15.6
85.0283,701.7
85.0291,167.1
85.0354,16.7
85.0459,107.5
85.0552,16.5
85.1404,277.7
85.1576,213.9
85.2121,388.6
85.2371,178.3
85.246,179.1
85.2555,225
85.2648,89.8
85.2811,295.7
85.2956,278.9
85.3066,259
85.3085,164.5
85.3161,58.8
85.3262,176
85.3395,252.6
85.3449,69
85.3554,71.2
85.36,71.2
85.4261,535.7
85.4268,358.8
85.4318,414.1
85.4344,288.1
85.4552,283.4
85.4593,77.8
85.4691,241.1
85.5067,125.1
85.5077,19.7
85.5102,19
85.5393,192.3
85.5401,93.7
85.5681,232.8
85.5795,295.9
85.6001,209.7
85.6197,73.5
85.6208,196.2
85.6389,16.7
85.6573,117.2
85.7135,112.6
85.7321,140.4
85.7375,433.6
85.7426,332.2
85.7628,616.2
85.7719,18.9
85.7773,99.4
85.7942,329.8
85.8715,62.5
85.8885,237.6
85.893,123.4
85.9048,263.7
85.918,103.8
85.9194,158
85.9367,117.9
85.9399,523.5
85.9474,95.8
85.9482,287.7
85.9589,181.5
85.9678,129.8
85.973,338.7
85.9935,304.4
86.0426,304.3
86.0443,201.8
86.0571,69.4
86.0599,36037
86.0812,144.1
86.0963,71888
86.107,21.1
86.1248,223.1
86.1412,18.6
86.1438,110.1
86.1486,144.7
86.1542,607.7
86.1585,169.6
86.1589,154.1
86.1726,22.4
86.1769,85.2
86.1816,224.3
86.1965,88.6
86.2101,129.9
86.2203,594.9
86.232,90.1
86.2339,335.4
86.2725,324.6
86.3057,20.6
86.3078,20
86.3225,102.4
86.3333,75
86.3822,18.2
86.4015,425.7
86.4365,87.6
86.5178,359.3
86.5301,16.8
86.5504,16.7
86.5745,567.2
86.5872,293.2
86.6148,97.6
86.622,16.6
86.6252,17.1
86.6427,325.7
86.68,68.9
86.7146,554.8
86.7357,100.7
86.7469,105.4
86.7597,422.7
86.7606,67.7
86.7648,266.8
86.771,384.5
86.8137,505.3
86.8188,356.6
86.8228,297
86.8334,327
86.8365,108.9
86.8462,64.9
86.8661,18.8
86.8696,194.7
86.89,206.3
86.8971,128
86.9209,281.5
86.9273,21.2
86.9292,184.9
86.9351,105.7
86.9527,91.3
87.0186,17.8
87.054,178.7
87.0696,140.9
87.0981,16.4
87.0998,472.4
87.1167,85.6
87.1601,647.4
87.166,464.9
87.171,543.1
87.2203,210.5
87.2254,92.8
87.2287,322.7
87.2422,327.5
87.2466,269.3
87.2501,80.7
87.2657,109
87.2762,390
87.2825,108.7
87.3027,342.4
87.3331,200.2
87.3429,109.8
87.349,268.8
87.3655,109.2
87.3685,154.3
87.4116,417.9
87.4157,90.9
87.4317,373.1
87.4511,354.9
87.4612,228.3
87.5239,17.8
87.5293,440.7
87.5335,17.8
87.5687,93.5
87.5845,200.3
87.5919,260.7
87.607,216.2
87.617,212.1
87.6402,329.2
87.6771,18.1
87.6793,87.8
87.7454,161.7
87.7516,307.6
87.7886,513.9
87.8056,288.7
87.8072,218.5
87.8274,78.1
87.8528,263.7
87.9027,202
87.9221,301.2
87.926,307.9
87.9339,468.7
87.9604,17.8
87.999,100.6
88.0137,332.3
88.0392,8022.2
88.0462,16.3
88.062,17.7
88.0977,302.3
88.1287,397.6
88.1372,95.5
88.1389,16.2
88.1501,105.7
88.1698,116.5
88.1784,89
88.1848,273.3
88.2002,305.4
88.2052,78.6
88.2149,16
88.232,325.4
88.2677,309
88.2714,19.6
88.2736,401.9
88.2814,268.1
88.3017,129.6
88.332,111.4
88.3566,219.5
88.3814,203.3
88.3986,18.8
88.4084,518.5
88.4827,101.2
88.493,288.7
88.5082,620.2
88.5343,90
88.5891,333.2
88.6001,107.2
88.6095,166.8
88.6116,121.6
88.6323,236.8
88.634,320.1
88.6469,322.3
88.6481,288.3
88.6627,93.9
88.6639,19.1
88.667,396.7
88.6702,289.5
88.6766,338.4
88.6818,22.1
88.6888,329.1
88.6971,83.9
88.7154,266.5
88.7449,110.4
88.7549,100.7
88.7698,281.7
88.8102,255.9
88.817,294.1
88.8371,92.5
88.8412,216.8
88.859,265.2
88.8595,242
88.8658,319.2
88.8822,676.1
88.8891,584.7
88.8983,554.1
88.9118,74.3
88.9341,393.1
88.9523,44.2
88.9615,374.2
89.0083,171.8
89.016,199.9
89.0599,15.8
89.0614,106.7
89.0699,21.9
89.0748,234.3
89.0863,286
89.15,297.1
89.1522,225
89.1573,271.6
89.2411,137.1
89.2594,267.2
89.2832,95.5
89.2965,162.3
89.3688,305
89.3855,321
89.3897,422
89.4003,19.5
89.4086,132.3
89.4435,93
89.4444,492.5
89.4457,168.5
89.4671,19.1
89.4687,74
89.4869,282
89.5446,85.5
89.5474,127.7
89.5523,141.6
89.5588,130.7
89.5696,204.7
89.5815,223.8
89.5985,325.4
89.6304,352.6
89.6325,76.9
89.639,146.4
89.6411,162.6
89.6477,440
89.6905,107.5
89.7047,386.1
89.7128,479.2
89.7148,282.9
89.7721,243.9
89.7749,292.9
89.7942,353.7
89.8291,107.5
89.8778,381.9
89.961,22.9
89.9636,384.4
89.9675,182.2
89.9735,98
90.0185,141.5
90.0334,77.2
90.0436,102.9
90.0556,221.8
90.0997,330.4
90.1093,443.9
90.1324,64.4
90.1336,160.3
90.1342,354.7
90.1361,18.1
90.1467,147.4
90.1669,94.5
90.1732,390.4
90.1857,82.9
90.1881,380.8
90.192,154
90.2673,284.2
90.3063,178.1
90.3573,147.6
90.3582,83
90.4193,130.3
90.4264,75.9
90.4442,467.7
90.4513,88.5
90.4596,72.6
90.4625,586.6
90.4698,100.1
90.4709,176.1
90.524,323.5
90.5246,137.9
90.6198,215.3
90.6293,107.9
90.6723,80.9
90.727,18.1
90.7431,549.7
90.7517,256.1
90.7575,22.4
90.7862,257
90.8177,18.7
90.8253,335.1
90.8501,110.4
90.8573,441.4
90.8727,83.2
90.8844,115.8
90.9031,26.4
90.9114,159.5
90.9254,143.9
90.9292,525.2
90.9301,479.1
90.9476,2682.1
90.9765,13387.8
90.9855,57.1
91.0046,255.5
91.0237,104.4
91.0421,423.9
91.0541,2523.9
91.0592,73.8
91.0765,291.4
91.1111,117
91.1131,376.7
91.1336,221.3
91.142,343.3
91.1542,277.9
91.216,313.2
91.2773,100.8
91.3133,135.7
91.3183,508.3
91.3574,169.3
91.37,201.5
91.3951,92
91.4049,305.3
91.4214,78.8
91.4519,77.1
91.4656,93.8
91.4969,301.2
91.5533,138.6
91.5679,292.9
91.5949,283.2
91.635,95.7
91.6441,540
91.6452,290.7
91.6555,168.4
91.6632,214.2
91.6657,120.7
91.6701,20.4
91.6718,494.9
91.688,95.8
91.6888,112
91.7132,333.5
91.7602,18.4
91.7716,82.2
91.784,60.5
91.7904,90.6
91.7919,19.9
91.8189,361.9
91.8277,76.8
91.8539,337
91.8549,128.7
91.8626,93.2
91.8757,74.6
91.9102,280.2
91.9158,210.7
91.9204,215.4
91.9238,196
91.9298,246.4
91.9543,17.8
91.9667,337.4
92.0272,165.5
92.0333,149.7
92.0494,169.2
92.0531,79
92.0573,20.8
92.1,19.2
92.1089,76.2
92.1357,121.1
92.1457,102.8
92.1606,103.5
92.1882,105.6
92.2111,22.3
92.2271,18.9
92.2403,87
92.2716,329.8
92.2815,18.7
92.3627,186.7
92.3703,293.6
92.3808,18.4
92.3913,240.9
92.4003,69.4
92.4184,311
92.4307,303.7
92.4609,210.8
92.47,94.9
92.4788,19.4
92.4904,86.6
92.5376,323.7
92.54,163.4
92.5885,174.8
92.5926,17.9
92.6365,17.4
92.6499,118.3
92.6831,422.6
92.7056,101.5
92.7125,90.7
92.8318,132.5
92.8431,413.2
92.8639,18.7
92.9251,159.7
92.9269,348.7
92.9367,97.4
92.9437,82.8
92.9567,154.8
92.9608,81.1
92.9728,601.4
92.9781,65.8
92.9831,151.2
93.0126,571.1
93.0335,24.1
93.0458,80.4
93.0524,136
93.0621,276.2
93.0699,28
93.074,111
93.0755,483.5
93.0931,170.9
93.119,93.2
93.1201,361
93.1409,212.7
93.1729,96.3
93.1771,16.9
93.1903,20.3
93.1978,406.4
93.2002,297.7
93.2291,111.5
93.2398,105
93.2436,86.4
93.2451,79.8
93.2511,88.2
93.2546,171.6
93.2706,390.8
93.275,98.1
93.287,105.9
93.331,192.4
93.3505,113.1
93.3515,103.1
93.3531,207.3
93.3637,159.2
93.3706,398.3
93.3995,99
93.4034,218.5
93.4125,417
93.4137,202
93.4431,21
93.47,111.6
93.4928,91.2
93.5001,519.8
93.531,213.3
93.5471,203.8
93.5478,110.6
93.5595,232.8
93.5822,474.1
93.5837,18.3
93.603,403.9
93.6404,18.2
93.6564,345.3
93.6644,61.6
93.6839,402.9
93.7189,247.8
93.7312,149.2
93.7387,223.2
93.7612,94.7
93.7809,148.5
93.7884,511.7
93.7926,437.5
93.8221,104.3
93.8655,313.9
93.8658,397.7
93.8662,296.3
93.8729,106.2
93.8874,22.1
93.8891,224
93.8949,72.1
93.9076,97.5
93.928,331.8
93.9397,15.8
93.9461,143.2
93.9712,74.3
93.9755,128.2
93.9765,406.5
93.9865,93.7
94.0399,23.6
94.0413,59570.1
94.0426,23
94.0429,28.4
94.0624,97.9
94.065,75.1
94.0709,109.4
94.0791,249
94.0876,61.1
94.0956,327
94.1146,304
94.16,186.7
94.1717,101.2
94.1857,362.1
94.2333,82.1
94.2698,116.4
94.28,106.6
94.2839,94
94.2872,261.1
94.304,236.1
94.3258,109.4
94.3363,112.8
94.3392,333.9
94.3418,177.1
94.3621,19.7
94.3867,238.2
94.4136,257.9
94.4348,103.3
94.4542,267.1
94.5223,385.3
94.5927,340.3
94.5988,453
94.5995,419.4
94.6234,335.5
94.638,110.3
94.67,632.7
94.6815,493
94.7211,105.4
94.7553,104.7
94.7577,117.9
94.7629,78.4
94.81,19.4
94.8197,385.8
94.8876,214.3
94.9068,19
94.933,104.6
94.9397,145.7
94.9478,21.3
94.9697,20.8
94.9785,161.1
94.982,24.4
95.01,20.7
95.0356,87.7
95.0402,96.8
95.0434,571
95.0446,1451
95.0468,33.7
95.0491,469448.8
95.0507,154
95.0515,44.3
95.0607,354.2
95.0624,29.2
95.0753,199.4
95.0815,271.4
95.0855,629.2
95.0894,49.8
95.1137,103.2
95.1229,84.5
95.1295,276.1
95.1351,19
95.1484,422.3
95.1553,602
95.1568,107.7
95.1643,320.4
95.1915,101.6
95.2276,163
95.2376,60.5
95.2393,18.7
95.2427,223.5
95.2539,67.3
95.3185,395.4
95.4111,382.7
95.4156,129.9
95.458,106.5
95.5125,383.5
95.5168,311.1
95.52,308.2
95.5355,148.4
95.5688,126.9
95.5983,390.6
95.6007,676.3
95.6279,110.9
95.6704,301.9
95.713,203.1
95.7723,215
95.8054,319.8
95.8272,123.7
95.8315,89.7
95.842,139.1
95.8998,260.2
95.9531,156.1
95.988,16.3
95.9939,20.7
95.9981,399.2
96.0161,332.8
96.0444,133.8
96.0524,23173.6
96.0554,34.6
96.0751,95
96.0864,117.7
96.1354,211.1
96.1427,308.4
96.187,108.5
96.2,105.3
96.204,230.6
96.2366,122.3
96.2371,116.3
96.2685,113.8
96.2715,104.9
96.3033,86.3
96.3197,317.1
96.3337,258.4
96.3354,198.5
96.3381,286.7
96.3401,665.9
96.3502,244
96.3865,270.5
96.4175,377
96.4263,321.2
96.4401,319.3
96.4413,114.8
96.4462,526.5
96.449,63.3
96.4926,202.9
96.504,267.3
96.5148,194.5
96.5286,17.2
96.5488,17.5
96.5506,306.1
96.5575,59.6
96.562,232.2
96.578,512.5
96.6438,254.5
96.645,642.2
96.6471,21.9
96.7339,305.2
96.75,242.4
96.7642,149.7
96.7971,24.7
96.8371,19.5
96.8797,169.7
96.8949,96.1
96.9006,74.6
96.9217,176432.6
96.9376,79.1
96.9572,1074.6
96.9592,481.9
96.9924,20
97.0012,89
97.0037,547.7
97.0075,171.1
97.0086,151
97.0105,87
97.0137,171.8
97.0283,353.7
97.0342,18.7
97.0533,120.3
97.0558,78.3
97.063,447.3
97.065,128.2
97.0789,162.7
97.0967,62.5
97.0978,93.4
97.1011,82.7
97.1382,299.4
97.1414,100.2
97.1439,286.3
97.1499,95.4
97.1518,343.8
97.1977,455
97.2197,534.6
97.2282,85.4
97.2611,189.2
97.3116,102.2
97.3199,96.3
97.3253,64.2
97.3535,238.9
97.3625,518.2
97.3992,337.9
97.4039,288.8
97.408,136.7
97.45,135.9
97.4909,109.2
97.5034,63.5
97.5133,363.6
97.5289,304.7
97.5303,349.3
97.548,310.5
97.5553,122.5
97.5839,214.2
97.5945,88
97.5956,579.1
97.6002,265.4
97.6084,124.2
97.6229,17.1
97.6853,215.4
97.7144,531.8
97.7246,98.7
97.7584,274.2
97.7694,18.3
97.7714,478.8
97.7852,434.1
97.8075,357.1
97.8369,17.9
97.8384,196.5
97.856,16.8
97.8596,15.8
97.8618,425.1
97.8948,192.8
97.9042,288
97.9348,280.9
97.9747,305.8
98.0093,292
98.025,474
98.0425,17.5
98.05,92.1
98.0571,221.4
98.0596,595.4
98.0617,361.7
98.077,96.1
98.0791,105.9
98.0813,249.9
98.1091,499.9
98.127,769.2
98.1578,20.7
98.164,17.8
98.1929,96
98.2332,371.3
98.301,16
98.3197,94
98.3372,300.7
98.3531,247.7
98.3784,195.1
98.4194,410
98.4388,17.3
98.4475,17.8
98.4568,19.1
98.4619,315
98.4771,17.9
98.493,109
98.5051,237.1
98.5442,19.7
98.5561,219.2
98.5756,218.3
98.6205,212
98.6301,214.1
98.6375,206.5
98.6481,86.2
98.6857,203.1
98.7987,506.8
98.8245,333.3
98.8413,348.8
98.8963,20.2
98.8993,104.8
98.9129,94.5
98.9188,53057.9
98.9198,9891.1
98.9304,159.5
98.9558,349.8
98.9753,27849.7
98.9792,357.6
98.9842,63.4
98.9937,18.7
98.9968,266.3
99.0022,96.1
99.0399,108.5
99.0555,20.3
99.0659,314.2
99.0935,125.1
99.0968,135.4
99.1092,328.3
99.1365,320.6
99.148,17.3
99.1499,87.3
99.1691,118.1
99.1884,167
99.2301,94.5
99.2545,107.9
99.3147,261
99.3318,369.7
99.3356,223.8
99.3443,96.7
99.3449,278.7
99.3585,293.4
99.3598,270.5
99.3638,16.7
99.3648,455.9
99.367,405.1
99.3815,345.3
99.4536,104.1
99.4602,202
99.4658,107.1
99.4768,222.7
99.525,152.2
99.5274,105.4
99.5348,311
99.5588,181.5
99.5606,19.4
99.5892,156.3
99.6082,358.2
99.6621,21.5
99.6768,85.2
99.6782,293.3
99.6902,157.7
99.7246,20.8
99.761,113.4
99.7751,214.3
99.8372,361
99.8594,261.3
99.8698,19.2
99.8889,273.5
99.9088,175.9
99.9127,264.9
99.9418,659.9
99.9551,332.7
99.9893,319.4
100.0065,16.6
100.013,344.3
100.0218,131
100.0527,327.2
100.0946,18.6
100.1278,75.8
100.1853,146
100.219,700.7
100.2289,328.7
100.2553,86.5
100.2873,325.8
100.3063,19.3
100.3113,418.4
100.3372,343.5
100.3383,106.5
100.3444,91.3
100.3557,18.4
100.3575,155.9
100.4283,231.5
100.4306,233.1
100.4367,178.2
100.4493,112.8
100.4597,320.5
100.484,151.9
100.5059,363.4
100.5507,326.6
100.6221,89.8
100.6481,101.8
100.6529,137.3
100.6973,22.3
100.7134,99.2
100.7303,110
100.7866,148.7
100.8306,306.5
100.8944,15.7
100.9169,981.2
100.9231,258.6
100.9235,259.3
100.9584,413.1
100.9794,295.7
101.0083,506.5
101.0122,262.9
101.0471,2675.1
101.0506,19.2
101.059,207.2
101.0709,1126.9
101.112,17.6
101.15,81.8
101.2059,22.1
101.2447,438.5
101.2915,581.6
101.3217,615.5
101.3252,94.4
101.4042,532.6
101.4366,221.8
101.4527,288.1
101.4833,18.2
101.4969,429
101.4992,319.6
101.5121,104.2
101.5653,114.1
101.5765,104.9
101.5812,128.3
101.6209,539.2
101.6453,117.3
101.661,19.7
101.6751,222.1
101.6963,162.3
101.7538,300.4
101.7719,322
101.8191,19
101.8387,221.7
101.8558,136.1
101.9089,89.8
101.9482,335.2
101.9559,17.7
101.9637,253.8
101.974,158.9
101.9852,188.8
102.0525,81.9
102.0549,4669.1
102.0871,83.4
102.1288,132.3
102.1394,17.5
102.1672,146
102.1815,134.3
102.1848,99
102.2168,558.5
102.2246,528.6
102.2352,18.8
102.3222,160.4
102.3465,147.9
102.3557,212.3
102.391,103
102.4155,191.2
102.4259,142.6
102.4732,235.8
102.5167,17.7
102.5224,204
102.527,96.1
102.5403,231.9
102.5548,220.9
102.5711,165.4
102.5814,63.7
102.5987,341.7
102.6629,492.2
102.6722,16.7
102.693,374.1
102.7063,90
102.7649,175.6
102.7664,217.1
102.8301,268.2
102.8502,108
102.8965,305.3
102.9477,18.7
102.968,89.5
102.9702,615.2
102.9914,625.2
103.0005,100.6
103.0209,16.8
103.0541,489
103.0761,276.5
103.1193,22
103.1366,82.7
103.1737,16.4
103.1852,72.8
103.1864,95.1
103.2224,368
103.2256,138.2
103.2619,402
103.3031,20.3
103.3207,98.2
103.3296,211.3
103.4177,104
103.4323,207.5
103.4436,290.6
103.4853,18.6
103.4882,318.7
103.5182,107.5
103.5393,98.8
103.6054,16.8
103.628,95.5
103.6886,97.6
103.7129,290.7
103.7193,110.8
103.7557,157.7
103.7741,17.4
103.8107,125.8
103.8409,483.7
103.8487,208.7
103.8625,188.9
103.8872,624.7
103.8967,98.3
103.924,76.7
103.9385,141.2
103.9538,17
103.9676,62.3
103.9793,208.5
103.9816,19.3
104.0236,113.9
104.0357,207.2
104.0492,17.8
104.0605,147.7
104.0979,328.9
104.107,277388.8
104.1266,104
104.1362,112.5
104.1463,288.9
104.1663,87.3
104.1935,750.1
104.1991,328.4
104.2518,356.3
104.2573,17.8
104.279,122.3
104.2837,61.4
104.3333,539.3
104.3473,254.4
104.3557,230.4
104.3918,543.5
104.4666,15.8
104.5092,425.2
104.5147,118.4
104.5151,122.8
104.5214,186.6
104.5468,148.7
104.5542,304.7
104.5632,18.8
104.5699,16.5
104.5827,18.9
104.5891,357.3
104.5949,477.4
104.6882,227.8
104.7349,108
104.7383,16.1
104.7735,383.5
104.8058,160.2
104.8713,393.2
104.8755,18.6
104.9021,346.9
104.9481,63.1
104.9633,3739.3
104.9923,6031.2
105.0154,20.5
105.0287,318.8
105.0447,43111.2
105.0651,468.2
105.0699,50.5
105.1103,8391.2
105.1258,328.3
105.1281,94.3
105.1296,88.6
105.164,149.2
105.1865,21.7
105.1959,330.2
105.2423,374.6
105.254,107.3
105.2672,140.3
105.3184,435
105.3531,127.2
105.3599,160.6
105.3679,559.9
105.3899,310.2
105.4522,210.7
105.4586,332.2
105.4706,188
105.5117,181.2
105.5205,65.2
105.5365,87.5
105.5418,303.1
105.5576,199.8
105.5922,180
105.6793,645.4
105.6924,338.7
105.713,151.2
105.7384,225
105.774,198.8
105.8077,303.8
105.8227,16.7
105.8311,387.6
105.8509,397.5
105.8613,63
105.8692,99.2
105.8741,199.6
105.883,231
105.9264,157.2
105.9349,92
105.9597,591.4
105.9638,28.4
105.9859,191.4
105.9933,146.5
106.0227,112.3
106.0416,20.2
106.048,900.1
106.0568,138.1
106.0593,109.2
106.0652,56.2
106.0673,208
106.0855,303.4
106.1152,106.6
106.1177,206.3
106.1203,142.6
106.1972,342.1
106.205,421.5
106.2202,97
106.2628,99
106.2704,210.1
106.274,90.9
106.3105,484.9
106.3173,131.7
106.325,316.1
106.3371,500.6
106.3842,67.4
106.4051,80.3
106.4444,19.6
106.4684,513.9
106.4897,99.5
106.5088,466.3
106.5458,93.8
106.5603,100
106.5661,293.4
106.5842,183.7
106.6152,329.3
106.6265,18.2
106.628,102.2
106.6464,332.5
106.7246,118.6
106.7723,321.1
106.873,118.4
106.8971,241
106.9386,120.6
106.9505,4373.8
106.9543,119
106.9638,77.8
106.9867,18.2
106.9919,69.2
107.0283,93.5
107.0491,447.3
107.0786,148.3
107.0807,106.3
107.0831,221.3
107.0895,91.4
107.1357,197.6
107.1539,89.4
107.1557,388.2
107.2218,299.1
107.2233,208.7
107.2259,146.6
107.2275,85.8
107.2487,88.4
107.2504,366.2
107.276,521.6
107.2963,98.1
107.3245,337.9
107.3375,135.5
107.3438,171.2
107.3687,171.8
107.3875,19
107.4172,270.5
107.4277,16.9
107.4519,393.4
107.4865,16.1
107.5599,565
107.5629,432.2
107.6288,62.9
107.6394,134.2
107.6458,206.8
107.6856,314.3
107.7106,562.3
107.7185,209.2
107.7677,253.5
107.7946,24
107.8089,60.3
107.8108,299.2
107.8298,363.3
107.8336,208.4
107.8461,103.6
107.8759,316.7
107.8865,17.4
107.892,328.1
107.9293,643.2
107.9399,282.8
107.9438,132.3
108.0045,63.5
108.0367,194.2
108.0503,229.4
108.0571,21.3
108.1241,229.4
108.133,219.2
108.1547,277
108.1694,113
108.1896,102.9
108.2173,400.8
108.2497,89.2
108.2599,211.1
108.262,103.8
108.2707,18.6
108.3389,111.6
108.3406,80.2
108.3621,157.8
108.3923,139.2
108.4056,185.3
108.4092,165.1
108.4339,136.7
108.4351,205.5
108.5267,17.8
108.5424,66.1
108.5475,440.8
108.5743,18.1
108.5884,18.5
108.5894,520.4
108.6156,151.2
108.646,103.2
108.6543,320.2
108.6739,210.5
108.6995,144.9
108.7203,19.3
108.7311,127.5
108.7559,92.5
108.7823,197.8
108.8547,141.4
108.8806,244.5
108.8855,500.4
108.9186,211.2
108.9323,389.1
108.9583,115.2
108.962,109.9
108.9899,18.8
109.0648,62865.7
109.0759,17
109.0879,107.5
109.0901,566.7
109.1007,407.8
109.1086,122.6
109.1562,242.3
109.1685,408.4
109.2279,109.9
109.2435,270.1
109.2483,237.3
109.263,211.7
109.286,175.8
109.2941,23
109.2972,101.9
109.3118,379.3
109.3373,82.9
109.3487,129.2
109.3631,271.8
109.3902,104.5
109.4583,524.5
109.4684,293.3
109.4788,98.3
109.5448,16.9
109.5483,92.6
109.5725,109.3
109.5764,134.5
109.5957,18.5
109.6453,114.9
109.6618,196.5
109.7169,426.2
109.7214,17
109.7427,100.2
109.8029,335.5
109.8111,17.8
109.8387,129.2
109.8568,282.5
109.8622,313.8
109.9232,89.5
109.9476,304.4
109.9572,17
109.9723,107.5
110.0238,153.6
110.0303,17.4
110.0417,263.7
110.0681,2298.9
110.0999,18.6
110.1376,73
110.1745,341.7
110.189,538.9
110.2057,17.1
110.2086,17.7
110.2491,20.7
110.2548,557.6
110.2579,166.1
110.2855,105.5
110.3579,82.7
110.415,22.4
110.4764,283.8
110.4804,164.2
110.4861,177.8
110.49,106.5
110.4916,61.6
110.5602,234
110.6059,255
110.6266,17.6
110.6443,281.9
110.6695,185.1
110.6789,100.8
110.6805,531.4
110.6906,156
110.6925,23
110.7227,101.6
110.7554,97.5
110.7601,220.1
110.7739,408.4
110.7973,334.1
110.8056,143.2
110.8101,361.4
110.862,89.3
110.8707,173.3
110.8872,212.4
110.9306,128
110.9752,500
110.9805,81.6
110.9857,85.6
111.0002,155.2
111.0233,348
111.03,320.5
111.0322,120.9
111.0441,245.2
111.0527,143.5
111.0706,89.8
111.0758,18.6
111.083,95.9
111.0846,571.8
111.1053,17
111.1266,95.3
111.1952,103.1
111.2241,434.1
111.2508,199.9
111.2524,61.9
111.2813,91.3
111.288,275.5
111.2927,197.2
111.3224,583.9
111.3441,78.2
111.3473,17.5
111.4273,174.9
111.43,328.8
111.4382,16.9
111.4398,139.8
111.4489,508.4
111.4706,125.1
111.4713,123.6
111.4829,90.5
111.5016,257.5
111.5609,16.8
111.5739,108.5
111.6154,136
111.6186,89.8
111.7275,18.2
111.7401,100.6
111.7577,23.8
111.7627,217.6
111.7648,196.2
111.7874,430.5
111.8405,83.2
111.8519,204.8
111.8824,759.2
111.9352,100.8
112.0034,546.3
112.0091,459.9
112.0111,324.6
112.0562,406.8
112.0763,180.4
112.0978,294.9
112.0995,134.4
112.1086,459.5
112.122,18.1
112.133,18.6
112.1555,17.2
112.1845,150.3
112.1859,346.9
112.1886,351.2
112.2503,228.8
112.2658,18.5
112.3251,19.8
112.3746,95.1
112.3777,423.4
112.3867,149.2
112.4371,208.7
112.4505,399.6
112.4567,61.9
112.491,120.3
112.5203,346
112.5757,111
112.5959,113.5
112.6371,191.8
112.6428,202.4
112.6452,309.6
112.6532,299.7
112.6539,335.4
112.7358,19.7
112.7669,447.6
112.7764,363.5
112.7894,142.3
112.8432,18
112.8957,405871.8
112.9089,431.7
112.9434,548.5
112.9826,427.6
112.9865,181.4
112.9951,331.6
113.008,412.1
113.0306,192.1
113.0714,418.9
113.0801,19.6
113.1074,147.6
113.1514,174.4
113.1945,335
113.2179,343.7
113.2374,216.8
113.257,86.8
113.2639,94.6
113.3078,342.1
113.3469,79.3
113.3511,128.6
113.4229,352
113.4281,340.2
113.4397,87.5
113.4425,474.3
113.4508,112.2
113.4554,17.2
113.5033,21.3
113.5212,348.6
113.5258,183.1
113.5384,379.7
113.5393,140.7
113.5562,104.1
113.5895,17.8
113.6712,120.5
113.6988,145.5
113.7137,497.8
113.747,145.2
113.8965,342
113.9196,20.6
113.9294,616
113.9581,242.6
113.9639,23.3
113.9723,18.2
113.9771,91.4
113.9789,309.5
114.0224,216.7
114.0281,451.8
114.0295,16.9
114.037,147.4
114.055,49073.2
114.0577,95.7
114.0838,307.6
114.0915,29.5
114.1137,75.4
114.139,333.8
114.1468,309.6
114.1897,190.1
114.2058,97.7
114.2104,61.4
114.2118,121.4
114.2429,322
114.2572,143.8
114.2586,93.4
114.2881,137.3
114.3107,342
114.3153,512
114.3472,318.3
114.3592,62
114.3944,119.9
114.4019,239.2
114.4219,166.9
114.455,94.6
114.4567,17
114.4749,100.6
114.4766,17.1
114.5491,154.1
114.5735,21.3
114.6029,18.7
114.6342,302.5
114.6512,72.6
114.685,121.2
114.6924,99.8
114.7383,242.3
114.7498,281.9
114.7858,99.6
114.8039,155.2
114.8494,213.9
114.8928,124762.7
114.9178,73.3
114.9218,132
114.9298,140.5
114.9406,386.6
114.9482,345.6
114.9686,20.4
114.9845,599.5
115.0305,88.4
115.0372,92.3
115.0583,1119.6
115.0867,324.7
115.1155,425.9
115.1438,136.8
115.1475,61.2
115.2011,456
115.2372,145.1
115.2454,477.9
115.2771,84.6
115.2832,19.9
115.3435,182.8
115.3954,285.7
115.4399,383.2
115.4622,152.3
115.4984,108.8
115.5007,557.9
115.5091,93.5
115.5713,293.6
115.5854,114.3
115.5963,329.5
115.622,104.7
115.6511,542.7
115.7025,170
115.7357,270
115.7696,438.2
115.7707,481.9
115.776,144.9
115.8404,113.5
115.8668,347.9
115.9168,292.2
115.9302,403.8
115.9445,262
115.9747,627.2
115.9794,642.9
115.9924,511
116.0273,205.5
116.0707,3594.4
116.1124,334
116.1328,187.6
116.1613,221.5
116.1893,21.7
116.2048,138.9
116.2336,241.6
116.2562,374.1
116.3008,585.4
116.3051,565.5
116.3165,332.5
116.3919,137.3
116.4165,210.2
116.4265,228.1
116.544,62.8
116.5868,79.1
116.6012,73.8
116.6125,87.3
116.6571,502.5
116.6744,566.4
116.7389,293.9
116.7418,72.1
116.7561,335
116.7891,440
116.8178,132
116.8539,565
116.8575,117
116.8701,177.1
116.8756,61.9
116.8824,199.5
116.8909,12818.7
116.8936,216.1
116.9477,18.2
116.9634,134.8
116.9753,199.2
116.9842,28
116.9859,2288.8
117.0158,96.7
117.0395,90.7
117.0699,39.4
117.1091,176.1
117.122,430
117.1449,254.7
117.1628,73.2
117.2204,543
117.2292,400.5
117.247,160.9
117.3109,165.2
117.3257,312.4
117.4156,342
117.4576,84.7
117.5459,80
117.5661,205.9
117.5868,102.8
117.5957,545.8
117.6262,298.4
117.628,107.7
117.6368,383.7
117.6391,561.8
117.6654,108.8
117.7229,410.3
117.7664,275.7
117.7929,449.2
117.8296,20.8
117.8379,106.8
117.8413,350.6
117.8565,64.2
117.8767,140.5
117.8837,89.7
117.9064,493.9
117.9184,77.1
117.9457,23.8
117.9889,108.9
117.9924,273.6
118.0122,159.5
118.0685,341.7
118.1028,234.7
118.1214,103.7
118.1287,329.8
118.176,76.9
118.2709,138.8
118.2875,65.7
118.3283,380.5
118.413,337
118.4265,399.5
118.4291,16
118.4334,211.4
118.443,156.3
118.464,232.3
118.4877,182.4
118.5238,86.1
118.5293,191.2
118.5704,390.3
118.5982,360.3
118.6001,524.8
118.6236,520.6
118.6518,72.9
118.6765,143
118.7008,742.2
118.7227,545.3
118.751,85.2
118.7617,375.6
118.7682,107.4
118.9252,205.2
118.9427,590.1
118.971,187.8
118.979,634.9
118.9847,210.5
118.9895,76.6
118.9953,650.8
119.0189,554.5
119.0548,149.3
119.0728,16.7
119.1011,483.2
119.1545,174.6
119.2791,97.4
119.2896,186.8
119.2943,135.1
119.3111,340.7
119.3148,161.7
119.331,97.2
119.4246,148
119.4304,97.9
119.4491,375.2
119.502,144.8
119.5268,100.1
119.5312,95
119.5396,211.3
119.5745,318.8
119.5902,478.3
119.648,106.2
119.6714,176.9
119.6867,215.1
119.688,222.7
119.7001,387.8
119.7142,134.4
119.849,308.7
119.8696,119.3
119.8816,471.6
119.8899,567.2
119.9041,440.1
119.9123,440.6
119.9349,199.1
120.0033,5128.1
120.0656,293
120.0808,9761.5
120.1639,566.3
120.1908,595.2
120.2156,17.5
120.2465,390.5
120.2629,170
120.3711,392.5
120.3903,128.6
120.4014,116.3
120.4059,145
120.4279,379.1
120.5191,619.8
120.522,241
120.6266,95.3
120.6291,94
120.6369,164.3
120.6574,194.9
120.6998,400.2
120.7277,163.8
120.7746,287.7
120.7831,17.9
120.8403,89.3
120.8433,95.2
120.861,195.3
120.9308,395.9
120.9417,176.4
120.9741,369
120.9809,133.1
121.0077,317.6
121.0285,299.8
121.0378,370.5
121.0397,41.7
121.0418,18.4
121.0646,17.9
121.084,82.5
121.0935,545.5
121.1013,50.2
121.1483,106.3
121.1797,114.6
121.2121,17.3
121.2549,690.3
121.2738,97.3
121.2772,172.2
121.3255,19.2
121.3572,17
121.3645,243.2
121.3773,17.9
121.3816,396.7
121.4271,96.5
121.4314,226.6
121.4439,134.3
121.4786,89.9
121.4877,98.9
121.5097,170.8
121.5656,86.6
121.574,110.2
121.691,105.7
121.7061,107.9
121.7692,152.7
121.7752,319.9
121.7847,65.3
121.8152,268.1
121.8656,279.9
121.8899,280
121.9005,193.7
121.9158,277.2
121.958,86.1
121.9812,229.9
122.0619,421.1
122.0714,113.9
122.1043,114.8
122.1761,350.9
122.2024,19.2
122.2073,331.5
122.287,210.6
122.3799,101.4
122.4169,167.6
122.429,545.3
122.456,168.1
122.4857,26.5
122.49,323.8
122.5059,566.5
122.5877,97.2
122.5987,63.4
122.6386,265.4
122.7049,61.9
122.7112,601
122.7568,16.6
122.7722,130.1
122.7958,206.4
122.8034,17.9
122.8058,15.7
122.807,17
122.8243,18.3
122.8482,211.7
122.8616,168.9
122.9125,204.6
122.9245,19693
122.9293,25.2
122.9323,118
122.9739,104.9
123.0631,550.6
123.0764,383.3
123.0804,139.2
123.0816,443.6
123.1016,237.5
123.117,19.6
123.2002,89.5
123.2175,20.5
123.2222,179.3
123.2901,515.6
123.2936,379.4
123.3259,136.3
123.3327,112.5
123.3456,330
123.3502,175.6
123.4026,455.3
123.4422,94.5
123.5147,200.6
123.5158,75.4
123.5365,16.5
123.5631,436.2
123.6131,18.6
123.6695,668.5
123.7075,92.2
123.8169,154.2
123.861,222.4
123.8755,90.2
123.9935,275.5
123.9964,102.7
124.0137,89.2
124.0345,148.4
124.0577,17
124.1266,180.5
124.1614,185.4
124.2,119.3
124.2165,314.5
124.2527,312.3
124.2796,281.7
124.2887,276.2
124.2925,141.1
124.2958,81.4
124.3251,90.2
124.3898,68.4
124.4298,296.3
124.4352,164.1
124.4517,317.4
124.5067,100.7
124.5566,89.9
124.5807,94.9
124.6564,165
124.6651,280.1
124.7155,332.3
124.7665,17.3
124.8395,98.1
124.8653,331.7
124.8867,100.1
124.9163,109.8
124.9227,1080.3
124.9366,108.8
124.978,150.1
124.9822,110.5
124.985,178.5
124.9868,289.1
124.9999,2010.5
125.0057,916.6
125.0245,67.6
125.039,246.1
125.0597,67.9
125.1074,153.2
125.1956,147.8
125.2138,149.4
125.2169,105.7
125.2379,241.8
125.2533,118.8
125.2655,200.2
125.2705,62.9
125.2753,267.8
125.2886,65.8
125.3496,88.1
125.3592,269
125.4228,141.2
125.4623,83.9
125.5708,99.1
125.5772,132.1
125.5846,111.2
125.5892,86
125.6175,127.5
125.6215,190.9
125.6304,353.7
125.6423,107.6
125.6732,106.7
125.6887,132.6
125.746,88.8
125.7528,184.5
125.755,287.5
125.7609,549.5
125.8023,97
125.8427,249.3
125.8746,584.7
125.8987,310.8
125.9169,93.2
125.9445,18.1
125.9687,16.7
125.9849,38.6
125.9961,161.2
125.9985,338.1
126.0002,144.3
126.009,21
126.023,126.1
126.0244,142
126.0342,86.3
126.0347,85.8
126.0728,379.9
126.102,102.9
126.1711,567.3
126.2134,83.7
126.2234,104.3
126.2311,380.3
126.2861,505.6
126.3064,164.9
126.3471,189.5
126.3511,235.6
126.4281,129
126.4546,19.2
126.4572,96.3
126.4656,151.9
126.5366,17
126.5451,383.3
126.5735,116.4
126.6039,330.7
126.613,125.6
126.6292,223.4
126.6751,433.3
126.6838,18
126.7072,116.4
126.7168,20.4
126.7355,397.1
126.7492,240.7
126.8528,201.2
126.8752,167.9
126.8995,17.1
126.9709,636.5
126.9893,110.9
127.0026,426.9
127.0479,336.6
127.0613,394.6
127.0667,97.8
127.1224,77.3
127.1532,512.8
127.1935,93.7
127.1997,130.5
127.2034,192
127.2399,402.4
127.2497,88.2
127.279,330.1
127.3583,550.3
127.3602,175.1
127.3848,216.6
127.3904,396
127.463,360
127.5038,259.2
127.515,291.7
127.5232,67.2
127.5267,782.6
127.5409,252.6
127.5583,666.4
127.6051,347.4
127.6393,319.5
127.6663,110.4
127.6731,202.2
127.6764,299.8
127.682,256
127.6847,182.1
127.7032,128.5
127.7092,19.1
127.7458,199.7
127.7929,319.9
127.9218,213.1
128.0007,21.8
128.0158,22.5
128.0739,230.8
128.1247,335.8
128.1605,18.2
128.1675,79.5
128.1799,107.1
128.19,117.2
128.286,100.3
128.3258,23.5
128.3562,21.4
128.359,297.5
128.3859,140.1
128.3903,81.2
128.4073,115.3
128.4189,102.7
128.4422,279.5
128.4667,285.1
128.4705,65.8
128.5176,19.4
128.5451,428.4
128.5598,683.3
128.5631,122.9
128.5683,365.3
128.6096,504.4
128.6229,24
128.6803,73.4
128.683,126.9
128.6991,74.8
128.7008,338.8
128.7168,423.5
128.7209,355.8
128.7517,150.4
128.8279,17.3
128.8381,148.9
128.964,204.2
129.0034,1378.7
129.0285,107.4
129.038,20
129.0627,233.6
129.0743,181.3
129.0948,16.5
129.1023,1526.7
129.1264,207.9
129.1413,17.9
129.1607,500.2
129.2114,261.3
129.2586,18.1
129.2955,388
129.3684,283.2
129.4095,402.8
129.4292,472.2
129.4478,274
129.4549,110.6
129.463,411
129.4678,242.6
129.5244,1087.4
129.5997,20.4
129.6021,401.2
129.6751,636.9
129.6812,19.9
129.718,541.6
129.7437,175.5
129.7465,216.9
129.7737,149.7
129.7752,118.7
129.8001,358.9
129.8161,271.5
129.9155,136.2
129.9586,134.4
129.9951,98.9
130.0153,147.4
130.0499,2718.3
130.0862,1040.2
130.1159,101
130.2044,219.7
130.2153,195.7
130.2356,252.8
130.2412,114
130.2541,255.9
130.2745,254
130.2795,502.1
130.3227,100
130.4092,191.6
130.4405,475.5
130.4649,16.8
130.4865,20.6
130.5298,134.3
130.6054,187
130.6833,122.5
130.6958,94.9
130.6993,100.3
130.7202,520.3
130.731,220.3
130.7403,94.2
130.7463,157.3
130.749,339.9
130.7547,98.7
130.8627,576.7
130.8715,17.2
130.8829,199.7
130.9012,280.6
130.9042,499.7
130.933,442.6
130.9629,193.7
130.9791,82.4
131.0003,121.6
131.0047,62
131.0289,234
131.033,627.5
131.0903,276
131.1514,213.8
131.1766,174.3
131.1869,235.1
131.2452,142.8
131.268,358.6
131.2854,100
131.3046,411.4
131.3433,154.1
131.3629,72.1
131.4213,303.4
131.4513,19.1
131.4578,316.3
131.4898,253.3
131.5433,76
131.5588,241.9
131.6055,97.1
131.6402,20.2
131.7099,151.3
131.7895,130.5
131.8184,23.7
131.8295,80.9
131.8735,98.6
131.913,17.1
131.9634,385.4
131.9834,272
132.0033,26622.5
132.0601,74.6
132.0656,83371.9
132.0769,2824.2
132.1121,92.9
132.171,86.2
132.1737,68.5
132.21,90.9
132.307,547.8
132.3239,381.3
132.3833,133.4
132.428,251.4
132.4718,16.8
132.5275,201.8
132.5286,214.6
132.5346,116.7
132.5523,114.5
132.5645,535.4
132.566,185.2
132.5708,418.9
132.5896,389.1
132.6211,126.7
132.6444,328.2
132.6592,326.6
132.687,96.9
132.6915,342.3
132.7219,363
132.7723,203.7
132.8316,227
132.9036,470.8
132.9525,96.3
132.9583,1295.9
132.9696,59.4
132.9873,4835.3
133.0074,20.7
133.0124,312.8
133.0558,20.7
133.0689,2307
133.086,31.6
133.0972,14630.8
133.153,379.9
133.1606,355.3
133.1669,130
133.2122,102.7
133.2174,90.5
133.2279,222
133.2386,134.3
133.2404,308.3
133.2428,116.1
133.2523,132.3
133.2607,298.5
133.2908,99.4
133.3555,212.7
133.3612,82.4
133.4092,230.1
133.4215,432.6
133.5339,95.7
133.5452,438.5
133.5882,215.1
133.5975,18.9
133.6003,480.5
133.6844,94.8
133.7153,17.9
133.7396,269
133.7539,17.9
133.893,321.6
133.921,240.7
133.9358,81
133.9762,357.5
133.9805,80.2
133.9945,222.8
133.9993,103.7
134.0189,16157.1
134.0524,438.7
134.1274,93.5
134.1528,316.7
134.1945,240.9
134.2076,345.6
134.22,161.8
134.2389,20.6
134.3205,308
134.3388,20.4
134.384,363.5
134.4226,203.7
134.4453,93.9
134.4767,67.9
134.5177,371.4
134.5333,99.9
134.5422,334.2
134.6506,110.7
134.6618,504.1
134.7063,422.1
134.7291,301.8
134.7655,112.9
134.7669,160.9
134.7974,17.5
134.8158,284.5
134.8642,107.6
134.8699,115
134.9185,234.3
134.9195,88.7
134.9485,89.4
134.9657,549.7
134.969,123.2
134.9751,294.7
134.9893,128.6
134.9966,46.3
135.003,125493.8
135.0234,42.3
135.0937,86.2
135.1137,191.7
135.1169,120.7
135.226,18.8
135.2904,118.1
135.3125,329.1
135.3291,224
135.3348,130.8
135.3376,66.6
135.3571,274.9
135.3773,280.6
135.4053,126.7
135.434,110.6
135.4802,249.5
135.5119,424.8
135.5162,20.6
135.575,358.1
135.5962,387.4
135.6504,668.8
135.6755,474.3
135.7879,205.7
135.8165,212.4
135.8302,202.6
135.9773,2984.2
136.0063,1783.9
136.0483,7612.9
136.0618,21.8
136.0758,8474.7
136.0776,627.4
136.0794,21.6
136.1157,25.8
136.2094,101
136.2121,281.9
136.2385,133.3
136.2496,583.8
136.2668,571
136.2907,306.2
136.4402,16.4
136.5154,583.2
136.5167,258
136.6582,209.2
136.6872,18.1
136.6958,340.5
136.7047,146.6
136.7288,148.5
136.793,506.7
136.8032,138.8
136.8126,391.7
136.8145,84.7
136.9227,580.2
136.9311,1348.4
136.9515,138.8
136.9533,118.5
136.9596,333.4
136.9862,140.4
136.9887,24.8
136.9895,27.3
136.9922,137.6
137.0795,383.5
137.1153,145.9
137.1279,570.9
137.1344,480.4
137.1568,110.6
137.1976,559.2
137.2352,118
137.2529,329.8
137.2603,62.5
137.291,348.3
137.2965,20.1
137.3126,216.8
137.3171,17.4
137.3573,81.9
137.3705,513
137.4394,16.3
137.5229,109.1
137.5863,89.3
137.5911,214.8
137.6511,295.6
137.6942,310.7
137.7109,83.9
137.7317,506.3
137.8251,211.5
137.8427,148.1
137.8534,303
137.8606,158.6
137.9315,20
137.9975,292.2
138.0094,188.8
138.0242,137.4
138.046,162.9
138.0527,5129.2
138.0563,64
138.0664,48
138.09,458.1
138.1143,357.5
138.1403,89.7
138.1801,20.3
138.1927,170.9
138.2102,329.6
138.2934,85.6
138.3816,556.9
138.3857,103.3
138.3955,337.7
138.4009,399.4
138.4266,94.8
138.452,109.2
138.46,132
138.4781,166.1
138.6592,114.6
138.6672,444.9
138.7602,103.5
138.77,92.6
138.8957,120.7
138.9066,6508.1
139.0118,493.3
139.0378,141.5
139.0522,126
139.0794,78.1
139.2162,299
139.2457,127.9
139.2732,88.3
139.3096,98.6
139.3114,100.7
139.3414,340.7
139.3575,81.8
139.473,211.1
139.4816,107.5
139.4877,334.7
139.4944,131.7
139.5063,211.6
139.585,213.9
139.6418,20.7
139.7262,261.6
139.7613,170.2
139.8433,331.1
139.8444,19.1
139.8478,131.3
139.8999,76.9
139.9107,19.1
139.9286,326.4
139.9496,105.2
140.0048,112.4
140.0066,394.3
140.0166,3812.7
140.0417,372.2
140.0431,322.4
140.0662,19.6
140.0683,1263.5
140.0808,531.9
140.0983,249
140.1411,19.7
140.1519,113.7
140.3154,365.5
140.3197,367.6
140.3803,18.9
140.4025,329.3
140.4031,315.3
140.414,206.3
140.4299,111.1
140.4403,16.6
140.4724,131.2
140.5516,92.1
140.5936,72.2
140.6893,18.4
140.6991,446.9
140.7434,105
140.7573,426.5
140.7758,17.8
140.8011,85.2
140.8951,474.7
140.9036,3784.1
140.9282,470
140.9334,346.5
140.9732,563.9
140.9794,17.5
140.9982,22.4
141.0006,17104.8
141.0169,239.5
141.02,155.5
141.0368,70.7
141.0469,315.4
141.0892,18.7
141.1332,382.5
141.1984,329.2
141.2089,139.5
141.2377,395.1
141.2939,263.2
141.3425,73.2
141.3453,24.1
141.3586,400
141.3844,111.4
141.3883,415
141.4416,542.9
141.4917,201.8
141.5207,345.6
141.5271,110
141.539,174.9
141.5626,230.6
141.6643,390.4
141.7006,512
141.7253,104.4
141.7817,18.2
141.8021,366.9
141.8726,110.5
141.8945,18.8
141.9048,112.8
141.9107,148.4
141.9951,202.4
141.9978,22.4
142.004,408.6
142.0124,28.6
142.0154,25.3
142.0179,429.1
142.0482,80.1
142.0738,47.8
142.1006,17.4
142.1166,186.8
142.1333,190.8
142.155,568.7
142.2562,131.5
142.3167,243.8
142.4154,212.9
142.4344,192.4
142.4658,447.6
142.4954,575.8
142.5142,318
142.5306,18.1
142.5429,413.9
142.6489,122.6
142.7757,216.1
142.806,325.9
142.8372,21.1
142.8466,353.2
142.8521,418.3
142.8611,22
142.9017,603.2
142.9069,172.8
142.9244,93.3
142.9484,589.5
142.9586,215.8
142.9668,19.9
142.9964,293.5
142.9971,427.1
143.0191,3411.2
143.0235,532.1
143.0315,920.1
143.0651,242.6
143.0817,293.1
143.0996,142.8
143.1065,691.3
143.1346,16.8
143.1424,65.8
143.2229,314.6
143.2469,312.7
143.2567,132.5
143.2841,269
143.2905,187.3
143.3143,383.9
143.3255,96.9
143.3436,84.4
143.3964,180.3
143.4269,91.1
143.4367,202.7
143.482,109.2
143.529,105.3
143.5549,524.5
143.5788,349.7
143.627,124.1
143.6451,96.8
143.7463,77.1
143.8782,84.3
143.9846,116.9
144.0108,922.1
144.0632,19.7
144.0737,230.6
144.0875,103.4
144.1086,161
144.1108,18.1
144.1158,192.4
144.1297,21.4
144.2116,20.1
144.2357,310.9
144.2607,125.3
144.2994,99.7
144.3304,360.8
144.3779,225.4
144.4357,18
144.4641,18.6
144.4729,552.5
144.4893,634.5
144.4969,382.7
144.5142,362.6
144.5249,290.4
144.5335,79.8
144.559,359.6
144.6014,61.1
144.6095,134
144.6242,92.3
144.6263,219.2
144.661,361.8
144.701,19.7
144.8436,131.1
144.9053,19.9
144.9403,386.5
144.9415,418.6
144.9583,21.1
144.981,6635.4
144.991,173.2
144.9948,24.7
145.1174,572.4
145.1986,359.5
145.2009,94.5
145.222,219
145.2366,312.2
145.3669,171.6
145.4656,316.5
145.4709,22.6
145.4814,335.4
145.5908,223.3
145.6072,117.4
145.6426,620.6
145.6694,73.5
145.7473,373.7
145.7773,20.9
145.8497,19
145.9002,121.6
145.9612,452.6
145.9665,152.4
145.9738,101.4
145.9976,127.2
146.0107,318.3
146.0126,2767.7
146.019,19803.4
146.0264,113.5
146.0455,19.1
146.0483,325.7
146.1104,86.1
146.1221,135.5
146.1388,116.8
146.1587,145.5
146.1743,94.4
146.2334,111
146.2587,235.9
146.2983,352.3
146.3128,99.1
146.3458,95.1
146.3484,377.7
146.3528,527.9
146.4056,93.3
146.5059,77
146.5376,345.6
146.6169,116.8
146.619,21.1
146.6282,446.8
146.6562,97.2
146.671,230.4
146.6723,233.1
146.7,21.1
146.7192,219.8
146.7385,90.9
146.7988,146.4
146.8648,20.2
146.8938,64.2
146.9241,538.6
146.9297,75.9
146.9359,82.3
146.9511,286.6
146.9742,21.2
146.9819,85809.3
146.9853,100.1
146.9905,208.7
147.037,221.8
147.0766,27627.2
147.1106,260.9
147.113,23497.4
147.117,260
147.1502,322.9
147.2016,629.6
147.2133,121.8
147.2768,178.5
147.3403,201.2
147.3596,19.1
147.39,115.3
147.3943,235.7
147.4091,128.6
147.4317,206.4
147.5618,482.1
147.6611,181
147.6783,209.5
147.6882,544.6
147.7257,225
147.7308,121.1
147.8277,17.8
147.9109,217.4
147.9194,215.4
147.9212,22.4
147.9331,208.4
147.9692,25.3
147.9773,352.4
147.9941,681.8
147.9963,85.6
148.0361,310.7
148.1021,305.2
148.1122,28.2
148.1137,113.4
148.1385,294.7
148.2567,335.6
148.2979,91.8
148.3062,458.6
148.3195,115.7
148.3252,288.5
148.3461,95.1
148.3936,340
148.4198,67.6
148.4215,18.9
148.5323,1169.8
148.5366,22.4
148.5773,18.9
148.6272,355.5
148.6686,96.4
148.7443,381.8
148.7882,109.9
148.7912,945.7
148.8065,144.1
148.8142,102
148.8268,303.7
148.8602,109.6
148.8739,19.9
148.8795,281.5
148.8992,1128.4
148.9291,100.8
148.9466,604.5
148.9613,3553.2
148.9871,240.8
148.9889,172.6
149.0028,19.2
149.0187,4146.9
149.0235,6024
149.0284,133.3
149.0448,28.8
149.0642,296
149.1252,104.9
149.1325,20.1
149.1987,96.7
149.2538,199.2
149.2967,354
149.311,136.5
149.3287,17.1
149.4318,302.7
149.4441,306.9
149.4991,24.4
149.5729,530.3
149.6638,204.1
149.6904,87.3
149.8442,119.9
149.8555,211.2
149.8913,539.4
149.8999,22.6
149.9874,54.4
149.9929,7840
150.0031,241.4
150.0139,3393.2
150.0269,50.3
150.0349,369.3
150.14,387.7
150.1682,254.7
150.2941,400.8
150.3083,18.8
150.365,166.5
150.3674,356.9
150.4228,242.2
150.5062,225.7
150.6655,347.4
150.6968,209.1
150.7152,81.9
150.7222,487.1
150.7938,19.1
150.8032,162.6
150.8703,19.1
150.9691,111
150.9769,68474.1
150.9843,5421.3
151.0068,24.3
151.0163,20.9
151.0479,1816.7
151.0651,17.7
151.0844,20
151.1545,243.1
151.1729,140.4
151.1823,112.8
151.2006,76.6
151.2076,76.2
151.2202,76.6
151.2521,259.3
151.2544,334.1
151.2589,445.5
151.3437,415.7
151.4011,222.1
151.4066,591.6
151.4335,234.7
151.5074,114.8
151.5546,371
151.6379,22.7
151.7099,104.1
151.8056,368.2
151.8831,105
151.8966,18.8
151.9047,126.5
151.9315,169.7
151.9511,339.2
151.9578,423.7
151.9788,237.4
151.9804,872.2
151.9846,28.7
151.9876,184.1
152.0223,7918.7
152.0319,1168.3
152.1352,20
152.193,20.4
152.2079,221.5
152.2175,222.6
152.3001,311.8
152.3059,100.3
152.332,68.8
152.3597,63
152.3768,405.5
152.5288,75.5
152.548,22.6
152.652,177.4
152.6917,262.9
152.708,463.3
152.7357,19.5
152.775,362.4
152.7806,114.6
152.8024,109.4
152.975,3027.5
152.9772,328.5
153.0224,16.1
153.0337,110.6
153.0467,81.2
153.0574,350.6
153.0824,386.6
153.0901,543.7
153.1937,215
153.2063,317.9
153.25,20.1
153.458,231.1
153.5025,231.4
153.5235,20.4
153.5915,96
153.6678,83.9
153.6771,194.8
153.7039,19.4
153.7073,215.8
153.7383,18.1
153.859,77.7
153.9328,297.1
153.9383,20.1
153.9553,18.1
154.0111,85.1
154.0267,389.3
154.0375,122.5
154.048,270.6
154.0589,3300.7
154.1384,96.6
154.2102,93.4
154.2175,100.7
154.3058,224.8
154.3193,21.9
154.326,95.6
154.3425,186.7
154.3477,189.7
154.3748,191
154.4363,772.3
154.4694,284.7
154.498,19.1
154.5104,76.3
154.521,67
154.5365,574.6
154.555,303
154.5997,533.9
154.6155,556.3
154.6562,69.2
154.6838,592
154.701,239.8
154.7087,303.3
154.7427,275.4
154.7552,299.1
154.7684,240.7
154.7967,128
154.8015,242
154.8705,171.7
154.8806,743.4
154.8875,210.3
154.9076,116.2
154.942,1029.5
154.9692,1823.1
154.9798,331.3
155.043,1618.8
155.0494,1163.3
155.0541,4359.6
155.0697,313.4
155.0793,2155.7
155.0968,409
155.1325,17.7
155.2056,805.7
155.2558,18.5
155.286,101.9
155.3739,662
155.3835,322.4
155.3903,1237.5
155.3947,290.7
155.4547,269.7
155.5561,91.8
155.5613,24.4
155.6661,98.1
155.7651,237.8
155.7689,136.9
155.7707,147.8
155.7927,630.2
155.8179,171.8
155.8473,19.6
155.8835,176
155.8923,96.4
155.9481,126
155.9602,17.8
155.9959,275.3
156.0268,116.3
156.0423,2557.4
156.0531,154.4
156.0575,105.7
156.0769,36209.4
156.0795,445.8
156.0842,18.7
156.2272,529.8
156.2846,18.1
156.3153,140.4
156.3173,575.1
156.3943,234.1
156.4715,310.9
156.5009,152.3
156.538,119
156.6106,235.7
156.6154,66.4
156.6229,113
156.689,19.8
156.7729,21.9
156.8158,389.3
156.8729,185.8
156.8751,362.6
156.9341,1038.2
156.9601,88.7
157.006,195.1
157.0171,307.6
157.0314,21.3
157.0824,64.2
157.0922,204.1
157.0974,159.5
157.18,117.9
157.1833,309
157.2103,257.6
157.2187,247.5
157.2428,21.6
157.2629,215.7
157.265,210.5
157.2799,300.9
157.4041,20.2
157.4583,347.2
157.488,426.9
157.5091,407.3
157.515,236.1
157.6471,117.3
157.7256,217.7
157.7614,166.2
157.7769,105.6
157.7894,203.3
157.7978,75
157.8852,90.3
157.9011,311
157.969,805
157.9938,244
158.0273,3957.2
158.0521,16.5
158.0542,100.4
158.1363,222.6
158.1579,627.3
158.201,390.1
158.2088,123.1
158.2947,145.7
158.304,532.3
158.3126,87.2
158.3674,142.7
158.3707,172.2
158.3984,287.3
158.4588,431.3
158.578,156.6
158.6191,93.6
158.6574,461.4
158.6753,20.3
158.7216,177.9
158.7427,242.3
158.7837,577.5
158.7974,395.2
158.8224,115.4
158.9197,77.9
158.928,2101.6
158.9362,106.6
158.9643,16647.3
158.9741,475.8
158.9967,17630.2
159.0109,25.8
159.0306,83.1
159.0407,216.2
159.0441,19.3
159.0573,109.3
159.0671,18.6
159.0914,17.2
159.1379,21.5
159.1539,151
159.1745,232.2
159.1807,243.2
159.1909,123.2
159.2698,110.3
159.3082,325.2
159.377,17.8
159.3972,298.9
159.4729,97.9
159.5095,625.9
159.5314,119
159.5597,120.1
159.5985,97.9
159.6034,428.1
159.7295,452.9
159.7765,596.9
159.78,65.7
159.7982,343.1
159.804,92.9
159.8267,203.4
159.8952,96
159.9104,17
159.9224,154.2
159.9665,430.3
160.0231,51
160.0347,24431.4
160.049,226.3
160.0606,93464.1
160.1068,105.2
160.132,321.4
160.1489,378.5
160.154,215.1
160.1669,565.5
160.2091,334.7
160.2343,310.7
160.2461,210.2
160.2485,306.2
160.2724,87.3
160.3658,19.3
160.4277,144
160.4447,92.6
160.4526,64
160.4689,567.3
160.4955,139.1
160.5525,207.4
160.6394,80.1
160.7193,20.3
160.872,116.6
160.9642,112.5
160.9668,185
160.9925,134.1
161.0177,154.3
161.0242,315.6
161.0474,409.8
161.064,4431.1
161.1306,538
161.1453,127.4
161.2189,93.5
161.3046,104
161.3293,19.6
161.3879,504.4
161.402,105.6
161.4281,327.2
161.4348,92.1
161.4886,200.9
161.5247,137.2
161.5774,334.1
161.681,127.5
161.6939,387
161.6986,20.8
161.7221,18.2
161.752,119.1
161.8129,105.9
161.8343,199.7
161.8476,220.6
161.8982,112.8
161.9059,17.8
161.97,355.7
161.9922,146
162.0207,18.7
162.0398,18.6
162.0504,26118.2
162.0595,290.7
162.1126,368.6
162.1408,221.8
162.1434,302.6
162.158,290.1
162.2158,336
162.2274,458.3
162.2664,16.7
162.3029,19.3
162.3946,198.1
162.4004,104.8
162.4398,100.9
162.4629,69
162.6621,20.7
162.7002,158.3
162.7123,97.6
162.7645,72.4
162.8686,257
162.8777,109.2
162.9209,20.6
162.9559,793
162.9805,19.4
163.0157,3577.8
163.0226,18.7
163.0308,21.6
163.0344,403.2
163.0569,286.3
163.0707,340.1
163.0825,75.2
163.093,89.6
163.1898,373.8
163.2198,98.3
163.2343,277.5
163.4121,60.7
163.4267,268.7
163.4844,234.8
163.5692,223.6
163.5795,115.7
163.647,124
163.6496,581.3
163.6845,84.3
163.7027,357.7
163.7229,108.4
163.7764,106.6
163.8647,154.3
163.8789,242.1
163.8841,16.8
163.8856,427.1
163.9879,20.3
163.9996,42
164.0082,107.2
164.0206,102.6
164.0296,13480.6
164.0447,145.4
164.0779,531.3
164.0856,102.7
164.1137,97.6
164.1716,562.5
164.175,303.4
164.1873,140.7
164.2008,156
164.2108,341
164.2205,139.8
164.3158,213.4
164.3656,119.9
164.5348,332.3
164.5573,112.1
164.6134,92.7
164.6513,74.2
164.7339,19.1
164.7984,226
164.8066,104.4
164.8156,809.9
164.8437,112.9
164.8494,486.3
164.863,131.3
164.9157,290.4
164.9207,2723.5
164.9302,19032.1
164.9353,2088.6
164.9449,287.4
164.9538,466.6
164.9786,214.1
164.9847,24.7
164.9927,1741.7
165,354.9
165.0438,311.9
165.0534,392.9
165.0581,135.7
165.0983,833.7
165.1218,183
165.1237,567.8
165.1472,90
165.235,116.5
165.2862,74
165.2879,106.8
165.3055,369.9
165.3169,549.2
165.3294,651.8
165.3676,17.4
165.3982,192.1
165.4327,125.4
165.48,18.6
165.5156,93.6
165.5416,109.6
165.6573,121.8
165.7159,221.4
165.7549,210.4
165.8477,19.2
165.9372,649.8
165.9669,2395
165.9789,1601.7
165.988,2734.8
165.9952,1992.3
166.0302,422.4
166.0422,179.9
166.0612,123.7
166.0844,21
166.1555,181.9
166.1673,143.3
166.2156,299.3
166.2264,97.2
166.2332,162.3
166.2821,112.8
166.2904,596.2
166.335,222.7
166.3874,19.8
166.4544,378.6
166.5078,348.7
166.5227,468.9
166.5265,108.6
166.7205,97.1
166.8579,150.6
166.8654,568.9
166.9015,198.3
166.9509,20729.4
166.9631,1670.6
166.9773,20
167.001,18.8
167.0192,107.2
167.0221,1959.7
167.0316,102.8
167.0792,194.5
167.1586,129
167.1746,291.1
167.215,201.7
167.2255,238.4
167.2654,155.1
167.3035,89.7
167.3061,592.1
167.3444,100.1
167.3771,106.9
167.4099,572.2
167.4722,326.5
167.5244,311.9
167.5268,224.8
167.5358,388.6
167.6066,420.6
167.6207,153.2
167.6354,185.7
167.6874,242.6
167.6931,157.2
167.8166,470.6
167.8433,232.5
167.8532,117.5
167.9545,343.6
167.9637,18.3
167.9755,189.8
167.9947,1492.6
168.0227,131.8
168.0781,144
168.093,426.6
168.1699,241.4
168.1816,114.5
168.2082,200.4
168.2243,105.7
168.2918,357.4
168.3423,140.1
168.356,322.2
168.3845,116.3
168.3982,19.7
168.4515,356.6
168.5417,258.3
168.5564,151.9
168.6588,102.2
168.7376,86.1
168.7941,62.7
168.8654,341.3
168.8812,279.4
168.8987,405
168.9253,88.3
168.9378,133.8
168.9492,1276.4
169.0408,348.5
169.0586,36741.7
169.0651,1252.6
169.0673,569.3
169.079,369.5
169.0951,2598.9
169.0971,479.9
169.138,216.8
169.173,27.1
169.2573,98.6
169.3174,212.4
169.3868,371
169.4554,310.7
169.49,178.2
169.5654,239.3
169.5709,526.3
169.5797,232.5
169.6121,18.3
169.7061,328.1
169.7441,71.9
169.8133,19.5
169.8251,296.9
169.828,458
169.8451,193
169.9228,233
169.986,7516.2
169.9951,315.2
170.0044,18.9
170.0125,363.5
170.0328,4645.5
170.0438,18.2
170.0522,221.7
170.0927,4872.5
170.1128,120.9
170.1381,214
170.2012,84.9
170.2427,106.7
170.4788,346.4
170.4926,183.1
170.6341,229.8
170.6561,145.4
170.7005,276.7
170.7284,350.6
170.7398,406.9
170.7693,20.9
170.8546,3326.1
170.9143,100.1
170.9187,101.8
170.9648,17.6
171.017,708.6
171.0202,395.3
171.0282,176.4
171.0366,72.3
171.1486,217.3
171.1954,118
171.3188,19
171.327,19.5
171.3445,139.2
171.4746,109
171.4898,270.9
171.4939,73.1
171.5459,84.6
171.5656,569.9
171.5969,199.5
171.6298,186
171.711,230.1
171.7574,291.6
171.8612,176.4
171.8686,512.4
171.9156,267.2
171.9926,112.3
172.0283,684.8
172.0391,534.5
172.0801,443.7
172.1531,497.1
172.2375,267.2
172.2406,300.9
172.3104,18.1
172.3489,103.7
172.3617,27.3
172.3879,118.9
172.3899,95.9
172.4728,19.8
172.4817,84.1
172.5122,215.4
172.542,101.7
172.5991,452.6
172.6302,20.3
172.7356,318.6
172.8516,2259.2
172.8718,233.9
172.8857,442.2
172.9287,17.6
172.9527,23.6
172.9675,1030
172.9755,144.3
172.98,1010.4
173.027,340.2
173.0299,394.5
173.0941,436.8
173.1674,255.1
173.1947,579.2
173.2522,222.5
173.286,229.5
173.3185,300.6
173.3468,219.9
173.3684,100.6
173.3791,19.9
173.4035,333.3
173.4232,128.9
173.4308,363.5
173.5666,97.3
173.6334,17.5
173.6865,211.3
173.6988,22.6
173.7141,277.7
173.7839,17.6
173.8705,158.6
173.9136,118.4
173.9939,193.1
174.0142,280.4
174.0276,18.8
174.1032,138.1
174.1091,101.5
174.1178,76
174.2579,72.5
174.2747,122.4
174.3799,18.8
174.3818,243.1
174.3865,104.7
174.3949,393.6
174.4282,184
174.4837,98.6
174.5379,19
174.5603,644.2
174.5937,85.3
174.6732,113.6
174.7553,119.5
174.7866,18.5
174.7897,308.5
174.8681,315.2
174.876,101.1
174.9009,254.8
174.913,99.3
174.9208,581.7
174.932,206.5
174.9383,6566.1
174.9691,1985.4
175.0031,526.7
175.0344,9597.4
175.0457,3054.2
175.058,1030.9
175.0736,89.1
175.1151,98
175.1192,48517.3
175.1289,633.5
175.2449,392
175.2951,398.8
175.303,263.1
175.3938,265.9
175.4342,121.2
175.4938,197
175.5188,23
175.5634,80.7
175.5892,429.7
175.5923,232.5
175.5991,334.6
175.6638,290.2
175.6858,268
175.7214,92
175.7379,20.3
175.7531,20.9
175.8296,164.3
175.89,208.6
175.9528,236
175.9985,570
176.0008,66.5
176.0087,10421.7
176.018,347.5
176.0409,1195
176.0661,36383.4
176.0889,102.7
176.1032,983.1
176.1506,159.6
176.1742,319
176.1812,465.1
176.2159,19.5
176.2297,326.4
176.2407,114
176.2429,333
176.419,199.1
176.4402,205.3
176.4598,71.5
176.4997,226.9
176.5956,261
176.7777,207.3
176.8784,19.8
176.8833,92.5
176.8938,114
176.9336,29.9
176.9926,1009
177.012,381
177.0249,3785.3
177.0613,9357
177.0693,1200.1
177.0823,138
177.0871,134.9
177.1182,223.1
177.1708,216.4
177.1956,442.4
177.2278,168.2
177.2318,17.8
177.2502,332.4
177.2921,297.9
177.4349,300.5
177.496,68.6
177.5035,19.9
177.5097,321.9
177.5578,18
177.616,231.4
177.6475,73.6
177.8158,131.8
177.8195,19.1
177.8217,100.1
177.8535,539.4
177.8716,156
177.9327,217.3
177.9347,547.3
177.9714,154.5
178.009,9280.5
178.0213,395.3
178.0243,12961
178.0589,3791.4
178.0726,246.7
178.2536,360.2
178.4223,221
178.4533,88
178.4807,77.7
178.5316,576.5
178.5337,71.1
178.5594,77.2
178.7057,505.4
178.7121,384.1
178.7211,332.4
178.7261,66.2
178.7324,17.1
178.7712,74.4
178.7888,17.9
178.8055,205.6
178.8476,21.6
178.8727,63.4
178.8932,38.6
178.9116,299.1
178.9208,493.2
178.9641,77.6
179.003,122.8
179.2428,22.5
179.335,544.6
179.3603,103.5
179.3997,275.5
179.5346,295.5
179.545,123.4
179.5891,128.4
179.6012,121.7
179.7137,147.9
179.7294,249.5
179.7367,374.7
179.7756,213.8
179.8713,561.8
179.8831,138.8
179.894,566.5
179.9492,121.9
179.9735,156.8
180.0036,9292.1
180.011,233.5
180.0366,250.2
180.1029,543.6
180.1992,214.6
180.2129,596.8
180.244,103.8
180.3229,203.5
180.3602,485.9
180.409,412.3
180.4818,180.2
180.661,16.4
180.6987,17.6
180.7063,379.9
180.7121,338.3
180.8509,187.9
180.8884,554
180.8947,2685
180.9043,8950.3
180.9574,1071.9
180.9669,415.4
180.9789,761.4
180.9855,110.2
181.0263,84.1
181.0651,6259.2
181.1279,107.2
181.1513,79.4
181.1651,586.7
181.228,96.3
181.2442,300.3
181.3017,76.8
181.3065,300
181.3798,101.7
181.4323,130
181.5154,229.2
181.5814,102.8
181.5862,348
181.6742,544.6
181.6763,140.9
181.6919,280.1
181.7383,275.1
181.765,441
181.7802,456.6
181.8046,141
181.9522,220
182.0427,27481.5
182.0798,222.4
182.1233,309.1
182.1643,133.5
182.17,271.6
182.1843,165.2
182.2368,459.8
182.2541,18.1
182.3207,210.1
182.4257,105.1
182.4695,196.6
182.4919,293.4
182.5137,19.3
182.5198,131.9
182.5273,18.9
182.5611,21.8
182.5788,529.8
182.6649,566.6
182.7061,185.5
182.7378,486.2
182.7709,19.2
182.8381,19.2
182.9025,53.8
182.9087,377.7
182.9922,315.7
183.0447,862.1
183.083,18.1
183.3828,16.9
183.3847,182.5
183.397,417.3
183.4085,68.3
183.4978,108.1
183.6786,131.4
183.7453,287.6
183.8485,448.1
183.8763,109.8
183.9025,16.6
183.9355,112.5
183.9482,66.2
183.9648,299.7
183.9837,18.2
184.0007,507.5
184.0374,1395
184.0453,365.1
184.0737,3755216.3
184.081,301.5
184.095,646.4
184.1099,1648.4
184.1256,349.3
184.1341,285.2
184.1698,20.3
184.1825,898.5
184.2903,138.1
184.3232,20.2
184.3603,230.9
184.5038,117.5
184.6757,153.3
184.7181,463.1
184.7256,21.7
184.7376,95.6
184.785,18.4
184.9305,123.9
184.9503,21.3
184.9805,120.6
184.9993,448.5
185.0253,81.1
185.0326,29201.5
185.0461,129.4
185.0706,8198.4
185.077,177664.3
185.0795,3149.3
185.0861,112
185.093,264
185.1868,104.6
185.2125,152
185.2258,157.7
185.2373,555.6
185.2429,404.9
185.378,427.7
185.3802,252
185.4091,221.6
185.4431,90.6
185.5544,73.9
185.5834,145.9
185.644,463
185.6718,203
185.7192,118.5
185.8072,423.3
185.8807,334.8
185.8957,579.1
185.9546,276.8
185.9601,4793.9
185.9792,318.2
186.0511,18.7
186.0779,23998.7
186.1403,640.2
186.2007,315.4
186.2672,18.6
186.4094,121.6
186.6311,591.2
186.7622,18
186.8443,18
186.8653,393.6
186.8798,101
186.9123,3909.4
186.9361,25.1
186.9686,310
186.9933,431.8
187.0307,402.3
187.0536,22.2
187.0581,2957.9
187.0635,81.4
187.0716,904
187.1081,2226.9
187.2118,224.9
187.2637,409.5
187.3657,63.1
187.3769,145.2
187.4261,384.5
187.4689,176.9
187.5196,560.7
187.6075,88.1
187.666,459.6
187.6696,369.5
187.7627,141.2
187.7726,177.7
187.8597,549.1
187.8873,95.2
188.0693,590.9
188.079,116.7
188.1117,75.8
188.1661,144.9
188.2096,122.4
188.2237,222.2
188.2284,531.1
188.2449,154.6
188.3059,93.1
188.3136,224.3
188.3367,94.1
188.4135,186
188.5867,308.9
188.6635,21.3
188.7174,91.8
188.7207,504.8
188.7927,225.4
188.8003,472
188.8285,385.7
188.8813,20.9
188.8899,337.1
188.8983,160.2
188.9305,150.7
188.9451,888.8
188.9493,20.9
188.9943,17.7
188.999,77.1
189.0072,537.2
189.0211,19.7
189.0339,124.9
189.0614,2540.4
189.0873,4966.8
189.1552,96.4
189.1739,104.3
189.2014,139.4
189.2805,563.1
189.2859,134.5
189.3374,160.7
189.3744,421.6
189.433,114.6
189.4582,154.7
189.5674,206.4
189.5728,211.5
189.6124,204.4
189.6528,107
189.7112,326.3
189.7728,585.2
189.7795,118.2
189.7909,18.7
189.902,578.2
189.9119,195.8
189.949,18
189.966,1002.2
190.0232,17.7
190.0558,218.4
190.1082,179.6
190.1584,19.2
190.2133,92.4
190.2621,164.1
190.2904,18.9
190.2934,117.7
190.3079,90.6
190.4574,218.6
190.4935,204.1
190.5783,104.3
190.6062,94.1
190.6165,519.9
190.6642,120.3
190.7867,212.4
190.796,408.7
190.8157,67
190.8729,330.9
190.9123,1136.3
190.9167,111.4
190.9449,112.1
191.0004,76
191.0084,4440.1
191.0407,97275.6
191.074,374.4
191.077,26882.3
191.1305,214.2
191.2726,248.3
191.3728,715.3
191.4056,512.3
191.4588,116.7
191.4778,214.1
191.4849,338.6
191.5441,93.9
191.6184,136.4
191.6222,86.6
191.667,83.4
191.7277,343.6
191.8032,97.2
191.8244,307.5
191.8404,105.3
191.9826,1366.7
191.9965,320.3
192.0111,26.6
192.0146,403.8
192.0292,82.8
192.0401,15494.2
192.0439,3091.8
192.0829,295.8
192.0992,294.9
192.1977,126.2
192.2081,239.3
192.2395,219
192.3088,215.6
192.3929,19.9
192.5433,186.6
192.5687,570.2
192.6337,346
192.7659,327.3
192.7831,190.9
192.7938,18.3
192.863,221.7
192.8888,563.7
192.9112,62
192.9152,83.1
192.9618,541.8
192.9963,147.1
192.9988,2224.4
193.0163,133.9
193.0353,3900.5
193.0418,355.9
193.0602,238.8
193.0753,175.8
193.3207,307.2
193.3314,116.3
193.3353,487.3
193.3586,205.6
193.4098,139.1
193.4304,571.5
193.4923,215.8
193.5034,114.7
193.6654,222.6
193.7521,149.1
193.7756,183.7
193.8218,621.7
193.8351,101.4
193.8629,130.4
193.9224,295.7
193.9572,17.9
193.9881,264.8
193.9983,2319.8
194.0049,510
194.0106,774.7
194.0228,509.9
194.033,1428.4
194.0383,383.5
194.0412,224.5
194.0769,218.7
194.1132,110.3
194.1543,45.5
194.3156,446.4
194.3511,20.1
194.395,449.7
194.4107,364.9
194.4141,131.9
194.5577,93
194.6651,113.8
194.7065,134.3
194.7413,124.3
194.8225,193.9
194.8902,105.9
194.9038,309.1
194.9402,152.5
194.9467,210.9
194.9579,371.7
194.9631,401.3
194.9688,170.8
194.9829,21.6
195.0805,353.6
195.1253,136.9
195.2055,116
195.2333,19.7
195.2402,330.4
195.2955,416.1
195.348,254.9
195.3705,326.1
195.4505,314.6
195.5375,243.8
195.6913,594.2
195.7391,84.5
195.767,126
195.8194,138.6
195.9434,328.5
195.9775,751.5
195.9822,40.6
195.9916,380.5
196.0249,380.5
196.0795,370.4
196.1659,239.8
196.1701,324.8
196.2053,17.8
196.2243,296.6
196.2385,359.9
196.2449,20.5
196.2911,299.4
196.4038,311.6
196.4169,203.1
196.4441,97.2
196.5258,113.4
196.5602,136.4
196.6321,107.7
196.6395,590.3
196.6435,18
196.6913,397.2
196.7263,215.8
196.7572,702.6
196.7688,344.8
196.8224,377.8
196.8556,102.6
196.8655,8870.5
196.8687,759
196.8784,1672.9
196.9328,191.3
196.9888,150.4
197.0007,147.6
197.0243,112.9
197.0615,69.5
197.1016,443.7
197.1737,25.9
197.2262,108.7
197.2437,17.9
197.2543,238.7
197.3728,20.4
197.3853,92
197.4573,202.1
197.4669,422.8
197.4751,193.6
197.5008,254.8
197.5747,216.9
197.6976,117.3
197.784,414.4
197.8436,325.9
197.8649,233.8
197.9436,285.3
197.9755,396.3
198.0438,291.6
198.0465,259.7
198.0512,92.2
198.0853,6798.4
198.0894,856.5
198.1791,144.7
198.1856,5749.8
198.2075,131.7
198.2951,167.3
198.3689,89.8
198.3904,144
198.4702,71
198.4759,616.9
198.6011,20.2
198.6472,360.3
198.6594,140.7
198.7111,486.3
198.8546,23.3
198.8625,10092.9
198.9001,22.4
198.9156,95.5
198.9494,22.2
198.9743,25.6
198.9787,256.6
199.0168,30.6
199.0404,127
199.0663,216.6
199.0694,173
199.0758,2291.8
199.0805,109.3
199.1232,225.3
199.1408,287
199.1673,225.1
199.1891,393.3
199.3314,350.3
199.4303,329.2
199.4533,333.6
199.4915,108.4
199.5533,553.1
199.6434,22.3
199.7227,118.5
199.7583,612.8
199.7782,70.3
199.7948,255.4
199.8197,103.1
199.8555,393.3
199.8955,23.7
199.9134,408.3
199.991,27968.1
200.0019,373.8
200.0184,348.5
200.0295,74.1
200.041,16956
200.0447,429.2
200.0508,8592.2
200.0626,465.6
200.0896,19.6
200.1233,246.2
200.2428,207.1
200.3273,362
200.336,89.7
200.393,106.1
200.4224,82.7
200.5634,252
200.6092,460.2
200.6649,217
200.7113,98.8
200.8059,257.9
200.8143,329
200.8595,2064.7
200.868,19.6
200.8946,782.9
200.9345,213.4
200.937,191.7
200.9761,224.9
201.0549,537.5
201.0874,422.7
201.1241,75.1
201.2435,357.6
201.2879,78.5
201.3088,100.2
201.3475,136.6
201.5339,239.9
201.5449,101.2
201.5671,105.9
201.6039,404.4
201.6529,304.9
201.7738,219.2
201.7927,144.9
201.8353,369
201.865,145.3
201.8809,108.1
201.8913,20.5
201.8944,32.7
201.9342,615.9
201.9958,55.2
202.0166,74.9
202.052,355.8
202.0966,18.6
202.1114,607.8
202.2083,470.8
202.2133,18.8
202.4252,79.6
202.4369,11277.6
202.4647,124.4
202.4824,208.6
202.5055,370.9
202.5297,351.7
202.5492,143.3
202.585,198.6
202.7078,126.3
202.79,141.7
202.8129,20.1
202.8453,81.1
202.874,25.7
202.8863,105
202.8956,26.8
202.9294,140.7
202.9955,19.7
203.0021,238.8
203.0243,345.3
203.0325,940.9
203.0465,730.2
203.053,2230599.3
203.0771,7488
203.1032,241.5
203.1898,113.1
203.1934,336.6
203.224,235
203.3191,64.8
203.3244,583.3
203.3441,519.8
203.3638,601.2
203.368,332.5
203.5117,18.9
203.6236,85.6
203.684,218.9
203.7652,119.1
203.7872,16.7
203.796,426
203.8648,116
203.8719,558.5
203.9278,81.7
203.9464,21.5
204.0039,114.3
204.0248,37036.7
204.0319,31
204.0563,119332.3
204.0635,1110.6
204.1486,233
204.3811,374.7
204.4809,593.4
204.5319,288
204.8135,167.1
204.8681,127.3
204.8892,1299
204.9229,77
204.9284,19.1
205.0023,800.3
205.0281,318.9
205.0342,112.7
205.0572,21365.3
205.0686,1181.3
205.0739,494.6
205.084,63.8
205.2147,326.2
205.2308,580.6
205.3913,85.9
205.3975,77.5
205.4035,115.2
205.4823,18.3
205.6455,462.7
205.703,214.6
205.708,331.9
205.8496,496.6
205.8523,174.1
205.861,224.6
205.9436,20.1
205.9916,135.5
206.0081,21.8
206.048,94
206.2443,109.7
206.3633,197.4
206.4777,212.3
206.7535,317.4
206.8508,277.1
206.8882,143.8
206.8943,25758.1
206.9172,229.9
206.9825,1854.4
206.9981,111.4
207.0146,54291.4
207.0446,1272.3
207.0511,11793.4
207.151,116.2
207.1716,287.5
207.1852,76
207.1866,70.6
207.2086,186.8
207.3999,547.1
207.5958,242.3
207.7813,350.7
207.877,17.7
207.8929,386.7
207.9535,479.1
207.9911,896.4
208.014,2825.4
208.0181,1078.9
208.0436,20.4
208.0839,114.3
208.0996,93.3
208.1614,79.1
208.2111,20.7
208.2202,103.2
208.2602,361.6
208.4311,298
208.4566,83
208.4696,94.5
208.5128,174.8
208.7245,231.7
208.7638,89
208.7835,18.3
208.8548,212.9
208.8835,1453.1
208.8913,13999.4
208.9358,1289
208.9513,95.6
208.9825,22.2
209.0126,1341.7
209.1646,142.5
209.1789,98.7
209.21,440.3
209.2962,67
209.3007,115.8
209.3294,65.7
209.3477,229.3
209.4592,17.5
209.4796,295.8
209.4829,426
209.5171,217.3
209.5223,118.3
209.5513,310.8
209.6168,232.7
209.9975,21.8
210.6628,77.4
210.803,243
210.8039,224.2
210.8884,493.5
210.9034,128.6
210.9485,99
211.045,95.1
211.0539,1681.5
211.0694,633.8
211.0834,20.8
211.1217,2218.1
211.1327,20052.8
211.1377,30176.3
211.1454,12260.6
211.1493,8045.1
211.1534,2861.8
211.1567,896.4
211.2042,230
211.4609,169.6
211.4881,86.8
211.8064,132.5
211.834,225.4
211.8789,89.8
211.9594,62.3
211.9634,305.6
211.9668,70.5
211.9915,90.4
212.0147,79.6
212.0247,124.2
212.0707,345.2
212.0745,150.7
212.0843,100.1
212.108,530.5
212.1114,350.9
212.1619,116.5
212.4122,69.8
212.4772,95.4
212.6164,323.9
212.6754,519.9
212.7285,106.3
212.8396,3446.1
212.9161,19.6
212.9653,26.7
213.0324,62.9
213.0549,549.4
213.0878,67
213.1659,74.4
213.2304,161.4
213.246,437.9
213.2519,139.9
213.3859,325.3
213.4226,204.4
213.5531,106.3
213.5826,583.9
213.6337,155
213.7017,63.2
213.7207,563.2
213.7976,511.5
213.9056,276.8
213.9455,155.2
213.9624,2383.2
213.9849,357.1
213.9964,187.8
214.0067,2151.9
214.0368,120.2
214.0592,6781.2
214.0901,1065.4
214.1662,514
214.2076,211.2
214.3011,344.8
214.4189,219.3
214.4388,160.3
214.4428,455.2
214.4604,217.2
214.4977,665.8
214.5563,151.7
214.6701,142.2
214.8202,129.6
214.8365,2450.7
214.874,65.7
214.9113,391.5
214.9181,1034.9
214.9656,51.1
214.9706,299.2
215.0106,450.6
215.0203,268.3
215.0349,123
215.0827,634.6
215.0935,53.4
215.1006,227.5
215.1231,17
215.1403,257.8
215.1889,319.6
215.2359,286.9
215.2561,21.5
215.3229,145.1
215.3505,578.4
215.4002,119.6
215.4503,173.7
215.4784,310.6
215.5736,18.4
215.577,468.8
215.6319,342.4
215.6856,300.2
215.7317,106.1
215.7825,324.9
215.801,231.4
215.8371,284.9
215.846,109.6
215.8821,401.4
215.9274,208.1
215.9539,85.1
216.015,7067.3
216.0179,1142.9
216.0715,442
216.091,225.7
216.1288,64.1
216.1354,361.5
216.2104,310.2
216.2526,17.2
216.2632,284.6
216.2871,411.1
216.4071,318
216.4183,117.2
216.4293,314.7
216.4418,308.6
216.5956,148
216.6557,114.7
216.6764,341.7
216.6916,423.7
216.7412,216.3
216.8071,304.6
216.8333,363.6
216.8598,215.9
216.8843,434.2
216.8902,364.6
216.9231,68082.6
216.9292,110.6
216.9491,248.2
217.019,221.6
217.0274,426.8
217.0477,158.6
217.0568,257.5
217.0654,81
217.1027,534
217.3224,357.1
217.4843,325.8
217.536,17.2
217.5712,18.4
217.6137,18.2
217.6436,121.1
217.6822,89.4
217.713,340.8
217.7986,91.8
217.9345,116.6
217.9882,78.1
218.0151,22.6
218.1376,241.7
218.1519,61
218.251,123
218.2556,321.3
218.3418,106
218.3801,257.5
218.4519,263.3
218.6788,281.5
218.7907,134.3
218.8679,109.2
218.9049,298.9
218.9202,18915.1
218.9649,453.1
218.9865,93.8
218.9906,130.3
219.0182,2981.1
219.027,1836718.5
219.0493,356.2
219.0833,7696.3
219.088,391.6
219.1215,213.4
219.1681,380.9
219.1966,157.9
219.1999,316.3
219.2367,17.6
219.2374,17.6
219.2491,111.5
219.2873,246
219.3324,204.2
219.4018,197.2
219.4201,98.7
219.4657,118.6
219.516,108.5
219.5222,16.9
219.5404,643.1
219.5566,335
219.5613,328.6
219.6044,17.8
219.6198,99.1
219.6749,481.5
219.6961,573.5
219.8778,95.5
219.978,223.6
219.9805,68.4
219.9999,95.5
220.0303,97556.8
220.0372,403.7
220.0473,555.2
220.0673,9893.8
220.1636,425.6
220.1676,429.8
220.2281,109.3
220.2351,17.6
220.5142,351
220.6022,19.5
220.6139,325.9
220.6226,603.6
220.6418,143.2
220.6614,184.7
220.6732,513
220.7665,302.3
220.8837,26.9
220.906,31.8
220.9348,788.8
220.9644,299.8
220.9681,478.7
220.9988,88.9
221.0251,111013.3
221.0313,17694.8
221.0514,1418.2
221.0851,144.6
221.095,74.9
221.1653,563
221.1708,23.3
221.1948,158
221.2002,221.8
221.2715,267.7
221.2735,327.6
221.2836,122.4
221.3477,108.6
221.4919,321.8
221.5747,279.1
221.6167,98.3
221.6339,92.8
221.7686,298.4
221.8172,109.7
221.8303,103.4
221.8366,264.9
221.8629,366.6
221.8821,215.3
221.9567,174
221.984,2713.5
222.0069,156.2
222.0284,2362.4
222.1357,116.3
222.1495,16.8
222.1571,132.4
222.2879,97.3
222.4117,529
222.5082,312.5
222.5402,207.5
222.5577,759.1
222.6122,19.8
222.7055,358.2
222.7628,256.8
222.7693,62.8
222.7828,104.4
222.8682,17691.9
222.8794,818.5
222.8955,102.8
222.8992,307.4
222.9078,365.1
222.9155,508.3
222.9543,766.2
222.9625,117.3
222.9886,6518.3
223.0388,374.5
223.1163,27
223.3214,126.6
223.3363,107.5
223.3997,364
223.506,126.9
223.5754,317.5
223.7146,398.7
223.7284,516.7
223.7455,114.7
223.7593,119.4
223.9536,55.2
224.1271,377.6
224.2671,16.2
224.2874,22
224.3009,405.6
224.3044,74.9
224.3424,73.6
224.3902,101.2
224.6244,225
224.807,111.8
224.8132,19.2
224.8652,10600.8
224.8802,16.6
224.9278,181.7
224.9441,351
225.0348,1099.7
225.0551,19660.8
225.081,553.8
225.2405,174.2
225.2439,232.8
225.3139,116.3
225.3779,232.2
225.3975,100.9
225.4557,118.6
225.5337,82.7
225.635,343.5
225.7204,571.1
225.8396,295.9
225.8481,218.4
225.9167,98.3
225.9523,68.2
225.9543,130.7
225.9553,123.3
225.9624,81.7
226.0067,2767.6
226.0153,151.1
226.0245,10181.4
226.0455,9959.3
226.06,121
226.1143,110.4
226.2382,149
226.3006,334.8
226.3308,97.5
226.3346,17.7
226.3437,204.7
226.43,129.3
226.5129,319.7
226.5964,86.4
226.6074,88.4
226.6707,109.3
226.7731,146.4
226.8621,749.3
226.8788,25.8
226.9519,57558.5
226.9717,485.2
226.9863,408.4
227.0345,880.4
227.0796,1845.4
227.0868,175.8
227.1008,100.1
227.1525,99.7
227.1978,456.8
227.2141,93.7
227.2479,64.5
227.319,148
227.328,484.7
227.3746,195.6
227.3813,143.1
227.4634,158.5
227.5151,18.7
227.5328,289.6
227.536,709.5
227.5639,193.6
227.5864,235.9
227.6414,109.2
227.6894,325
227.803,17.3
227.9006,144.5
227.9281,112.9
227.9621,572.2
228.0005,1211
228.0078,113.5
228.0228,636.1
228.0567,597.3
228.0637,491.6
228.1223,453
228.1973,589.2
228.2344,349.8
228.3265,123.1
228.3339,341.3
228.6083,102
228.6785,405.1
228.6795,327.5
228.7518,21.5
228.7721,84.6
228.8131,704.8
228.8854,101.5
228.9603,136.7
229.0587,97.5
229.0771,94
229.1184,411
229.1702,65.8
229.2701,63
229.2874,93.2
229.3484,17.4
229.4185,189.2
229.4605,19.3
229.5563,318.6
229.6493,20.5
229.716,116
229.8713,219.9
229.8921,25.1
229.9026,20.2
229.948,366.1
229.9574,7870.8
229.9773,342.3
230.0338,204
230.1132,305.7
230.1223,21.3
230.1517,212.8
230.1677,135.9
230.3663,204.4
230.3961,235.7
230.4252,563.9
230.5348,354.8
230.5685,100
230.6061,87.9
230.6423,475.4
230.6936,16
230.7152,397.8
230.7812,99.2
230.8106,497.1
230.822,108.8
230.8735,90.5
230.8904,414.8
230.9385,506.8
230.9437,142
230.9603,621.1
230.974,211
230.9907,46
231.0032,95.2
231.0078,642.2
231.0201,341.5
231.07,22
231.1792,89.9
231.2933,98.6
231.305,317.1
231.3069,353.9
231.3092,408.3
231.3262,375.1
231.5173,22.7
231.593,226
231.6384,87.1
231.7472,349.5
231.8337,142.7
231.949,276
231.9533,147.7
231.9579,202.1
231.973,180.6
231.9788,107.6
231.9956,231.7
232.0226,31
232.1632,225.7
232.2361,224.9
232.2524,90.3
232.489,464.7
232.5291,115.8
232.6965,126
232.7186,350.3
232.782,18.6
232.8481,234
232.8689,19.7
232.8741,91.4
232.8834,60.4
232.8971,49200.7
232.9209,55.9
232.9644,229.2
232.974,381.2
232.986,8247.9
233.0007,125.1
233.0514,7404.6
233.0857,88.1
233.0999,244.8
233.1569,240.7
233.2418,271.3
233.2901,85.7
233.3044,349.7
233.4132,144.2
233.4228,19.3
233.7471,260.6
233.795,338
233.8842,94.5
233.9117,214.2
233.9403,145.5
233.9536,528.5
233.989,366.5
234.0088,270.8
234.0409,96.6
234.0456,20.4
234.097,130.6
234.2269,75.1
234.3495,123.2
234.3636,93.5
234.4456,564.2
234.4696,107.2
234.4726,115.1
234.6248,160.6
234.7373,195.4
234.776,216.8
234.8088,130.2
234.894,14998.1
234.9009,19.9
234.9109,209.5
234.9267,545.7
234.9508,565.9
234.9819,8195.2
235.0194,433.6
235.0571,2491
235.062,104.8
235.067,1053.8
235.0793,97.4
235.093,10895.8
235.183,474.4
235.2659,408.1
235.2863,124.1
235.3655,188.4
235.3825,135.3
235.4169,106.5
235.4214,319
235.6029,66.2
235.6594,21.7
235.7865,199.4
235.8151,113.3
235.8516,65.7
235.8572,94.7
235.8803,130.9
235.8898,107.5
235.9273,92.9
235.9905,113.4
236.0038,298.4
236.0158,411.9
236.0413,4370.8
236.0612,215.8
236.0721,49340.2
236.0968,100.2
236.1675,115.1
236.217,323.4
236.4094,503.1
236.4451,362.6
236.4703,97.8
236.5311,349.4
236.6636,95.6
236.7999,281.7
236.8753,660
236.8784,222.1
236.8983,121
236.9075,83.5
236.9327,106.8
236.9471,18.5
237.0138,139.7
237.0214,516.8
237.0579,215.6
237.0754,1830.6
237.1014,63.8
237.1312,143.2
237.1573,443.5
237.2326,19.6
237.3071,247.1
237.5669,181.4
237.6372,17.3
237.7626,21.3
237.8552,198.1
237.8908,23.4
237.8975,106.1
237.9088,18.5
237.9649,108.1
237.9986,510
238.0679,717.8
238.0768,31
238.1083,565.9
238.1106,517
238.1537,110.7
238.1767,306.1
238.1806,100
238.3747,112
238.3991,106.8
238.4243,573.3
238.4897,109
238.7779,402.6
238.8387,414.6
238.8423,4942.4
238.8494,329.5
238.8802,381.8
238.92,133.9
238.9256,154.3
238.9294,19.4
238.9445,363.2
239.0094,3957
239.054,117
239.0647,366.9
239.0683,993.5
239.1351,391.5
239.1371,378.6
239.143,169.9
239.2157,87.8
239.2551,87.6
239.283,104.2
239.3327,18.8
239.3599,97.2
239.3676,386.2
239.5354,100.2
239.5507,18
239.6068,409.9
239.6161,19.3
239.6292,330.3
239.7736,91.9
239.7939,295.1
239.825,216.9
239.8839,341.1
239.9153,97.8
239.9323,324
239.9356,97.6
239.9456,533.5
239.9546,315.9
239.9971,107.7
240.0017,79.2
240.0313,653.7
240.0551,139.3
240.1699,391.8
240.2038,137.9
240.2585,130.9
240.27,112.8
240.3409,397
240.3761,461.1
240.5279,196.5
240.7736,122.4
240.8392,3610.8
240.955,3164.7
240.9676,3744.3
240.987,113.3
241.009,1323.7
241.0506,18.4
241.0893,280.1
241.1758,105.1
241.2119,300.7
241.2634,109.5
241.2841,21.5
241.2997,136.8
241.3256,18.3
241.4047,349.7
241.4177,368.3
241.5203,642.2
241.6333,18.4
241.6721,20.6
241.712,241
241.7201,262.9
241.8045,166.5
241.8717,149.7
241.9461,123.9
241.9611,146.6
241.9676,19.2
241.9812,676.9
241.9986,1511.7
242.0196,3896.7
242.084,321.9
242.1849,129.5
242.2037,73.7
242.2172,227.4
242.2536,293.1
242.2868,654.4
242.3608,166.1
242.4052,419.5
242.424,588.1
242.4606,487
242.53,84.4
242.5343,160.3
242.5659,134.6
242.6086,217.8
242.6465,217
242.8133,59.2
242.8362,85.3
242.9259,26129.7
242.9329,529.8
242.9492,553.4
242.9583,113.6
242.9764,22.4
243.0071,403.6
243.0336,398.1
243.0535,5221.7
243.0658,8061.1
243.0828,94.9
243.1592,329.2
243.2166,119.8
243.251,552
243.3988,19.1
243.4835,17.1
243.5783,101.9
243.6486,317.2
243.7048,457.8
243.722,356
243.738,98.5
243.7878,470.1
243.8641,19.3
243.8854,506.3
243.9072,129.9
243.9403,431.8
243.9731,2495.3
243.9857,398.4
244.0131,269.7
244.0675,100.2
244.1183,209.3
244.1662,191.4
244.2671,20.4
244.3202,355.3
244.4279,402
244.4464,23
244.4735,131.3
244.5234,87.2
244.6625,17.4
244.6661,18.6
244.8711,7431.1
244.915,624.9
244.924,2056.5
244.976,505.8
245.0135,19.1
245.0171,240
245.0753,461.1
245.1559,19.5
245.2554,343.2
245.2791,20.4
245.38,379.3
245.4763,115.8
245.6631,562.4
245.7284,153.1
245.7504,18
245.7695,364.7
245.833,300.2
245.8434,112.7
245.9681,17.7
245.9732,55.9
245.979,433.4
246.0016,187.2
246.0116,28.9
246.0622,128.5
246.1327,89.4
246.5046,211.5
246.5154,400.2
246.5739,346.1
246.6029,103.3
246.738,112.8
246.7602,68
246.7844,489.6
246.8079,31.6
246.8167,122.2
246.8628,234.6
246.8681,2464.3
246.936,18
246.9421,342.2
246.9519,406
246.9712,22.1
247.0368,913
247.0484,388.2
247.0587,92.3
247.067,1449
247.093,6349
247.1375,339.2
247.301,318.1
247.419,156.8
247.5064,65.5
247.6004,418.1
247.6071,215.5
247.89,342.1
247.9563,150
247.968,609.3
247.9839,148.4
248.0299,263.8
248.0341,18.4
248.0956,196.7
248.1081,269.9
248.1246,10115.3
248.1769,149.2
248.3043,378.6
248.4987,96.4
248.5454,21.1
248.5787,120.6
248.641,92.5
248.6757,616.1
248.6883,106
248.7638,181.7
248.7799,227.9
248.8406,513.3
248.8711,11934.1
248.8951,333
248.901,94.7
248.9148,500.5
248.9164,352.4
248.9486,71.4
248.96,4443.4
248.9995,404.2
249.0161,660.5
249.0308,175.8
249.0353,372.6
249.0464,382.1
249.0616,14975.4
249.1154,22
249.128,299.8
249.2953,586.5
249.3339,310.9
249.3519,207.1
249.3971,205.7
249.4347,822.3
249.4553,17.2
249.4619,225.8
249.4709,289.3
249.5967,197.2
249.619,67.5
249.6333,379.4
249.7031,81
249.7782,485.2
249.8866,22.6
249.9446,294.4
249.9684,21.1
250.0093,222.7
250.0358,314.2
250.0375,449.8
250.0386,502.6
250.0648,1867
250.1362,120.4
250.1521,360.8
250.2806,185.5
250.3126,124.9
250.415,612.8
250.4499,206.6
250.5076,404.7
250.5179,232.1
250.664,408.5
250.673,84.7
250.8116,124
250.8242,18.6
250.8681,1990.5
250.8942,85.6
250.9206,3738.7
250.9558,2748.5
250.9909,328.7
251.001,82.6
251.0346,129.8
251.0548,230.9
251.0706,112.2
251.2082,133.1
251.252,18.4
251.3486,87
251.378,213.3
251.3941,147.8
251.4247,21.1
251.4292,392.8
251.5162,201.3
251.5965,88.3
251.6261,223.2
251.7348,132.9
251.792,187.2
251.957,99.3
252.037,80.8
252.0461,94671.1
252.0737,799.3
252.1222,326.8
252.2609,18.3
252.2742,87.8
252.3555,144.3
252.5418,394.6
252.6494,138.9
252.6964,214.9
252.7346,17.5
252.7406,116.2
252.7421,140.6
252.7433,120.7
252.7495,102.7
252.9035,1006.8
252.9175,1913.3
252.9516,95.7
252.998,44.6
253.0495,8187.6
253.0664,351.7
253.0914,18.8
253.2135,642.1
253.3382,89.9
253.351,118.8
253.4796,213.2
253.527,273.8
253.5743,245
253.5832,215.1
253.6077,204.6
253.6323,83.2
253.6439,110.1
253.6814,664.4
253.7335,140.8
253.7649,17.8
253.7732,103.8
253.8434,494
253.935,88.3
253.9526,615.9
253.959,320
253.9794,108.4
254.0361,122.2
254.0442,4321.7
254.0513,314.8
254.0704,20.8
254.0757,99.5
254.0956,291.6
254.1006,369
254.1209,44.3
254.1811,572.4
254.199,308.3
254.2212,204.2
254.3444,578.2
254.3514,211.3
254.4128,275.4
254.6511,434.8
254.6667,581.5
254.8162,1168.9
254.8243,13716.6
254.8445,315.5
254.8636,142.3
254.879,152.2
254.8956,176
254.8997,1063.1
254.9866,89
255.0249,134.9
255.0334,20964.8
255.0385,271.8
255.0478,757.3
255.1594,330
255.1973,20.3
255.2113,25.1
255.2227,490.7
255.2674,348.2
255.2966,312.3
255.3052,219
255.5523,95.3
255.69,20.7
255.7085,125.5
255.7418,369.1
255.765,159.8
255.8574,340.9
255.8645,206.1
255.9078,143.3
255.9145,120.7
255.9292,313.2
255.9786,1231.2
256.0038,1166.2
256.0364,199
256.0607,114.9
256.1074,442.3
256.1648,534.7
256.2559,364.5
256.3493,385.4
256.359,127.7
256.4036,101.5
256.4072,228.6
256.4186,187.3
256.4621,294.2
256.4751,596.3
256.7199,348.3
256.8213,16698.8
256.8489,21.3
256.9167,124.5
256.929,677.7
256.9327,1522.3
256.9416,1160.2
256.9748,22.7
256.9818,24
257.0225,299.7
257.0491,5620.5
257.0653,562.4
257.075,36002.7
257.092,103.1
257.2652,94.6
257.304,19.6
257.383,231
257.3911,19.4
257.4812,154.3
257.8421,204
257.9524,236.4
257.9822,336.4
257.9888,54.3
258.0105,605.1
258.0304,636.4
258.0746,158.2
258.0783,1462.2
258.1108,10979.3
258.3198,102.5
258.4221,168.5
258.4859,68.5
258.5269,155.1
258.5355,22.8
258.5457,69.5
258.5563,17.2
258.6409,96.3
258.6552,105.3
258.8183,5695.8
258.8488,338.6
258.8999,5441.6
259.0281,526.8
259.0339,497.6
259.2422,21.9
259.3601,89.3
259.4238,236
259.4528,24.8
259.5474,149.1
259.6082,563.8
259.7075,137.9
259.7703,97.2
259.8059,375.8
259.864,21.1
259.8977,122.4
259.944,439.2
259.9652,698.5
260.074,108.1
260.2457,136.3
260.3188,236.3
260.3616,528.7
260.3762,21.3
260.3968,338.5
260.4366,237.1
260.4866,109.3
260.539,600.7
260.5652,115.2
260.6201,24.5
260.6796,198.9
260.7809,263.9
260.845,3566.9
260.9494,12051.3
260.9748,235.9
260.9978,109.8
261.0115,337.4
261.0279,20.3
261.0465,378.1
261.0645,85.7
261.0752,317.7
261.1372,551.1
261.1836,127.3
261.2167,245.3
261.2661,122.6
261.2836,101.7
261.422,488.5
261.4514,166.3
261.5255,609.8
261.7582,170.4
261.7751,19.9
261.7838,353.6
261.8806,107.4
261.9838,193.2
262.0819,1282.4
262.125,339.3
262.1626,112.4
262.1806,22.6
262.3131,79.7
262.3734,17.3
262.3944,343.9
262.5023,158.3
262.5644,265.9
262.5733,19.9
262.6642,422.3
262.7486,19.9
262.8062,108.4
262.9185,311.9
262.9466,4842.1
263.0133,587.4
263.0856,8485.9
263.1169,436
263.1762,354.2
263.2065,476.8
263.2736,113.1
263.3341,441.4
263.3858,317
263.4446,82
263.6653,415.7
263.6775,302.6
263.8186,139.7
263.8409,257.1
263.9981,684.5
264.0221,156.3
264.2201,147.3
264.2696,94.7
264.3719,17.7
264.5072,256.2
264.5656,97.2
264.7314,299.4
264.7547,618.3
264.7641,308.8
264.8144,91.9
264.8451,1173.6
264.8531,8111.9
264.8586,245.4
264.8732,54.5
264.8809,207.1
264.934,6107.8
264.9452,312.9
264.9888,9553.4
265.0168,217.8
265.0238,1613.7
265.0356,6989.1
265.0478,2195
265.1268,98.5
265.2379,270
265.2465,783.4
265.2757,197.9
265.3332,338.2
265.4228,429.1
265.4892,77
265.6725,77.3
265.6915,301.7
265.7085,19.2
265.7384,102.6
265.7697,150
265.9581,65
265.9788,272.4
265.986,25.3
265.9925,168.6
266.2027,22.2
266.2108,537.4
266.2837,112.4
266.3967,384.1
266.5309,117.9
266.5768,317.7
266.6412,118.1
266.6723,523.4
266.85,7642.7
266.8946,5167.8
266.9295,505.6
266.9381,155.2
266.9594,55.5
267.0141,49
267.0592,234.1
267.3065,192.8
267.3588,174.1
267.3741,177.4
267.4618,255
267.5438,356.6
267.5759,582.7
267.6196,381.2
267.6473,356.2
267.6622,20.7
267.6727,23.6
267.6969,220.6
267.7608,452.8
267.78,277.4
267.7939,221.9
267.8453,567
267.8616,106.6
267.9051,24.8
267.974,67.4
267.9951,818.8
268.007,161.4
268.0298,712
268.0832,453.3
268.0949,582
268.1362,388.2
268.2091,542.4
268.2612,387.5
268.288,18.3
268.4074,70.9
268.4457,352
268.5535,363.8
268.5761,151.2
268.7601,343.6
268.8473,1345.3
268.8646,709.3
268.8916,1913.6
268.9513,449.8
268.9862,439.1
269.0121,45.6
269.0297,595.9
269.0338,221.9
269.0453,13763.9
269.0491,35116.6
269.0697,81.5
269.1331,90.6
269.2017,543.3
269.2645,262.9
269.2939,87.9
269.4566,570.3
269.5376,227.6
269.6354,122.6
269.8781,193.9
269.8978,356.2
269.9941,3556.1
270.0102,81.4
270.0252,14231
270.0478,24821.6
270.0529,123.7
270.06,169.1
270.0942,167.6
270.1455,1325.8
270.2232,528.3
270.3039,237.1
270.5273,84.3
270.559,566.8
270.6348,70.8
270.642,534.7
270.6719,110.1
270.7012,146.1
270.7122,87.8
270.7652,80.5
270.7766,390.5
270.7983,5192.6
270.8708,421.2
270.8945,122.4
270.9075,22.1
270.9783,24552.3
271.0077,98.4
271.0286,1092.9
271.0513,724.7
271.0782,494.1
271.0907,1181.9
271.1246,20.2
271.2418,520.6
271.2524,251.1
271.2583,229.4
271.2715,95.2
271.2872,318.5
271.305,342.5
271.4211,163.4
271.4632,163.2
271.5423,116.2
271.5651,102.1
271.6491,378.1
271.6862,237.8
271.7522,176
271.7793,21.3
271.8614,67.8
271.8651,403.6
271.9075,25.6
271.9444,105.5
271.9522,524.2
272.0126,285.3
272.021,422.6
272.0304,106.4
272.0434,90.3
272.0807,213.7
272.1246,265.8
272.2223,118.6
272.2495,237.7
272.2632,193.8
272.3647,206
272.4094,19.5
272.442,17.5
272.4756,356.3
272.4853,671.4
272.5167,249.3
272.5466,146.8
272.695,621.4
272.742,116.4
272.7953,8478.5
272.8246,234.4
272.9452,777.7
272.9861,234.3
273.0491,1144
273.0687,318.8
273.0884,110.9
273.1166,139.2
273.14,102.1
273.152,184.3
273.1867,245
273.4002,111
273.4125,159.8
273.4468,119.5
273.6045,332.9
273.6329,370.5
273.8005,19.2
273.8067,364.5
273.9292,311.6
273.963,10133
273.9736,371.7
274.0409,18.6
274.0587,20.2
274.0692,89.3
274.0922,1180.3
274.114,119.7
274.4254,118.2
274.5067,329.6
274.6191,264.1
274.6314,294.1
274.6439,130.9
274.7558,21.5
274.7923,2661.3
274.8817,1264.8
274.9016,397.4
274.9321,302
274.9527,19
274.9644,385.9
275.0143,98.4
275.0962,69.7
275.1379,808
275.1907,20.5
275.228,99.5
275.2693,159.1
275.3031,439.4
275.3164,264.2
275.4585,118.1
275.4753,171.5
275.4807,472.5
275.6337,277.7
275.665,165.9
275.667,156.5
275.6896,482.2
275.8744,25.4
275.8817,493.4
275.9397,1459.5
276.0039,204.3
276.0097,96.6
276.0275,288.4
276.0699,16.9
276.0852,85
276.0965,149.6
276.1388,258.1
276.173,155.1
276.2767,115
276.2898,317.1
276.3607,18
276.4042,123.7
276.4825,480.9
276.5399,184.1
276.5577,113.4
276.6199,437.1
276.6306,156.8
276.6526,86.9
276.7074,145.2
276.7134,139.1
276.8219,425.4
276.8744,612.2
276.9234,10257.8
276.9856,1547.1
277.0901,680.1
277.1476,19.1
277.2733,145.6
277.2965,551.9
277.4162,381
277.5471,332.3
277.6311,242.1
277.7381,113.8
277.7593,420.6
277.968,513.9
278.0009,75.8
278.0194,501
278.0814,20.7
278.1636,345.2
278.2819,353
278.4203,517.4
278.431,166.6
278.7075,21.4
278.8136,109.8
278.8332,497.2
278.8895,22.5
278.8938,1009.3
278.9204,2170.9
278.959,274.6
278.988,583.3
279.0043,775.6
279.0144,434.9
279.0227,32.7
279.057,33061.8
279.2319,460
279.2379,120.8
279.3139,25.7
279.3359,585.5
279.3745,123.7
279.4903,68.5
279.5246,103.4
279.5343,216.4
279.5697,178.2
279.6589,104.8
279.8337,100.8
279.845,122.5
279.8548,200.8
279.8604,273
279.8676,181.7
279.8974,427.1
279.9603,479.8
279.965,349.7
279.9789,343.3
279.9935,94
280.012,585.6
280.0153,600
280.0606,296.4
280.0805,225.3
280.0924,4262
280.1354,19.8
280.2307,103.9
280.2687,891.4
280.2706,461.7
280.3002,125.4
280.3052,106.3
280.3274,225.2
280.3382,600.3
280.45,140.7
280.5716,406.4
280.5792,154.9
280.5851,477.7
280.6665,65.3
280.7092,120
280.8068,62.9
280.8269,2691.7
280.8537,148.4
280.9428,446.6
280.9629,546.9
281.0099,1164
281.0324,160.3
281.0518,153.7
281.1007,109.4
281.1237,137.6
281.1274,26.1
281.2606,615.1
281.419,93.4
281.4795,119
281.5873,20.8
281.6411,502.5
281.6638,101.9
281.8688,123.8
281.931,103.1
281.9536,246.4
281.9974,335.8
282.0151,131.4
282.0654,349.7
282.215,102.9
282.245,20.4
282.3914,138.4
282.4184,96.3
282.4231,327.2
282.4588,21.4
282.4712,113.3
282.5795,329.9
282.7011,116.4
282.8242,3013.3
282.9131,334.3
283.0285,488.9
283.0505,192.1
283.07,197.1
283.2114,400.8
283.2161,419.4
283.3634,550.3
283.4718,100.5
283.8596,140.9
283.9209,403.5
283.9896,47.7
284.0041,47.7
284.0249,130.5
284.053,69.6
284.0637,78.9
284.1678,221.1
284.2063,18.2
284.3923,70.1
284.4793,200.1
284.4989,18.9
284.6592,334
284.8314,364.2
284.911,599.5
284.9227,143.7
284.9942,1380
285.0235,269.6
285.0364,18.7
285.1478,21
285.1983,20.7
285.2708,139.9
285.2953,97.6
285.3736,214.5
285.4226,333.8
285.5105,374.6
285.5604,143.5
285.7581,98.9
285.8083,66.2
285.9005,193.6
285.9679,503.5
285.978,538.5
286.0202,3640.5
286.0437,26.5
286.0963,49
286.1418,454.8
286.1572,20.7
286.4454,314.9
286.7723,2257.9
286.7946,116.4
286.901,707.2
286.9523,11237.6
287.0236,331.4
287.0476,145.7
287.0558,32634.7
287.1007,866.6
287.2103,115.2
287.241,264.2
287.2609,325.4
287.2842,19
287.3284,296
287.5083,140.5
287.5174,155
287.6657,19.7
287.6745,702.3
287.6825,72.1
287.74,637.2
287.9386,363.9
287.9498,85
287.9531,105.1
287.9784,189.5
287.984,161.3
287.9959,324
288.0158,75.9
288.0358,140.1
288.0588,1661.3
288.0655,278.6
288.0856,86.8
288.1433,97.4
288.1561,17254.3
288.1897,240.8
288.2773,19
288.4468,255.9
288.4531,446.6
288.5772,101.3
288.7694,3595.1
288.8162,758.4
288.8293,1210.3
288.8377,3403.1
288.8406,3422.4
288.8431,4118.5
288.8481,6017.7
288.8522,5992.5
288.8565,8273.1
288.8703,11674.2
288.8726,11407.8
288.878,15157.8
288.8818,15477
288.8865,13867.2
288.8898,14291.2
288.8944,18791.5
288.9002,16765.5
288.9042,16183.7
288.9129,11359
288.9182,11659.5
288.9225,15290.9
288.9261,8449.2
288.9314,6858.3
288.9342,7681.6
288.9395,4501.1
288.9469,2291.7
288.9523,1849.5
288.956,2095.1
288.9617,1544.9
289.0143,453.8
289.0339,162.3
289.0629,325.1
289.0969,225.7
289.1509,97.2
289.1595,1135
289.2327,483.8
289.4495,248.8
289.5388,559.5
289.7603,220.8
289.7824,557.5
289.8255,442.9
289.912,309.8
289.9275,22.6
289.9372,603.6
290.0454,208.9
290.0987,122.4
290.24,23.3
290.2471,219.3
290.4122,196.7
290.5635,19.2
290.5775,150.8
290.5999,147.6
290.6029,130.8
290.7663,904.3
290.7987,24.9
290.9132,18.1
290.9267,25.1
290.967,101.8
291.0272,2393.2
291.0587,411.9
291.1668,19
291.2777,89.5
291.2899,156.1
291.3039,307.3
291.4296,211.5
291.4672,116.7
291.5408,492.9
291.6931,222.5
291.8072,258.5
291.8181,114
291.8832,392.1
291.8928,606.3
292.0799,97.5
292.1156,19
292.3279,102.6
292.3601,313.3
292.428,20.8
292.6508,367.4
292.806,192.8
292.8411,90
292.8977,797
293.0059,256.6
293.0303,107.4
293.0361,105.2
293.073,1911.1
293.0895,101.5
293.0986,346241.3
293.1404,148.8
293.1792,1544.5
293.3023,121.2
293.3234,18.6
293.4439,127.9
293.5891,542.2
293.745,20.9
293.9265,301.9
293.977,86.3
294.0957,1199.3
294.102,28533.5
294.1741,453.2
294.3021,245.4
294.9059,663.5
294.93,149.2
294.9393,651.8
294.9912,343.3
295.0256,135.1
295.0308,128.6
295.0601,248.4
295.1027,3390.5
295.1852,575.9
295.1952,18108.2
295.3095,94.1
295.3957,218.7
295.6181,290.8
295.6946,608.3
295.7295,116.6
295.7312,129.6
295.7339,112.4
295.7735,579.9
296.0096,1628.8
296.0162,239.9
296.0558,95.2
296.0669,546.3
296.1048,497.6
296.1988,544.5
296.2863,318.1
296.5367,408.7
296.7644,20.5
296.8006,915.3
296.8647,432.3
296.8684,568.4
296.9877,145.2
297.1552,92.3
297.6544,393.9
297.7512,604
297.764,18.9
297.7699,433.3
297.8391,151.3
297.9844,121.7
298.0047,22.8
298.0258,3244.1
298.0428,16377.3
298.1284,470.1
298.987,32.6
299.0235,2341.4
299.0462,954.9
299.1398,1623.3
299.2033,144.8
299.4208,111
299.5075,85.2
299.6645,688.8
299.7596,157.3
299.9356,355.2
300.0051,1728.7
300.023,17.3
300.0358,911.2
300.0489,28.7
300.076,501.9
300.1342,20.5
300.1852,339.3
300.2329,224.9
300.2596,17.9
300.4027,425.9
300.4875,621.2
300.835,113.8
300.9138,395.9
300.972,188.2
301.0124,100.3
301.039,18774
301.1419,207
301.2126,753.8
301.5437,110.2
301.5487,540.4
301.8282,338.2
301.9944,4408.2
302.0126,1413.3
302.0204,481.8
302.0354,62.8
302.0426,514.4
302.0517,190.2
302.0645,4042.6
302.0827,88.5
302.1229,157
302.359,111.2
302.4674,174.7
302.6038,274.8
302.6138,448.4
302.662,583.3
302.6708,298.7
302.6772,485.2
302.6918,86.7
302.7466,921.2
302.8213,22.1
302.83,4502.8
302.836,255
302.9138,601.2
302.9262,687.7
302.9907,30.7
303.0287,324.3
303.0367,457.5
303.0678,391.2
303.0822,681.3
303.1701,314.5
303.1932,409.4
303.2177,679
303.2746,113.3
303.2796,140.2
303.5747,495.5
303.5978,180
303.8305,286.9
303.8764,636.5
303.9863,212.9
304.0089,377.6
304.0605,97.1
304.065,723.3
304.1482,226.1
304.2489,211.4
304.2978,330.7
304.3444,152.2
304.5141,174.1
304.5217,183.6
304.7429,429.1
304.814,23.3
304.8268,2145.1
304.8322,375.8
304.8964,770.1
304.9756,2232.1
305.0029,383.3
305.0825,638.5
305.1643,339.5
305.2356,241.1
305.7215,86.3
305.7599,105.7
305.7943,73.1
305.8744,197.3
305.9015,470.9
306.0459,113
306.0661,399.3
306.0955,48.7
306.1419,353.5
306.1763,334.7
306.5599,17.7
306.576,76.5
306.8417,24.4
306.9583,476
306.9777,2893.8
307.0046,208.1
307.0236,127.8
307.0703,482.7
307.1244,369.6
307.1954,231.1
307.2145,97.8
307.315,229.1
307.3388,448
307.3716,111.1
307.6565,110.4
307.6963,558.4
307.8442,206.4
307.9362,90.8
307.9645,365.4
307.9877,241.8
308.0272,183.4
308.276,88.9
308.4883,238.4
308.5819,152.3
308.5888,331.9
308.5968,303.5
308.6119,20.2
308.6217,20.3
308.6546,501.3
308.7632,742.6
308.8084,121.4
308.8591,304.7
308.8673,477.9
308.8796,3974.2
309.0066,252.4
309.0383,3812.5
309.0831,3382.9
309.1517,44.1
309.3037,439.7
309.3199,342.4
309.3285,116.8
309.35,107
309.4984,491.4
309.7769,91.5
309.9672,235
310.0626,104
310.5219,20.1
310.7268,361.7
310.79,23.3
310.7976,18.3
310.8765,6272.5
311.0036,86.6
311.0094,823.7
311.1401,63
311.1677,389.7
311.2435,493.3
311.4357,200
311.4824,234.9
311.6372,224
311.7535,513.7
311.7761,464.7
311.8544,369.1
311.9992,34
312.0199,122.5
312.0303,656.2
312.0413,3186.7
312.107,205.7
312.2292,441.8
312.3538,134
312.4163,147
312.495,364.8
312.6136,21.7
312.6199,183
312.7845,543.6
312.8336,79.9
312.8587,1386.8
312.9929,19.8
313.0025,26.3
313.0184,127.2
313.0365,600.3
313.1088,277.3
313.2031,415.8
313.253,830.3
313.2744,27179.9
313.3278,233
313.4029,19.6
313.6112,409.3
313.7394,99.7
313.8103,285
313.8806,19.3
313.9528,449.6
313.9995,1023.9
314.0152,3903.5
314.0504,84.3
314.0899,414
314.2609,242.2
314.2776,2928.1
314.3492,177.7
314.4439,66.4
314.5739,355.9
314.6752,387.2
314.6874,20
314.7802,501.4
314.7988,88.4
314.8374,4956.4
314.9021,265.9
314.9631,216.3
314.9995,4130.3
315.0045,2928.3
315.0181,525.4
315.0373,307.1
315.0392,274.1
315.0443,404.4
315.0484,1168.7
315.0525,3451
315.0556,6656
315.0595,2900.3
315.0619,3543.8
315.0639,6061
315.067,15675.7
315.07,22619.5
315.0727,13914
315.0806,6331074
315.0867,28437.1
315.0894,12001.6
315.0942,7410.9
315.0962,5445.5
315.0985,3399.3
315.1008,3702.1
315.1028,2975.7
315.1046,1657.6
315.1073,1315.4
315.1091,940.4
315.1113,956.8
315.1177,257.4
315.1201,288.6
315.1219,284.8
315.1238,240.5
315.128,150
315.1619,3990.4
315.1858,329.2
315.2247,634.1
315.2524,153
315.2749,348.8
315.3243,6244.5
315.3563,20.6
315.4207,187.7
315.4871,142.1
315.621,519.6
315.6423,19.9
315.8131,148.8
315.9419,144.6
316.0108,100
316.0177,24.6
316.0532,25.3
316.0688,926.2
316.0779,34191.2
316.084,652143
316.1123,385.2
316.2767,23.5
316.4039,451
316.4129,264.4
316.6222,319
316.6942,250.8
316.7974,20.2
316.8017,19
316.8307,163.1
316.987,1781
317.0134,133.1
317.023,526.3
317.0426,385.8
317.0577,439.6
317.0654,1956.3
317.0844,74240.4
317.118,247.8
317.1753,164.8
317.179,211.9
317.1971,298.5
317.2023,119.2
317.3149,617.6
317.5207,211.4
317.8225,51.1
317.8861,108.7
317.9225,91
317.9268,147.7
317.9863,506.1
317.9923,194
318.0698,323.6
318.088,7515.2
318.1327,18.5
318.1388,353.5
318.1756,210.5
318.2037,469.1
318.2282,214
318.2991,445.6
318.3329,69.4
318.3407,17.5
318.4991,721.4
318.793,309.5
318.8039,2331
318.8644,69.1
318.905,411.3
318.9085,799.5
318.9724,192.9
318.9812,19.2
319.0941,361.9
319.1226,20.5
319.1952,35426.8
319.247,580.3
319.3629,108.1
319.4327,329.3
319.5614,18.9
319.5731,142.2
319.5959,428.3
319.6112,235.2
319.627,330.4
319.7774,287.9
319.7878,16.6
320.0365,201.8
320.0749,133.7
320.1308,107.8
320.1983,3196
320.2594,2368.3
320.4608,357.6
320.4738,200.1
320.6863,251.9
320.7309,248.2
320.8008,979.7
320.8305,24
320.843,238.1
320.8875,449.9
320.9051,850.7
321.1048,510.2
321.1363,243.4
321.2108,23634.3
321.2626,62.6
321.2812,19.8
321.4302,240
321.4489,473.9
321.464,115.7
321.5344,21.4
321.6209,151.2
321.6969,22.6
321.7295,122.1
321.7389,103.7
321.8156,23.1
321.8571,185.5
321.8653,136.6
321.9357,228.1
322.0096,174
322.0962,547.7
322.2138,1874.7
322.7638,330.6
322.7889,378.2
322.8121,962.9
322.8548,90.1
322.9036,253.9
322.9943,22.7
323.021,9448.9
323.2264,2134.5
323.2344,145.5
323.4682,20.1
323.9744,582
324.0023,6883.3
324.024,125.5
324.106,108.6
324.1541,337.3
324.2319,120.9
324.3246,22.6
324.456,169.7
324.5375,344.2
324.5441,474.8
324.5505,655
324.5554,1019
324.5645,5112.5
324.5717,1552.4
324.5776,2273.1
324.58,1900.8
324.6054,18.8
324.6926,173.7
324.809,1718
324.8534,2995.3
324.9202,1408
324.9277,541.9
324.9851,18.6
325.0027,543
325.0567,1466.5
325.0725,387.1
325.249,258.2
325.3209,131.5
325.3262,348.5
325.35,234.9
325.5254,98
325.6733,20.3
325.7249,20.2
325.844,215.2
325.8676,406.6
325.923,347.7
325.9881,522.8
326.0048,69.1
326.1309,116.7
326.1793,104.2
326.2378,511.3
326.2446,19.6
326.3203,318.2
326.322,322.7
326.4323,453.9
326.8043,387.3
326.8154,21.6
326.8503,2429.4
326.9035,246.9
327.016,5210.6
327.0523,3229.2
327.1141,147.8
327.1191,335.3
327.1977,95.4
327.2276,1682.8
327.2513,18.7
327.2691,286.2
327.4405,488.7
327.5025,107
327.5666,133.1
327.6755,189.1
327.7231,151.3
327.7938,340.9
328.0152,548.6
328.0181,764.2
328.0302,52
328.1194,550
328.1665,470.1
328.1943,378.5
328.4124,370
328.4225,499.2
328.4241,461.1
328.4278,327.6
328.4428,125.1
328.5804,412.2
328.6075,120.7
328.625,18.6
328.7847,97.5
328.8145,273.4
328.8207,492.6
328.8319,534.3
328.8479,865.2
328.8708,122.9
329.0028,232.5
329.0965,1323.1
329.187,134.1
329.2303,354.1
329.2828,491.1
329.3594,346.9
329.4588,765.8
329.5069,307.8
329.5251,495.5
329.587,515.2
329.6037,386.8
329.6528,21.6
329.8398,90.4
329.865,194
329.9723,466.9
330.0595,228.6
330.1035,94.4
330.2099,76.3
330.3031,339.2
330.3495,16.8
330.4143,20.5
330.6208,71.4
330.7541,705.5
330.9434,108.7
331.0142,482.7
331.0193,861.6
331.0458,102140
331.0546,747813.4
331.0846,351.7
331.0948,7844.2
331.2602,155.8
331.2825,115.2
331.7016,332.4
331.7245,98.9
331.7439,100.3
331.8038,201
331.9037,211.6
331.9853,23.8
332.0254,39.1
332.0485,6357.6
332.0579,67672.4
332.0862,97.2
332.138,20
332.1472,77.1
332.1915,18.8
332.2807,20
332.3189,123.4
332.6175,414
332.6338,291.2
332.6907,211.3
332.7912,125.2
332.8019,279.2
332.8095,27.2
332.841,1381.1
332.89,73.1
332.9492,742.5
332.9609,336.1
332.997,646.5
333.0073,479.9
333.0527,43023.6
333.0583,8237.9
333.1107,2471.8
333.1354,126.6
333.1515,454.7
333.1954,220.6
333.2847,343.6
333.3803,102.5
333.3971,596
333.4566,204.7
333.8928,20.1
333.9666,229.5
333.9985,114.9
334.0495,138
334.0561,3075.2
334.0623,472
334.0905,36.6
334.1549,81.7
334.2758,99.3
334.3184,123.6
334.3581,109.1
334.4209,189.9
334.4661,245.4
334.7789,728.7
334.8459,100.3
335.0215,370.6
335.0386,374.4
335.0553,237.2
335.0955,722.2
335.1676,2466
335.3054,100.5
335.3373,104.4
335.4344,230.8
335.5883,20.4
335.5932,493.6
335.7268,19
335.7629,90.6
335.9018,256.7
336.0708,373
336.1714,142.2
336.1842,206.6
336.6721,200
336.7691,489.7
336.7894,116.8
336.8612,306.1
337.0366,8555.3
337.0502,18104.9
337.0626,523749.1
337.1364,107.1
337.1836,1281.3
337.2252,548.8
337.2395,145.8
337.2747,1959
337.32,100.6
337.5033,115.3
337.5606,126.9
337.6354,96.5
337.6763,113.4
337.7033,17
337.7348,346.3
337.7924,387.9
337.8497,243.4
338.0504,162.9
338.066,43755.3
338.1243,668.1
338.203,124.6
338.3659,242.1
338.3805,113.4
338.5144,142.2
338.5777,624
338.6512,105.2
338.786,745.3
338.8733,19.2
338.9217,826.8
339.0311,21.7
339.0387,2453.8
339.0476,909.1
339.0665,4489.3
339.1529,23.7
339.1988,122.1
339.2388,417.6
339.2902,1648.3
339.4784,18.8
339.7326,103.6
339.9672,172.5
339.9762,808.9
340.0071,73.9
340.0196,120.4
340.3161,318.5
340.7146,104.4
340.7839,451.9
340.8274,411.6
341.0187,52.1
341.1545,441.3
341.3059,3395.3
341.5557,109.7
341.6207,435.1
341.6569,18.7
341.799,105.3
342.0026,108.7
342.0157,5601.9
342.0512,506.6
342.1027,210.5
342.1168,95.6
342.5563,387
342.6072,113.6
342.8696,589.1
342.9296,89.1
342.9898,1621.5
343.0197,117.6
343.0259,633.4
343.0795,20.2
343.1953,20431.6
343.25,20.1
343.2645,91.4
343.5071,581.8
343.6394,114.3
343.6687,372
343.9402,19.6
343.9899,188.3
344.1985,1368.9
344.4647,18
344.4817,438
344.5271,155.6
344.6094,297
344.6538,405.2
344.6982,101.3
344.738,653.5
344.788,543.7
344.9095,23.3
344.9314,600.3
345.0591,21.2
345.069,100.3
345.2105,1953.2
345.2661,174.4
345.309,116.7
345.4712,148.2
345.6713,75.9
345.7224,70.2
345.7435,71.1
345.9454,635.7
345.9843,28456.4
346.0099,428.8
346.0262,638.3
346.0413,129.9
346.5369,325.3
346.5475,345.7
346.6241,126.9
346.636,19.6
346.6981,134.7
346.8272,318.9
346.9785,109.9
346.9877,1023.8
347.0181,1539.8
347.0686,2880.7
348.1212,159.7
348.13,573.1
348.3084,348.6
348.3448,216.3
348.5892,86.7
348.6267,155.9
348.7251,18.7
348.8125,647.1
348.9367,487.7
349.0184,1325.2
349.1091,134
349.2704,225.4
349.3782,115.8
349.5668,136.7
349.7556,90.4
349.8038,126.9
349.9429,416.2
350.0297,23.1
350.1133,101
350.1489,21.2
350.2181,113.4
350.2626,172.6
350.4242,103.2
350.6653,20.1
350.7071,20.3
350.7493,426.7
350.8112,698.2
350.899,832
351.0129,160.8
351.0311,19.3
351.4592,20.1
351.5662,107.1
351.8783,100.3
351.9484,92.7
352.0954,149.8
352.1339,235
352.2811,198.8
352.4242,303.2
352.7863,325.1
352.898,2288.1
352.9557,109.6
352.9705,443.3
352.9957,123.9
353.0277,112072.4
353.0366,145970.2
353.1411,442.4
353.1506,117.3
353.2144,96.3
353.5065,20.3
353.8537,116.1
354.0224,561.9
354.0309,7809.5
354.0398,12936.6
354.0497,297.3
354.0606,191.1
354.1352,138.7
354.207,17.7
354.2575,341.9
354.4871,389.9
354.6152,629.3
354.7638,108.8
354.7956,667.5
354.8957,624.5
354.9196,482.9
355.0123,1195.5
355.035,7599.6
355.0709,285.8
355.2011,409.3
355.2353,134.3
355.5781,115
355.5985,118.7
355.6652,275.5
355.7212,90.5
355.8077,106.5
355.899,245
355.9395,63.3
355.9785,18.3
356.0158,79.1
356.0432,452
356.0711,45.1
356.3007,147.6
356.3644,401.4
356.4838,91.7
356.7577,364.9
356.9106,440.2
356.9544,22.8
357.0091,562.3
357.0201,407
357.0361,154.1
357.0673,20.6
357.2804,140.9
357.3816,215.8
357.5114,246.8
357.5879,155.6
357.621,160.9
357.6343,128.8
357.7055,20.1
357.8959,19
357.9554,32.5
357.9778,337.7
358.1146,294.9
358.1416,234.4
358.2564,241.3
358.3257,429
358.3379,18.3
358.4066,400.5
358.5655,118.3
358.5776,150.9
358.6091,316.5
358.6394,250.5
358.6702,120.3
358.6725,93
358.8436,1046.5
358.9731,223.2
359.0079,301
359.0322,12927.5
359.0446,304832.6
359.0569,91.6
359.1682,1382.7
359.2628,603.7
359.2748,358.3
359.2849,633
359.3891,387.1
359.4043,378.2
359.435,373.4
359.4728,117.1
359.4831,129.7
359.5059,426.2
359.5239,194.6
359.5408,320
359.5511,725.6
359.5633,164.2
359.5852,350.8
359.5944,158
359.6124,209.4
359.6206,516.7
359.6279,21.5
359.6347,117.7
359.6451,723.5
359.6702,652.1
359.6784,384.4
359.7261,17.5
359.9016,240.3
359.9093,482.3
360.0114,41.2
360.048,28789.7
360.0741,185.1
360.099,118.7
360.2971,150.1
360.3246,200.3
360.3876,19
360.4845,108.9
360.4965,19.1
360.5154,80
360.6614,416.2
360.7488,226.6
360.8417,130
360.888,313.9
360.9104,350.2
361.0209,5418.8
361.0305,109.5
361.0489,1193.6
361.0699,118.3
361.1837,123.3
361.2744,1479.5
361.4182,180.3
361.4367,69.5
361.9582,8065.9
361.9662,238.1
361.9914,96.3
362.1073,296.4
362.1241,19.6
362.585,18.5
362.7729,83.2
362.82,39.8
362.9273,2601.7
362.934,376.6
363.0034,123.1
363.1006,98.8
363.1591,295.8
363.5551,20.1
363.6455,378.6
363.7336,225.7
363.8381,331.4
363.9483,35.4
363.9979,1258.9
364.0211,465.9
364.2576,502.2
364.6479,562.7
364.6664,457.3
364.9046,112.5
364.936,1135.9
365.0303,19.2
365.0633,160.7
365.1064,6789.5
365.3263,80.3
365.4555,417
365.6146,83.1
365.6417,254.6
365.6781,105.7
365.7907,144.4
365.8185,340.5
365.8925,220.6
365.9869,54.9
366.0304,371.9
366.0608,234.4
366.203,70.2
366.3596,358.6
366.6789,98.3
366.874,327.3
366.9498,419.8
366.9594,109.8
367.1206,553.9
367.1954,2319.4
367.2791,95.4
367.3785,20.4
367.486,111.8
367.992,970.4
368.002,142.3
368.1725,23.1
368.2263,501.5
368.3364,349.1
368.3974,389.6
368.6036,213
368.6258,247.5
368.9921,1445.9
369.0016,10830.3
369.0104,4767.5
369.0507,370.3
369.2112,366.8
369.2456,505.2
369.2546,639.5
369.2676,176.9
369.3521,64.1
369.4549,303
369.4845,202.2
369.8129,106.8
369.9956,455.8
370.0869,162.1
370.1961,103.9
370.2846,631
370.3725,87.1
370.5107,114.7
370.5902,216.7
370.7808,163.5
370.8264,136.7
370.952,183.5
371.0003,1431.2
371.0186,247.8
371.0787,428.6
371.0869,397.2
371.1291,223.8
371.4567,277.8
371.5375,651.4
371.5683,253.1
371.8209,96
371.8267,156.7
371.8925,438.3
371.9422,153
372.0456,224.6
372.1027,144
372.3251,20.5
372.3524,151.2
372.7092,19.6
372.7387,416.2
372.7524,568.2
372.8729,328.2
372.9966,203
373.0804,237.7
373.2467,160
373.4859,147.2
373.7796,346
373.8332,244.6
373.9505,76.8
374.043,229.6
374.1414,603.4
374.3079,232
374.3582,296.1
374.4041,469.6
374.4188,415.3
374.4832,170.2
374.7357,515.8
374.8442,359.4
374.9489,340
374.9845,72.4
374.9968,141.3
375.0097,111489.9
375.0186,77300.1
375.0394,249.5
375.097,201.9
375.1192,219.6
375.2398,20.2
375.2866,610
375.4841,145.9
375.5362,17.9
375.6213,101.1
375.6824,109.4
375.9653,34.1
375.9872,150.1
376.0129,8579.1
376.022,6678.3
376.0338,457.1
376.1545,188.4
376.1864,446.3
376.2183,301.6
376.2534,569.9
376.3634,318.3
376.4407,17.4
376.4531,782
376.4918,173.4
376.5733,98.8
376.8163,19.6
376.8737,22.1
376.9308,610.5
376.982,145.5
376.9948,849.7
377.017,3732.4
377.1878,122
377.2174,426.4
377.275,168.1
377.2861,18.4
377.297,529
377.3675,441.5
377.3884,226.4
377.4328,353.8
377.4635,18.5
377.6768,172.3
377.686,604.5
377.8341,237.8
377.9317,197.7
378.0344,70.1
378.0721,99.5
378.335,197.2
378.3456,273.4
378.545,140.4
378.6932,180.3
378.7318,18.9
378.76,425.9
378.796,194.5
378.9014,676.6
378.9916,25.7
379.0361,151.3
379.0852,211.6
379.165,105.2
379.3392,21.5
379.4699,196.9
379.5956,96.4
379.6596,456.3
379.8017,101.4
379.8422,16.9
379.8935,459.6
380.0828,261.3
380.4024,120
380.4312,304.4
380.5136,343.4
380.7707,1914.6
380.8217,222.9
380.855,307.8
380.8912,86.1
381.0141,16115.4
381.0266,181071.4
381.08,628.4
381.5773,130.8
381.6171,145.6
381.6628,117
381.958,97.1
382.0158,430.9
382.03,16839.7
382.0827,230.3
382.1805,189
382.2117,116.5
382.4444,155.7
382.4529,110
382.6633,346.8
382.7673,2461
382.9866,191.2
383.0172,108.5
383.0311,378
383.1169,393490
383.1388,242.2
383.1874,434.5
383.2013,61.9
383.2775,181.9
383.4348,200.8
383.5354,413.6
383.7854,167
383.8345,357.7
383.9663,1051.8
384.0002,20.2
384.1203,44815.9
384.1558,123.9
384.2709,137.4
384.4069,20.6
384.5139,183.1
384.5663,106.6
384.6268,159
384.73,20.1
384.7645,468.2
384.8052,229.2
384.9483,248
384.9776,228.9
385.0119,108.5
385.1207,5454.6
385.4299,344.5
385.5145,152
385.6854,409.4
385.8099,192.2
385.9445,26.4
385.971,205.3
385.9796,5151.3
386.1269,215.3
386.2392,246.9
386.2721,22.5
386.3526,340.5
386.6131,339.8
386.6507,142.9
386.7165,776.4
386.8901,136.7
386.9675,22.4
387.0026,481.7
387.031,109.1
387.0388,357.1
387.4027,111.5
387.5233,18.3
387.5508,68.5
387.5571,100.7
387.5683,163.7
387.6308,505.4
387.6601,150.2
387.8777,437.3
387.9129,88.9
387.9788,457.1
388.0446,79.4
388.2107,437.3
388.349,115
388.3735,67.7
388.713,814.4
388.7939,420.5
389.0578,149.6
389.1015,290.5
389.1509,105
389.1733,22.2
389.2355,443.8
389.413,208.9
389.5421,110.9
389.9742,31826.9
389.9951,22.6
390.0189,86.7
390.1527,112.4
390.1905,18.4
390.5754,19.6
390.7097,1009.8
390.7991,2009
390.8178,812.7
390.8536,395.3
390.8618,226.9
390.9007,381.1
390.9472,485.1
390.9747,11593.1
390.9835,16831
390.9925,8371
391.0004,397
391.0447,370.6
391.1073,249.9
391.1962,121.4
391.3355,343.2
391.4446,206.2
391.8167,71.4
391.9033,217.6
391.9342,104.5
391.9779,489.3
391.9922,22.5
392.0047,34.8
392.2793,342.8
392.3002,19.2
392.4118,20
392.5079,198.4
392.6426,145.7
392.7964,3229.9
392.8236,138.1
392.9029,284.2
392.982,736.1
393.113,104.5
393.3741,17.4
393.7691,91.8
393.9184,92.6
394.154,385.6
394.1649,404.6
394.3625,18.7
394.6406,327.9
394.7339,414.2
394.7928,1186.6
394.9574,22.9
394.9726,146.7
395.0335,434.9
395.0503,178.5
395.2244,139
395.3421,106.3
395.3767,187.2
395.5101,236.9
395.593,98.2
395.6255,19.7
396.0703,104.3
396.1161,602.4
396.338,375.1
396.5544,316.4
396.6688,421.4
396.7449,2012.9
396.7693,141.8
396.7758,219.8
396.8798,316.6
396.921,434.3
396.9916,157372.5
397.0005,49439
397.0499,474.3
397.0699,264.5
397.46,139.5
397.7065,81
397.7559,20.1
397.7707,254.2
397.792,19.1
397.8294,222.4
397.913,114.3
397.9465,143.4
397.954,113.5
397.995,13164
398.0042,2157.4
398.2424,5652.6
398.6772,423.9
398.6943,111.3
398.7418,4093.8
398.9299,447.7
398.9994,1201.5
399.1378,137
399.2916,384.2
399.3415,157.5
399.4035,607.9
399.5463,108.9
399.6012,62.5
399.7755,358.6
399.8321,156.5
399.9051,224.6
399.989,103.8
400.0092,73.6
400.0663,157.4
400.2314,647.1
400.2983,241.3
400.3833,160.1
400.4176,123.8
400.5195,71.3
400.6556,321.7
400.7388,1389.4
400.8138,20
400.8284,2989.8
400.9462,18
400.984,226.2
401.3385,235.1
401.4858,19.4
401.5014,468.9
401.5537,278.1
401.9534,451
401.9974,172.1
402.423,238.5
402.532,95.7
402.6091,158.5
402.8078,361.3
402.8252,2045.5
402.9344,339.6
402.9709,135
402.9902,404.3
403.0085,221040.5
403.3693,20.6
403.756,203.4
403.9371,378.9
403.9396,427.6
403.9436,428.1
404.0118,19992.9
404.1611,241.7
404.2132,20
404.6194,95.7
404.6874,428.3
404.8424,192.5
405.0151,574.7
405.045,427.3
405.2029,300.7
405.3077,102.6
405.431,115.9
405.5965,321.9
405.948,15214.2
405.9606,433.5
406.0894,191.5
406.134,304.8
406.2807,368.4
406.3301,1037.7
406.3461,118
406.4628,309
406.6759,20.4
406.6839,501.6
406.6978,101.3
406.7458,259.2
406.7733,982.5
406.8374,163.7
406.942,294.3
406.9529,497.1
407.163,471.1
407.2065,91.8
407.333,159.9
407.3724,16.9
407.3963,226.7
407.4316,428.3
407.9459,100.8
407.9559,288.1
408.0394,191.3
408.0468,579.8
408.4849,375.9
408.5481,102.7
408.7705,2965.7
408.9225,375
408.9337,605.3
408.9485,121.7
408.985,1238.7
409.0047,186.1
409.237,682.2
409.511,21.9
409.5581,266.1
409.7256,114.8
410.1427,20.2
410.2242,402.3
410.7323,19.2
410.7686,812.4
410.8565,1069.9
410.8867,108.6
410.9148,22.2
410.9697,44.7
411.1349,19.1
411.2944,155.8
411.3189,194.4
411.3356,311.8
411.3625,320.6
411.5099,23.5
411.6886,90.1
411.7679,161.2
412.0659,377.3
412.1037,570.8
412.1828,20.6
412.3102,306.3
412.3218,1849.8
412.3847,212.9
412.4,263.5
412.7186,421.6
412.8452,231.7
412.8533,1075.3
412.9651,27697.9
412.9747,7546.6
413.0228,364
413.267,3386.4
413.3249,146
413.4656,441.5
413.4746,68.4
413.5008,535.9
413.5803,128.9
413.7704,251.3
413.8025,223.4
413.8457,636.2
413.8917,95.8
413.9103,238.7
413.94,90.4
413.9807,492
414.1559,421.2
414.2706,348.6
414.5637,229.1
414.716,1307.1
414.9637,379.9
414.996,227.1
415.0267,238.9
415.0827,167.7
415.2091,18.5
415.2377,230.2
415.41,450.1
415.4635,319.8
415.5544,83.8
415.6777,495.5
415.7179,219.3
415.8095,208.2
415.8571,232.1
415.887,89
415.9753,240.1
416.0617,400
416.1359,17003.9
416.1965,184.8
416.2149,21494.2
416.3474,211.4
416.3862,90.5
416.4594,123.7
416.7127,987.8
416.7565,20.4
416.8021,648.5
416.89,81.8
416.9223,62.4
416.939,26.7
417.003,347.8
417.171,272.1
417.2176,1751.9
417.4328,318.5
417.5478,228.6
417.9082,99.1
417.9478,78.7
417.9622,20.4
418.01,210.4
418.1518,607.4
418.2528,469.9
418.308,105.2
418.3408,558
418.7996,910.4
418.8179,542.1
418.8285,20
418.8569,544.7
418.9825,69066.2
419.0536,84
419.1784,284.3
419.2562,1065.7
419.3062,111.3
419.4205,18.8
419.4536,19.7
419.7775,619.3
419.8225,648.6
419.9859,4078.1
420.0006,26.2
420.2444,101.4
420.6175,195.7
420.6598,363.1
420.7061,151.5
420.7956,149.2
420.8865,937.4
420.9124,335.8
420.9577,1515.2
420.9807,2489.2
420.9969,413.8
421.1727,399.4
421.4018,238.9
421.5553,223.4
421.7939,101.4
421.922,2475
422.3088,224
422.3729,133.4
422.4088,385.6
422.4881,223.9
422.5681,22
422.7229,569.9
422.8905,255.7
422.9553,498.1
423.0039,627.5
423.2348,253.6
423.3265,650.7
423.3981,152.6
423.4552,323.9
423.4627,235.4
423.603,94.6
423.6197,189.1
424.0682,571.2
424.1777,401.6
424.746,482.8
424.8326,299.5
425.1131,20.2
425.5981,228.1
425.6951,550.6
426.1064,652.6
426.3584,737.5
426.7297,111.2
426.8312,985.3
426.9061,381
426.9284,553
426.9421,176.7
426.9952,770.8
427.0069,242.2
427.1616,176.6
427.2601,325.4
427.3317,348.7
427.685,232
427.751,209.7
427.7754,19.2
427.9458,97.6
428.0219,219.3
428.0462,319.2
428.1869,350.3
428.2603,340.8
428.3779,97.2
428.6471,299.5
428.828,628.9
428.9381,3371.3
428.9532,98.1
428.9625,486.5
428.9729,840.9
428.9864,606.8
428.9994,332.9
429.0897,225.4
429.1493,117.3
429.1859,202.3
429.7709,517.6
429.9303,137.6
430.0469,187.5
430.0839,111.5
430.1994,95.5
430.2687,132.6
430.2907,328.5
430.5286,454.2
430.5736,24
430.692,167
430.883,580
430.9145,1751.7
430.9355,22.4
430.9932,17.7
431.046,603.5
431.127,346.8
431.2182,2262.2
431.272,110.1
431.5309,543.1
431.5646,350.9
431.7376,204.8
431.8155,98.8
431.9416,420
432.2222,188.5
432.3163,143
432.5702,100.4
432.6927,379.9
432.7064,95
432.8627,19.3
432.9978,291.3
433.0453,125.2
433.2511,25.4
433.6365,17.6
433.6661,160.5
433.6951,251.1
433.7021,173.8
433.9304,251.3
434.0903,542.1
434.1107,17.7
434.2016,125.6
434.4994,95.5
434.6242,214.6
434.7002,138.2
434.7737,524.6
434.8411,116.7
434.9566,8958.2
435.0246,21.5
435.2677,139.7
435.394,405.3
435.6124,94.1
435.7031,105.2
435.9996,769.4
436.0235,339.5
436.4698,191.3
436.5956,193.8
436.6396,20.3
436.6876,403.4
436.7146,17.4
436.7457,600.4
436.816,322.2
436.8519,20.6
436.8595,628.5
436.9831,20.2
437.2007,537.3
437.2451,369.9
437.4047,324.5
437.4852,155.8
437.4998,377.1
437.7051,200.3
438.1968,519.9
438.2966,150.7
438.4705,142.3
438.5867,19.2
438.6252,20.4
438.657,115.1
438.7133,224.2
438.729,700.6
438.7676,100.8
438.9727,1979.8
438.9854,3554.4
439.0973,111.3
439.1321,222.1
439.2618,499.1
439.5946,477.9
439.7717,198.6
439.8989,111.7
440.0304,389.3
440.1014,110.4
440.2163,214.5
440.2782,125.2
440.5498,444.4
440.6002,121.1
440.6822,338.7
440.7154,291
440.7261,916.9
440.7706,334.3
440.8132,195.4
440.8236,340.2
441.0418,403.7
441.1646,92.1
441.2311,291.3
441.2757,447.6
441.299,237.2
441.531,18.4
441.7288,208.2
442.0455,368.8
442.0909,307.7
442.099,456.8
442.2416,288.3
442.285,316
442.3013,25.7
442.4673,69
442.5804,483.4
442.7258,345.9
442.7685,314.3
442.7934,22.6
443.0986,596.8
443.2504,19.8
443.4549,313.8
443.6266,334.6
443.7378,180.2
443.7657,89.2
443.9158,583.7
444.0338,18.8
444.1343,153.5
444.2501,517.8
444.2799,102.8
444.7315,21.1
444.9116,107.7
445.0112,343.3
445.1885,232.2
445.3128,125
445.3338,66.3
445.4592,184.8
445.5508,158.1
445.6649,22.6
445.7561,287.4
446.155,353.7
446.333,98.6
446.3537,17.4
446.4425,252.4
446.5585,21
446.7209,18.8
446.8645,310.8
446.8887,484.7
446.9246,173.2
447.0243,440.6
447.0975,321.9
447.1805,18.3
447.2958,119.4
447.9329,3023.6
448.1704,545.7
448.5862,124.7
448.6184,106.2
448.6271,125.6
448.6582,19.8
448.7581,570.3
448.7848,543.2
448.7982,397.2
448.9337,3564.7
448.9866,121.9
449.0697,88.3
449.155,2366
449.6601,247.8
449.7855,95.5
449.8377,157.9
450.1146,22.4
450.1583,346.9
450.6393,629.1
450.6505,218.9
450.7555,1096.5
450.9064,145.5
450.9192,357.8
450.9353,517.8
451.1508,165.3
451.1863,136.7
451.2969,356.5
451.4264,237.3
451.5749,265
451.7705,143.1
451.9383,223.9
452.0769,22.1
452.5846,153.7
452.6648,379.7
452.7958,659.9
453.2421,93.3
453.2965,145.9
453.561,414.5
453.6707,333.2
453.7622,350.5
453.789,289.2
453.9733,79.7
454.0225,128.3
454.1829,631.2
454.2295,21.9
454.2416,87.3
454.2938,21.6
454.576,542.3
454.774,22.2
454.8204,18.8
454.9504,40991.9
455.0661,112
455.0838,119.3
455.157,373.3
455.2746,206.4
455.4008,151.5
455.5908,223.3
455.6558,105.3
455.7462,77.9
455.813,110.3
455.9536,966.6
456.1474,99.6
456.5314,294.9
456.7018,944.7
456.9473,11633.7
456.9737,484.1
457.1883,633.3
457.2015,116
457.2336,5132.6
457.5522,129.7
458.1338,22.5
458.2383,621.2
458.3744,65.9
458.6833,20.8
458.6984,1067
458.9615,3116.7
459.1065,131.3
459.2172,125.8
459.2491,227993
459.4022,243
459.673,385.9
459.8431,121.1
459.9085,17.7
459.9505,321.9
459.9696,398.2
460.2524,42750
460.3569,590.7
460.4046,133.3
460.5155,19.9
460.6936,629.8
460.8254,330.3
460.9383,209.9
460.9672,69507.8
461.1587,99.1
461.255,2840.3
461.265,645.2
461.4453,371.4
461.5636,111.4
461.6592,65.5
461.6731,142.7
461.812,447.7
461.9014,384.7
461.9705,5500.6
462.153,114.4
462.4405,318.9
462.7209,110.1
462.8407,116.3
462.9642,19532.3
462.9925,409.8
463.04,203.7
463.1157,17.8
463.1557,433.5
463.2048,436.3
463.3757,250.6
463.5276,273.5
464.0816,353
464.1812,341.7
464.3012,181.5
464.7316,883.2
464.7532,572.3
464.8369,124.6
464.893,559.5
464.9123,538.6
464.9787,7614.2
465.7164,216.5
465.7744,93.9
465.9148,19.7
465.9572,175.3
465.9825,458.6
466.9188,785
467.1286,20.4
467.1453,115.8
467.3197,703.5
467.6821,18.8
467.8166,484.2
467.8847,298.8
467.9068,374.2
467.9569,206.6
468.0108,297
468.0836,577
468.1081,278.4
468.1771,114.4
468.2534,142.5
468.2959,22.1
468.3103,886.6
468.4677,252
468.6198,155.8
468.7089,215.9
468.7265,361.3
468.7352,23.7
468.7652,173.3
468.9714,687.3
469.0167,166.8
469.0685,331.4
469.1499,109.1
469.1717,310.4
469.2561,599.3
469.44,166.9
469.7512,317.6
469.8093,102.8
469.8362,117.7
469.8701,361.8
470.0344,457.7
470.2377,195
470.3791,18.9
470.5962,113.5
470.7681,300.4
470.8411,202.3
470.9243,13872.6
470.9967,2638.9
471.1173,127.1
471.2953,64.6
471.3154,349.6
471.3453,20.7
471.4419,140.1
471.6067,104.6
471.627,166.3
471.7102,449.5
471.8346,18.7
471.9271,400.6
471.9431,189.7
472.2296,364
472.5829,388.2
472.6126,157.8
472.7749,320.4
472.9027,431.5
472.9212,3753.6
472.9424,122.1
472.9677,314.4
472.9965,192.8
473.3029,498.3
473.5986,451.6
473.637,20
473.7371,18.8
473.7683,126
474.17,238.7
474.3664,22.4
474.6125,589.1
474.6713,375.6
474.7483,131.3
474.8463,257.3
475.094,293.7
475.1574,172.5
475.2232,10091.4
475.3218,341.1
475.4022,220.9
475.4792,500.7
475.5607,207.6
476.1645,22.4
476.2261,1465.7
476.2846,388.4
476.4154,17.7
476.4331,109.6
476.5156,18.6
476.9412,36401.9
477.0538,629.3
477.0838,142.4
477.1011,20.2
477.2452,129.6
477.5979,682.5
477.8347,114.7
477.9229,76.7
477.9444,2015.7
478.0189,459.9
478.2403,225.8
478.3302,45738.4
478.5553,255.9
478.9386,10416.4
479.0032,137.1
479.3335,8670.4
479.7432,126.4
479.8019,21.4
479.8787,336.2
479.9056,208.9
480.2027,248.2
480.31,519.1
480.3416,292.9
480.3456,287.6
480.356,18.3
480.4416,356.3
480.9128,344
480.9528,1935
481.0922,1540.9
481.2325,431.5
481.4783,214.8
481.9623,468.1
481.9798,151.4
482.096,251
482.3056,590.1
482.4088,20.2
482.6782,109.4
483.0742,576.9
483.0946,173.8
483.1345,167
483.185,137.5
483.2492,46234.8
483.5839,20
483.7671,362.2
483.8809,109.3
483.9588,236.7
484.0965,66.9
484.1242,573.8
484.1707,234.2
484.2523,7587.7
484.3403,139.5
484.3783,20
484.4067,359.9
484.5473,89
484.5845,72.4
484.9903,369.1
485.2647,44278.7
485.3102,158.6
485.3775,310.6
485.4467,121.4
485.5403,82.6
485.9678,619.2
485.976,745.2
486.0135,203.3
486.1035,334.8
486.2682,8665.7
486.4281,455.3
486.7499,348
486.8981,1228.4
486.9828,549.3
487.1867,314.2
487.2033,528
487.2236,18.1
487.2804,53461.4
487.3847,156.3
487.4008,68.7
487.9179,194.9
487.9674,381.6
488.1091,314.2
488.2592,618.2
488.2837,9362.1
488.5435,21.2
488.6184,146.7
488.7439,126.4
488.9611,96.2
489.0513,21.6
489.0662,150.2
489.0874,20.8
489.1298,347.6
489.2443,375.8
489.2697,561.5
489.2877,403.6
489.3694,697.2
489.3888,150.8
489.4108,241.8
489.4529,478.7
489.4965,136.3
490.0783,207.7
490.195,123.4
490.2443,197.5
490.2917,3337.6
490.3901,116.5
490.6439,130.1
490.7576,499
491.0261,257.9
491.1182,107.5
491.2953,409.7
491.5764,85.4
491.7687,509.3
492.1307,18.7
492.162,141
492.4323,19.8
492.8777,82.9
492.8942,226
492.9151,4949.2
493.0548,417.9
493.8502,443.5
493.8612,19.1
494.1358,114.4
494.2279,104.4
494.3249,2293.5
494.3811,144.9
494.5678,140.7
494.7035,286.4
494.7519,288.9
494.9123,1842.6
495.028,214.1
495.0529,292.6
495.3051,200.9
495.4751,80.2
495.5235,128.1
495.9903,130.4
496.2152,97.4
496.2274,22.8
496.2495,20
496.2947,284.3
496.3407,228631.4
496.8189,310.2
496.9062,167.6
496.9326,277.8
497.3441,52260.5
497.4968,309.2
497.917,372.7
497.9706,152.4
498.0234,855.2
498.1005,20.9
498.3129,103.1
498.3474,3332.7
498.3767,90.6
498.4032,255.9
498.5001,141.4
498.6846,490
498.8883,21.1
498.9017,396.2
498.9298,426.2
499.105,120.6
499.2232,1692.5
499.27,89.6
499.5885,18.8
499.6565,76.3
499.6662,152.7
499.7951,770
500.0221,403.6
500.0964,281.2
500.1985,229.6
500.4333,113
500.4724,102.1
500.5396,460.4
500.6824,752.1
500.7095,288.2
500.8355,105.3
500.9846,282.9
501.2388,751.2
501.3928,111
501.4223,66.9
501.4768,216
501.6737,21.3
502.2693,382.3
502.33,16743.9
502.5706,177
502.691,271.1
502.9871,777.3
503.0907,107.4
503.1082,70.2
503.3331,2589.2
503.3485,256.2
503.3949,95.5
503.634,403.3
503.6921,18.7
503.7402,201.1
503.9837,109.9
504.0351,117.1
504.0991,18.3
504.1103,23.6
504.3057,1328.5
504.3457,6278.4
504.6274,545
504.8031,67.3
504.8222,125.3
504.8406,19.6
504.9141,280.5
505.2074,317.1
505.2328,416
505.3489,616.1
505.385,556.7
505.4932,19.6
505.5331,319.8
505.684,139
505.7471,149.5
505.8913,708.8
506.0517,125.7
506.1577,280.7
506.2669,667.2
506.3612,7458.9
506.4607,116.5
506.5729,217.7
506.6304,624.5
506.7379,20.6
506.8919,5904.9
506.929,650.9
507.0003,109.4
507.2194,154.7
507.2492,17890.9
507.3645,1182.1
507.4492,95.9
507.7521,91.2
507.8719,312.5
508.2527,1678.5
508.6243,348.4
508.6553,256.2
508.7134,824
508.7303,79.2
508.7797,580.5
508.841,170
508.8893,2945.9
508.9521,20.6
509.0054,4625.6
509.182,69.1
509.265,2869.2
509.351,875.1
509.3602,91.6
509.4062,212.1
509.7979,453.4
510.1147,95.5
510.1796,123.4
510.3204,210.5
510.391,134
510.5316,81
510.6049,18.5
510.71,381.3
510.839,250.1
510.9164,239
511.1254,34.3
511.6564,380.5
511.7831,221.1
511.834,96
511.8646,21.4
511.9046,640.9
511.9695,152
512.0332,222.3
512.0531,68.7
512.339,134.8
512.576,26.2
512.9091,19001.3
513.3092,491.2
513.5667,171.5
513.9121,423.5
513.9402,114.7
514.0867,317.8
514.1316,120.5
514.2104,211.3
514.3452,598.8
514.6574,496.6
514.8188,237.3
514.906,10443.6
514.9899,99.9
515.0213,616.3
515.2707,20.4
515.5796,90.1
516.2628,418.1
516.3069,6940.4
516.5845,274.2
516.632,585.7
516.6557,426.5
516.9048,422.4
516.9189,356.1
516.9513,242.6
517.0047,472.6
517.1018,589.9
517.1294,21.6
517.3097,643.7
517.3748,526.7
517.6213,149.6
517.7186,304.3
517.784,18.8
517.8345,402.3
518.1943,250.1
518.3227,375001.8
518.4092,157.7
518.4494,300.9
518.5334,365
518.7427,329.2
518.9258,30418
519.3261,88849.2
519.3454,268.8
519.7333,109.5
519.7889,115.4
519.9286,1566.2
520.0133,123.7
520.0994,142.6
520.1986,270.8
520.2768,331.2
520.3294,10392.2
520.3407,42143.5
520.4375,118.7
520.5969,233.4
520.6734,394.7
520.9228,18210.3
521.2437,172.8
521.2684,119.1
521.3439,9741.2
521.3987,87.6
521.9266,367.4
521.9625,123.7
522.0123,286.8
522.1166,96.1
522.2585,411.8
522.3563,48922.3
522.3713,308.1
522.5989,336.4
522.6886,98.9
522.7145,348.2
522.7346,439.6
522.7581,622.1
522.9204,969.4
522.9374,3759.3
522.9696,470.5
523.3598,10528.1
523.4059,157.4
523.4188,103.1
523.5117,211.4
523.7466,171.7
523.9275,237.4
524.0253,732.2
524.0478,67.8
524.0681,161.1
524.2501,143.5
524.2627,118.8
524.2915,23.4
524.3721,69952.4
524.4193,112.4
524.44,19.3
524.5126,526.7
524.6529,262.1
524.6873,516.9
524.7641,122.1
524.8236,74.7
524.9344,788.8
525.317,157
525.3316,207.3
525.3756,15694.8
525.481,102.4
525.8074,222.3
525.8189,67
526.0932,246.6
526.1554,337.6
526.3303,5455.8
526.3549,94.2
526.378,720.1
526.541,202.3
526.6851,338.7
527.1593,7958.7
527.3332,315.5
527.4425,140.2
527.5035,104.8
527.6815,22.1
527.8379,21.3
527.9437,264.2
528.1747,89.9
528.3407,342.7
528.883,6560.6
528.9548,992.9
528.994,128.7
529.2924,504.4
529.3259,99.5
529.4213,353.5
529.5749,278
529.5853,540.9
530.0827,222.6
530.1921,20.3
530.4348,132.1
530.6104,22.9
530.7878,251.2
530.8105,751.4
530.8805,3697.8
530.9392,256.6
531.0102,132.3
531.0713,427.6
531.0997,77.6
531.2501,677.7
531.4395,18.1
531.6084,18.7
531.6504,238.7
531.7334,619.3
531.7666,215
531.9571,159.8
532.1576,523.3
532.2808,600.7
532.3083,170
532.3378,2004.8
532.4357,654.3
532.9017,106.4
532.9159,658.9
532.9652,385.5
533.0336,199.2
533.0691,368.7
533.2455,144.8
533.4428,558
533.6067,143
533.9257,19.2
534.0372,373
534.2231,419.9
534.2967,83323.3
534.3169,987.7
534.6275,285.1
534.7167,636.7
534.8998,15480.1
535.0538,504.8
535.1513,135.4
535.2622,398.4
535.2842,589.1
535.3001,18750.3
535.4766,515.6
535.531,270.8
535.9013,402.1
535.9351,784.1
535.9723,198.4
536.1171,119.7
536.2374,159.8
536.2948,3026.5
536.3692,331.7
536.4225,86.8
536.4414,374.9
536.4984,497.9
536.5193,17.7
536.5917,402.4
536.8971,8688.8
536.9643,375.6
537.0071,286.8
537.1148,317.2
537.1431,214
537.1861,170.7
537.2952,691.1
537.4778,469.2
537.489,165.7
537.7669,355.7
537.9458,399.9
538.1532,86
538.4531,127.4
538.6115,798.5
538.7951,93
538.8121,22.4
538.8927,561.2
538.911,2079
538.9332,2005.6
538.9506,166.6
539.0145,232.7
539.1442,124.8
539.3007,17.1
539.3899,236.2
539.7629,190.8
539.9186,323.4
539.9497,431.5
540.0911,527.7
540.1588,21.4
540.2243,260.6
540.4281,227.1
540.629,151.1
540.6977,21.3
540.8403,584.4
540.9074,363
541.3265,21.2
541.4623,96.4
541.5453,175.8
541.7016,206.1
541.8716,336.1
541.9761,99.1
542.0442,23.3
542.1631,186.9
542.2544,225.9
542.3227,69532.4
542.4503,471.1
542.4681,635.1
542.4909,612.1
542.5408,430.5
542.7515,507.4
542.7847,124.6
542.9511,65.8
543.1412,106
543.3262,17562.6
543.6439,540.2
543.6485,550.7
543.7247,477.1
543.9972,19.3
544.1628,337
544.1798,489.7
544.2601,380.9
544.273,1009.5
544.3018,23.4
544.3385,82607.5
544.5481,263.8
544.6499,339.6
544.9493,1578.9
544.9949,347.8
545.0086,19.3
545.0383,426.5
545.3419,19988.6
545.4207,165.9
545.8928,20.2
545.9436,214
546.2604,635.3
546.33,25.1
546.354,101636.2
546.7039,443.2
546.8542,186
546.8985,634.2
547.2829,382
547.3576,24611.7
547.485,113.2
547.8192,210.8
548.0301,283.4
548.1361,226.1
548.3613,1292.5
548.379,263.6
548.5124,104.8
548.7209,340.7
548.8541,239
548.904,319.7
548.9333,272.2
548.9377,277.5
549.0825,313.9
549.1658,329.7
549.3347,135.8
549.3897,250.1
549.734,560.7
549.9189,20
550.2334,203.9
550.327,231.4
550.621,596.7
550.8737,2207.9
550.9095,675.2
551.542,572.7
551.7,19.3
551.8677,331.5
552.1618,653
552.346,412.3
552.3704,484.5
552.4771,328.3
552.4885,21.1
552.8707,976.8
553.1112,612.3
553.2047,207
553.2189,19.2
553.3179,127
553.6485,20.1
553.6717,18
553.8662,542.9
554.0465,203.8
554.1494,243.7
554.2459,341.2
554.324,416.6
554.5401,22.6
555.1333,121.9
555.1853,108.9
555.2056,374.3
555.4933,19.8
555.6422,20.7
555.7322,227.2
556.058,146.4
556.1966,215.6
556.2746,570.3
556.3202,231.1
556.9645,140.8
557.6509,470.8
557.9164,128.2
558.2968,13834
558.5083,242.4
559.2869,727.9
559.301,2885.7
559.5339,342.2
559.6757,247.4
559.7733,358.9
559.8873,363.5
560.3123,14260.8
560.4385,368
560.4518,354.9
560.4899,121.6
560.5318,156
560.7322,434.5
560.9165,603.2
561.2422,543.1
561.3158,2029.2
561.4126,705.5
561.4373,119.9
561.669,20.7
562.0548,209.8
562.071,227.6
562.3281,19327.5
562.494,110.1
562.6622,151.6
562.9399,367.8
563.3314,2839.6
563.4173,280.9
563.5959,160.1
563.6255,110.3
563.6548,20.5
563.782,781.8
564.0207,448
564.3874,289.5
564.4331,371.8
564.7766,352.8
564.8522,574.2
564.9208,130.3
565.0134,17.9
565.0743,440.1
565.2433,241.6
565.3603,155.2
565.4017,103.1
565.4962,372.2
565.6493,127.2
565.7983,398.3
566.1105,108.1
566.2676,21.2
566.3227,23443.2
566.396,23.2
566.4624,98.9
566.8227,137.2
566.8534,17.8
566.8947,498.6
566.9647,967.4
567.3261,3806.6
567.8957,99.7
568.3387,6028.1
568.5958,354.1
568.6541,338.3
568.923,793
569.3061,18.1
569.4093,101
569.6789,580
569.7291,140
570.0119,84.5
570.5625,83.5
570.8418,480.4
570.8677,6738.5
571.2806,341.4
571.7937,609.3
571.9784,378.6
572.0998,145.5
572.3701,451
572.7356,129.6
572.7738,102.2
572.8652,7395.5
572.9089,435.7
572.9812,496
573.0299,551.8
573.2897,94.2
573.5939,128.5
573.7275,19.7
573.7928,21
573.9358,307.2
574.2841,1193.4
574.5653,438.8
574.6802,324.6
574.8193,202.6
575.0001,106.3
575.0283,618.6
575.1434,99.7
575.3906,179.3
575.4318,692.9
575.5047,12912
575.5421,21.6
575.6591,175.9
575.8291,113.6
576.1064,165.4
576.1657,564.1
576.1805,192.7
576.2813,4743.1
576.5088,833.1
576.5247,166.8
576.6637,372.7
576.8847,10714.4
577.4686,469.8
577.4778,270.7
577.5204,1507.5
577.7721,137.6
578.2219,17.5
578.2349,374.3
578.2751,383.8
578.6069,223.2
578.8819,8543.2
579.0169,448.7
579.1563,20.5
579.3789,313.5
579.6716,89.1
580.0132,238.3
580.1453,164
580.3871,663.2
580.4525,342.2
580.8785,1946.4
580.8958,2033.6
581.0369,147.1
581.1316,559.6
581.592,631.2
581.6162,466.6
581.6421,215.8
582.0249,315.7
582.0785,116.2
582.2968,2994.4
582.3205,155.8
582.38,475.4
582.3985,205.4
582.4241,239.9
582.4442,234.6
582.4614,779.7
582.4942,135.6
582.5566,191.2
582.5704,20.5
582.5942,725.1
582.6289,459.8
582.6686,17.7
582.8227,21.2
582.893,1065.3
583.039,19.7
583.1101,109.6
583.2541,231.8
583.3021,645.3
583.3985,185.3
583.4568,89.5
583.5119,252.3
583.5421,249.4
583.5913,217.7
583.8715,326.2
583.9275,260.6
584.0507,346.4
584.3557,19.6
584.3986,19.2
584.4902,92.9
584.5326,258
584.5624,120.2
585.0271,102.9
585.1546,92.6
585.169,121.9
585.2724,439.9
585.5495,477.9
585.5964,149.6
585.6465,633.8
585.7965,258.3
585.9314,158.2
585.944,84.3
586.1211,148.9
586.3102,3640.7
586.4285,86.2
586.6691,470.8
586.8422,2119.1
586.9136,475.2
587.0009,235.2
587.0925,110.8
587.3559,133.1
587.3607,111.5
587.6571,140.5
587.8471,349.4
587.9574,23.1
588.1007,202.9
588.3757,523.3
588.6129,347
588.8389,2136
588.9112,803.5
589.4701,223.8
589.6782,132.4
589.7036,207.9
589.9847,333.5
590.0712,119.7
590.0868,117.9
590.3238,2818.4
590.483,142.6
590.6354,568.1
590.6543,130.8
590.7377,348.8
590.7597,126.6
590.8359,1443.3
591.0434,382.7
591.0936,132.3
591.4062,257.7
591.5144,247.7
591.7176,478
591.8102,341.9
592.0766,149.3
592.6131,143.4
592.8587,5157.7
593.0712,385.8
593.0954,235.5
593.3109,370.8
593.3434,285.9
593.7439,86.8
593.857,22
593.9938,269.3
594.3785,367.8
594.4844,373.2
594.8424,712.4
594.8559,4967
595.15,662.8
595.3573,19
595.4817,502.8
595.7176,412.8
596.4113,1186.2
596.4322,20.8
596.4664,16.8
596.7666,120.3
596.8525,1337.8
596.8693,347.6
596.8979,298.8
597.4486,2452.6
597.4864,8870.7
597.5078,102.9
597.7248,559.5
597.7313,561.5
597.8903,437.2
598.2194,372
598.2433,327
598.4581,102.1
598.4902,2029.4
598.9834,17.9
599.4383,126.5
599.4674,1160.5
599.5044,3793.3
599.7299,169.5
600.2452,102
600.2797,341.2
600.5079,124.1
600.7141,341.8
600.8103,190.8
601.0554,80.7
601.4353,19.5
601.5196,1243.8
601.537,24
602.003,210.3
602.5204,258.7
602.6849,304.6
602.7253,379
602.7753,95.9
602.8601,74.1
603.1627,18.9
603.2712,23.6
603.5356,859.7
603.779,121.6
604.1158,98.9
604.314,425.4
604.8113,404.4
604.9059,612.6
605.1132,257.6
605.4969,320
605.5514,102.6
605.8466,580.5
605.8743,95.9
605.9247,223.7
606.1218,194.7
606.1532,611.7
606.2178,292.1
606.4138,514.2
606.8541,350.9
607.0312,146.4
607.1716,5840
607.3583,311.9
607.4483,107.1
607.4839,258.5
607.6467,462.1
607.8763,149.6
607.9741,97.4
608.0622,592.5
608.1751,467.3
608.3097,103.1
608.3318,228
608.3883,24
608.5294,112.1
608.8328,1778.6
608.9441,150.8
609.0853,98.6
609.5252,122.1
609.6623,108.2
609.7363,20.3
609.8592,374.1
610.2207,378.2
610.4423,120.7
610.6361,125.7
610.6863,150.3
610.8316,899.6
610.9694,109.7
611.5412,102.3
612.179,109.1
612.2543,168.6
612.3025,452.5
612.5122,266.3
612.5713,752.2
613.0007,19.6
613.0412,98.6
613.1628,248.8
613.2029,82.4
613.2173,19.2
613.2889,17.9
613.4228,395.6
613.4518,262.9
613.5175,155.6
613.7016,198.2
613.8906,170.6
613.9994,217.8
614.2411,572.9
614.8806,543.4
615.0603,290.2
615.7477,331.5
615.7794,429.6
615.8336,309.3
615.9182,19.9
616.149,125.2
616.3452,101.1
616.4094,212
616.5313,372.4
616.5669,368.6
616.6815,108.5
616.8751,254.3
617.1182,119.2
617.1322,575.4
617.294,380.2
617.3563,128
617.4769,2402
617.9169,416.7
618.4996,112
618.6462,161
618.8403,158.1
618.9213,398
619.4076,152.2
619.4387,643.7
619.4733,416.5
619.4926,3095.5
619.6443,284.9
619.8221,465.8
620.1757,20.9
620.2904,218.1
620.4387,451.4
620.4977,337
620.687,669.1
620.7529,123.3
620.9038,341.5
620.9676,364.9
621.1942,23.8
621.4514,1519.2
621.4867,7747.2
621.6286,78.4
621.7516,359.6
621.8889,195.5
621.9369,20.3
621.998,286.5
622.2444,123.7
622.4223,152.8
622.4688,684.4
622.4896,1444
622.9452,240.3
623.0554,125.1
623.1369,19716.8
623.2183,72.8
623.3296,371.4
623.4393,166
623.4533,472
623.4738,394.8
623.4788,400.6
623.4853,247.8
623.5043,1882.6
623.5756,857.5
623.6053,559
623.9501,218.6
624.1405,2711.2
624.8073,1059.2
624.8787,40.1
624.9242,380.4
625.0296,502.8
625.5211,433.5
625.8268,661.4
626.2852,82.6
626.5008,122.9
626.5436,67.2
626.7143,119.1
626.882,194.9
626.9911,121.2
627.4093,125.6
627.5364,1791.9
627.6047,19
627.8911,124.5
628.3564,20.7
628.4301,492
628.4784,133.1
628.5405,243.1
628.8258,360.8
629.1538,40413.2
629.46,116.6
629.5385,431.2
629.5522,81.7
630.1577,7858.6
630.5203,76.2
630.5352,265
630.6167,130.9
631.1307,416.5
631.1602,487.3
631.2225,112.4
631.4092,19.2
631.9187,363.7
632.0578,575.8
632.8387,225
633.0582,214.2
633.3523,184.9
633.5686,69
633.6344,585.8
634.0093,85.8
634.4248,149.1
634.5161,533.3
634.5975,147
634.7454,427.2
634.8432,2843.3
634.8804,500.4
634.918,672.4
635.1987,205.5
635.4056,136.7
635.5394,140.2
636.1358,18
636.8408,4151.9
637.0186,524.7
637.0352,216.7
637.2949,84.7
637.4719,124.4
637.5348,389.2
637.8595,123
637.9697,331.1
638.0735,291
638.1013,842.4
638.4017,655.2
638.6819,147.8
638.7231,384.6
638.8372,1372
638.9404,192.6
639.1121,168
639.4531,699.8
639.8329,22.7
640.3244,90.7
640.8303,432.6
641.1275,329.9
641.4725,279.3
641.5057,235.7
641.7135,478.5
642.0866,77.4
642.0918,134.4
642.0968,116
642.3232,245.8
642.8875,471.1
642.9488,403.2
643.0274,269.2
643.1216,598.3
643.162,22.3
643.675,187.4
643.8735,19.2
644.1482,112.6
644.4046,157.4
644.6177,185
644.6394,121.5
644.8553,88
644.9677,139.8
645.0167,174.5
645.1187,13803.2
645.1741,234.3
645.322,401.6
645.4844,670.8
645.5577,735.9
645.6804,623.8
645.7845,404.3
645.8255,142.8
646.1229,2467.1
646.15,394.3
646.4302,812.2
646.6366,190
646.7981,440.5
646.8641,62.9
646.935,413.1
647.0964,291.6
647.1211,142.4
647.386,106.5
647.5701,117.8
647.862,92.1
647.9095,233.6
647.9504,467.7
648.0508,388
648.0993,382.9
648.1187,98
648.1298,101.3
648.3018,122.1
648.4317,196.6
648.5572,102.9
648.6822,98.9
649.2548,98.8
649.6216,20.4
649.6786,505.8
650.4436,629.7
650.5305,133
650.5491,21.4
650.8175,1158.2
650.8899,19
650.9745,108
651.0601,223.5
651.1358,39076.9
651.5082,116.5
651.539,202.6
651.8431,240.4
651.899,133.2
652.1392,7990.4
652.4951,226.5
652.5867,471.9
652.8141,2397.4
653.0312,166.8
653.1122,1186.2
653.1434,475.1
653.3883,26.4
653.4753,20.5
653.7377,234.3
654.045,109.3
654.1516,206.9
654.17,245.5
654.4516,160.5
654.5564,179.5
654.5969,348.7
654.6117,210.8
654.7037,984.9
655.1069,22.2
655.4124,678.7
655.9395,154.7
656.0882,118
656.2496,412.9
656.317,208.5
656.4579,336
656.7037,255.6
656.8253,324.9
657.2382,88.4
657.6696,18.4
658.0677,675.2
658.1588,390.4
658.4303,841.3
658.5739,327.5
659.165,119.4
659.5662,119.3
659.9644,533.7
660.0232,514
660.0834,4220.1
660.6044,18.4
660.9411,110.5
660.9924,403.8
661.0832,5770.6
661.6459,19.8
661.706,306.4
661.9665,100.1
662.0887,547.5
662.713,377.2
662.7486,440.2
662.7706,206.3
663.0935,113.8
663.2459,292.4
663.4554,612.9
663.92,244.2
664.3871,458.3
664.4691,2868.2
664.5374,145.2
664.6168,18.9
664.9959,269.2
665.254,196.9
665.3357,147.6
665.5022,300.2
666.1739,191.8
666.4068,104.3
666.4839,2146.7
666.5046,375.1
666.8218,311.2
667.1004,16414.6
667.3925,254.8
667.5363,241
668.1036,1606.4
668.4979,365.1
668.5638,121
668.7884,422.4
668.9786,114
669.0775,119
669.0993,99.3
669.2338,441.8
669.4351,20.6
669.4951,833.7
669.5634,22
669.6349,618.3
669.8541,147.9
669.9462,439.9
669.97,634.3
670.3188,166.9
670.5003,765
670.6104,479.6
671.1263,271.7
671.2336,94
671.4571,114.2
671.569,100.8
671.7831,115.3
671.8937,217.2
671.903,325.5
671.9115,401.6
672.2786,22.2
672.4276,26.4
672.6077,130.2
673.1178,43419.4
673.3565,192.7
673.4589,239.4
673.8773,20.8
674.1216,8027.9
674.7657,147.5
675.0937,179
675.1233,344.6
675.5452,7219.7
675.813,337.1
675.872,216.1
676.0214,114.5
676.048,4599.2
676.4764,130.3
676.5489,680.1
676.845,864.9
676.9186,115
677.0485,83
677.0982,23.8
677.4345,413.4
677.5381,23.5
677.6228,19.5
677.7669,357.7
677.7944,160.5
678.0696,135.5
678.2208,625.3
678.8282,481.1
679.055,97.3
679.1224,130.8
679.4669,538.3
679.5279,17.9
680.0668,245.2
680.364,351.4
681.2086,221.9
681.7936,220.6
682.0654,11427.1
682.0847,20.2
682.1427,346.8
682.1985,535.9
682.3982,693.5
683.0651,4752.6
683.3477,472
683.4353,554.1
683.4535,443.4
683.5488,718.6
683.9874,107.5
684.0882,140.9
684.2369,18.9
684.4999,111.7
684.6065,368.2
684.8669,365.6
685.0287,19.4
685.072,162.8
685.3397,556.7
685.4369,4686.2
686.4389,549.1
686.4618,82.8
686.792,104
686.9544,127.6
687.2508,141
687.4054,16.6
687.4094,16.5
687.4412,410.7
687.6432,351.5
687.6604,71
687.6912,79
688.2309,115
688.4978,579.9
688.9792,363.1
689.082,14119.5
689.0905,9913.5
689.5191,431.3
689.5618,912.7
689.6909,19.4
689.7153,143.7
689.7853,118.4
689.8714,83.6
690.0113,162.6
690.0862,963.2
690.0958,959.5
690.3201,232.9
691.0124,101.7
691.088,126
691.3523,24.6
691.657,19.9
692.097,126
692.1798,344
692.2652,313.6
692.5241,581.9
692.801,387.8
692.982,18.4
693.4687,685.6
694.1476,98.1
694.5181,184.6
694.621,102
694.8023,627.6
694.85,416.9
695.0999,28705.8
695.1543,566.1
695.4616,1238.9
695.5126,1630.9
695.6329,89
695.8117,603.1
695.8273,146.1
696.1034,5320.9
696.1259,195.3
696.5133,863.4
696.5425,196.1
696.9457,23.5
697.1027,172.5
697.3409,18.1
697.5271,8870.2
697.5784,253.3
697.6177,131.1
697.8645,143.8
697.9088,629
698.0071,124.9
698.0298,2774.3
698.1441,408.3
698.4734,71.4
698.4965,117
698.5295,3992.1
698.8654,579.4
699.0634,137.7
699.0909,509
699.1644,242.6
699.275,488.4
699.3785,622.4
699.4139,321.4
699.6081,21.1
699.724,472.5
699.8499,78.1
699.8862,126
699.9228,467.9
700.5897,24.9
701.3464,21.1
701.406,882.7
701.4756,238.7
701.5606,27813
701.6415,354.5
701.9708,443.4
702.1933,89.2
702.3435,2543.4
702.564,8763.7
702.7203,132.4
703.1442,415.3
703.4365,547.2
703.5766,54292.6
703.6085,475.1
704.0474,6003.1
704.3653,99.9
704.5256,454.7
704.5799,21730.5
704.7999,389.3
705.0566,1466.4
705.5822,2087.7
705.7436,148.2
705.9542,388.9
706.0121,428.3
706.3603,528.2
706.5395,1058.1
707.0326,22
707.0572,100.4
707.5145,364.6
707.8423,626.7
708.1267,110.8
709.1805,163.4
709.7845,298.1
710.1378,151.7
710.5932,443.8
710.6849,145.6
710.7729,1171.7
711.0636,9069.3
711.075,9105.8
711.1996,431.2
711.5436,3185.8
711.7238,319.2
711.9252,371.8
712.0773,874.6
712.5225,260.7
712.5367,118.8
712.7687,448.2
712.8393,212.9
712.9951,125.6
713.0745,90.5
713.2542,179.7
713.2907,641.1
713.3083,108
713.523,245.4
713.5359,217.4
713.6018,110.8
714.0886,329.2
714.1237,296.4
714.5055,23.2
714.5794,232.9
714.8205,410.5
715.2064,600.4
715.4999,352.5
715.5361,215.1
715.7168,196
715.8215,379.8
716.3965,363.1
716.664,428.7
716.8443,19.6
716.9394,192.6
717.0818,14925
717.1284,21.5
717.5921,278.9
718.0853,2404.9
718.2194,499.7
718.3284,730.9
718.9157,19.1
719.086,171.5
719.3992,473.6
719.4665,426
719.6767,99.4
719.8402,135.9
719.9486,122
720.0122,988.5
720.0223,1123.6
720.071,125.1
720.1586,290.8
721.1876,639.4
721.2516,68.7
721.2986,378
721.4798,48216.5
721.5533,21.4
721.6056,521.9
721.8133,19.1
722.2208,469.2
722.4829,19669.1
722.7345,118.9
722.9545,22
723.0623,252.4
723.117,161.8
723.3025,606.6
723.4279,509.1
723.4957,8110.9
723.5428,28384.5
723.8041,591.2
723.9505,157.7
724.2109,112
724.3231,569.6
724.4974,2474.9
724.5457,8678.9
725.0435,66.3
725.0662,233.7
725.5587,52169.3
725.7455,84.5
725.8141,343.3
725.9065,26.5
726.0293,3158.8
726.3095,157.8
726.4141,340.2
726.506,692.7
726.562,20852.5
726.6429,353.6
727.0285,1354.9
727.0408,829.9
727.1521,117.1
727.2217,110.2
727.2379,229.9
727.465,98.1
727.5652,3115.2
727.5934,98.3
727.6651,25.6
728.1716,255.1
728.523,2519.9
728.7341,342.8
728.8721,678.2
729.072,343.3
729.1318,21.9
729.2833,111.9
729.4961,96
729.5915,7883.7
729.9938,597.9
730.5398,11881.8
730.5956,914.3
730.6416,582.4
730.6845,99.1
730.7114,132.2
730.7913,507.7
730.9824,86.2
731.1125,539.1
731.1376,414.3
731.1577,19.6
731.5436,3372.6
731.5762,230.6
731.6084,2599.9
731.7842,118.2
732.0059,419.3
732.3378,113
732.5556,53689.7
732.6902,197.2
732.7574,253.3
732.8648,231.7
732.9465,112.6
733.0457,6271.6
733.1264,353
733.5592,21159.3
733.6228,407.2
733.8668,191.4
734.047,145.9
734.0623,206.1
734.1087,63.6
734.5444,22.6
734.5723,4301.9
734.9837,317.7
735.0072,433.4
735.5738,1794.9
735.7334,301
735.9842,270.5
736.26,161.9
736.3563,267.2
736.5547,457.4
736.9058,225.3
737.2919,471.6
737.316,309.8
737.4523,7068.1
737.55,321.4
737.6208,533.4
737.8697,103.8
738.4577,2848.4
738.4923,253.3
738.6737,142.5
738.9487,1094.9
738.9757,24.6
739.0071,488.7
739.0641,9208
739.5166,1478.6
739.5577,92.2
740.0682,1053.6
740.4872,424.6
741.0787,245
741.1001,233.9
741.449,221.2
741.5322,6238.4
741.7128,119.9
742.0046,345.4
742.324,151
742.3765,218.1
742.5362,1312
742.5759,2141.9
742.6773,219.2
742.7519,166.9
743.0987,96.3
743.3725,722.7
743.3937,218.8
743.4649,949.1
743.5364,102.9
743.5815,87.2
744.0035,359.5
744.1371,136.9
744.2211,564.5
744.3346,132.1
744.5564,3024.7
744.5919,2616.6
744.7229,314.1
745.039,391.8
745.3463,103.6
745.4797,29619.2
745.5942,569.5
745.756,23.1
745.7928,24.5
746.014,153.5
746.0418,146.8
746.3366,699.9
746.4831,11930.6
746.5721,4239.2
746.6083,1032.5
746.9972,125
747.1667,438.4
747.4954,8427.5
747.5749,79.3
747.6127,350.5
747.9414,234.1
748.0097,1002.5
748.08,774.2
748.4978,711.3
748.5656,146.6
749.0213,189.4
749.1555,311.6
749.3649,149.5
749.5112,4893.3
749.9811,91.8
750.0141,371.3
750.3529,21.7
750.5163,164.8
750.5542,795.9
750.7168,271.9
751.3464,244.4
751.3688,347.8
751.5744,2224.7
751.6866,407.1
751.816,154.8
751.8971,111
751.9818,364.1
752.0196,218.1
752.2094,19.1
752.2525,137.1
752.2929,134.3
752.5215,10461
752.5545,106
752.7139,187.6
752.7583,453.4
753.0651,167.7
753.1069,18.3
753.1374,597
753.1793,146.8
753.2144,22.7
753.5058,434.7
753.5247,1443.6
753.8511,582.9
753.9205,92.8
754.152,111.8
754.5381,42008
754.9375,380.5
754.9681,162.2
755.0258,2116.4
755.0398,2757
755.4907,747.3
755.5413,17059
755.6129,69.2
756.0404,367
756.2509,157.4
756.2792,403.8
756.345,364.9
756.4901,314.6
756.526,257.1
756.5555,47800.6
756.6292,289.2
757.0531,715.1
757.559,20740.1
757.6241,1344.7
757.6868,248.3
758.2119,560.7
758.2907,514.7
758.3248,103.6
758.5316,325.7
758.5713,917696.2
758.6281,298
758.9393,486.7
759.151,107.5
759.5468,185.7
759.5747,400186.4
759.6398,796
759.6677,135.7
759.8237,491.3
759.9296,370.5
760.139,169.7
760.572,40804.5
760.5878,329895.1
761.0457,3358.9
761.2753,96.9
761.4534,1586.5
761.5906,155730
762.1232,157.6
762.5936,33042.6
762.7164,350.9
762.7773,253.9
762.9017,116.8
763.0352,91.5
763.4139,188.7
763.4488,560.8
763.4706,576.3
763.5964,1713
763.6408,496.3
763.809,17
764.5578,977.2
764.8578,95.4
764.9752,415.7
765.2507,21.6
765.3172,422.6
765.5232,84.4
765.5427,60
766.0082,340
766.0822,123.4
766.5386,840
766.5759,19429.1
766.9856,626.5
767.1365,92.2
767.5425,853.8
767.58,5350.4
767.7068,245.5
767.9209,19.6
768.1554,84
768.555,4740.4
768.5923,26496.1
768.9033,105.3
769.0249,125.9
769.1477,89
769.177,146.9
769.3646,91.3
769.4803,6123.2
769.5573,237.3
769.5953,8251.4
770.0471,625.9
770.2068,251.3
770.4834,1857.8
770.5105,1927.9
770.5557,741.7
770.6098,1488.9
770.8977,419.4
770.9939,2167.5
771.4948,860
771.5138,322.9
771.6123,359.5
771.7578,488.5
772.1677,279.1
772.2525,464
772.3787,68
772.4586,373.3
772.587,9801.9
772.6203,189.5
772.8822,305.4
773.0518,150
773.5107,1217.1
773.5907,1587.4
773.7219,120.2
773.9493,98.9
774.1692,141.4
774.5692,311.4
774.6027,389.8
774.8546,199.5
774.9226,118.7
775.3241,120.7
775.6078,94.9
775.7342,150.7
776.3814,316.3
776.5224,4430.8
776.8666,73.4
777.0096,2481.8
777.0398,572.3
777.2563,210.5
777.5232,616.6
777.5438,1490
778.0089,376.1
778.0462,804.1
778.2873,140.5
778.5378,29625.2
778.9036,345.9
779.0171,73
779.0534,566.2
779.3392,119
779.541,12017.1
779.6984,102.1
780.2529,148.9
780.3545,693.5
780.5534,575451.8
780.8463,530.6
781.4188,93.4
781.4718,193.5
781.497,196.5
781.5569,258963.5
782.0541,345
782.2001,547.2
782.4149,147.7
782.571,684668.4
783.0276,4085.5
783.1042,282.9
783.3131,19.5
783.5744,324488.8
784.1148,103.6
784.1229,137
784.291,632.2
784.3896,362.8
784.5719,35457.6
784.5879,234715
784.6381,309.8
785.5465,268.5
785.5909,120461.6
785.6551,3921.9
786.5686,152.6
786.6032,231402.7
786.6579,1997.3
786.8744,229.4
787.208,598.9
787.3097,104.1
787.6063,107415.1
787.6724,1296.9
787.8126,26.4
788.2333,543.4
788.5587,5823.2
788.6063,18784.5
788.6217,11361
788.6748,472.2
789.0229,106.8
789.0706,198.4
789.562,1910
789.6227,5994.2
789.9468,20.6
790.0475,914.6
790.5527,1271.4
790.5749,9524.9
790.6257,1136.4
791.0511,570.9
791.0951,115.5
791.2615,19.4
791.5755,2812.9
791.6112,585.4
791.6567,442.2
792.0603,575.7
792.4435,593.8
792.464,335.7
792.5918,9208.1
792.7964,227.2
792.9277,119.4
792.9854,142.1
793.0643,402.1
793.1361,303.8
793.2057,220.2
793.4436,175.4
793.5184,808.9
793.5962,2218
793.6985,680.2
793.7672,18.4
793.8656,514.4
793.9832,19.2
794.3507,362.3
794.512,4450.4
794.5686,3784.1
794.6078,28367.4
795.5793,563.7
795.6113,11499.7
795.9314,104.8
796.2311,23.9
796.2818,365.7
796.4476,94.7
796.5272,93152.6
796.587,5442.4
796.6244,3559.8
796.7833,109.4
796.9607,158.5
796.9914,68.6
797.0962,342.8
797.2339,83
797.3959,402.7
797.5305,39528.6
797.5897,1013.2
797.6275,281.8
797.9455,269.4
798.2912,346.2
798.3761,107.5
798.5442,23522.5
798.6966,363.3
798.9619,314.2
798.9998,250.6
799.0756,409.2
799.1067,418.3
799.5468,8209.5
799.6711,760.5
799.8091,98.1
800.0379,648.5
800.1089,134.3
800.2008,298.2
800.549,673.2
801.1459,426.5
801.5615,514.6
801.6684,232.9
801.6873,130.2
801.7429,1012
801.7825,129.2
802.0449,527.4
802.5375,36209.4
802.5728,20.2
802.9603,89.9
803.5413,15781.2
803.786,113
803.9525,21.6
804.3313,478.3
804.5534,316138.7
804.661,444.6
805.0136,388.2
805.106,23.2
805.2631,235.6
805.5567,144592.9
806.0371,246.1
806.1949,403.7
806.5708,252466.8
806.7408,96.7
806.8398,440.4
807.514,711.8
807.5739,124559.7
807.638,1140.6
808.5866,189106.6
808.9699,128.7
809.145,395.7
809.3843,282.4
809.5191,79.5
809.5897,93083.1
809.6552,1115.5
809.7517,130.2
809.8996,352.3
809.9388,30.5
810.2603,95.3
810.405,223.3
810.6033,144151.7
811.0443,21.1
811.443,149.7
811.6062,72620.7
811.671,7674.7
812.0037,163.1
812.1167,239
812.469,456.3
812.6048,9134
812.6213,19831.8
812.674,2900.7
813.1785,91.1
813.5249,21.4
813.5888,650.4
813.6228,11169.3
813.687,6551.6
814.2332,240.3
814.5952,139.2
814.6229,823.6
814.6892,1748.5
815.1184,237.1
815.5431,107.2
815.7028,512.6
816.1446,298.5
816.2847,390.5
816.3622,147.4
816.5896,10670.5
817.3055,86.5
817.5933,1789.2
817.7793,309.4
818.1383,175.1
818.5111,3091
818.5666,495.7
818.6065,1212.8
818.9998,18.1
819.1746,256.6
819.2142,479.1
819.3079,107.2
819.6078,617.6
819.6882,19.8
820.5273,54403.8
820.5699,373.4
820.6277,622.3
820.798,22
821.2291,1073.2
821.5306,25526.8
821.5715,237
821.8422,20.1
822.1657,553
822.5045,20.7
822.5438,19248.1
822.6449,133.7
822.9605,398.1
823.0426,420.8
823.1206,116.4
823.5464,4840.1
823.5808,205
823.6895,137.5
823.8959,682.2
824.2443,19.7
824.4059,111.2
824.5588,15402.4
824.5881,198.2
824.617,1012.1
824.6553,101.1
824.7053,18.5
825.4612,114.8
825.5621,3783.2
825.7801,315.7
826.5843,107.2
827.1629,402.5
827.6635,242.5
828.2586,551.4
828.5534,78233.9
828.586,333
828.6208,604.2
828.6758,330
828.882,142.8
829.1514,649.6
829.4691,241
829.557,37145.3
829.6162,134.5
829.6984,912.8
829.8208,785.7
829.911,312.7
829.9496,118.1
830.0715,604.9
830.3012,18.4
830.3687,642.3
830.4894,553.1
830.5701,52028.8
831.1285,70.8
831.5728,27568.4
831.7051,130.8
832.2287,21.3
832.3293,115.1
832.4849,414.3
832.5071,227
832.5856,66386.3
832.634,453.4
832.66,547.3
832.9721,185.5
833.2508,124.8
833.324,22
833.5283,112.2
833.5888,32339.3
833.6496,298.1
833.7497,114.6
834.0058,266
834.2725,20.9
834.603,28490.2
835.0413,22
835.1898,143.6
835.2754,668.1
835.6064,11824.9
835.6678,290.6
835.7229,580.6
835.7542,106.1
835.9816,451.5
836.1391,188.7
836.3307,386.4
836.4243,360.9
836.6201,4029.5
837.1568,156.4
837.5849,106.4
837.6225,1497.3
837.6742,633.8
837.8624,137
838.3405,121.1
838.513,2592.1
838.6354,735.1
838.8543,164.4
839.1161,18.6
839.1454,627.7
839.2458,113.9
839.3159,23.2
839.5162,544.9
839.64,112.4
839.8045,40
840.0338,154.3
840.4062,569.2
840.5022,266.1
840.7669,878.1
840.7866,432.6
840.9445,131.1
841.3227,242.2
841.6059,100.5
841.9668,763.6
842.5372,22.8
842.8061,365.4
842.8563,83.7
843.0259,369
843.1884,384.2
843.5859,104.3
843.6694,143.5
844.5276,9250.3
845.5296,3672.2
845.6705,535.8
845.9101,138.7
845.9849,90
846.0688,104.2
846.5432,4117.5
846.8557,107.3
846.9871,352.4
847.45,118.3
847.5469,1675.1
848.5585,8145.4
848.6893,103.6
848.9248,442.2
848.9652,144.5
849.0175,209.9
849.0597,629.8
849.5453,851.7
849.5614,1169
849.6777,552
849.7935,400.5
850.4247,114.9
850.4712,17.9
850.9484,147.2
851.1998,114.3
851.5088,369.3
851.6483,326.2
851.9273,17.2
852.0056,195.2
852.0797,297.6
852.3788,328.9
852.6929,571.6
852.7849,231.3
853.5779,230.7
854.4892,139.6
854.5787,550.3
854.8819,19
855.2727,20
855.4767,123
855.5727,802.3
855.9553,346.3
856.1278,477.4
856.5842,5413.7
856.8356,359.4
856.929,380.3
857.1387,19.7
857.1891,261
857.5865,565.7
858.1055,689.8
858.1674,641.2
858.5993,92.6
859.8433,18.1
859.935,350.1
860.4942,571.4
861.3182,108
861.5096,170.2
861.7228,446.7
861.9913,181.6
862.0848,110.4
862.6613,160.9
863.0256,570
863.4593,374.6
863.5186,500.7
863.5331,399
863.5903,149.6
864.1377,161.6
864.5876,266.6
864.6146,121.4
865.0506,20.4
865.7547,114.4
865.7841,569.4
867.5041,621.7
867.6064,525.4
867.7548,100.8
868.5107,347.7
868.8882,21
869.6657,402.5
869.7013,319.4
869.7286,216.9
869.8186,242.7
869.8441,920.5
869.8808,1046
869.9357,1604.2
869.9583,755.2
869.9858,1915.5
870.0201,1543.9
870.0415,1404.2
870.0489,1453.9
870.1009,3755.7
870.138,3481.1
870.1987,2696
870.2457,695.1
870.2802,1814.3
870.3088,1248.2
870.3716,403.6
870.4452,804.6
870.4741,185
871.1954,148.7
871.3626,156
871.7985,80.5
871.8349,91.5
872.3563,149.6
872.4664,122
872.5517,911.4
872.6948,122.2
872.7896,192.7
872.9314,591.1
873.2912,65.8
873.332,306.6
873.4048,160.4
873.9189,491.7
874.0534,395.6
874.5276,105.4
874.5545,586.9
874.6059,125.7
874.6342,530.7
874.668,20.6
875.066,361.2
875.4617,118.5
875.6266,215.6
876.0078,76.7
876.317,396.4
876.8905,449.8
877.1902,117.5
877.3406,468.7
877.4667,177.4
878.0131,319.4
878.0417,110.2
878.0645,542.2
878.5312,103.1
878.6727,614
879.0181,217.7
879.1014,96.7
879.5385,290.7
879.9366,263.9
880.1321,161.1
880.3692,318.8
880.8906,382.1
880.9022,348.9
880.9237,309.3
881.0404,506.5
881.2938,171.1
881.6287,173.6
881.7146,149.7
881.97,178.9
882.4625,289.2
882.5977,124.2
882.7854,411.3
882.8937,251.2
884.2271,130.7
884.6233,192.8
884.8419,17.5
885.0677,403.8
885.2185,534.7
885.7282,536.8
885.8381,391.6
885.8708,339.1
886.2121,71.8
886.7972,796.4
887.5762,408.5
888.0384,82.7
888.4055,724
889.2632,145.3
889.5079,277.9
889.6838,769.3
889.7584,19.1
889.8121,24
890.3254,113.3
890.4206,191.4
892.0596,73.7
892.0838,318.6
892.9235,189.7
892.998,77.6
893.7864,23.9
893.9482,166
894.2092,431.3
894.8289,146
894.9376,620.7
895.1831,22.3
895.2893,367.8
895.4431,370.9
895.8712,369
895.9098,302.8
895.9962,232.4
896.4779,104.4
897.05,231.9
897.3307,136.1
898.383,177.5
898.8231,319.8
899.2202,149.1
899.4539,526.2
899.5215,152.2
899.6025,1032.3
899.6898,244.4
900.0416,315.4
900.9832,270.6
901.6237,367.3
902.07,117.1
904.2146,20.6
904.462,240.3
904.5244,343.7
904.9344,204.6
905.1865,595
905.5977,158.9
905.9428,193.3
907.6803,344
907.7279,257.9
907.9838,19.9
908.1798,131.4
908.2166,519.4
908.416,18.7
908.4794,201.9
908.5164,252.5
908.5587,438.8
908.7442,129.1
908.8135,749.8
908.9238,139.7
908.9997,162.9
909.808,129.9
910.5646,20.4
910.7868,382.2
910.8838,106
911.553,17.6
911.5878,366.1
911.7405,263.4
912.205,328.8
912.4482,883.1
912.6218,106.2
912.9171,191.2
913.8354,386.8
913.9556,335.5
914.2875,101
914.7287,181.7
915.0228,88.2
915.1702,253.5
915.3249,103.2
915.4552,118.6
915.5572,203.1
915.6998,559.9
915.7918,20.9
915.8433,519.4
916.2388,275.2
916.4777,184.3
916.8048,278.5
917.4183,147
917.7612,244.8
918.3224,318.2
918.5437,21.7
919.0285,147.5
919.0914,167.5
920.1602,368.1
920.3584,524.1
920.7011,247.8
920.9547,511.1
921.0715,157.4
921.3407,407.2
921.7846,514.8
921.9062,427.6
922.1486,245.6
922.3753,19.1
923.5566,157.8
924.1178,630.7
924.1547,253.5
924.259,1266.6
924.331,171.3
924.7891,260
925.8439,477
925.941,643.1
926.494,605.9
926.5904,363.2
926.6586,292.6
927.1338,89.4
927.3768,291.1
927.4872,332.2
927.5914,262.1
928.2086,140.7
928.6521,841
928.8108,521.4
929.0782,375.7
929.6327,16.7
929.6997,360.7
929.9341,22.6
929.993,210
930.1476,517.7
930.4632,421.8
930.79,398.3
931.3099,539.4
932.1831,505.6
932.2668,334.2
932.3808,116.8
932.4148,168.8
932.6855,340.7
933.0861,449.7
933.1931,484.5
933.2593,138
933.72,409.4
934.4898,799
934.6618,441.5
934.7952,241.4
934.8581,357.8
934.9159,91.7
936.2799,183.9
936.3394,349.5
936.3606,107.6
936.534,410.5
936.8531,614
937.3709,147.4
938.049,359.1
938.8339,104.1
938.9913,313.6
939.3659,538.1
939.5716,298.2
940.1812,20.8
940.6831,217.9
940.7684,202.4
941.1613,120.5
942.0485,374.4
942.4037,153.5
943.2291,376.3
943.3626,156.2
943.9968,18.9
944.042,135.1
944.1668,243.9
944.2096,389.4
944.2833,690.8
945.1698,636.1
945.7499,479
946.3017,117.5
946.3673,288.8
946.4704,502.5
946.7735,20.6
946.8192,458.9
947.3516,99.7
947.6923,351.8
947.7989,105.6
947.9403,394.9
948.0394,403.5
948.0818,269.5
948.2235,557.4
948.4439,350.9
948.5146,528.9
948.594,386
948.7463,114.7
949.8569,610.3
949.928,519.8
950.1583,26.8
950.2527,144.9
950.3471,122.4
950.4671,449.9
950.5991,143.7
950.7495,20.5
951.8502,109.3
951.9945,17.4
952.4644,87.1
953.31,433.2
953.4468,234
954.1839,18.6
954.4114,656.1
954.6306,19.7
955.4132,217
956.8939,22.7
957.048,681.1
957.3404,466.9
957.7738,125.1
957.9297,522.7
958.1187,254.5
958.1538,297.4
958.4467,151.6
958.5555,123.6
959.1428,349.4
959.1881,409.7
959.2514,97.2
959.3511,309.3
959.9373,389.4
960.104,124.7
960.1252,620
960.8445,300.9
961.9185,556.3
962.5212,357.9
962.8734,22.4
963.0007,359.6
963.5807,19.7
964.4378,523.5
964.6667,18.3
965.1498,279.9
965.1791,725
965.2145,336.9
965.6195,242.3
966.049,195.5
966.2363,76.5
966.7007,19.5
967.9671,425
968.008,116.6
968.1587,423.2
968.6149,185.2
968.6953,90.9
968.9616,380.4
969.4992,605.5
970.0958,20.8
970.1689,778.4
970.6017,695.9
970.9236,500.9
971.2268,642.7
971.5199,370
971.9835,322.5
972.609,150.8
972.8818,223
973.0009,160.8
973.0277,19.4
973.243,143.3
973.9122,160.2
974.1261,781.9
974.1983,506.8
974.4207,432
974.7656,783.9
975.489,217.3
976.2425,354.6
976.5434,150.8
977.6195,337.4
978.6604,421.8
979.6327,482.7
979.7311,252.7
980.1591,305.9
980.403,422.9
980.6861,357
981.0703,133.2
981.3039,639.8
981.3263,225.3
981.5181,433.4
981.6082,107.4
982.0516,379.2
982.1031,97.1
983.3304,160.4
983.4297,1110.4
983.8457,487.5
984.2749,392.1
984.3834,71.1
984.4325,200.6
984.5242,266.6
984.6074,212.2
984.6363,125.1
984.7165,101.8
984.9629,614.1
985.6876,18.4
985.7505,314.2
986.0153,125.3
986.5505,574.4
986.7516,587.6
988.5586,122.3
989.05,819.4
989.1195,571.2
989.3134,417.5
989.3852,98.4
989.5606,312.7
989.6128,19.6
989.8298,445.8
990.316,689.7
991.3783,461.1
992.5224,366.3
992.561,147.4
993.3812,359.7
993.489,501.2
993.5918,204.4
993.7132,241.9
994.2852,89.3
994.405,154.3
994.8378,168.5
995.7848,97.5
996.4002,804.6
996.812,24
997.0117,470
997.2471,89.2
997.8513,79.7
998.0625,1084.6
998.3617,567.2
999.1944,657.9
999.3132,411.5
