SPECTRUM - MS,
1234.RAW,
FTMS + p ESI Full ms [50.00-1000.00],
Scan #: 1-40,
RT: 0.01-1.97,
AV: 40,
m/z,Intensity

50.0036,292.7
50.0156,136
50.0292,17.6
50.0425,447.8
50.0469,543.1
50.0489,496.4
50.0623,156.2
50.0664,18.6
50.0691,334.6
50.0697,96
50.0729,238.7
50.0745,186.7
50.079,317.4
50.0983,18
50.1053,345
50.109,201.8
50.1153,341.6
50.12,87.5
50.1221,37
50.1297,86.4
50.1329,301.8
50.1478,233.2
50.1516,425.4
50.1531,81.4
50.1571,109.2
50.1622,119.6
50.1685,258.7
50.1798,38.1
50.2272,121.3
50.2295,529
50.2397,432.2
50.2421,83.8
50.2484,435.3
50.2577,238.2
50.2611,278.4
50.2631,194.9
50.2746,674.6
50.2767,38.5
50.2789,377.7
50.2823,121.5
50.2872,325.4
50.3193,655.8
50.33,161
50.3345,37.5
50.3583,290
50.3836,79.1
50.4164,116.8
50.423,433.2
50.4242,79.6
50.4359,675.6
50.4549,130
50.4689,101.2
50.5266,172.8
50.5269,149.6
50.5398,199.1
50.5459,625.5
50.5576,122.8
50.5579,232.2
50.5634,621.1
50.5724,214.9
50.58,293.3
50.5891,677
50.5938,16.9
50.5957,75.9
50.6131,21.7
50.6135,213
50.6189,129.2
50.6232,33.2
50.6396,164.2
50.6425,146.9
50.6517,96.1
50.6554,251.6
50.6618,117.9
50.6692,178.7
50.6853,115.1
50.6856,620.6
50.69,133.7
50.6945,785.3
50.705,76.4
50.711,284.1
50.7216,629.4
50.7234,184.5
50.7266,266.9
50.7328,87.4
50.7397,16.6
50.7453,456.2
50.7724,159.9
50.7855,403.1
50.7964,99.4
50.8137,558.7
50.8172,86.6
50.8336,79.7
50.8354,94.4
50.8366,168.3
50.8506,438.1
50.8551,103.4
50.8713,151.3
50.8756,79.8
50.8808,87.5
50.8818,18.3
50.8883,86.3
50.9086,171.5
50.9091,31.8
50.9449,512.7
50.9576,140.2
50.9589,266.5
50.9668,85.5
50.9746,74.4
50.9854,282.4
50.9927,117.5
50.9951,158.5
51.0082,112
51.0117,93.3
51.0179,355.9
51.0222,124.7
51.0245,109.6
51.032,461.6
51.085,19.1
51.0974,453.2
51.1139,17.4
51.1293,79.5
51.1428,91.4
51.1778,622
51.1811,432.8
51.1865,294.2
51.2022,90.4
51.2344,269.5
51.2705,97
51.2768,90
51.2773,778.7
51.287,830.8
51.2879,83.4
51.295,118.2
51.3062,118
51.3146,123.2
51.3165,170.2
51.3321,16.6
51.3411,94.8
51.3494,187
51.3696,324.2
51.3854,382.1
51.41,85.4
51.4214,330.4
51.4235,83.6
51.424,386.9
51.4261,541
51.4282,361.6
51.4351,311.5
51.44,143.3
51.4543,137.6
51.4585,77.5
51.4808,117.2
51.4844,88.6
51.5053,165.8
51.5237,335.4
51.5311,253.1
51.5485,39.7
51.5606,489.4
51.5617,194.8
51.568,199.5
51.5846,85.1
51.5856,558.5
51.5868,213.7
51.6138,595.9
51.6189,282.7
51.6516,198
51.6677,83.5
51.6755,306.7
51.6842,442.2
51.6886,163
51.7226,382
51.7279,404.8
51.7311,153.5
51.7361,19.6
51.7378,140.8
51.7409,93.2
51.8201,18
51.8207,752
51.8285,35.7
51.8484,141.5
51.8492,19.9
51.9,468.1
51.9085,109.3
51.921,93.7
51.9218,316.2
51.9265,527.2
51.9272,542.7
51.9299,106.7
51.9306,86.6
51.9416,275
51.9455,14.9
51.9466,76.7
51.9487,418.1
51.95,415.1
51.9623,359.6
51.9866,118.9
51.99,37.9
51.9964,479.1
52.0028,270.2
52.0125,331.8
52.0259,578.7
52.0349,129.3
52.0537,304
52.0549,452.6
52.0655,312.2
52.071,722.4
52.0833,99.1
52.0878,82.3
52.0972,162
52.0978,420.8
52.1002,17.3
52.1086,626.1
52.1115,21
52.1211,131.2
52.139,94.4
52.1436,147.4
52.1552,177.5
52.1787,278.6
52.182,89.6
52.1871,166.6
52.2104,547.3
52.2163,315.2
52.2177,299.8
52.2361,150.5
52.2583,301.4
52.2632,22.9
52.2706,96.9
52.3199,15.4
52.3301,572.1
52.3457,271.1
52.3552,672.3
52.3641,595.6
52.367,89.9
52.3677,84.3
52.3723,432.3
52.3814,631.5
52.3884,294.3
52.4269,291.3
52.4326,74.7
52.4398,18.1
52.4426,138.1
52.4521,312
52.5343,19.5
52.5366,184.3
52.5472,87.8
52.5517,91.5
52.5576,111.5
52.5673,18.2
52.5702,790.6
52.5806,342.7
52.5821,93.1
52.6034,527.5
52.6115,333.8
52.6265,387.7
52.6331,379.2
52.6567,82.7
52.6578,682.6
52.6687,99.7
52.6817,258.9
52.6903,17.9
52.7063,486.5
52.7116,282.4
52.7145,354.2
52.7196,575.4
52.7312,325.8
52.7358,723.7
52.7401,390.2
52.755,824.7
52.7806,555.4
52.7813,1598.1
52.782,2052.7
52.7826,2724.3
52.7829,2442.8
52.7832,1776.4
52.7837,1848.1
52.7849,2415.8
52.7855,5009.4
52.7864,2733.7
52.7926,158.4
52.7962,98.7
52.8056,168.9
52.8101,289.3
52.8428,128.1
52.8462,248.1
52.8602,77.1
52.873,149.8
52.8766,295.3
52.8938,77
52.8949,557.2
52.8971,351.4
52.9076,75.3
52.9099,131.3
52.92,504.9
52.9247,320.3
52.9272,316.1
52.9291,494.2
52.945,515.1
52.9482,111
52.9672,20.1
52.9688,154
52.9705,627.6
53.0036,440.5
53.0167,601
53.0179,202.1
53.0321,126.6
53.0353,124.3
53.0453,84.1
53.0729,106.1
53.0981,300.5
53.0996,308.2
53.1005,324.7
53.1082,85.5
53.1413,40.4
53.1592,133.4
53.1691,76.5
53.1756,155.3
53.1777,524.8
53.1864,128.2
53.1988,230.9
53.2024,121.3
53.2039,96.6
53.2052,94.7
53.2121,88.1
53.2215,93.2
53.2528,721
53.2663,111.8
53.2688,90.8
53.2718,284
53.2823,292.7
53.2858,470.4
53.2873,110.7
53.2954,455.8
53.3169,394.5
53.3219,88.5
53.3359,99.3
53.3364,549.3
53.3645,98
53.3849,17.2
53.4104,145.5
53.428,558.4
53.4295,151.7
53.4365,315.3
53.4608,109.3
53.4927,346.5
53.4946,326.6
53.4956,34.5
53.4988,581.6
53.5124,688.4
53.5258,179.1
53.5337,150.3
53.5383,281.4
53.5396,639.7
53.5399,287
53.5421,585
53.5474,99.9
53.5538,101.8
53.5573,77.9
53.5745,188
53.583,467.4
53.5983,115.8
53.6032,86.3
53.6063,137.9
53.6122,219.6
53.6282,118.5
53.6391,92.4
53.6416,192.7
53.6462,430.8
53.6588,158.1
53.6595,393.8
53.6682,112.3
53.6825,122.4
53.6978,104.7
53.7143,94.7
53.7181,399.2
53.7227,397.6
53.7439,39.2
53.7495,111
53.7739,102.7
53.7831,262.2
53.8085,310.1
53.821,890.9
53.8298,342.7
53.8385,488.6
53.8831,94.4
53.9119,73.8
53.9355,278.1
53.943,84.1
53.947,245.1
53.9507,337.6
53.9553,95.1
53.9589,339.6
53.9911,279.9
53.9929,100.9
53.9948,83.7
54.0065,170.8
54.023,560.3
54.0445,103.8
54.0611,636.1
54.0713,174.3
54.0748,829.1
54.0833,166.3
54.0855,17
54.0858,267.1
54.0913,128.8
54.0948,106
54.101,502.9
54.1391,339
54.1407,140.3
54.1473,18
54.1529,159
54.1666,103.1
54.1848,20.5
54.2108,332.7
54.2449,461.3
54.2476,597.8
54.2553,182.4
54.2616,34.5
54.2666,275.6
54.2755,168.3
54.2929,694
54.2983,218.5
54.3005,121.4
54.308,396.4
54.321,249.9
54.3274,139.2
54.3373,282.9
54.3391,329.2
54.3404,306.4
54.345,341.9
54.3791,297.8
54.3798,132
54.3973,142.1
54.4183,298.3
54.4304,173.4
54.4767,291.3
54.4828,254.8
54.4848,222.5
54.4877,144.1
54.4937,211.3
54.4995,116.2
54.5172,297.3
54.5312,136.4
54.5333,182.5
54.543,371.9
54.545,17.7
54.5454,40.5
54.5466,288
54.5751,15.2
54.5829,420.3
54.59,199.7
54.5922,170.5
54.5942,17.1
54.6043,17.8
54.6188,312.8
54.6283,778
54.6324,164.6
54.6347,80.9
54.6433,602.5
54.6631,17.8
54.6742,90.4
54.6822,340.8
54.6837,188.7
54.6858,103.4
54.69,344
54.6946,315.1
54.6965,107.9
54.707,207.7
54.7097,102.9
54.7189,147.2
54.7239,351.6
54.7317,38.2
54.7474,94.1
54.7539,42.5
54.7715,123.1
54.785,507.9
54.7933,346.5
54.7942,96.8
54.8257,102.1
54.8273,111.6
54.8412,84.8
54.882,692.1
54.8953,80.1
54.8967,291.8
54.8974,74.6
54.8992,159
54.9004,217.8
54.9007,17.7
54.9029,140
54.9438,98.4
54.9457,127.2
54.959,85.8
54.9696,112.6
54.9697,108.5
54.989,578
54.9939,891.1
55.0017,625.2
55.0243,118.5
55.0695,177.1
55.074,730.8
55.0749,84.7
55.0756,229.4
55.1954,94.9
55.2347,151.7
55.2449,313
55.2698,565.8
55.2722,145.6
55.2863,436.7
55.3003,534.5
55.3072,15.5
55.3075,77.7
55.3086,508.4
55.3174,90.6
55.3258,456.1
55.3302,137.1
55.3333,406.9
55.3492,99.1
55.3585,399.8
55.3785,293.3
55.4078,689.4
55.4091,124.2
55.426,364
55.4415,127.7
55.4447,632.1
55.4627,14.8
55.473,556.5
55.4805,371
55.4819,89.5
55.4932,525.6
55.504,183.2
55.5109,713.6
55.5214,285.5
55.5222,327.4
55.5324,598.7
55.5526,671.3
55.5632,537.8
55.5651,311
55.5675,110.5
55.5739,776.8
55.5747,106.4
55.58,138.3
55.5827,301.2
55.5886,162.4
55.5931,36.3
55.6132,445.8
55.6367,87.3
55.6426,116.7
55.6438,100.8
55.6521,101.7
55.6539,139.8
55.6569,17.4
55.6636,540.1
55.6835,194.6
55.7133,88.6
55.7393,715.2
55.743,316
55.7684,86.2
55.7687,298.2
55.7807,18.5
55.7884,374.3
55.791,18.1
55.8026,147.2
55.8283,318.7
55.839,512.6
55.8522,575.3
55.8685,122.1
55.8714,102.7
55.8919,149.6
55.9007,82.9
55.9042,490.1
55.9128,379.4
55.9381,310.8
55.975,767.1
55.988,130.8
56.0045,178.6
56.0198,457
56.0292,731.4
56.0299,682.4
56.0354,127.9
56.0403,469.7
56.0492,132.9
56.0574,259.8
56.0686,457.9
56.0781,91.4
56.0861,77.7
56.0997,323.9
56.1065,453.4
56.1235,132.7
56.1346,346.8
56.1362,607.2
56.1367,128.2
56.1413,40
56.1508,251.7
56.1564,98.3
56.1632,171.1
56.1656,785.7
56.1717,762.2
56.1793,90
56.2078,98.9
56.2298,445.1
56.2439,679.7
56.2447,112.6
56.2761,383.5
56.2969,130.3
56.3102,17.2
56.3184,542.9
56.3342,289.7
56.3517,702.8
56.3593,83
56.3659,19.7
56.3749,40.8
56.3827,151.1
56.4032,18.7
56.4061,248.1
56.4107,362.2
56.4237,237.5
56.465,100.7
56.4833,265.3
56.4861,138.9
56.4995,485.7
56.5035,584.7
56.5152,82.5
56.5452,153.6
56.5587,180.1
56.5805,412.9
56.5913,168.9
56.6091,328.9
56.62,155.4
56.6294,152.6
56.6343,373.8
56.6365,124.6
56.6409,33.6
56.6481,355
56.6994,97.8
56.7039,14.7
56.7116,105.4
56.7305,92.7
56.7336,15.3
56.775,20.2
56.8248,98.9
56.8301,663.1
56.8347,390.6
56.8761,132.3
56.8767,82.8
56.882,325.6
56.9032,789.2
56.9564,108
56.9584,362.7
56.9594,193.9
56.964,731.3
56.9839,92.4
56.9967,125.9
57.0117,124.3
57.0147,258.7
57.0429,15.6
57.0445,19.7
57.0454,332.3
57.0478,90.9
57.0496,869.9
57.0587,141.8
57.0743,359.4
57.0878,427.8
57.0924,160.6
57.1228,90.9
57.1254,39.7
57.1458,123.8
57.1874,320
57.1945,357.8
57.2021,450.6
57.243,16
57.2533,97.7
57.2616,629
57.2817,72
57.2851,323.7
57.288,385.6
57.2899,204.6
57.2984,474.3
57.2999,101.2
57.3049,132.8
57.328,196
57.3351,148.6
57.3454,150.3
57.3674,154.5
57.3893,508.6
57.3905,103.1
57.3984,349.1
57.3986,376.5
57.4033,87.3
57.4087,79.3
57.4146,247
57.421,171.8
57.4398,16.2
57.4488,317.3
57.4767,122.6
57.4998,633.6
57.5183,160.7
57.5211,121.4
57.5395,17.5
57.5481,112.1
57.5529,78.5
57.5648,545
57.5697,267.4
57.5823,17.9
57.5969,735.2
57.603,207.1
57.6168,18.5
57.6232,112.3
57.6467,32.8
57.6481,298.3
57.6516,16.5
57.6764,80.5
57.6827,333.7
57.6834,145
57.693,673.1
57.7131,286.9
57.7158,470.2
57.7166,298.1
57.7284,16.7
57.7295,312.4
57.7417,1108.6
57.7525,185.3
57.7644,770.4
57.8011,17.4
57.8076,105.3
57.8127,481.6
57.8191,388.2
57.8252,20.6
57.8362,100
57.8458,308.4
57.8537,649.9
57.8662,95.8
57.875,639.5
57.8852,136.5
57.895,103.2
57.9186,728.4
57.9201,88.4
57.921,416.5
57.9325,722.1
57.9358,354.6
57.9405,121.3
57.9686,245.2
57.9727,341.5
57.985,282.6
57.9916,127.8
57.9992,17.6
58.0317,431.8
58.0374,125.7
58.0753,94.4
58.0839,109.7
58.0851,722.7
58.0871,148.6
58.0966,90.4
58.0999,183.6
58.1024,105.5
58.106,88.4
58.127,289.7
58.1429,98.1
58.1567,127.7
58.1655,193.2
58.1956,151
58.2017,43.1
58.2069,135.2
58.2177,300.6
58.223,363.8
58.2268,78.7
58.2329,312.7
58.2343,91.5
58.2707,271.6
58.2718,92.5
58.2732,436.5
58.3003,307.6
58.3044,320.8
58.3277,106.6
58.3375,154.4
58.3384,88.9
58.3418,362.8
58.3672,131.3
58.3777,93.9
58.3846,18.1
58.4461,15.2
58.4581,308.6
58.4912,187.6
58.5074,268.1
58.5271,374.7
58.5587,111.9
58.5669,274.2
58.5996,874.7
58.6144,140.7
58.6196,146.3
58.6215,455.3
58.6281,15.2
58.6325,91.1
58.6462,791.9
58.6516,420.2
58.6572,381
58.6654,473.6
58.6752,110.1
58.6801,17.6
58.6808,325.7
58.6819,531.2
58.6917,203.3
58.7101,204.3
58.7212,344.4
58.7262,170.6
58.7306,300.9
58.7534,16
58.7566,252.7
58.7609,764.1
58.7793,360.7
58.8052,102.8
58.821,213.4
58.8257,86.8
58.8366,16.2
58.8583,667.4
58.8702,301.2
58.8808,76.5
58.8859,540.8
58.9007,292.5
58.9384,145.8
58.946,146.9
58.948,288.1
58.9485,246.3
58.9505,17.7
58.9682,402.7
58.9788,415.8
59.0065,358.8
59.0985,638.7
59.1039,379
59.1151,694.9
59.1257,253.9
59.1281,95.1
59.1297,17.7
59.1332,313.4
59.1427,17.9
59.1739,384.7
59.1775,112.5
59.1871,144.6
59.1976,452.7
59.2148,318.6
59.2173,17.4
59.219,680.5
59.2371,168.1
59.2399,483.8
59.2741,241.5
59.2891,16.5
59.3088,288.8
59.3276,354.3
59.3499,638.6
59.3518,147.1
59.3723,259.7
59.3727,18.8
59.3805,239
59.3858,98.2
59.3866,81.6
59.3882,579
59.3916,331.3
59.4285,83.6
59.444,127.9
59.447,33.5
59.4639,242.7
59.4724,640.8
59.4796,235.3
59.4821,730.1
59.5037,158.8
59.511,378.3
59.5278,19.9
59.543,552.6
59.5627,77.2
59.5725,114.5
59.5833,375.7
59.613,104.3
59.6474,328.8
59.6578,503.7
59.6591,100.1
59.6623,461.6
59.6819,266.7
59.6839,87
59.6952,401.9
59.7061,723.8
59.7175,86.3
59.7369,607.5
59.7483,418.9
59.7602,18.9
59.7615,153.9
59.7695,102.1
59.7815,152.3
59.8007,352.4
59.8012,802.4
59.8125,333.9
59.8492,21.2
59.856,680.4
59.862,182.3
59.8806,730.1
59.9036,220.5
59.9177,427.4
59.9229,39.6
59.9459,297.9
59.9521,592
59.9528,111.5
59.9581,111.5
59.9628,84.5
59.9701,238.5
59.9951,562.2
60.0027,137.8
60.0102,351.8
60.0174,105.8
60.0332,311.5
60.0342,264
60.0446,124.8
60.0515,16.1
60.055,272.2
60.0704,17.4
60.0784,219.7
60.1207,110
60.1213,352.6
60.1271,16.4
60.1338,284.1
60.1579,634.6
60.1753,673.7
60.1784,101.3
60.2001,441.4
60.2007,180.3
60.2118,215.6
60.2269,618.6
60.2408,91.6
60.2476,538
60.2496,351.2
60.2553,303.1
60.269,246
60.2793,78.5
60.2898,125.6
60.3151,102.3
60.3421,514
60.3455,15.2
60.3534,457.3
60.3664,164.8
60.379,81.5
60.3873,17.3
60.4273,165.2
60.4331,416.4
60.4375,430.7
60.4501,309.6
60.4603,89.7
60.474,359.5
60.4758,17.6
60.4774,422.5
60.4938,482.2
60.5496,326
60.5726,173.9
60.5953,282
60.6065,348.5
60.6089,278.4
60.6118,144.6
60.6128,215.9
60.6142,368.7
60.6291,78.5
60.6533,679.9
60.6754,411.1
60.6839,750.8
60.6942,720.9
60.6973,107.3
60.6999,303.9
60.7004,330.3
60.7136,504.5
60.7152,111.9
60.7197,689.5
60.7208,369.8
60.7256,16.1
60.7418,113.2
60.7892,103.4
60.798,314.3
60.8303,99.5
60.8408,434.7
60.8738,404.1
60.8766,33.8
60.877,15.3
60.8868,121.8
60.9395,510.5
60.9545,777.7
60.9741,518.7
60.9853,317.6
61.0391,411.7
61.0507,441.3
61.068,565.9
61.0699,83.5
61.0947,501.9
61.1084,74.8
61.114,110.2
61.1406,223.5
61.1449,216.2
61.1539,33.6
61.1545,110.1
61.1739,343.2
61.1855,311.1
61.199,540.6
61.2026,81.7
61.2042,380.2
61.2265,106.8
61.2312,895.9
61.2358,228.6
61.2691,122.3
61.2709,157.4
61.2732,75
61.2866,274.8
61.2885,74.6
61.3089,16.9
61.3101,74.9
61.3188,109.9
61.3197,389.5
61.3237,447.4
61.3297,529.2
61.3459,19
61.3488,148.9
61.3783,17.4
61.3793,167.3
61.38,312.8
61.391,120.3
61.3978,604.2
61.4009,668.7
61.46,262.1
61.4611,39.6
61.4932,17.9
61.5083,372.5
61.5144,315.4
61.5194,753.9
61.5387,478.9
61.5664,287.7
61.5861,339.2
61.6139,506.1
61.6271,89.8
61.6469,17.6
61.65,96.7
61.652,469.8
61.6549,224.9
61.6924,222.8
61.7246,412.3
61.7653,434.6
61.8504,294.3
61.8628,311.5
61.8675,866.1
61.8709,97.9
61.8763,353.1
61.8817,352.7
61.9023,231
61.9089,376.6
61.9108,19.1
61.9137,142.7
61.9192,92.3
61.9317,385.1
61.9324,508.5
61.94,237.8
61.9439,244.5
61.9476,132.4
61.9601,17.9
61.9691,281.8
61.973,155
61.9834,105.7
61.989,18.9
61.9909,107.5
61.9911,111.1
62.003,846.7
62.0064,731.1
62.0094,430.4
62.0171,704.9
62.0182,399
62.0213,194.4
62.0257,164.1
62.0285,587.4
62.0371,444.8
62.0481,494
62.0637,98.5
62.0684,523.9
62.0687,487
62.0704,136.2
62.0952,134.5
62.096,488.6
62.0998,124.5
62.1334,124.3
62.1494,102.2
62.1535,45.5
62.1563,330.3
62.1593,20.1
62.1651,478.3
62.1823,127.6
62.1989,17.3
62.2342,150.3
62.2542,227.3
62.2756,19.2
62.3089,125.9
62.3169,520.7
62.3424,953.5
62.3493,219.3
62.3511,346
62.3563,36.9
62.3587,82.4
62.3655,607.7
62.3698,128.6
62.3939,178.2
62.4287,195.5
62.4368,438.5
62.4422,125.5
62.4528,736.3
62.4622,131
62.476,416.3
62.5042,105.1
62.5095,86.9
62.5355,612
62.5378,164.7
62.5426,453.1
62.5541,693.2
62.5753,148.7
62.585,127.3
62.587,94.5
62.5894,235.1
62.5913,247.2
62.5951,320.7
62.6006,139.3
62.6051,482
62.6174,349.9
62.6202,16.6
62.6445,119.6
62.6599,295.7
62.6871,16.2
62.703,182.6
62.7225,137.2
62.7357,100.4
62.7431,18.5
62.7576,125.5
62.791,115
62.7959,179.2
62.8093,132.3
62.8324,493.1
62.8529,130.4
62.893,153
62.9081,322.2
62.9113,571.6
62.9158,133.7
62.9219,824.4
62.9341,810.2
62.9348,190.6
62.9384,934
62.9614,17
62.9654,98.2
62.9825,345.6
62.9911,82.1
62.9927,101.9
63.0057,103.6
63.0079,125.3
63.0177,332.1
63.0289,642.8
63.0575,407.9
63.0693,371.6
63.0788,461.2
63.0972,359.4
63.0999,337.6
63.1009,16.1
63.103,100.2
63.1346,80.8
63.1522,270.7
63.1528,163.6
63.1627,696.9
63.1645,395.3
63.1681,128.1
63.1745,136.7
63.1775,331.9
63.1949,338.5
63.2208,616.3
63.2922,359.1
63.3024,316.4
63.3224,86.3
63.3225,90.1
63.345,19.4
63.3461,139.3
63.3629,218.3
63.3711,151.5
63.3946,283
63.4279,98.2
63.4322,100.5
63.4389,453.6
63.4533,132.3
63.476,114.7
63.5163,397.3
63.5236,282.9
63.5265,309.6
63.5606,159.4
63.5706,367
63.5871,140.9
63.5878,555
63.5925,144.8
63.6054,758.4
63.6307,158.8
63.6315,273.4
63.639,195.7
63.6483,302.1
63.6514,256.6
63.6651,329.4
63.6802,99.6
63.6951,18.7
63.7025,238.1
63.7039,17.3
63.7374,750.5
63.7441,92.4
63.7584,595.7
63.7596,316.9
63.764,126.6
63.7728,635.2
63.7855,413
63.7887,105.9
63.8276,93.3
63.8382,307
63.851,100.4
63.8645,307.9
63.8651,16.1
63.872,376.4
63.8766,775.1
63.8808,100.7
63.8913,21.5
63.8988,654.3
63.9315,359.6
63.9369,675.8
63.9462,88.8
63.9537,217.7
63.9947,493.5
64.002,829.1
64.03,17.3
64.0446,322.5
64.0501,139.5
64.0629,506.4
64.0718,605.9
64.0875,154.9
64.1109,156.2
64.1171,458.5
64.1474,95.1
64.1488,718.8
64.1539,485.6
64.1548,17.6
64.1654,368.5
64.1997,19.6
64.2005,84.9
64.2201,323.3
64.228,323.3
64.2324,402.3
64.2488,15.8
64.2543,40.2
64.2553,811.9
64.2808,101.7
64.3109,404.5
64.3147,586.8
64.3211,130.9
64.3236,137.9
64.3266,684.9
64.3276,140.8
64.3371,92
64.3747,169
64.3773,84.5
64.3934,140.6
64.3995,314.4
64.4009,892.8
64.4048,17.3
64.4193,381.3
64.4228,329.4
64.4446,71.7
64.4484,155.4
64.4536,494.9
64.459,726.6
64.4735,646.9
64.4884,713.3
64.4947,107.9
64.5025,855.7
64.5115,115
64.5179,623.1
64.5197,16.3
64.5255,399
64.5828,315
64.592,155.8
64.5973,452.2
64.5996,88.6
64.6028,126.7
64.6039,107.9
64.6051,188.5
64.608,133.5
64.6195,96.9
64.6223,125.6
64.6598,719.2
64.6713,286.9
64.6931,85.4
64.7088,285.2
64.7098,224.3
64.7402,168.8
64.748,97.6
64.7635,106
64.7639,97.8
64.7796,315.5
64.791,156.5
64.8105,600.8
64.8333,126.2
64.8507,147.6
64.8928,90.9
64.8953,165.7
64.9364,164.4
64.9392,155.7
64.9785,87.1
64.9982,355.8
65.0244,83.2
65.0298,17.2
65.0308,17.2
65.0542,185.5
65.0664,159.6
65.0737,21
65.0882,222.5
65.111,156.7
65.1281,165.8
65.132,374.2
65.1422,81.2
65.1655,308.9
65.1891,88.5
65.1946,102.7
65.2231,316.6
65.2265,109.8
65.2346,18.5
65.2385,158.7
65.2615,83
65.2831,307.2
65.2873,125.6
65.3032,15.4
65.3118,99
65.3139,16.3
65.3413,37.6
65.3839,119.4
65.4391,575.8
65.4455,121.2
65.4489,155.6
65.4723,82.4
65.4752,124.7
65.5027,137
65.5118,81.5
65.5339,496.1
65.5616,602.8
65.5627,190.7
65.5784,893.5
65.5805,515.1
65.5963,151.4
65.5997,22
65.6081,18.5
65.616,823.1
65.6361,141.6
65.6599,115.5
65.6707,98.5
65.6719,679.7
65.6851,203.5
65.6978,365.3
65.7011,460.8
65.7217,300.9
65.7226,96.6
65.7401,124.6
65.7593,183.6
65.7953,332.4
65.8026,601.5
65.8063,282.9
65.8098,17.1
65.8142,554.2
65.8216,228.8
65.8259,230.2
65.8396,436.8
65.8546,118.3
65.8906,82.8
65.9103,458.8
65.9336,19.6
65.9397,83.4
65.9425,153.6
65.9836,462.2
65.9857,134.4
65.9905,82.6
66.0267,191.5
66.0337,20.5
66.0392,25.2
66.0515,132
66.0722,553.9
66.0831,122.9
66.0991,128.5
66.1029,207.2
66.1051,324.4
66.2126,128.4
66.2392,271
66.2443,176.2
66.2472,470.3
66.2488,154.3
66.266,167
66.2927,20.5
66.3276,171.5
66.3293,130.8
66.3446,684.7
66.3586,156.5
66.3637,523
66.3654,171.4
66.3695,142.7
66.3859,823.1
66.3861,821.8
66.3915,93.7
66.4033,376.9
66.4158,138.9
66.425,23.8
66.4302,95
66.4469,306.2
66.4501,133.4
66.459,293.6
66.476,75.1
66.4879,190.7
66.4897,235.1
66.4907,120.7
66.4931,328.2
66.5141,273.2
66.539,338.6
66.5458,280
66.5564,192.4
66.5871,15.3
66.5901,22.5
66.5926,488.6
66.6016,347.3
66.6068,169.3
66.615,42.9
66.6252,291.7
66.653,83.9
66.6564,651.5
66.6748,320.8
66.6805,146.3
66.6807,162.6
66.6809,132.7
66.6911,106.4
66.7062,414.4
66.7093,651.7
66.7134,879.1
66.7143,103
66.7171,122.9
66.721,785.8
66.7386,268.4
66.7409,138.7
66.7415,663.5
66.7471,18.5
66.7496,285.3
66.7648,108.2
66.7731,15.4
66.8148,219
66.8211,88.4
66.8227,107.8
66.8283,340.2
66.8462,116.4
66.8516,346.1
66.8554,20.5
66.8599,121.1
66.8687,421.1
66.8701,17.2
66.8713,585.7
66.8797,295.7
66.9034,80.6
66.9141,378.5
66.922,99.7
66.9275,172.6
66.935,110.3
66.9554,958.9
66.9735,23.6
66.9884,113.5
66.9944,87
67.0011,168
67.0096,685.3
67.0458,310.4
67.05,95.1
67.054,28.4
67.0721,75.9
67.0895,160.8
67.118,110.2
67.1385,294.6
67.1767,182.4
67.1805,16.9
67.191,371.1
67.2328,137.5
67.238,129.5
67.2401,991.4
67.253,84.3
67.2539,150.9
67.2597,238.8
67.2631,473.1
67.2679,350.5
67.2713,17.4
67.2796,123.2
67.2932,855.4
67.294,188.4
67.3006,312.6
67.3076,166.8
67.3092,86
67.3112,297.6
67.3328,427.3
67.3412,19.3
67.3431,196.8
67.362,234.5
67.3645,122.6
67.3954,329.3
67.4107,475.1
67.4374,153.8
67.4398,17
67.454,310.9
67.4697,324.4
67.4826,280.7
67.4914,353.9
67.5097,884.2
67.5156,96.6
67.5347,18.6
67.5461,328.8
67.5862,533
67.5995,97
67.6159,160.3
67.6426,132.7
67.6446,18.2
67.7139,798.5
67.7278,17.4
67.7363,169.7
67.7374,360.8
67.7401,906.4
67.7422,92.6
67.7541,120.2
67.7608,164.1
67.7768,353.8
67.8122,139.8
67.817,109.1
67.8187,182.8
67.8459,154.3
67.8712,367.1
67.8777,298.4
67.8932,416.5
67.9015,172.3
67.9045,386.6
67.9072,434.1
67.9161,140.1
67.9831,322.3
67.9932,458.2
68.003,336.7
68.0031,368.9
68.0034,280.4
68.0184,89.5
68.0545,173.9
68.0744,105.7
68.0799,19.1
68.113,106
68.1235,614.8
68.1253,485.5
68.127,326.5
68.1289,319.2
68.1333,122.2
68.1353,331.8
68.1639,152.2
68.192,252.2
68.2082,730.3
68.2252,16.3
68.2384,128.2
68.2395,18.1
68.2469,190.4
68.2606,560.5
68.2742,135.9
68.2787,563.6
68.2839,139.3
68.2936,769.9
68.2997,650
68.3082,410.4
68.3141,444.9
68.3381,102.5
68.3443,221.7
68.4025,102.9
68.4085,108.9
68.4112,362.5
68.4164,411.9
68.4213,127.4
68.4269,605.6
68.4307,194
68.4453,159
68.4529,599.9
68.459,386.6
68.4762,119.2
68.4934,98
68.5019,339.9
68.5241,862.9
68.5253,801.5
68.5275,17.8
68.5668,441.6
68.5675,352.2
68.579,81.1
68.5794,96.8
68.5889,127.9
68.5959,94.7
68.605,92.9
68.6062,454
68.6188,73.9
68.6255,349.4
68.6375,148.2
68.6588,306
68.677,437
68.6943,533.5
68.6958,340.3
68.6976,596
68.6999,116.9
68.7035,567.6
68.7166,567.8
68.728,115.8
68.7466,76.3
68.7844,725.6
68.8127,393.6
68.8136,111.4
68.8213,155.4
68.8374,108.9
68.8409,824.3
68.8434,611.9
68.8494,134.3
68.8635,42.2
68.8669,420
68.8841,96.8
68.8868,167.7
68.9049,256.4
68.9063,315.7
68.9096,18.1
68.9137,111.8
68.93,562.6
68.933,368
68.9425,16.7
68.9665,96
68.9902,357.3
68.9941,128.6
68.9992,166.9
69.0329,659.7
69.0337,656.4
69.0362,139.6
69.0471,18.3
69.0646,696.5
69.0661,250.1
69.0853,628.9
69.0944,36.2
69.1035,317.8
69.1043,181.1
69.121,460.3
69.1265,597.8
69.1365,16.7
69.1492,386.3
69.1577,277.6
69.1616,195.1
69.1666,16.7
69.1714,183.6
69.1812,116.5
69.2092,37.9
69.2183,902.7
69.2367,718.4
69.2433,515.9
69.2452,578.6
69.2603,111.7
69.2962,141.8
69.2974,457.2
69.299,110.8
69.3046,190.2
69.3219,593.2
69.3298,242.1
69.3411,179
69.3432,97.1
69.3523,456
69.3618,91.1
69.3898,117.9
69.4328,463.8
69.4384,101.8
69.4491,16.8
69.451,113.5
69.4838,439.9
69.4908,37.8
69.519,130.1
69.5215,167.6
69.5272,160.9
69.528,17.7
69.5288,220.8
69.5344,811.2
69.5494,314.8
69.5501,176.2
69.5604,304.1
69.5638,214
69.5704,899
69.5729,514.1
69.5866,163.8
69.6068,36.2
69.6102,111.8
69.6135,113.4
69.655,84.8
69.6567,475.7
69.6752,429.7
69.7098,751.2
69.7109,705.2
69.7198,38.7
69.7254,107.9
69.7279,533.3
69.7317,458.4
69.7472,412.3
69.7483,131.2
69.7913,112.9
69.8064,17
69.9219,717.3
69.9246,631.6
69.9267,112.6
69.9444,103.7
69.9949,19.3
70.0059,186.1
70.0109,15.9
70.0258,98.8
70.046,564.4
70.0649,179.9
70.0679,492.6
70.0922,143.5
70.0949,129.6
70.1053,418.8
70.1312,416.3
70.1428,293.6
70.1681,97.5
70.2188,226.3
70.2355,819.6
70.2384,755.4
70.2428,17.9
70.2433,81.8
70.2544,299.5
70.2616,139.1
70.2979,470.8
70.3141,20.9
70.3157,420.9
70.3276,16.6
70.3364,270
70.3451,337.5
70.3506,17.8
70.3527,229.9
70.3662,153.2
70.3776,96.5
70.3786,298.2
70.3967,219.2
70.4316,160.3
70.4705,126.5
70.4845,79.3
70.5009,180.2
70.5031,117.5
70.5116,94.1
70.5633,424.4
70.5691,163.1
70.5919,540.3
70.5988,603.7
70.6017,126.9
70.6107,18.2
70.6457,345.8
70.6482,98
70.6563,149.4
70.6905,301.2
70.7063,18.9
70.709,797.5
70.722,169.5
70.7274,361.8
70.7389,20.1
70.7869,404.7
70.8006,871.1
70.8077,112.4
70.8142,399.7
70.8388,438.6
70.8512,669.6
70.8691,123.1
70.9039,284.8
70.9074,170.6
70.9304,402.7
70.9314,487.9
70.935,225.6
70.9534,97
70.9544,126.1
70.9549,775.6
70.9602,421.1
70.9651,322.8
70.9812,494.1
70.9981,617.8
70.9995,18.2
71.0075,300.4
71.0131,118.5
71.0216,328.5
71.0363,537.3
71.045,579.8
71.074,499.9
71.0888,449.4
71.0965,569.9
71.1033,315.5
71.117,217.2
71.1277,169.4
71.1345,81
71.1366,253.7
71.1655,115.4
71.1804,91.3
71.1833,297
71.1988,228
71.2042,206.2
71.2051,131.5
71.2082,19
71.2126,36
71.229,147.2
71.2409,533.6
71.2496,396.3
71.2712,190
71.2824,332.5
71.2927,109.6
71.2991,19.6
71.328,492.7
71.3288,628.2
71.3518,365.1
71.353,96.3
71.3572,136.8
71.3666,149
71.3702,18.8
71.3801,97
71.3916,38.9
71.4047,568.8
71.4079,719.8
71.416,171.1
71.4166,298.1
71.4342,297.2
71.438,15.6
71.4627,424.4
71.4916,171.4
71.5178,790.2
71.5259,460.3
71.5393,552.2
71.6009,21.9
71.6025,97.9
71.6153,183.4
71.6172,469.2
71.6578,211.2
71.7236,101.1
71.7286,139.4
71.7327,19
71.7347,302.9
71.7433,99.1
71.7703,254.9
71.7715,16
71.7922,97.5
71.7963,549.9
71.8012,126
71.8166,94.9
71.8378,97.6
71.8455,88.5
71.8616,106.4
71.8662,672.6
71.8979,272.8
71.9174,170.1
71.9418,327.1
71.9452,82.7
71.9727,347.4
71.983,213.6
71.9886,230.8
72.0002,129.7
72.0029,540.3
72.005,350.5
72.0681,187
72.0762,171.4
72.0781,94.8
72.0806,448.9
72.0929,215.7
72.1046,176.7
72.1625,89.7
72.1841,394.9
72.1899,263.4
72.1997,221.8
72.2004,493
72.2008,426.6
72.2034,133.6
72.2046,85.9
72.2052,338.4
72.2059,484.7
72.2071,1183.6
72.2073,1158
72.2081,1760.1
72.2089,1610.8
72.2096,1577.9
72.211,2796.7
72.2119,1563.2
72.213,2187.8
72.2139,2022.3
72.2148,2276.2
72.2159,4096.7
72.217,2079.9
72.2179,2849.1
72.2186,2132.8
72.2201,2567.6
72.2207,2838.2
72.2215,3237.9
72.2221,2040.9
72.2229,2945.6
72.2236,2691.2
72.2245,1408.5
72.2254,1581.9
72.2258,1886.5
72.2267,1213.2
72.2273,565.4
72.228,1956.4
72.229,790.7
72.2297,1164.3
72.23,1019.5
72.2305,648.1
72.2315,433
72.232,53.6
72.2331,109.1
72.2337,534.9
72.2348,55.4
72.2356,502.1
72.2381,30
72.2625,466.9
72.2739,130.3
72.2874,230.2
72.2878,263.6
72.2905,96.9
72.33,15.8
72.3339,141.2
72.3459,128.6
72.3692,111.6
72.3787,220.5
72.3894,729
72.4315,16.8
72.4365,84.6
72.4424,100.3
72.4604,88.2
72.4649,89
72.4941,249.3
72.5066,521.4
72.5307,43.4
72.5548,171.4
72.5623,390.8
72.5676,494.3
72.5879,960.2
72.6312,372.2
72.6333,98.1
72.6428,312.4
72.6614,119.1
72.6616,116.7
72.6753,407.4
72.6945,123.3
72.6971,771
72.7139,627.4
72.7245,113.1
72.7395,289.8
72.7419,150.7
72.7646,38
72.7689,379.9
72.7765,221.2
72.7785,95.8
72.7967,159.3
72.8002,603
72.8098,116.1
72.8362,189.2
72.8406,331.9
72.8454,423.8
72.8532,289.7
72.8573,108
72.8593,15.9
72.8648,452.5
72.8661,87
72.8888,505.4
72.9246,300.4
72.9369,772.7
72.9565,163.2
72.963,162.8
72.967,276.5
72.9762,102
72.9815,395.6
72.9841,154.9
72.9992,267.2
73.0069,115.5
73.0464,20.9
73.0817,424.3
73.11,177.4
73.1537,827.7
73.159,89.5
73.1667,163.1
73.1714,84.5
73.1748,34.9
73.1925,498.2
73.2023,605.7
73.2103,276
73.2116,184.4
73.2165,114.9
73.2502,350.7
73.2527,460
73.2602,268.1
73.2604,289.2
73.2675,18.9
73.2781,187.4
73.2803,104.8
73.2817,85.6
73.2975,272.6
73.3084,505.9
73.3206,93.8
73.325,158.2
73.3799,386.1
73.387,17.6
73.3906,129.1
73.4186,403.2
73.4221,111.6
73.4632,21
73.4871,113
73.4879,761.7
73.5252,623.5
73.5439,21.1
73.5544,147.5
73.5749,279.1
73.5772,94.9
73.5785,578.3
73.5897,152.1
73.6064,473.4
73.613,15.7
73.6324,19.2
73.6551,15.9
73.6612,262.1
73.708,15.4
73.7242,163.4
73.7349,39.6
73.743,227.5
73.7681,125.6
73.7703,139.6
73.7818,87.7
73.7826,473.4
73.7878,142.3
73.7886,166.4
73.803,261.7
73.8123,71.9
73.8138,20.5
73.8611,97.3
73.8699,137.2
73.8704,624
73.8744,672.7
73.9033,506.5
73.9123,831.4
73.9272,300.1
73.9565,467.3
73.9642,379.7
74.0002,810.6
74.0043,154.9
74.0107,358.2
74.0174,713.9
74.0323,124.2
74.0372,14.5
74.04,671.7
74.0598,3228.1
74.0717,488.4
74.0845,124.2
74.0909,87
74.0995,557.8
74.1067,82.3
74.1219,589.3
74.1325,220.9
74.1338,476.5
74.1514,36.2
74.1587,316.1
74.1777,389.9
74.183,456.3
74.1945,784.8
74.2083,341.4
74.2332,44
74.2339,473.5
74.239,366.2
74.2452,110.7
74.2535,500.8
74.2569,772.9
74.262,164.2
74.2708,607.3
74.2735,299.1
74.2944,199.8
74.3012,316
74.3081,154.4
74.3121,315
74.3157,287.4
74.3275,312.2
74.3368,157.1
74.3702,108.8
74.42,159.2
74.4225,172.2
74.4283,17.2
74.4299,196.2
74.4321,89.1
74.4495,493.9
74.4525,39
74.482,200.1
74.4881,451.7
74.4926,443.3
74.4957,166
74.4997,128.9
74.5008,335.5
74.5071,111
74.5446,157.3
74.5499,242.9
74.5531,762.4
74.5654,577
74.6123,540.3
74.6206,418.3
74.6442,307.5
74.66,496.4
74.684,95.3
74.6866,163.8
74.6884,126.8
74.6952,453.3
74.7128,105.6
74.7544,94.2
74.7656,404.9
74.7702,89.4
74.7932,15.9
74.7985,288.2
74.8296,17.8
74.8528,179.7
74.8588,138
74.8635,170.6
74.8643,18.5
74.8664,45.1
74.906,118.4
74.9455,116.1
74.9485,120.9
74.9526,15.9
74.978,84.5
75.0279,342.4
75.0547,303.3
75.0856,37.6
75.1068,205.1
75.1383,602.7
75.14,151.6
75.1522,143
75.2358,702.6
75.2584,148.9
75.2653,79.8
75.2794,515.4
75.3012,296.2
75.3696,269.4
75.3792,121.9
75.4017,751.3
75.4072,315.8
75.4142,83.9
75.4194,22.3
75.4412,661
75.4536,17.8
75.5295,511.4
75.6516,315.7
75.6524,506.6
75.6636,18.4
75.6644,171.5
75.6837,333.1
75.6947,15.9
75.6973,132.1
75.7048,90.7
75.7141,139.7
75.7154,16.5
75.7204,78.1
75.7546,757.1
75.7586,172.4
75.77,95.2
75.7805,138.2
75.7817,493.2
75.855,147.9
75.8633,314.3
75.8785,80.4
75.8909,18.6
75.9041,500.5
75.9093,95.1
75.9155,133
75.9223,106.4
75.9489,214.4
75.9758,110.9
75.9866,128.9
75.9931,156.9
76.0075,376.4
76.0081,209.2
76.0161,279.4
76.0309,88.4
76.0466,164.8
76.079,121
76.0965,284.1
76.1045,19.4
76.1128,16.7
76.1345,112.2
76.1893,128
76.1943,540.6
76.2119,291.9
76.2188,127
76.2319,267.3
76.2467,448.1
76.2519,16
76.2544,149.7
76.2681,836.9
76.2733,156
76.2798,601.5
76.3012,363
76.3037,279.9
76.3057,18.9
76.3207,160.5
76.321,193.2
76.3212,174.8
76.3388,128.8
76.3688,19.8
76.3975,138.2
76.4005,389.6
76.4125,94.8
76.4318,358.8
76.4329,355.3
76.4435,113.6
76.4448,19
76.5033,345.1
76.5248,89.9
76.5337,560.9
76.5766,86.7
76.5922,187.3
76.6623,612.9
76.6905,305.9
76.6914,330.6
76.6945,300.2
76.7037,190.3
76.7069,327.3
76.7221,249
76.7448,221.3
76.7518,131.7
76.7847,476.3
76.8275,91.7
76.8388,161.5
76.8427,119.8
76.8801,561.9
76.8926,146.7
76.9066,880.5
76.9088,120.3
76.9274,191.2
76.9517,324.9
76.9733,399.5
76.9916,17
76.9919,16.8
76.9963,753.8
77.0024,18.1
77.0074,97.1
77.0305,34.6
77.0323,110.2
77.0332,440
77.0355,559
77.0365,39.4
77.0372,41.7
77.0384,120632.1
77.0481,83.4
77.0635,345.4
77.0682,440.4
77.0972,306.2
77.1407,514.5
77.1609,516.2
77.1826,336.9
77.1906,135.3
77.2268,162.7
77.2303,98.6
77.2847,197.3
77.3229,36.4
77.3374,22.5
77.374,153.8
77.3943,787.5
77.4162,15.6
77.4384,18
77.4456,449.5
77.4653,94.9
77.4675,16
77.4719,332.3
77.4766,97.7
77.4925,39.2
77.4994,186.5
77.5043,312.3
77.5111,118.8
77.5588,137.7
77.563,356.6
77.5729,637.4
77.5752,108.5
77.5888,220.9
77.5897,172.5
77.5948,77.7
77.6037,180.2
77.6259,355.4
77.6764,158.9
77.6792,749.5
77.7043,609.8
77.7441,315.4
77.7658,270.2
77.7985,99.8
77.8425,730.5
77.8453,560.5
77.8624,94.7
77.8704,412.8
77.8731,280.4
77.8938,187.1
77.9247,102.8
77.9278,172.4
77.9441,480.1
77.952,91.5
77.9588,345.3
77.9595,133.6
77.9922,201.6
78.0175,305.1
78.0205,86.7
78.0253,177.5
78.0418,3961.9
78.043,16.2
78.0737,596.1
78.0782,458.7
78.0811,99.4
78.1376,434.9
78.1533,155.9
78.1537,164.4
78.1668,283.7
78.1671,295.7
78.1931,125.3
78.2134,101.2
78.2484,266.1
78.2557,121.9
78.2671,504.4
78.2729,82
78.2776,128.7
78.2907,17.6
78.3285,282.9
78.363,231
78.3659,87.7
78.4085,96.5
78.4157,394.6
78.4311,184.2
78.4344,106.7
78.4387,172
78.441,96.2
78.476,198.7
78.4832,307.8
78.5205,88.8
78.5354,366.4
78.5358,140.1
78.5671,18.9
78.6074,166.9
78.6329,694.8
78.6349,77.8
78.6467,156.4
78.6479,286.9
78.6624,372.3
78.6717,91.2
78.6959,85.5
78.6967,109.4
78.7005,535.9
78.7081,212.2
78.7162,290.7
78.734,455.3
78.7449,111.9
78.7945,107.5
78.8036,16.8
78.8084,136.5
78.8308,736.2
78.8488,283.3
78.8546,301.6
78.874,505.3
78.8901,102.2
78.9561,196.8
78.9647,162.1
78.9825,260
78.9851,724.5
78.9969,153.6
79.0092,298.5
79.0201,719.7
79.0262,16.1
79.0328,83.3
79.0541,1948.7
79.075,106.5
79.0899,233
79.0973,104.3
79.1071,105.7
79.1372,117.7
79.1455,20.5
79.1732,207
79.1992,747.2
79.2008,292.4
79.2021,234.9
79.225,141.9
79.248,86.4
79.2598,395
79.2666,442.9
79.3026,75.9
79.3255,151
79.3497,257.6
79.3563,671.1
79.3692,752.1
79.3754,103.1
79.3977,173.7
79.4524,283.3
79.4567,97.5
79.4672,502.9
79.5196,190.3
79.5786,19.9
79.5795,386.4
79.6008,184.9
79.6466,161.9
79.6516,640.5
79.667,439.8
79.7017,89.1
79.7098,84.9
79.7134,113
79.7144,19.3
79.7173,859.4
79.7306,795.8
79.7399,115.3
79.7648,305.8
79.7668,532.6
79.7833,42
79.7986,355.8
79.8033,306.5
79.8057,347.7
79.8228,379.2
79.8388,123.8
79.8591,339.9
79.8641,326.9
79.8697,121.4
79.8732,178.2
79.8964,415
79.8987,123.8
79.9077,95.2
79.9216,222.7
79.9426,131.2
79.9509,151.8
79.9515,145.9
79.9678,328.3
79.98,219.3
79.9856,178.7
79.9865,121.9
80.0443,86.7
80.0627,18.6
80.0645,334.8
80.0916,182.3
80.129,296.9
80.1793,174.2
80.2039,686.6
80.2251,18.9
80.2394,91.6
80.2767,272.8
80.2908,16
80.2985,159.3
80.2997,22.2
80.3215,782.1
80.3553,393.2
80.3633,142.9
80.3672,149.6
80.3775,461.5
80.4093,132.8
80.4198,85.8
80.4253,279.8
80.4345,664.3
80.4708,18.9
80.4794,419
80.5091,135.7
80.5367,429.4
80.5395,105.7
80.5666,94.1
80.5746,421.6
80.5868,71.3
80.589,977.4
80.5962,160.2
80.611,140.2
80.6181,321.6
80.6248,35.3
80.6435,149.6
80.6628,122.1
80.6654,290.8
80.6767,105
80.6934,370.9
80.7052,89.7
80.7252,348.6
80.7408,384.3
80.7485,398.7
80.7554,235
80.7754,206.2
80.7787,106.6
80.7829,432.1
80.7849,93
80.8272,377
80.8522,813.2
80.8771,591.4
80.8801,634.1
80.8944,628.1
80.8977,93.7
80.9296,47.7
80.9324,375.5
80.9336,199.5
80.9425,328.6
80.9477,59006.1
80.9592,14.9
80.9651,112.3
80.9811,201.2
81.0127,318.6
81.0326,263.8
81.0663,388.6
81.0697,2074.4
81.0786,707.5
81.1086,150.9
81.12,121.7
81.1386,355
81.1405,772.1
81.1417,45
81.1424,816.1
81.143,387.3
81.1462,628.4
81.1473,422.3
81.148,127.4
81.1507,140.3
81.1516,128.5
81.1929,491.4
81.2009,157.2
81.2269,18.4
81.2394,302.4
81.254,220.8
81.3079,18
81.3323,344.1
81.3332,175.5
81.3539,16.3
81.382,511.4
81.3913,281.9
81.398,18.9
81.4001,477.7
81.4109,234.4
81.4249,332.6
81.4268,189
81.4342,253.5
81.4428,252.6
81.4621,240
81.4927,788.2
81.5454,265.5
81.5481,164.1
81.5498,113.4
81.5523,302.6
81.5595,126.4
81.5639,509.9
81.5897,113.7
81.6204,369.8
81.6245,491.4
81.6412,125.7
81.6464,431.8
81.6496,20.5
81.689,95.4
81.7392,269.1
81.7626,735.4
81.7655,1018.5
81.767,105.2
81.787,322.2
81.7899,329.7
81.792,475.9
81.8172,93.9
81.8551,18.3
81.8817,36
81.9213,432.4
81.9738,759.3
82.0583,762.9
82.0623,327.1
82.0657,207.9
82.0699,754
82.1052,129.8
82.1071,17.5
82.1095,156.6
82.1382,419
82.1401,153.6
82.1509,451.4
82.1604,19.8
82.1821,334.1
82.2109,349.8
82.2499,39
82.2665,443.5
82.2904,268.1
82.2919,88.3
82.2978,90.5
82.3056,102.8
82.3125,616.1
82.3158,130.7
82.3393,19.6
82.3587,296.8
82.3657,180.9
82.3849,114.8
82.3955,161
82.4351,98.1
82.4395,129.1
82.4717,137.6
82.4744,110.6
82.487,306
82.5086,322.5
82.5285,17.7
82.5301,18.1
82.534,258.7
82.5742,485.4
82.5753,428.5
82.579,194.2
82.6028,367.6
82.664,161.7
82.6962,119.3
82.7115,143.6
82.7283,322.5
82.7718,98.2
82.788,129.9
82.7995,16.6
82.8057,107.6
82.8072,87.4
82.8127,19.5
82.8142,94.3
82.8268,730.1
82.8786,160.9
82.8819,183.3
82.8866,96.1
82.8936,358.1
82.8983,309.7
82.9235,35.7
82.9448,13847.9
82.9457,91.8
82.9612,20.5
82.9622,125
82.9752,153.7
83.0215,142.5
83.037,765.1
83.0702,413.9
83.0747,183.6
83.0849,185.6
83.0857,726
83.0993,343.8
83.1307,142.7
83.1394,163.3
83.1645,138.8
83.1656,492.3
83.1763,153.9
83.1806,18.4
83.2073,388
83.2133,120.6
83.2475,232.4
83.2517,457.2
83.2557,88
83.2896,273.4
83.2983,117.7
83.3028,371.1
83.3408,87.8
83.3475,246.5
83.3509,109.9
83.353,592.8
83.3541,208.8
83.3678,332.6
83.3842,135.8
83.4095,93.2
83.4317,136.4
83.4581,369.3
83.4672,839.4
83.4828,78.2
83.4917,331.2
83.503,171.9
83.5046,173.7
83.539,152.9
83.5465,122.2
83.5631,104.4
83.5764,639.2
83.657,302.7
83.7029,340.2
83.7175,740
83.7343,545.1
83.7363,223.7
83.7415,337.6
83.7424,381.7
83.7566,661
83.7836,33.3
83.7999,577
83.818,185.1
83.8242,99.9
83.8603,369.7
83.8642,184.8
83.8724,121.4
83.8803,104.4
83.9191,706
83.9381,312.8
83.9583,126.3
83.9801,105.2
83.9824,1016.1
83.9853,17.9
83.9878,572.8
84.0046,76.7
84.0167,301.6
84.025,433.1
84.0315,17.8
84.0443,1791.5
84.0809,15.8
84.0812,15.4
84.0844,107.5
84.088,103.6
84.0894,173.3
84.1107,286.2
84.1661,95.9
84.1791,223.6
84.1803,374.4
84.1928,110.4
84.1948,693.7
84.2272,18.4
84.2423,404.1
84.2462,100.1
84.2795,269.8
84.3018,265
84.3033,456.4
84.3188,621.5
84.3229,338.1
84.3574,230.3
84.389,172.9
84.3935,167.8
84.4071,342.6
84.409,107.3
84.4145,161.4
84.4167,20
84.4178,512.1
84.4187,190.3
84.4217,458.6
84.423,518.8
84.4312,349.4
84.4401,86.1
84.4416,256.2
84.4601,88.4
84.4723,227.6
84.4847,732.4
84.5244,469.7
84.5357,132.5
84.5613,83.4
84.5668,235.7
84.604,124.3
84.618,37
84.6275,445.7
84.6288,17.1
84.6552,81.2
84.6628,91.3
84.6819,212.9
84.6881,204.4
84.7127,546.8
84.7227,150.3
84.7608,185
84.8132,19.8
84.8316,265.3
84.8331,312
84.8752,436.2
84.8869,315.2
84.9077,432.9
84.9596,20734.1
85.0013,644.4
85.0198,302.2
85.0283,6979.5
85.0299,237
85.0546,298.6
85.056,359.4
85.0762,18.2
85.0787,143.9
85.0811,225.7
85.1079,418.4
85.1198,140.5
85.1292,212.2
85.1392,91.6
85.1515,23.7
85.1601,186.1
85.1934,171.9
85.2213,406.4
85.2222,556.7
85.2293,324.4
85.2451,216.3
85.2628,471.1
85.2897,32.3
85.2987,168.1
85.3028,90.7
85.3097,292.6
85.3183,17.9
85.3371,111.1
85.3429,213.6
85.3455,483.3
85.3532,143.9
85.3631,18.4
85.3765,399
85.4054,705.3
85.4191,145.3
85.4518,18.4
85.4604,526.2
85.4734,626.9
85.4776,17.3
85.4881,323.4
85.4974,532.9
85.5087,547
85.5358,49.4
85.5454,441.4
85.5647,420
85.5714,380.8
85.6128,483.5
85.6271,260.9
85.6577,92.5
85.6632,206
85.6657,459
85.6744,130.7
85.7087,258.2
85.7105,579.5
85.7194,305
85.7445,16.9
85.754,182.2
85.7576,15.8
85.7808,16.1
85.7822,202.8
85.7864,744.5
85.7909,18.5
85.7929,541.6
85.8031,19.4
85.8437,154.7
85.8515,420.5
85.8641,121.3
85.8883,16.1
85.8904,831
85.8957,139.3
85.9044,18.1
85.9215,83
85.9218,85.9
85.9378,439.2
85.9537,849
85.9606,658.7
86.0105,106.3
86.0164,19.4
86.021,484.7
86.0226,134
86.0355,480.1
86.0522,974.4
86.0599,39216.3
86.0783,16.9
86.0963,146087.3
86.1148,184.9
86.1191,102.2
86.1613,309.8
86.1989,117.8
86.1996,16.4
86.2089,487.8
86.2175,482.6
86.2321,18.5
86.266,94.1
86.2668,345.5
86.2721,283.6
86.2738,366.3
86.2821,132.4
86.3078,269.3
86.3307,475.9
86.4086,36.5
86.4193,20.5
86.4221,112.8
86.4292,672.6
86.4337,312.5
86.4375,192
86.4646,338
86.4781,131.9
86.4922,186.6
86.4971,349.4
86.5302,17.4
86.5378,678.5
86.5533,110.2
86.5712,123.6
86.5732,98.6
86.5793,465.6
86.584,308.5
86.6419,139.9
86.6453,758.7
86.6512,134.1
86.6797,623
86.6896,18.1
86.7014,450.4
86.7049,221.4
86.718,186.4
86.7479,827.6
86.7513,546.4
86.7692,367.9
86.7792,183.5
86.7954,134.7
86.8292,581.5
86.8335,584.9
86.8946,105.4
86.9063,96
86.9119,641
86.9268,19.4
86.9527,83.5
86.962,610.5
86.9918,92.8
86.9928,481.6
87.0111,113.3
87.0283,128.8
87.049,23.1
87.0536,573.8
87.0719,123.4
87.0931,90.8
87.0997,3106.7
87.1084,145.5
87.1098,135.3
87.1269,100
87.149,317.3
87.1711,809.2
87.1899,134.4
87.2007,17.2
87.2025,565.9
87.2498,130
87.2986,160.5
87.3012,17.7
87.3311,16.5
87.357,18.9
87.4158,445.6
87.4302,209.1
87.4636,312.2
87.469,600.8
87.4747,148.2
87.5486,96.3
87.5728,139.8
87.5897,391.6
87.5946,110.4
87.6053,341.6
87.6174,162.5
87.6698,345.8
87.6783,170.1
87.7298,461.2
87.7327,79.7
87.7426,16.4
87.7842,186.2
87.7998,109
87.8007,85.4
87.817,36.6
87.8358,450.2
87.8715,744.7
87.8866,626.3
87.9015,113.8
87.939,261.7
87.9407,182.1
87.9507,20.6
87.9536,89.2
87.9547,631.2
87.9583,597.1
87.9654,91.4
87.9684,20.6
87.9907,133.4
88.0051,100.7
88.0074,460.9
88.0123,19.7
88.0392,8429.2
88.0558,271.5
88.1211,524.5
88.1693,172.8
88.1805,83.9
88.1927,352.4
88.2034,40.3
88.2551,367.8
88.2641,434.8
88.2969,404.4
88.3151,102.9
88.3325,104.9
88.3442,40.3
88.3808,401.7
88.3847,353.1
88.3954,104
88.4009,114.4
88.412,130.9
88.418,88.5
88.4238,345.8
88.431,514.6
88.4801,97.2
88.563,98.7
88.5825,165.5
88.5906,898.1
88.5937,643.9
88.6076,103.4
88.625,155.7
88.6382,299.8
88.6593,888.6
88.6754,202
88.7809,188.8
88.7892,20.6
88.7993,115.8
88.8175,309.5
88.8247,99.6
88.8399,647.2
88.8632,157.3
88.87,90.2
88.8828,658.9
88.8889,1040.7
88.9024,133.3
88.909,642.1
88.9138,121.3
88.9192,988.2
88.92,101
88.9284,124.5
88.9359,310.9
88.9422,304.6
88.9523,53.6
88.9581,462.7
88.967,699
88.9832,205.8
88.9995,435.7
89.0053,92.3
89.0156,87.6
89.0215,418.4
89.0887,112.2
89.092,104.7
89.1608,17.3
89.1952,838.3
89.1977,470.7
89.2325,106.7
89.2368,568.1
89.3039,18.7
89.3115,360.4
89.3419,833.7
89.3686,148.2
89.3719,493.4
89.3934,329
89.3997,552.9
89.4031,339.3
89.4318,98.8
89.4951,135.3
89.5004,100.5
89.5174,617.1
89.5515,149.8
89.561,88.2
89.5622,305
89.5633,334.3
89.5659,18.3
89.5683,478.5
89.5951,18
89.6047,271.1
89.6089,37.4
89.6104,100.8
89.6117,352.8
89.6131,337.1
89.6787,261.2
89.68,423.5
89.6864,192.6
89.7068,427.6
89.7217,595.5
89.7419,18.4
89.7503,462.6
89.7565,394.3
89.7726,137.5
89.7892,107.5
89.8146,100.6
89.8172,474.7
89.8306,337.9
89.8381,210
89.8795,556.5
89.9014,115.8
89.956,17
89.9636,432.4
89.9656,281.4
89.9715,854.4
89.9868,100.6
90,265.8
90.0062,95
90.0352,92.5
90.0574,343.7
90.0955,88.8
90.1144,169.4
90.1622,766.9
90.1657,132.5
90.1741,377.8
90.2473,104.5
90.2596,129
90.3016,124.8
90.3366,20.2
90.348,103.5
90.3791,101.3
90.3807,95.4
90.384,319.6
90.3951,100.9
90.4207,96
90.4266,111.2
90.4559,93.9
90.4957,18.1
90.5178,193.7
90.5565,526.6
90.5639,370.3
90.5821,812.3
90.5866,156.4
90.6404,158.9
90.6425,20.3
90.6585,338.4
90.6766,482.1
90.6843,111.7
90.7114,121.4
90.7218,121.2
90.7411,562.1
90.7516,101.7
90.7755,129.9
90.7831,611
90.796,42.9
90.8054,149.8
90.8759,107.5
90.9032,46.3
90.9136,112.5
90.9385,657.9
90.9452,17.1
90.9476,2786.5
90.9515,167.2
90.9766,8489.3
91.0125,282
91.0356,616.9
91.0403,98.6
91.0447,172.7
91.0455,15.9
91.0487,484.5
91.0542,1145.3
91.0709,724.8
91.0776,101.1
91.1021,298
91.1058,595.8
91.1787,121.5
91.1882,469.7
91.1908,18.4
91.1971,581.3
91.2213,603.7
91.306,18.6
91.3121,103.4
91.3132,16.8
91.3146,92.7
91.3304,104.3
91.3776,340.4
91.384,387
91.386,16.9
91.4046,17.3
91.4368,538.5
91.4418,17.4
91.4501,90
91.4863,471.1
91.5128,378.4
91.5392,198.1
91.5478,568.3
91.5506,478.8
91.5573,147.4
91.5673,799.2
91.5795,138.4
91.5848,366.5
91.586,193.4
91.5877,413.9
91.6116,356.5
91.6219,131.2
91.6324,105.8
91.6656,847.9
91.6913,641.3
91.6924,197
91.7266,197.2
91.7351,40
91.8001,99.4
91.8062,238.1
91.8075,400.7
91.8214,310.1
91.8253,392.5
91.8567,125.4
91.8633,635.3
91.8699,674.4
91.8734,78.9
91.887,505.5
91.919,327.3
91.9255,804.1
91.9426,136.2
91.9482,25.5
91.9548,36.9
91.9653,490.1
91.9956,498.7
92.0224,122.3
92.0241,475.4
92.0428,116
92.0478,120.7
92.0494,98.5
92.0986,503.3
92.1086,17.6
92.1317,281.5
92.1346,18.3
92.1875,82.2
92.3262,516.3
92.3416,515
92.3424,520.7
92.3694,399.7
92.436,119.7
92.4673,402.1
92.4687,285.7
92.4869,18
92.4911,397.7
92.5296,187.7
92.5587,752.9
92.5713,396.4
92.602,190.1
92.627,270
92.633,417.7
92.6409,115.7
92.6607,311.7
92.6768,610.4
92.7047,400.1
92.7258,499.5
92.7315,325.1
92.7342,188.5
92.7487,445.1
92.766,446.3
92.8122,425.8
92.8452,202.6
92.8656,462.6
92.8777,91.3
92.8924,394.8
92.8948,356.5
92.9534,122.5
92.9585,345.2
92.9816,408.8
92.9909,524.2
93.0073,465
93.0127,505.9
93.021,18.3
93.0334,35
93.0572,46.8
93.0644,326.4
93.0699,78.6
93.0846,456
93.1347,38.6
93.1471,287.1
93.1612,19.7
93.1659,505.8
93.1802,135.3
93.1832,42.7
93.2095,18.2
93.2194,815.5
93.2353,19.8
93.2548,102.7
93.2845,403.4
93.3123,147.9
93.3309,192.8
93.3332,500.6
93.3395,79.1
93.342,774.6
93.3672,102.1
93.3958,19.3
93.4105,108.2
93.4594,145
93.4602,16.9
93.4607,18.2
93.4884,162.1
93.4923,516
93.4996,561.7
93.5159,166.1
93.5478,182.5
93.5637,865.7
93.5817,760.2
93.6009,444.2
93.615,18.6
93.6205,725.5
93.6454,77.5
93.6753,134.5
93.7102,487.2
93.7298,201.8
93.7343,596.8
93.7436,250.3
93.7607,321.5
93.8048,463
93.8073,198.2
93.8129,448.8
93.8147,327.1
93.8603,769.3
93.8747,496.4
93.8863,140.2
93.905,35.4
93.944,174
93.9519,288.5
93.9873,119.7
93.9898,17.6
93.9985,747.6
94.0016,19.8
94.0413,60499.6
94.049,492.8
94.0753,465.1
94.0771,175.7
94.0873,425.2
94.0947,21.3
94.1059,19.5
94.132,183.4
94.1401,482.5
94.2368,219.8
94.238,433.8
94.2398,81.9
94.2798,464.3
94.2988,312.2
94.3303,479.4
94.3326,75.6
94.3463,18
94.3825,463.1
94.4441,202
94.4514,17.7
94.4784,101.7
94.5664,360.1
94.5732,16.8
94.5926,18.6
94.6312,751.6
94.6607,105.5
94.6674,453.4
94.7119,205.4
94.7163,99.3
94.7347,287.4
94.75,37.2
94.7676,167.5
94.7752,45.9
94.8391,206.5
94.8482,20.4
94.8567,289.1
94.866,551.9
94.8787,674.5
94.8828,127.9
94.8832,170.8
94.8836,162.1
94.9015,151
94.9328,19.7
94.9353,153.1
94.9449,182.2
94.9541,458.8
94.9906,76.6
95.0087,55.2
95.0137,179.7
95.0446,826.5
95.0464,114
95.0491,429689.9
95.0516,32.5
95.0519,49.4
95.0525,18.9
95.0532,22.6
95.0622,386.8
95.0793,177.3
95.0854,970.6
95.0895,27.5
95.156,146.2
95.1655,143.7
95.1829,160
95.1924,741.5
95.2316,444.6
95.2347,377.4
95.2417,517.8
95.2658,987.5
95.2864,820.2
95.328,289.2
95.3569,96.4
95.3637,425.8
95.3655,94.9
95.4009,115
95.4463,38.6
95.457,19
95.4707,35.3
95.4716,179.4
95.4942,127.5
95.5111,78.3
95.5402,435.8
95.5539,98.3
95.5686,311.2
95.5739,282.4
95.5768,474.2
95.6125,131.7
95.6192,105.2
95.6236,174.6
95.6261,89.3
95.6644,548
95.6731,174.4
95.8195,554.5
95.8276,111.1
95.8327,811.5
95.8685,342.6
95.8784,96
95.9366,16.7
95.938,748.5
95.9532,135.4
95.9836,108.3
96.0242,596.4
96.033,715.1
96.0394,17
96.0399,17.8
96.049,148.1
96.0498,319.1
96.0512,372.3
96.0524,20631
96.0555,18.1
96.1154,17.6
96.1308,469.3
96.1399,173.6
96.1424,98.5
96.1867,16.9
96.1953,199.5
96.2278,19.5
96.2343,448.3
96.2463,235
96.2813,134.1
96.2949,583
96.3243,519.6
96.3881,40.8
96.3897,193.4
96.3914,455.7
96.4133,87.8
96.4157,142
96.4184,22.2
96.4237,95.7
96.428,302.7
96.4316,133.6
96.4539,321.2
96.4619,437.4
96.5003,438.9
96.5041,83
96.5624,627.2
96.5744,20.3
96.5802,326.5
96.6143,22.6
96.6353,101.9
96.6483,681.5
96.6607,95
96.6721,114.1
96.684,181.5
96.6854,15.8
96.702,760.8
96.7262,691.4
96.745,417.4
96.7481,456.7
96.7574,306.8
96.7791,19.2
96.7799,287.4
96.7883,141.3
96.8022,478.2
96.8103,132.4
96.8209,520
96.8767,302.4
96.8886,317.5
96.9217,158792.5
96.9375,46.2
96.939,19.2
96.9574,507.6
96.979,690.2
96.9865,168.5
97.0075,102.7
97.0106,90.4
97.018,175.3
97.0189,166.7
97.0316,292
97.0339,21.3
97.0534,106.9
97.101,24.5
97.1331,109.4
97.1534,194.8
97.1552,18.4
97.1569,408.5
97.1712,232.8
97.2354,501.1
97.2433,18.4
97.2855,475
97.3304,85.1
97.3637,92.2
97.3673,336.1
97.3703,399.3
97.4176,176
97.4446,21.4
97.4529,402.1
97.4598,520.1
97.4658,317.4
97.486,323.8
97.5021,87.3
97.5189,128.1
97.5313,117.2
97.5405,131.3
97.5412,275.1
97.5778,152.5
97.6005,578.1
97.6031,99.4
97.6055,137.2
97.6323,338.6
97.6536,40.9
97.6796,620.9
97.6944,151.7
97.7596,301.1
97.8037,96.9
97.8253,186.7
97.9067,526.8
97.9308,547.5
97.949,336
97.9586,885
97.959,931.3
97.9856,18.3
98.0491,203.3
98.0651,301.4
98.0984,520.1
98.1039,122.9
98.1261,120.4
98.1392,318.5
98.1595,736.6
98.1869,452.7
98.1936,748
98.2034,283.7
98.2601,510.4
98.2649,149
98.2686,262.6
98.2974,149.1
98.2995,101.9
98.3096,110.6
98.3103,674.8
98.3114,19.4
98.3121,356.4
98.337,390.4
98.3692,280.1
98.3871,94
98.3931,401.1
98.4068,772.6
98.4398,18.4
98.4826,320.6
98.4868,335.2
98.5011,112.6
98.5182,321.6
98.521,147.2
98.5796,564.5
98.5802,593.6
98.6295,183.5
98.6403,22.1
98.646,517.5
98.6547,146.5
98.677,335.3
98.6846,99.1
98.7101,21.4
98.7183,406.1
98.7266,609
98.7439,163.3
98.7641,829.9
98.7768,132.1
98.7843,438.9
98.8167,116.2
98.8181,224.9
98.8289,838.5
98.8596,84.9
98.8876,132.7
98.9188,46157.9
98.9199,7087.8
98.9416,490.7
98.9612,277.7
98.9753,15464.7
98.9842,76.7
98.9921,200.5
99.015,590.6
99.0316,113.5
99.0328,34.3
99.0917,167.3
99.1204,179.5
99.1479,371.3
99.1714,244.9
99.209,258.6
99.2356,773.9
99.2391,351.1
99.2423,20
99.2699,480.1
99.2839,283.1
99.3026,98.1
99.308,406
99.3503,19
99.3981,362.4
99.525,114.1
99.5337,376.9
99.5498,112.1
99.552,773.8
99.5629,163.5
99.6108,874.3
99.6338,126.7
99.6477,95.6
99.6748,586.4
99.7424,122
99.7672,588.5
99.917,185
99.9244,242.6
99.9337,745.7
100.0745,631.8
100.166,16.9
100.1818,782
100.1843,597.7
100.1946,158.1
100.2284,18
100.2591,228.9
100.2776,588.1
100.279,17
100.291,505.3
100.2989,21.2
100.3072,103.7
100.3209,99
100.3571,18.1
100.3606,203.2
100.3617,618.4
100.3738,682.7
100.3755,184
100.3836,450
100.402,17.1
100.4113,356.5
100.4523,520.1
100.5098,626.9
100.5254,119.8
100.5729,569.1
100.5739,271.2
100.5974,453.6
100.6344,308.2
100.7174,631.8
100.7756,582.6
100.7942,285.2
100.8219,363.8
100.917,2021
100.9201,360.3
100.9285,537
100.9344,35.7
100.9418,758.8
100.9689,695.8
100.978,570
100.9883,901.2
100.9976,299.1
101.0031,501.4
101.0237,231.6
101.0291,101.2
101.0323,19.3
101.0471,3071
101.0565,114.2
101.071,739.6
101.0736,282.9
101.0872,17.5
101.093,164.9
101.1104,112.8
101.1258,90.2
101.1283,86.9
101.1375,324.3
101.1457,134.7
101.163,18.5
101.1778,298.5
101.3126,796.9
101.3142,852.6
101.3281,433.6
101.3467,159.6
101.3482,223.9
101.3514,37.1
101.384,754.2
101.4736,159.4
101.5296,144.4
101.5983,109.4
101.6176,17.4
101.6438,120.3
101.6941,271.5
101.7222,270.2
101.7261,137.3
101.7372,151.8
101.7642,102
101.7743,371.6
101.7924,304.6
101.8229,147.9
101.8294,353.9
101.9044,103.1
101.9054,540.6
101.9201,116.3
101.9265,324.1
101.9332,16.1
101.9358,150.3
101.9458,383.3
101.9637,240.3
101.9753,621.5
102.0023,110
102.0215,159.1
102.0272,260.5
102.0493,107.5
102.0549,4281.7
102.1126,18.5
102.1722,755.2
102.1812,112.1
102.1926,625.9
102.1957,334.7
102.1998,128.2
102.2043,21.5
102.2068,111.8
102.2352,132.4
102.2398,126.3
102.2416,103
102.2478,123.8
102.2834,273.9
102.3034,386.4
102.3599,17.3
102.3639,245.9
102.3701,103.6
102.4111,92.3
102.4519,120.2
102.4602,186.9
102.4707,284
102.4721,93.3
102.5999,164.9
102.6485,124.8
102.6501,240.9
102.687,182.7
102.7146,84
102.7188,116.5
102.7369,308.1
102.7458,377.3
102.7988,185.8
102.8754,99.5
102.9131,412.6
102.9404,20.3
102.9476,48.8
102.968,105.3
102.9702,559.5
102.989,18
102.9951,36.4
103.0093,401.1
103.0176,105.1
103.0355,686
103.0391,91.6
103.0422,107.8
103.0867,18.2
103.0925,397.3
103.1058,812
103.1285,154.6
103.1399,321.4
103.2048,482.9
103.2421,403.2
103.247,19
103.2551,290.6
103.2583,386.4
103.3232,796.2
103.3672,128.4
103.3712,686.8
103.4734,181.7
103.4785,23.5
103.5043,140.1
103.5095,299.7
103.5202,243.4
103.5285,128.3
103.5293,119.1
103.5633,95.3
103.5912,232.5
103.6352,282.1
103.6447,81.8
103.6589,98.7
103.6643,96.1
103.6722,333.4
103.6814,332.4
103.7108,138.5
103.7249,21.6
103.733,18.5
103.7436,371.5
103.7536,17.8
103.7662,105.4
103.8426,160.7
103.8583,155.3
103.8747,392.3
103.9079,18.7
103.918,362.3
103.9276,233.7
103.9579,162.2
103.9665,19.7
103.9793,236.1
103.9844,238.1
103.9874,100.8
104.0061,173.2
104.0216,130.8
104.0708,83.6
104.0865,92.1
104.0891,292.1
104.107,616090.7
104.1233,113.2
104.13,507.7
104.1555,121.9
104.2326,285.1
104.242,117.6
104.2517,36.2
104.2585,559
104.2597,107.3
104.2601,152.5
104.2625,412
104.325,288.9
104.3319,99.6
104.3334,456.5
104.3534,326
104.3601,308.6
104.3615,373
104.3677,293.3
104.3748,18.9
104.3963,363.7
104.4159,191.1
104.43,18
104.4533,19.4
104.4683,102.2
104.4854,109.2
104.5106,309.2
104.5247,508.5
104.6394,22.7
104.678,196
104.6809,312.1
104.7003,90.8
104.7068,334.3
104.7643,281.6
104.8064,144
104.8553,18.9
104.8907,112.2
104.9481,112.5
104.9633,3816
104.9923,3296.4
105.0033,23.6
105.0447,38994.4
105.0583,407.6
105.0699,27.7
105.1103,22526.9
105.123,128.4
105.1288,560.4
105.135,146.7
105.1762,1207.1
105.1788,266.2
105.1996,474.7
105.2528,668.4
105.2588,16.7
105.2678,284.9
105.2798,168.3
105.281,330
105.3149,317.8
105.3678,641.9
105.3701,525.9
105.3862,707.9
105.4009,90.8
105.4123,16.7
105.4136,148.3
105.4238,691
105.4478,220
105.4508,555.5
105.4604,37
105.48,320.2
105.5011,549.3
105.5029,127.2
105.5049,368.9
105.5061,18.5
105.5092,42.2
105.5105,450.7
105.5178,532
105.5547,122.3
105.5747,861.9
105.5904,117.4
105.5935,664.1
105.5952,160.2
105.6024,17.3
105.6128,107.1
105.6177,513
105.6506,93.9
105.6524,499.7
105.6861,282
105.711,388.6
105.7357,144.4
105.7585,186.1
105.7775,277.6
105.856,17.6
105.859,34.5
105.8757,581.6
105.9045,349.2
105.9308,180.8
105.9399,433.9
105.9639,40.3
105.996,808.6
106.0075,36.6
106.043,637.1
106.0481,710.7
106.0651,92.9
106.079,98.7
106.0994,109.7
106.114,660.9
106.1646,149.9
106.2201,360.7
106.2927,465.5
106.2952,18.5
106.3325,98.4
106.3509,146.5
106.3538,392.3
106.3581,104.7
106.3761,647.3
106.4021,550.1
106.4133,824.3
106.4238,405.3
106.4308,167
106.432,265.8
106.4497,504.9
106.4761,113.4
106.4953,97.4
106.5661,590.6
106.5683,456.9
106.5771,217.2
106.5836,779.1
106.594,95.3
106.6086,157.7
106.627,418.7
106.6369,606.7
106.6483,369.3
106.6796,327.5
106.6944,121.4
106.7962,207.5
106.8274,261.5
106.8469,606.3
106.8588,408.3
106.8936,112.2
106.8951,381.3
106.9206,125.1
106.94,139.8
106.9435,22.5
106.9506,3437
106.9527,18.7
106.9636,262.3
106.9692,24.7
106.9808,164.5
106.9843,127.1
106.992,30
107.0203,19.6
107.0233,18.8
107.0284,136
107.0443,239.3
107.049,446.6
107.0527,114.1
107.0618,319
107.1098,323.1
107.1843,923.5
107.2351,580.5
107.2482,292.9
107.2657,100.1
107.3003,350.9
107.3625,105.4
107.3713,150.9
107.3903,690.4
107.4164,355.8
107.4219,100.8
107.433,250
107.4378,488.2
107.4625,120.1
107.4642,303
107.4665,506.9
107.4921,108
107.501,122.4
107.5022,19.8
107.5098,446.6
107.5139,132.7
107.533,111.6
107.5456,248.6
107.5782,18.9
107.5873,254
107.6201,106.2
107.6432,284.2
107.6663,98.1
107.6892,652.4
107.7083,186.9
107.7512,341.3
107.7722,402.7
107.8125,170.5
107.8396,22
107.8515,333.3
107.863,83.9
107.8669,134
107.971,291.1
107.9874,539.7
108.0349,550.7
108.057,192.1
108.0586,251.1
108.076,182.7
108.1032,107.5
108.123,386.3
108.1383,350.7
108.1944,161.4
108.228,442.7
108.2482,83.7
108.2864,644.1
108.2939,261.6
108.2959,185
108.3115,336.7
108.3132,163.7
108.331,669.1
108.3778,133.4
108.4009,666.2
108.4071,19.9
108.4213,466
108.4262,413.9
108.4454,15.8
108.466,353.6
108.4802,323
108.5055,533.3
108.5643,142.1
108.5888,479.9
108.6157,491.9
108.6407,338.7
108.7009,121.6
108.7181,271.7
108.75,341.9
108.7634,581.6
108.7672,482.9
108.7734,293.8
108.823,200.4
108.8443,80.6
108.868,94
108.9402,327.3
108.9583,136.3
108.9742,337.2
108.9961,173.7
109.0107,41.6
109.0516,141.1
109.0629,56
109.0648,61566.1
109.0939,266.8
109.1012,409
109.1136,776
109.1178,96.4
109.1367,115.1
109.1377,343.7
109.1705,653.8
109.1901,157.2
109.2009,170
109.208,119.7
109.2575,540.6
109.3078,101.5
109.3726,279.8
109.378,324
109.5241,302.1
109.5497,550.5
109.5572,18.2
109.5748,127.1
109.5803,246.8
109.5845,756.4
109.6189,737.5
109.6666,236.5
109.6912,211.3
109.7357,543.2
109.7521,825.9
109.8135,599.2
109.8151,165.2
109.8313,478.3
109.9354,477.1
109.9416,40.5
109.9525,929.3
109.9599,130.6
109.9663,91.1
109.9782,94.3
109.9893,297.5
109.9952,144
110.0094,525.8
110.0206,178
110.0246,519.9
110.0342,163.8
110.0366,308.1
110.047,462.4
110.0601,19.3
110.0681,2063
110.0714,1244
110.0969,121.6
110.133,673.6
110.2162,20.1
110.2335,87.5
110.2473,171.6
110.2642,781.6
110.2776,169.6
110.311,111.7
110.3144,101.1
110.3528,88.7
110.3668,78.9
110.3975,82.6
110.4433,47.2
110.4906,443.4
110.4985,220.1
110.5322,157
110.5346,645.8
110.5416,460
110.5507,147.9
110.5576,877.1
110.6024,187.5
110.6294,111.8
110.6457,285.6
110.6698,180.7
110.6736,355.8
110.6954,190.6
110.7061,120
110.7275,123.8
110.7505,549.7
110.7948,114.7
110.8347,128.2
110.8896,341.8
110.8927,697.2
110.9416,17.7
110.9812,120.3
110.9946,144
111.0232,285.2
111.0441,222.5
111.0774,45
111.0894,468.6
111.1652,485.8
111.2543,265.9
111.3146,244.4
111.394,672.9
111.4071,260.6
111.4331,194.6
111.4935,146.7
111.5089,105.7
111.5267,134.7
111.532,108.4
111.6212,225.1
111.6304,283.5
111.6825,382.5
111.7086,181.3
111.7293,330.8
111.7317,21.6
111.7441,137.8
111.8398,102.3
111.8484,216.4
111.8807,144.2
111.8891,182.6
111.929,269.9
111.9484,158.7
111.9904,158.7
112.0214,121.4
112.0388,338.8
112.0559,387.3
112.0678,115.1
112.0995,25.3
112.1045,739.8
112.135,76.7
112.1441,94.6
112.1584,172.1
112.1737,625.4
112.1767,736.5
112.2105,294.1
112.2164,17.5
112.2383,819.7
112.2775,385
112.3557,313.3
112.3624,165.9
112.403,858.8
112.4048,408.2
112.4109,381.1
112.454,412.7
112.4757,91.6
112.4807,229.9
112.5242,560.7
112.5281,288.9
112.5322,136.1
112.5383,449.7
112.5399,444
112.6022,339.9
112.6355,209.3
112.6823,323.9
112.7507,140.8
112.7579,78.3
112.826,167.7
112.8556,104.6
112.8766,230.1
112.8958,430405.9
112.9005,222.2
112.907,377.7
112.9481,433.7
112.9491,316.6
112.9619,627.9
113.0567,306.9
113.0713,21.6
113.0847,866.5
113.0972,216.1
113.1041,127.8
113.1106,140.6
113.1169,462.7
113.1524,161
113.1597,146.2
113.1674,159.6
113.2734,187.8
113.2804,149.7
113.3582,392.9
113.3659,138.8
113.3875,568
113.4641,333.2
113.4755,99.6
113.5016,271.3
113.5287,248.7
113.5692,134.3
113.589,18.3
113.662,17.1
113.6854,234.5
113.6932,247.3
113.7158,95.4
113.7261,106.1
113.7845,692
113.7917,93.9
113.8162,87.7
113.9128,693.6
113.9637,20.3
113.9718,112.8
113.9885,26.6
114.0328,94.4
114.055,52574.6
114.0662,1207
114.0902,129.8
114.1093,716.3
114.2067,130.5
114.2345,520.6
114.2833,211.8
114.2851,609.6
114.3962,305.2
114.4027,21.5
114.4172,179
114.4359,935.3
114.4421,317
114.4692,17.7
114.4858,224
114.5204,93.6
114.5306,349.7
114.535,116.8
114.5775,352.8
114.5805,291.5
114.5875,301.8
114.5919,337.3
114.6035,204.6
114.6325,293.2
114.6383,499.3
114.6405,419.8
114.6813,296.5
114.7356,573.7
114.7641,347.2
114.767,878.5
114.8691,487.8
114.8818,545.1
114.8928,140419.7
114.9292,96.5
114.9482,453.2
114.9603,133.1
115.0544,21.8
115.0583,1644.6
115.0999,105.2
115.1027,17.1
115.1105,184.1
115.1155,118.6
115.123,132.8
115.1638,110.9
115.1678,256.2
115.199,383
115.2207,122
115.2759,770.9
115.297,155.7
115.3131,251.6
115.3525,476
115.4023,117.8
115.4474,162.9
115.4542,96.7
115.4593,528.9
115.5253,85.8
115.5944,118
115.6432,89.5
115.7192,188.8
115.7283,204.6
115.744,128.5
115.768,556.5
115.7796,42
115.8615,96.4
115.8707,136.3
115.938,133
115.9794,589.8
116.0706,3324.8
116.0759,96.4
116.1349,151.7
116.1458,338.8
116.1589,496.1
116.1635,127.2
116.1655,305.9
116.1753,516.8
116.1946,520.6
116.2538,619
116.277,134.1
116.2859,105.1
116.3542,505.2
116.4107,695
116.4289,565.9
116.4602,682.5
116.4618,83.3
116.464,378.8
116.511,211.3
116.533,725.2
116.6078,289.5
116.6911,297.5
116.6962,91.3
116.7236,119.9
116.7422,129.2
116.8056,410.4
116.8461,73
116.8563,82.3
116.8581,97.7
116.8909,15224.3
116.9103,690.4
116.9146,131.4
116.9474,27.4
116.9634,168.2
116.986,1789.3
117.0699,28.8
117.1108,363.8
117.1376,16.7
117.1469,745.5
117.1563,185.9
117.2213,312.4
117.2882,20.9
117.3301,157.8
117.3351,124.1
117.3369,40.2
117.3397,433
117.3896,95.6
117.4124,174.7
117.5764,148.3
117.6243,197.7
117.6254,16.7
117.6567,130.2
117.6581,294.1
117.698,19.2
117.7126,81.2
117.7143,401.1
117.7309,123.3
117.742,18.2
117.7543,95.6
117.7568,107.4
117.8613,181.6
117.8723,236.8
117.8811,515.5
117.9457,55.6
117.9524,135.3
117.956,330.1
117.9639,111.2
117.9798,22.1
117.9951,24.4
118.002,233.9
118.1189,460.6
118.1282,93.4
118.1392,106
118.1542,147.5
118.1692,473.2
118.1882,105.4
118.192,93.6
118.2373,109.8
118.2465,21.6
118.2914,201.2
118.3015,330.3
118.3147,175.6
118.3276,627.5
118.3536,134.1
118.4056,378
118.4186,205.5
118.4418,18.2
118.4741,292.9
118.5066,306.5
118.5404,108.8
118.5661,153.8
118.5697,120.1
118.639,17.6
118.6534,188
118.6905,608.2
118.6967,103
118.7331,140
118.7849,21.9
118.8263,18.9
118.8572,341.4
118.862,269.9
118.8745,329.5
118.9225,18.6
118.9427,757.2
118.979,812.1
119.0066,492.9
119.0188,26
119.044,124.7
119.0563,100.4
119.0599,94.6
119.0698,246.2
119.0721,299.9
119.0955,603.1
119.1124,150.5
119.1675,771.1
119.1729,19.7
119.2085,17.5
119.2153,112.5
119.2671,115.8
119.2879,124.9
119.3097,116.3
119.3288,366.8
119.3326,459.3
119.3406,99.4
119.3511,627.6
119.3735,118.5
119.4305,409.7
119.4356,94
119.4747,18.8
119.5185,190.4
119.5454,18
119.5522,320.2
119.5924,558.7
119.6126,842.9
119.6833,337.4
119.7205,86.1
119.7519,17.9
119.7745,137.4
119.8118,16.6
119.8773,18.1
119.9168,735.8
119.9243,106.5
119.9267,567.7
119.9865,300.4
120.0032,2275.6
120.0295,442.9
120.057,16.9
120.0808,17472.4
120.1336,15.9
120.135,21.3
120.148,153.9
120.1549,279.1
120.1731,582.3
120.1748,20.3
120.2107,259.9
120.2216,18.2
120.2239,109.4
120.2893,555
120.3365,112
120.3941,89.1
120.4004,104
120.4122,342.5
120.4286,18.2
120.4501,17
120.5066,344.1
120.5511,35
120.5588,306.8
120.5638,499.9
120.5828,286.7
120.5961,129.8
120.6385,108.8
120.746,304.3
120.7806,40.3
120.8144,94.5
120.837,125.5
120.8603,643.8
120.8736,240.2
120.8937,407.9
120.9254,393.1
120.9628,489.1
120.9674,586.2
120.9793,33
120.9809,151.7
121.0069,560.3
121.021,493.6
121.0285,388.5
121.0349,149.4
121.0396,70.2
121.0746,310.9
121.1016,25
121.1119,735.3
121.1449,324.4
121.1689,278.9
121.1738,96.8
121.2277,196.2
121.2612,449.5
121.2835,153.4
121.3081,97.7
121.3165,143.7
121.3559,747.4
121.3768,130.2
121.391,460.7
121.4115,81
121.4163,564.7
121.4187,385.3
121.4314,409.3
121.4358,179.4
121.4646,800.1
121.4856,127.2
121.4933,105.9
121.5189,372.3
121.5677,453.2
121.5803,756.7
121.5937,553.4
121.606,100.5
121.6733,531.3
121.6752,151.7
121.7403,17.2
121.7617,103.5
121.7961,98.4
121.811,84.3
121.8423,103.9
121.848,784.2
121.8496,120.6
121.8819,299.3
121.8948,254.1
121.8961,19.6
121.905,303.3
121.9165,19
121.9591,349.5
122.0115,345.3
122.0504,518.3
122.0535,353.2
122.0975,94.8
122.1357,765.9
122.1513,372.9
122.1554,227.9
122.1748,86
122.1776,144.5
122.1819,474.7
122.1846,969
122.1879,160.7
122.2555,124.4
122.2892,94.6
122.297,114.7
122.3089,19.7
122.3121,18.3
122.3435,165
122.3753,723.2
122.4219,166
122.4353,19.9
122.4468,230
122.4515,125.4
122.468,114.5
122.4819,37.8
122.5085,318.4
122.5462,115.5
122.5883,151.1
122.6471,331.1
122.6878,389.7
122.6897,86.8
122.7137,368.5
122.7239,117.1
122.76,572.8
122.764,124.6
122.7718,104.7
122.7751,245.7
122.8148,92
122.8174,80.9
122.8244,20.9
122.8833,505.3
122.8924,154.7
122.9119,104.2
122.9225,456.1
122.9246,18893.5
122.9501,629.2
122.974,234.6
123.008,217
123.0296,304.7
123.0805,50.3
123.1005,293.5
123.1805,37.2
123.247,138.7
123.2679,115.1
123.3692,187.6
123.3873,132.1
123.416,19.1
123.6286,934.6
123.6858,318.2
123.6968,82.9
123.728,18.2
123.7472,170.1
123.7555,109
123.7779,380.5
123.7879,347.3
123.8486,19.3
123.8743,125
123.9316,17.6
123.9545,399.8
123.9697,385
124.0048,185.4
124.0207,84.8
124.0338,357.8
124.0373,259.1
124.0505,117.7
124.0682,314.7
124.1299,308
124.1448,120.2
124.1585,126.7
124.1946,19.8
124.2234,198.6
124.2724,497.8
124.2808,192.5
124.2838,236.4
124.3291,181.9
124.3655,270
124.4523,592.2
124.4597,117.1
124.5647,477.6
124.5797,36.7
124.6543,164.1
124.6806,18.7
124.8157,357.3
124.8291,41.3
124.8368,384.6
124.8387,262.4
124.8424,708.4
124.8452,527.8
124.8521,18.2
124.8787,262.9
124.8811,133.2
124.893,902.3
124.9123,141.7
124.9227,1333.5
124.9261,633.2
124.9671,249.4
124.9792,129.1
124.992,136.3
124.9999,9450.4
125.0057,994.4
125.0072,42.9
125.0289,205.1
125.0389,261.4
125.0598,40.9
125.2198,160
125.2765,94
125.2827,427
125.3596,151.8
125.4113,340.3
125.4241,88.9
125.4453,602
125.5266,241.3
125.5352,107.8
125.6051,19.2
125.6608,163.2
125.666,616.3
125.6807,530.6
125.7196,180.7
125.7523,87.5
125.771,36.9
125.797,102.1
125.8206,229.8
125.8337,101.4
125.8506,500.9
125.8858,118.4
125.8871,478.4
125.9011,658.8
125.9055,138.5
125.9648,17.8
125.9974,17.9
126.0002,148
126.0207,110.5
126.0228,488.2
126.0401,301.7
126.0572,111.6
126.0773,478.9
126.0802,103.7
126.1626,291.2
126.2595,99.7
126.2751,231
126.3122,351.2
126.3235,105.3
126.4346,502.6
126.482,126.4
126.5052,18.2
126.5837,87.7
126.5926,113.8
126.6271,565.4
126.6431,169.2
126.6586,249.6
126.6796,145.7
126.6911,17.8
126.6954,331.3
126.7111,679.6
126.729,361.2
126.7423,184.7
126.7627,19.3
126.7856,133.7
126.8148,250.6
126.8314,655.7
126.8461,339.3
126.891,19.3
126.9044,572.4
126.9562,109.3
126.9826,316.2
127.0059,285.5
127.0393,119.5
127.048,270.8
127.0621,253.8
127.1029,17.1
127.1426,791.6
127.149,541.5
127.1634,549.3
127.221,103.5
127.275,284.7
127.288,586.2
127.3119,107.2
127.3223,408.4
127.3632,123.8
127.3669,36.6
127.3701,360.6
127.4147,91.6
127.4221,319.1
127.4419,117
127.5025,145.3
127.5123,18.5
127.5381,133.4
127.5991,181.3
127.6116,545.4
127.6181,514.5
127.626,324.4
127.6363,243.7
127.7022,309.3
127.7102,44.8
127.7132,559.1
127.7252,181.4
127.7597,19.2
127.788,140
127.8165,728.3
127.819,110
127.8604,113.3
127.8831,129.6
127.905,352.4
127.9288,290.5
127.9667,422
127.9889,722.4
128.0106,242.7
128.0157,26
128.0173,534.2
128.0482,175.5
128.1016,89.1
128.1152,525.7
128.1672,17.4
128.2199,502.7
128.281,702.7
128.2964,77
128.3118,122.8
128.3124,102.6
128.3466,143.6
128.4548,19.6
128.4937,439.9
128.4953,388.7
128.5721,813.3
128.5807,534.6
128.6169,850.3
128.6233,167.4
128.6579,95.4
128.6888,99.5
128.704,176.5
128.7181,17.7
128.7209,446.5
128.7364,385.8
128.7979,16.8
128.8103,20
128.817,201.6
128.9635,323.1
128.9995,17.1
129.0034,807.2
129.0335,393.3
129.0372,18.3
129.0711,101.1
129.1023,853.2
129.1385,510.5
129.1718,360.1
129.1926,226.1
129.2478,214.4
129.2516,381.1
129.2935,399.6
129.3739,577.6
129.393,335.4
129.4583,109.6
129.4731,854.6
129.4844,877.7
129.5243,1032.1
129.548,104.4
129.5966,85.2
129.647,201.3
129.6835,46
129.6968,121.6
129.7156,261.6
129.7309,201
129.7333,16.6
129.7367,124.2
129.7514,472.6
129.7701,349.7
129.7766,142.5
129.7783,18.3
129.8402,102.9
129.858,182.1
129.8767,222.9
129.8783,660
129.8802,131.6
129.887,184.7
129.9348,328.8
129.9574,779.6
129.9588,703.8
129.9664,377.9
129.9951,136.6
130.05,8768.9
130.0655,24.7
130.1193,523.4
130.1371,21.5
130.1428,302.1
130.1467,101.3
130.1725,258.2
130.1799,90.5
130.1829,121.1
130.26,201.1
130.3086,314.2
130.3214,228.4
130.3555,704.7
130.3589,639.7
130.3793,445
130.4131,291.6
130.4913,390.2
130.4964,231.7
130.4996,742.1
130.5459,123
130.5499,456.6
130.5698,617.5
130.5967,500.6
130.6105,137.3
130.6313,199.5
130.7151,138.9
130.7973,112.2
130.874,185.8
130.8845,19
130.8956,203.1
130.9222,389.1
130.9789,27.5
130.9941,20.7
131.0002,158.3
131.006,75
131.0193,19.2
131.0423,96.9
131.0796,298.2
131.109,17.7
131.1342,145.4
131.1452,17.6
131.1925,423.3
131.2195,731.9
131.2402,39.1
131.2518,94
131.3333,127.3
131.3586,342
131.3924,20
131.4121,293.3
131.4386,314
131.4585,376.2
131.4623,876.6
131.5343,22.6
131.5487,106.2
131.5767,525.8
131.5844,81.5
131.6641,148.3
131.7474,83.4
131.748,86.6
131.7718,36.3
131.8184,216.1
131.9465,98
131.9866,168.8
132.0033,30107.6
132.0189,381.4
132.0243,211.9
132.0461,452.2
132.0656,94028.5
132.0765,368.1
132.0793,651.2
132.0891,369.8
132.1012,98.2
132.1124,21
132.144,138.9
132.2343,189.7
132.3184,352.6
132.3933,520.5
132.4006,585.8
132.4018,536.6
132.4775,829.3
132.479,495.6
132.5016,375.6
132.5547,119
132.5706,509.8
132.6597,317.2
132.6813,212.4
132.6948,357.7
132.7254,19
132.7339,588.3
132.7498,495.7
132.7954,144.1
132.7994,331.4
132.8473,146
132.8559,101.7
132.8654,235.8
132.9027,16.3
132.9064,466.8
132.9292,645.6
132.9423,417.1
132.9583,683.8
132.9669,826.5
132.9697,35.3
132.9748,313.7
132.9874,1573.4
133.0281,532.5
133.0689,2007.3
133.0972,14112.8
133.1008,394.3
133.11,233.7
133.117,189
133.1313,558.1
133.1702,283.3
133.2258,157.9
133.2337,549.8
133.2538,156.1
133.264,171.4
133.3194,120.4
133.3347,518.1
133.4084,407.6
133.4306,510.7
133.4829,18.2
133.593,39.7
133.6182,268.4
133.6649,112.3
133.6697,17.6
133.6771,138.3
133.7177,138.2
133.7559,95.8
133.8665,318.3
133.9055,873.4
133.9218,359
133.9266,345
133.9644,150.6
133.9814,21.9
133.9965,657.8
134.019,7201.8
134.0454,99.4
134.0478,650.3
134.0699,17.1
134.1282,89
134.1299,322.9
134.2184,113.2
134.2613,242.8
134.2929,584.1
134.3105,121.7
134.3137,456.7
134.3179,96.1
134.3322,373.7
134.3408,607.8
134.366,306.3
134.3796,320.4
134.4217,329.8
134.4541,17.9
134.4762,372.5
134.6347,101.8
134.6467,86.1
134.7438,118.9
134.7482,111
134.7959,397.8
134.83,319.1
134.8379,101.7
134.8874,363.4
134.8968,503
134.9159,18.5
134.9265,16.7
134.9357,99.8
134.9725,171.7
134.9741,50.5
134.9893,182.8
134.9965,53.6
135.003,51267.5
135.0175,378.8
135.0607,508.7
135.0806,16.6
135.0968,110.2
135.117,20.9
135.1293,370.1
135.1316,35.2
135.1862,347.5
135.2147,498.6
135.2503,89.9
135.2588,402.7
135.2793,191.5
135.3372,149.2
135.3446,427
135.3644,651.8
135.407,155.9
135.4094,371.8
135.4597,162.8
135.5124,316
135.5272,618.9
135.5802,17.7
135.594,41.4
135.6259,160.9
135.6433,82.8
135.6617,117.8
135.8019,101.5
135.8044,287.8
135.8058,39.9
135.813,492.2
135.8532,348.8
135.9773,3419.2
135.9818,38.4
135.9845,159.7
136.0224,356.9
136.046,20.3
136.0483,5671.4
136.062,28.4
136.0758,13712.6
136.1266,100.5
136.1341,329.1
136.1875,438.7
136.2065,237.6
136.2141,114.9
136.2964,369.4
136.3024,714.8
136.3227,346.7
136.3961,89.3
136.3996,152.6
136.4029,282.5
136.4655,102.1
136.4936,126.7
136.5288,542.2
136.5899,216.8
136.6023,82.9
136.6246,102.7
136.6271,521
136.6291,39.6
136.6704,89.4
136.6799,134.7
136.7148,159.6
136.7241,608.1
136.7321,122.4
136.7898,171.2
136.7904,165.9
136.8043,281.9
136.9313,2322
136.9439,20
136.9533,151.8
136.9778,129.2
136.9897,71.6
137.0327,711.3
137.098,395.5
137.1253,346
137.1596,314.9
137.3595,579.1
137.3828,369.3
137.4086,94.2
137.4118,659.5
137.4462,186.7
137.4502,373
137.5566,318.5
137.5615,129.6
137.591,533.6
137.5971,487.5
137.6154,18.7
137.8722,421.8
137.8736,101.7
137.8819,847.8
137.8929,364.8
137.9773,468.1
138.0527,6198.6
138.0578,83.1
138.1526,108.7
138.1725,658.8
138.1762,806.5
138.2079,103
138.2657,322.7
138.3207,137.5
138.3499,827.5
138.3772,146
138.3943,95.8
138.4546,209.8
138.5209,100.7
138.5345,179.6
138.5407,20.3
138.5431,705.1
138.5841,421.7
138.6873,290.4
138.7019,133.6
138.748,106.1
138.76,272.2
138.782,722.3
138.7935,418
138.82,150
138.9067,3244.3
138.9842,37.4
139.0031,302.8
139.006,18.8
139.0085,19.1
139.021,633.9
139.0334,115.4
139.0916,165.6
139.1135,166
139.1184,188.5
139.1223,774.4
139.1575,20.5
139.1801,188.7
139.2537,362.7
139.3152,164.2
139.3338,17.1
139.3584,49.6
139.4646,26.6
139.4684,47.6
139.5022,22.5
139.5106,616
139.5903,19.5
139.596,128.7
139.7323,468
139.7891,124.8
139.8521,968.2
139.8764,106
139.9101,18.7
139.9592,192.1
139.9782,375.4
140.0166,4169.8
140.047,267
140.0684,2824.9
140.0809,126.7
140.086,21.7
140.1258,443
140.1801,19.1
140.197,478.6
140.2928,203.5
140.31,172.7
140.3525,375.3
140.3592,132.1
140.4201,219.4
140.4388,121.1
140.5433,726.3
140.6071,596.8
140.6904,143.2
140.7264,246.3
140.7986,123.7
140.8552,100.7
140.8666,97.6
140.896,175.8
140.9038,1799.7
140.9233,106.3
140.9511,454.3
140.9561,438.2
140.9647,213.9
140.9726,708.3
140.9754,936.2
140.9787,22.1
141.0006,16343.9
141.0178,115.7
141.02,170.9
141.0246,578.4
141.0386,193.3
141.0415,587.2
141.0463,144.7
141.0504,141.2
141.1332,792.9
141.1541,104
141.1644,152
141.1697,18.2
141.1761,463.5
141.2657,384.1
141.2814,100.3
141.318,19.4
141.3527,667.1
141.3538,148.4
141.3625,693.6
141.3981,167.7
141.4129,18.8
141.4173,139.2
141.4299,353.5
141.4414,183.1
141.4933,245.1
141.4988,304.4
141.5129,244.8
141.5138,556.5
141.5143,560.5
141.6291,507.8
141.6402,133.6
141.6558,18.7
141.6819,597.2
141.684,133.2
141.6944,294.2
141.7081,191.4
141.7725,22.7
141.8052,577.4
141.8244,82.7
141.8381,652.1
141.8735,499.1
141.9155,451.6
141.924,98
141.9413,922.4
141.9546,131.9
141.9604,150.3
141.9709,93.5
141.995,425.3
142.004,356.4
142.0126,488
142.015,19.6
142.0303,305.6
142.0581,616.1
142.0632,589.9
142.0955,197.6
142.179,45
142.2159,110.3
142.2945,130.2
142.2963,150.8
142.3036,635.1
142.3367,436.7
142.3387,283
142.385,259.4
142.5151,768.9
142.526,317.4
142.5894,24
142.6061,569
142.7554,129.3
142.7741,484.2
142.824,19.7
142.8411,487
142.8478,150.6
142.8963,160.2
142.9092,122.4
142.9208,486.8
142.9311,18
142.9627,109.5
142.9808,106.6
142.9946,92.8
142.9964,268.8
143.0021,886.1
143.0192,1762.9
143.0344,171.8
143.0664,136.5
143.0716,657
143.0732,468.6
143.0758,141.3
143.0817,203.2
143.0976,20.7
143.1729,439.3
143.184,178.7
143.2375,92.4
143.2589,562
143.2786,515.2
143.2855,22.2
143.2929,447.1
143.3274,191.6
143.3281,219.4
143.3288,182.4
143.3321,89.6
143.3936,136.9
143.4166,515.3
143.4909,379.5
143.5622,206.3
143.5741,88.8
143.5799,18.2
143.5934,669.9
143.6156,288.7
143.8272,125.1
143.8617,447.4
143.9349,543.9
143.9527,602.8
143.9966,533.9
144.0039,19.7
144.0108,1353.4
144.0312,84.7
144.0646,116.2
144.0816,282.7
144.0831,447.4
144.1054,252.4
144.1823,630.9
144.188,136.9
144.276,416.6
144.2933,548.3
144.3048,322.1
144.3264,475.4
144.3647,184.2
144.5115,274
144.536,340.7
144.5474,16.2
144.6104,347.6
144.6548,108
144.6841,804.5
144.7572,20.1
144.7596,377.2
144.7727,631.1
144.7747,173.8
144.7892,24.1
144.7966,122.3
144.8085,481.5
144.8228,114.8
144.8293,192.9
144.8353,187.5
144.8434,17.9
144.8943,439.2
144.906,352.4
144.9519,120.2
144.9676,19.4
144.9809,1861.1
145.0181,435.7
145.0537,148.2
145.1384,301.9
145.186,735.6
145.2182,142.1
145.2332,93.8
145.2363,105.1
145.2431,267.2
145.2634,104.4
145.3025,146.5
145.4918,90.8
145.5047,174.2
145.5138,186.5
145.5166,81.5
145.5663,141.1
145.5717,850.6
145.5967,164.4
145.6228,108.6
145.6549,124.1
145.6937,100.9
145.7412,877.1
145.8386,219
145.8438,257.7
145.9301,717.5
145.9602,18.7
145.9668,21.1
145.9884,126.7
146.0127,4240.3
146.019,22466.7
146.0265,95.8
146.0541,94
146.0891,97
146.098,16.8
146.1034,174.2
146.137,627.4
146.1421,229.7
146.2478,338.4
146.257,701.2
146.3224,483.4
146.3433,129.2
146.4287,774.5
146.504,19.2
146.5128,392
146.5147,290.9
146.5443,195
146.6881,103.9
146.7341,23.2
146.7401,219.2
146.7725,309.5
146.808,155.5
146.8304,430.9
146.8579,693.8
146.9116,91.8
146.9744,24.1
146.9819,144463.3
146.9874,172.5
147.0614,17.5
147.0766,72575.5
147.0806,223
147.0959,94.6
147.1066,178.1
147.113,27122.6
147.1171,584.2
147.1439,99.2
147.206,155.6
147.2067,228
147.2073,200.7
147.3359,388.4
147.3758,207
147.3987,539.6
147.4156,336.1
147.4469,40.1
147.4701,91.4
147.4955,190.5
147.5428,170.3
147.5553,186.3
147.5621,157.5
147.6252,772.3
147.6906,517.8
147.7345,163.6
147.7556,118
147.7906,444.2
147.7949,674.2
147.8059,292.6
147.8682,108.6
147.8845,136.6
147.9104,97.1
147.9165,226.4
147.941,529.5
147.9771,428.1
147.9853,1229.7
148.058,277.3
148.0624,107.5
148.0674,135
148.0798,514.5
148.1121,42.9
148.157,251.9
148.1643,17.6
148.2649,285
148.3385,300.4
148.3662,470.9
148.3836,355.7
148.5219,133.7
148.5323,5006.7
148.575,751.6
148.6147,20.6
148.6347,16.7
148.7285,215.5
148.7422,239.3
148.7864,383.6
148.8246,90.8
148.8268,186.4
148.8858,425.3
148.8951,78.5
148.8992,663.4
148.9121,830.1
148.9469,831.5
148.9614,1354.7
148.989,99.4
148.9917,94.8
149.0027,29.1
149.0076,164.3
149.0187,17570.5
149.0213,99.4
149.0235,5288.4
149.0432,99.7
149.0451,33
149.1325,25.6
149.374,641.8
149.3828,110.4
149.4349,289.3
149.4396,287.6
149.5187,444.2
149.6086,514.5
149.6763,91
149.8441,461.5
149.8839,22.6
149.9214,430.4
149.9466,341.5
149.97,336.2
149.9877,66.4
149.9929,4048.2
150.014,5039
150.0471,17.3
150.0637,17.6
150.1069,655.8
150.1107,139.1
150.1173,177.6
150.1439,130.1
150.2469,393.1
150.3461,854.3
150.3576,604
150.3859,295.3
150.4382,374.8
150.4586,121.3
150.585,102.6
150.6298,503.7
150.6919,99.5
150.7561,429.9
150.774,20.4
150.8231,475.3
150.8303,77.5
150.851,270
150.874,115.9
150.8909,181.4
150.926,681.7
150.9685,567.6
150.977,32000.4
150.9843,4399.5
151.0053,128.5
151.0122,98.8
151.042,101.3
151.0479,3291
151.1543,115.2
151.1563,19.1
151.1902,513
151.2053,561.3
151.2085,140.8
151.2406,109.1
151.3598,18.9
151.3988,297.8
151.4532,366.3
151.4653,21.9
151.5188,122.7
151.5216,167
151.5814,525
151.6583,99.8
151.6775,133.4
151.759,19.5
151.7851,570.1
151.8404,436.9
151.8561,23.8
151.8789,662
151.9019,673.1
151.9119,393.4
151.9266,94.9
151.9511,332.9
151.9519,431.4
151.9524,420.1
151.9714,22.2
151.9839,17.1
151.9865,470.2
152.0066,413.5
152.0223,11548.5
152.032,4360
152.0489,416
152.1159,20.1
152.229,250.2
152.2387,112.8
152.2784,424.5
152.3722,18.2
152.3931,17.2
152.3988,505.8
152.4176,376.2
152.4379,17.9
152.441,17.5
152.47,863.7
152.5933,267
152.6263,1091.2
152.6349,86.9
152.7193,866.9
152.7625,364.4
152.7716,148.9
152.8024,345.5
152.8424,172.4
152.8442,575.5
152.8712,21.2
152.8828,88.7
152.8958,452.6
152.9074,398
152.9152,314.8
152.9279,20.8
152.9413,84.5
152.9752,739.4
152.9846,51.1
153,25.2
153.0374,17.1
153.0581,168.4
153.0921,465.4
153.0975,324.6
153.0981,429.2
153.0993,399.9
153.1073,783.2
153.1681,290.5
153.2517,474.4
153.3683,241.6
153.4863,206.3
153.54,113
153.5609,132.9
153.5715,451.8
153.7197,809.1
153.7872,17.9
153.8299,386.2
153.866,23.4
153.8954,671.4
153.9147,524.9
153.9332,106.7
153.9451,431.7
153.979,532.4
154.0114,915
154.0268,815.1
154.059,454.2
154.0705,509.7
154.088,346.7
154.1333,440.9
154.1892,316.3
154.238,98.1
154.2921,186.3
154.3216,189.7
154.3245,137.5
154.3288,619.9
154.3391,22.3
154.3898,201.5
154.4092,1041.4
154.4162,808.4
154.4185,93.7
154.4202,331.2
154.4234,99.2
154.4477,91.9
154.5002,243.6
154.5187,164.5
154.5498,142.6
154.6438,99.9
154.6629,105.2
154.6721,812
154.7034,539.9
154.7122,611.7
154.7514,395.3
154.8182,367.3
154.8347,306
154.8672,284.1
154.8804,361.5
154.8885,368.3
154.8904,145.8
154.9079,220.3
154.9197,18.2
154.934,706.5
154.9677,37.7
155.0107,94.2
155.0143,152.9
155.0429,662.4
155.0494,136.7
155.0542,3224.4
155.0801,708.5
155.089,127
155.1393,542.4
155.2528,834.6
155.2671,198.8
155.3323,144.6
155.3428,467.8
155.3664,536.3
155.5129,140.7
155.523,145.5
155.525,102.4
155.5484,113.9
155.5784,140.3
155.5847,119.8
155.5954,481.9
155.6185,149.8
155.6412,93.7
155.6728,101.4
155.7052,193.8
155.7206,163.9
155.7265,17.6
155.7644,131.1
155.7772,99.2
155.8461,148.9
155.9254,546
155.9776,155.5
155.9805,18.9
155.9883,153.2
155.997,450.9
156.0132,302.8
156.0266,227.9
156.0424,3841.4
156.0573,23.2
156.077,52454.1
156.0975,74.8
156.1061,371.8
156.1434,320.7
156.1598,96.4
156.162,347.1
156.2173,38
156.2397,150.4
156.387,149.5
156.4077,319.8
156.4129,582.7
156.4853,137
156.5082,19.2
156.6603,518.2
156.7633,211.4
156.8647,412.1
156.8982,36.2
156.9078,19.1
156.9327,500.2
156.9339,547.3
156.9709,18.1
157.0203,118.4
157.0408,337.7
157.065,337.2
157.0731,176.5
157.097,134.1
157.107,469.8
157.117,513.9
157.1389,146.1
157.1524,157
157.2193,17.3
157.2586,725.2
157.2627,195.1
157.3639,358.1
157.403,370.6
157.4466,331.2
157.5093,304.5
157.517,309.4
157.5696,149.2
157.6041,823.1
157.6188,101.1
157.6282,673.9
157.6713,106.1
157.6806,550.1
157.7003,652.3
157.775,567.8
157.7873,96.6
157.8023,510.4
157.8042,330.9
157.9076,192.2
157.9459,537.2
157.9907,339.4
158.0048,143.1
158.0082,122.3
158.0273,3462.8
158.0579,179
158.1187,178.8
158.2419,351
158.2946,444.5
158.348,429.6
158.3759,100.5
158.4184,20.1
158.4437,388.7
158.4539,99.4
158.5241,315.4
158.565,447
158.5752,19.4
158.6106,96.4
158.6352,503
158.6588,139.6
158.6615,104.4
158.8253,284.3
158.8318,112.6
158.9114,159.2
158.9308,19.8
158.9393,454.8
158.9643,8530.6
158.9967,7161.4
159.0115,22
159.0306,117.2
159.041,101.5
159.0589,20
159.0702,325.8
159.1326,85.3
159.1411,37.1
159.268,105.6
159.2861,37.9
159.3839,103.3
159.3939,647.1
159.4488,358.3
159.5072,117.3
159.5147,130.4
159.5166,714.6
159.5362,114
159.5661,21.9
159.5758,335.8
159.6973,356.3
159.7605,128.1
159.7726,642.2
159.7837,109.7
159.7979,225.8
159.8216,355
159.862,351.4
159.8919,21.8
159.921,19.9
159.9882,765.9
160.023,50
160.0348,15456.5
160.0607,96204.5
160.0712,37.3
160.0878,226.8
160.1374,585.6
160.1886,134.6
160.2147,347.3
160.4316,130.9
160.4408,516.8
160.4832,420.7
160.4942,591.2
160.6218,434
160.7401,185.7
160.7449,446
160.7722,389.2
160.9012,327
160.9313,483
160.9857,19.3
160.9901,105.2
160.9925,211.3
160.9968,96
161.0187,372.7
161.0641,3797.8
161.1006,159.4
161.1325,61.4
161.1641,211.1
161.1862,565
161.1968,192.7
161.2104,36.5
161.2158,40.4
161.2234,286.6
161.259,505.5
161.2646,386
161.3654,784.5
161.4003,282.3
161.4652,109.5
161.4792,409.1
161.5026,330.3
161.561,133.9
161.6274,197.8
161.7707,243.6
161.8112,275
161.8386,174.1
161.8425,17
161.8705,106.8
161.9531,622.5
162.0191,175.1
162.0504,13982.1
162.0636,481.5
162.113,396.8
162.1477,625.8
162.1512,100.4
162.1919,107.8
162.2328,38.4
162.2675,130.6
162.2801,221.8
162.3169,588.9
162.3769,122.7
162.3819,219.8
162.3846,144.8
162.4046,323.7
162.5082,785.3
162.5203,315.5
162.5732,581
162.6269,384.1
162.6524,19.2
162.6658,375.4
162.7285,267.5
162.7711,18.8
162.8664,844
162.8779,90
162.9481,315.5
162.956,4892.1
162.9732,160.4
163.0158,4514
163.0372,436.5
163.0516,212.2
163.0793,438.2
163.0997,209.9
163.1072,409.3
163.3147,142.4
163.3448,96.9
163.5836,488.5
163.5976,165
163.628,869.6
163.632,261.1
163.638,78.9
163.6533,132
163.681,168.1
163.7308,110.9
163.786,315.1
163.8056,21
163.8254,94
163.8735,39
163.9023,337.2
163.93,431.2
163.9353,357
163.9743,115.3
163.9996,44.9
164.0085,359
164.0297,11271
164.1069,528.8
164.1305,435
164.1441,24.1
164.1651,778.3
164.1823,18.2
164.2046,543.4
164.2244,509.1
164.281,487
164.2914,107.3
164.4029,151
164.4086,143.5
164.5298,99.7
164.6521,17
164.6546,275.9
164.6703,804.9
164.6749,86.8
164.7541,116.6
164.7899,108.8
164.7978,283.7
164.8774,164.7
164.9026,401.4
164.9034,522.2
164.916,20.3
164.9208,6425
164.9303,16103.8
164.9353,410.3
164.963,334.3
164.9819,477.1
164.9847,72.4
164.9928,7684.2
164.9964,19.6
165,451.8
165.0317,543.4
165.0413,184.1
165.055,191.4
165.084,154.1
165.0881,372.7
165.0913,398.8
165.1816,448.8
165.2498,156.1
165.2763,162.2
165.3308,201.5
165.3399,530.9
165.3645,425.4
165.3817,100.1
165.4073,494
165.4122,241.7
165.5501,101
165.5763,476.7
165.6028,287.3
165.6092,638.2
165.6451,403.3
165.6656,18.3
165.7046,138.8
165.7152,257.8
165.7845,576.1
165.8448,24.5
165.881,592.1
165.9177,360.8
165.9221,35.7
165.9534,628.1
165.9619,112.2
165.9717,35.3
165.979,1262.6
165.988,5823.2
165.9953,1618.4
166.0487,161.5
166.1274,313.5
166.1685,557.6
166.3405,189
166.4183,681.7
166.4624,516.9
166.522,184.5
166.5443,19.4
166.5909,125.2
166.6147,83.3
166.783,340.3
166.7886,523
166.8316,92.5
166.85,268.6
166.8667,98
166.9047,123.3
166.951,13235.7
166.9629,627.5
166.9792,44.5
166.9986,45.7
167.0005,21.3
167.022,5666.5
167.0466,145.2
167.0553,265.6
167.0666,200.6
167.1268,465
167.1336,18.6
167.1386,72.8
167.1693,561.7
167.2665,182.1
167.3077,150.4
167.318,220.9
167.335,401.1
167.3852,40.9
167.4423,341
167.4606,241.2
167.4917,690.5
167.4953,653.3
167.521,189.7
167.5473,90.3
167.5489,87.5
167.6028,102.4
167.731,105.5
167.747,231.3
167.8933,118
167.9116,91.3
167.9139,365.7
167.9229,142.9
167.9675,174.2
167.9947,2440.6
167.9984,182.9
168.0153,344.4
168.02,178.2
168.0657,837.3
168.0694,634.1
168.0837,223.8
168.1621,95.2
168.2247,105.7
168.276,886.1
168.3103,392.7
168.3998,99
168.4272,262.6
168.5325,109.9
168.5448,415.4
168.5492,555.6
168.6043,18.9
168.6251,152.8
168.6951,94.1
168.7995,128.4
168.8987,111.2
168.9253,40.7
168.9377,75.3
168.9417,47.5
168.9491,987.2
168.9731,352.7
168.9749,676.2
169.0158,421.5
169.0446,633.2
169.0586,63165.6
169.0649,1120.8
169.0683,17.2
169.0949,1451.7
169.1181,649.6
169.1579,92.2
169.2099,106.4
169.2397,179.8
169.3251,441
169.353,17.7
169.3812,475.2
169.5227,114.8
169.5355,241.8
169.5533,86
169.5642,299.4
169.6748,393.4
169.6765,19
169.6848,164.3
169.6882,141.6
169.7698,144.8
169.7875,139.9
169.8083,127.2
169.8944,422.5
169.9115,19.3
169.9858,733.9
170.0034,810.7
170.033,1083.9
170.0664,40.5
170.0746,285.4
170.0926,774.2
170.1175,40.8
170.1345,202.2
170.2456,200.4
170.3435,365.8
170.3471,212.4
170.4057,169.8
170.4509,448.1
170.4976,187.4
170.5158,640
170.592,181.6
170.6164,133.4
170.6539,131.8
170.7073,119.9
170.7762,351.6
170.7915,182.1
170.8125,96.2
170.8389,419.1
170.8547,4274.7
170.9142,94.9
170.9864,629.3
170.9905,37
171.011,31
171.0169,1470.2
171.028,54.2
171.0531,330
171.0606,158.1
171.0824,19
171.1185,154.5
171.1232,18.5
171.1431,785.6
171.1499,108.4
171.1859,586.2
171.2655,20.9
171.2921,97.8
171.295,160.3
171.3463,626.9
171.3694,355
171.4912,129.6
171.5572,374.5
171.5949,208.6
171.6791,19.7
171.7042,180.5
171.7071,16.9
171.8736,552.9
171.8794,120.5
171.9459,143.3
171.9654,381.8
172.0284,1410.3
172.0655,714.3
172.1876,21.2
172.1974,38.7
172.2141,147.2
172.2175,255.2
172.3462,252.3
172.4008,738.1
172.4199,796.6
172.4429,151.3
172.4715,120.8
172.5092,845.4
172.5316,588.9
172.621,156.7
172.6486,174.5
172.6739,107.6
172.7305,649.9
172.7877,338.9
172.8088,121.7
172.8322,382.3
172.8517,2669.8
172.8985,752
172.9022,163.7
172.9674,1482.3
172.9711,228
172.9933,353.2
173.0269,285.8
173.0988,817.3
173.1314,392.5
173.1358,171.7
173.1432,330.6
173.1489,188.6
173.1717,523.6
173.2072,384.5
173.2147,379.9
173.2386,106.5
173.478,146.1
173.5061,858.7
173.5818,416.8
173.5976,197.8
173.6054,105.1
173.6558,112.4
173.6616,291
173.6991,20.5
173.8409,342.3
173.87,238.1
173.882,113.3
173.9186,101.9
173.9393,185
173.9726,220.9
173.9742,222.8
173.9817,352.9
173.9855,20.8
174.001,55.6
174.0731,450.6
174.0779,110.4
174.1296,301.7
174.1939,616.1
174.1965,740.4
174.2649,440.3
174.3293,17.6
174.335,313.5
174.3702,138.7
174.4501,292.3
174.5732,725
174.5833,90.3
174.6035,110.3
174.7204,127.1
174.7617,116.8
174.8127,435.6
174.8222,154.4
174.9004,255.6
174.9063,136.6
174.9288,88.6
174.9383,3546.7
174.9531,143.4
174.9689,642.2
175.0345,5331.1
175.0457,3458.2
175.0578,558.1
175.102,649.2
175.1063,314.2
175.1133,106.7
175.1193,101834.1
175.1454,122.9
175.149,144.5
175.3241,202
175.5417,476.6
175.6064,862.2
175.6797,122.5
175.727,662
175.7312,433
175.7407,98.6
175.7508,78.6
175.7535,163.8
175.7783,21.8
175.8579,527.2
175.885,445.8
175.9207,126.7
175.9256,103.1
175.9482,579
176.0008,47.8
176.0088,7133.4
176.0168,21
176.0547,264
176.0661,23648
176.0699,225.5
176.0773,307.9
176.103,546
176.1227,1310.5
176.1754,17.5
176.2156,192.7
176.2628,341.1
176.2742,219.2
176.3388,518.3
176.3782,124.5
176.4236,457.2
176.4647,277.4
176.5047,181.1
176.6377,133.5
176.7024,700
176.8057,744.8
176.8676,181
176.8697,667
176.894,221.7
176.8987,606.9
176.9009,175
176.9333,74.6
176.9429,18.6
176.9778,169.2
176.9929,2444
177.0093,344.8
177.025,4173.3
177.0614,4437.1
177.2219,90.6
177.2579,120.4
177.2773,418.6
177.2852,206.4
177.3641,98.2
177.4278,869.9
177.4432,329.3
177.4789,18.6
177.4928,279.3
177.5379,675.4
177.5804,204.5
177.5999,17.3
177.6156,755.1
177.6214,441.1
177.6419,316.3
177.6808,367.4
177.6902,293.2
177.8007,83
177.8288,164.7
177.8959,547.9
177.9065,81.9
177.9715,137.5
177.9806,142
177.9831,438.5
177.9952,36.7
178.009,10921.5
178.0164,50.7
178.0245,8699.7
178.0589,6353.2
178.0808,366.1
178.1292,459.3
178.1501,137.9
178.1959,19.9
178.2323,35.1
178.2877,371
178.378,127.1
178.3945,410.7
178.4109,116.6
178.4171,112.7
178.5222,109.3
178.5547,540.1
178.5859,103.3
178.5908,18.2
178.6561,102
178.6866,20.1
178.8276,302.7
178.8931,28.3
178.9221,43.2
178.9311,235.1
178.955,295.3
178.9641,337.9
179.0031,149.2
179.0205,120
179.0625,351.6
179.0743,45.9
179.1025,121.5
179.1323,263.3
179.1736,649.1
179.2773,93.7
179.331,818
179.3555,272.4
179.4207,297
179.4414,217
179.4942,84.7
179.4978,374.6
179.5578,16.3
179.6066,32.6
179.7739,140.3
179.8416,82.8
179.8456,161.2
179.8802,651.7
179.892,26.2
179.9695,98.9
180.0037,6502.7
180.0109,120.7
180.0161,242.3
180.0732,104.8
180.0847,822.1
180.0937,320.8
180.0963,94.2
180.1029,261.8
180.2389,488.4
180.3756,17.2
180.3856,103.7
180.3914,630.7
180.459,194.8
180.7427,106.5
180.8238,264.2
180.843,116.8
180.8647,86.1
180.8698,491.6
180.8885,650.9
180.8948,3668.4
180.9043,6280.1
180.9551,567.8
180.9572,749.5
180.9668,1032.3
180.9819,593
181.0159,22.3
181.0187,297
181.0233,569.4
181.0264,837.8
181.05,19.8
181.0652,9798.3
181.0732,498.1
181.097,40
181.2296,411.4
181.2529,245.3
181.4396,310.7
181.4979,468.6
181.5226,464.7
181.5702,416.4
181.5872,19.7
181.5966,95.9
181.7378,468.2
181.8232,241.2
181.889,19.1
181.9837,346.1
182.0115,24.9
182.027,142.6
182.0351,20
182.0428,34869.2
182.0561,588
182.1315,149.8
182.2054,188.3
182.2278,633.1
182.2505,480.8
182.3113,84.7
182.3669,85.8
182.4034,136
182.451,185.8
182.4826,132.1
182.4866,19
182.5212,486.4
182.5291,323.5
182.5729,103.5
182.7836,164.3
182.9029,28.8
182.9534,46.2
183.0267,243.3
183.0446,2013.2
183.056,493.6
183.075,137.1
183.2415,440.3
183.3092,97.7
183.3641,102.1
183.4898,209.5
183.5442,757.3
183.5685,833.1
183.6854,103.6
183.6918,587.2
183.7538,122.4
183.758,1001
183.8341,20.4
183.8741,326.5
183.9649,2624.9
183.9741,737.6
183.986,97.9
183.9986,199.4
184.0293,22.6
184.0317,125.5
184.0374,257
184.0519,110.1
184.0654,415.2
184.0688,2356.7
184.0737,5233024.5
184.0872,147
184.0942,419.5
184.11,1105.2
184.1825,2677.9
184.1882,35.1
184.2047,137.2
184.2705,175.5
184.2855,383.6
184.307,145
184.3153,152.4
184.3248,198.1
184.3357,73.7
184.3597,87.3
184.395,750.3
184.454,592.3
184.4875,496.6
184.4934,256.2
184.6194,20.4
184.6472,175.8
184.6867,383.6
184.7151,86.4
184.7222,802.7
184.728,459.3
184.7493,763.3
184.7677,348.9
184.7871,343.9
184.8167,762.2
184.839,832.9
184.8998,299.6
184.9072,95.1
184.9301,32
185.0326,63561.1
185.0365,422.5
185.0607,794.7
185.0706,11895.1
185.077,249681
185.1654,18.9
185.2,155.4
185.2327,775
185.26,384.9
185.2796,125.2
185.3196,421.3
185.3403,310.5
185.3443,92.5
185.3511,553.9
185.3595,208.5
185.521,332.9
185.5485,171.1
185.5799,100
185.6497,344.1
185.7169,757.6
185.7319,105.7
185.7563,132.9
185.7929,276.8
185.8278,23.9
185.8613,89.3
185.869,17.1
185.891,99.6
185.9325,344.2
185.96,368.6
186.0361,2051.3
186.0779,29706.1
186.1892,122.6
186.273,112.9
186.2774,19.5
186.3196,368.8
186.3913,441.3
186.5963,119.5
186.6201,436.9
186.6421,22.1
186.7385,487.6
186.7458,599.6
186.7795,161.5
186.8154,109.1
186.8785,19.3
186.9124,2795.2
186.9932,322.3
187.0165,318.8
187.0306,2530.8
187.058,7731.4
187.0715,1120.9
187.096,155
187.1056,183.8
187.108,652.9
187.1262,38.3
187.1667,115.4
187.206,744.7
187.2369,258.9
187.2466,189.6
187.2553,731.3
187.2787,774
187.4139,331
187.433,127.7
187.4431,181.5
187.4815,545.2
187.4857,295.7
187.4897,345.4
187.499,170.9
187.5293,18.8
187.5563,201.4
187.7588,18.7
187.7713,238.2
187.9764,137.8
187.9848,591
187.9954,584.1
188.0731,19.5
188.122,98.2
188.2644,124
188.2871,268.3
188.4528,108.1
188.4574,861.5
188.4599,147.2
188.4654,294.5
188.5045,102.6
188.6062,281.4
188.6927,17.7
188.7228,125.3
188.758,19
188.7729,444.4
188.8351,104.7
188.8587,312.7
188.8609,19
188.8652,19.7
188.9397,690.9
188.9446,136
189.0215,475
189.0246,99.8
189.0305,18.1
189.0613,2529
189.0874,7097.3
189.1318,387.7
189.1513,507.1
189.1579,240.5
189.2031,358.6
189.2464,626.1
189.3307,16.8
189.3548,362.3
189.579,373.4
189.6994,19
189.7046,129.9
189.792,144.3
189.8334,182
189.867,261
189.8803,413.6
189.9219,133.5
189.9576,569.8
189.9936,374.7
190.0088,260.1
190.0159,892.9
190.0212,820.6
190.1065,1102.2
190.2712,441.4
190.332,110.2
190.4135,548
190.4255,103.5
190.4314,784.8
190.4584,429.4
190.4721,731.5
190.4944,401
190.5351,520.1
190.5387,279.9
190.6523,300.8
190.6649,121.9
190.6956,324.7
190.7595,151.7
190.8397,643.8
190.8729,480.9
190.9035,533.4
190.9122,996.3
190.9444,21.9
190.9965,504.1
191.0005,111
191.0086,8121.7
191.0407,143778.5
191.0772,19444.3
191.1365,94.7
191.3583,140
191.3731,228.8
191.4047,130.6
191.4361,166.9
191.4448,132.2
191.5181,17.7
191.6291,104.9
191.6359,18
191.6425,20.8
191.7277,391.5
191.7357,434.1
191.7425,414
191.7517,373
191.832,112.2
191.8429,431
191.8806,18.7
191.8881,196.7
191.9077,86
191.9825,549.9
192.0402,10701.7
192.0441,4459
192.0593,39.1
192.0771,37.4
192.1324,269.9
192.1478,93.2
192.2087,143.1
192.2284,228.6
192.2943,425.5
192.4789,131.6
192.4798,133.1
192.4808,121.5
192.5293,180.4
192.5858,603.9
192.5997,38.9
192.611,117.8
192.6177,18.1
192.6357,251.3
192.6591,108
192.7484,155.3
192.7509,689.8
192.8068,783.6
192.8644,260.1
192.872,113.8
192.909,35.5
192.9115,229.2
192.9216,488.4
192.9526,17.5
192.9799,384.8
192.9959,61.5
192.999,4335.7
193.0163,150.4
193.0353,2144.2
193.0702,85
193.1091,277.1
193.2055,168.2
193.2073,172.5
193.243,156.9
193.249,20.2
193.2528,128.2
193.3404,17.6
193.35,924.8
193.421,156.1
193.4383,168.6
193.5045,20.3
193.6674,177.8
193.7103,85.8
193.7114,95
193.7642,92.7
193.7956,263.7
193.8932,472.7
193.907,128.5
193.9406,39
193.9984,1102.4
194.0051,913
194.0105,461
194.0331,2260.9
194.0514,441.4
194.0817,19.9
194.1301,18
194.1543,87.5
194.1689,378.2
194.2392,139.5
194.3689,87.3
194.5942,116.5
194.6602,412.4
194.698,255.6
194.7077,134.9
194.7439,111.9
194.7866,410.7
194.8624,412.8
194.8812,340.2
194.8853,86.7
194.9042,143.1
194.9282,117.8
194.9566,20
195.032,132.3
195.0439,128.5
195.0668,421.5
195.1005,110.1
195.1134,126.1
195.1473,18.6
195.1874,124.6
195.2249,287.5
195.2359,853.7
195.2531,890.7
195.3412,128.7
195.4082,252.8
195.4982,97
195.5462,18.1
195.5722,128.4
195.6709,364.2
195.6833,246.2
195.8123,283.2
195.9103,155
195.927,178.8
195.9922,453.3
196.0794,322.1
196.0821,798.9
196.17,338.4
196.1811,226.5
196.1928,469.1
196.2572,150.9
196.3877,708.3
196.4122,115.2
196.4971,358.1
196.536,118.1
196.6422,102.8
196.6954,170.8
196.807,19.5
196.829,327.4
196.8409,112.3
196.8572,113.8
196.8655,7911.8
196.8688,666.7
196.8782,380.6
196.9301,535.9
196.9329,160.4
196.9547,403.6
196.9752,79.8
197.0184,19.1
197.0233,406.1
197.0423,122.8
197.0502,352.2
197.1013,1045.7
197.1181,647.5
197.1374,38.8
197.1912,23.1
197.2881,96
197.3624,126.3
197.3913,145
197.4322,130.4
197.5029,1039.7
197.5213,351.6
197.5716,1242
197.6024,413
197.8198,444.6
197.8867,20.2
197.9282,20.1
197.9334,123.5
197.9375,107.8
197.9437,287.1
197.9643,103
197.9902,305.5
198.0853,6271.3
198.0893,670.9
198.0945,704.1
198.1857,5042.6
198.2934,294.2
198.3592,154.1
198.3779,44.3
198.4368,113.4
198.4858,195.9
198.5494,565.4
198.6239,462.8
198.6273,19.9
198.8552,434.8
198.8626,7368.5
198.8783,121.8
198.9739,36.1
199.0168,135.7
199.037,329.2
199.0686,285.4
199.0759,2657.5
199.0809,61
199.1041,576
199.1891,382.5
199.1923,671.6
199.2256,98.9
199.2423,17.9
199.2676,17.4
199.3004,404.7
199.3192,33.7
199.3339,472.5
199.4303,20.1
199.4922,410.3
199.4973,362.4
199.5066,384.9
199.5701,620.5
199.6667,956.5
199.6959,792.6
199.7439,398.8
199.7545,135.5
199.8143,89.7
199.8234,17.1
199.8872,146.4
199.9194,17.9
199.9642,92
199.9911,33312.5
200.0048,94.2
200.0185,378.7
200.0327,478.9
200.0411,15809.8
200.0586,16.6
200.0675,8788
200.1226,43.5
200.1374,339.8
200.2513,117.3
200.2855,375.6
200.3411,244.3
200.3899,353.6
200.4434,127.1
200.4632,246.2
200.5309,274.2
200.5868,183.8
200.8089,150.8
200.8338,216.7
200.8597,1332.9
200.8946,926.1
200.9462,99.7
200.9836,389.1
201.0218,94.3
201.0489,687.3
201.0552,454.7
201.0714,268.2
201.0874,72
201.1563,545.4
201.1732,24.4
201.1866,125
201.2021,685.9
201.216,39.6
201.3663,739.6
201.3718,181.7
201.3854,20.4
201.4114,341.4
201.4775,483
201.5066,100
201.5107,256.8
201.5348,169.4
201.6783,19
201.6898,441.7
201.7002,168.1
201.7558,436.9
201.817,99.1
201.8652,249.4
201.8949,21.6
201.914,233.7
201.9622,547
201.996,79
202.0041,113.9
202.0168,22.4
202.0569,412.9
202.0894,244.2
202.1897,948.9
202.2034,184.8
202.2675,414.2
202.2702,196.7
202.3592,271.2
202.4393,17.2
202.4519,22553.7
202.5421,515.2
202.5563,580.3
202.5588,221.1
202.665,104.3
202.72,173.3
202.8065,20.4
202.8861,787.6
202.8955,53.6
202.9049,455.2
202.9161,712.5
202.9827,76.9
203.0131,683
203.0323,5408.4
203.053,1299782
203.0772,9455.7
203.1032,299.9
203.1066,761.4
203.2165,700.6
203.3937,438.9
203.4288,273.2
203.4681,209.9
203.4793,376.8
203.4866,298.9
203.5451,169.1
203.5827,153.2
203.611,317.9
203.6643,438.8
203.6949,510.3
203.7604,39.3
203.8301,107
203.834,533.5
203.8526,93.2
203.8803,114.6
203.8876,945
203.8888,924.5
203.9462,20.7
203.9995,35.7
204.0184,430.4
204.0248,45183.2
204.0324,95
204.0373,92.4
204.0564,68770.9
204.0633,294.3
204.2744,212.1
204.4369,36.7
204.4456,565.5
204.5591,508.6
204.5979,95.5
204.6667,311.1
204.6748,181.9
204.7092,19.7
204.7302,106.1
204.8664,237.9
204.8734,28.8
204.889,776.2
204.9407,86.7
205.0573,9933.5
205.0688,311.3
205.0842,26.3
205.1108,577.9
205.1232,328.1
205.1575,333.8
205.22,205.1
205.3356,425
205.3927,44.2
205.4764,295
205.5268,195
205.6545,161
205.6755,269.2
205.6809,109.6
205.7114,147.6
205.7177,360.9
205.8606,803.1
205.885,17.2
205.8894,25.5
205.9137,116.3
205.9813,138.7
206.006,625.7
206.0477,144.7
206.0557,2578.8
206.2361,164
206.2408,397.3
206.2711,93
206.2751,375.3
206.4033,795.8
206.4197,364.1
206.5113,22.3
206.537,717.7
206.5584,390.1
206.5785,686.1
206.6117,381.9
206.704,113.2
206.715,20.2
206.779,425.7
206.7858,84
206.8388,273.3
206.8882,94.2
206.8943,18003
206.91,123.6
206.9171,276.7
206.934,180.2
206.9825,3809.5
206.9981,121.2
207.0147,93210.3
207.0213,127.5
207.0321,21.7
207.0447,518.6
207.0511,7640.4
207.0905,687
207.1843,100.5
207.1903,129.1
207.208,260.5
207.2236,108.8
207.2929,140.2
207.3181,372.5
207.3699,136.4
207.4511,391.1
207.5955,122.9
207.6175,86.9
207.6651,446.2
207.7103,514.5
207.8119,441.4
207.8215,488.1
207.852,19
207.8871,17.8
207.9119,343.8
207.9912,533.1
208.0141,1817.2
208.0182,2069
208.1182,663
208.1913,744.8
208.222,224.2
208.2744,700.8
208.2905,132.8
208.2973,173.2
208.4184,234.7
208.4441,39
208.4905,91.4
208.5389,193
208.5531,179.4
208.5646,193.8
208.631,18.9
208.7121,131.1
208.7656,163.4
208.7985,427
208.8646,197.6
208.8836,1383.6
208.8915,10340.9
208.9576,136.8
208.9832,178.6
209.0128,4737.9
209.1567,266.5
209.2093,738.6
209.2284,153.2
209.3533,125.3
209.5226,209.1
209.5432,772
210.6677,19.1
210.7045,445
210.7132,825.1
210.8883,411.4
210.8915,569.8
210.9485,82.7
211.0105,139.1
211.0569,378.6
211.0695,865.2
211.0989,102
211.1245,11455.9
211.1304,24049.6
211.1342,21564.6
211.1391,17585.1
211.1421,23803.9
211.154,187.2
211.231,583.1
211.2765,154.3
211.484,376.8
211.5028,151.3
211.5306,143.5
211.5818,707.5
211.6815,105.3
211.6991,354.5
211.7491,223.4
211.762,106.2
211.7803,310.5
211.8372,124.4
211.8581,708.6
211.8685,551
211.8982,813.8
211.944,71.9
211.9595,76
211.967,66.1
212.0747,105
212.0846,440.1
212.091,204.4
212.1564,385.2
212.3098,328.8
212.3828,107.5
212.3878,20
212.3956,461
212.4124,424.5
212.4234,94.9
212.5841,127.8
212.6153,209.9
212.6382,41.7
212.6742,698.4
212.7395,573
212.7803,221
212.7851,393.4
212.8396,2315.9
213.0552,1417.5
213.0754,562.3
213.0971,18.5
213.1271,789
213.1313,179.3
213.1937,109.4
213.2917,422.9
213.3387,207
213.3526,96.5
213.3611,173.7
213.3813,105.1
213.4087,129.5
213.4365,824
213.5826,17.8
213.7251,18.8
213.8013,237.1
213.9625,2324.6
213.9675,272.9
213.9851,209
214.0593,7262.8
214.0901,995.1
214.1991,116.7
214.2398,552.1
214.2517,103.1
214.2578,101.5
214.2786,19.3
214.3294,599
214.448,106.3
214.5192,21
214.5316,19
214.5363,314
214.5728,856.7
214.6273,351.5
214.8061,351.8
214.8366,2013.6
214.8474,39.1
214.8741,106.4
214.8948,96.8
214.9103,229.9
214.9177,58.3
214.9653,42.4
214.9728,1128.1
214.9924,793.3
215.0114,19.9
215.0939,138.3
215.1137,124.4
215.1378,103.4
215.2262,196.4
215.3431,449.6
215.401,19.2
215.4252,860.1
215.4406,708.7
215.4859,44.1
215.4989,162.1
215.5097,763.8
215.5903,588.7
215.7476,426.3
215.8035,132.1
215.8103,595.6
215.8168,555
215.8812,29
215.9107,17.9
215.9144,500.1
215.9267,319
216.0152,9694.9
216.0312,442.3
216.0353,194
216.0385,152.1
216.1589,442.7
216.1721,142.9
216.1749,208.2
216.2393,90.9
216.2959,692
216.3227,127.5
216.3485,21
216.5897,132.2
216.6772,337.1
216.7403,770.6
216.8133,17.2
216.8252,78.6
216.8337,399.3
216.859,178
216.8774,20.2
216.8897,23.3
216.9077,46.9
216.9232,47562.8
216.9562,198.5
216.9852,17.1
217.0275,284.1
217.0564,226.5
217.1574,122.7
217.3271,502
217.3658,358.7
217.4717,490.7
217.5191,638.9
217.5603,124.3
217.7723,180.5
217.8137,683.9
217.8276,313
217.8969,19.7
217.9237,47.1
217.9414,106
217.9626,155.9
217.9707,141.4
217.9788,416.9
218.0076,482.4
218.0131,523
218.0157,20.4
218.0278,798
218.1458,20.8
218.1516,28.1
218.1913,246.4
218.293,457.9
218.3669,181.4
218.3997,662.1
218.5106,94.2
218.5959,724
218.6203,19.6
218.7027,433
218.734,101.4
218.8679,151.2
218.9048,401.8
218.9202,11522.1
218.9391,18.2
218.9523,100.6
218.9987,249.8
219.0183,568.9
219.0216,419.7
219.027,1428242
219.0833,11440
219.1166,203.1
219.2294,527.8
219.2897,408.9
219.307,21.2
219.3107,135.1
219.3471,99.3
219.4392,477.6
219.7069,79.5
219.7102,303.6
219.8438,671
219.905,18
219.9072,19
219.9402,139.7
219.9455,522.8
219.9504,595.3
219.9877,106.9
219.9988,841.9
220.0032,642.1
220.0118,462.3
220.0304,78028
220.0673,9930.1
220.1314,836.2
220.1476,21.7
220.1676,405
220.1723,96
220.2336,492.7
220.369,253.8
220.4501,713.9
220.474,20.6
220.4921,174.2
220.5291,119.5
220.753,335.1
220.8734,105.6
220.884,39.1
220.9041,27.9
220.9331,20
220.9522,515.4
220.975,326.8
220.9934,27.5
221.0173,132.5
221.0252,82695.4
221.0314,11068
221.0423,165.3
221.046,82.4
221.0514,2214.7
221.0576,152.3
221.0853,328.5
221.1319,17.9
221.1702,26.1
221.1721,33.3
221.2407,155
221.2881,126.8
221.3617,18.1
221.434,169.7
221.4707,435.1
221.545,833.3
221.5661,109.5
221.6116,473.9
221.6564,378.8
221.7286,227.1
221.8321,100.4
221.935,93.8
221.9568,149.7
221.9677,19.1
221.9838,1187.6
222.0129,167.2
222.0285,2908.4
222.0894,451
222.1062,369.9
222.1165,87
222.2038,497.9
222.3297,149.5
222.5597,84.7
222.6844,154.3
222.7961,164.1
222.8684,15917.6
222.8797,581.4
222.8992,403.7
222.9544,1753.6
222.9704,19.7
222.9887,10191.2
223.0035,100.2
223.0371,431.1
223.0412,466.6
223.0666,141.1
223.0884,375
223.1079,103.2
223.1197,251.8
223.1375,101.8
223.3433,95.7
223.3814,362.4
223.611,406.6
223.8149,122.9
223.8274,315.5
223.8997,22.7
223.9262,350.2
223.9306,111.9
223.9438,17.5
223.9535,21.8
224.1042,367.9
224.1172,288
224.1359,770.9
224.2055,524.8
224.2228,217
224.3071,485.3
224.3908,146.9
224.4061,307.7
224.5011,105.9
224.5207,27
224.6428,459.5
224.7726,240.4
224.8654,8237.3
224.8993,370.6
224.9277,151.8
224.931,100.6
224.993,478.9
225.0079,357.3
225.0551,25424.9
225.0852,446.4
225.1937,328
225.3382,108.6
225.469,107.1
225.5193,20.9
225.5278,330.5
225.5574,552
225.5897,415.4
225.6473,148.8
225.6815,107.5
225.9496,853.9
225.9519,1225.7
225.9627,65.6
225.9866,100.6
225.9918,508.8
226.0025,61.4
226.0067,2253.3
226.0128,314.2
226.0245,5574.9
226.0455,5463.4
226.0584,150.2
226.1631,235.4
226.2775,88.8
226.3309,463.5
226.3964,331.5
226.417,107.1
226.424,436.7
226.4877,254.9
226.5399,286.5
226.6297,187.5
226.641,646.4
226.7003,17.4
226.818,100.2
226.8216,132.4
226.8706,764.9
226.952,38777.9
226.9802,450.5
227.0346,1009.1
227.0412,379.8
227.0798,447.7
227.0869,120.2
227.1688,289.5
227.1922,326
227.3184,107.1
227.3397,336.4
227.3688,348.1
227.3915,111.5
227.5281,150.1
227.5365,344.9
227.5571,145
227.6077,206.3
227.739,88.3
227.7733,449.3
227.8175,21.3
227.8656,156.7
227.9506,190.1
227.962,198.9
227.9876,41.7
228.0007,192.7
228.0225,1458
228.0854,118.2
228.1323,1022.8
228.144,359.7
228.1593,179
228.3184,482.8
228.4827,154.6
228.489,391.9
228.5202,209.9
228.5901,147.8
228.5994,107
228.6063,592.6
228.8134,485.9
228.8896,31.3
228.9076,772
228.9232,21.7
228.9607,162.4
229.3649,454.4
229.4848,39.9
229.669,913.8
229.7318,136.7
229.8061,354.7
229.8174,110.7
229.8641,99.2
229.8915,129.9
229.9188,19.6
229.9574,7139.4
229.9882,212.6
229.9899,233.5
229.9909,188.8
230.0336,88.7
230.2988,191.7
230.3386,850.3
230.4175,171.4
230.4288,123.2
230.439,638.4
230.5415,343.7
230.5781,756.4
230.7815,299.4
230.8107,625.2
230.8905,366.6
230.9607,331.2
230.9909,30.3
231.0559,109.7
231.2417,113.4
231.2511,106
231.272,463.3
231.3553,396.9
231.3922,122.7
231.4152,189.2
231.4179,390.4
231.4812,188.2
231.534,138.1
231.5421,532.3
231.6118,832.4
231.6232,132.6
231.6465,163.8
231.7156,296.9
231.7364,354.9
231.7778,435.5
231.813,442
231.9121,19.7
231.9509,108.5
231.9535,123.3
231.9579,166.5
231.9615,22.4
231.9732,137.8
231.9955,97.3
232.0431,111.6
232.0907,327.1
232.1065,18.5
232.1152,679.5
232.2725,18.6
232.339,125.5
232.3472,584.1
232.4554,479.3
232.6154,17.9
232.818,633.1
232.8839,75.2
232.8971,37095.5
232.9206,487.8
232.9623,336.6
232.9861,2273.5
233.0514,9117.7
233.1155,17.3
233.2764,393
233.2828,352.3
233.293,185.3
233.328,182.8
233.3413,359.6
233.4467,433.9
233.5525,315.5
233.6021,126.5
233.6331,138.1
233.6588,112.1
233.6836,150.4
233.8139,144.3
233.8314,16.6
233.8672,165.5
233.9004,711
233.932,20.7
233.9427,525.9
233.9533,85.3
233.9839,823.6
234.1506,19.4
234.1566,448.2
234.1892,384.6
234.2613,114.3
234.2688,322.6
234.3732,372.7
234.3919,102.1
234.4275,687
234.4558,83.9
234.5389,23.3
234.7387,21.2
234.7747,275.8
234.8839,32.6
234.8942,8615.9
234.9001,41.2
234.9285,20.4
234.9537,165.4
234.982,7425.8
235.0459,79.2
235.0573,6561.2
235.0671,851
235.093,11453.9
235.1329,388.1
235.1971,323.3
235.2091,492.9
235.2752,121
235.3525,108.4
235.37,106.2
235.3735,97.3
235.5136,492.7
235.5322,194.1
235.6179,148.1
235.6493,321.4
235.7258,823.3
235.9345,168.9
235.998,615.1
236.0081,591
236.0223,94.9
236.0413,7015.8
236.0721,45465.6
236.1064,154.1
236.1543,460.6
236.1659,139.1
236.2032,539.6
236.2371,338.4
236.2647,112.7
236.2921,121.5
236.3059,538.4
236.3071,540
236.3412,208.5
236.4128,135.4
236.4734,266.8
236.5322,146.5
236.5704,118
236.6449,40.7
236.6853,160.9
236.7048,358.3
236.8576,170.6
236.8786,200.2
236.9073,110.6
236.9337,282.3
236.9569,184.3
236.9883,196.1
237.0531,730.2
237.0755,1747.7
237.1354,119.9
237.1392,221.6
237.1471,530.1
237.2689,122.8
237.296,111.3
237.3744,162.7
237.4415,239.6
237.6376,342.2
237.6549,18
237.6613,308.4
237.7702,176
237.7928,377.5
237.9156,126.3
238.0526,466.1
238.0679,727.8
238.079,23.4
238.0846,486.2
238.1706,729.1
238.1891,322.2
238.2089,323.4
238.2585,565.7
238.4509,95.1
238.4646,197.1
238.4834,438.6
238.5243,136.9
238.5524,20.9
238.6108,345.4
238.6741,376.5
238.8424,6085.1
238.8537,603.7
238.863,1102.4
238.9195,96.3
238.9434,133
239.0095,4259.7
239.0508,246.5
239.0643,328.9
239.0683,1000.5
239.172,139.1
239.2154,366.7
239.6044,150.7
239.6161,121.6
239.7564,382
240.0174,204.4
240.0583,192.3
240.0998,1552
240.243,21.8
240.3134,128.8
240.3622,559.5
240.6042,930.2
240.6483,112.5
240.6549,118.9
240.6593,113.8
240.6976,293.8
240.8205,35.9
240.8392,3466.9
240.9047,112.8
240.9552,2411.9
240.9678,1831.2
240.9798,558.3
241.0088,469.2
241.0177,240.2
241.0324,175.7
241.0505,551.9
241.062,739.1
241.1945,18.5
241.2393,106.5
241.2671,553.5
241.2733,342.5
241.2765,20.6
241.2813,109.2
241.2965,18.8
241.3763,719.9
241.5225,92.5
241.5303,567
241.6041,1287.8
241.8703,197.6
241.9517,559.3
241.9776,92.3
241.9983,346
242.0198,2584.2
242.1463,76.3
242.3333,434.8
242.3636,773.7
242.6303,582.3
242.6654,120.2
242.7357,183.8
242.926,20751.7
242.9491,703.8
243.0069,63.7
243.0217,150.5
243.0331,769.8
243.0535,4090.7
243.0658,11996.4
243.0831,116.3
243.2782,21.4
243.374,494.3
243.4503,109.2
243.4976,826.6
243.5179,80.1
243.7162,738.6
243.8753,597.5
243.887,798.3
243.9729,3115.9
244.0131,193
244.0295,112.4
244.0484,710.6
244.0693,210.5
244.1079,370.7
244.172,199.1
244.1888,22.2
244.2002,175.2
244.2125,623.2
244.2438,1009.8
244.2549,678
244.3052,161.7
244.3652,355.3
244.4333,857
244.4867,129.5
244.5825,262
244.5978,435.5
244.7207,108.4
244.8711,5164.2
244.8834,305.9
244.9764,160
245.0167,22.3
245.034,113.3
245.0631,24.1
245.1153,220.6
245.1661,408
245.2658,102.8
245.2841,208.2
245.4218,418.4
245.4656,192.8
245.477,323
245.5778,409.3
245.6768,85.9
245.7111,18.2
245.8666,21.8
245.8719,150.5
245.9246,99.7
245.9388,20
245.9683,25.6
245.9736,53.9
245.9888,30.7
246.0016,183.8
246.1627,695
246.3398,421.9
246.3458,867.6
246.4293,395.6
246.4487,112.5
246.4699,340.1
246.5211,170.7
246.5224,153.5
246.5241,174.6
246.6299,197.2
246.679,196.1
246.8079,65.1
246.8629,345.4
246.8915,117.5
246.8994,24.3
246.9083,249
246.9286,18.6
246.9519,634.3
246.9714,30.7
246.9951,623.1
247.0374,1010.1
247.0547,163.4
247.0668,1330.8
247.093,5013.6
247.1014,23
247.1202,373.7
247.205,201.5
247.4534,160.1
247.4778,95
247.6023,134.1
247.7255,586
247.7854,93.1
247.846,499.3
247.8729,117.3
247.9179,305.1
247.9603,422
247.968,632
247.9834,143.1
247.9882,432.5
248.0726,300
248.1246,27317.3
248.1398,122.8
248.1869,412.8
248.2477,157.6
248.2834,311
248.2897,579.7
248.3909,655.3
248.4716,104.6
248.4931,126
248.5336,93
248.6829,17.1
248.7257,100.1
248.7642,35.6
248.7942,654.7
248.8712,11035.8
248.901,103.1
248.9157,36.8
248.9486,91.4
248.96,1937.9
248.9994,939.1
249.0166,214.6
249.045,412.4
249.0617,15046.6
249.1275,499.6
249.3811,739.7
249.4759,100
249.4883,19.1
249.4997,330.9
249.6934,770.2
249.8437,20.6
249.9207,166.9
249.9589,260.9
250.0385,449.9
250.0889,348.2
250.1118,126.9
250.2209,814.7
250.231,498.2
250.2395,112
250.4867,446
250.5326,928.5
250.6732,604
250.6781,574.6
250.6808,522
250.7004,20.2
250.7357,18.1
250.7688,134.3
250.7982,42.3
250.8683,1299.9
250.8942,64.8
250.908,208.8
250.9206,920.6
250.933,118.7
250.9561,3271
251.0012,39.2
251.0228,351.7
251.0301,108.7
251.0911,161.4
251.2337,166.6
251.2665,485
251.4074,17.3
251.4417,304.4
251.4495,225.6
251.4759,142.1
251.6423,304.5
251.653,656.2
251.7274,496.8
251.7627,166.9
251.767,315.3
251.9593,661.9
251.9738,342.9
251.9814,133.9
252.0167,209.2
252.0281,162.1
252.0368,92.3
252.0461,91168
252.1362,162.1
252.1742,412.6
252.235,504.8
252.3085,446.6
252.3106,460.2
252.3585,485.3
252.5478,17.4
252.5732,435.4
252.7721,118.5
252.8343,157.5
252.8932,137.5
252.9115,24.4
252.918,428.2
252.9517,34.9
252.9568,40.3
253.0244,233.1
253.0494,4291.6
253.06,90.9
253.0693,311.1
253.0966,648.2
253.1221,713.8
253.1301,906.1
253.2137,118.4
253.2284,545.2
253.2511,133.3
253.2792,346.4
253.4664,849.4
253.5435,245.6
253.5884,207.2
253.6779,333.1
253.6797,292.3
253.7314,17
253.7379,115.9
253.7417,292.2
253.7822,555.7
253.8493,526
253.957,138.8
253.9629,34.3
253.9646,35
254.0362,181.3
254.0442,2042.8
254.1047,119.1
254.1209,79.2
254.2899,159.6
254.3027,503.1
254.4851,195.5
254.4883,18
254.5389,94.6
254.5965,212.9
254.7014,366.8
254.7221,249
254.7361,17.1
254.7923,111.8
254.816,962
254.8244,8544.6
254.8569,22.4
254.9692,535.3
254.9864,65.7
255.0257,106.9
255.0334,26661.5
255.047,297.2
255.053,108.7
255.0895,39
255.1112,384.9
255.1917,103.7
255.2242,442.6
255.2677,652.5
255.4785,126.2
255.5604,20
255.6089,22.8
255.657,312.8
255.7632,229.5
255.8621,151.1
255.9371,105.8
255.973,22.4
255.979,943
256.0038,805.4
256.0587,27.7
256.0672,385.8
256.1282,97.4
256.1738,345.3
256.1752,349.4
256.177,130.1
256.1934,17.5
256.2156,566.3
256.2593,606.9
256.4071,180.2
256.5148,451.9
256.5202,211.8
256.5628,190.2
256.7564,136.9
256.7837,122.5
256.805,621.4
256.8214,12698.2
256.8399,180.9
256.8643,567.1
256.8784,97.4
256.9326,702.8
257.0135,445.8
257.0227,202
257.049,7067.6
257.0642,714.7
257.075,48390.8
257.1409,109.9
257.1644,114.8
257.2269,175.6
257.2653,181.7
257.2764,281.5
257.7381,375.8
257.8348,511.1
257.896,118
257.9239,550.3
257.9524,207.2
257.9888,173.7
257.9991,158
258.0305,413.5
258.0658,115.7
258.0746,167.7
258.0786,1152.3
258.1107,24512.9
258.2188,18.8
258.2678,85.1
258.2954,313.5
258.369,535.3
258.3755,797.2
258.479,745.3
258.4857,265.4
258.6818,735.4
258.7396,236.3
258.8183,4929.4
258.8324,671.1
258.8454,137.1
258.9001,3796.3
258.9225,22.4
258.9533,197.2
259.0384,128.3
259.0636,643.8
259.4495,127
259.4702,125.2
259.4775,114
259.6025,276.8
259.6089,989.3
259.7105,187.8
259.7477,554.7
259.8249,819.9
259.953,524.1
260.0174,103.2
260.0426,386.6
260.1235,171
260.2891,107.8
260.3384,21.9
260.3605,148.3
260.3892,112.6
260.4231,530.6
260.4429,97.3
260.4883,146.9
260.5056,97.8
260.5994,104.3
260.6047,156.8
260.6093,41.3
260.6606,24.3
260.7205,148.8
260.7602,736.9
260.8159,807.4
260.8453,1131.1
260.9311,952.6
260.9498,3266.9
261.0623,107.2
261.1526,178.5
261.1895,184.9
261.1928,505.9
261.2442,132.9
261.2639,361.1
261.4013,154.2
261.6105,157.7
261.791,449.7
261.9838,200.5
262.0527,88.3
262.0821,3096.8
262.1046,108.8
262.1377,353
262.189,101.3
262.2459,192.7
262.2536,79.9
262.3205,157.6
262.4016,748.6
262.5441,171.4
262.6611,109.2
262.8758,117.5
262.917,24.4
262.9468,456
262.994,124.9
263.0326,587
263.0856,5339.8
263.1408,752.8
263.1836,136.2
263.2367,612.6
263.3426,151.1
263.3922,20.9
263.4511,538
263.4592,172
263.5303,799.1
263.5344,415.2
263.5535,517.2
263.56,93.7
263.7531,712
263.7993,519
263.8273,398.5
263.8402,514.1
263.861,360.3
263.8878,794.1
264.0596,514
264.0696,158.8
264.1778,354
264.1956,18.4
264.2971,615.2
264.3285,293.7
264.3785,97.6
264.4347,154.9
264.4892,165
264.5495,101.5
264.7455,83.3
264.8452,1352
264.8532,5612.4
264.8735,80.7
264.9339,3136.4
264.9735,1386.9
264.9838,331.3
264.9889,10069.7
265.0165,114.9
265.0358,7576.6
265.0476,2978
265.0655,147.7
265.072,36.6
265.1117,636.8
265.1957,106.3
265.2078,25.6
265.2171,331.8
265.3243,21.2
265.3487,886.6
265.4078,761.4
265.5112,87.7
265.5407,21.9
265.5826,620.2
265.6405,631
265.7328,22.5
265.806,422.5
265.838,20.3
265.9581,73.8
265.9786,349.9
265.9927,162.9
266.0862,348.2
266.1935,555.2
266.2166,125
266.2661,317.4
266.3208,136.1
266.3437,108.5
266.4921,730.6
266.6335,914.7
266.6714,159.7
266.6814,829.1
266.8045,21.6
266.8502,5308.9
266.856,196.9
266.8949,1074.2
266.9321,339.5
266.9594,91.3
266.9842,18.5
266.9943,611.4
267.0544,554.8
267.1087,130
267.2752,365.9
267.5394,1041.7
267.5959,186
267.6394,157.6
267.6477,978.9
267.6555,376.6
267.6839,478.1
267.6915,554.1
267.7933,463.1
267.9182,19.7
267.943,135.9
267.9752,173.6
267.9944,710.5
267.9994,767.1
268.0092,48
268.0322,737.5
268.0855,24.2
268.1273,133
268.1536,410.2
268.2746,206.6
268.3026,324.5
268.3129,20.9
268.3528,130.3
268.3694,22.2
268.4041,696.3
268.4261,731.8
268.4765,113.5
268.8473,1127.9
268.8914,833.9
268.9632,700.9
268.9977,62.1
269.0245,494
269.0284,401
269.0454,16396.7
269.0491,40946.8
269.1482,174.8
269.1944,750.3
269.2123,128.6
269.4217,232.8
269.4876,178.6
269.6693,643.9
269.7947,100.2
269.8372,18.1
269.9083,709.4
269.9231,21.4
269.9566,118.6
269.9633,44.7
269.9899,206.4
269.9945,1178.4
270.0097,103.8
270.0252,15282.8
270.0478,28658.6
270.1453,1401.9
270.1721,22
270.2129,189.6
270.2474,378
270.2704,238.8
270.4633,19.5
270.5651,17.6
270.7103,17
270.7247,115.6
270.7512,286.5
270.7672,411.9
270.772,315.4
270.7985,5370.8
270.8544,126.9
270.9589,369.1
270.9784,8317.8
271.0068,287
271.0286,1473.8
271.0512,269.1
271.0783,505.2
271.0907,2264.9
271.2968,99.9
271.3222,121.1
271.4127,260.8
271.6547,436.8
271.6658,111.8
271.6792,82.1
271.7019,567.7
271.7516,149.1
271.7599,615.1
271.7839,578.9
271.8397,654.7
271.8467,80.4
271.9083,33
271.9839,525
271.9932,302.8
272.0056,23.8
272.0202,1005.9
272.0264,26.4
272.0437,36.8
272.0809,314.2
272.1718,22.1
272.2516,212.3
272.2945,116.9
272.3651,415.1
272.4507,931.1
272.4822,393.1
272.5083,155.2
272.5279,38.7
272.5882,87.3
272.6618,18.6
272.6914,458.5
272.7374,21.6
272.7531,24.5
272.7955,5533.4
272.825,22.7
272.8649,23.1
273.0398,149
273.0493,1816
273.0807,20.1
273.3527,945.1
273.4176,375.9
273.4952,242.5
273.5902,487
273.6572,186.8
273.6878,576.7
273.7602,575.5
273.9451,250.5
273.963,8985.3
274.0694,80.1
274.0794,43.6
274.0927,2210
274.2049,38.6
274.3,119
274.3245,319.6
274.6297,110.2
274.6858,492
274.7781,162.3
274.7925,2864.7
274.8547,129.7
274.8823,564.2
274.9652,1956.3
274.9833,22
275.0166,141.3
275.0343,328.7
275.1597,218.9
275.1876,23.2
275.2412,461
275.2554,972.4
275.2669,210.8
275.3278,755.4
275.3375,137.2
275.3476,978.9
275.3522,19.6
275.3602,21.1
275.3849,18.6
275.4357,730.7
275.5529,136.8
275.6309,120.4
275.6809,466.9
275.7056,105.9
275.759,366.1
275.8847,646.1
275.9008,19.6
275.9158,350.4
275.9873,25.5
276.0038,117.4
276.0446,322.5
276.1309,18.7
276.1716,325.8
276.2985,141.9
276.322,300.5
276.4968,548.7
276.6295,179.3
276.7181,485.2
276.8511,21.9
276.9001,296.9
276.9108,69.2
276.9235,2676.5
277.2175,839
277.3107,376.1
277.3448,189
277.493,840.7
277.5467,23.5
277.6895,20.8
277.7028,181.2
277.7409,37.9
277.8307,401.4
277.8582,327.7
278.0032,21.8
278.0196,467.9
278.0672,236.6
278.1208,465.8
278.1222,591
278.1968,158.2
278.2978,598.4
278.3606,551
278.4203,144.9
278.463,408.9
278.5584,697.6
278.5961,355.6
278.6288,158.2
278.7277,420
278.792,104.5
278.7996,193.1
278.8474,27.2
278.8735,114.7
278.8894,22.1
278.8945,1355.6
278.9874,991.3
279.0045,665.1
279.057,36317.6
279.2208,40.7
279.3114,101.9
279.6474,618.8
279.7921,42.3
279.7976,921.4
279.8064,302.1
279.8115,184.5
279.8197,578.9
279.8221,805.7
279.9018,353.1
279.939,138.8
279.9789,495.3
279.999,25.3
280.0124,411.5
280.0164,201.2
280.1947,775.4
280.3079,107.5
280.3205,594.4
280.6692,454.9
280.73,489.5
280.7735,123.3
280.8274,2814.9
280.8381,572.7
280.8684,20.9
280.8868,295.7
280.9196,661.2
280.9437,153.1
280.9944,91.7
281.0108,884.3
281.0137,770.4
281.0517,157.8
281.0783,343.7
281.0911,191.2
281.1728,475.3
281.5686,426.7
281.5737,94.6
281.6151,373
281.6786,153.3
281.7297,568.4
281.7911,38.5
281.7999,485.6
281.8604,638.2
281.9832,304.7
282.0154,101.2
282.0294,630.6
282.0651,417.6
282.1392,656.8
282.198,494.3
282.2213,299.5
282.2999,126.5
282.3294,782.4
282.3521,155.5
282.3708,879.5
282.465,571.4
282.5324,93.5
282.6802,346.1
282.7274,349.7
282.8242,2288.2
282.9121,550.6
283.0419,149.8
283.0486,37
283.0684,26.6
283.2096,117.1
283.2256,125.9
283.2639,55.9
283.371,154.6
283.3877,284.6
283.3926,143.8
283.4135,116.2
283.4722,19.6
283.4992,183.8
283.5189,170.9
283.5374,400.1
283.6096,279
283.8762,362.5
283.9896,29.1
284.0044,73.5
284.025,149.4
284.0549,67.1
284.0632,87.1
284.088,914.9
284.203,100.3
284.3496,19.3
284.3906,103.6
284.3973,109
284.6904,668.4
284.7104,689.2
284.7403,181
284.748,473.6
284.7786,634.3
284.8174,392.2
284.8257,549.3
284.8309,24
284.8408,310.2
284.8486,184.5
284.908,18.5
284.927,317.7
284.9942,859.1
285.0233,329.9
285.0287,43
285.1042,404.6
285.1435,692.8
285.2262,496
285.3985,196.5
285.4737,356.9
285.6397,161.3
285.7215,413.9
285.7725,302.2
285.7838,18.2
285.9991,400.5
286.0202,3606.8
286.0965,186.5
286.1141,181.6
286.1806,115.3
286.1941,410.2
286.2799,112.8
286.4853,216.4
286.6053,503
286.6641,526.2
286.7725,2688.2
286.8045,24.8
286.88,534.3
286.952,3104.8
287.0234,365.2
287.0558,35483.3
287.0931,128
287.0983,155
287.1323,327
287.2183,406.7
287.2249,152.5
287.2965,23.8
287.3877,21.5
287.4788,313.4
287.5781,131
287.6041,722.6
287.85,371
287.8686,802.1
287.8881,219.2
287.9057,116.5
287.95,36.7
287.9709,160.4
287.9812,155.5
287.9921,366.1
287.9974,516.6
288.0161,132.8
288.036,228.1
288.0604,870.2
288.0852,72.7
288.1561,24607.6
288.1911,1018.2
288.256,647.7
288.2789,114.7
288.285,245.5
288.5712,219.8
288.687,128.7
288.7217,712.3
288.7629,359.5
288.7693,3600.7
288.7772,102.2
288.7951,957.3
288.8004,1391.1
288.8078,2392.1
288.8145,2829.1
288.8168,2966.5
288.8278,9384.2
288.8339,11678.1
288.8425,15458.9
288.8526,16818.6
288.8605,19437.3
288.8664,18018.9
288.8717,21433.9
288.8766,21773.6
288.8856,18680.2
288.8905,15239.1
288.896,12625.3
288.9013,10801.3
288.9073,10639.9
288.9113,9736.4
288.9159,7957.8
288.9226,7043.1
288.933,3553.2
288.94,1381.4
288.9508,84
288.9593,92.6
288.9722,39.1
289.0187,21.6
289.0223,104.5
289.0489,314.3
289.0612,151.4
289.0906,140.7
289.1436,102.1
289.1596,674
289.1789,108.9
289.2034,20.8
289.2615,654.2
289.4112,323.3
289.5599,101.8
289.5751,281.5
289.6276,797.4
289.6547,21.9
289.738,317.2
289.7903,36.2
289.8869,154.7
289.9373,374.6
289.9736,447.2
290.0128,192.1
290.1022,18.2
290.1281,18.9
290.1515,1017.1
290.1909,200.1
290.2561,19.6
290.3342,367.1
290.3442,357.3
290.3621,177.6
290.4644,141.8
290.6993,87.8
290.767,1010.9
290.7983,38.4
290.806,761
290.8697,20.3
290.891,21.6
290.9264,48.4
290.9392,883.2
291.0272,2302.3
291.0462,113.2
291.0648,133.8
291.0747,210
291.1125,201.6
291.3865,24
291.4955,502.2
291.5894,18.9
291.7014,791.5
291.7919,386.5
291.8058,25.2
291.926,1068.6
291.9471,182.2
292.0502,140.3
292.0731,16.4
292.08,31
292.1261,273.6
292.1373,263.2
292.1949,21.7
292.3779,415.5
292.6745,639.4
292.7313,214.5
292.796,427.1
292.8969,500.8
292.9688,18.2
292.9727,306.4
293.0051,657.6
293.0727,2038.5
293.0987,393719.8
293.1796,2087
293.3253,250.2
293.3307,148.2
293.3547,103.3
293.4829,337.4
293.5444,95.1
293.7467,601.1
293.7694,23.7
293.897,562.2
293.9023,187.4
294.0258,669.6
294.0648,578.9
294.0957,415.3
294.102,36370.7
294.3047,658
294.4347,189
294.4909,109
294.5254,82.4
294.5387,150.6
294.7181,600.5
294.952,146.9
294.9913,192.3
295.0001,108.5
295.0269,345.4
295.0284,350.6
295.0308,391.5
295.0593,262.8
295.1028,2121
295.1236,167.8
295.1532,134.7
295.1951,25135.5
295.2297,198.6
295.3103,540.3
295.3266,346.6
295.3822,797.5
295.4738,128.5
295.5192,17.9
295.5895,430.7
295.6759,228.6
295.7794,102.8
295.838,17.5
295.9047,287.2
296.0104,1210.5
296.0688,400.7
296.0794,515.7
296.1042,1272.6
296.1987,1469.4
296.2082,43
296.477,19.5
296.5283,19.1
296.6672,189.7
296.7785,554.4
296.801,771.6
296.8215,208.3
296.8587,29.4
296.889,338
296.937,490.8
296.9499,429.3
296.988,86.4
297.0437,369.1
297.1079,69.2
297.1654,564.2
297.1979,391.6
297.2074,189
297.364,19.1
297.5035,637.4
297.5083,267.1
297.5838,235.7
297.6395,376.8
297.666,20
297.8357,398.5
297.8417,20.5
297.9637,544.1
298.0021,127.6
298.0258,1529.7
298.0428,14405.2
298.0631,337.2
298.2658,813.5
298.516,23.4
298.5292,443.3
298.7836,359.9
298.951,353.2
298.9876,19.3
299.0233,1833.6
299.0461,452.4
299.1074,206.6
299.1398,8150.6
299.291,257.7
299.3523,116.9
299.386,46.7
299.4324,613.8
299.5283,118.4
300.0358,1115.4
300.0497,32.6
300.0758,380
300.0852,20.7
300.6096,261.6
300.6157,650.9
300.6378,46.6
300.752,132.5
300.8197,54.3
300.851,134.3
300.9789,355.2
301.0123,52
301.0276,170.1
301.0391,21677.9
301.0562,423.9
301.0625,19.4
301.0785,20.8
301.1013,623.4
301.1418,177.7
301.2123,2584
301.2237,547.2
301.279,137.1
301.3439,428.2
301.3772,184.5
301.4053,551.4
301.4538,157.6
301.4902,169.7
301.7465,20.3
301.7743,258.9
301.8569,536.9
301.9102,379.8
301.9946,3943
302.0131,546.3
302.0202,666.9
302.0316,492.2
302.0515,207.9
302.0645,3332.2
302.1448,25.9
302.2558,140.5
302.3455,238.3
302.5833,98
302.6431,115
302.6476,512.9
302.6565,973.3
302.6636,49.2
302.6707,47.4
302.7177,320.9
302.7577,90.6
302.7695,408.6
302.7789,388.8
302.8013,500.2
302.8299,1608
302.8497,646.6
302.9531,140.1
302.9896,19.7
303.0003,18.8
303.0054,586.3
303.0543,96.8
303.0679,316
303.0741,142.6
303.0757,140.6
303.0776,103.8
303.154,118.3
303.2055,829
303.2177,3037.9
303.3284,497.8
303.6888,322.7
303.777,129.4
303.861,330.3
303.8925,136.2
303.9297,130.6
303.9804,152.4
303.9863,183.2
304.0605,28.3
304.0708,151.8
304.4918,163.3
304.6584,93.9
304.7436,643.1
304.7591,726.1
304.8268,736.4
304.8625,105.7
304.8703,741.4
304.8955,70
305.014,508.7
305.0574,140.5
305.1,447.6
305.1241,254.3
305.144,188
305.197,211.8
305.2329,1749.9
305.2422,97.6
305.2986,610.6
305.5909,126.9
305.6197,725.3
305.7014,398
305.782,290.7
305.8892,606.4
305.9438,1039.7
305.9829,26.4
306.0957,26.8
306.1682,922.9
306.2202,21.1
306.3949,274.9
306.5381,343.5
306.588,528.9
306.7404,93.3
306.7602,290.3
306.8422,23.2
306.8955,20.5
306.9584,1892
306.9777,5149.5
306.9952,367
307.0166,401.6
307.0725,149.8
307.1233,666.9
307.1359,19.2
307.2049,387.9
307.5065,128.5
307.5778,144.5
307.6968,163.3
307.7342,661
307.8237,330.2
307.8326,18.7
307.8758,680.7
308.0744,712.6
308.1595,221.1
308.1897,655.8
308.2481,348
308.4526,534.8
308.5112,18.6
308.5816,883.6
308.5922,118.5
308.635,111.5
308.8088,131.9
308.8795,1110.9
308.8983,97
308.916,163.4
308.9484,566.1
308.9784,166.1
309.0067,98.6
309.0377,5158.6
309.1519,23.2
309.2077,128.9
309.2222,21.7
309.2502,387
309.2584,125
309.4421,18.6
309.4496,18.7
309.57,782.4
309.8263,90.2
309.8849,110.1
309.9794,431.5
310.0207,22.7
310.3004,107.4
310.69,17.8
310.8035,20
310.8766,897.6
310.9131,701.2
311.0032,46.3
311.0095,577.6
311.1676,284.2
311.3132,255.5
311.3849,667.2
311.4821,115.5
311.5123,319.2
311.5976,104.1
311.7582,112.1
311.8773,177.4
311.9997,29.8
312.0044,195.2
312.0198,282
312.0308,448.6
312.0416,1137.1
312.0805,147.4
312.2189,485.6
312.4083,108.5
312.4281,209.4
312.472,161.2
312.5042,166.9
312.5302,915.8
312.5419,334
312.6191,190.3
312.7869,377
312.7935,158.1
312.8182,109.1
312.9342,464.2
313.0096,331.1
313.0184,212.3
313.0365,668.4
313.1817,467
313.2745,59394
313.2879,86
313.3331,186.2
313.3489,178.3
313.3547,169.8
313.4982,213.5
313.8281,17.9
313.978,175.4
313.9982,21.4
314.0152,4237.8
314.035,40.8
314.0632,311.2
314.0913,123.7
314.1566,135.8
314.2032,142.5
314.2778,6633.9
314.3567,100.7
314.4542,646.5
314.4831,680
314.6185,24.7
314.6548,278.2
314.6756,125.6
314.7805,1377.7
314.7985,98.1
314.8232,84.1
314.8248,82.8
314.8374,6288.7
314.8544,127.7
314.8593,19.3
314.9185,353.9
314.988,468
314.9996,5400.4
315.0186,462.1
315.0375,209.1
315.0411,132.6
315.0556,8825.9
315.0606,4881.6
315.064,6548.8
315.0669,19268.7
315.07,25268.3
315.0724,18727.2
315.0807,8588977
315.0887,18624.3
315.0908,13774.6
315.0963,6826
315.0987,7457.8
315.1026,3238.5
315.105,2718
315.107,2989.7
315.1135,1017.6
315.1262,419.2
315.1303,161.5
315.1322,156.4
315.1431,176.6
315.1619,6885.7
315.2594,166.2
315.3242,7273.7
315.3382,187.2
315.4867,607.1
315.6103,21.3
315.6206,397.9
315.6817,950.8
315.7208,253.3
315.83,191.1
315.9451,30.3
315.9973,89.2
316.0113,96.9
316.019,20.4
316.0697,711.3
316.078,46889.2
316.084,894118.4
316.2481,175.5
316.2927,132.6
316.4978,17.8
316.5654,233
316.7777,415.5
316.7894,118.3
316.7976,110.1
316.8189,108.8
316.8304,238.3
316.8379,223.3
316.8441,790.7
316.9142,305.6
316.9788,451.6
316.9871,3080.3
317.057,530
317.0657,2083.6
317.0846,100938.2
317.1524,273.6
317.1783,185.6
317.2762,19.1
317.5094,785.3
317.6114,143.9
317.6814,405.9
317.7246,109.5
317.8235,30.9
317.9587,207.2
317.9872,376.2
318.0278,101.9
318.0882,9057
318.2728,382.7
318.3644,650
318.5049,781.9
318.5574,41.1
318.7666,148.4
318.7925,934.6
318.8045,1324.2
318.806,1238.5
318.816,201.4
318.9609,874.4
318.972,20.8
318.9969,398.8
319.1129,280.6
319.1455,445.2
319.1544,121
319.1625,402.4
319.1952,48640
319.3574,349.4
319.6118,394.4
319.6672,246.6
319.7417,137.4
319.7798,93.9
319.8684,165.7
319.8899,256.1
320.0067,110.4
320.075,144.6
320.146,88.3
320.1986,7372.2
320.2593,1135.9
320.3067,338.9
320.4994,416.8
320.6364,318.6
320.801,1459.8
320.9259,18.8
320.9902,452.8
321.0045,361.5
321.1645,213.8
321.2109,51031.1
321.2631,29.2
321.349,112.3
321.4693,180.2
321.486,134.2
321.6132,469.8
321.6624,235.8
321.6732,301.6
321.6995,424.9
321.732,229.5
321.9837,333.6
322.0094,132.7
322.1099,93
322.1306,881.6
322.2145,4357
322.3258,113.7
322.4206,109.2
322.4565,383.2
322.6414,364.5
322.6703,103.9
322.7477,317.1
322.8117,468.1
323.0042,259.2
323.021,9993.1
323.1018,399.8
323.1437,140.5
323.1796,896.3
323.2264,579.5
323.3202,112.2
323.63,427
323.7548,83.9
323.7695,281.3
323.8218,389.2
323.9338,473.1
324.0023,5973.2
324.1291,366.2
324.2438,759.8
324.2508,111.2
324.414,251.2
324.5136,736.1
324.5473,524.8
324.5554,61.4
324.566,3944.5
324.575,3473.7
324.5912,2628.4
324.5994,1316.7
324.6149,143.8
324.6879,184.6
324.7364,484.7
324.8093,1504
324.8538,1175.4
324.9212,713.9
324.9296,357.8
324.9524,420.2
325.0023,854.8
325.0554,516.9
325.2124,3904.4
325.4809,111.9
325.6562,112.9
325.8717,104.3
325.8781,363.5
325.9342,121.5
326.0051,41.4
326.4261,409.1
326.5738,174
326.6966,163.5
326.7802,621.7
326.822,547.3
326.8504,1204.6
326.8787,499.6
326.9048,432.6
326.9421,131.5
326.9754,513.3
326.9827,576.4
327.016,6274.2
327.0235,788.1
327.0305,815
327.0522,917.3
327.0675,231.9
327.218,510.5
327.2279,11790.3
327.2715,162.5
327.3419,264.5
327.3511,873.8
327.3687,19.8
327.5869,132.5
327.7336,801.8
327.7653,19.8
327.7751,160
327.8932,20.6
328.0522,99
328.1466,531.1
328.2314,977.8
328.3145,501.1
328.3474,821.7
328.3659,23
328.384,591.7
328.3884,605.6
328.3961,1483.3
328.4034,1385.2
328.4137,327.6
328.571,314.3
328.5758,16.9
328.6418,531.2
328.7981,18.9
328.8038,17.9
328.9963,289.8
329.0965,2353.4
329.1241,98.9
329.2264,318.1
329.6727,618.8
329.7214,139.8
329.9242,84.3
329.9634,97.1
329.9735,172.9
330.0595,144.9
330.108,696.7
330.1196,166.3
330.1829,96.5
330.2058,145.5
330.3713,168
330.4812,18.7
330.7259,269.3
330.7539,439.8
330.907,273.6
331.0198,2006.5
331.0459,108298.8
331.0546,1131706.8
331.1573,167.8
331.339,20.8
331.3586,922.2
331.5905,353.5
331.6356,148.2
331.8133,593.4
331.8392,22.7
331.8671,505.5
331.9462,204.8
332.0262,27.4
332.036,98.9
332.0485,6486.5
332.058,103494.2
332.1048,17.6
332.1204,375.7
332.2032,152.4
332.2845,18
332.294,752.6
332.3632,25.1
332.4191,159.2
332.4269,265.5
332.5078,156.4
332.6111,157.9
332.809,43
332.8324,558.5
333.0528,66234.8
333.0584,12058
333.1522,708.2
333.2853,590.8
333.3545,130.8
333.5617,98.4
333.6332,488
333.8043,293.3
333.9025,103.9
333.9129,493.6
334.0563,6032.8
334.0622,368.3
334.0845,94.8
334.0938,377
334.1193,41.2
334.2066,153.9
334.3471,855.6
334.5116,391.6
334.7453,95.3
334.7661,342
334.8372,48.7
334.9363,163.5
334.9518,595.6
335.0106,41.1
335.0382,108.7
335.1026,224.7
335.1675,2203.1
335.2999,173.8
335.3333,556.2
335.365,19.5
335.4181,20.2
335.5204,352.9
335.6943,111.8
335.8336,33.9
335.8849,99.4
335.9278,356.7
336.0125,23.1
336.1931,142.7
336.1991,854.7
336.39,426
336.4574,321.6
336.6044,120
336.8355,19.5
336.9833,225.7
337.0368,9897.7
337.0502,23464.8
337.0627,609919.5
337.1517,100.1
337.1835,1717.6
337.2747,18943.2
337.3754,155
337.5943,107.2
337.7218,512.3
338.0259,105.4
338.0505,359.4
338.0661,55101.6
338.0826,842.7
338.1915,401.2
338.2536,178.4
338.2774,1840.2
338.4001,291.7
338.4584,730.9
338.5925,223.2
338.6181,144
338.6273,312.5
338.634,137.9
338.6765,171
338.8476,18.3
338.9214,2414.1
338.9607,170.1
339.0391,1763.1
339.0476,685.9
339.0664,4025.6
339.1991,111.2
339.2142,18.8
339.2515,502.4
339.2903,12134.4
339.3426,106.9
339.3778,114.4
339.4748,135.9
339.5293,242.2
339.5633,682.5
339.5835,213.7
339.9514,23.5
339.9622,384.1
339.9667,444.5
339.9707,191.6
339.976,987.3
340.0716,449.8
340.131,45.9
340.2429,528.2
340.4395,322.6
340.4623,177.4
340.6636,198.4
340.6932,17
340.763,507.7
340.783,331
340.835,430
340.8525,93
340.8827,46.1
341.0725,504.3
341.2961,526.7
341.306,5630
341.5363,200.1
341.8253,17.2
341.9112,163.7
342.0159,5247.4
342.49,395.2
342.5452,135.1
342.7235,107.7
342.8687,771.4
342.9902,1414.5
343.0183,94.3
343.083,584.6
343.1953,16380.3
343.2419,793.8
343.2669,182.9
343.2797,402
343.2886,573.6
343.6056,146.1
343.9893,405.3
344.1544,151.4
344.2008,113.9
344.2608,18.6
344.2818,725.3
344.3358,155.4
344.6169,18.8
344.6305,100.6
344.866,936.9
344.9933,400.2
345.0425,17.8
345.0571,122.8
345.0768,173.3
345.2106,692.7
345.3257,19.9
345.9844,27152.8
346.0102,36.7
346.021,158.5
346.0416,182.7
346.2596,147
346.3568,100.2
346.4711,41.6
346.5151,40.1
346.6062,233.9
346.7191,716.3
346.876,473.2
346.9877,505.4
347.0183,1651.2
347.0275,37.2
347.1056,105.5
347.1667,365.6
347.3048,120.2
347.5425,280.3
347.5614,98.1
347.712,662
347.9209,18.8
347.9952,113.8
348.0746,346.2
348.1727,94.3
348.37,529
348.4158,163.7
348.4966,134.5
348.6667,577.1
348.6919,537.2
348.8146,523.4
348.8872,196
349.0184,974.7
349.4613,743
349.5208,43.6
349.5364,21
349.5831,96.8
349.8184,101
349.8247,393.8
349.8718,390
349.9437,371
350.1472,155.3
350.4784,90.8
350.6142,735.1
350.6898,169
350.732,18
350.7645,246.3
350.7968,116.5
350.8132,498.3
350.8365,133.4
350.8649,103.1
350.8987,315.4
350.947,188.6
350.9762,371.7
350.9904,21.5
351.0077,584.1
351.0498,181
351.0783,535.3
351.2428,137.4
351.2529,875.6
351.2685,246.6
351.4499,18.9
351.6689,338.3
351.8474,332.1
351.8676,18.3
351.8983,466.6
352.1756,161.8
352.2005,496
352.2904,568.7
352.3245,887.8
352.3876,591.6
352.5319,198.8
352.8989,943.7
353.0277,132825.6
353.0366,197336.3
353.3566,133.9
353.5545,19.3
353.6089,396
353.6293,52.2
353.6431,402.3
353.6778,321.8
353.7484,435.6
353.8319,498.9
354.0248,310.8
354.0309,9397.2
354.04,19049.1
354.0953,904.4
354.1015,418.8
354.176,236.3
354.2388,585.2
354.5725,278.6
354.601,38.2
354.7984,101.9
354.8954,1924.6
354.9039,180.1
355.0124,890.7
355.0349,10661.9
355.0717,603.7
355.189,4314.8
355.2579,21.8
355.348,180.4
355.4042,135.4
355.4236,18
355.5591,178
355.7377,168.2
356.0157,81.5
356.192,300.7
356.2305,348.3
356.4161,219.9
356.4735,19
356.7373,194.4
356.7919,19.3
356.8177,361.4
356.9823,562.9
357.0025,123.6
357.0091,334.1
357.0207,116.6
357.0767,362.7
357.0965,461.3
357.1231,348.9
357.1418,20.5
357.2334,158.1
357.2758,88.2
357.3251,170.7
357.5611,118.2
357.5705,730.2
357.5803,255.4
357.5862,19.5
357.6343,100.8
357.6952,105.3
357.7934,199.1
357.8436,36.2
357.978,681.6
357.9891,115.5
358.0023,145.1
358.0686,96.2
358.0819,680.5
358.1801,171.5
358.2062,122.3
358.3387,807.3
358.411,390.8
358.4598,131.2
358.5061,100.7
358.5999,102.1
358.7276,331.3
358.776,331.8
358.9292,369.2
358.9621,633.6
359.0081,238.9
359.0322,14418.8
359.0447,367543.2
359.0918,667.6
359.1675,998.1
359.3307,103.3
359.3559,641
359.4633,121.2
359.4807,164.5
359.5068,170
359.5129,521.2
359.5312,173.5
359.5344,165.5
359.5492,261.2
359.5552,166.2
359.5696,213.4
359.5786,22.8
359.5919,175.5
359.6032,607.6
359.6117,248.4
359.6249,1179.6
359.6391,869.4
359.6709,349.7
360.0163,375.7
360.0403,250.3
360.048,32832.8
360.057,21.4
360.2665,477
360.3245,112.5
360.5274,242
360.6788,161
360.7893,433.9
360.9727,145.3
361.0021,325.2
361.0208,4759
361.0288,132.2
361.0488,1239.1
361.198,350
361.275,702.1
361.6294,340.3
361.662,41.4
361.7051,371.4
361.7906,239.2
361.9584,7869.6
361.9794,427
362.0417,374.8
362.1231,109.1
362.1655,89.8
362.1829,17.3
362.4014,394.5
362.5118,940.5
362.6633,19.8
362.8195,25.4
362.8844,101.5
362.9632,182
363.1453,123.2
363.1829,17.2
363.2152,18.7
363.4348,191.5
363.4782,148.8
363.5911,417.5
363.6485,18.5
363.7556,810.5
363.7906,23.9
363.8119,17.6
363.9978,832
364.3482,19.5
364.7988,19.4
364.8805,290.2
364.9163,623.1
364.9757,183.9
364.9788,180.9
364.9852,541.6
365.0382,486.7
365.1038,767.3
365.1156,720.5
365.1314,359.7
365.1864,22.9
365.4043,163.6
365.4226,180.9
365.4811,376
365.5071,165.1
365.6808,244.7
365.7114,327.5
365.7379,43.5
365.9858,43.8
366.0786,106.8
366.1378,88.4
366.1965,641.8
366.3057,387.3
366.361,155
366.8739,594.7
366.8884,18.9
367.0502,287.7
367.122,1269.5
367.1952,3198.3
367.2148,588.9
367.2309,293
367.3153,419
367.3578,752.2
367.4584,93.2
367.4913,235.5
367.6276,409.9
367.7122,19.7
367.8235,18.5
367.9139,114.8
367.9518,418.4
367.9923,1403.9
368.0029,382.3
368.0176,106.6
368.07,149
368.1008,280.6
368.1592,296.3
368.2441,17.2
368.3142,529.9
368.3241,848.4
368.3523,813.1
368.6782,157.9
368.8735,760.5
368.9745,514.8
368.9929,4070
369.0016,15285.1
369.0106,8569.9
369.0904,150.9
369.2589,700
369.4765,710.6
369.7057,18.9
369.7125,20.5
369.8589,298.5
370.0044,141.7
370.1476,146.2
370.1939,562.3
370.3323,153.9
370.4187,165.6
370.4708,149.7
370.6523,377.4
370.6914,19.9
370.7075,372.6
370.7412,372.5
371.0007,1436.2
371.0449,439.2
371.2279,287
371.5155,560.5
371.6085,146.4
371.7192,202.3
371.7651,537.9
371.9946,21.2
372.0663,698.7
372.1026,326.7
372.186,88.1
372.2627,286
372.3457,199.3
372.6963,660.7
372.7065,100.3
372.7588,116.6
372.7664,97.5
372.9523,142.1
372.9655,161.7
372.9957,241.9
373.0212,641
373.0483,167.4
373.6061,34.6
373.7233,883.8
373.9501,21.3
374.0125,433.2
374.1169,107.8
374.157,116.9
374.1647,297.7
374.3333,21.9
374.3978,23.6
374.472,116.2
374.576,175.7
374.7363,495.9
374.8064,170.8
374.8547,103
374.9762,149.6
375.0098,128621.6
375.0186,107827.6
375.0825,149.8
375.1094,558.3
375.1229,40.3
375.1616,210
375.1795,19.2
375.4108,210.5
375.552,257.2
375.634,42.3
375.9663,29.7
376.0131,9094.1
376.0218,9125.8
376.1526,135.5
376.17,314.2
376.1871,527.2
376.212,149.6
376.3392,385.2
376.3911,151.2
376.4319,522.8
376.4431,406.8
376.4696,17.3
376.5933,113.5
376.7915,546.3
376.8176,331.3
376.9728,205.9
376.9949,795.9
377.0172,4917.5
377.0476,939.4
377.0607,490.1
377.1435,86.5
377.1499,336.2
377.3028,19.4
377.3274,229.3
377.4628,357.8
377.8806,377.5
377.9321,104.2
378.2714,18.1
378.2832,271.7
378.3092,927.5
378.3353,157.8
378.3844,784.4
378.4355,618.3
378.5638,141
378.6224,761.9
378.6981,202
378.8603,405.5
378.982,143.5
379.0026,196.4
379.2444,468.7
379.2894,99.3
379.4401,433.8
379.6159,141.8
379.6968,156.3
379.8224,18.5
380.0408,607.2
380.1097,43.8
380.319,164.4
380.3583,22.5
380.3992,159.8
380.634,456.8
380.7067,112.4
380.7702,668.3
380.8996,186.1
380.9103,918.2
381.0142,25715.6
381.0267,213000.1
381.0483,154.8
381.0613,20.1
381.0756,457.5
381.1359,201
381.1537,362.4
381.3755,20.5
381.4116,1101.7
381.6323,152.4
381.6686,18.5
381.9591,613.2
382.03,19257.4
382.0397,534.2
382.3546,352.7
382.4538,553.8
382.7678,1561.1
382.9334,231.6
383.0116,1485.5
383.0311,472.9
383.117,193306.3
383.1494,138.3
383.1612,139.9
383.1723,170.9
383.3725,590.8
383.4872,210.4
383.4975,357.3
383.5098,301.3
383.5897,411
383.9663,1066.6
383.9837,121
384.0008,295.2
384.1202,21562.5
384.1918,462.5
384.3433,109.3
384.433,44.1
384.4722,131
384.583,231.2
384.738,448.6
384.7645,1058.4
384.8322,293.9
385.1718,608
385.2789,453.4
385.3151,194.8
385.7453,583.5
385.9799,5470.4
385.9996,20.2
386.0943,455.4
386.2106,591.9
386.2878,412.3
386.3083,101.8
386.7161,791.1
386.7597,396.2
386.8105,20.2
386.9453,448.8
386.9739,139.5
387.0026,1330.7
387.2112,433.7
387.2239,761.5
387.3184,547.4
387.4803,628.1
387.5312,201.2
387.6517,542.4
387.8273,110.6
387.9471,19.3
387.9787,926
388.2888,193.9
388.299,475
388.4411,99.1
388.5298,148.8
388.6289,335.8
388.6712,991.8
388.7131,1252.4
388.7263,425.6
388.7957,390.9
388.8802,142
388.9081,470.1
389.1229,370.5
389.6016,497.8
389.7193,373.4
389.7499,22.9
389.9632,601.9
389.9743,29642.4
389.9946,22
390.0272,120.8
390.236,319.7
390.5185,337.2
390.7104,1193.8
390.7591,21
390.7994,1404.4
390.8158,1335.4
390.8289,442.2
390.8374,190.3
390.9747,12472.7
390.9835,20920.4
390.9926,10660
391.0254,108.5
391.2041,786.3
391.225,523.4
391.3826,116.5
391.4165,395.7
391.6881,204.4
391.7392,152.1
391.811,94.9
391.8216,143.7
391.9629,93.6
392.0056,41.3
392.1995,90.6
392.2125,250.7
392.271,110.4
392.3705,119.8
392.4458,876.1
392.4626,485
392.492,103.5
392.5389,19
392.6411,444.3
392.6858,791.3
392.6952,167.3
392.7962,2678.7
392.9575,363.4
392.9675,144.8
392.9824,1340.5
393.0081,397.3
393.017,812.8
393.037,102
393.0756,160.5
393.2388,287.6
393.2471,293
393.4209,426.1
393.5615,19.2
393.6513,557.8
393.8898,152
393.9105,236.7
394.0264,393.6
394.0834,804.6
394.2022,169.8
394.2265,132.8
394.4312,1046.4
394.4692,762.1
394.7164,438.1
394.7564,19
394.794,1008.1
394.9699,295.7
394.9771,159.3
395.2803,619.7
395.4478,435.7
395.4889,172.9
395.8812,266.9
396.0687,487.9
396.0763,169
396.1253,115.7
396.1782,580.8
396.2757,379.9
396.2903,177.6
396.5193,502.7
396.5277,318.2
396.5737,163.7
396.6352,42.3
396.7446,1536.1
396.7722,19.4
396.8562,24
396.8651,823.3
396.9737,323.7
396.9917,175928.9
397.0006,64594.4
397.0181,167.4
397.1428,205.5
397.1651,566.5
397.2143,507.2
397.2861,21
397.3864,469.1
397.4891,970.3
397.6659,18.7
397.6724,88.3
397.751,299.1
397.8768,803.6
397.995,15154.4
398.004,4143.7
398.1382,764.5
398.2041,1360.8
398.2425,19079.4
398.3636,303.5
398.4495,759.9
398.6233,573.2
398.7422,3044.4
398.7625,752.6
398.844,106.7
398.9074,141
398.9341,929.1
398.9508,18.6
398.9881,932
398.999,1432.4
399.0852,365.5
399.1271,20.7
399.1712,214.2
399.2008,116.1
399.2454,2065.4
399.3954,581.5
399.5061,113.8
399.7796,281.8
399.8811,631.7
400.195,317.8
400.3027,124.2
400.3119,302.9
400.5565,161.2
400.625,419.5
400.7391,704.9
400.8266,272.7
400.9846,658.6
401.1519,181.8
401.1823,105.5
401.3633,186.5
401.6467,384.8
401.7101,18.7
401.7599,848.5
401.9543,322.3
401.9898,19.7
402.118,19.8
402.1878,376.9
402.2672,17.2
402.6268,219.2
402.8107,590.7
402.8254,825.3
402.8478,352.8
403.0087,259542.2
403.1331,97.8
403.209,20.5
403.243,357.6
403.3049,110.4
403.4145,115.8
403.545,96.7
403.7424,90.9
403.8201,106.5
403.9426,367.5
403.9544,115.6
404.0119,24338.8
404.2568,193.2
404.2666,290.8
404.2866,212.2
404.366,20.7
404.4413,21.3
404.4805,162.7
404.6866,490.3
404.7448,611.5
405.0131,662.1
405.1892,104.1
405.2001,381.6
405.2722,482.5
405.3667,654.5
405.6992,548.3
405.775,617.4
405.8819,87.9
405.9482,17162.1
406.0245,452
406.0948,171.9
406.2457,571.3
406.2939,95
406.3301,781.5
406.4086,121.3
406.4228,456.5
406.4947,1089.7
406.5103,179.6
406.6942,209.1
406.9509,301.8
407.0533,505.3
407.0677,216.7
407.1843,37.8
407.219,38
407.3335,159.2
407.3769,167.7
407.4293,792.7
407.4546,152.4
407.5189,343.2
407.5702,721.8
407.6224,177.6
407.7704,632
407.8127,40.4
407.8844,21.4
407.9364,445.3
407.9473,236.7
407.9553,120.2
408.013,18.6
408.0248,641.3
408.5233,87.4
408.6268,259.7
408.7707,2133.3
408.9256,415.2
408.9303,422.5
408.9557,108
408.9734,19.7
408.985,1828.1
409.1932,507.2
409.4047,18.5
409.4652,650.7
409.8235,650.1
409.8618,136.2
410.1751,134.1
410.5611,96.6
410.5717,153.8
410.7253,96.7
410.7601,255.5
410.8056,541.1
410.8568,656.4
411.1206,167.4
411.2081,250.8
411.238,172.5
411.512,588.7
411.5574,19.3
411.5892,96.7
412.0313,165.6
412.1524,324
412.1841,82.3
412.3218,1834.1
412.475,845.6
412.4928,319.5
412.7185,843.4
412.9654,36380.1
412.9745,10543.5
413.1004,18
413.2673,1646.8
413.3251,143.9
413.4853,155.1
413.8007,19.7
413.88,115.4
413.9437,382.6
413.968,579.2
414.2707,197.1
414.5362,353.2
414.6548,199.8
414.7165,386.3
414.7363,21.3
414.7788,840
414.824,333.8
414.8596,17.9
414.9223,106.3
414.9647,884.6
415.0146,181.2
415.1296,140.5
415.1386,115.2
415.2232,716.6
415.3964,19.8
415.5867,542
416.018,226.4
416.0651,169.3
416.1006,38.2
416.1169,275.2
416.1357,6018.9
416.164,143.3
416.2149,46065.2
416.6263,174.9
416.7126,469.8
416.8015,571.8
416.8578,103.9
417.1025,186.1
417.1402,235.8
417.1609,528.1
417.2178,4377.6
417.4888,185.2
417.7536,528
417.9285,204.1
417.981,161.6
417.9892,229.2
418.1423,248.4
418.331,154.9
418.3919,138
418.5278,631.1
418.5882,173.5
418.7071,190.9
418.7222,348.6
418.7985,747.6
418.9517,325.6
418.9826,83822.3
419.0477,483
419.0554,749.6
419.1095,111.6
419.2565,73.3
419.343,136.6
419.7403,80.2
419.8615,228.5
419.8789,739.9
419.896,19.3
419.9321,21.4
419.9862,5190.8
420.0005,21.1
420.6114,753.4
420.7351,19.8
420.7503,339.4
420.8515,203.8
420.9118,204.1
420.9808,1895.7
421.0849,404.5
421.0926,125.3
421.3108,20.5
421.4418,503.6
421.4962,114.4
421.5409,532.9
421.6304,209.6
421.7683,365.1
421.8328,405.3
421.922,2220.6
422.0632,124.4
422.3031,24.5
422.3772,617
422.4958,41.4
422.568,89.9
422.5782,104.7
422.819,144.8
422.9033,161.6
423.1251,85.4
423.6528,649.6
423.9117,201
423.9365,364.5
424.0381,348.6
424.2034,107.1
424.316,112.7
424.4641,18.4
424.6044,295.6
424.7324,45.4
424.7457,449.2
424.8889,158
424.9274,169.4
424.9745,469.1
425.0299,26.4
425.0435,514.1
425.1357,468.7
425.2082,172.4
425.2167,490.1
425.6089,201.1
425.6799,849.4
425.7794,112.6
425.8117,133.3
426.0799,126.6
426.2764,21
426.3942,714.5
426.8653,204.3
426.942,72.5
427.1128,156
427.1595,863.4
427.2119,825.8
427.27,730.3
427.4355,763
427.8677,105.6
427.8816,336
427.971,50.9
428.0555,106.8
428.1103,195.7
428.1466,126.5
428.3083,831.1
428.4283,339.2
428.4964,155.1
428.5356,92.2
428.6092,136.3
428.6562,311.2
428.8322,117
428.9386,4535.2
428.9653,122.6
429.0111,20.1
429.0265,379.9
429.0898,141.3
429.3337,389.6
429.3509,131.7
429.5322,432.5
429.7104,246.3
429.8296,174.7
429.8982,430.5
430.0905,19.9
430.1583,752.3
430.4535,152
430.5027,111.6
430.5868,341.6
430.7146,286.6
430.9045,25
431.2181,4148.5
431.7477,21.9
431.7829,168.6
431.8057,21.3
432.0901,290.3
432.2086,153.5
432.2998,21.2
432.5822,94.1
432.7809,472.2
432.96,126.7
433.2503,24.3
433.8889,131.7
434.1199,189
434.2247,565.5
434.3423,377.5
434.354,174.6
434.4247,138.9
434.5289,365.7
434.556,81.9
434.6022,304.2
434.6336,446.6
434.777,634
434.8749,306.5
434.9566,14350.2
435.1995,403.7
435.416,115.6
435.5769,505
435.5941,259.5
435.8737,388.9
435.927,191.8
435.9583,496.8
436.0795,235.3
436.1635,18.5
436.2706,595.3
436.3393,349.7
436.4083,436.7
436.754,192.9
436.7637,588.2
436.9544,1117.2
437.0469,210.8
437.2055,941.2
437.2904,197.7
437.5739,372.8
437.7115,118.8
438.1639,306.1
438.1977,851.8
438.4551,149.3
438.7495,157.3
438.9733,2162.4
438.9854,3425.3
439.2759,123
439.2965,536.5
439.3366,784
439.3848,323.6
439.6162,882
439.7378,257.4
440.478,22.3
440.5758,181.1
440.5829,396
440.7169,495.2
440.9708,405.4
440.9824,242.5
441.0752,159
441.1139,305.9
441.2383,1215.4
441.2986,182.2
441.4727,18.7
441.5728,199.3
441.765,147.1
441.9104,437.6
441.9602,672
442.1105,18.2
442.172,605.3
442.3026,25.3
442.4676,311.4
442.723,582.5
443.2538,2046.9
443.6165,688.4
443.8503,148.1
443.8966,888.9
443.9734,40.5
444.2565,779.6
444.2997,450.2
444.4813,250.9
444.5685,18.6
444.6748,368.4
444.761,538.5
444.912,129.6
444.9987,157.8
445.0501,618.8
445.1067,483.6
445.1689,156.1
445.2339,2549.5
445.2695,583.8
445.3852,97.6
445.6809,364.6
445.696,169.3
445.7878,514.7
446.0551,294.5
446.303,164.8
446.4096,116.4
446.4748,101.6
446.6715,393.7
446.7283,353.2
447.0053,295.1
447.06,454.8
447.1675,610.7
447.4448,172.4
447.6427,855.4
447.6814,422.8
447.8595,103.6
447.9327,1366.4
447.953,355.2
448.0418,605.5
448.0927,549.6
448.1792,197.2
448.3449,764.5
448.4075,87.2
448.4252,173.2
448.4874,18.1
448.5758,576.1
448.6683,513.9
448.6852,328.3
448.759,411.7
448.8266,876.9
448.9333,4848
449.155,2173.8
449.1757,177.9
449.2784,38.9
449.5356,806.1
449.7665,521.9
449.7832,137.6
449.792,99.5
450.1582,408.7
450.2128,326.8
450.4262,228.9
450.6655,320.8
450.7199,92
450.7392,568.1
450.755,921.3
450.7865,279.8
450.9298,1885.2
451.0387,238.5
451.1505,113.1
451.161,19.3
451.3355,292.8
451.4566,365.2
451.4846,470.8
451.6672,118.2
451.6874,715.8
452.1426,647.9
452.9511,36.7
452.9604,588.2
453.0653,160.5
453.5461,103.2
453.5837,426.4
453.6119,575.9
453.7491,857.2
454.1478,207.6
454.8329,565.3
454.8657,366
454.9359,20.7
454.9506,40447.4
454.9755,498.4
455.326,27
455.4382,254.2
455.4509,257.7
455.5481,321.5
455.9542,1946.1
456.0015,324.8
456.0369,128.9
456.2863,422.7
456.3406,308.9
456.3607,136
456.5496,21.1
456.6339,544.9
456.701,803.9
456.8593,306.1
456.9476,8719.5
457.2336,11281.4
457.2926,137.6
457.4434,401.8
457.737,772.3
457.7467,228.7
457.7847,439.1
457.9053,331.2
457.967,30.2
458.1096,105.8
458.2364,818
458.3852,169.5
458.5692,232.3
458.6979,507.3
458.7952,96.5
458.8685,21.8
458.9623,3277
459.2493,569845.4
459.4325,141.3
459.468,187.6
459.5937,351.3
459.6076,241.8
459.6349,197.3
459.766,705.2
460.1172,100.3
460.1638,497
460.2526,115896.8
460.4096,37.4
460.5319,518.2
460.9674,81693.3
460.9839,351.9
461.0223,815
461.1053,334.1
461.1541,117.6
461.2044,142.3
461.2556,5907.5
461.3569,19.1
461.4846,111.2
461.8014,120.8
461.9707,4515.2
462.1233,91.2
462.1554,466.4
462.2958,105.9
462.433,149.1
462.4829,415.3
462.6473,318.5
462.9644,22067.7
463.2051,864.4
463.6908,852.7
463.8515,445.5
463.8635,100.3
463.9072,141.3
463.9682,485.8
464.2168,17.5
464.3509,284.1
464.4228,323.4
464.7675,549.6
464.9078,413.8
464.9793,8762.5
465.033,136.3
465.0442,738.9
465.1927,149.1
465.3104,110.9
465.3195,77.7
465.4468,48.7
465.5187,19.7
465.6136,603.7
465.9355,551.1
465.9813,163.2
466.1598,171.8
466.3011,288.2
466.3226,1019.8
466.6654,148.3
466.8977,791.9
466.965,443.3
467.2297,251.4
467.2669,114.8
467.3975,164
467.6021,231.5
467.6256,166.6
467.7569,274.8
467.8597,36.6
468.3097,1716.6
468.3944,556
468.6059,93.7
469.1411,54.5
469.3286,46.5
469.4397,113.2
469.5267,20.4
469.8012,293.3
469.8118,159.6
469.9153,483.2
470.0883,305
470.1176,720.4
470.1399,44.7
470.8051,254.6
470.8231,249
470.9243,16460.9
470.9961,2741.9
471.2851,825.6
471.3467,137.8
471.7326,130.3
471.8224,514.7
472.2603,40.7
472.4837,297.1
472.6082,399.9
472.6915,610.6
472.852,90.9
472.8673,243.5
472.8926,1912
472.9221,2896.9
472.9397,87.4
473.1845,93.5
473.265,2908.7
473.327,113.1
473.4187,40.2
473.5948,136.4
474.1124,122.9
474.4167,572.9
474.509,261.8
474.7822,20.6
475.0248,133.7
475.2232,26904.4
475.2748,402.4
475.8098,214.8
475.851,496.4
475.9207,17.6
475.9675,25.6
476.1882,95.4
476.2264,4051.1
476.2752,18.8
476.3635,157.3
476.5729,23.4
476.6218,17.1
476.723,490.7
476.9168,884.8
476.9412,39373.2
477.0154,119.3
477.222,502.1
477.2321,978.3
477.2478,444.9
477.8035,116.5
477.9445,1702.5
478.1106,120.6
478.1367,597.3
478.1625,176.5
478.33,57747.5
478.5852,376.4
478.72,226.2
478.7786,177.1
478.9384,13530.1
478.9669,97.9
478.9949,124.9
479.0971,19.6
479.2385,23
479.3332,12232.8
479.9411,1420.4
479.9949,125.2
480.2359,159.8
480.3464,2485.8
480.576,868.1
480.6549,185.9
480.7113,893.6
480.9532,2911.8
480.9877,458.8
481.0915,1716.5
481.1126,137.5
481.2337,792.2
481.4266,38.6
481.5291,111
481.6352,416.9
481.6573,114.3
481.8881,383.7
482.0289,254.3
482.0646,162.3
482.0959,243.1
482.1277,329.8
482.283,391.7
482.3242,950.9
482.3643,813.8
482.44,1061.4
482.4851,113.4
482.833,338.7
482.8644,143.4
483.087,102.6
483.2493,215168.4
483.3622,133.6
483.4351,439.2
483.5461,275.2
483.7895,431.4
483.864,123
484.0878,19.2
484.2527,49193
484.2669,40.2
484.3595,119.5
484.4124,463.2
484.5247,179.2
484.5801,88.3
484.8691,312
485.0322,237.8
485.1297,39.2
485.1399,477.1
485.1841,20.8
485.2414,535.8
485.2649,184247.5
485.3392,23.8
485.3758,131
485.4813,18
485.5705,151.9
485.6052,412.9
485.989,501.3
486.0123,180.6
486.0943,154.2
486.2043,1004.6
486.2683,39003.9
486.3765,112.5
486.5841,474
486.8655,144.6
486.8981,1069.3
487.1006,206.3
487.2805,102786.3
487.394,101.9
487.692,333.5
487.7085,140.8
487.9874,508.9
488.0619,506
488.2108,868.6
488.2838,19868.4
488.335,163.1
488.4668,483.4
488.8189,529.6
488.8964,358
488.9071,104.2
488.9638,105.7
489.1629,205.8
489.2782,93.2
489.3166,403.7
489.3417,357.8
489.4089,161.2
489.4232,816.8
489.451,1078.5
489.469,376
489.4983,46
489.5976,24
489.8226,95.8
489.8413,220.7
490.1416,98.9
490.2588,162.6
490.2914,4922.4
491.1816,592.8
491.3722,2786.6
491.525,21.6
491.5631,148.1
491.6261,18.6
492.1711,317.7
492.1822,339.9
492.2444,433.2
492.2546,207
492.2869,255.3
492.2906,235.6
492.7807,307.7
492.814,156.9
492.9152,5991.5
493.047,1041.8
493.2436,22.4
493.6925,108.6
493.9208,710.1
493.9593,138
494.1846,17.9
494.2369,62.9
494.325,10906.6
494.4022,350.4
494.8372,123.3
494.9134,2110.2
494.9672,302.9
495.2366,153.5
495.4206,727.1
495.5863,140.4
495.8122,698.6
495.9,239.3
496.0545,725.9
496.1007,18.8
496.242,148.3
496.3408,577228.6
496.3671,90
496.3903,396.9
496.5123,22.2
496.932,448.9
496.9989,111.4
497.0391,298.7
497.2461,337.9
497.3442,147428.5
497.4025,1126.8
497.4465,827.9
497.4967,18.5
497.5932,108
497.644,164.4
497.6904,405.3
498.0099,151.2
498.2459,134.7
498.3472,10993.1
498.4485,776.1
498.4833,145.2
498.6181,103.3
498.6846,403.2
498.7707,644.2
498.8008,143.2
498.93,404.2
498.9772,399.5
499.2234,9054.9
499.2494,92.3
499.3328,20.5
499.3543,252.4
499.8375,23.1
499.8687,565.6
499.8975,389.9
500.9431,91.4
500.9862,414.6
501.2035,658.8
501.2391,8652.8
501.4955,384.8
501.578,275.6
501.7138,616.1
502.0849,106.1
502.303,171.5
502.3301,26230.3
502.6423,312.6
502.7897,92.3
502.8726,501.8
502.958,102.2
503.2548,4316
503.3334,2047.9
504.067,476
504.097,158.1
504.1079,20.4
504.2316,186
504.2575,1227.7
504.3072,4793.8
504.3453,12516.8
504.5233,941.9
504.6594,522.3
504.8117,18.4
505.2338,957.7
505.3491,807.2
505.925,20
506.2928,345
506.3609,6117.2
506.3917,234
506.4841,435.6
506.5082,194
506.6274,549
506.7176,606.7
506.742,324.3
506.8922,4736.1
506.9841,341.3
507.0599,153.2
507.1266,145.6
507.2492,39240
507.3668,276.5
507.3797,665
507.806,569.2
508.0091,744.7
508.1648,324.5
508.2526,6098.3
508.3772,2585.2
508.4874,353.5
508.6199,148.6
508.6482,218.4
508.7852,171
508.8544,27.1
508.8891,2168.9
508.9091,597.1
509.0053,1107.9
509.0358,167.4
509.0795,82
509.1461,150.7
509.2238,46
509.2646,13243.5
509.4207,365.5
509.5947,402.7
509.6688,174.5
509.8707,629.6
509.9337,132
510.0632,485.3
510.1608,184.8
510.1913,222.2
510.209,463.4
510.2678,1908.6
510.3565,7341
510.6164,251.4
510.8126,324.1
510.9045,673.7
511.0594,157.7
511.1252,27.3
511.2028,774.9
511.3155,664.4
511.358,483.7
511.4536,120.7
511.5412,184.8
511.7633,373
511.7996,629.9
511.9405,232.7
511.9697,114.6
512.25,41.3
512.3764,159.7
512.5234,208.3
512.6085,190.6
512.6311,141.5
512.7183,84.6
512.7707,40.3
512.81,316.7
512.9091,16486.3
513.2759,1077.6
513.3178,20
513.4881,118
513.5107,167.4
513.5285,504.2
513.5493,441
513.6304,436.3
513.6707,333.7
513.8933,503.5
513.9231,295
513.9411,209.7
513.9661,276.7
513.9786,20
514.0367,291.9
514.1814,560.1
514.4616,757.9
514.5193,303.6
514.7314,393.5
514.9062,11247.7
515.3721,596
515.4652,36
515.8144,233.2
516.0959,645.3
516.1741,211
516.2853,191.2
516.3074,15892.4
516.3323,515.2
516.9031,973.8
516.9252,577.8
517.0054,153.9
517.2863,94
517.3106,1145.4
517.5369,161.1
517.6035,114.2
517.8536,296.7
517.8749,116.2
517.9183,170.1
518.1247,381
518.168,356.1
518.3229,926613.4
518.4391,126.3
518.494,525.6
518.5666,129.6
518.8137,164.5
518.9262,28800.4
518.9943,504.8
519.0775,161.7
519.0898,17.4
519.15,241.6
519.3262,221132.7
519.3917,170
519.7074,19.3
519.9021,123.3
519.9294,1983.1
519.991,105.4
520.1711,204.2
520.3408,209226.7
520.683,890.1
520.8369,20.3
520.9231,19418.1
521.1668,413.6
521.3442,52553.4
521.3696,746.4
521.5639,131.3
521.5972,475.2
521.9777,484.6
522.0702,222.6
522.1882,454
522.2575,1297.4
522.3564,200160.2
522.5471,469.1
522.9206,1378
522.9381,5604.3
523.0217,385.6
523.2223,371.5
523.256,958
523.2878,407.9
523.3599,51292.4
523.448,503.9
523.477,476.7
523.5003,18.5
523.8221,148.1
523.9647,927.2
523.9848,147.5
524.0455,651.5
524.2223,213.8
524.2502,87.1
524.2724,631.2
524.3721,131531.2
524.4488,148.5
524.5919,582.6
524.6017,310.1
524.6871,352.5
524.7526,21.8
524.9361,447.7
525.0561,300.5
525.3064,19.4
525.3551,795.2
525.3755,33951.8
525.4743,19.7
525.5382,22.9
525.5621,117.6
525.8392,315.5
525.9197,93.9
526.0286,137.3
526.0814,376.3
526.1289,40.8
526.2331,716.4
526.33,5077
526.3755,530.4
526.5073,38.2
526.5302,93.9
526.6783,242.8
526.9476,937.6
527.4709,749.3
527.5177,277.4
527.6812,18.4
527.7799,22.9
527.9442,434.4
527.9585,154.4
528.0345,337.5
528.3457,800.6
528.364,106
528.6903,496.7
528.7637,770.7
528.8834,7290.6
528.9551,1994.2
529.0476,408.1
529.2053,1775.3
529.2497,444.3
529.2611,556.7
529.2781,18.1
529.3606,161.1
529.4995,238.2
529.8894,515.7
529.8997,114.1
530.3226,1718.8
530.3599,4309.3
530.4324,124.6
530.5055,476
530.5922,440.9
530.8802,3457.4
531.1348,134.7
531.221,29620.5
531.2499,10058.4
531.5328,340.6
531.6984,89.2
531.9032,25.9
532.1292,18.4
532.1437,110.8
532.225,4054.9
532.2527,1493.2
532.2818,5091.2
532.3388,12267.5
532.5979,676.7
532.7976,395.1
532.9683,856.5
533.1555,804.5
533.2216,152.4
533.2822,468.1
533.3417,3153.8
533.6024,309.5
533.6547,718
533.8837,566.7
534.2969,229626.1
534.3165,1932.5
534.3897,593.4
534.5576,147
534.9,15654.8
535.0058,208.1
535.3002,53976.2
535.4156,401.1
535.5929,317.6
535.6955,311.6
535.7244,143.4
536.054,618.5
536.1972,142.9
536.2958,12028.6
536.4267,21
536.5799,115.4
536.6569,314.1
536.6993,91.6
536.7281,880.1
536.8974,12350.1
537.0192,183.2
537.2095,1084.1
537.5904,120
537.6399,869.5
537.8704,128.6
537.901,830.9
537.9518,422.6
538.165,248.8
538.2452,200
538.3399,157.3
538.6487,181.1
538.8945,763.2
538.9122,1716.8
538.9327,2178.2
538.964,146.1
538.9838,745.4
539.9258,402.7
539.9757,589.6
540.4353,814.5
540.4743,20.5
540.5184,674.5
540.6659,458.1
540.7414,195.1
540.7771,19.1
541.0171,117.9
541.3873,1331.9
541.6917,283.1
542.3229,315358.9
542.4896,428.2
542.7913,355.6
542.9509,438.1
542.9858,49.5
543.3262,78920.2
543.3958,494.9
543.4608,524
543.478,297
543.5634,349.6
543.6332,23.6
543.7072,480.4
544.2337,657.4
544.2739,1233.3
544.3386,305515.9
544.4097,967.2
544.5892,141.4
544.6394,551.9
544.6605,534
544.6885,183.6
544.7252,892
544.7666,339.9
544.8292,135.1
544.856,458.5
544.8912,126.6
544.9496,949.1
545.0026,22.2
545.0151,186.1
545.342,81751.8
545.4178,144.7
545.4291,120.3
545.4978,209.8
545.5818,93.9
546.046,153.6
546.1256,115.7
546.2585,598.1
546.2902,598.6
546.3543,193924.5
547.033,90.4
547.1689,356.5
547.1948,2616.9
547.275,125.3
547.2941,161.6
547.3575,49872.4
547.5439,205.6
547.5773,20.7
547.7077,280
548.2937,326.2
548.3116,2141.1
548.3601,4219.2
548.3735,21.4
548.4838,619.3
548.5298,106.5
548.8617,316
548.9169,501.4
549.0277,843.5
549.0816,21.6
549.1337,540.6
549.3478,131.4
549.4076,104.5
549.4871,234.4
549.6169,405
549.8627,399.4
550.0042,100.8
550.2834,452
550.3308,388.3
550.5362,333.3
550.5635,146.8
550.8743,2908.4
550.9331,204.7
551.2733,17.8
551.4562,367.1
551.528,152.8
551.8842,864.3
552.2674,18.8
552.3161,87.2
552.5496,123.9
552.686,18.3
552.8723,2603
552.9614,274
552.9907,805.5
553.1245,308.3
553.1679,412.6
553.2029,2117
553.4055,178.4
553.5208,323.2
553.8064,114.8
554.2151,603.6
554.3268,130.8
554.6419,139.7
554.674,197
555.0475,310.5
555.1465,196.1
555.5881,158.1
555.6471,250.8
555.9765,765.5
556.1319,467.8
556.8482,110.3
556.8612,518.7
556.9082,538.3
557.2736,97.5
557.4319,126.1
557.6012,39.5
557.8302,149.1
558.096,136.8
558.2968,83928.9
558.6543,215
559.3003,20219.1
559.6585,139.9
559.8725,190.2
560.008,339.7
560.1057,393.5
560.2967,2138.2
560.3126,72537.8
560.4021,112.2
560.4717,982.2
560.7507,142.2
560.9188,732.8
561.3161,17939.7
561.4146,3940.8
561.6948,147.8
562.1904,237.5
562.3134,3496
562.3282,43675.4
562.5286,110.2
562.8338,129.6
562.9103,207.6
563.2333,619.9
563.3316,11090
563.3985,330.7
563.4298,1773.3
563.4793,344.3
563.6147,378.2
563.8029,520.9
563.923,165.1
564.0562,374.5
564.3086,1981.6
564.3279,831.6
564.7737,142.5
564.8215,36.6
564.8478,1702.8
564.9858,278.8
565.0197,202.5
565.0439,416
565.0744,1019.2
565.164,475.8
565.3011,504.1
565.6206,446.5
565.9297,273.6
566.2882,366.1
566.3231,62180.2
567.3046,422.8
567.3265,14975.3
567.9006,499.7
568.0796,150.6
568.3388,22717.4
568.3875,51.3
568.6762,529.2
568.963,516.9
569.0238,107.1
569.1731,709.3
569.2224,22.1
569.2625,278.5
569.3107,23.5
569.3425,3177.7
569.4738,24.9
569.5393,502.8
569.582,144.1
569.9752,110
570.0812,375.1
570.2617,445.6
570.2894,824.2
570.3569,520
570.3848,134.5
570.6752,173
570.7503,144.2
570.8677,5428.4
571.2961,408.9
571.4695,679.1
572.1485,624.4
572.1796,644.5
572.3703,2046.3
572.5566,91
572.7611,181.5
572.8653,7086.1
573.2218,503.4
573.2813,20
573.3442,95.7
573.429,111.5
573.4512,216
574.074,905.3
574.4863,19.3
574.8611,1005.6
574.9671,609
575.1132,38.1
575.1856,1797.4
575.2653,92.7
575.3085,92.6
575.5049,11999.6
576.2816,10084.5
576.3605,357.1
576.5067,1647.2
576.6225,400
576.682,107
576.885,9065.8
577.0109,734.2
577.0702,138.1
577.2856,918.2
577.5191,402.9
577.5385,342
577.8887,343.1
577.9244,596.4
578.2791,3653.3
578.7027,517.4
578.7183,96.8
578.8055,435.4
578.882,10073.8
579.1381,917.9
579.9077,213.5
580.2798,1028.3
580.3741,140.1
580.418,574.1
580.7984,147.1
580.8788,1883.6
580.8979,2298.6
581.206,42
581.6112,203.1
581.6452,948
582.0908,406.6
582.1007,353.1
582.1809,582.8
582.1924,538.3
582.2975,12835.6
582.3816,155.6
582.4171,136.5
582.4366,2337.9
582.4684,1785.5
582.5008,303.7
582.5301,159.8
582.551,104.1
582.5588,316.7
582.5619,279.8
582.5781,357.9
582.8934,789.5
583.257,1669
583.3014,2737.5
583.485,429.3
583.742,153.3
583.7797,144.6
583.7993,141.6
583.821,922.6
583.8316,559.3
584.0337,354.6
584.3133,971.1
584.7467,701.4
585.2723,4997.3
585.3429,423.2
585.3898,345.3
585.4546,18.2
586.1914,659.9
586.2314,509
586.283,753.1
586.3103,7309
586.3374,364.3
586.4101,209.9
586.5187,271.3
586.6869,37.7
586.7629,328.6
586.8416,2548.2
586.9131,829.5
587.3088,985.1
587.3809,95
587.5462,100.4
587.6916,633.6
587.8128,119.3
587.9443,20.1
588.0703,135.3
588.3197,104.3
588.3714,603.4
588.7049,47.7
588.8383,2698.9
588.9108,445.4
589.2009,120.1
589.271,323.8
589.3524,115.5
589.4243,430.6
589.4626,125
589.6953,18.2
589.703,18.7
590.0494,238.3
590.3231,11793.7
590.6974,107.3
590.8663,588
590.883,600.5
591.3263,2750.3
591.3938,400.2
591.5653,323.2
592.1001,92.3
592.2557,1303
592.3393,863.3
592.4354,362.6
592.6616,148.4
592.7076,357
592.7407,440.1
592.8589,5897.1
592.9065,716.1
592.9403,379.6
593.0181,657.4
593.0538,20.5
593.1124,391.9
593.1446,365.3
593.276,286.6
593.3528,671.7
593.4694,91.7
594.0688,386.4
594.3435,666.3
594.4533,507.9
594.5984,758.4
594.6495,135
594.8556,6869.7
596.0524,514.6
596.0566,433.9
596.2497,235.7
596.2968,197.2
596.7189,422.4
596.8529,2400.3
596.8715,470.3
596.8998,548.9
597.0571,351.6
597.2098,150.1
597.3288,174.9
597.4519,7200
597.4864,14718.3
597.5433,396.8
597.9846,163.9
598.4644,2303.1
598.4899,3092.4
598.6019,419.2
598.8442,170.2
598.8669,333.7
599.0667,325.1
599.4494,168
599.4724,2239.1
599.485,636.3
599.5036,4649.7
599.5179,207
599.6627,387.4
599.797,112.5
599.9058,121.4
600.2815,3911
600.3379,185.6
600.5052,238.4
600.7209,967.6
600.9739,155.7
601.1316,506.7
601.2278,163.3
601.4809,329.7
601.5191,486.8
601.5549,173.8
601.9281,459.4
601.9588,919.5
602.1595,722.7
602.2216,143.1
602.2967,1678.6
602.4558,93.9
602.7261,206.9
602.7902,102.8
602.8882,651.9
603.1495,472.7
603.5354,176.5
603.5568,602.7
604.0699,176.9
604.3128,607.8
604.8134,404.1
604.8962,540.2
605.1041,139.2
605.6546,181.9
605.6874,18.2
605.9387,20.7
606.1217,85.5
606.2986,1398.7
606.567,165.3
606.6684,757.8
606.6858,398.4
606.9394,21
607.0368,207.2
607.1714,4240.3
607.3745,425.1
607.5713,470.5
607.9006,92.7
608.1,304.2
608.1754,247.5
608.2261,683.9
608.8068,422.2
608.8334,1562.5
608.8669,340.5
608.9905,406.3
609.5143,221.2
609.8018,198.7
610.0175,446.7
610.0522,112.8
610.2507,390.8
610.3106,555.1
610.4247,1264
610.5082,24.8
610.8148,704.7
610.8307,584.5
610.9495,282.2
611.0183,367.6
611.0615,564.7
611.479,174.5
611.7952,377.6
612.303,132.5
612.3261,1006.3
612.4647,362.7
612.4797,111
612.6873,491.7
612.7242,81.1
613.6755,356.3
613.9204,363.4
613.9722,582
614.0837,22.4
614.2222,143.2
614.4869,48.3
615.4809,726.4
615.7476,913.1
615.8485,17.7
616.0388,98.9
616.1103,473.9
616.1389,104.3
616.4703,450.9
616.7044,369.3
616.8393,414.2
616.9127,113.3
617.1399,951.1
617.3316,89.5
617.447,201.8
617.4766,9969.1
617.6622,870.1
617.7428,23.2
618.0252,433.4
618.0714,94.9
618.1755,689.3
618.4801,1278.8
618.7681,18.5
618.8139,305.6
618.8467,257.5
619.1784,576.1
619.2014,632.9
619.492,12639
619.528,165
620.2491,585
621.1088,468.7
621.2874,24
621.4592,2240.3
621.4864,7757.6
622.2559,631.9
622.4899,2075.9
622.7044,485
622.7313,114.6
622.8654,254.6
623.0205,695.6
623.1372,21085.6
623.4623,352.7
623.5039,1222.9
623.5824,116.1
623.7961,950.4
624.1402,2856.7
624.3119,636.6
624.3742,113.9
624.488,911.6
624.5007,633.1
624.5511,700.3
625.1322,112.9
625.3475,188.4
625.7042,201.1
625.771,168.1
626.015,197.4
626.303,706.7
626.625,355.7
626.862,106
627.0724,84.7
627.5003,423.6
627.5355,484.5
627.5822,201.3
627.9338,144.4
627.9597,18.4
628.29,677.7
628.4688,88.1
628.5381,21.7
628.8998,120.2
628.9934,138.6
629.023,427.7
629.154,43562.4
629.3351,280.6
629.7557,409.2
629.8863,136.5
629.8951,142.4
629.9884,252
630.044,524.9
630.1577,8373.1
630.18,401.7
630.4461,441.7
630.526,108.7
630.6519,217.9
630.7296,189.4
630.8102,102.6
630.8246,868.3
630.9719,818.7
631.1368,320.6
631.1593,306.1
631.508,434.4
631.786,19.3
631.827,471
631.9006,349.5
632.1917,551.7
632.433,402.6
632.4396,584.9
633.0268,415.5
633.0629,97.2
633.2503,524.5
633.2846,506.9
633.7358,400.2
633.8588,231.6
634.7912,402.3
634.8441,3274.8
634.8851,613.9
635.06,103.8
635.0699,573.6
635.2424,22.7
635.5749,883
635.774,92.5
635.8439,447.8
635.9069,107.9
636.1481,679.8
636.2641,372.8
636.6125,140.1
636.7244,197.6
636.8406,3850.1
637.2626,272.7
637.2723,325.6
637.7517,721.3
638.1025,372.1
638.1851,95.5
638.3411,153.8
638.452,889.7
638.6073,23.2
638.8374,1000.9
639.0268,186.4
639.2309,115.8
639.5054,295.7
639.5758,143.6
639.8379,21.2
640.3198,115
640.4823,168.4
640.6919,111.9
640.8512,439.2
640.9082,127.9
641.1119,144.6
641.1579,117.9
642.2467,334.3
642.4978,347.8
642.7319,125.2
642.7549,95.3
642.9495,367.5
643.9199,155.7
643.9631,343.3
644.013,425.7
644.7471,248
644.8155,201.5
645.0018,444.2
645.1189,15312.7
645.32,918.3
645.3672,443
645.4285,579.7
645.4506,1840.3
645.4875,879.8
645.7474,20.3
645.8177,126.4
646.1227,2065.8
646.2949,181.8
646.4324,194.7
646.5807,463.3
646.7612,216.9
646.9311,1078.7
646.9857,430.7
647.0961,488.3
647.1234,329.5
647.2567,20.8
647.3983,20.9
647.4629,454.9
647.7542,20.2
647.9501,172.2
648.1522,413.8
648.2924,459.6
648.5202,694.7
648.8681,213
649.1135,835.4
649.4773,613.6
649.6222,343.7
649.8353,352.4
649.9921,44.2
650.1322,106.7
650.2372,181.1
650.4393,431.3
650.4827,455.5
650.513,364.7
650.6484,132.1
650.718,423.7
650.8184,2621.7
650.8408,97.9
650.8594,570.2
651.1359,46837.8
651.3166,348.2
651.3467,468.8
651.6209,405.6
651.6667,447.9
651.7127,752.7
651.844,369.4
651.9429,665.1
652.102,388.1
652.1391,8563.9
652.2615,19.8
652.8143,2429.3
652.8632,146.1
652.9433,19.8
653.0844,907.1
653.1121,654.8
653.2044,151.7
653.4315,513.6
653.5039,547.5
653.8043,469.2
653.9201,40.4
654.1461,98.5
654.1795,502.8
654.3903,18.1
654.5047,1008.9
654.5234,199.1
654.5299,255.2
654.5423,403.4
654.5699,23.2
654.8125,1233.9
655.2359,152.2
655.624,45.2
655.7266,819.1
656.3038,1056.4
656.453,153.7
657.047,565.4
657.2171,372.7
657.4656,581.2
657.7286,183.2
657.8011,98.8
658.102,169
658.1629,807.9
658.4235,448.4
658.5772,702.2
658.884,553
658.9337,1221.1
658.9757,20.1
659.244,327.3
659.4381,468.2
659.4969,99.7
659.7136,121.4
660.0834,3632.6
660.2529,448
660.4008,199
660.5015,345.1
660.6082,386.5
660.9466,950.8
660.9831,139.2
661.0838,7640.4
661.4686,46.7
661.7189,404.2
661.9703,387.6
662.0506,20.9
662.0867,236.1
662.2686,416.6
662.6279,829
663.3322,652.4
663.4552,153
663.8142,620
664.47,3179.1
664.6824,609.2
665.116,149.8
665.4657,252.8
665.778,744.7
666.0196,803.4
666.1281,184.8
666.4846,7568.2
666.5802,906
666.6121,369.4
666.7921,412.9
666.9632,19.1
666.9698,27.5
666.9763,23.9
667.1006,22339.2
667.5812,94.8
667.7181,365
667.8352,167.7
667.8683,141.8
668.105,2646.4
668.3457,528.2
668.419,393.5
668.548,109.5
668.6384,348.3
668.7905,455.7
668.9542,549.2
669.1058,266
669.1675,297.6
669.3526,698.6
669.5041,271.5
669.6736,288
669.8473,364.7
670.0516,143.9
670.2117,105.8
670.2634,138.4
670.4416,396
670.7209,201.9
670.7868,897.6
670.8511,538.2
671.0367,106.7
671.1466,570.3
671.3192,169.4
671.4373,1063.4
671.7696,143.5
671.8624,145.1
671.991,199.2
672.0557,166
672.1224,762.7
672.3454,141.2
672.8991,455
673.0545,120
673.1179,54381.8
673.3364,283.1
673.3683,360.8
673.5817,177.6
673.8526,343.5
674.0252,352.8
674.1216,11145.1
674.5948,540.4
674.7364,841.4
674.7955,23.7
674.9344,159.3
675.0923,149.4
675.1228,372.5
675.5454,17017.2
676.0485,5186.4
676.0903,102.4
676.133,197.7
676.3564,254.4
676.4825,547.8
676.548,3042.6
677.0522,125.6
677.0664,186.5
677.484,204.5
678.0677,268.2
678.3467,487.2
678.4006,679.6
678.5495,153.3
678.8717,370.8
678.9935,21.2
679.2251,368.9
679.3292,356.6
679.5127,392.1
679.7334,87.5
680.2727,113.7
680.4761,419.3
680.7327,376.1
680.9765,123.6
680.9929,738.6
681.5792,102.7
681.7361,111.1
681.8752,629.3
682.0657,11104.6
682.1087,25.7
682.2301,111.1
682.4071,25
682.4363,93.9
682.8863,376.1
683.0658,2961.4
684.0498,210.9
684.0675,135.6
684.3631,302.3
684.4237,20.4
684.502,181.9
684.7433,18.9
684.9786,193.1
685.2688,112.8
685.3345,462.2
685.3912,138
685.4374,4458.9
685.799,23.9
686.0079,569.7
686.0556,488.3
686.156,1288
686.44,1041.9
686.5417,880.4
686.5791,668.8
686.6574,367.1
686.7919,127.6
687.0816,113.3
687.4389,368
687.5953,137.2
687.6393,488.9
687.6864,120.4
687.8297,107.4
688.0549,596.3
688.1092,200.4
688.3278,163.2
688.5211,691.6
688.6033,41.7
688.6183,138.4
689.0821,17904.6
689.0917,15561.8
689.5603,4794.7
689.755,464.8
690.0008,470.9
690.0967,941.5
690.5851,366.9
690.6526,227.2
690.7155,144.6
690.8503,123.5
690.9306,678.8
690.9609,184.3
691.0655,113.9
691.4351,19.9
691.9804,179.2
692.7427,121.5
692.7582,586.6
692.8045,455.3
692.9656,141.2
692.9986,232
693.0272,125
693.1919,131.9
693.2719,123.8
693.3282,983.3
693.3494,683.1
693.3668,486.3
693.4402,123.8
693.4886,121
693.6984,111.5
693.7897,707.5
693.9961,469.5
694.2225,454.4
694.5152,907.4
694.6721,18.3
694.7986,1006
695.0999,38050.4
695.1575,96.4
695.3047,137.2
695.447,542.2
695.5122,1317
695.5834,496.5
695.8076,341
695.9369,112.2
695.9757,156.5
696.0779,245.7
696.103,6247.9
696.2794,160.3
696.4099,21.9
696.4295,511.5
696.5663,351.7
696.8214,19.3
697.0759,22.9
697.1059,194.6
697.4869,20.4
697.5271,23668.7
697.6791,487.7
697.8159,293.2
698.0302,1959.9
698.5305,6735.1
698.769,108.8
699.0355,181.6
699.4249,19
699.7345,514.6
699.8543,653.4
700.0972,20
700.1279,833.6
701.0372,99.8
701.4425,18.8
701.5609,47784.8
701.7508,100.4
702.3439,5273.8
702.4853,285.9
702.5643,17881.1
702.8974,439.6
703.1605,49
703.3467,1084.3
703.4952,524.9
703.5205,394.1
703.5765,105373.4
704.0477,7728.5
704.3424,725.4
704.3581,449.6
704.3943,124.9
704.4526,479.5
704.5266,253.7
704.5801,41481.6
704.6829,862.5
704.7198,125.6
704.9599,297.7
705.0586,1747.2
705.1058,854.3
705.2313,1026.7
705.3919,657.5
705.5445,403.2
705.5831,6351
705.7389,137.1
706.055,136.1
706.1019,165.4
706.1685,125.3
706.2728,19.5
706.3436,18.6
706.4223,538.6
706.5383,1505.8
706.5564,322.8
706.6839,52.7
706.7338,347.3
706.9894,131.7
707.3822,70.2
707.9132,249.5
707.9414,381.4
707.9828,547.5
708.1291,570.2
708.2376,120.3
708.7036,145.4
708.8038,109.7
708.9075,17.7
709.588,87.5
710.1377,24.4
710.1836,101.9
710.3456,97.5
710.5194,115.4
710.7739,1408.3
710.8009,492
710.9,155.5
711.0637,10859.6
711.0749,11509.1
711.1898,180.6
711.5427,5584.5
711.6878,113.8
711.7483,90.1
711.9961,146.1
712.0765,536.5
712.323,146.6
712.4162,332
712.5226,605.8
712.5458,1798
712.6044,112.6
713.0509,104.4
713.0712,209.7
713.2355,464.5
713.3114,386.8
713.4443,21.7
713.4999,957.8
713.9468,113.7
714.1794,922.8
714.4897,108.8
714.797,428.4
715.3485,195.9
715.5694,910.6
716.1517,179.6
716.1815,532.8
716.3639,18.9
716.4274,152.9
716.607,717.9
716.6281,187.1
716.8709,365.4
717.0818,18382.4
717.3131,776.5
717.4188,838.7
718.0153,118
718.0865,379.2
718.1931,1148.8
718.5767,621.1
718.683,170.9
718.976,501
719.1959,913.7
719.2616,366.7
719.5343,117
719.5761,322.5
719.6592,1163.6
719.6956,101.4
719.7458,375.6
719.7789,424.7
720.0231,2031.6
720.0989,20
720.3362,137.3
720.3668,119.4
721.0339,434.4
721.1011,608.6
721.1755,714.1
721.3783,85.2
721.4797,76025.9
721.7571,20.6
721.9477,675.2
722.1912,299.2
722.4831,27738.7
722.5527,1236.9
722.7446,878
722.7627,419.8
722.8642,328.9
723.0674,19.3
723.1277,294
723.2092,159.2
723.2678,169.3
723.4245,343.4
723.4956,12106.6
723.5431,50027.1
723.8293,182.2
723.9145,95
724.1058,132.6
724.4991,2895.2
724.5464,20494.4
724.6138,628.2
724.7517,397.6
724.8854,92.2
725.387,790.2
725.4558,815.6
725.4936,730.5
725.5163,148.2
725.5587,102635.8
726.0299,3498.8
726.5618,37525
726.7489,811.8
727.0308,1280.2
727.1051,562.1
727.1339,467.1
727.4583,312.1
727.5047,256.4
727.5644,6000.1
727.5875,593.4
727.8124,18.6
728.0723,484.2
728.1082,94.8
728.4448,490.4
728.5256,300.8
728.746,21
728.7861,784.2
728.8661,131.9
728.962,112.7
729.0355,144.2
729.1603,37.9
729.4891,474
729.5926,10731.8
729.8461,102.4
730.3357,38.6
730.5399,4451.4
730.5735,712.9
730.5949,3478.9
731.0973,114.8
731.2547,730
731.5417,1808
731.608,5471.4
732.123,618.9
732.1782,807.6
732.4362,221.1
732.5556,37318.4
733.0473,4537.5
733.0568,6535.1
733.5352,145.2
733.5595,15818.9
733.6021,377.8
733.9121,438.7
734.0625,547.5
734.3172,206.3
734.484,87.5
734.5714,11658.3
734.8136,195.5
734.9504,101.5
735.0362,92.2
735.2843,758.4
735.574,1263.5
735.9875,257
736.1448,861.5
736.163,452
736.2169,97.6
736.282,138.5
736.3298,119
736.5701,99.2
736.9956,189.2
737.2883,297.1
737.4531,14963.3
737.5096,184.6
737.6254,40.9
737.7329,529
737.7469,205.3
737.7669,221.5
737.8855,674.2
737.9525,756.7
738.0899,44.9
738.1681,500.1
738.1953,263.7
738.4559,3822.5
738.6973,43.6
738.8752,656.4
738.9045,572.8
738.9155,620.5
738.9532,101.5
738.9767,87.5
739.0638,9688.3
739.1482,454.9
739.4639,181.8
739.4882,140.8
739.5166,4339.5
739.6023,376.6
739.7685,983.8
740.0688,670
740.2075,540.2
740.357,526.6
740.492,526.6
740.5548,893.6
740.6942,120.4
740.7554,754.7
740.9423,80.1
741.0063,144.5
741.5325,13550.7
741.7575,91.1
741.9416,19.9
742.0041,873.2
742.3569,120.6
742.4611,117
742.5362,3099.2
742.5757,11305.8
742.7219,804.6
742.9679,741.2
743.1976,848.5
743.2927,562.9
743.3478,335.5
743.4712,1091.1
743.5336,656.9
743.5795,1254.7
743.7,170.3
743.8185,129.4
744.2375,157.1
744.5558,7930.4
744.5923,16174.8
744.8796,20.2
744.9732,240.7
744.999,401
745.4027,83.6
745.4797,33881.9
745.5958,4229.3
745.6861,164.8
745.989,156.7
746.2024,657.6
746.2798,431.2
746.4833,12965.7
746.5712,6029.5
746.6089,4471.4
746.6341,414.4
746.8571,851.7
747.0429,39
747.0828,24.4
747.4962,10465.6
747.5758,876.4
747.6122,1878.3
747.6516,52.7
747.7554,968.8
747.9297,423.4
748.0111,1011.2
748.0287,272.5
748.4991,2654.3
749.0105,1562.5
749.2254,707.3
749.5116,2302.3
750.7822,517.3
751.015,169.4
751.0528,705.2
751.1529,103
751.2535,102.5
751.5749,8201.8
751.7191,205.7
751.8639,532.4
752.0758,313.1
752.2459,1109.5
752.5214,6313.4
752.5758,1048.7
752.8079,187.8
752.8667,200.8
753.5254,1027.5
753.5907,1669.8
753.9452,348
754.5381,29838.8
754.6014,199.5
754.735,185.6
754.7553,447.4
754.7862,836.4
755.0389,4182.6
755.2079,120.4
755.3118,1259.4
755.4295,21
755.5419,11744.1
755.86,476.3
756.3499,126.3
756.4434,185.6
756.5556,43652.6
756.6368,151.2
757.1803,176.3
757.3214,19.4
757.5154,773.9
757.5586,18814.6
757.6246,880.8
757.7172,68
757.8731,379
758.042,177.4
758.0744,439.7
758.1812,175
758.2637,95.3
758.4803,377.8
758.5713,1455078.6
758.6289,66.2
758.6552,96
758.7194,177.3
758.7628,25.9
759.0371,848.5
759.5747,633954.1
759.6398,704
759.9686,150.2
760.0509,190.4
760.5881,449534.7
761.0458,4007.7
761.1227,537.1
761.2624,807.3
761.3978,47.1
761.4541,4986.7
761.5908,217833.1
761.9725,923.8
762.052,140.5
762.2735,39.1
762.5277,394.6
762.5443,681.7
762.5935,51280.3
762.6333,242.8
763.2458,181.2
763.5966,3764.7
763.9878,208.9
764.3051,116.1
764.5582,2725.6
764.715,98
764.9801,1082.6
765.0557,23.1
765.0935,169.2
765.19,178.4
765.2894,152.9
765.3071,307
765.571,144.9
765.6878,54.1
765.753,721.1
765.8905,244.1
766.0598,455.4
766.1739,579.3
766.2391,19
766.263,253.1
766.351,181
766.3975,411.2
766.5379,6552.1
766.5761,36404.5
766.606,677.9
766.6467,139.8
766.9085,311.2
766.9387,880.8
767.1911,23.5
767.3881,579.8
767.5014,347.6
767.5799,16060.9
768.108,391.2
768.5545,2926.3
768.5921,54512
768.6349,396.3
769.1846,311.3
769.4802,6826.5
769.5955,23882.5
770.1181,359.2
770.3036,102.7
770.3096,100.2
770.3229,133.8
770.4834,2296.1
770.5123,3005.8
770.5729,2046
770.6088,9168.6
770.6368,441.5
770.9932,5735.7
771.0463,103.7
771.6118,3249.6
771.7039,146.9
771.9575,423.3
772.3854,107.7
772.5867,17821.3
772.6249,1540.1
772.7631,302.2
772.9532,20.7
772.9707,181.1
773.005,145.6
773.035,683.4
773.171,825
773.3597,1049.9
773.4196,159.1
773.4814,23.2
773.5906,5499.6
773.6539,233.2
773.9697,354.4
773.9953,849.6
774.3457,811.2
774.3796,216.8
774.4185,696.2
774.512,225.5
774.6038,1635.4
774.6653,408
775.0711,357.6
775.1555,268.4
775.5518,178.3
775.6297,518.8
775.9232,869.9
776.0522,294.9
776.1329,395.6
776.2095,254.1
776.5382,670.9
776.7744,37.8
777.0102,3506.6
777.1128,280.4
777.2314,155.7
777.2679,980.3
777.5448,1499.2
777.608,402.4
777.6906,405.5
778.0492,722.8
778.5154,142.1
778.5377,28097.9
778.9345,139.1
779.101,118.1
779.1766,138.5
779.2244,102
779.4063,86.1
779.4439,171.9
779.5419,13365
780.0409,103.8
780.5534,886427.7
781.5569,394198.4
781.7141,600.8
781.9443,174.1
781.9783,551.1
782.1009,185.6
782.142,149.5
782.1873,138.7
782.4505,20
782.571,841078.9
782.605,159.3
782.6311,657.3
782.8568,900.1
782.9173,253.4
783.0271,4378.8
783.5743,410458.5
783.7991,194.4
783.8856,141.3
784.5878,359777
785.0843,532.2
785.492,114.8
785.5381,185.4
785.5907,178245.4
785.6542,8205.9
786.6033,265670.1
786.6571,1490.7
786.7212,174.7
787.3242,495.4
787.3847,782.4
787.6063,127603.3
787.6719,1258.2
787.8224,283.5
788.2991,100.7
788.4066,100.8
788.5584,14106
788.6065,19747.6
788.6221,8568.4
788.6747,133.3
789.2048,22.4
789.4023,865.5
789.5457,1669.8
789.5626,1587.7
789.623,4942.8
789.7399,98.7
789.8676,108
790.2006,1294.6
790.549,946.4
790.5748,27958.3
790.6254,262.7
790.9043,153.3
791.0178,189.2
791.4327,666
791.5766,5676.7
791.852,129.7
792.0093,106.4
792.326,574.4
792.5923,18490.3
792.6243,87.7
792.6542,142.1
792.6699,643.2
792.982,1082.6
793.2467,360.8
793.3078,203.3
793.3851,117.1
793.4933,192
793.5939,6019.1
793.9459,530.6
794.5119,2218.4
794.569,5683.3
794.6077,59894.1
794.8804,120.8
795.3763,483
795.611,28287.6
795.8997,24
796.5273,153832.8
796.587,5446.3
796.6251,8682.7
796.7013,51.9
796.9876,443.4
797.3566,379
797.5306,69090.3
797.5894,1022.6
797.6282,4808.6
797.6838,259.3
798.403,55.3
798.5444,36581.6
798.6041,48.6
799.0013,786.4
799.2534,306.8
799.5473,16191.8
799.6719,1261.8
800.26,355.6
800.2819,113.3
800.5468,521.6
800.8589,745.8
801.0504,591.5
801.5223,564.1
801.9329,281.9
802.5378,25556.4
802.6562,133.1
803.0823,311.2
803.283,772.4
803.4427,633
803.5407,9195.4
803.6558,324.8
803.8025,18.4
804.4361,584.2
804.5535,394366.1
804.628,333
805.1888,1326.8
805.5568,191159.5
805.5891,184.1
805.6098,347.2
806.4094,813.9
806.5304,197.9
806.5709,393184.7
806.807,561.4
806.8744,290.9
807.3015,23.8
807.3909,45.4
807.5739,205519.8
807.6393,465.3
807.7282,471.9
808.3533,570.4
808.5869,215531.3
808.6394,139.8
809.3075,18.1
809.3777,84.9
809.5897,112715.7
809.6556,555.8
810.1235,212.2
810.4436,372.1
810.6035,130592.5
810.6568,47.7
810.7738,101.7
811.3316,595
811.6064,66255.7
811.6706,16535.7
811.997,384.6
812.1694,498
812.3457,109.9
812.5612,154.5
812.6042,3273.1
812.6213,14839.9
812.6749,4837.2
813.3142,175.1
813.6236,6664.7
813.687,10112.9
813.9852,640.6
814.0245,616.4
814.0981,199.3
814.5734,3405.6
814.5972,496.2
814.6902,4528.9
815.1238,236.8
815.3016,96.1
815.4254,782.3
816.0572,99.6
816.2423,409.1
816.313,105.6
816.4305,54
816.5902,24716.5
816.6445,368.7
816.6988,144.7
817.4691,765.2
817.5935,6268.2
818.0624,583.9
818.1885,730.1
818.5137,2230.1
818.5685,946
818.6084,1900.6
818.9005,622.5
818.9439,42
819.6075,1116.9
820.1941,138.2
820.5274,68125.3
820.5864,539
820.6244,974.7
821.1933,113.3
821.531,31286.7
821.6253,165
821.6529,217.2
822.1063,95.2
822.1802,546.6
822.2611,62.6
822.3541,166.1
822.544,30190.4
822.5892,222.1
822.6397,660.4
822.6981,950.8
823.0684,38.1
823.2944,342.9
823.5475,11166.8
823.9544,683.4
824.4592,874.6
824.5059,89.3
824.5595,16311.5
824.8153,168.2
825.4644,512
825.5632,4009.1
825.7325,822.3
826.0882,673.7
826.1817,487.1
826.598,376.4
826.6318,111.5
826.9585,133.6
827.0512,20.5
827.1618,494.3
827.4991,154.1
827.5431,107
827.5686,356
827.7316,208
827.8864,287.6
828.5535,128240.8
829.1457,109.7
829.5232,464.6
829.5571,63076.1
829.8224,684.5
830.1617,19.2
830.203,47.4
830.3253,172.4
830.5706,58223.8
830.8283,64
831.2011,445.2
831.4502,389.1
831.5728,27244.4
831.6337,461.9
831.9173,906.2
832.3813,47.8
832.5859,67861.4
833.0537,90.2
833.5889,30573.4
833.6544,332.6
833.706,754.6
834.5108,283.2
834.6034,21210.4
834.657,287.9
834.7707,515.2
834.9241,110.2
834.9702,410
835.0586,308.2
835.0985,633.5
835.6062,9168.8
835.6683,1140.2
835.7258,1077.7
835.7454,112.5
835.7863,243.5
836.0544,961.3
836.3795,327.1
836.6208,1502.7
836.8343,741.4
837.2765,1274.3
837.3993,184.2
837.6244,144.8
838.1417,263.4
838.3318,125.6
838.5088,278.5
838.5689,154.9
838.6148,481.9
838.6582,217.7
838.7975,859.2
838.8952,107.7
839.2376,859.8
839.5859,139.2
840.1408,780.9
840.2364,152
840.6821,413.5
840.7095,799.7
840.74,120.9
840.7641,164.4
840.892,178.7
841.0944,1084
841.4856,20
841.6048,526.3
842.9111,505.5
843.0419,200.5
843.1263,162.6
844.05,300.2
844.1995,191.8
844.5277,20895.8
845.2636,135.1
845.4588,595.5
845.5304,8544.9
845.5969,286.2
845.6774,383.9
845.7157,397.6
846.0014,102.2
846.059,330.2
846.1794,103
846.282,359.1
846.5452,9798.9
846.6271,247.6
846.8714,762
847.0639,329.6
847.5435,926.4
848.2101,863.6
848.3285,231.2
848.5574,4979.2
848.7915,137.6
849.1638,164.8
849.5623,485.9
849.6624,105.3
850.6459,19.2
850.96,138
851.1595,246.6
851.8941,155.8
852.0417,20.9
852.074,761.7
852.274,106.4
852.553,1462.1
852.8461,20.1
853.0381,553.5
853.6879,286.3
853.7311,379
854.5681,2335.3
854.8623,136.6
854.8939,19.1
854.9945,145.9
855.6315,22.1
855.7685,683.7
855.8268,187.9
856.5855,3190.9
856.6191,155.2
856.8861,40.5
856.9617,107.8
857.034,153.4
857.587,923.7
857.6284,172
857.719,129.3
857.9342,542
857.9845,880.4
858.4916,137
859.3795,195.3
859.5748,944.9
859.6027,109.8
859.986,49.1
860.1771,19.5
860.4454,19.6
860.4781,155.7
860.617,136.3
860.9867,106.9
861.0859,461
861.3186,155.8
861.4273,367.1
862.6364,214.4
862.7611,567.7
862.7961,131.4
862.9594,530
863.4513,340.5
863.6095,577
863.626,622.9
863.9002,428.2
863.9824,633.1
864.2434,343.4
864.2934,395.1
864.3334,342.6
864.632,101.9
864.8417,568
865.0125,409.9
865.0967,810.5
865.7299,82.6
865.7906,459.1
865.817,276.3
866.2448,483.4
866.9388,222.9
867.3436,102.7
868.208,353.4
868.8604,137.6
868.9174,133.8
868.9768,18.6
869.323,2017.8
869.4174,1239.3
869.5069,18
869.6644,671.4
869.7035,642.2
869.8361,1105.2
869.8727,933.7
869.9069,1632.8
869.97,1696.5
870.0325,3393.4
870.0733,3829
870.1101,3927.2
870.1791,3633.1
870.2067,1458.3
870.248,1499.2
870.2841,309.8
870.3322,132.4
870.4585,19.9
870.4875,1889.5
870.5411,785.1
870.7715,1219.1
871.0037,91
871.0614,420.5
871.1137,145
871.2871,19.5
871.4918,1251.3
872.0089,118.4
872.1958,338.6
872.518,688.1
872.6356,983.4
872.7657,187.5
872.9473,112.4
873.1358,158.8
873.3436,1044.4
873.5852,97.2
873.655,349.5
873.8637,307.9
874.2739,232.4
875.5693,540.5
876.4816,638.2
876.5033,959.2
876.6091,18.5
876.8254,535.5
876.9829,295.3
877.0126,824.2
877.2802,1545.5
877.4785,1213.3
877.6774,258.2
877.7603,150.6
877.7846,50.2
877.8589,1224.9
878.0772,400.1
879.0853,164.1
879.2615,609.9
879.5696,1124.1
880.2938,736.8
881.4106,840.3
881.796,92.7
882.0253,206.3
882.3237,174.6
882.4367,310.1
882.6761,70.3
883.221,394.6
883.6807,239.7
883.8964,1296.7
884.2053,68
884.4008,101.6
884.5549,758.1
885.1169,105.1
885.4097,127.5
885.5799,503.4
886.1459,113.5
886.2259,118.3
886.3186,147.1
886.5167,980.9
886.5435,1436.2
887.099,93.3
887.2652,528
887.5133,88
887.5477,460.2
887.5944,47.3
887.9115,588.2
888.2132,90.2
888.262,292.7
888.3801,237.8
888.4114,21.9
888.9276,178.8
889.1651,205.8
889.3679,467.2
889.4481,117
889.6951,848
889.9151,441.3
890.3861,198
890.628,170.1
890.7659,457.2
891.2177,142.5
891.2493,85.8
891.3748,1482.2
891.8629,325.6
892.6305,511.5
892.738,351.3
893.155,366.6
893.583,752.4
893.8126,340.4
894.2116,273.5
894.3253,1239.6
894.5188,110.8
894.7789,736.6
895.855,19.6
896.3746,854.6
896.9881,359.2
897.1431,200.8
897.2809,120.5
897.6187,904.7
897.7763,180.5
897.854,644.4
898.6677,543.3
899.0159,665.7
900.3623,212.5
900.4025,150.8
900.8271,89.6
900.8625,1553.2
900.8928,464.6
901.3985,181.1
901.6014,417.8
901.7368,792.2
901.9277,119.4
902.7948,79.9
903.0615,19.3
903.3012,24
903.4603,469
903.7638,49
903.8044,425.7
903.9963,301.4
904.2806,1015
904.3304,630.7
904.678,110.6
904.8059,131.2
905.1293,360.1
905.2089,1858.7
905.7369,467.3
905.7935,186.9
906.3774,416.4
906.5302,778
906.6588,284.1
906.7707,473.2
906.7928,725.3
906.9939,104.3
907.4018,114.1
907.7678,786.9
908.1868,1528.6
908.6585,860.3
909.0539,429
909.3823,137.8
909.4174,545.4
909.698,19.4
909.7753,59.5
909.9637,113.2
910.1804,805
910.3367,202.4
911.766,19.9
912.58,20
912.8403,364.6
913.3982,687.9
914.0196,306
914.2367,939
914.2768,21.2
914.4463,234.2
914.6238,148.9
915.0785,502.6
915.5,779.6
915.8632,686.1
915.9678,58.1
916.2994,179.3
916.3933,458.4
916.8341,127.4
916.872,1116.1
916.9538,647.9
917.2144,20.7
917.9918,587.7
918.0499,619.4
918.5384,127.4
918.8189,881.9
918.8431,470.3
919.9313,110.6
920.6234,23.1
920.9751,629.4
921.0502,111.4
921.1853,145.4
921.2491,105
921.4859,530.1
921.7103,490.7
921.9165,147.4
922.8138,794.9
922.8827,97.2
923.4467,20.1
923.4729,956.6
923.6228,419.1
924.3023,257.1
924.3277,21.9
925.8212,192.4
926.0707,284.2
926.3075,103.3
927.0442,427.3
927.2531,184.1
927.3192,212.2
927.4687,158.4
927.5082,596.9
927.547,185.2
927.8543,208.4
927.908,271.3
927.9489,154.1
928.0543,324.3
928.1359,701.7
928.4261,199.2
928.4634,523.9
928.6226,887.3
928.7237,18.9
928.9061,431
929.6676,201.3
930.2551,17.2
931.0497,159.6
931.216,851.2
931.4074,119
931.5102,109
932.1803,163.3
932.6471,20.4
932.8079,527.3
932.8629,18.7
933.6779,250.6
934.0616,597.3
934.2647,42.8
934.7004,22
935.2031,932.3
935.3764,137.1
935.4244,1019.7
935.9993,428.8
936.4952,375.5
936.9643,217.8
937.6888,335
937.7205,902.7
937.8218,1236.5
938.3769,377
938.4688,106.3
938.5879,21
938.7882,21
939.1696,318.3
939.2754,125.2
939.5311,496.3
939.7465,514.2
940.4922,696
940.6159,860.3
940.651,126.3
940.6923,520.2
940.9223,265
941.2493,18.5
941.8425,382.8
942.326,101.5
942.3634,93.5
942.4005,89.1
942.6033,470.9
942.7398,179.6
943.0101,127.1
943.8254,1288.4
944.6449,126.7
944.6783,415.8
945.0309,139.5
945.4327,394.4
945.5111,661.5
946.2291,258.9
947.1482,351.7
947.3139,163.7
947.3421,251.5
947.3705,133.8
947.5939,450.9
948.0849,824.6
948.3687,315.9
948.4794,387.5
948.5051,692.8
949.0073,153.8
949.1506,1299
949.3808,249.1
949.4819,132.5
949.5751,188
949.6632,569.9
949.9993,135.8
950.0057,137.2
950.0192,128.1
950.1074,93.6
950.1546,1089.2
950.3036,160.1
950.5804,448.1
950.8585,113.7
950.9204,431.9
951.7034,996.4
951.9063,388.8
952.0032,1407.3
952.5204,135.9
952.5497,592.7
954.485,271.6
955.0563,170.7
955.1071,197.1
955.8165,247
956.0202,209.5
956.4829,111.4
956.6439,1781.2
956.8326,394.9
956.8955,390.5
957.0455,918.1
957.1562,1070.3
957.2219,593.3
957.329,127.2
958.3291,1024.2
958.3548,20.7
958.5493,456.7
958.6741,562.5
959.3429,168.7
959.6511,193.3
959.782,59.7
960.066,121.5
960.2908,240.6
960.6299,183.6
961.0204,803.4
961.607,19.2
963.4969,152.1
963.6207,746.7
963.6794,577.5
963.7361,112.5
964.7516,812.3
964.7611,828.2
964.7869,1196.2
964.8639,215.4
965.0579,944
965.095,682.8
965.1511,797.4
965.2306,202.7
965.3753,179.9
965.6061,683.1
965.7126,98
965.8378,555.3
965.929,895.9
966.02,325.4
966.0475,341.3
966.0989,1391.7
966.2588,200.4
966.3945,630.4
967.1019,47.6
967.2683,1332
967.7332,91.9
967.8755,98.8
967.9432,735.5
968.0053,100.8
968.1999,615.2
968.6227,952.1
968.7737,338.9
968.8164,673.4
969.3425,679.4
970.5501,366.6
971.4737,116
971.7123,379.7
973.2885,803.6
973.4749,399.1
973.7054,490.7
974.1586,281
974.6315,774.4
974.6774,42.6
974.7261,1053.9
974.9201,186.1
974.9814,651.8
975.3327,154.5
975.3934,138
975.5099,2649.6
975.9201,132.5
976.9786,959.6
977.9947,238.4
978.4013,793.7
978.5911,135
979.2609,405
979.416,212.5
979.8659,2105.2
980.0828,96.7
980.1641,233.6
980.31,313.2
980.3905,494.9
980.4922,44.9
980.5295,91.9
981.3669,777.4
981.438,1051.7
981.7607,172.4
981.8538,519.7
981.8844,22.8
981.9192,992.6
982.0503,195.7
982.2234,626.9
982.2664,121
982.3478,842.3
982.388,569.8
982.5794,487.1
982.6323,21.8
982.9765,19.2
983.1939,166.8
983.3643,1497.3
984.0418,208.9
984.2164,935.6
984.3275,115.3
984.3857,1210.7
984.6539,1771.2
984.7944,144.6
985.0761,614.3
985.1608,498.8
985.2108,132.5
985.2812,621.3
985.5832,229.3
985.9153,1392.6
986.0958,19
986.137,541.4
986.2645,664.4
986.3443,216.5
986.8769,395.1
987.4357,138.1
987.6896,223.8
988.2004,1055.4
988.4206,169
988.5096,513.9
988.5853,17.8
989.0321,741.6
989.2178,649
989.2649,114.6
989.7724,461.1
989.8428,200
990.1068,792.8
990.2907,722.5
990.3556,194.7
990.4874,733.5
991.3424,389.1
991.6511,744.3
991.7029,891.3
991.779,765.4
992.1149,562.6
992.1552,327.6
992.2341,126
992.5816,467.1
992.724,539.1
992.825,1190.5
993.1084,280.1
993.5394,37.4
993.925,98.8
994.1174,934.7
994.3842,1639.7
994.7006,720.5
995.022,423.9
995.3223,851.3
995.9717,1168.6
996.6693,18.9
996.6989,551.5
997.011,457.6
997.3692,178.7
997.4356,39.1
998.0609,351.5
998.3211,576.8
998.3608,1726.4
998.8979,460.2
999.1525,756.6
999.5652,389.1
999.7593,790.1
999.8577,834.1
