SPECTRUM - MS,
1371.RAW,
FTMS + p ESI Full ms [50.00-1000.00],
Scan #: 1-40,
RT: 0.01-1.97,
AV: 40,
m/z,Intensity

50.0078,76
50.0139,103.4
50.0221,775.4
50.0227,342.5
50.0232,161.9
50.0284,373.7
50.0368,127.9
50.0394,271.1
50.049,328.8
50.0694,232.3
50.082,80.1
50.0915,681.3
50.097,102.1
50.1002,20.2
50.1074,35.4
50.1347,124.2
50.1469,338.1
50.1478,114.2
50.1998,17.2
50.2113,18.1
50.2302,228.2
50.2356,97.8
50.2371,164.8
50.2412,225.9
50.2449,27.6
50.2521,191.9
50.2669,72.7
50.2673,136.1
50.2709,216.4
50.2711,220.2
50.2893,86.6
50.3034,128.7
50.3038,96.3
50.3064,96.3
50.3243,303
50.3365,180.4
50.3522,466.3
50.3591,148.7
50.3602,192.2
50.3719,631.4
50.3743,398.5
50.3944,216.3
50.3993,210.2
50.4064,344.1
50.4108,67.7
50.4268,158.8
50.4466,172.4
50.4527,88.2
50.4667,201.6
50.4759,72.3
50.4917,117.7
50.5022,92.1
50.5049,203.3
50.5162,626.4
50.5262,386.6
50.5286,19.2
50.544,16.2
50.5461,634.4
50.554,106.2
50.5654,93
50.5738,215.3
50.5882,84
50.5893,194.1
50.6033,136.1
50.6118,25.9
50.6147,404.7
50.6234,72.6
50.6364,345.2
50.6512,296.8
50.6618,108.7
50.6727,79.1
50.7024,372.9
50.7093,365.9
50.7158,207.7
50.749,27.8
50.7725,26.5
50.7785,26.3
50.7877,448.7
50.7942,436.6
50.7995,17.3
50.8022,396.7
50.8369,135.4
50.8388,229.7
50.8584,220.5
50.8625,167.9
50.8971,351.6
50.8993,154.8
50.9058,219.1
50.9106,174.2
50.9206,278.9
50.9225,92
50.9488,349.4
50.9652,130.9
50.9698,258.7
51.0174,163.6
51.0375,135
51.0509,354.9
51.0798,116.9
51.0831,372.1
51.0835,298.4
51.087,25.6
51.1047,272.2
51.125,70.7
51.137,65.4
51.1425,164.8
51.1454,16.3
51.1516,378.2
51.153,209.5
51.1604,91.4
51.1635,18.9
51.1769,387
51.1787,325.8
51.1983,84
51.2233,334.7
51.229,27.3
51.2347,20.4
51.2364,108.4
51.2388,186.2
51.2407,383.7
51.2663,164.5
51.2868,92.2
51.3167,93.4
51.3242,100.8
51.3269,247.4
51.3453,627.7
51.3498,71.5
51.3712,26.9
51.3778,147.1
51.3911,132.7
51.4026,114.8
51.4079,225.4
51.4142,607.8
51.4197,297.6
51.4204,84.1
51.4208,26.4
51.4308,97.8
51.4435,754.3
51.46,379.7
51.4899,66.8
51.5205,114.2
51.5523,115
51.5763,493.8
51.5787,119.6
51.5834,168.6
51.6013,451.2
51.6032,146.8
51.609,70.4
51.6277,143.1
51.6317,389.8
51.6926,18.3
51.7139,137.8
51.7348,225
51.7389,157.2
51.7724,70.7
51.7859,16.4
51.8025,117.2
51.8105,124.2
51.8262,230.9
51.8384,339.3
51.8428,164.3
51.8491,16.9
51.8565,243.8
51.8581,16.1
51.8822,667.9
51.885,349.7
51.8986,477.2
51.9221,27.5
51.9348,148.9
51.9578,30.4
51.9741,431.9
51.9901,70.8
51.9963,88.9
51.999,26.2
52.0029,255.3
52.0167,239.4
52.0504,169.3
52.0541,315.3
52.0553,128.6
52.0571,103.5
52.0646,161.8
52.0681,162.6
52.0797,78.8
52.0832,17.9
52.1123,94.2
52.1219,214.6
52.133,18.3
52.134,17.8
52.1562,189.1
52.1583,600.1
52.1639,69.7
52.1677,218.2
52.173,198.8
52.1903,232.4
52.2048,414.6
52.2088,614.4
52.22,372.7
52.2379,92
52.247,144.9
52.2486,151.3
52.2643,165.8
52.2814,151
52.2831,138
52.2858,636.5
52.2881,571.8
52.3001,152.9
52.3198,346.7
52.3369,277.4
52.3372,88.3
52.3491,96.2
52.3502,27.5
52.3705,119.6
52.3716,115
52.3795,16.1
52.3802,379.3
52.3816,17.1
52.3932,96.4
52.4012,307.5
52.4133,16.6
52.414,88.9
52.4207,112.9
52.4501,94.7
52.4639,226.8
52.4712,431.4
52.4817,216.6
52.4822,172.6
52.489,151.3
52.4915,97.7
52.5111,504.3
52.5205,254.4
52.5405,101.7
52.5423,82.5
52.5472,169.9
52.5477,202
52.5485,343.5
52.5508,102.1
52.5701,163.3
52.5777,403.8
52.58,105.1
52.5918,646.6
52.5921,22.9
52.6013,155.7
52.6022,328
52.6165,191
52.6405,191.6
52.6526,218
52.6568,133.7
52.6589,182
52.6694,131.9
52.6949,406.2
52.7225,18.1
52.7267,16.5
52.7361,585.8
52.7376,130.2
52.7427,192.6
52.7499,166.1
52.7559,542.2
52.7603,186.9
52.7758,822.1
52.7904,42.3
52.7908,89.9
52.7913,763.5
52.7925,3249.6
52.7927,2963.2
52.7933,322.1
52.7937,1547.7
52.7941,1307.6
52.7945,1756.1
52.7947,1666.1
52.7951,1475.3
52.7961,207.9
52.7986,166.3
52.8074,296.9
52.8087,97.3
52.8182,625.6
52.8477,78.2
52.862,611.7
52.8736,120.9
52.8746,203.5
52.8769,95
52.895,123.7
52.9096,89.7
52.9122,251.3
52.9262,15.3
52.9314,135.7
52.9345,116.3
52.9485,132.8
52.952,172.6
52.9847,95.5
53.005,233.9
53.0067,132.8
53.0162,90.4
53.0176,365.5
53.026,681.9
53.0294,362.6
53.0412,101.1
53.0482,17.5
53.0561,393.4
53.0595,439.7
53.0692,322.4
53.0815,306.7
53.0869,177.3
53.093,198.9
53.1044,138.8
53.1202,176.4
53.1266,493.9
53.1489,251.5
53.1535,85.1
53.1856,156.2
53.2021,606
53.203,85.7
53.2247,301.4
53.2352,272
53.2358,169.7
53.2418,27.2
53.2701,386
53.2734,94.1
53.292,100.6
53.2929,349.1
53.2966,16.2
53.3005,296
53.3013,165.5
53.313,85.5
53.3486,438.3
53.3505,529.8
53.3569,81.6
53.3575,468.7
53.4047,150
53.4087,125.3
53.4182,529.6
53.4221,239.1
53.4479,144.6
53.4714,79.2
53.475,221.8
53.4754,168.4
53.5013,399.1
53.5018,126.5
53.5036,176.7
53.5043,605
53.5048,18.9
53.5138,102.5
53.5165,262.6
53.5249,378.5
53.5468,144.3
53.5518,170.9
53.5654,445.3
53.5777,326
53.5782,153.9
53.5877,219
53.5913,101.4
53.5939,131.5
53.5967,139.7
53.5975,177.6
53.6464,15.3
53.6556,415.6
53.658,437.5
53.7094,401.9
53.7213,323.1
53.7321,16.6
53.7455,352.4
53.7972,129.3
53.7977,78.9
53.8049,535.5
53.8097,15.8
53.8151,88.3
53.8162,86.7
53.8263,389.4
53.829,404.8
53.8305,120.5
53.8344,126.1
53.8364,367.6
53.851,211.4
53.8524,90.8
53.8645,671.7
53.8797,303.4
53.8822,402.2
53.9165,92.9
53.9243,621.7
53.934,282.4
53.939,410
53.9524,700.6
53.9702,174.3
54.0017,148.5
54.0345,356.4
54.0379,74.3
54.0558,167
54.0614,444.4
54.071,153.1
54.0878,16.2
54.1027,764.5
54.1091,211.9
54.1276,462.6
54.1823,302.6
54.1972,98.1
54.2054,365.4
54.2141,115.7
54.2518,432.7
54.2595,75.9
54.2666,201.8
54.281,170.8
54.2822,180
54.2832,15.1
54.2942,210.3
54.3088,523.9
54.3113,83.1
54.3125,108.3
54.3147,158.1
54.3304,18.7
54.3379,519.1
54.3399,247.8
54.3427,149.2
54.3441,91.6
54.345,139.4
54.3464,112.2
54.3583,288.7
54.36,279.9
54.3692,169.8
54.3944,103.9
54.4096,125.7
54.4119,165.3
54.4267,83.4
54.429,97.2
54.4317,325.4
54.4433,376.6
54.444,366.9
54.4453,145.3
54.4577,178.9
54.4589,16.6
54.4741,376.6
54.4754,76.3
54.4831,92.4
54.4889,72.6
54.4988,128.3
54.4996,184.7
54.5137,295.2
54.516,374.4
54.5192,149.1
54.5206,326.3
54.5212,81.3
54.5335,125.9
54.549,324.9
54.5809,15.7
54.5901,17.6
54.6127,172.2
54.6233,81.2
54.6425,392.9
54.6434,636.7
54.6492,28.3
54.6624,96
54.6745,17.7
54.6859,15.2
54.6933,134
54.7157,175.3
54.7304,17
54.7315,143.8
54.742,112.3
54.749,350.3
54.7607,120.2
54.777,97.3
54.786,116.6
54.7907,88.4
54.8007,154.1
54.8011,436.9
54.8103,330.3
54.819,203.4
54.8361,284.6
54.8742,377.1
54.8814,126.3
54.8907,126.9
54.8937,18.5
54.9056,223.2
54.917,278.3
54.9368,77.4
54.9415,74.7
54.9512,308.3
54.9602,15.9
54.9743,17.9
54.9833,502.9
55.0011,169.9
55.0061,221.4
55.0068,17
55.0092,320.1
55.0222,163
55.0318,233.5
55.048,96.1
55.0499,341.1
55.0633,245
55.0836,88.6
55.0847,80.3
55.0968,236.2
55.1083,538.9
55.1211,194.9
55.1336,18.2
55.1439,605.1
55.1526,149.8
55.1736,93.8
55.1878,83.9
55.1931,120.3
55.1997,322.9
55.2294,326.4
55.239,192.3
55.2626,312.8
55.263,114.9
55.2727,224.9
55.2786,107.4
55.2847,152.3
55.2909,101.7
55.3133,554.5
55.3498,152.4
55.3505,18.1
55.3621,170.6
55.3667,74.9
55.3965,715.3
55.423,98.2
55.4371,116.6
55.4548,247.3
55.4691,76.2
55.4798,237
55.4831,269
55.4877,135.7
55.4918,90.6
55.4982,331.6
55.5139,317.3
55.5488,424.2
55.5549,26.5
55.5663,385.1
55.5667,292
55.5819,679.1
55.603,110.2
55.6158,90.9
55.6287,85.2
55.6294,83.3
55.6335,91.2
55.6411,115.4
55.6817,364.8
55.6926,84.3
55.694,526.6
55.7006,124.6
55.7278,27.4
55.7583,112.2
55.768,18.8
55.7688,323.9
55.784,80.6
55.806,74.1
55.8089,15.3
55.84,81.5
55.8513,79.3
55.8585,633.8
55.8709,95.7
55.8791,394.7
55.8897,29.7
55.8945,179.8
55.8974,250
55.8988,226.5
55.9386,133.3
55.9406,168.6
55.9417,687
55.9451,222.3
56.0382,754.7
56.0445,176.4
56.0533,149.3
56.0622,319.5
56.0787,165.1
56.1004,209.2
56.1127,17.6
56.1236,248.1
56.1274,77.2
56.1338,85
56.1482,421.2
56.1594,81.5
56.1696,228.7
56.1744,318.5
56.1795,598.5
56.191,286.4
56.1937,454.7
56.2007,108.8
56.2096,251.6
56.2141,82
56.2344,110.6
56.2356,21
56.2407,108.8
56.2413,171.6
56.2479,15.6
56.2571,419.7
56.2657,26.3
56.2765,219
56.2858,241.7
56.3042,328.9
56.3073,83.2
56.311,191.7
56.3362,321.7
56.34,403.1
56.3513,285.9
56.358,146.7
56.3962,100.6
56.4071,106.6
56.4272,669.8
56.4508,92.4
56.4612,28
56.4662,326
56.4759,117
56.4777,94.9
56.541,69.6
56.5425,256.7
56.545,240.7
56.5496,162.5
56.5502,291.5
56.5549,17.6
56.5825,94.5
56.5855,337.5
56.6038,71
56.6056,408.2
56.6367,383.9
56.6581,317.2
56.6693,319.3
56.6738,550.4
56.6786,16.5
56.6878,28.1
56.6921,271.5
56.7359,121.9
56.7422,18.2
56.756,832.6
56.766,579.5
56.773,17.8
56.7842,159.6
56.7952,26.4
56.8062,77.6
56.8203,635.6
56.827,514.1
56.8344,75.3
56.8368,26.2
56.8431,112
56.8506,528
56.8544,398
56.8589,345
56.8647,515.4
56.8704,345.5
56.8851,488.4
56.8931,17.3
56.9231,342.6
56.9295,229
56.9302,91.5
56.9472,181.6
56.9513,18.9
56.9635,90.1
57.0035,184.7
57.0085,32.8
57.0133,115.6
57.0628,263.1
57.0807,151.4
57.0819,161.5
57.0955,313.6
57.0992,320.9
57.1023,103.6
57.1279,146
57.1335,218.9
57.1432,394
57.147,25.6
57.1477,460.9
57.1731,167.2
57.2092,88.5
57.2306,252.6
57.2434,102.5
57.2454,418.7
57.2551,258.4
57.2611,170.9
57.2874,362
57.2924,865.6
57.307,304.5
57.3089,115.3
57.3345,99.6
57.3415,191.6
57.3492,30.2
57.3506,110
57.3749,321.7
57.385,275.2
57.3955,615.8
57.4269,136.7
57.4319,129.1
57.4338,301.2
57.448,96
57.4586,24.6
57.4624,18.7
57.4641,109.9
57.4679,147.1
57.4867,248.1
57.4934,627.2
57.4975,98.9
57.5001,578.9
57.5167,101
57.535,456.8
57.5788,238.3
57.6,227.1
57.6036,448.7
57.6091,130.3
57.6231,274.2
57.6311,685.4
57.643,18.4
57.6697,118.2
57.6758,244.5
57.6866,337.9
57.7094,236.6
57.7516,19.4
57.7577,305.6
57.7784,105.2
57.7884,616.8
57.792,73.1
57.7967,109.2
57.8004,393.6
57.8009,160.6
57.806,17.2
57.8109,88.2
57.838,108.2
57.8503,214.6
57.8582,287.4
57.8603,339.1
57.8612,318
57.8798,19.9
57.9051,325.5
57.9253,17.3
57.9533,603.4
57.9636,312.2
57.9735,294.3
57.9876,211.9
57.9893,466.1
58.0056,90.5
58.0101,95.5
58.0312,216.7
58.0507,276.2
58.0602,27.3
58.0772,220.9
58.09,16.3
58.1264,102.7
58.1386,606.7
58.1557,139.2
58.1591,152.7
58.1611,248.1
58.1633,121.9
58.1689,83.2
58.1896,194.4
58.204,764.5
58.2053,288.8
58.213,334.2
58.22,24.8
58.2791,211
58.2961,170.3
58.3008,109.5
58.305,146.9
58.3108,306.6
58.3117,151.1
58.3246,640.9
58.3405,978.7
58.3524,561
58.3918,88.8
58.393,100.5
58.3963,96.1
58.4285,19.3
58.445,95.1
58.4465,102.3
58.4504,544.9
58.4516,201.9
58.4645,174.7
58.4773,104.2
58.4796,349.9
58.4836,81.5
58.493,257.7
58.5003,251.8
58.5181,218.6
58.5198,254.2
58.5223,298.7
58.5537,105.5
58.5615,105.4
58.5643,194.6
58.5689,248.5
58.5795,443.1
58.584,130.7
58.5987,117.3
58.6327,101.7
58.6447,159.1
58.6571,316.3
58.659,196.8
58.6696,396.5
58.6713,161.2
58.679,186.5
58.6806,350.3
58.6873,177.6
58.6962,380.5
58.7087,131.1
58.722,90.7
58.7314,165.8
58.7349,332.9
58.7402,260.4
58.7444,309.4
58.7563,119.4
58.7588,445.2
58.768,177.3
58.7887,231.6
58.7895,75.8
58.8048,86.6
58.8059,368.1
58.81,101.6
58.8236,16.8
58.8286,229.4
58.8308,104.3
58.8374,143.6
58.8393,368.5
58.8421,86.2
58.8542,581.5
58.8622,107
58.8754,258.5
58.8778,519.3
58.8821,350
58.8831,18.6
58.8986,265.6
58.9133,85.4
58.9242,16.5
58.9274,322.5
58.9518,282.2
58.9537,251.7
58.9761,185.2
58.9827,354.6
58.9949,77.6
59.0003,86.6
59.0008,429.2
59.032,309.1
59.047,145.4
59.059,82.6
59.0604,330.5
59.0616,347.8
59.0718,145.1
59.0753,110.4
59.0887,589.8
59.1213,175.9
59.1456,382.1
59.163,27.3
59.1659,78.4
59.1925,142.1
59.213,606.4
59.2302,93.8
59.2456,247.1
59.277,113.8
59.2933,157.1
59.3068,210
59.3078,146.7
59.3086,412.8
59.3119,325.9
59.3179,299.5
59.3266,118.6
59.358,473.1
59.3618,476.6
59.3675,16.3
59.3724,15.5
59.3741,29.7
59.3781,94.9
59.4107,527.1
59.4234,412.6
59.4451,425
59.4556,371.3
59.4624,80.5
59.4748,19.1
59.4761,128.2
59.4805,89.7
59.4829,447.8
59.4894,142
59.5046,286.7
59.5084,84.7
59.5114,127
59.5215,125.6
59.5501,102.1
59.5551,240
59.5558,16.8
59.5642,387.8
59.5699,100.5
59.5739,174.8
59.5969,223.4
59.6071,163
59.609,237
59.6278,92.7
59.6454,315.3
59.657,97.9
59.659,69.8
59.6704,349.4
59.6794,510
59.6854,225.3
59.6902,325
59.7,451.9
59.7093,96
59.7173,186.4
59.7199,361.7
59.7381,114
59.7474,452.2
59.7478,242.5
59.7631,108.5
59.7644,211.6
59.7825,163.7
59.7949,177.9
59.8106,82.6
59.8126,272.6
59.8288,317.2
59.8309,19
59.8401,338.4
59.8489,254.5
59.8782,359.3
59.8808,112.7
59.8917,219.1
59.9104,117.3
59.9194,89.4
59.9215,155.9
59.9229,597.2
59.9404,342.9
59.9542,488.2
59.9788,217.2
59.9912,240.1
59.9947,112.7
60.0124,260.1
60.0459,113.4
60.0577,257.8
60.06,229.7
60.0672,283.4
60.0896,142.4
60.1247,574.2
60.1449,612.9
60.1717,331.1
60.1731,19
60.1949,94.3
60.2024,518.5
60.2207,16.6
60.2322,93.5
60.2337,115.2
60.25,94
60.2743,358.1
60.2803,147.3
60.285,126
60.3049,75.7
60.3052,83.6
60.3152,200.4
60.322,218
60.326,244.2
60.3339,353
60.3958,17.1
60.409,217.9
60.413,224.8
60.4178,26.6
60.4229,72
60.4262,17.1
60.4273,138.1
60.4325,16.5
60.4548,608
60.4557,383.3
60.4641,219
60.4648,238.6
60.4661,68.4
60.4905,552
60.4924,545.7
60.4936,349.5
60.4946,421.8
60.5316,676.6
60.5493,297.1
60.5634,95.1
60.5746,694.2
60.5781,397.3
60.5856,322.1
60.5929,89.8
60.6195,254.5
60.6319,97.5
60.6397,282
60.6507,340.2
60.6822,238.5
60.6859,155.7
60.7163,97.8
60.7252,484
60.7516,372.8
60.7677,357.9
60.7808,16.5
60.7921,113.5
60.7952,614.6
60.8022,116.3
60.8036,226.3
60.8293,245.9
60.8317,194.6
60.8722,750.5
60.8879,314.9
60.914,140.3
60.9207,312
60.9259,407.4
60.9282,491.7
60.929,194.2
60.9559,18.6
60.9606,326.6
60.9876,27.9
61.0043,432.8
61.0056,346.7
61.0419,301.5
61.048,695.7
61.0534,268.6
61.0775,240.1
61.0808,355.1
61.0818,318.7
61.0825,210.5
61.0899,279.6
61.098,18.1
61.1067,223.6
61.1236,201.7
61.1605,150.4
61.1684,107
61.1814,78.8
61.2011,209.9
61.2031,107.4
61.2192,336.4
61.2271,128.5
61.2384,106.3
61.2405,358.2
61.2504,636.7
61.2585,251.9
61.2608,577.8
61.2786,293.8
61.32,235.7
61.3377,192.8
61.345,163.1
61.3486,571
61.3572,422
61.3586,90.7
61.3612,239.4
61.3619,596.7
61.3732,90.9
61.3846,85.5
61.3851,107
61.4091,423.2
61.4118,133.5
61.4377,21.2
61.4411,227.8
61.4618,324.3
61.4627,120
61.4855,144
61.5167,20
61.5544,74.7
61.5832,279.2
61.592,162.7
61.6078,76.3
61.6098,563.6
61.6163,113.7
61.6172,130.8
61.6698,110.4
61.6707,18.8
61.674,689.1
61.7025,133.1
61.7414,480
61.7465,345.7
61.7625,106.1
61.7799,242.2
61.7831,325.4
61.7899,27
61.8162,142.6
61.8235,73.2
61.8488,338.2
61.876,74.9
61.8807,157.1
61.8828,141.3
61.8896,125.5
61.8925,184
61.8939,16.2
61.9032,73.5
61.9295,175.4
61.9474,114.3
61.9713,442.1
61.9761,191.9
62.0096,660.9
62.0295,386.4
62.0309,121.6
62.0358,468.1
62.0377,418.3
62.0428,323
62.0502,406.4
62.0785,273.2
62.0852,267.5
62.0858,329.4
62.1024,297.4
62.1197,16.2
62.1603,256.2
62.1637,152.4
62.1737,92.3
62.1812,410.1
62.1834,16.1
62.189,24.2
62.19,441.8
62.1961,274.6
62.1964,303.1
62.1966,136.1
62.2065,330.4
62.2098,517.4
62.2116,319.8
62.2296,423.2
62.232,126.3
62.238,542.1
62.2455,252.3
62.2464,372
62.299,92.5
62.32,308.4
62.3219,95.8
62.3264,246
62.349,413.7
62.3632,28.3
62.3962,582.2
62.4226,16.4
62.4342,127.4
62.4547,91.1
62.4713,100.6
62.527,534.2
62.5357,669.8
62.5438,347.7
62.5479,166.8
62.5525,17.3
62.5775,311.5
62.6016,249.2
62.6354,407.1
62.6421,216.9
62.6554,248.7
62.6906,140.3
62.701,87.8
62.7081,282.3
62.7115,17.6
62.7215,146.4
62.7489,852.8
62.7643,527.6
62.7807,271.5
62.7863,66.9
62.7912,92.1
62.7988,16.3
62.8085,255.2
62.8215,136
62.833,509.6
62.846,295.1
62.8695,16.7
62.872,212.9
62.8795,17.8
62.9054,118.6
62.9367,144
62.9419,355.8
62.955,99.1
62.9553,264.5
62.9687,166.1
62.9798,127.1
62.9913,21
63.0205,91
63.0379,157.3
63.041,504.1
63.071,598.6
63.0772,173
63.0813,131.8
63.0902,431.2
63.1044,490
63.1187,19.9
63.1335,70.8
63.1576,115.7
63.1644,103.3
63.1888,471.1
63.1937,399
63.2157,325
63.24,199
63.2623,97.9
63.275,779.6
63.3085,442.9
63.3155,564.9
63.3471,69.5
63.3632,17.4
63.3846,78.2
63.4013,669.9
63.4123,16.2
63.4237,178.9
63.4305,105.6
63.4323,29.1
63.4513,19.1
63.4539,137.1
63.4749,31.7
63.4766,559.8
63.4965,362.5
63.4971,181
63.4991,16
63.5016,215.5
63.5043,335.8
63.5111,288.4
63.518,431.4
63.5228,201.2
63.5498,103.5
63.5556,172.8
63.5841,99.7
63.59,34.9
63.5936,97.6
63.5971,390.5
63.5986,411.5
63.6092,17.3
63.6622,298.7
63.6733,407.7
63.6958,125.8
63.6992,421.8
63.7314,477.7
63.7329,90.8
63.7584,154.4
63.7665,82.6
63.7706,305.5
63.7814,450.8
63.7844,152.9
63.7938,190.3
63.8115,237.6
63.8264,224.3
63.8312,164.2
63.849,638.4
63.8645,79.3
63.8773,30.1
63.892,73.6
63.8997,222.9
63.9043,163.5
63.9074,109.1
63.9093,29.5
63.9473,196.3
63.9639,151.1
63.972,308.9
63.9914,415.1
64.0096,438.6
64.0233,82.7
64.0393,95.4
64.0497,194.4
64.0765,418.2
64.0802,637.8
64.0822,578
64.0936,281.2
64.0943,110.9
64.0947,647.4
64.1082,392.2
64.1131,388.9
64.1133,513.7
64.1135,498.6
64.1253,90
64.1275,198.6
64.1336,330
64.1543,237
64.1744,370.9
64.1749,17.3
64.1775,85.4
64.1807,267.3
64.1858,209.7
64.1915,155.6
64.197,16.8
64.1997,572.7
64.2069,17.4
64.2159,17.2
64.2283,165.4
64.2324,627
64.26,125.8
64.2848,15.7
64.2911,74.7
64.306,348.5
64.3117,351.8
64.3171,145.9
64.3181,103.3
64.3187,341.5
64.3495,526.8
64.3553,204.5
64.3572,90.1
64.3743,674.1
64.3763,102
64.3836,19.5
64.4191,18
64.4446,201.8
64.4494,445.8
64.4697,214.5
64.4804,385.2
64.4931,184.8
64.4976,620.9
64.5025,513.2
64.5131,345
64.5399,611.8
64.5542,83.2
64.5554,190.7
64.5569,531.4
64.5626,114
64.5882,94.5
64.5929,121.7
64.6015,98.8
64.6034,285.2
64.6114,126.3
64.6261,287.3
64.6333,144.2
64.6669,81.5
64.6694,324.8
64.6875,87
64.6906,93.5
64.7088,348.1
64.7104,15.1
64.7223,247.7
64.728,142.5
64.7346,123
64.7356,196.2
64.7359,381.5
64.736,386.2
64.7509,606.1
64.7672,113.2
64.7779,113.2
64.8207,91.8
64.8212,205.7
64.8717,355.9
64.878,662.6
64.8907,136.6
64.9233,156.5
64.99,19.5
64.9998,91.1
65.0263,292.8
65.0322,152.8
65.1057,161
65.1168,309.6
65.1425,88.2
65.1583,208.1
65.1621,71.2
65.1708,241.6
65.177,103.6
65.1805,634.6
65.1827,159.2
65.1934,66.2
65.1939,15.6
65.1943,14.9
65.2054,97.5
65.2264,135.3
65.2382,646.1
65.2604,130.5
65.2613,643.5
65.2806,85.7
65.2846,106.5
65.2902,162.2
65.3059,244.6
65.3101,256.5
65.3138,284.8
65.3332,610.5
65.337,212.1
65.3518,107.5
65.3597,125.4
65.3625,16
65.387,156.4
65.4095,330
65.4305,415.2
65.4317,102.5
65.4753,19.6
65.485,340.3
65.4893,87.5
65.4928,18.5
65.5076,82.1
65.5155,364.4
65.5168,285.9
65.5426,124.3
65.5438,455.3
65.5476,116.2
65.5484,242.4
65.5572,192
65.5687,351.9
65.5793,83.6
65.5823,18.4
65.5847,18.2
65.5861,225.5
65.66,437.6
65.6895,670.1
65.7101,387
65.763,124
65.7756,209
65.7853,121.3
65.7873,608.3
65.8028,184.5
65.8324,24
65.8356,160.8
65.8387,100.7
65.8445,313.5
65.8553,83.1
65.8559,123.3
65.8633,504.9
65.8685,315.9
65.8709,86.8
65.8717,73.3
65.9154,158.5
65.9158,275.4
65.9199,476.3
65.9325,18.7
65.9472,134.4
65.9626,662.1
65.9637,345.8
65.9768,96.8
65.984,117.7
65.9879,15.9
65.9929,23.6
66.0072,139
66.0286,515
66.0432,98.4
66.0586,729
66.0835,438.9
66.1094,173.6
66.1311,398
66.1681,77.4
66.1724,265.1
66.1784,371.3
66.1859,237.4
66.193,16.4
66.22,514.4
66.2241,389.7
66.2243,404.9
66.2247,109.9
66.2338,520.2
66.2535,326.5
66.26,20.6
66.2856,311.4
66.3117,183
66.3516,437.4
66.3543,373.9
66.3676,89.6
66.3797,78.9
66.3912,439.9
66.4089,425.9
66.4115,185.2
66.4281,442.8
66.4546,20
66.4694,185.9
66.4938,267.9
66.5011,202.2
66.5111,249.8
66.5123,370.5
66.546,117.3
66.5546,84
66.5626,332.9
66.5703,117.3
66.5814,16.9
66.5822,140.8
66.5841,141.5
66.5917,242.4
66.5983,108.3
66.6036,97.7
66.6233,477
66.6474,429.6
66.668,19.8
66.6851,418.5
66.702,329.9
66.7282,710.1
66.7323,147.2
66.7337,584.6
66.7469,137.4
66.7542,319.3
66.7584,83.1
66.7632,266.6
66.7727,453.5
66.777,335
66.7842,344.4
66.8138,18.4
66.8167,76.7
66.8245,88.1
66.8325,105.8
66.8356,391.4
66.8739,17.2
66.8932,364.9
66.9054,341.1
66.9142,110.3
66.9382,284.8
66.9625,120
66.9669,264.5
66.973,625.2
67.0027,282.8
67.0265,185.7
67.0456,93.9
67.054,48.3
67.0775,24.7
67.0905,105.3
67.0925,244.7
67.094,19
67.1009,335.2
67.1035,96.4
67.1186,210.1
67.1212,450.2
67.1272,98.9
67.1476,296.4
67.1572,16.7
67.1725,27.9
67.1881,275.3
67.2013,104.1
67.2137,76.9
67.2604,121.5
67.2966,535.6
67.3033,370.2
67.3111,17.1
67.3182,92.9
67.3317,81.3
67.3482,144.6
67.3492,444.1
67.3554,392.1
67.378,17.8
67.3985,651.2
67.4181,160.7
67.4207,101
67.4269,225.5
67.4316,247.7
67.4429,560.3
67.445,18.5
67.4457,373.7
67.4639,91.5
67.4673,582.1
67.4885,251.4
67.4897,98
67.4961,232
67.5183,380.5
67.5319,279.6
67.5423,390.2
67.5459,316.9
67.5954,425.4
67.6197,320.7
67.6333,285.8
67.6348,330.8
67.655,111.7
67.6772,131.4
67.7125,353.1
67.7424,91.4
67.7649,194.1
67.7763,199.9
67.78,317.5
67.7876,151
67.7969,153.2
67.807,273.8
67.8124,86.9
67.8375,333.4
67.844,17.9
67.8502,97.9
67.8596,15.4
67.8694,454.9
67.8703,644.5
67.9049,18.3
67.9172,136.2
67.9634,150.8
67.9814,652.4
67.9823,16.6
67.9937,107.1
68.0102,140.6
68.011,77.9
68.0209,96.7
68.0319,147.4
68.0758,88.2
68.1014,295.4
68.109,134.9
68.1121,211.2
68.1212,95.5
68.1503,90.4
68.1581,454.4
68.1766,198.9
68.1808,99.9
68.1888,157.2
68.2381,346.7
68.2453,16.8
68.2644,212.1
68.2918,343
68.3124,625.1
68.3141,169.8
68.341,164.3
68.3598,16.8
68.427,79.9
68.429,394.3
68.4398,82.7
68.4558,156.9
68.4676,19.8
68.4813,166.2
68.4938,112.2
68.5042,467.6
68.5222,137.7
68.5294,242
68.5357,91.4
68.5643,95.1
68.5651,80.5
68.5948,384.8
68.6139,236.9
68.6145,99.1
68.6234,89.2
68.6511,144.7
68.6735,358.8
68.6766,214.7
68.6978,92.4
68.715,20.4
68.7223,774.6
68.7265,74.9
68.727,228.9
68.7438,253.2
68.7507,85
68.7689,87
68.7922,138.3
68.8056,433
68.8274,162.6
68.8375,20.7
68.9208,195.3
68.9293,443
68.9379,282.4
68.9665,76.2
68.9827,228.5
68.9967,145.9
69.0021,143.2
69.0198,137
69.0556,88
69.0601,19.4
69.0624,274.8
69.0696,20.1
69.0894,352.2
69.0946,322.5
69.1041,100.6
69.1375,97.3
69.1787,551.4
69.1793,153.1
69.1921,406.1
69.1989,33.1
69.2112,243.9
69.2351,114.5
69.2391,301.3
69.2444,129.1
69.2558,588.9
69.257,123.7
69.2735,213
69.3052,202.1
69.3079,125.9
69.3134,95.4
69.3164,133.4
69.317,139.9
69.3373,225
69.3404,114.1
69.3621,520.4
69.3708,120
69.3748,79.2
69.395,189.2
69.4229,355.5
69.4292,305.9
69.4317,323.5
69.4377,189.2
69.4483,262.5
69.4493,136.9
69.4806,19.6
69.4937,20.1
69.5444,517.3
69.5477,148.9
69.5715,387.4
69.5737,165.7
69.5903,83.4
69.6214,623.4
69.6255,91.1
69.6908,289.1
69.7058,272.2
69.7394,18.6
69.7438,213.9
69.7546,17.3
69.7658,571
69.7664,552.8
69.7963,79
69.8146,266.7
69.8328,189
69.8421,484.9
69.8752,18.1
69.8869,97
69.8936,229.9
69.8956,102
69.8964,229.7
69.9004,323.8
69.9263,649.5
69.947,86.7
69.9582,87.1
69.96,200.4
69.9626,19.4
69.9634,177.4
69.995,17.5
70.0008,176.2
70.0217,242.4
70.0395,357
70.0648,175
70.0691,298.7
70.1349,139.4
70.1371,82.5
70.1498,291.4
70.1541,99.3
70.1653,231.1
70.1889,461.1
70.1979,85.3
70.2271,568.5
70.2287,181.7
70.2299,128.7
70.2359,99.7
70.2424,199.3
70.2598,180.6
70.276,97.3
70.2986,651.8
70.3038,232.6
70.3192,782.1
70.3202,183.8
70.3338,132.9
70.3641,340.6
70.3686,271.9
70.3847,337.6
70.3971,234.3
70.4126,16.9
70.4385,171.9
70.4472,163.7
70.4544,329.1
70.4901,119.5
70.5041,189.5
70.5202,236.7
70.5266,110.3
70.5376,110
70.542,158.1
70.5634,326.4
70.5777,346.2
70.5868,282.7
70.5894,185.1
70.5939,540.8
70.6257,115.4
70.6311,17.5
70.6408,194
70.6486,15.8
70.679,289.6
70.7016,25.9
70.7061,149.5
70.7123,99
70.7487,182.7
70.7648,102.3
70.7761,138.5
70.778,117.7
70.7835,164.6
70.7865,325.5
70.7913,399.6
70.8158,235.7
70.8217,304.1
70.8456,695.8
70.878,357.1
70.8957,333.4
70.9165,91.1
70.9344,149.5
70.9422,235.5
71.0043,151.4
71.0144,81.9
71.0294,16
71.0455,101.7
71.1086,515.3
71.1133,358.2
71.1366,20.5
71.1435,137.1
71.1474,19.9
71.1669,500.7
71.1698,239
71.1927,17.4
71.1957,17.2
71.2062,18.1
71.2412,28.8
71.2641,311.6
71.2689,338.1
71.27,190
71.2729,674.7
71.2758,261.2
71.2782,236
71.2869,225.7
71.2955,744
71.3159,196.7
71.3232,594.5
71.3246,305.2
71.3342,309.3
71.3538,15.6
71.3569,172.3
71.3578,156.6
71.3607,27.3
71.3639,75.8
71.3782,136.1
71.3859,90.8
71.4277,107.2
71.439,19.1
71.4527,144.8
71.4737,154.8
71.4823,155.3
71.4846,85.3
71.5616,252
71.5687,164.7
71.5723,168.2
71.5954,461.3
71.6084,21.3
71.6273,242.1
71.6485,520.5
71.6615,95.9
71.712,283.7
71.7134,302.9
71.7402,30.7
71.7616,163.9
71.7742,27.7
71.7762,18
71.7775,343.9
71.7809,17.5
71.7853,267.5
71.7957,20.4
71.7992,191.3
71.8025,395.1
71.8061,181.3
71.8162,17.9
71.8173,410.5
71.8349,27.5
71.8365,71.3
71.8401,90.8
71.8426,608.3
71.8579,179.1
71.862,123.1
71.8688,223.4
71.8838,222.1
71.8896,389.5
71.8923,241.6
71.8987,421.7
71.9518,231.9
71.9547,386.5
71.9602,717.4
71.9711,314.4
71.973,168.6
71.9763,102.1
71.9801,424.8
71.9868,147
71.992,138.2
72.0111,166.9
72.0181,17.8
72.0442,107.5
72.0563,478.4
72.0773,16.6
72.0805,781.7
72.0956,18.4
72.1005,148.3
72.1098,81.3
72.111,201.9
72.1183,164.8
72.1286,145.9
72.1442,200.6
72.1888,134.1
72.2159,20.7
72.2172,18.6
72.2178,33.1
72.2186,25.3
72.2207,38.2
72.2219,21.8
72.2223,22.1
72.2231,242.9
72.2242,129
72.2255,38.8
72.2273,153.2
72.2291,117.3
72.2302,151.5
72.2317,1086
72.2324,363.8
72.2333,561.5
72.2342,775.2
72.2356,1187.6
72.2365,1097.9
72.2371,1333.6
72.238,2514.1
72.2394,2929.9
72.2412,2827.1
72.2428,1635.8
72.2434,2532.1
72.2447,3945
72.2459,3973.7
72.2466,3524.8
72.2477,1909.9
72.2482,3026
72.2495,1074.6
72.2502,1477.8
72.2517,2618.2
72.2528,737.2
72.2536,333.7
72.2543,497.2
72.2577,173.3
72.2589,261.6
72.3122,363
72.3198,146.2
72.3782,163.3
72.3827,119.8
72.3998,96.4
72.4146,16.5
72.4178,103
72.4277,324.3
72.4438,449.2
72.4457,104.5
72.4555,151.4
72.4745,111.3
72.4851,135.6
72.4917,167.8
72.4941,126.4
72.5024,210.9
72.5115,28.7
72.5569,348.6
72.5712,149
72.5882,199.5
72.6034,589.7
72.6099,104.1
72.6153,350.3
72.6389,75.4
72.6491,299.7
72.6523,126.7
72.6595,324.7
72.6686,82.7
72.6771,424.8
72.726,740.8
72.7337,19.3
72.7431,78.6
72.7603,89.3
72.7735,156.4
72.8037,153.2
72.8109,247.5
72.8187,271.8
72.8321,183.4
72.8588,514.2
72.8622,125.2
72.8813,174.4
72.8856,109.5
72.8876,283
72.9135,267.8
72.9369,1245
72.9996,465
73.0096,82.1
73.0169,88
73.0175,254.8
73.0385,101.1
73.0741,196.1
73.0852,242.1
73.1045,348
73.1243,753.9
73.1484,630.5
73.1715,86.2
73.1762,145.6
73.1858,630.6
73.2227,135.1
73.2238,218.4
73.2256,72.9
73.2269,17.7
73.2494,557.4
73.2546,249.2
73.2592,282
73.2702,16.6
73.2895,323.5
73.2916,401.6
73.2935,392.5
73.2992,223.7
73.2998,566
73.3029,25.7
73.373,17.1
73.3794,220.5
73.4003,116.4
73.4156,16.7
73.42,218.5
73.431,183.5
73.4352,85.9
73.4545,103.9
73.4577,381.3
73.5011,163.6
73.5162,17.5
73.5326,27.8
73.5486,755.6
73.5624,19.7
73.5847,289.6
73.5904,152.7
73.5943,343.9
73.6098,16.5
73.6194,614.7
73.6357,174.7
73.6472,122.6
73.6536,693.8
73.6601,297.4
73.6812,254.5
73.6821,80.7
73.6981,77.7
73.707,620.4
73.7129,267.3
73.7189,19.4
73.728,281.2
73.7396,150.3
73.7593,194.3
73.7697,135.6
73.7781,178.9
73.7904,461.1
73.8075,434
73.8394,647.8
73.84,450.5
73.8775,143.7
73.8903,257.4
73.9122,101.3
73.9178,143.8
73.9235,73.1
73.9343,81.5
73.9351,313.4
73.9709,326.5
73.9823,15.8
74.0103,323
74.0168,181.8
74.0227,496.6
74.0267,700.6
74.0274,115.6
74.0444,26.7
74.0598,3714.4
74.0734,410.4
74.0808,688.2
74.0885,363.4
74.1321,523.7
74.1368,229.7
74.1636,698
74.1664,129.7
74.1729,362.7
74.1737,89.8
74.1808,145.7
74.1942,223.2
74.2517,96.6
74.2861,79.6
74.3042,440
74.3054,400.1
74.3096,287.8
74.3542,485
74.4141,17.5
74.4652,556.1
74.4662,142.6
74.4705,140.9
74.4984,207.8
74.5278,157.9
74.5447,569.4
74.566,247.3
74.5758,87.7
74.579,719.6
74.5917,98.8
74.593,99.2
74.6062,122.5
74.6584,18
74.6644,187.3
74.6747,232.1
74.6944,127
74.7017,480.1
74.7407,83.6
74.7516,29.4
74.7575,194.5
74.801,279
74.8549,706.8
74.8647,196.2
74.887,189.8
74.903,137.1
74.904,309.1
74.9134,262
74.9421,18
74.9542,235.8
74.9545,243.6
74.9573,187.8
74.9607,434.2
74.9857,102.9
74.9971,271.4
75.0081,285.5
75.0138,19.2
75.0385,121.2
75.057,154
75.0589,347.7
75.0645,435.7
75.0701,35.2
75.1269,391.1
75.1528,244.8
75.1658,75.4
75.1838,372.8
75.2003,206.4
75.2197,28.9
75.2262,165.2
75.2296,673.4
75.2333,150.5
75.2627,420.6
75.2662,17.3
75.3024,94.4
75.3186,17.6
75.3604,16.7
75.3615,228.6
75.3622,349.1
75.3683,172.4
75.3727,497.6
75.3832,96.1
75.392,16.7
75.4114,72.8
75.4416,93.3
75.4647,167.7
75.4811,132.8
75.5735,610.4
75.5891,358.8
75.5925,245.4
75.604,257.7
75.6204,103.7
75.629,128.2
75.6306,206.6
75.6422,228.3
75.6671,17.6
75.6676,149.8
75.6759,463.4
75.6818,260.1
75.7007,151.3
75.7288,20.8
75.734,187.8
75.7714,126.5
75.7766,78.6
75.7798,180.8
75.7872,293.2
75.7888,93.7
75.8224,77.4
75.8373,93.2
75.8927,462.6
75.8945,156.8
75.9168,221.5
75.9543,86.8
75.9555,339.9
75.9698,451.3
75.9733,451.1
75.9785,340.7
76.0143,191.6
76.0158,95.7
76.1134,79.9
76.1322,18.4
76.1456,250.3
76.1633,269.3
76.1844,130.8
76.1862,17.9
76.1922,344
76.1968,110.9
76.2142,113.3
76.2187,543.9
76.2329,217.8
76.2383,91.9
76.2419,111.5
76.2441,164.7
76.2617,152.5
76.2711,233.4
76.2939,163.2
76.3189,190.3
76.3303,235.6
76.3333,140.2
76.3353,101.9
76.3385,250.4
76.3409,473.5
76.3504,154.3
76.3696,235.9
76.4143,148.5
76.4497,242.1
76.4595,135.4
76.4615,653.5
76.4722,34.2
76.4808,416.1
76.4867,17.6
76.4948,28.4
76.5297,226
76.5321,529.4
76.5547,75.2
76.5592,460.1
76.5833,17
76.5869,499.1
76.6117,425.2
76.6434,168.1
76.6516,249.2
76.6561,94
76.6717,622.4
76.6986,120.5
76.7192,100.4
76.7339,83.3
76.7567,139.1
76.7674,93.6
76.7867,232
76.792,129.5
76.8029,243.6
76.8143,342.5
76.8155,495.6
76.8338,292.9
76.8443,429.4
76.8494,79.5
76.8748,90.1
76.8879,16.7
76.8902,21.6
76.904,91.1
76.9161,204.6
76.9416,331.1
76.9494,357.2
76.9529,21.9
76.9568,267.1
76.9906,365
77.033,341
77.0353,494.9
77.0359,354.5
77.0384,129561.8
77.0394,27.8
77.0465,329.2
77.0488,107.9
77.051,103.7
77.0726,152.1
77.0949,38.7
77.0955,20.9
77.1137,327.8
77.1232,176.1
77.1298,112.8
77.132,229.5
77.1353,419.7
77.1384,193.3
77.1572,118.4
77.1902,24.1
77.2008,218.1
77.22,269.2
77.2275,185.4
77.2658,634.6
77.2676,90.4
77.2715,107.4
77.2755,76.2
77.3129,467.7
77.3376,100.5
77.3701,605.4
77.3876,248.3
77.402,84.8
77.4026,73.1
77.4176,166.9
77.4562,28.1
77.4577,141.4
77.4755,113.4
77.4947,245.4
77.4979,19
77.5282,74.6
77.529,82.1
77.5305,232.1
77.5501,377.6
77.5558,252.1
77.567,99.2
77.6077,415
77.6213,322.5
77.6238,84.9
77.6488,256
77.6634,20.1
77.6784,19
77.6956,16.9
77.709,98.6
77.7208,281.9
77.7601,225.3
77.7624,85.4
77.7831,285.8
77.7988,18.5
77.8077,713.4
77.8103,133.2
77.8138,163.9
77.8223,169.9
77.8244,89.9
77.8486,281.1
77.8867,18.6
77.8929,181.8
77.8999,17.4
77.9101,143.7
77.9119,586.3
77.9355,491.5
77.9391,601.6
77.9425,79.9
77.9602,254.7
77.9718,95.3
77.9741,111.3
77.9825,299.7
78.0045,74.3
78.0417,3749.4
78.0636,130
78.1164,277.5
78.1278,115.4
78.1358,98.4
78.1386,128.9
78.1483,821.3
78.177,179.8
78.1946,450.3
78.2089,127
78.2112,146.7
78.2219,17.9
78.247,100.7
78.2741,136.4
78.28,115.2
78.2967,18.7
78.301,289.7
78.3068,636.7
78.3225,91.4
78.3435,243.6
78.3825,306.9
78.383,280.4
78.3948,184.5
78.3954,17.1
78.4063,295.8
78.414,385
78.4647,272
78.478,401.1
78.4934,647.1
78.4966,187.2
78.5083,18.6
78.5114,17.5
78.5233,17.3
78.5848,169.6
78.596,81.4
78.6644,123.9
78.6772,98.2
78.7144,111.2
78.7212,133.8
78.7235,173.4
78.7459,16.9
78.7673,322.2
78.7947,112.2
78.7965,393.8
78.7995,148
78.8471,132.1
78.8534,164.5
78.8584,299.4
78.8742,98.8
78.8841,162.8
78.8874,414.6
78.9061,18.2
78.9384,730
78.9484,15.7
78.9497,322.4
78.9536,166.4
78.9562,156.7
78.9716,206.9
78.9969,179.4
79.0002,359.9
79.0375,19.3
79.0413,745.1
79.045,164.6
79.0541,2056.9
79.0562,203.9
79.096,37.8
79.111,86.9
79.1267,28.8
79.1319,17
79.1374,575.8
79.1683,194.3
79.1696,347.3
79.1907,481.8
79.1942,400.9
79.2056,97.1
79.2133,287.7
79.2164,81.8
79.2272,280.7
79.2292,76.5
79.2847,130.8
79.2886,107.6
79.301,106.4
79.3197,344.1
79.3388,339.7
79.3448,174
79.3826,625.6
79.3857,330.5
79.4133,469.8
79.421,141.3
79.4294,194.2
79.4302,648.7
79.4559,87.7
79.4768,95.4
79.4937,107.6
79.5012,476.9
79.5348,30.8
79.551,396
79.5519,378.2
79.571,159.4
79.575,125.7
79.5767,545.3
79.5907,342
79.6023,303.7
79.6028,257
79.6188,19.6
79.6414,426.4
79.6435,117.4
79.6694,79.1
79.6901,528.7
79.7064,17.8
79.7106,542.2
79.7485,341.8
79.7501,748.5
79.7528,89.6
79.7563,404.3
79.7657,112
79.7724,672.1
79.8107,17.2
79.8128,195.7
79.8149,178.6
79.8251,631.1
79.8333,223.5
79.8386,86.6
79.8421,130.9
79.8468,199.3
79.8597,80.1
79.8839,110.2
79.8884,350.9
79.8899,489.7
79.9451,871.6
79.967,114.8
79.9689,161
79.974,225.7
79.9801,591.6
80.0221,746.8
80.0631,305
80.0678,108.6
80.0859,96.6
80.087,622.8
80.1001,189.3
80.1016,173.5
80.1228,183
80.173,18.7
80.1741,286.5
80.1772,179.1
80.1799,547.3
80.2113,116
80.221,90.7
80.2246,76.2
80.2616,222.1
80.272,99.9
80.2795,347.8
80.3125,758.2
80.3219,84.1
80.3284,190.7
80.3294,127.9
80.3442,262.1
80.3503,211.7
80.3518,315.5
80.3543,115.8
80.4137,18.7
80.4151,298.5
80.4301,19
80.4499,223.9
80.4523,506.6
80.4542,173.3
80.5137,19
80.5173,163.8
80.5196,73.8
80.5578,455
80.5769,20.3
80.6081,247
80.6215,348.2
80.6577,200.4
80.671,672.9
80.7171,430.5
80.7232,582.1
80.7607,18.3
80.7836,83.1
80.7881,120.3
80.8103,443.1
80.8129,97.7
80.8266,115.7
80.8498,88.1
80.8674,102.9
80.8782,110.2
80.89,418.5
80.9348,180.9
80.9477,58453.2
80.9608,432.6
80.9824,162.6
81.019,381.9
81.0697,2075.5
81.1015,477.7
81.1281,124.4
81.1446,462.9
81.1452,43.7
81.1469,631.9
81.148,264.5
81.1488,846.2
81.1498,507.3
81.1504,247.3
81.1513,305.9
81.153,173.9
81.1542,456
81.1658,89.2
81.1919,111.6
81.1988,462
81.2261,398.1
81.2305,428
81.2923,139.9
81.2958,341
81.308,287.5
81.3176,586.1
81.3499,96.2
81.3596,187.5
81.3644,113.7
81.3765,291.2
81.3782,505.8
81.3789,87
81.3846,259.2
81.3859,575.8
81.3901,158.6
81.3909,117.1
81.403,203.7
81.4043,107.5
81.4271,842.2
81.4543,189.8
81.5189,410.4
81.5227,101.9
81.5404,190.5
81.5867,620.6
81.6015,404
81.6147,106.5
81.6199,489.8
81.6674,160.5
81.6749,100.9
81.683,136.6
81.754,172.5
81.7597,259.5
81.7702,190.9
81.791,555.7
81.7971,79.2
81.8004,155
81.8079,377.1
81.8365,659.7
81.8401,97.4
81.8467,806.3
81.8637,169.3
81.9455,361.4
81.9503,19.1
81.9512,166.6
81.9604,421.1
81.9879,18.4
81.9902,88.8
82.0251,27.9
82.0295,26.7
82.031,112.4
82.0898,247
82.1368,341.3
82.1516,224.4
82.1746,189.6
82.1898,99.3
82.1972,262.6
82.1974,148.6
82.2116,16
82.2149,447.8
82.2328,144.8
82.2443,90.6
82.2567,18.8
82.3004,79.8
82.3034,692
82.3123,253.1
82.3241,116.2
82.3337,220.3
82.3421,496.2
82.3436,361.8
82.3499,98.4
82.3753,284.9
82.3876,101.9
82.3884,245.8
82.3931,482.1
82.4074,19.6
82.4394,133.8
82.464,218.6
82.4751,126.5
82.4913,163.9
82.5255,264.3
82.5468,155.6
82.5533,205.6
82.5552,173.8
82.5772,18.1
82.5838,79.2
82.596,326.3
82.6005,87.2
82.6019,305.3
82.6048,80.4
82.652,87.9
82.6628,402.9
82.6788,671
82.6974,248
82.7155,189.8
82.7181,18.6
82.7235,379.1
82.7292,85.9
82.7623,606.3
82.7794,21.5
82.8103,160.4
82.8191,198.1
82.8219,18.1
82.8727,125.7
82.8826,209.2
82.9381,465.2
82.9448,17800
82.9532,480
82.9572,26.4
82.9732,365.9
82.9793,91.2
82.9993,823.7
83.0066,192.6
83.0077,201
83.0101,19.7
83.0214,871.6
83.0436,19.3
83.0555,469.9
83.0839,286.5
83.0853,72
83.1241,200.8
83.1567,116.1
83.1705,133.6
83.2149,96.8
83.2523,347.2
83.2694,682.4
83.2835,311.7
83.2937,237.4
83.3445,92.1
83.3514,159.6
83.3857,77.5
83.4017,343.9
83.4415,202.5
83.4663,148.4
83.4823,121.5
83.5064,117.3
83.5276,158.9
83.5297,185.8
83.6082,232.2
83.6369,171.7
83.6552,697.4
83.6761,100.4
83.6788,16.6
83.6978,17.9
83.7096,87.7
83.7137,202.3
83.723,759.2
83.7348,811.8
83.7553,900.6
83.7737,300
83.7786,326.5
83.7795,141.1
83.7865,16.2
83.7872,207.7
83.789,19.1
83.7996,451
83.8197,316
83.8331,19.6
83.8687,206.7
83.8719,182.8
83.8808,91.6
83.8897,181.8
83.912,18.3
83.9314,115.6
83.9356,16.5
83.956,71.7
83.9619,250.3
83.9655,88
83.9697,145.4
84.0035,423.8
84.0442,543.6
84.0468,130.6
84.064,202.7
84.0665,620.7
84.0747,534.2
84.0807,641.5
84.0939,259.9
84.1392,156.2
84.1421,663.8
84.1594,17.8
84.2083,133.2
84.2196,343.1
84.2515,278.9
84.2544,103.5
84.2702,83.2
84.2824,261.6
84.2944,405.9
84.2979,498.2
84.3236,185.3
84.3516,18.8
84.3667,95.4
84.4104,95.6
84.4427,362.1
84.4561,220.7
84.4855,108.1
84.4951,338
84.5039,213.9
84.5229,136.6
84.5268,233.1
84.5346,133.7
84.5868,355
84.6017,366
84.6524,174.7
84.6547,104.6
84.6851,575.2
84.6939,248.6
84.6977,336.1
84.7647,564.9
84.7703,17.7
84.78,16.2
84.8087,242.6
84.8123,85.1
84.8133,217.7
84.8163,135.4
84.8675,420.7
84.8819,198.6
84.8918,342.9
84.9159,528.7
84.9328,946.7
84.9457,17.4
84.9587,568.3
84.9596,24178.2
84.9648,117.4
84.9653,116.4
84.9672,155.5
85.0114,410.3
85.0283,1768.4
85.0401,723.9
85.0894,17.8
85.0916,176.3
85.1597,400.3
85.1683,124.4
85.1909,229.3
85.2421,111
85.2567,29.1
85.2665,166.9
85.2804,321
85.2806,409.9
85.2809,278.8
85.3029,295
85.3139,493.6
85.3147,327.4
85.3156,440.7
85.3242,468
85.3473,397.9
85.3836,121.4
85.3855,286.6
85.3915,659.7
85.4214,476.2
85.4273,94.6
85.4574,319.8
85.466,463.6
85.47,181
85.4848,111.2
85.4913,327.4
85.5012,207.1
85.5074,325.4
85.5713,19.5
85.6212,550.9
85.6232,102
85.631,107.4
85.632,18.7
85.6518,371
85.6541,279.3
85.677,86.8
85.6951,409.4
85.712,357.7
85.7469,108.8
85.7641,241.6
85.7667,17.1
85.8074,149
85.8131,474.6
85.8272,80.1
85.8388,20.2
85.9132,777.5
85.9175,105.3
85.9223,312.6
85.9505,17
85.9677,157.3
85.969,143.2
85.9736,96.6
85.992,21
86.0126,15.6
86.0529,224
86.0551,404.4
86.056,149.5
86.0599,42029.4
86.0963,98052.2
86.1049,155.8
86.1138,171.7
86.1533,494.1
86.1556,95.4
86.1591,17.7
86.1617,151.6
86.1724,306.7
86.2087,101.8
86.2222,423.2
86.2452,520.9
86.2906,241.6
86.2959,90.4
86.3043,331.6
86.3153,184.4
86.3245,36.8
86.3281,171.6
86.3716,93.2
86.3981,139.6
86.42,243.6
86.4552,136.9
86.4742,522.7
86.531,74.3
86.546,72.8
86.5767,174.1
86.6104,136.8
86.6255,689
86.635,96.7
86.6673,87.7
86.7803,20.2
86.7865,20.5
86.8262,92.6
86.9087,91
86.9158,82.7
86.9202,18.7
86.9527,119.7
86.9959,88.8
87.001,107
87.0479,17.6
87.0583,94.5
87.0745,18.2
87.0824,117.1
87.0932,527.2
87.0997,1010.8
87.1137,118.9
87.1188,421.1
87.1201,580.5
87.1255,426.2
87.1558,17.7
87.1664,123.4
87.196,217.4
87.2563,253.6
87.2946,107.8
87.2953,93.2
87.3033,323.4
87.3089,217.2
87.3203,557.3
87.3388,179.3
87.3504,159.2
87.355,82.9
87.3646,89.7
87.3692,89.7
87.3749,564.7
87.3801,185.8
87.381,98.9
87.3907,157.7
87.4177,100.1
87.4248,330.2
87.4791,597.7
87.4987,19.3
87.5083,96.7
87.5418,19.1
87.5658,112.9
87.6084,34.1
87.618,433.1
87.6198,1128.9
87.631,112.4
87.6613,156.5
87.6945,137.4
87.7021,365.6
87.7189,162.4
87.7234,175.5
87.7342,374.8
87.7548,107.2
87.7581,68.5
87.7849,425
87.7917,83.6
87.8114,722.6
87.8209,260.4
87.8237,341
87.8393,158.2
87.8454,131.9
87.8551,164.3
87.8958,19.9
87.9065,99.8
87.9249,261.3
87.9273,20.1
87.9283,369.8
87.9524,86.1
87.9704,493.8
87.986,284.4
88.0212,245.1
88.0326,336.4
88.0392,9815.1
88.0412,491.9
88.051,524.5
88.0699,444.9
88.0955,20.2
88.1051,324
88.1057,70.3
88.1143,182.9
88.1361,77.7
88.1429,80.9
88.1564,18.2
88.1772,165.3
88.2058,523.3
88.2247,203.3
88.2263,205.7
88.2472,423.4
88.2735,396.9
88.2843,137.4
88.2852,184
88.2862,284.4
88.3617,93
88.3679,479.6
88.3754,155.2
88.3988,409.4
88.4011,306.5
88.4046,124.5
88.4233,342.1
88.4544,100.2
88.4667,437.1
88.4768,32
88.5607,156.2
88.6137,79.6
88.6203,180.2
88.6327,165.2
88.6514,176.2
88.6548,411.1
88.6581,467.2
88.6614,255.7
88.6661,198.2
88.6757,136.1
88.6998,19.1
88.7664,188.8
88.7893,159.6
88.7938,85.1
88.836,663.8
88.8423,355.6
88.9016,77.6
88.9127,95.1
88.9197,22.1
88.9374,175.2
88.9452,89.1
88.9523,41.7
89.0268,730.9
89.0306,211.5
89.0434,132.2
89.0503,19.8
89.0881,177.2
89.1734,185.5
89.1954,522.5
89.2043,188.3
89.2191,262.2
89.2541,396.6
89.266,268
89.3048,94
89.3159,131.6
89.331,163.1
89.338,153.1
89.3666,80.9
89.3701,144.8
89.3781,178.2
89.4016,210.8
89.4039,114.7
89.4639,254.6
89.4766,568.6
89.4807,17.6
89.5147,432.1
89.52,348.6
89.5441,139.3
89.5521,276.1
89.5602,854.6
89.5773,479.9
89.6133,23.5
89.614,106.7
89.6245,352.3
89.6403,153.8
89.6921,253.2
89.707,430.4
89.71,129.7
89.7147,98.6
89.7546,401.1
89.7922,97.8
89.7948,410.3
89.8128,792.8
89.8153,163.8
89.8239,138.5
89.8319,253.6
89.8896,102
89.8933,589.2
89.923,116.1
89.9401,287.6
89.9507,21.5
89.961,79.5
89.9622,616.5
89.9636,482.5
89.9823,187
90.0257,416
90.034,176
90.0553,137.5
90.1209,335.5
90.1338,327.3
90.1375,210
90.144,88.9
90.147,81.2
90.1508,185.6
90.1528,252.7
90.1579,429.8
90.1668,17.7
90.1715,20.6
90.1865,327.1
90.2213,180.1
90.2266,636.9
90.2507,306.4
90.2541,361.5
90.264,340.1
90.315,90.2
90.3196,308.7
90.3254,93.1
90.3454,101.9
90.3474,160.9
90.3744,380.1
90.4086,116.4
90.4114,227.5
90.414,133.1
90.4159,101
90.4358,342.9
90.4583,355.7
90.4919,178.7
90.5087,17.8
90.5217,429
90.6133,367.4
90.6529,231.9
90.6691,19.7
90.6752,197.7
90.6799,105.4
90.7063,225.1
90.7458,473.8
90.7577,526
90.781,901.4
90.7862,392.1
90.8334,169.2
90.8418,18.4
90.8442,188.4
90.8672,529
90.8897,170.1
90.892,618.7
90.9032,68.8
90.9065,193.2
90.9299,21.5
90.939,82.7
90.9476,3871.1
90.9766,10880.1
90.9988,318.1
91.0245,111.8
91.0345,467.5
91.0501,217.4
91.0522,95.3
91.0542,2031.4
91.0653,265.3
91.0745,149.5
91.0776,78.4
91.0839,994.5
91.114,146.3
91.1225,152.4
91.1386,28.4
91.1431,18.4
91.1462,240
91.1556,84.8
91.1636,20.7
91.2341,138.6
91.2546,674.9
91.2591,78.9
91.2893,336.4
91.3006,364.5
91.3146,309.7
91.3265,303
91.3275,249.7
91.3563,17.6
91.3611,132.3
91.3698,159.2
91.3862,17.3
91.3918,218.9
91.4207,75.8
91.4285,138
91.4392,101.7
91.4405,204
91.4695,363.3
91.4944,205.3
91.5136,665.9
91.5259,545.6
91.5518,558.1
91.5531,152.2
91.5578,141.7
91.5595,224.8
91.592,433.5
91.6191,77.4
91.6222,184
91.6238,17.9
91.6446,509.4
91.7066,140.2
91.7093,106.3
91.7105,322.9
91.7857,183.3
91.8259,535.9
91.8327,237.6
91.8392,179.5
91.8827,143.3
91.9029,76.7
91.9236,299
91.9298,96.7
91.9452,406.1
91.9645,16.6
91.966,687.7
91.9888,85.5
91.9935,28.5
92.0149,17.5
92.0377,193.1
92.0444,117.5
92.0494,232.4
92.0815,188.3
92.1067,109.3
92.1496,203.5
92.1616,273.2
92.1629,505.4
92.1646,398.5
92.1801,111.4
92.2087,354.2
92.2155,87.6
92.2229,137.9
92.262,18.1
92.3034,91.8
92.3111,334.7
92.3352,90.8
92.3558,729.9
92.3595,368.3
92.3737,166.2
92.3785,384.5
92.393,672
92.403,280.4
92.411,681
92.4323,366.3
92.4332,190.7
92.4773,169.3
92.4812,286.7
92.5414,454.9
92.5501,163.4
92.5541,123.3
92.5886,83.9
92.6217,396.5
92.6329,177.5
92.6594,133.9
92.68,153.8
92.6903,115.7
92.7005,248.2
92.7066,411.4
92.7184,509.2
92.7224,201.6
92.7419,130.7
92.7479,161
92.7706,507.2
92.773,129.6
92.7887,376.7
92.8015,174.5
92.8139,139.2
92.8281,324.6
92.8404,376.2
92.8596,113.7
92.8808,143.3
92.884,28.4
92.8858,233.8
92.9156,241.3
92.9241,388.7
92.9325,146.6
92.9547,104.6
92.967,87.9
92.9766,100.3
93.0006,235.9
93.0127,529.9
93.04,124.2
93.0626,224
93.0698,83.6
93.0733,18.5
93.0828,462.7
93.0924,481.1
93.1253,134.9
93.1265,93.1
93.1393,150.4
93.1945,130.9
93.1971,389.4
93.2288,113.6
93.2315,132.5
93.2421,18.9
93.2751,119.6
93.2816,79.2
93.3201,313.1
93.3351,111
93.3535,517.7
93.3577,226.9
93.3614,215.7
93.3716,249.7
93.378,129.6
93.391,258.1
93.406,166.9
93.4559,402
93.4777,97.9
93.4873,100.5
93.4947,391.5
93.4962,149.9
93.5342,720.4
93.5461,251.1
93.5606,232.7
93.6267,244.2
93.6738,101.3
93.6982,833.8
93.7402,380
93.7514,19.9
93.781,391.2
93.8369,165
93.8496,340.8
93.8533,368.5
93.9016,264.4
93.9044,89.7
93.9103,194.3
93.9251,160.3
93.961,153.6
93.9781,654.7
93.988,584.4
94.0178,227.7
94.0413,60131
94.0429,21.4
94.1018,260.5
94.106,16.6
94.1222,417
94.1357,86.5
94.1588,19.8
94.1615,101.9
94.185,436.4
94.2061,97.9
94.2093,140
94.2142,146.1
94.218,128
94.2316,140.5
94.2485,101.1
94.2548,113
94.2726,537
94.2892,80
94.3217,155.3
94.3632,442.3
94.3679,16.2
94.3771,613
94.3862,106.5
94.3947,111.1
94.4142,92.7
94.4205,387.7
94.4259,281.8
94.4525,471.4
94.4565,171.2
94.4727,141.3
94.4992,114.2
94.5316,789.6
94.558,111
94.5817,271.4
94.5865,82.4
94.592,492.5
94.5974,94.2
94.6224,105.2
94.6563,248
94.6605,182.7
94.6671,343.7
94.6757,19.3
94.7125,18.3
94.7248,97.3
94.7612,277.1
94.7771,89.6
94.7899,21.3
94.8175,437
94.8605,179.4
94.8615,618.8
94.8626,346.5
94.8651,453.5
94.9477,98.4
94.9589,150.7
94.9802,254.7
95.0031,121.4
95.0158,499.6
95.0181,20.4
95.0358,20.6
95.0447,1048.2
95.0476,121.4
95.0491,451646.4
95.0511,82
95.0514,38.5
95.0522,53.4
95.0529,41.4
95.0534,21.7
95.0626,19.9
95.0756,276.4
95.0838,27.9
95.0855,212.4
95.1233,218
95.144,18.8
95.1461,18.6
95.1564,226.6
95.1704,102.5
95.1817,317.5
95.1955,241.4
95.2025,662
95.209,627.5
95.2294,274.2
95.2437,167.1
95.251,199.6
95.3414,126.3
95.3541,17.3
95.3601,401.3
95.3606,428.9
95.4896,18.4
95.5049,91.5
95.5329,336.9
95.5344,80.5
95.5368,443.8
95.5593,31.1
95.5645,16.3
95.5943,17.9
95.6093,663.2
95.6464,88.2
95.6602,71.4
95.6761,220.4
95.6773,18.6
95.6954,100.5
95.7382,635.1
95.7384,639.2
95.7467,387.5
95.8059,643.4
95.8254,283.3
95.8594,253.9
95.9071,413.2
95.9354,202.8
95.9948,415.4
95.9964,173.7
96.0057,256.5
96.024,585.1
96.0524,22366.5
96.0664,509.4
96.1263,18.9
96.1787,19.1
96.1866,18.3
96.1891,19.8
96.2367,96.6
96.3095,30.7
96.4418,227.8
96.4662,243
96.4741,107.3
96.493,136.1
96.4999,211.4
96.5008,17.3
96.5543,601.2
96.5914,161.9
96.5977,28.2
96.6206,19.6
96.6236,101.7
96.6284,196.1
96.6383,181.9
96.6501,469.5
96.6542,171.5
96.6673,428
96.6797,71
96.7188,537.5
96.7324,820.1
96.7664,250.6
96.7777,108.3
96.7968,369.5
96.8239,18.6
96.8451,18.1
96.8538,457.6
96.8977,697.7
96.9199,316.4
96.9217,173829.9
96.9245,19.8
96.9375,67.8
96.941,351.3
96.9437,229.8
96.9577,478.7
97.0021,17.3
97.0059,126.3
97.0066,133.8
97.0075,52.9
97.0105,60.2
97.0447,19.7
97.0476,387.6
97.0533,53.3
97.0557,62.2
97.0586,220.9
97.0759,25.9
97.101,20.3
97.1192,344.1
97.1361,75.4
97.137,512.4
97.1782,112.4
97.2192,100.3
97.2978,334.2
97.3242,188.2
97.3389,17.1
97.3674,110.8
97.3762,204.7
97.4162,174
97.4276,125.9
97.4525,177.6
97.4538,106.9
97.5189,85.9
97.5532,211.9
97.5698,381.5
97.5957,444.4
97.6406,80.1
97.6456,222.1
97.6529,238.3
97.6581,226.3
97.6963,351.3
97.6981,499.1
97.7108,78.9
97.7506,91.6
97.7649,123.4
97.8201,113.1
97.8382,91.8
97.84,20.9
97.8553,579.8
97.8621,486.4
97.8832,463.6
97.9251,413.2
97.9384,304.9
98.0051,226
98.0178,176.6
98.0183,102.5
98.0837,19.4
98.0879,440.7
98.1203,128.7
98.1241,202.2
98.1297,166.5
98.1419,237.4
98.1587,239
98.1837,392.9
98.19,305.3
98.2173,351.1
98.2219,307.5
98.2807,85.9
98.2856,81.6
98.3221,282.5
98.3351,186.1
98.3447,188
98.38,912.9
98.4183,33.4
98.4233,239.3
98.4898,643.8
98.4926,157.9
98.5436,84.6
98.5467,258.7
98.5862,255
98.6247,91
98.6295,144.9
98.7,146.2
98.723,255.8
98.7728,17.8
98.7906,95.1
98.8088,114.4
98.8112,16.7
98.8254,521.9
98.9188,50079.6
98.9198,7634.9
98.9259,105.4
98.9305,98.3
98.9508,146
98.9753,15440.8
98.98,89.7
98.9841,22.7
98.9855,18.1
99.0166,81.1
99.0313,236.4
99.0454,86.1
99.05,510.9
99.0544,30.8
99.076,312.9
99.0916,133.4
99.104,314.9
99.1278,235.6
99.1299,131.5
99.1632,302.6
99.1646,106.2
99.1708,243.9
99.1916,257.5
99.1944,18.3
99.2129,273.9
99.2249,375
99.2801,18
99.3104,246.2
99.3712,16
99.3998,170.7
99.4044,17.2
99.4555,245.8
99.4903,407.6
99.5308,17.8
99.5322,152.1
99.5466,582.9
99.5551,86
99.5701,20.8
99.6931,514.3
99.7218,200.6
99.7323,105.9
99.7577,649.5
99.7981,566.5
99.8097,119
99.819,165.9
99.8509,285.1
99.8699,774
99.8722,476.1
99.8757,380.9
99.8774,126.6
99.9548,611.5
99.9827,89.3
100.0048,94.2
100.0256,86
100.0398,442.1
100.0491,196.5
100.0726,169.2
100.0757,24.3
100.1619,74.8
100.1672,178.7
100.1687,596.4
100.1826,175.7
100.2045,185.3
100.2219,141.6
100.2386,83
100.2555,708.9
100.2608,166
100.2667,152.2
100.2824,241.4
100.2945,97.3
100.3343,18.7
100.3364,107
100.3556,79.8
100.3751,468.5
100.3779,85.8
100.3827,21
100.3945,18.1
100.4702,544
100.4722,482
100.5069,19.8
100.5227,595.2
100.5246,137.9
100.5923,353.7
100.6253,208.1
100.6404,159.3
100.6596,264.9
100.6879,358.6
100.7333,587.3
100.7833,237.6
100.7945,457.1
100.7987,369.6
100.8099,354
100.8175,91.4
100.8251,296.2
100.8279,20.2
100.873,533.2
100.8745,941.2
100.8902,167.3
100.9,397.8
100.9168,796.1
100.9259,76.8
100.9504,246
100.9527,84.8
100.9827,173
100.9838,649.5
101.0173,122
101.0471,2643.5
101.0707,1309
101.1095,16.9
101.1219,235.5
101.1228,82.4
101.126,335.3
101.1287,644.3
101.1756,459.2
101.182,100.6
101.2003,81.1
101.2081,339.5
101.2128,99.1
101.248,321.5
101.3219,199.3
101.3441,182.2
101.371,164.7
101.3792,90.5
101.4545,98.1
101.4626,91.5
101.4812,18.8
101.5073,92.1
101.5107,229.3
101.5141,182.4
101.5705,194.3
101.5929,308.9
101.6091,466.3
101.6158,724
101.6735,86.5
101.6958,302
101.712,160.1
101.7152,111
101.7611,91.5
101.7735,107.1
101.8427,463.3
101.8999,35
101.9636,297.9
101.9918,87.7
101.9973,157.4
102.0079,213.9
102.0449,288.9
102.0549,5096.4
102.0583,361.4
102.0608,292.2
102.1222,650.6
102.1299,357.9
102.1895,322.3
102.2132,18
102.216,85.8
102.2401,709.2
102.2455,19.9
102.2591,135.6
102.2623,86.4
102.2693,674.9
102.2704,17
102.2863,138.5
102.2877,343.2
102.3075,477
102.314,23.8
102.3478,122.9
102.3601,172.1
102.3654,202
102.4086,253.1
102.4778,100.5
102.5143,218.2
102.5539,356.8
102.574,410.1
102.6154,352.5
102.6335,74.9
102.7067,253.9
102.7258,101
102.7478,593.4
102.7575,281.2
102.765,457.2
102.7685,247.3
102.7823,163.4
102.8312,226.7
102.8563,265
102.9059,139.5
102.9144,83.6
102.9253,86
102.9323,16.8
102.9477,22.2
102.9563,729.3
102.968,156
102.9702,584
102.9975,347.5
103.0025,173.8
103.0113,290.1
103.0225,82.1
103.0342,331.7
103.0363,81.8
103.041,395
103.1795,174.7
103.1939,97.3
103.2025,78.2
103.2379,237.5
103.2553,35.7
103.287,154.5
103.3025,72.6
103.3104,19.2
103.3205,185.2
103.3326,91.3
103.3442,84
103.3773,120.3
103.4068,246.7
103.4087,123.2
103.4198,349.5
103.4358,157.2
103.4395,615.7
103.4492,201.7
103.4617,112.1
103.4891,517.4
103.5029,89.2
103.5111,100.4
103.5235,327.2
103.5251,513.2
103.5683,126.5
103.6991,29.6
103.7438,100.4
103.7841,229.9
103.7879,146
103.8004,497
103.8069,482.6
103.8126,558.9
103.8153,309
103.8179,89.7
103.8233,770.2
103.8408,358.7
103.8441,105.5
103.8451,29.9
103.8539,103
103.8626,161.6
103.8998,195.7
103.9179,161.1
103.9282,18.1
103.9513,276
103.9588,337.5
103.9715,355.7
103.9793,344.4
103.9843,121.5
104.0025,161.5
104.024,170.1
104.0496,382.9
104.0502,405.5
104.0649,700.5
104.1025,83.4
104.107,366014.5
104.1385,495.9
104.1538,659.5
104.1551,364.2
104.2077,31.5
104.2712,18.9
104.3073,130.7
104.3766,403.1
104.5108,163.9
104.5273,25
104.555,234
104.5635,233.5
104.6103,138.2
104.6346,315.1
104.6688,94.7
104.7358,19.7
104.7806,85.2
104.7999,191.8
104.8029,489.9
104.819,419.7
104.837,547.3
104.8517,91
104.8642,222.3
104.8931,622.4
104.8981,18.3
104.9157,288.8
104.9323,270
104.9481,211.1
104.9633,5379.5
104.9665,467.9
104.9768,87.3
104.9923,2593.6
105.0176,198.3
105.0447,42083
105.0687,358.1
105.0773,91
105.0802,340.6
105.1078,100.9
105.1103,13716.3
105.1316,256.9
105.1329,18.1
105.1564,286.3
105.1691,520.7
105.1876,228
105.2103,98
105.2135,91.5
105.2194,382.1
105.3231,90.7
105.3451,172.1
105.3582,385.2
105.3787,236.8
105.3903,339.4
105.421,125.5
105.4621,342.5
105.4696,21.2
105.4774,168.1
105.5053,113.8
105.562,144.6
105.569,324.3
105.5845,458.5
105.6054,370.3
105.6089,20.5
105.6397,501.8
105.6425,269.2
105.6455,138.5
105.6636,166.3
105.7011,106.6
105.7075,252
105.7362,20.3
105.7458,499
105.7558,131
105.7905,445.5
105.8219,588.5
105.8357,90.9
105.8581,246.8
105.87,682.3
105.8796,159.2
105.8945,151.2
105.9073,17.5
105.9636,17.9
106.0481,495.6
106.0651,31
106.0669,94
106.0949,120.7
106.1134,218.9
106.1213,15.6
106.1279,29.6
106.1368,218.9
106.1615,123.6
106.1956,30
106.2298,78.6
106.2523,97.4
106.2573,443.8
106.2808,708.1
106.3282,138.3
106.3404,166.7
106.3489,255.5
106.3798,307.7
106.3888,160.6
106.3993,20.6
106.4056,167.8
106.4456,158.1
106.4937,693
106.535,184.9
106.5587,215.6
106.5659,106.4
106.5721,84
106.6113,543
106.6151,376.2
106.6458,353.8
106.668,139.3
106.6792,161.3
106.686,19.4
106.7007,128.1
106.7115,497.3
106.7144,446.2
106.7366,164.3
106.7421,85.8
106.7485,489.7
106.8094,100.6
106.8248,28.2
106.9112,922.6
106.9314,229.9
106.9435,24.5
106.9506,5469
106.9637,136
106.992,74.7
107.0284,62.4
107.03,79.5
107.0491,652.4
107.0854,20.1
107.1438,281.6
107.1546,78.4
107.1846,769.9
107.2109,216.8
107.2266,106.1
107.2364,230.1
107.2382,365.4
107.2429,103.8
107.281,352.3
107.2876,140.6
107.2953,237.2
107.3103,1048.2
107.3251,100.1
107.385,657.8
107.3922,87.7
107.4084,131.3
107.4636,91.6
107.4919,293.8
107.5229,151.1
107.5846,150
107.648,195.1
107.6542,272.1
107.7076,126.7
107.7124,244.6
107.7747,352.3
107.8431,318.1
107.8751,552.6
107.8778,249.9
107.9209,219.3
107.9227,316.8
107.9717,25.2
107.9849,186.1
108.0045,543.2
108.0055,151.5
108.0159,305.7
108.0204,157.8
108.0229,139.9
108.0362,314
108.0558,88.4
108.1038,284.7
108.112,213.9
108.1184,16.6
108.1249,22.9
108.1415,309.4
108.1887,18.4
108.2045,241.2
108.2063,231.5
108.2216,242.3
108.2289,261.9
108.2485,73.6
108.2695,121.4
108.2712,111
108.3103,235.3
108.3131,133.2
108.3277,96.2
108.3568,135.7
108.3721,662.8
108.4202,74.6
108.45,107
108.4804,266.5
108.4884,112.5
108.5106,98.9
108.5143,374.9
108.567,18.7
108.5788,97.7
108.6249,200.1
108.6581,134.6
108.6803,107.7
108.7294,110.2
108.7501,360.2
108.7745,240.7
108.7758,324.5
108.8174,530.2
108.8475,284.4
108.8526,243.7
108.8594,451.4
108.8744,105
108.878,165.3
108.9196,152
108.9289,178.8
108.9584,136.7
108.9659,306
108.9981,389.8
109.0006,248.5
109.0051,178.8
109.0372,25.8
109.0557,253.8
109.0631,21.4
109.0648,66043.8
109.0714,113.7
109.089,79.8
109.0998,248.8
109.1011,136.7
109.1208,23.5
109.1335,164.3
109.1422,353.9
109.1628,16.5
109.2107,216.4
109.2344,162.1
109.2761,566.1
109.2816,80.3
109.2885,18.9
109.325,85.8
109.4089,176.1
109.4216,285.1
109.4358,288.2
109.468,285.8
109.4721,461.1
109.4942,313.1
109.4971,92.7
109.5507,364.4
109.6213,72.7
109.6275,387.2
109.6334,273.6
109.658,529.1
109.6802,17.9
109.7049,97.5
109.7554,333.6
109.7714,339
109.7793,177.1
109.7826,547
109.7948,462.1
109.8682,147
109.8716,124.8
109.9079,340.2
109.9125,152.9
109.9194,131.7
109.9256,438.2
109.985,247.1
109.9954,452.1
110.0295,484.5
110.0681,2300.4
110.0715,103.1
110.0978,185.4
110.1108,342.7
110.1166,337.3
110.1254,224.2
110.1603,188.2
110.1876,95.5
110.1904,111.3
110.1989,90.4
110.2009,104.4
110.2049,17.2
110.2181,297.1
110.2234,317.4
110.2295,136
110.2355,145.8
110.2711,205.6
110.2768,228.1
110.3236,225.3
110.3336,785.2
110.3448,104.9
110.3471,81.5
110.3824,256.7
110.3853,385.9
110.3964,99.9
110.4111,19.3
110.4247,319.2
110.4418,88
110.4487,73.3
110.4607,438.7
110.4662,670.2
110.4747,310.8
110.4901,80.8
110.51,250.1
110.512,153.1
110.5335,190.8
110.538,355.5
110.551,184.1
110.5756,16.9
110.598,253.1
110.6169,419.8
110.6235,152.6
110.6699,382.3
110.7101,363
110.746,591.3
110.7786,17
110.8074,231.8
110.8617,202.4
110.8971,97.3
110.9038,103.7
110.9361,26
110.9439,248.4
110.9514,494.8
110.9634,689.8
110.9776,536.3
110.9887,87.6
110.9922,93.4
110.9939,535.4
111.0233,251.2
111.0384,172.7
111.0441,179.7
111.0472,479.7
111.0658,161.9
111.0803,16.8
111.1083,95
111.1102,425.8
111.1269,546.2
111.1387,473.5
111.1445,256.3
111.1955,100.5
111.2227,280.7
111.2268,140.3
111.231,16.3
111.2696,108.3
111.281,106.4
111.3344,482.8
111.3595,77.6
111.3885,419.5
111.433,204.7
111.445,223
111.4613,150.5
111.4935,415.8
111.5015,235
111.5125,92.9
111.537,451.5
111.556,542.4
111.5715,152.4
111.5922,532.4
111.5952,314.3
111.6502,329.8
111.6671,288.5
111.692,130.8
111.7015,106.1
111.7224,110.8
111.7394,139.4
111.7577,85
111.7755,235.9
111.7767,264.8
111.7837,122.1
111.7987,232.9
111.83,368.3
111.8709,103.7
111.8808,73.2
111.8997,148.5
111.91,79.4
111.9261,364.9
111.9515,188.5
111.986,245.7
111.9976,308.3
112.0995,411.3
112.1233,230.8
112.1383,487.8
112.1552,104.6
112.1968,570.3
112.2004,461.1
112.2339,97.6
112.2404,283.7
112.2507,637.9
112.2714,102.3
112.2763,72.4
112.3357,123.7
112.3794,160.6
112.3822,114.3
112.3912,619.8
112.4036,29.2
112.4319,481.4
112.4371,600.4
112.4511,18.2
112.4681,173.4
112.4763,358.7
112.5002,184.3
112.5599,376.8
112.5755,78.3
112.5933,100.9
112.5983,158.4
112.6046,432.7
112.6504,211.6
112.6577,345.2
112.6741,211.3
112.7277,371.1
112.7479,666.2
112.7812,100.1
112.7937,257.8
112.8273,26.3
112.8351,110.1
112.8436,354.4
112.8548,147.6
112.8561,270.3
112.8656,206.2
112.8772,664.9
112.8957,494450.1
112.9035,659.1
112.939,266.3
112.9428,18.2
112.9726,400.3
112.9875,95
112.9989,367.1
113.1074,245.6
113.1277,134.3
113.2053,449.8
113.2175,94.6
113.2351,180.6
113.2379,283.3
113.2832,199.6
113.3399,242.4
113.3812,243.1
113.3852,189.6
113.3905,140.8
113.3956,144.2
113.4267,219.2
113.4336,91.6
113.4563,93.9
113.4918,272.6
113.5096,17.7
113.5112,291.1
113.528,461.5
113.579,371.8
113.5957,358
113.6496,21.7
113.6616,73.8
113.6823,392
113.684,172.7
113.7136,387.6
113.7922,20.4
113.7946,86.4
113.8412,20.3
113.8628,152.9
113.8901,265.7
113.9412,558.7
113.95,105.6
113.962,224.7
114.0093,308.5
114.0162,16.5
114.0205,617.9
114.0262,169.1
114.0365,82.8
114.0407,18.8
114.0441,492.2
114.055,59221
114.0609,377.7
114.0735,288.2
114.0842,405.1
114.0926,153.1
114.1605,28.5
114.2002,450.2
114.2402,141.5
114.2471,246.7
114.2487,143.9
114.2553,711.3
114.2789,616.7
114.3126,16.6
114.3271,106.8
114.3878,205.6
114.3886,169.6
114.4218,16.6
114.4436,377.8
114.4833,613.4
114.5316,97.5
114.5476,442.2
114.5632,324.5
114.5764,15.9
114.5852,143.9
114.5923,148.7
114.6317,627
114.6575,388.1
114.677,408.5
114.6885,261.4
114.7155,252.6
114.7577,82.2
114.7804,174.8
114.7878,105.8
114.8151,240.7
114.8621,668.1
114.8677,454.5
114.8928,156608.2
114.9005,15.9
114.9355,236.8
114.9482,439.4
114.9909,116.5
115.0583,1648.4
115.0679,235.7
115.1074,215.7
115.1232,97.3
115.1293,154.6
115.1352,95.2
115.1713,608.4
115.1773,383.2
115.1874,21.5
115.2599,245.7
115.2653,19.7
115.2678,140.9
115.2955,247.8
115.342,347
115.4167,177.6
115.4361,638.7
115.5365,484.2
115.6108,17.9
115.6442,366.8
115.6592,592.4
115.7073,586.6
115.7212,118.3
115.8049,248.7
115.8097,159.4
115.8315,152.6
115.8334,687.2
115.8663,590
115.9405,276.8
115.9484,22.4
115.9794,634.3
115.9968,281.8
116.0066,404.3
116.0706,625.9
116.0753,797.2
116.1273,201.1
116.142,28.6
116.1882,19.4
116.2183,291.4
116.2449,113.2
116.3447,113
116.3744,342.8
116.3815,103.8
116.4044,251.4
116.4656,98.8
116.4767,189.6
116.4842,78.3
116.5148,421.6
116.5677,282.4
116.6943,412.7
116.6997,131
116.7069,84.2
116.7362,260.2
116.7501,116.9
116.7718,295.3
116.7825,708.8
116.8077,202.3
116.8454,220.2
116.8575,607.1
116.8619,167.3
116.8845,18.7
116.8909,18385
116.9302,76.2
116.9494,90.1
116.9602,425.6
116.9634,190.6
116.9859,1579.1
117.0023,91.4
117.0147,18
117.0279,187.3
117.07,58.5
117.0722,94.3
117.116,77.5
117.1364,105.4
117.1772,334.8
117.1998,570.2
117.2099,122.4
117.2126,390.2
117.2469,306.1
117.2926,301.7
117.2992,27.2
117.313,187.7
117.3144,489.6
117.3621,373.7
117.4002,103.6
117.4184,115
117.4616,96.7
117.4676,269.3
117.4994,113.5
117.5029,86.8
117.5186,654.5
117.7112,123.8
117.7553,131.2
117.8106,480.8
117.8444,242.3
117.8646,104.1
117.8758,80.4
117.8818,101.9
117.8944,16.9
117.9168,150.1
117.9184,19.3
117.9359,124
117.9659,30.2
117.9798,95.3
117.9949,44
117.997,101.8
118.0145,359.2
118.0204,72.2
118.0374,122.4
118.0398,751.9
118.0429,86.9
118.0495,152.5
118.0972,20.4
118.1304,229.4
118.178,278.6
118.1803,922.8
118.1882,143.9
118.2852,459.7
118.3277,112.7
118.3784,123.3
118.3884,520.5
118.4109,93
118.4806,535.9
118.5085,78.9
118.5098,105.3
118.59,676.7
118.6146,354
118.6475,151.3
118.7222,127.3
118.7418,181.1
118.7996,270.5
118.8792,601.2
118.9151,139.8
118.9426,1158.3
118.9595,363
118.9737,443.9
118.979,988.9
118.995,638.9
118.9983,131.7
119.0149,130.2
119.0189,48.2
119.0761,108.3
119.0855,23.3
119.1033,500.3
119.1096,120.2
119.1131,113.8
119.1294,298
119.1484,565.7
119.1676,170.8
119.2243,275.1
119.2605,535.9
119.2784,137.9
119.3027,97.3
119.3363,330.4
119.3619,95
119.4163,82.8
119.4366,334.7
119.4489,219.4
119.4957,83.6
119.511,18.9
119.5768,345.6
119.603,18.8
119.6101,21.5
119.6808,89.9
119.7191,147
119.7513,18.1
119.7605,122
119.7891,435.8
119.7906,19.6
119.8042,550.1
119.8045,562.1
119.8355,692.4
119.8454,427.6
119.8752,374
119.8777,19.1
119.9032,203.8
119.9431,589.7
119.9501,356.2
119.9573,82.7
120.0014,17.4
120.0033,6410.2
120.0083,124.2
120.0217,252.1
120.0726,135.9
120.0808,11289.4
120.0952,333.5
120.219,269.2
120.2335,153.1
120.2537,250.2
120.3365,98
120.3534,85.2
120.3656,121
120.3868,466.2
120.4612,82.2
120.4698,450.3
120.4805,578.4
120.5032,86.3
120.5579,256.1
120.6035,147.1
120.6494,97.2
120.6951,186.1
120.733,168.7
120.7731,137.4
120.8065,201.3
120.8089,400.5
120.8367,19.7
120.8698,345.8
120.9221,95.9
120.9264,133.2
120.9291,237.2
120.9809,165.8
121.0077,299.7
121.0285,308.7
121.0397,52.5
121.0633,118.3
121.0645,19.5
121.0869,168
121.1247,190.3
121.1939,17.3
121.201,151.1
121.208,204.3
121.2172,142.5
121.2269,105.6
121.2572,171.6
121.2604,101.3
121.2765,203.4
121.3239,559.5
121.3418,483.8
121.3596,409.6
121.3912,86.8
121.4953,142.9
121.5148,204.6
121.588,368.2
121.5909,790.8
121.6189,155.2
121.6715,81.8
121.7118,350.6
121.7171,466.1
121.7317,251.3
121.7891,82.4
121.8069,73.7
121.8323,164.7
121.8392,363
121.8704,164.6
121.8818,240.9
121.9211,134.2
121.9659,334.1
121.9904,426.8
122.0174,261.5
122.0278,637.5
122.067,172.7
122.0865,180.5
122.1317,153.1
122.207,18.8
122.2315,306.6
122.2407,89.6
122.2809,20.2
122.3094,166.3
122.3129,178.2
122.3301,106.2
122.4353,180.4
122.4602,605.8
122.4745,83.4
122.5637,266.1
122.5718,87.3
122.5941,16.6
122.6075,153.3
122.619,362
122.6297,321.3
122.6871,143.1
122.697,82.4
122.7357,239.2
122.747,164.8
122.755,340
122.7869,104.5
122.8516,108.4
122.8943,437
122.9025,124.7
122.9082,303.5
122.9246,27256.4
122.9401,247.4
122.9533,220.8
122.9652,272.8
122.974,226.6
122.9763,25.5
123.0056,201.3
123.009,153.3
123.0152,634.4
123.0344,430.8
123.0512,810.1
123.0805,21.4
123.0876,285.1
123.1171,254.7
123.1241,227.2
123.1276,428.9
123.2215,370
123.3435,105.3
123.3548,140
123.3839,86.3
123.5548,276.3
123.5716,17.9
123.5962,228.2
123.6349,18.4
123.6402,218.9
123.6522,207.9
123.6898,300.6
123.7463,621.6
123.7663,165.5
123.8022,108
123.8222,248.1
123.8355,478.4
123.9069,257.1
123.9087,317.7
123.9265,187.5
123.9676,224.3
124.0072,242.6
124.0125,203
124.0351,146.8
124.0578,118.4
124.0636,100.9
124.0747,179.8
124.0977,247.5
124.1389,76.1
124.1486,701.9
124.189,326.7
124.2204,468.3
124.2394,114.5
124.2866,378.3
124.2944,349
124.298,183.6
124.2992,338.7
124.3376,186.5
124.3488,816.1
124.3746,277.8
124.3796,241
124.3961,77.6
124.3977,338.9
124.4033,18.4
124.4079,102.3
124.4313,173
124.4928,192
124.5004,18.5
124.5221,87.3
124.5981,102.3
124.6205,258.4
124.6297,332.8
124.6354,227.9
124.6491,124
124.6573,184.3
124.6731,98.4
124.6932,16.4
124.7168,814.1
124.7446,182.8
124.7798,798.8
124.8509,199.7
124.9024,298.7
124.9227,2243.2
124.9671,161.2
124.9794,229.7
124.9999,5507.1
125.0056,1309.6
125.039,225.1
125.0599,42.7
125.0927,461.6
125.1073,536.4
125.1321,556.1
125.1675,499.5
125.1991,20.6
125.2257,97
125.2487,74.1
125.2636,221.5
125.2706,17.1
125.2816,634.9
125.2832,264.3
125.3064,110.5
125.3606,429.1
125.3867,339.4
125.4001,436.3
125.4191,137.5
125.4481,191.4
125.4565,604.7
125.4782,409.4
125.4979,273.3
125.5056,254
125.531,127.1
125.5722,19.4
125.6154,522.2
125.6807,337.2
125.6941,408
125.7145,369
125.7198,147.9
125.7681,572.1
125.8177,304.9
125.837,152.6
125.841,79.5
125.862,119.1
125.9244,91.9
125.9285,97.6
125.9321,20.3
125.946,503.8
126.0002,182.4
126.0091,18.1
126.023,210.9
126.028,445.9
126.0355,570.4
126.0435,98.8
126.0888,416.6
126.0893,456.4
126.0898,324.7
126.0943,102.2
126.1023,304.6
126.1331,106.2
126.1677,252.4
126.2293,317.8
126.2925,181
126.3102,261.9
126.3141,319
126.349,726.3
126.3678,32.6
126.4092,109.7
126.4856,147.1
126.5213,450.3
126.5327,88.9
126.5458,640.7
126.5672,18.8
126.5735,631.5
126.6058,665.9
126.6098,730.1
126.6839,25.7
126.6879,316.7
126.7022,129.6
126.7054,162
126.8271,74.2
126.83,93.8
126.8355,376.8
126.9259,785.5
126.9475,498.1
126.9831,115.4
127.008,21.1
127.0306,34
127.0427,79.5
127.0479,333.7
127.0516,148.9
127.0648,102.9
127.0699,107.1
127.1265,180
127.1587,95.6
127.217,615.1
127.243,149.5
127.2559,76.7
127.2587,108
127.2611,158.2
127.3059,246.6
127.321,784.4
127.3223,158.7
127.3648,19
127.4745,639
127.5174,475.9
127.5911,99.2
127.6336,104.8
127.6584,383.8
127.6595,140.9
127.7354,34.1
127.7527,20.4
127.7906,393.5
127.7982,92
127.832,795.6
127.8353,102.8
127.8404,809.1
127.8793,201.9
127.8827,499.1
127.8844,339.4
127.9008,169.6
127.9151,125.6
127.9522,334.6
127.9779,17.6
127.9795,17
128,338.7
128.0036,106.2
128.0159,96.8
128.1021,181.3
128.1081,464.9
128.1583,19.4
128.1745,89.1
128.1939,157.8
128.2123,279.2
128.2396,17.1
128.2517,299.2
128.3154,643.8
128.3261,96.2
128.3411,146.6
128.3745,81.1
128.4081,96.8
128.4157,605.4
128.4439,337.4
128.4664,194.5
128.4706,16.4
128.4818,685.6
128.5664,232.5
128.7276,275.1
128.7407,20.1
128.7836,727
128.7998,355.4
128.8829,220.3
128.9022,105.6
128.9278,169
128.941,74.4
128.9639,325.5
128.9712,173.5
129.0032,951.2
129.0073,104.2
129.0089,119.1
129.0134,271.7
129.0233,217.7
129.0586,255
129.1618,693.3
129.2483,121.1
129.3228,295.2
129.3744,101.4
129.3853,192.5
129.386,187.4
129.4025,374.5
129.4408,100.8
129.5134,148.4
129.5307,161.2
129.5491,314.1
129.5502,158.5
129.5703,442.6
129.6035,164.8
129.6692,113.9
129.6739,18.8
129.6834,96
129.7696,156.1
129.7762,684.7
129.7902,183.2
129.8028,87
129.8058,442.2
129.8183,500.7
129.8533,241.2
129.8723,122.7
129.8785,374.8
129.8917,101.3
129.8943,173.4
129.9102,88
129.9587,315.6
129.9951,79.4
130.0383,141.9
130.05,6042.4
130.0732,29.8
130.0784,17
130.0863,349
130.1112,18.6
130.1471,261.7
130.2426,141.7
130.264,111.4
130.2808,401.1
130.294,395.4
130.3069,257.8
130.3086,283.6
130.3165,86.7
130.3289,30.6
130.3448,128.3
130.3895,335.4
130.4357,670.4
130.496,348.6
130.554,332.6
130.6584,18.9
130.6887,93.5
130.7031,470.2
130.7228,166
130.7315,134.8
130.7848,361.6
130.7864,290.4
130.8295,19.7
130.84,191.8
130.8684,155.2
130.8911,164.8
130.9329,949.2
130.9791,136.6
130.9814,179.7
131.0003,146.6
131.0017,25.4
131.0049,132.8
131.0211,351.6
131.1106,349.4
131.1183,187
131.1296,210.4
131.1539,341.5
131.2477,243.9
131.3166,108.4
131.4396,100.7
131.4787,19
131.4894,106.6
131.5048,17.3
131.5092,499.1
131.5154,103.6
131.5803,682.1
131.5974,138.7
131.6245,186.2
131.6316,342
131.6345,20.5
131.6492,568.4
131.6569,98.1
131.7116,349
131.7379,84.6
131.7681,98.8
131.7994,363.1
131.8533,397
131.8848,92.4
131.8882,167.9
131.9265,390.4
131.9295,164.3
131.9465,445.2
131.9531,144.3
132.0033,32796
132.0235,286.5
132.0288,277.8
132.0578,206.3
132.0627,150.8
132.0656,97960.1
132.0768,6104.7
132.0851,618
132.1115,94.5
132.1507,90.9
132.1699,174.1
132.1819,231
132.1975,288.5
132.201,664.8
132.2241,18
132.2358,173.2
132.2846,93.9
132.3129,177.5
132.3165,89.8
132.4364,105.5
132.4472,274.2
132.5127,613.8
132.5187,689.1
132.5373,522
132.5606,504.6
132.5912,176.4
132.6121,159.2
132.6253,1042.8
132.6427,277
132.6507,78.2
132.6797,393.6
132.717,21
132.7189,194.2
132.7811,639.4
132.8032,16.7
132.8474,98.8
132.8695,17.8
132.9269,22.2
132.9288,202
132.9374,821.6
132.9443,208.6
132.9584,1568.9
132.9696,125.4
132.9874,2603.6
132.9959,24
132.9976,94.6
133.069,3332.7
133.0738,117.6
133.0764,468.2
133.086,22.9
133.0972,10875.1
133.1088,434
133.13,172.9
133.291,719.8
133.3377,433.8
133.4299,97.2
133.4334,117.1
133.4708,18.5
133.4887,73.9
133.5175,551.6
133.5843,127.3
133.6015,680.4
133.6484,641.6
133.667,91.9
133.68,101.8
133.7494,430.4
133.8077,27
133.8098,453
133.9596,646.4
133.9681,18.7
133.9815,26.8
134.0189,6562.9
134.0441,130.6
134.0858,271.2
134.1003,274.8
134.1046,184.1
134.107,388.8
134.112,77.2
134.1212,307.7
134.1827,358.7
134.1989,184.3
134.2009,389.4
134.203,160.8
134.2295,342.5
134.232,743
134.2355,87.8
134.2426,31.8
134.2547,323.5
134.2911,20.3
134.3505,383.7
134.3522,341.9
134.3799,251.9
134.3833,585.8
134.3868,156.9
134.3959,108.4
134.416,169.6
134.435,401.2
134.4771,139.3
134.4946,333.9
134.5097,20.7
134.5226,424.9
134.5611,229.1
134.6008,423.1
134.6342,94.7
134.6905,134.1
134.7254,404.2
134.7267,169.9
134.7321,496.7
134.8376,433
134.8852,104.9
134.8956,694.1
134.9111,469.2
134.9162,471.7
134.9239,29.7
134.9353,21.3
134.9531,18.6
134.9544,271.1
134.9647,96.6
134.9741,53
134.9893,200
134.9966,32.6
135.003,75092.6
135.0391,207.5
135.0795,94.5
135.0889,400.2
135.1169,60.6
135.1278,576.7
135.1848,463.8
135.3178,179.8
135.3211,329
135.3898,387.1
135.4478,158.3
135.485,166.5
135.5068,199
135.5203,32.2
135.6616,440.8
135.7011,494.9
135.714,83.9
135.723,92.1
135.7286,697.6
135.7441,469.9
135.7623,91
135.7675,610.8
135.7706,466.8
135.7921,365.4
135.8129,124.9
135.8825,85.4
135.8884,166.7
135.9355,200.4
135.9772,4485.4
136.0064,457.1
136.0112,170.1
136.0417,400.2
136.0483,8028.4
136.0757,7670.1
136.1091,93.3
136.1551,77.2
136.1677,201.3
136.1766,17.3
136.179,496.9
136.2148,154.8
136.2346,143.3
136.294,514.8
136.3079,131.7
136.3414,102.3
136.4263,632.8
136.5401,21
136.5661,343.2
136.5834,285.4
136.5902,34.3
136.597,83.1
136.6042,165.8
136.7641,492.4
136.7864,17.5
136.8976,255.1
136.9008,141.4
136.9057,359.1
136.9311,701.2
136.9532,228.8
136.9628,296.1
136.9672,275.3
136.9705,149.8
136.9778,335.2
136.9897,123.3
137.0598,23.3
137.1102,131.8
137.1853,748.6
137.1925,113.5
137.2546,354.1
137.29,243.2
137.2977,295.9
137.3044,342
137.3958,23
137.469,21.1
137.4717,19.3
137.536,204
137.5944,355.7
137.6043,223.6
137.6153,217
137.6357,330.9
137.6389,398.4
137.7215,625.8
137.7515,332.5
137.756,80.3
137.8625,422.1
137.8818,619.1
137.913,138
137.9944,280.7
138.0085,85.9
138.038,20.4
138.0527,5279.6
138.0661,26.9
138.1278,306
138.1742,139.4
138.2041,333.8
138.229,296.6
138.2329,174.9
138.2574,469.2
138.3335,108
138.3443,378.2
138.3675,304.7
138.3977,90.9
138.4624,329.6
138.4649,280
138.5212,471
138.5326,246
138.6046,16.9
138.6152,345.9
138.6516,383.3
138.6727,159.2
138.6986,490.6
138.7399,19
138.7584,263.4
138.7802,212.5
138.7958,118.9
138.8022,389.5
138.849,16.9
138.8761,539.7
138.9066,3079.9
138.99,330.7
139.0185,20.7
139.0459,637.1
139.0967,214.6
139.0995,93.8
139.1083,178.2
139.2056,144.1
139.3182,19.2
139.3216,375
139.3331,494.3
139.3472,92.5
139.3792,465.1
139.4072,222.7
139.4749,209.6
139.4953,189.9
139.504,566.2
139.5078,331.3
139.5212,312.1
139.5467,523.1
139.5997,123.3
139.662,139.7
139.6856,630.9
139.7003,160.9
139.7109,350
139.7492,90.1
139.7701,86.7
139.7714,620.7
139.8176,109.3
139.8604,86.3
139.9017,427.7
139.9423,255.5
139.9963,114.4
140.003,141.4
140.0166,4633.6
140.0411,181.7
140.0476,172.8
140.0632,19
140.0683,1498
140.0779,18.9
140.1478,350.4
140.1664,31
140.1728,119.8
140.1892,307.9
140.2162,395.3
140.29,648.8
140.2972,434.6
140.314,536
140.3153,163.2
140.4032,254.5
140.4208,178.3
140.4318,136.1
140.4378,284.5
140.5095,582.5
140.6621,132.4
140.6752,806.1
140.7058,406.6
140.7469,394.4
140.7563,266
140.7681,246.7
140.867,125.1
140.8826,117.6
140.9037,1416.4
140.9842,19.5
141.0006,19146
141.0199,225.4
141.039,303.6
141.0836,322.1
141.0938,127.4
141.1095,404.2
141.1301,123.3
141.174,363.7
141.212,160.9
141.3274,20.7
141.3933,131
141.444,433.4
141.4472,286.2
141.4561,133.9
141.4761,99.8
141.5731,126.6
141.6802,417.9
141.6896,18.9
141.7178,209
141.7402,470.1
141.7527,114.2
141.8173,145.9
141.8263,77.9
141.8712,20
141.9476,296.4
141.9521,415.6
141.9601,149
141.995,422.3
142.0001,21.5
142.0013,315.9
142.004,415.9
142.0124,167.9
142.0178,133.9
142.0687,167
142.0722,16.8
142.1017,18.6
142.2064,484.3
142.2142,245.2
142.233,425
142.2428,94.4
142.2934,186.2
142.296,21.5
142.2979,356.4
142.3073,400.9
142.3344,180.6
142.3848,18.6
142.527,283.7
142.5525,117.8
142.5761,277.2
142.6328,260
142.653,240
142.7029,674.7
142.709,104.7
142.7136,305.1
142.7327,218.9
142.8683,258.6
142.8963,118.1
142.898,212.1
142.9154,82.1
142.9307,20.1
142.9965,293.1
143.019,839.2
143.0317,719
143.0344,243.3
143.0503,671.4
143.0816,384.1
143.1002,78
143.1356,192.7
143.1582,138.9
143.1705,626.8
143.2818,412.6
143.299,237.7
143.3391,79
143.3757,575.8
143.4196,516.9
143.4615,461
143.5566,20.6
143.5834,571.2
143.5957,73.9
143.6293,238.6
143.7145,144.4
143.7705,29.6
143.7835,399.6
143.7871,152.4
143.7946,194.8
143.826,390.6
143.9041,501.3
143.9075,836.9
143.9402,94.1
143.9745,20.5
143.9793,19.1
143.9954,27.9
144.0108,1071.2
144.0179,287.1
144.059,389.6
144.0766,319.2
144.1019,794.1
144.1312,312.4
144.2059,560
144.2262,368.7
144.2842,118.3
144.3406,38.8
144.3936,242.7
144.4889,270
144.556,541.4
144.6615,168.9
144.6635,230.6
144.7044,114.4
144.7294,337
144.7302,364
144.7614,107.9
144.7967,95.9
144.834,110.6
144.8375,155.8
144.8466,262.7
144.8907,399.8
144.9044,132.6
144.9193,72.7
144.9591,17.4
144.981,4001.2
144.9847,307.3
144.9902,280.6
144.9948,25.4
145.0137,18.8
145.05,498.7
145.056,102.3
145.0747,201.8
145.1247,187.8
145.1666,105.9
145.1723,776
145.206,315.9
145.254,75.8
145.2623,90.7
145.3244,517
145.3417,160
145.3947,17.5
145.4175,17.7
145.4257,556
145.4471,885.2
145.4524,463.4
145.4906,307.8
145.5162,234.1
145.5199,434.2
145.6127,284.1
145.639,147.3
145.6768,420.2
145.6921,387.2
145.7569,390.8
145.7821,273.7
145.8094,192
145.8486,189.6
145.8901,112.7
145.8929,96.1
145.9222,83.4
145.9695,102.9
145.9727,331.5
146.0126,3736.1
146.019,20839.6
146.0264,98
146.0433,185.3
146.0451,283.5
146.0577,323.9
146.0821,134.1
146.1601,112
146.1737,214.5
146.3201,85.6
146.3494,547.2
146.4381,112.7
146.4509,83.5
146.5578,132.3
146.5634,460.8
146.5829,92.3
146.6764,114.1
146.6961,202.9
146.7008,108.2
146.7214,184.8
146.7969,116.4
146.8895,615.6
146.9054,30.7
146.9742,423.8
146.9776,801.2
146.9819,101328.6
147.0766,39976.2
147.083,714.9
147.1048,116.3
147.1129,23196.2
147.1169,815.7
147.178,138.9
147.1982,131.1
147.226,134.1
147.2735,17.9
147.3231,135.3
147.3613,248.1
147.3791,242.1
147.5043,82.2
147.5567,625.7
147.5892,559.7
147.5924,255.1
147.6528,146.3
147.7332,319.6
147.7393,273.8
147.7552,270.3
147.7609,22.9
147.7647,76.6
147.7708,97
147.8129,150.3
147.9748,117.3
147.9885,19.2
148.0064,113.7
148.1123,31
148.1262,175.7
148.1351,475.1
148.1682,21.7
148.1821,293.1
148.2488,326.6
148.253,312.6
148.3477,446.7
148.356,102.1
148.3846,298
148.5187,714.2
148.5321,821.3
148.5602,104.9
148.5838,180.7
148.6084,381.6
148.6228,203.2
148.7574,193.4
148.7881,100.3
148.8989,460.2
148.9275,83
148.9407,103.5
148.9433,78.9
148.9613,2382.8
148.9889,206.4
149.0026,55.2
149.0187,6184.4
149.0235,5152.5
149.0276,363.8
149.0452,29.7
149.076,308.9
149.1327,594.4
149.1688,175.6
149.2047,301.5
149.2271,684.7
149.4615,20.5
149.5249,187.5
149.5477,150.4
149.5533,374.8
149.678,256.7
149.6809,146.8
149.6895,512
149.7348,696.1
149.7741,150.2
149.8539,80.3
149.8587,333.5
149.9691,158.7
149.9766,53.6
149.9874,99.7
149.993,5573
150.0081,148
150.014,8453.4
150.0268,22.4
150.0531,170.9
150.0633,146.2
150.0715,387.6
150.0792,439.4
150.081,218.3
150.1855,207.2
150.1976,367.6
150.39,610.1
150.4187,222.8
150.4684,505.4
150.5038,139.3
150.5714,666.9
150.6691,131.3
150.7658,197.3
150.7732,646.1
150.9217,640
150.9671,403.3
150.9689,100.1
150.977,48826
150.9843,6604.7
151.048,1517.4
151.0922,371
151.104,275.9
151.1071,759.9
151.1553,151.2
151.1665,80.6
151.1771,229.5
151.1939,208
151.2282,249.6
151.3542,91
151.3731,167.6
151.4093,257.3
151.4231,123.2
151.4547,418.8
151.4779,407
151.4797,118.3
151.4821,92
151.4976,698.8
151.5465,19.8
151.6397,319.8
151.6751,116
151.7127,17.3
151.7291,208.8
151.7317,95.2
151.7395,254.9
151.8252,94.3
151.8546,182
151.8845,19.5
151.8955,92.7
151.8973,100.5
151.9114,386.8
151.9804,468.8
151.9847,67.1
151.9876,249.5
151.9924,19
152.0031,17.9
152.0222,6340.7
152.032,2001.3
152.0502,198.9
152.058,99.6
152.091,341.2
152.2603,160.4
152.2917,98
152.3724,147.8
152.4697,99
152.4846,33.5
152.4889,383.6
152.5047,353.8
152.5625,21.4
152.6157,318
152.6502,88.5
152.7171,112.8
152.7718,184.3
152.7747,486.8
152.8156,792.9
152.9002,224.1
152.9029,223.1
152.9084,115.2
152.9726,17.7
152.9752,1742.9
152.9847,55.4
152.9952,332.4
153.0335,221.8
153.0892,498.8
153.1143,79.5
153.1492,111.7
153.4195,820.1
153.4559,642.1
153.5957,196
153.6458,319.1
153.6624,149.5
153.6738,78.8
153.704,260.6
153.7657,92.4
153.785,139.5
153.7923,381.2
153.8595,248.5
153.9838,90.1
153.9932,94.8
154.0017,104.2
154.0114,441.4
154.0493,337.3
154.0589,7246.1
154.0654,183.5
154.1137,200.8
154.1386,17.6
154.1651,23.1
154.2055,19.2
154.2438,96.3
154.3334,110.9
154.3803,119.7
154.3933,216.6
154.4229,202.5
154.4323,241.7
154.4346,217.6
154.4625,312.6
154.4912,164.9
154.5277,18.2
154.5325,16.9
154.5716,130.4
154.6344,343.4
154.6814,20.1
154.8805,594.6
154.9175,323.5
154.9194,92.7
154.9424,18.1
154.9631,17.4
154.9693,1079.5
155.0155,32.8
155.0429,519.3
155.0491,128.8
155.0542,2962.9
155.0696,192.2
155.0729,186.1
155.0793,543.7
155.0893,191.8
155.1083,236.9
155.1203,118
155.1277,303.7
155.218,395.6
155.3117,177
155.326,423
155.3347,125.8
155.3958,172.5
155.4169,418.3
155.4328,403.9
155.5136,190.4
155.5536,169.6
155.5712,94.9
155.6276,376.9
155.6319,102.1
155.7857,20
155.8237,242.7
155.835,175.9
155.8515,381.5
155.8555,344
155.8591,654
155.8653,149.6
155.8758,35.6
155.9154,575.2
155.958,87.1
155.9607,573
156.0107,56.2
156.0292,469.6
156.0423,1761.4
156.0486,161.7
156.0577,64.3
156.072,129.4
156.0769,45016.6
156.1154,18
156.1302,572.6
156.1322,213
156.1601,86.9
156.17,330.2
156.1816,278.7
156.1964,308.5
156.2044,203.1
156.3261,211
156.3405,376.9
156.3567,992.7
156.4043,356.1
156.4092,636.3
156.5064,280.6
156.5348,205.2
156.5389,137.5
156.6521,626.9
156.6544,191.6
156.6781,76
156.6892,97.5
156.7151,18.6
156.7425,756.5
156.7669,451.1
156.7737,230.8
156.8362,272.2
156.8429,325.8
156.8967,690.7
156.9197,338.9
156.9373,206.7
156.9761,460
157.006,51.7
157.0388,232.2
157.0772,368.1
157.0805,705.4
157.0974,36.3
157.1285,17.5
157.1966,138.6
157.2328,246.2
157.2819,263
157.2942,628
157.3425,589.7
157.3899,105.1
157.4979,296.1
157.5232,292
157.5537,199
157.5937,124.1
157.75,269.7
157.774,93.5
157.7893,292.9
157.9103,184.9
157.9152,192.5
157.9184,379.2
157.9245,357.2
157.9439,183.5
157.9749,127.7
158.0093,142.2
158.0127,672.9
158.0273,3625.2
158.0296,721.4
158.0445,126.2
158.0666,234.4
158.0735,20.7
158.1093,18.6
158.1279,129.3
158.1379,663.5
158.1985,1093.7
158.2172,574.6
158.2371,76.4
158.2844,780.9
158.3455,651.9
158.3501,515
158.3646,470.9
158.3775,103.4
158.4072,18.3
158.4245,156.7
158.4435,304.2
158.5458,17.6
158.6093,158.3
158.6944,87
158.7214,174.7
158.8132,392.4
158.86,247.2
158.928,2304.7
158.9418,204.7
158.9643,12678.6
158.9743,20.9
158.9869,148.6
158.9967,7672
159.0135,114.2
159.0307,85.9
159.0377,19.5
159.0403,88.1
159.0409,93.1
159.0416,88.2
159.1171,37.2
159.2295,117.2
159.2706,100.8
159.2939,77.9
159.351,422.3
159.3565,115.5
159.4064,104.4
159.4578,87.3
159.4869,17.1
159.5291,623.7
159.5425,147.8
159.5568,101.8
159.6187,166.3
159.6277,222.6
159.6643,491.2
159.6756,151.8
159.7424,98.4
159.767,20.3
159.7834,24.2
159.7883,154.7
159.8026,170
159.8155,128.4
159.8173,101.2
159.8449,374.4
159.8812,27.7
159.9344,28.1
159.9405,220.5
159.9641,99.5
159.9894,259
159.9935,27.3
160.0232,86.4
160.0347,8263.1
160.0607,105742.9
160.0793,321.2
160.0967,626.9
160.1421,268.9
160.1493,193.5
160.2464,17.2
160.2641,145.1
160.297,278.5
160.3545,539.5
160.3994,333.3
160.4336,450.9
160.4429,209.3
160.4742,270.7
160.5349,19.1
160.5365,253.4
160.6223,439
160.6327,81.7
160.7297,368.8
160.7841,82
160.8059,159.3
160.9273,500.7
160.9552,93.5
160.9851,162.1
160.9925,179.3
161.0343,320.6
161.0457,199
161.064,4328.1
161.0996,183.5
161.1161,729.4
161.1287,1348.9
161.1327,1080.3
161.2297,621.6
161.2423,114.9
161.2568,360.3
161.292,296.5
161.2983,32.3
161.3485,173.6
161.3758,31.5
161.3979,246.6
161.4871,504.8
161.5688,386
161.5897,114.9
161.5928,115.2
161.6293,77.5
161.6384,675.1
161.6477,87.2
161.662,630.6
161.7178,181.6
161.7256,18.8
161.7444,410.8
161.8032,286.1
161.8623,430
161.9154,500.5
161.9215,117.7
162.0504,15587
162.0651,113.7
162.0852,382.6
162.1022,262.8
162.2317,344.4
162.2358,260
162.2432,18.4
162.3199,335.1
162.3702,18.3
162.3919,186.2
162.3995,468.1
162.4808,99
162.5613,365.3
162.572,666
162.598,188.4
162.6963,110.8
162.7741,207.4
162.8605,138
162.8777,251.7
162.9561,4467.1
162.9733,255.2
162.9775,374.6
162.9845,137.8
163.0157,4027.1
163.0567,362.7
163.1477,21.4
163.186,108.7
163.1999,161.8
163.25,329
163.2519,102.5
163.2809,94.7
163.4687,653.9
163.5129,451
163.5266,110.7
163.5391,82.4
163.5459,92.3
163.6463,473.8
163.648,102.2
163.6517,233.5
163.6893,235.1
163.717,78.9
163.7207,545.6
163.759,306.1
163.809,523.4
163.8868,253.6
163.922,474.5
163.9466,387.8
163.9516,90.1
163.9763,111.6
163.9998,74.5
164.0117,205.1
164.0297,9838.9
164.0781,124.7
164.0935,151.9
164.1191,121.1
164.2015,523.3
164.2656,144.2
164.2766,282.1
164.2816,172.9
164.287,98.8
164.32,201
164.3885,161.2
164.517,107.7
164.5367,631.8
164.5609,27.8
164.5974,24.7
164.623,152.8
164.6394,432.9
164.676,115.1
164.705,19.9
164.7719,27.7
164.7784,185.3
164.7877,330.6
164.8481,250.6
164.8681,282.8
164.8814,151.5
164.9207,5583.2
164.9303,13015.2
164.9353,1997.1
164.9612,350.4
164.9848,78.1
164.9928,3316.8
164.9961,20.8
165,579.2
165.0533,26.7
165.0719,248.1
165.0912,219.8
165.1822,21.2
165.4515,18.5
165.4536,451.4
165.557,413.4
165.6008,388.1
165.6117,106.8
165.6298,151
165.6426,721.7
165.746,184.1
165.8095,261
165.8889,26.2
165.9184,91.6
165.9448,209.8
165.9669,1547.7
165.9717,16.6
165.9791,1240.2
165.988,5883
165.9952,1846
166.0412,85.8
166.0605,214.1
166.0899,183.6
166.1519,140
166.1745,284.5
166.2163,548.1
166.2539,79.8
166.2628,328.3
166.3036,258
166.3141,81.7
166.3428,151.5
166.4098,498.7
166.464,106.2
166.5023,132.8
166.5043,19.6
166.5258,19.1
166.5342,338.4
166.5803,348.2
166.6453,270.9
166.6939,386.8
166.7314,235
166.7577,251.8
166.7622,546.4
166.7675,581.8
166.7969,241
166.9437,91.5
166.951,17397.7
166.9627,891.5
166.9791,50.1
166.9987,39
167.0004,97
167.0061,310.7
167.022,2807.3
167.0528,248.5
167.1076,247.6
167.1526,152.3
167.208,638.9
167.2097,126
167.2166,324.3
167.2664,90.3
167.2752,730.6
167.2779,87.2
167.317,254.2
167.3328,296.8
167.3804,30.1
167.4053,186.8
167.4397,18.9
167.449,337.6
167.4998,509
167.5059,17
167.5134,279.7
167.6482,75.9
167.6509,195.2
167.6637,230.2
167.6699,701.5
167.818,687.3
167.8789,85.4
167.9186,89.5
167.9381,20.9
167.963,254
167.9787,193.1
167.9901,166.9
167.9947,3380.5
168.006,459.8
168.0357,695.6
168.0855,101.8
168.1667,485.4
168.2407,267.6
168.2956,31.1
168.3747,130.8
168.407,93.1
168.4506,237.1
168.483,178.7
168.5048,96.6
168.5887,462.6
168.6127,90.5
168.6302,102.5
168.8038,98.1
168.8344,706.6
168.8622,154.4
168.8738,311.8
168.8929,333.2
168.9186,279
168.9254,77.1
168.9378,138.4
168.9491,1480
169.0586,41083.3
169.0651,1437.4
169.095,1426
169.0975,294.5
169.0994,337.3
169.118,108.3
169.14,597.9
169.1553,180.4
169.1957,107.4
169.2045,30.6
169.3676,277.1
169.4175,516.8
169.4208,168.1
169.4832,556.2
169.6383,203.4
169.7164,21.2
169.774,100.3
169.845,404
169.8605,222.5
169.9075,18.5
169.9299,17
169.9379,221.9
169.9719,90.8
169.9834,304.6
169.986,2255.5
169.9909,27.4
170.0192,423.2
170.0329,11597.3
170.0619,943.3
170.0724,583.3
170.0927,1474.4
170.1212,160.4
170.1582,483.7
170.1637,75.4
170.1726,680.8
170.1962,313.5
170.2345,17.7
170.4201,218
170.4949,110.7
170.4994,152.2
170.5321,318.4
170.5452,109.4
170.6439,424.5
170.6523,322.9
170.6605,17.8
170.6866,194.3
170.7608,496.4
170.7792,206.4
170.8429,195.3
170.8546,6197.3
170.8985,509.5
170.9143,227.2
170.9312,142.9
171.0169,1319.3
171.0284,313.5
171.0332,363.2
171.0479,290
171.0533,618.2
171.0568,142.3
171.0866,249.6
171.1012,417.3
171.1242,611.1
171.1431,120.9
171.1753,370.3
171.1824,478.7
171.201,111.1
171.2329,473.5
171.2621,126.8
171.2861,129.1
171.3336,86
171.4289,194.7
171.4728,231.2
171.4899,20.1
171.5275,85
171.5687,142
171.6652,84.5
171.7491,741.1
171.7791,18.8
171.8039,104.6
171.8178,169.6
171.8691,279.9
171.9675,401.3
171.9897,194.1
172.0285,979.9
172.0601,104.8
172.0799,191.4
172.0979,383.8
172.1474,17.5
172.2409,27.9
172.3124,75.5
172.4069,620.6
172.4104,146.3
172.4406,20.4
172.4623,189.3
172.4946,737.6
172.5122,698.7
172.5891,379.5
172.6594,615.1
172.7694,175.7
172.779,326.8
172.8013,449.9
172.8165,324.4
172.8516,3063.3
172.8779,74.2
172.9674,620.5
173.0165,17.9
173.0271,328.4
173.03,646
173.0968,167.5
173.142,112.6
173.179,185.3
173.1942,260.7
173.225,161.2
173.3285,19.4
173.4323,107.9
173.4707,20.1
173.4771,235.9
173.712,103
173.7128,106.9
173.7139,96.9
173.7168,533
173.7643,730.6
173.8701,127.3
173.9137,95
174.0007,33.2
174.0163,466.7
174.019,655.2
174.0506,975.2
174.0794,558.9
174.0836,753.3
174.0995,266.3
174.1249,428.4
174.1829,318.7
174.272,274.4
174.2778,487.7
174.2877,269.2
174.3662,375.3
174.4389,161.4
174.4648,363.1
174.4799,322.3
174.4876,323.3
174.4946,144.3
174.5597,665.4
174.5733,198.7
174.59,274
174.6696,196
174.6754,31.5
174.7709,313
174.8707,256
174.8769,147.7
174.9004,219.4
174.9384,4363.5
174.969,1356.1
175.0345,6505.2
175.0457,3073.4
175.1012,272
175.1193,51161.9
175.1505,259.8
175.1526,20.9
175.2059,622.1
175.2689,205
175.2922,314.4
175.318,16.4
175.4255,135.2
175.4784,492.3
175.4945,86.8
175.5167,577.7
175.5768,277.1
175.6238,107.7
175.6793,99.5
175.6861,18.1
175.7336,20.9
175.7883,192.5
175.8147,131.6
175.901,111.5
175.9235,165.9
175.9577,18.2
176.0001,815
176.0088,2725.7
176.0409,2131.3
176.0493,107.7
176.0661,20886.5
176.1226,1289.8
176.1473,161
176.1533,251.3
176.2632,659.1
176.3096,368.5
176.4856,209.9
176.5061,150.3
176.5796,378.8
176.6459,466.2
176.6556,129.8
176.6768,113.7
176.7468,20.6
176.828,102.3
176.8569,175
176.894,198
176.9213,18.7
176.968,302.2
177.025,2232.6
177.0614,3800.8
177.07,855.2
177.0874,299.4
177.0931,660
177.1869,121.1
177.2399,376.1
177.2577,288.4
177.3144,144.8
177.4897,544.2
177.492,106.7
177.5115,90.6
177.5214,614
177.6446,141.5
177.6485,402.2
177.7178,296.5
177.7321,566.3
177.7479,17.8
177.7662,336.6
177.7801,17.2
177.8424,182.5
177.9715,210.5
177.9911,23.3
177.9953,36.9
178.0015,129.6
178.009,9200.5
178.0164,81.1
178.0244,8785.1
178.0364,759.4
178.059,3258.2
178.1352,465.8
178.2488,111.4
178.3226,295.9
178.3636,19.5
178.3658,269.4
178.4642,101.9
178.589,444.8
178.6199,195.8
178.7469,107.3
178.7542,375.7
178.7741,120.2
178.8575,208.4
178.8931,68.9
178.9222,47.8
178.9403,326.2
179.0031,130.1
179.0886,182.5
179.1391,20.1
179.1402,18.8
179.1684,268.6
179.1996,649.1
179.211,210.4
179.2605,117.3
179.3795,143.3
179.4175,178
179.4275,101.5
179.436,98.6
179.4554,88.7
179.4601,107.7
179.4901,97.7
179.5837,82.3
179.6643,113.1
179.7543,132.4
179.9661,170.5
180.0036,6967.8
180.0108,112
180.0129,24.5
180.0166,419.3
180.0536,468.3
180.1179,323.3
180.1293,206.3
180.2051,159
180.2596,107.4
180.2699,245.4
180.333,353.2
180.3857,326.3
180.3945,91.7
180.4068,229.9
180.4425,267
180.5025,83.6
180.6037,181.9
180.6135,100.1
180.6738,374.2
180.7688,466.7
180.7837,83.5
180.854,446.2
180.8884,976.7
180.8947,4020.5
180.9042,7318.7
180.9073,19.5
180.9313,269.8
180.9397,34.2
180.9435,511.5
180.9576,609.2
180.9807,89.8
181.0096,36.3
181.0159,673.6
181.0182,497.9
181.0263,681.9
181.0528,18
181.0652,7962.3
181.0701,367.6
181.1156,422.7
181.1507,238
181.3037,616.7
181.4167,547.7
181.4691,745.2
181.4781,19.6
181.5196,307.2
181.5349,103.8
181.6014,97.3
181.6475,147.9
181.6667,101.3
181.745,349.3
181.8237,16.8
181.8489,19.7
181.8935,289.5
181.9232,87.9
181.9389,178.1
181.9514,415.3
182.0113,24.1
182.0156,19.4
182.0272,170.5
182.0427,35719.3
182.0545,17.5
182.0652,90.7
182.1966,332.5
182.2727,362.9
182.2818,19.7
182.3232,16.9
182.4339,104.3
182.4395,666.4
182.4535,76.1
182.4971,177.5
182.5468,96.8
182.5753,209.1
182.5979,108
182.6083,25.1
182.6766,161.7
182.7321,90
182.7366,424.8
182.8473,91.6
182.8843,103.7
182.9027,54.1
182.9979,234.5
183.0445,1617.4
183.0489,459.1
183.0855,19
183.123,107.4
183.1682,16.9
183.1837,812.5
183.3762,547.4
183.3852,111
183.4943,500.7
183.5182,473.8
183.595,78.2
183.6246,106
183.6624,186
183.6842,746.3
183.7161,92.7
183.7311,23.5
183.745,177.3
183.7783,132.1
183.7962,100.2
183.8489,90.8
183.87,141.3
183.9649,1233.8
183.9708,195.5
183.9779,534.5
184.0154,113.4
184.0341,144.4
184.0375,672.9
184.0737,4190525.5
184.0794,910.8
184.0821,462.9
184.0948,614
184.1037,290.8
184.1095,194.8
184.1296,246.3
184.1301,241.6
184.1827,302.6
184.2567,470.9
184.3243,380.7
184.3545,140.7
184.4327,85.3
184.4577,270.3
184.5349,220.6
184.6979,113.2
184.7058,95.6
184.7221,198.3
184.7419,105.2
184.7569,75.7
184.8546,164.7
184.8816,167.2
184.9073,142.6
185.0102,88.3
185.0326,45837.7
185.0373,24.9
185.0648,217.9
185.0706,8466.5
185.077,195486.8
185.0795,2865.7
185.1158,339.6
185.1244,193.2
185.1563,377.4
185.2554,212.6
185.2663,20.1
185.3843,292.4
185.4025,295
185.4201,19.6
185.5124,103.5
185.524,557
185.5417,142
185.5576,20.4
185.7182,20.7
185.7254,719
185.7817,17.9
185.9227,161.2
185.9601,1750.2
185.9802,346.9
185.9992,117.9
186.0112,352.8
186.0359,1366.1
186.0779,26970.7
186.0861,83.7
186.0948,31.4
186.1116,103.8
186.1928,19.9
186.1978,465.7
186.2111,279.8
186.2409,470.3
186.2531,100.8
186.3372,17.8
186.3951,28.5
186.5356,82.9
186.6132,138.8
186.6327,600.7
186.6718,187.2
186.838,164.5
186.8785,59.6
186.9123,4397.4
186.9798,478.6
187.0307,428.8
187.0581,13928.2
187.0716,940
187.0812,473.4
187.0991,265.6
187.1079,864.3
187.1906,281.7
187.2987,93
187.3144,19
187.3483,163.5
187.416,20.1
187.5196,384.8
187.5351,107.3
187.5466,153
187.5729,290.1
187.6254,248.1
187.6888,223
187.7367,124.3
187.754,186.1
187.7835,654.6
187.7886,348.4
187.813,95.4
187.8341,111.7
187.8859,23.3
187.8971,97.3
187.9137,105.6
187.9605,17.2
188.0656,350.4
188.0931,18.4
188.1156,192.5
188.1696,19.6
188.3088,132.9
188.3295,164.6
188.3869,18.8
188.4266,118.7
188.4949,356.1
188.5651,85.4
188.5768,106.8
188.607,84.8
188.6717,123.8
188.7393,321.1
188.7663,203.1
188.7936,251.3
188.8186,129.9
188.8506,18.5
188.8779,19.5
188.8827,563
188.9292,317.7
188.9399,418.6
188.9415,694.6
188.9421,670
188.9858,19.5
189.0082,21.1
189.0214,132.1
189.0277,202.5
189.0614,3424.6
189.0873,6612.6
189.0923,127.5
189.1159,94.1
189.2088,184.4
189.233,36
189.3853,319.9
189.4237,134.7
189.4686,181.6
189.4729,159.2
189.5155,119
189.5305,203.8
189.6108,218.6
189.6849,884.9
189.7219,211.4
189.7368,399
189.8531,82.2
190.0127,111
190.0194,320.4
190.0247,296
190.0322,17.7
190.0712,17.6
190.1685,287.7
190.2263,288.9
190.2425,153.7
190.2905,155.2
190.3301,17
190.3427,700.9
190.3962,21.4
190.7077,491.3
190.7628,101.1
190.8269,691.7
190.8728,604.1
190.9097,47.1
190.9126,1349.5
190.9446,18
190.9492,29.8
190.9949,209.6
191.0004,108
191.0084,2967.1
191.0243,31.7
191.0407,113159.2
191.077,20296.5
191.1589,144.9
191.2988,103
191.3182,101.8
191.3398,562.3
191.3673,92.3
191.3779,164.9
191.4422,124.2
191.4528,312
191.4793,114.6
191.4816,19.9
191.4909,615.2
191.5929,240.2
191.6316,115.8
191.6544,203.5
191.7588,262.8
191.8471,106.7
191.8599,96.2
191.8806,31.2
191.9097,678.3
191.9849,490.7
192.0113,34.4
192.0149,420.4
192.0401,12441.4
192.0441,2495.4
192.0792,311
192.1623,22.3
192.1742,371.1
192.2298,610.7
192.4078,144.6
192.4168,165.9
192.4344,263.1
192.507,173.3
192.5593,427.9
192.5686,395.2
192.7087,163.4
192.769,175.7
192.8409,571.9
192.8536,112
192.8863,136.1
192.911,81.7
192.98,664.9
192.9989,3099.2
193.0162,123
193.0354,851
193.0443,415.1
193.1892,83
193.3806,224.6
193.4505,18.5
193.4963,105.9
193.5015,189.7
193.5116,141.7
193.5808,790.7
193.5985,141.8
193.6035,293.9
193.7151,118.9
193.7832,17.8
193.8058,716.5
193.867,200.3
193.9536,185.7
193.9616,548.5
193.9836,208.4
193.9984,2068
194.0051,1375.2
194.0096,157.6
194.0331,700.1
194.0382,276.3
194.045,147.5
194.1464,150.2
194.1543,101.2
194.2116,17.9
194.233,171.6
194.2502,217.2
194.2773,110.8
194.2898,80.8
194.2962,184.4
194.3754,265.7
194.5941,510.8
194.6657,20.3
194.6721,99.4
194.7044,20.4
194.7748,274.6
194.8484,187.8
194.9042,314.5
194.9582,191.9
194.9621,337.7
194.9678,367.8
195.034,116.7
195.0691,76.1
195.1277,305.6
195.1503,372.5
195.1917,162.1
195.2131,470.3
195.2441,407.2
195.2554,296.3
195.2824,16.9
195.3648,252.1
195.5201,109.7
195.5418,599.9
195.5474,20.1
195.5584,35.4
195.5887,521.1
195.6088,92.9
195.6167,121.6
195.7169,19.9
195.7252,334.2
195.8616,212.3
195.9482,23
195.9776,1058.7
195.9819,28.3
195.9895,272
196.0205,200.3
196.0236,455.7
196.0794,367.4
196.1219,209.7
196.17,212
196.1777,708
196.2716,126.8
196.291,393.1
196.3033,107.8
196.3765,460.7
196.4037,18.6
196.4791,23.1
196.6091,267.9
196.6218,300.9
196.6821,143.3
196.7259,168.4
196.7609,350.7
196.8476,374.1
196.8506,118.4
196.8655,8323
196.8687,571.3
196.8782,1906.1
196.9328,284.9
196.948,323.4
196.9749,122.6
196.9929,549
197.02,157
197.0262,17.4
197.0328,348.5
197.0657,18.9
197.0693,115
197.073,308.5
197.124,315
197.1936,120
197.3022,106.4
197.3521,277.1
197.3839,260.2
197.4042,369.8
197.4393,319.4
197.4593,258.7
197.4868,196.4
197.4907,630.3
197.5106,162.5
197.5488,130.1
197.6108,273.2
197.6554,144.1
197.8184,290
197.8241,98
197.8655,102.8
197.8914,30.7
197.9436,368
197.9562,145.5
197.9745,225.2
197.9849,251.6
197.9977,21.6
198.0853,3334.3
198.1266,19.6
198.1857,5846.7
198.2602,31.3
198.3469,169.1
198.4269,634.6
198.4538,28.7
198.4727,432
198.5485,88.6
198.5796,98.3
198.6032,156.9
198.8625,7163.6
198.902,891.6
198.964,155.1
199.0034,81.7
199.0083,106.6
199.0137,124.1
199.0169,374
199.0699,378.2
199.072,100.6
199.0758,1339.9
199.0806,65.9
199.1022,174.8
199.1239,358.9
199.189,190.2
199.2309,114.3
199.3086,81.3
199.4446,77.5
199.4547,99.8
199.4697,103.4
199.4897,370.9
199.5366,17.1
199.5836,18.5
199.6855,118.2
199.7038,109
199.8123,338.4
199.8293,107.5
199.94,101.3
199.991,29250.1
199.9961,19.9
200.0338,29.9
200.0411,17458.5
200.0657,169.9
200.0894,8676.4
200.1033,217.9
200.1731,30.7
200.2293,340.4
200.3365,225.4
200.5331,16.3
200.6883,653.4
200.7172,416.5
200.8157,107.1
200.8597,1025.4
200.8762,518.6
200.8788,17.8
200.8947,2257.1
200.9161,21
200.9531,22.5
200.9671,514.3
200.9845,389.7
200.9945,463.3
201.0148,346.9
201.0548,379.4
201.0874,246.7
201.0928,18.7
201.1029,123
201.1077,127.2
201.1692,138.1
201.2269,207.6
201.2317,18.1
201.2357,92.4
201.2579,200.7
201.3022,231.4
201.3572,101.8
201.466,714.5
201.6291,19.3
201.6736,29.9
201.7771,536
201.8001,591.5
201.8374,17.9
201.8537,130.3
201.8651,282
201.8946,143.1
201.934,415.8
201.9426,450.1
201.9601,153.7
201.967,85.6
201.996,106.9
202.0167,133.5
202.0526,140.6
202.059,656.1
202.0671,92.5
202.0985,232.9
202.1073,19.6
202.1877,246.9
202.1921,338.3
202.2836,122.8
202.2878,20.3
202.3353,173.8
202.3554,140.5
202.384,105.6
202.4684,14508.2
202.5509,92.1
202.5728,166.1
202.5895,246.8
202.6637,170.6
202.6779,86.7
202.7003,92.9
202.7758,276.5
202.803,17.1
202.9708,111.6
202.9832,258.7
203.022,227.1
203.0322,8906.8
203.053,1303483.6
203.0603,536.1
203.0771,7505.8
203.0891,337.2
203.1033,84.8
203.1801,155.2
203.1915,101.2
203.4649,347.8
203.6214,134.9
203.7273,387.9
203.832,253
203.8823,411.2
203.8894,99.4
203.9462,61.5
204.0128,94.6
204.0247,38865.4
204.0322,105.8
204.0463,19.7
204.0564,69519.4
204.0603,438.5
204.1201,502.2
204.1342,114.1
204.2434,384.3
204.375,416.2
204.5354,300
204.6402,447.8
204.6862,355.7
204.7065,31.5
204.7959,122.9
204.8739,47.1
204.8891,752.9
204.9414,541.8
205.0283,120.8
205.0572,11249.8
205.1037,345.4
205.1426,308.6
205.1948,214
205.2156,337
205.3117,291.7
205.3818,106
205.4196,29.8
205.4688,341.7
205.485,268.5
205.5017,20
205.5214,248.6
205.5289,168.4
205.6276,95.7
205.7264,161.9
205.7557,182.5
205.7775,22.4
205.7886,183.8
205.8322,29
205.8399,258.9
205.8725,226.8
205.8894,55
205.9717,984.4
206.0478,165.7
206.0556,871.1
206.1079,95.8
206.1516,19.6
206.176,281.7
206.2254,653.8
206.2327,128.3
206.3274,754.6
206.4012,506.9
206.4458,136.6
206.4618,274.6
206.4744,231.5
206.5328,108.8
206.6732,94.2
206.7402,250.2
206.7462,380.6
206.806,18.5
206.8881,198.9
206.8943,17785.3
206.8978,17.9
206.9093,680
206.9172,322
206.9824,2191.1
206.9982,190.2
207.0057,113
207.0147,76479.9
207.0446,2563.9
207.0511,8573.6
207.0675,18.8
207.1538,280.5
207.1787,463.7
207.1978,21.6
207.2124,190.6
207.332,140.3
207.3428,20.9
207.3643,244.3
207.3784,17.8
207.3873,104.5
207.514,97.1
207.6396,363.1
207.6689,18.4
207.6769,141.2
207.6919,83.2
207.7688,538
207.7867,505.8
207.8448,169.2
207.8626,615.7
207.8668,494.4
207.8867,83.7
207.8978,355.5
207.9594,205.8
207.991,1786.8
207.9946,100.3
208.0141,2013
208.0181,1307.6
208.0437,21.8
208.0718,131.3
208.1037,425.8
208.129,108.7
208.1732,233.1
208.1927,305.8
208.1937,262.9
208.3808,119.9
208.4147,92.4
208.4439,106
208.4861,215.8
208.4903,450.6
208.5441,361.6
208.5725,167.3
208.6831,76.7
208.7114,158.2
208.7148,153
208.7304,377.8
208.8722,226.3
208.8835,2003.8
208.8914,15148.9
208.8992,509.6
208.9359,1387
208.9919,95.7
209.0076,123.5
209.0129,3044.6
209.0329,414.7
209.1765,20.6
209.2201,93.7
209.2528,156.6
209.4564,18.2
209.5527,604.3
209.56,239.4
209.5852,78.4
209.5959,175.1
209.6213,127
209.9132,17.5
210.2997,17.7
210.6748,291.2
210.7287,90.7
210.781,273.9
210.8186,101.8
210.8393,737.5
210.8673,19.5
210.8885,1188
210.936,366.6
210.9486,83.8
210.9536,104.9
211.0457,124.5
211.0571,731.2
211.0694,464
211.0735,102.8
211.1187,17.9
211.161,673.4
211.1743,33382.3
211.1778,31257.4
211.1869,2121.7
211.1897,368.7
211.1956,389.3
211.2024,112.4
211.3449,711.2
211.441,239.4
211.4772,179.5
211.6683,208.1
211.7136,257.6
211.7935,109.6
211.8342,274.1
211.8785,168.1
211.94,31.3
211.9465,21.5
211.9591,97.6
211.967,65.1
212.0253,157.6
212.0745,150.3
212.1233,20.9
212.1296,86.4
212.1414,87.3
212.1733,184.7
212.2643,91.7
212.2819,475.9
212.2905,473.1
212.3125,179.8
212.572,419.5
212.6379,382.4
212.7649,20.3
212.7705,21.4
212.8086,297.9
212.8394,2326.9
212.9053,134.2
212.9157,50
212.9365,19.8
212.9656,20.6
212.9784,441.1
212.982,288
213.0058,319.2
213.0361,103.7
213.0468,23.9
213.0479,22.6
213.0551,534.4
213.0753,439.5
213.1047,537.4
213.1734,119.2
213.2212,253
213.2602,290.8
213.3623,89.2
213.4372,92.1
213.468,326.4
213.5129,267
213.6485,705.8
213.671,326.1
213.7024,338.9
213.736,362.6
213.7801,466.8
213.7946,90.7
213.8166,392.6
213.8232,204.1
213.9624,2838.9
213.9849,278.9
214.007,631
214.0254,701.1
214.0593,3771.2
214.0901,1037
214.1595,297.3
214.166,338
214.1972,836.4
214.2259,501.7
214.2484,370.2
214.3342,284
214.5141,137.7
214.5259,20.7
214.5743,329.6
214.6104,103.2
214.6207,93.8
214.6622,340.6
214.8365,2759.9
214.874,365.5
214.8821,92.6
214.8906,177.9
214.8997,363.5
214.9102,512.8
214.918,595.3
214.9368,454.9
214.952,23.5
214.9658,71.7
215.0592,249.4
215.0607,296.4
215.0938,28.8
215.1394,30.1
215.1573,483.6
215.2496,106.4
215.3047,158.1
215.3262,373.7
215.3315,108.2
215.5492,499
215.5573,225.4
215.8221,360.5
215.8822,22.2
215.9105,55.7
215.9801,19.8
216.015,8761.7
216.0636,181.1
216.1597,379.9
216.292,486.2
216.317,431.5
216.3604,211.1
216.3886,283.8
216.4251,107.9
216.4334,298
216.4674,554.6
216.5041,18.1
216.5688,168.7
216.6025,348.9
216.6116,321.7
216.6134,327.9
216.8336,288.5
216.9111,19.4
216.9232,58643.9
217.0277,542
217.0793,214.6
217.0943,88.7
217.1067,27.5
217.1271,104.6
217.2312,140.2
217.2896,18.3
217.3424,604
217.3581,261.5
217.3843,194.8
217.4119,188.1
217.4314,92.6
217.4452,89.5
217.4798,171.3
217.4961,148.2
217.507,315
217.5385,86.5
217.6104,429.2
217.7669,98.7
217.7998,105.1
217.847,659.3
217.9265,500.9
217.9364,240.3
217.9903,20.2
218.0009,664.9
218.0225,409.9
218.1017,93.7
218.1522,59.8
218.1906,93
218.1992,32.3
218.235,108
218.2997,457.5
218.3211,178.7
218.4025,117.9
218.4147,274.5
218.4825,606.4
218.5751,311.7
218.6475,112.7
218.7422,29.7
218.8177,485.6
218.8678,240.4
218.9047,570.5
218.9202,15992.8
218.9534,367.6
218.9839,325.2
219.0178,519.6
219.0212,1047.2
219.027,1499879.4
219.0342,481.4
219.0363,410.2
219.0834,5089.1
219.1265,363.2
219.2591,999.1
219.2786,243.9
219.3457,23.7
219.3651,260.7
219.3802,18.2
219.4422,21.3
219.4582,288.2
219.5315,129.7
219.6468,195.9
219.6568,342.7
219.8123,376
219.8757,20.4
219.9914,113.5
219.9989,272.5
220.0122,326.5
220.0303,79245.4
220.0431,359.4
220.0674,3877.9
220.1246,84
220.1624,19.9
220.1676,528.6
220.2679,262.9
220.4147,271.4
220.4197,183.9
220.4308,328.7
220.4383,471.2
220.4869,527
220.5488,97.2
220.565,177.2
220.5734,175.9
220.5827,607.9
220.7234,520.1
220.8789,98.1
220.8839,36.8
220.9037,50
220.9324,22.1
220.9352,703.3
220.9722,440.3
220.9915,687.5
220.9979,832.3
221.0251,92253.2
221.0312,12383.5
221.0514,1185.8
221.085,87.5
221.1699,706.6
221.1786,234.9
221.2607,457.2
221.2684,112.5
221.3048,171.7
221.373,16.5
221.4155,278.9
221.469,98.6
221.5518,30.4
221.6312,265.4
221.6721,193.3
221.7048,174.1
221.851,93.6
221.8769,21.5
221.9487,137.3
221.9568,168.3
221.9841,2202.2
222.0103,247.4
222.0283,1821.4
222.1242,112.5
222.1657,327.4
222.1746,27.8
222.1857,98.6
222.2454,278.7
222.3045,697.6
222.356,125.3
222.7836,176
222.8081,311.9
222.8487,694.1
222.8683,20086.2
222.8755,101.1
222.8796,497.4
222.889,734.7
222.8992,753.7
222.9166,131.6
222.9311,22.9
222.9543,1926.6
222.9886,8956.6
223.0254,418.6
223.0297,392.7
223.0371,789.3
223.0573,893.5
223.1217,273.2
223.2067,443.2
223.2077,453.5
223.2095,269.9
223.2532,485.7
223.4086,97.2
223.6689,196.1
223.9154,435.9
223.9428,190.9
223.9459,598.8
223.9536,21.5
224.0054,157.9
224.03,1864.3
224.0458,215.6
224.0832,259.3
224.1164,129.6
224.2943,289.9
224.4044,20.4
224.4503,245.7
224.5022,167.3
224.5868,346.7
224.8394,131.9
224.8653,9937.6
224.8693,808.2
224.9278,126.2
224.9549,26.4
224.9584,469.4
224.995,82.8
225.0242,19.4
225.0551,25197.3
225.0855,305.1
225.0958,458.3
225.171,215.5
225.2378,160.9
225.2786,19.2
225.2928,189.1
225.3318,78.7
225.5003,125.6
225.5467,191.6
225.5669,107.7
225.7378,220
225.8789,114.6
225.9323,161.5
225.9353,151.4
225.9394,22.6
225.9519,23.4
226.0023,111.2
226.0066,1168.5
226.0246,8858.7
226.0455,4596.7
226.0585,120.5
226.0751,486
226.0907,450.7
226.1964,484.1
226.2383,19.7
226.3483,693.7
226.4215,153.6
226.5818,101.4
226.5843,81.6
226.5991,492.9
226.6482,454.2
226.6648,319.1
226.7694,203.3
226.7863,21.6
226.8008,137.3
226.952,48263.7
227.0093,331.8
227.026,255.6
227.0343,1439.7
227.0436,289
227.0793,1076.2
227.0867,105.6
227.0936,598.1
227.1185,465.4
227.1586,361.3
227.2168,129
227.283,95.9
227.4378,162.2
227.4562,773.8
227.4738,114.9
227.5204,92.4
227.5246,168.9
227.7222,935.5
227.8584,407.9
227.9552,908.7
227.962,320.6
228.0005,818.1
228.0223,1013.6
228.0568,403.7
228.0741,435.5
228.1385,31.3
228.1505,181.6
228.1639,303
228.1704,101.5
228.2088,471.9
228.214,102.1
228.2544,107.2
228.2922,539.7
228.3183,196.7
228.5877,86.9
228.6122,118.1
228.6822,425
228.7933,197.5
228.8142,385.1
228.8299,29.7
228.8487,320.2
228.8891,32.5
228.8983,376.5
228.9359,122.9
228.9477,521.8
228.9553,101.3
228.9606,174.3
228.9773,158.2
229.049,136.7
229.1174,489.9
229.1261,100.6
229.1321,139.3
229.1747,20.3
229.2356,371.8
229.3196,200
229.3236,180.1
229.3247,241.4
229.3262,172.6
229.3459,96.6
229.4243,182.1
229.4561,308.9
229.4663,158.1
229.5054,108.1
229.6054,85.1
229.8184,456.3
229.8573,103.1
229.8818,178
229.9108,112.9
229.9574,10233.9
230.0337,107.4
230.0386,222.2
230.3284,233.3
230.3447,238.5
230.3551,390.2
230.3924,556.4
230.4568,252
230.4754,124.4
230.5166,546.1
230.5812,205.5
230.5937,307.4
230.6225,239.7
230.6381,20.1
230.6559,288.2
230.7309,303.2
230.7663,231.7
230.785,763.7
230.8546,205.2
230.8905,465.8
230.9049,349.2
230.9178,144.3
230.9606,418.5
230.9673,259.7
230.9906,48.9
231.0539,286.6
231.2906,431.8
231.3046,597.7
231.3443,207.1
231.4423,172.2
231.4787,21.7
231.5348,370.3
231.5485,661.5
231.5849,355
231.6432,367.5
231.7098,361.1
231.8336,20.7
231.9029,635.1
231.927,338.8
231.9404,258.7
231.9532,242.9
231.9577,299
231.9732,215.7
231.9902,465.5
231.9954,1268.3
232.0297,18.1
232.0925,18.1
232.192,529.8
232.261,115.1
232.2805,35.3
232.2847,343.3
232.3102,337.6
232.3564,137.2
232.412,121.9
232.4401,495.2
232.491,245
232.5632,131.1
232.5824,18.6
232.6758,18.9
232.7136,173.9
232.7343,208.3
232.8677,111.7
232.8837,117.8
232.8971,40536.6
232.9859,351.4
233.0079,165.1
233.0513,7865.1
233.1346,524.7
233.1736,153.6
233.1992,803.3
233.3584,404.8
233.3737,106
233.4138,283.3
233.6028,35.7
233.6141,274.4
233.6875,557.6
233.7431,148.2
233.8886,506.5
233.8912,20.6
233.9064,273.2
233.9102,140.8
233.953,69.2
234.1415,148.7
234.187,101.8
234.2046,255.1
234.254,495.9
234.3276,278.5
234.3609,194.6
234.4174,198.1
234.4221,819.6
234.6954,385.2
234.7461,680.7
234.883,26.4
234.8941,12219.3
234.9003,22.9
234.9125,19.9
234.9414,19.3
234.9694,18
234.9819,6483.7
234.994,102.8
235.0014,85.3
235.0058,251.7
235.0573,3676.1
235.0667,1124.8
235.093,11263.5
235.129,649.2
235.1366,219.8
235.2006,459.9
235.3471,90.6
235.3559,257.6
235.3945,224.3
235.4814,196.9
235.5175,338.5
235.5749,225.3
235.6308,580.9
235.6903,544.9
235.7985,141.8
235.8344,85.7
235.8453,236.1
235.8603,270.6
235.865,269.4
235.9888,17.4
236.0214,911.6
236.0413,3374.5
236.0721,48144.5
236.097,130.2
236.1556,247.9
236.2585,85
236.3354,400.6
236.4117,783.3
236.4581,351.6
236.4717,28.1
236.5142,337.4
236.5667,103.1
236.6194,314.9
236.735,252.4
236.7696,107.9
236.7866,178
236.8804,797.9
236.9076,161.2
236.9148,54.3
236.9698,230.7
237.0142,94.8
237.0643,106.6
237.0704,55.1
237.0718,55.7
237.0754,1739.5
237.2357,119.1
237.4333,88.5
237.5151,480.1
237.5438,345.6
237.5552,734.2
237.571,586.7
237.6639,19.7
237.7021,20.6
237.8129,714.2
237.8402,175.4
237.9557,325.9
238.0679,678.1
238.0765,26
238.117,92.9
238.1291,160.1
238.25,97.8
238.3151,17.8
238.3623,173.6
238.3959,156.2
238.5021,101.8
238.5069,115.5
238.5297,734.1
238.5864,384.8
238.6384,371.4
238.687,140.6
238.8175,257.3
238.8422,5882.6
238.8962,216.7
238.9434,118
239.0095,5700.9
239.05,170.4
239.0588,228.3
239.0644,573.1
239.0683,1464.4
239.1397,133.7
239.1634,601.1
239.2375,32.2
239.2454,269.9
239.2956,94.5
239.3543,31.2
239.3662,178
239.3679,400.8
239.369,442.5
239.4795,103.6
239.5943,705.4
239.6328,136
239.6552,239.7
239.834,91.6
239.9188,115.6
240.0038,709.5
240.0952,314
240.4525,91.3
240.5868,23.7
240.7602,237.8
240.7987,134.4
240.8138,218.7
240.8393,3324
240.871,108.5
240.8947,486
240.9515,357.2
240.9552,658.4
240.9678,1782.4
240.9741,18.6
241.067,408.2
241.1732,95.9
241.2187,757.4
241.2297,88.3
241.279,169.4
241.2926,280.8
241.3112,307.1
241.441,706.8
241.4709,837.6
241.4773,168.6
241.5072,300.4
241.5154,404.7
241.5367,331.2
241.9778,95
241.9988,1648
242.0194,2962.5
242.0719,632.9
242.1272,255.3
242.1702,93.6
242.2349,282.3
242.2556,352.2
242.285,136.6
242.2893,820.5
242.4708,406
242.4906,608.3
242.5363,108.8
242.6034,471.4
242.7388,33.9
242.8134,76.1
242.926,27678.8
242.9763,24
243.0068,768.3
243.0327,210.4
243.0472,108.1
243.0536,6137.6
243.0657,11085.1
243.123,267.9
243.252,217
243.2856,343.4
243.3476,475.6
243.354,126.8
243.3557,137.4
243.4159,402.7
243.4571,480.3
243.5185,258.8
243.6357,117.3
243.7148,495.9
243.7579,471
243.7793,31.4
243.8176,674.6
243.8851,159.8
243.893,689.4
243.9731,3851.7
243.9917,267.6
244.0131,255.9
244.0491,46.4
244.1072,92
244.1622,540.2
244.2112,321.6
244.2657,195.4
244.3562,33.1
244.4052,75.5
244.4302,245
244.448,220.3
244.457,177.3
244.6707,138.8
244.7232,668
244.7872,420.3
244.8305,113.1
244.8434,107.7
244.871,4941.9
244.887,152.8
244.9239,998.4
244.9296,17.7
244.9773,265.4
245.044,173
245.2488,223.5
245.2826,371.7
245.3382,139.3
245.3673,365.2
245.5147,196.3
245.6565,697.9
245.6719,175.7
245.7648,257.5
245.8244,99.8
245.9278,152.5
245.9413,85.1
245.9503,371.1
245.9689,120.2
245.9736,137.3
245.9886,52.8
246.0018,71
246.0115,22.6
246.0285,149.5
246.3399,139.3
246.4264,111.4
246.5698,19.2
246.5887,377.5
246.6087,89.3
246.7007,472.2
246.757,99.6
246.808,89.6
246.8628,573.5
246.8686,929.9
246.9463,115.1
246.952,1001.9
247.0153,468.6
247.0188,21.5
247.0363,197.7
247.0405,162.3
247.0673,1087.1
247.0752,94.9
247.093,6067
247.2123,18.1
247.4401,177.6
247.4734,270.7
247.7129,147.8
247.7549,93.1
247.8359,170.1
247.9504,141.7
247.9679,625.3
247.9836,907
248.0965,95.2
248.1246,15068.5
248.1968,513.8
248.2959,193.5
248.3384,18.6
248.357,32
248.4395,145.5
248.4436,765.8
248.4601,385.5
248.5004,167
248.5062,184.5
248.5345,241.1
248.6114,141.7
248.65,770.9
248.669,18
248.744,150
248.8711,12647.9
248.9011,78.5
248.9128,345.7
248.9154,62.2
248.9489,112.5
248.9797,125.7
248.9993,1197
249.0157,1178.8
249.0245,104
249.0355,148.4
249.0616,15712.1
249.0755,135.7
249.111,144.9
249.1194,225.7
249.188,839.6
249.3119,116.2
249.3821,180.3
249.4644,785.8
249.5116,112.1
249.5245,204.7
249.6382,120.8
249.7396,106.2
249.7611,480.6
249.8129,217.9
249.8869,58.4
249.8999,320.6
249.9013,319.7
250.0377,644.9
250.0767,251.2
250.2785,645.1
250.2983,163.7
250.3705,28.6
250.3861,168.5
250.4052,137.6
250.4647,455.3
250.4954,100.3
250.5664,341.4
250.6122,87
250.674,276.1
250.6821,316.6
250.7825,233.6
250.868,2983.8
250.8942,218.8
250.9205,2234.4
250.9561,3633.4
250.9849,382
251.021,21.4
251.0346,557.5
251.1249,90.8
251.2245,416.3
251.3194,105.7
251.4325,405.6
251.4572,94.6
251.4677,142.1
251.5354,597.8
251.5917,478.1
251.7477,158.7
251.7791,357.5
251.9123,524.5
251.9801,181.6
252.032,178.3
252.0374,42.7
252.0461,102861
252.117,484.1
252.2252,357
252.3211,93.6
252.3596,147.6
252.4769,167
252.5179,910.3
252.5834,78.5
252.5939,422.6
252.6054,636.8
252.6242,100.7
252.7352,179.3
252.7504,233.8
252.8244,285
252.8778,461
252.8931,369.3
252.911,29.4
252.918,656.7
252.937,161.8
252.9459,417.9
252.9519,91
252.9846,101
253.0495,6925.5
253.0945,138.5
253.1024,21.3
253.1863,18.2
253.2486,305.6
253.338,130.6
253.4321,19.9
253.6266,104.4
253.7465,463.8
253.8138,521
253.9213,121.4
254.0443,2759.9
254.1025,20.4
254.1069,403.8
254.1207,94.8
254.1904,102.5
254.2717,130.3
254.4417,21.1
254.4938,184.3
254.5168,18.7
254.6559,223.1
254.7479,691.8
254.7684,34.6
254.7815,417.1
254.8075,469.9
254.8164,1658
254.8243,8397.9
254.8844,84
254.9865,215.4
254.9904,169.1
255.0254,214.7
255.0334,25005.9
255.0381,752.2
255.0414,672.7
255.047,564
255.1142,218.3
255.1728,685.3
255.1844,149.8
255.2697,257.5
255.3093,138.4
255.4992,284.6
255.6013,30.1
255.6799,556
255.7025,95.4
255.8331,485.5
255.9728,21.5
255.9786,1428.1
256.0037,1614
256.0586,40.2
256.0626,131
256.066,568.7
256.0875,375.8
256.1061,174.7
256.1313,24.4
256.1708,23.6
256.2681,169.1
256.3295,396.1
256.3855,516.3
256.4694,78.7
256.4785,200.7
256.6748,346.8
256.7162,447.8
256.784,87.6
256.8213,14062.4
256.829,151.6
256.8618,362.1
256.9165,22.9
256.9328,627.7
256.9553,19.3
256.9819,47
257.0225,166.5
257.0393,20
257.049,6307.3
257.0653,676.7
257.0701,756.1
257.075,42562.5
257.2807,148.1
257.3526,135
257.3815,250.6
257.4104,547.4
257.4883,631.9
257.5384,748.4
257.5632,395.6
257.6697,434.4
257.7051,202.5
257.8481,143.7
257.9115,136.8
257.9518,589.3
257.989,94.3
257.9956,94.5
258.0093,394.7
258.0305,1516.3
258.0683,115.4
258.0745,133.6
258.0785,1393.8
258.1106,13301.8
258.1205,109.5
258.2208,539.3
258.2408,458.9
258.2537,243.7
258.3085,293.5
258.3271,410
258.3611,109
258.4082,248.6
258.4787,106.9
258.5714,154.4
258.5972,94.6
258.6014,671.6
258.6143,378.3
258.7521,188.1
258.7687,1066.7
258.8184,5447.9
258.9,5106.1
258.941,138.7
259.1268,168.7
259.2019,578.9
259.3354,272.8
259.3421,765.3
259.4057,112.6
259.4187,103
259.5048,406.5
259.5224,111.1
259.5291,276
259.5412,84.1
259.9238,281.9
260.0598,153.2
260.0853,196.4
260.131,18.9
260.3731,442.1
260.4031,179.2
260.4604,359.8
260.5244,257.6
260.5668,20.5
260.8153,491.2
260.845,3014
260.8557,321.3
260.8788,24
260.8903,63.2
260.899,238.2
260.9496,7582.5
261.0459,339.8
261.0768,112
261.1373,329.2
261.1459,94.1
261.2144,18
261.2892,260.6
261.3485,118.9
261.3931,308.6
261.6072,231.7
261.7384,114.2
261.8001,285.8
261.8709,106.7
261.8918,364.4
261.9603,96.8
261.9846,857.6
262.0455,19.2
262.0493,131.9
262.3121,136.2
262.3236,609.2
262.3445,120.6
262.3725,17.7
262.3871,361.6
262.4696,103.7
262.5862,110.7
262.7815,356.3
262.8429,366.7
262.8955,21.7
262.9468,1699.1
262.9516,373.5
263.0136,333.4
263.0797,495.7
263.0855,3988.8
263.4172,503
263.562,178.9
263.5827,119.4
263.7436,30.7
263.8861,17.7
264.0182,116.8
264.0943,219.6
264.1801,105.4
264.1941,307.7
264.251,941.5
264.2692,45.5
264.6684,392.8
264.8185,108.8
264.8452,1943.7
264.8531,6837.9
264.8737,233.4
264.9123,119.3
264.9341,566.8
264.9733,443.3
264.9888,12736.6
265.0053,97.5
265.0167,117.1
265.0241,577.4
265.0356,8452.3
265.0477,2812.9
265.0639,146.9
265.0688,761.9
265.1671,97.5
265.2871,97.2
265.3469,145.2
265.3548,96.4
265.4708,84.6
265.6589,18.5
265.6696,149.9
265.7388,344.2
265.9312,134.9
265.9576,89.3
265.9787,355
265.9931,180.7
265.9991,20.6
266.0466,375.4
266.3591,106.5
266.4089,471.3
266.4462,19.8
266.6915,222.4
266.8502,6151.6
266.8949,1281.7
266.9593,101.6
266.9675,257.8
267.0221,307.5
267.0692,265.5
267.0726,20.1
267.163,478.2
267.2163,386.8
267.2619,19.7
267.3568,185.7
267.4105,268.5
267.458,184.1
267.513,96.3
267.6255,154.8
267.6476,459.9
267.704,100.1
267.8352,189.4
267.8456,143.7
267.8751,97.2
267.9747,94.8
267.9943,908.5
268.0067,53.6
268.0108,22.4
268.0302,942.3
268.2205,172.8
268.2385,398.8
268.335,112.2
268.4878,272.4
268.5252,171.7
268.6177,19.7
268.6452,177.3
268.6719,129.3
268.7972,131.8
268.8094,90.6
268.8473,1567.3
268.8628,22.3
268.8915,659.7
268.998,43.7
269.0127,23.1
269.0283,446.8
269.0344,122
269.0454,14944.7
269.0491,36965.3
269.1315,164
269.2831,271.2
269.3024,161
269.3438,17.5
269.4122,20.1
269.4686,674.4
269.4893,485.2
269.4967,28
269.5237,106.2
269.5626,159.9
269.5703,35
269.587,147.7
269.6032,227.9
269.6104,250.8
269.7085,413.5
269.7853,374.2
269.8656,374.5
269.9735,19.4
269.9899,385
269.9943,925.8
270.0136,381.1
270.0252,18742.9
270.0477,28243.7
270.1453,2217.9
270.1503,121.4
270.5707,101.6
270.6028,97.2
270.6416,611.4
270.7856,422.4
270.7982,4797.9
270.8088,155.1
270.9603,42.5
270.9784,13460.3
271.0069,367.4
271.0285,1399.1
271.0333,215.1
271.0511,219.1
271.0781,251.2
271.0907,1467.8
271.1172,348.3
271.1288,410.1
271.1577,690.4
271.2361,305.7
271.2928,432.7
271.3654,100.7
271.6238,338.3
271.653,669.2
271.7607,86.4
271.8793,249.1
271.9044,561.3
271.9083,27.7
271.9646,387
271.9682,706.7
271.9779,100.8
271.9993,412.4
272.021,618.6
272.0295,21.6
272.0435,90.8
272.0809,182.6
272.2724,347.6
272.3714,646.4
272.4528,89.7
272.5833,29.6
272.5933,163.8
272.7235,173.3
272.7953,5445.7
272.8246,42.8
272.8695,111.9
272.8991,417.5
272.9063,456.7
272.9285,266.2
272.9453,866.3
272.9891,255.3
273.0163,265.7
273.0211,97.3
273.0361,91
273.0491,1129.8
273.0859,300.1
273.1056,185.8
273.1303,239.2
273.3766,448
273.4373,371
273.4689,17.3
273.7334,224.3
273.7399,514.4
273.8251,27
273.963,12719.4
273.9874,362.8
274.0159,142.3
274.0696,93.7
274.093,1572.4
274.1028,362.8
274.1809,311
274.2331,172.2
274.244,274
274.2537,220.4
274.2983,340.7
274.332,21.4
274.3737,605.8
274.494,112.8
274.6089,457.5
274.7508,312.9
274.7863,409.5
274.7925,2664
274.8026,21.9
274.964,109.5
274.9832,23.9
275.0641,89.7
275.0959,347.1
275.1333,97.9
275.2005,103.6
275.2268,232.7
275.2349,355.9
275.2815,91.7
275.2931,75.9
275.306,245.4
275.3244,175.4
275.3851,364.8
275.4679,821.8
275.493,319.2
275.5118,496.1
275.6268,88.6
275.7061,156.7
275.7982,116.7
275.8178,353.6
275.8872,20
275.9182,249.5
275.9455,18.6
276.0038,50.3
276.0456,182.7
276.1111,195.6
276.1501,165.1
276.2918,152.3
276.3516,221.1
276.4014,329.7
276.4499,221.4
276.5913,801.3
276.6221,457.4
276.7084,216.2
276.8036,725.1
276.8193,22.8
276.8642,26.6
276.879,943.1
276.9009,172
276.9107,51.8
276.9235,6498.5
276.9381,178.4
276.9533,317.2
277.4991,226.9
277.5435,97.9
277.6484,374.6
277.7521,19.2
277.7968,164.3
277.8739,40.4
277.8799,181.9
278.0006,51.6
278.0194,455.1
278.0553,295.2
278.3543,375.9
278.4577,19.9
278.6136,591.6
278.8478,25.1
278.8892,57.4
278.9119,801.5
278.9205,562.3
278.9876,354.7
279.0045,1804.2
279.0456,109.6
279.057,34187.4
279.3266,773.6
279.3374,745.2
279.358,108.4
279.4428,95
279.4542,177.3
279.5037,96.3
279.5528,18.5
279.5661,90.6
279.6603,404.4
279.7224,19.3
279.774,397
279.8195,260.2
279.8337,751.4
279.8351,732.2
279.8375,543.6
279.8463,918.6
279.8565,274.4
279.9789,536.9
279.9988,22.8
280.0126,892.7
280.0608,245.7
280.0885,371.6
280.1026,213.5
280.2219,438.4
280.3419,360.7
280.3961,503.8
280.4358,774.2
280.4998,83.6
280.6177,468.2
280.6716,427.3
280.7086,112.2
280.719,114.1
280.7269,94.1
280.7621,269.3
280.8138,21.1
280.8271,2634.5
280.9319,93.2
280.962,148.1
281.0098,1535.8
281.0347,240.7
281.052,309
281.2009,179.2
281.2837,159
281.3452,540
281.4459,370.4
281.816,675.6
281.8739,158.8
281.8922,139.8
281.9566,90.2
281.9922,126.8
282.0153,113.8
282.0304,892.9
282.0652,366.5
282.0834,22.2
282.089,359.5
282.1469,18
282.5198,196.8
282.535,95.6
282.5689,140.8
282.6004,164.2
282.7912,30
282.8242,1835.9
282.8602,777.7
282.8687,416.1
283.01,385.6
283.0199,108.8
283.0285,2188
283.1365,26.8
283.1859,186
283.2617,190.2
283.3917,122.2
283.587,84
283.5997,367.2
283.6533,127.8
283.7413,107.1
283.7631,470.8
283.7798,332.8
283.8145,191.4
283.8489,133.3
283.9248,363.5
283.9371,106.8
283.9894,35.2
284.0007,31.2
284.004,44.1
284.0249,223.3
284.0531,25.2
284.0634,172.4
284.2674,122.6
284.2972,406.6
284.3746,207.1
284.4437,364.5
284.4582,221.2
284.6377,159.8
284.7465,387.8
284.8166,101.2
284.8239,19.5
284.9817,654.6
284.994,620.9
284.9995,399
285.0234,340.5
285.0799,220.4
285.1405,110.6
285.1704,124.5
285.1831,183.9
285.2172,94.9
285.2794,169.7
285.4392,145.3
285.4518,85.6
285.5049,550.2
285.5248,214.9
285.5412,156.9
285.6895,1012.6
285.7118,20.3
285.7558,614.3
285.9368,106.3
285.968,902.3
285.9844,18.7
285.9892,922
286.0201,4637.7
286.0642,555.1
286.0966,39
286.1332,434.1
286.1438,99.8
286.2488,152.2
286.5779,344.8
286.6207,213.7
286.7724,3104.6
286.7937,140.1
286.8033,24.7
286.8302,321.6
286.8693,570.3
286.9526,6102.8
287.0229,397.8
287.0558,33314
287.2097,112.3
287.262,527
287.2926,19.4
287.3013,449.6
287.6009,108
287.8908,148.7
287.9499,27.7
287.9914,271.2
287.9969,471.8
288.0161,122.4
288.0357,140.5
288.0592,1222.6
288.0848,128.5
288.1457,356.5
288.1561,13363.7
288.1788,273.7
288.2527,414.1
288.2677,86
288.2747,18
288.2792,541.6
288.3507,134.7
288.491,370.3
288.7693,3665.3
288.8316,23.6
288.8502,34.8
288.8551,63.1
288.8607,74.2
288.8707,140.1
288.8786,119.3
288.8818,116.2
288.8866,195
288.8943,453
288.8984,390.9
288.914,2131.7
288.9225,5421.8
288.9302,4618.4
288.9369,7654.8
288.9452,7362
288.9514,13043.2
288.9551,13529.9
288.9622,17787.2
288.9668,22362.6
288.9725,16285.2
288.977,17542.9
288.9808,16652
288.9858,18768.8
288.9913,16480.3
288.9939,17420.2
288.9984,11227.6
289.0042,11142
289.0079,9623.5
289.0131,4958.6
289.0258,861.9
289.0347,240.8
289.0615,122
289.0779,108.2
289.0887,18.2
289.0928,111.1
289.1048,421.4
289.1595,295.8
289.2228,101.2
289.4641,386.6
289.4723,19.5
289.57,34.3
289.6333,22.3
289.6635,371.3
289.7786,627.5
289.8005,165.5
289.8584,606.5
289.8967,124.6
289.919,24.1
289.937,1366.5
290.0171,185.8
290.0285,316.6
290.1009,53.3
290.3645,182
290.5738,689.9
290.644,278.1
290.7664,1951.6
290.7979,35.4
290.8354,57
290.8559,463.1
290.8902,54.3
290.973,283.2
290.9941,91.6
291.0271,1727.3
291.0713,85.2
291.089,95.5
291.1256,248
291.3394,113.9
291.3895,109.8
291.4286,96.9
291.4515,184.5
291.922,275.1
291.9323,783
291.9744,174.6
291.999,87.8
292.0802,60.2
292.1706,382.7
292.1732,375.6
292.4784,232.4
292.4879,785.7
292.5271,200.1
292.6358,178.4
292.7003,348.7
292.7574,492.3
292.8347,442.4
292.876,100.3
292.8971,804.6
292.94,116.8
292.997,117.7
293.0088,318.8
293.0728,2201.4
293.0804,180.9
293.0987,426067.4
293.1255,190
293.1793,3098.9
293.3539,116.6
293.5347,321.9
293.5681,397.5
293.6174,20.1
293.7037,360.5
293.7249,763
293.9272,80
294.0958,708.5
294.102,37059.3
294.3084,314.7
294.3903,18
294.4457,29.1
294.5781,721.5
294.9913,146.7
295.017,217.1
295.0256,330.9
295.0311,603.7
295.081,276.9
295.1028,3397.3
295.1952,25049.4
295.3084,342.4
295.3301,474.9
295.4168,373.7
295.5075,116.1
295.8739,23.7
295.9661,97.1
296.0105,756.8
296.0532,84.4
296.0668,373.9
296.1048,508.8
296.1611,232.9
296.1704,612.2
296.1984,2100.4
296.2898,104.8
296.4027,120.1
296.4848,130.1
296.4902,196.8
296.498,175.3
296.7257,86.8
296.801,385.2
296.8129,405.9
296.8584,64.3
296.9704,489.6
296.9786,194
296.9878,49.3
297.0597,18.3
297.0832,21.1
297.1091,192.7
297.3758,98.6
297.505,83.9
297.6314,313.3
297.7177,155.3
297.8705,29.8
297.8792,428.2
297.9767,129.6
297.9883,98.9
298,504.3
298.0056,22.9
298.026,1601.8
298.0428,16802.1
298.0536,409
298.0628,537.7
298.1103,27.4
298.177,92.6
298.2741,395.3
298.3491,105.2
298.3797,271.5
298.4211,470.4
298.6122,408.6
298.7688,320.1
298.8466,95.6
298.8535,19.1
299.0038,375.2
299.0306,18.5
299.0462,410.8
299.1396,5044.3
299.2335,192.8
299.5167,287.7
299.5576,391.4
299.614,220.2
299.67,165.6
299.7158,497.9
299.9339,198.6
300.0056,656.5
300.0237,127.3
300.0359,1197.6
300.0483,550.1
300.0759,507
300.1966,49.9
300.2881,360.5
300.3651,472.4
300.4345,460.6
300.4984,141.3
300.5841,128.8
300.7238,19.7
300.7965,270.2
300.8198,26.1
300.8491,21.9
300.9867,161
301.0128,114.8
301.039,19225.8
301.075,19.4
301.1275,127.2
301.1417,203
301.212,2906.6
301.2522,194.1
301.2728,434.3
301.4349,279.2
301.6655,152.9
301.7294,177.3
301.8365,213.5
301.9944,6677.3
302.0123,523.6
302.0204,1102.1
302.0358,49.7
302.0515,339.3
302.0645,3095.9
302.1539,284.3
302.2312,89.9
302.237,98
302.2566,20.6
302.2939,305.1
302.3034,454.2
302.336,100.6
302.3666,19.1
302.6443,381.8
302.6632,195.6
302.6679,537.8
302.6747,462.9
302.6854,455.2
302.6883,310.5
302.6933,285.4
302.7032,247.6
302.7169,30.2
302.7579,866.3
302.8136,281
302.83,3638.1
302.8493,80.7
303.0184,315.5
303.0291,20.6
303.0677,280.4
303.1182,143
303.2174,2053
303.3691,91.7
303.3993,329
303.4602,461.4
303.5659,381.8
303.7126,308.9
303.7317,357.3
303.7367,171.3
303.7458,154.6
303.7764,337.4
303.7914,93.3
303.9879,561.9
304.0602,90.4
304.1881,112.3
304.2602,427.7
304.4513,320.8
304.4676,146.8
304.7433,756.4
304.8139,70
304.8183,227.4
304.8271,2654.5
304.8562,31.2
304.8962,741
304.924,238.8
304.9762,331.1
305.0287,174.1
305.0472,230.7
305.0615,219.4
305.1953,391.4
305.3595,181.2
305.5876,23.7
305.6912,197.4
305.9118,112.7
305.9838,21.3
306.0378,31
306.0547,183.5
306.0962,56.5
306.1206,92.3
306.2725,678.2
306.3573,204
306.4439,925.9
306.4517,81.7
306.5775,116.6
306.6859,115.6
306.6907,250.2
306.7386,279.1
306.8037,341.6
306.8086,255
306.8425,61.3
306.8953,77
306.9582,1059.5
306.9777,3567
307.0187,242.2
307.0544,275.7
307.1154,857.6
307.1409,118
307.1463,748.6
307.2158,644.1
307.4399,173.3
307.4562,551.9
307.6763,376.6
307.7066,140.9
307.7919,108.9
307.8203,174.8
308.1921,496
308.429,215.1
308.4654,179.7
308.5759,549.4
308.6688,710.8
308.6994,156
308.7014,166.7
308.7999,270
308.8087,213
308.851,469.2
308.8798,2540.1
308.9467,140.1
309.007,128.6
309.0183,95.8
309.0378,3905.8
309.0474,161.7
309.0811,133.9
309.105,121.2
309.152,99.8
309.2814,371.7
309.3929,450.8
309.4668,102.5
309.5669,886.6
309.6372,762.3
309.8433,584.6
309.8545,335.9
309.9545,655.3
309.9782,193.5
310.021,59.8
310.0253,17.5
310.1847,283.6
310.2556,872.5
310.3075,294.5
310.3495,29.6
310.4608,156.3
310.4808,841.2
310.6846,185.2
310.7616,187.3
310.8043,26.1
310.877,3048.2
311.0037,79.6
311.0418,172.2
311.0561,320.1
311.0662,225.6
311.1677,1058.6
311.4484,123.8
311.4738,203.4
311.5842,84.7
311.6114,444.7
311.692,97.7
311.7906,134.3
311.8635,114.5
311.8959,123.3
311.9229,474
311.9996,144.5
312.0199,207
312.03,47.7
312.0417,1089.2
312.1712,61.9
312.1769,254.1
312.2978,245.4
312.3944,212.1
312.619,249.8
312.6349,92.7
312.7256,108.8
312.9069,409.9
312.9251,292.1
313.0034,383.7
313.0053,440.2
313.0084,433.3
313.0184,269
313.2745,36265.8
313.3528,18.3
313.6195,364.8
313.8031,18.2
313.8278,26.3
314.0152,5665.2
314.0916,117.2
314.0953,217.7
314.146,104.3
314.1851,111.7
314.2531,126.2
314.2601,451.8
314.2779,5097
314.3424,885.3
314.4271,265.4
314.4924,994.1
314.6695,152.7
314.6757,115.7
314.7674,30.3
314.7802,294.6
314.7988,183.4
314.8376,6889.7
314.8869,341.2
314.9422,21.2
314.9878,474.5
314.9995,5838.6
315.0186,605.6
315.0399,239.6
315.0458,741.6
315.048,815.2
315.0525,4494
315.0557,8208.4
315.0621,5481.9
315.0668,15692.6
315.07,20651.9
315.0724,16249.8
315.0806,8015025
315.0864,36112.8
315.0964,7212.8
315.1005,4499.8
315.1046,2456.5
315.1067,1840.7
315.109,1893.8
315.1106,1464.2
315.118,90.3
315.1195,123.6
315.1263,285.7
315.1617,5658.7
315.2203,541.3
315.2607,358.7
315.3241,8675.5
315.4752,94
315.4866,617.5
315.5744,272.6
315.6107,196.8
315.622,559.6
315.7512,116.2
315.809,667.1
315.8431,378.4
315.8639,157.1
315.8932,244.2
315.9438,42.1
315.9501,83.5
315.9712,196.1
316.0111,159.5
316.0534,299.3
316.0693,746.7
316.078,42157.6
316.084,838161.6
316.1118,334.6
316.1237,188.9
316.297,102.1
316.4472,28.7
316.6013,517
316.6722,19.7
316.6766,147.7
316.6857,177.8
316.7975,97.5
316.8871,83.7
316.9126,144
316.9873,1477.2
317.0446,189.1
317.057,674.1
317.0653,2164.1
317.0845,96576.4
317.2293,169.4
317.349,185.1
317.4662,600.7
317.5497,108.7
317.6219,112.6
317.6553,132.9
317.9772,164.3
318.0463,40.9
318.0823,176.7
318.0881,10078.4
318.1284,32.6
318.1652,282.4
318.1713,164.6
318.3843,19.2
318.5745,195.2
318.6413,37.6
318.793,824
318.8042,1807.7
318.8533,658.8
318.9077,1371
318.9345,347.2
318.9619,19.9
319.0156,186.6
319.1952,46437.2
319.2276,258.4
319.3804,669.1
319.5217,109.8
319.5262,1099.1
319.6152,768.9
319.8162,17.3
319.9779,408.3
320.0351,192.8
320.0456,20.4
320.0753,131.8
320.1985,4429.4
320.2592,2408.5
320.3287,428.6
320.3643,93.3
320.3762,120.9
320.5669,208
320.596,382.3
320.7382,86.7
320.8011,1432.1
320.8307,63.1
321.0065,404.7
321.0404,340.5
321.1648,269.4
321.2108,58602.7
321.2621,25.6
321.2703,119.5
321.3973,378.3
321.4438,643.5
321.5352,386.9
321.831,19.1
321.846,186.3
321.9621,20.5
322.0095,105.4
322.0564,177.1
322.1483,769.8
322.1821,112
322.2141,12424.2
322.2331,361.1
322.4181,280.9
322.4252,114.7
322.5617,168.9
322.6483,22.9
322.7905,165.2
322.8119,331.5
322.8229,23.7
322.8877,789.1
322.9323,590.7
323.021,8952.3
323.1437,167.5
323.1852,255
323.2265,2765.1
323.2434,602.2
323.3127,21.8
323.3387,131.2
323.3819,30.4
323.7221,466.6
323.7505,369.8
323.7923,21.6
323.8123,102.6
323.8556,217.4
324.0024,8594
324.0565,453.3
324.2251,168.6
324.2429,166.1
324.3185,330.9
324.3622,204.1
324.5771,466.6
324.5948,3985.9
324.6029,2228.1
324.6105,837.1
324.6199,510.2
324.6252,213.8
324.7051,154.9
324.7872,107.5
324.809,751.4
324.8278,110.4
324.8533,1549.8
324.9806,253.6
325.003,634.2
325.0307,172.5
325.1169,873
325.2123,7595.7
325.2972,224.4
325.3105,93.2
325.4908,93.2
325.5586,873.9
325.662,116.6
325.7974,96.3
326.1084,281.8
326.4924,125
326.5034,302.7
326.5513,21.1
326.6425,136.4
326.6776,19
326.7066,427.7
326.7535,96
326.7671,116.7
326.8063,483
326.8233,324.6
326.8318,276
326.8505,2110.3
326.8871,298.8
326.9245,257.6
326.949,266.5
326.9807,482.8
327.0161,4928.8
327.0525,2011.6
327.0606,689.4
327.131,80.3
327.2193,107.3
327.2278,16721.3
327.4709,133
327.5076,92.9
327.6259,505.9
327.6658,100.7
327.7133,325.5
327.8229,28.1
327.9004,19.9
328.0309,29.1
328.181,728.1
328.2307,1117.4
328.3057,22.2
328.3184,30.1
328.4195,449.4
328.429,504.8
328.4607,332.8
328.6969,168.4
328.8012,366
328.8145,33.8
328.8287,19.9
328.9724,593.3
329.0069,417.8
329.019,503.3
329.0965,2524
329.3177,89.6
329.4866,793
329.5472,232.7
329.6356,91.8
329.7943,109.8
329.8203,387.5
329.8403,20.1
329.8862,366.2
329.9439,205.6
329.9739,192.7
330.0093,745.4
330.0289,209.1
330.0594,116.4
330.4657,831.2
330.496,360.6
330.6272,177.9
330.7546,317.2
330.9312,188.4
330.9837,285
331.0198,2203
331.0458,106990.3
331.0546,1096922.5
331.2184,473.6
331.2877,30
331.3382,259.9
331.5363,118.4
331.6236,124.9
332.0133,244.2
332.0485,6345.8
332.058,97234.6
332.3391,203.2
332.5803,85.1
332.7514,274.6
332.7856,383.6
332.809,105.2
332.8774,438.7
332.9616,918.4
333.0024,230.4
333.0346,106.2
333.0527,64478.3
333.0582,11210.1
333.1517,47.5
333.2032,320.1
333.2172,117.8
333.4989,137.5
333.5082,183
333.5898,187.9
333.6002,17.3
333.629,123.7
333.7267,209
333.9157,98.6
333.9764,206.8
333.9819,160.5
334.056,5131.7
334.064,164
334.0754,100.9
334.0913,38.1
334.1221,100.6
334.2088,161
334.2698,19.1
334.4195,466.3
334.5845,802.9
334.6196,105.1
334.6357,594.7
334.6868,259.4
334.8029,32.6
334.8276,311.9
334.8373,87
334.85,106.4
334.9442,116.6
334.9847,130.7
335.0387,390
335.1676,4328.1
335.2285,777.2
335.456,87.9
335.4961,392.6
335.5168,361.2
335.6565,225.8
335.6748,353.9
335.7097,164.5
335.8333,198.6
336.0126,30
336.0791,254.5
336.1713,980.9
336.1953,360.8
336.2403,645.8
336.3331,243.6
336.3466,165.4
336.5615,872
336.6669,368
336.685,368.1
336.7795,85.8
336.7842,92.1
336.829,232.5
336.8426,95.1
336.8559,203
336.8792,332.6
336.9729,94.5
337.0062,225.7
337.0369,9888.4
337.0502,16132.2
337.0626,556257.9
337.1002,166.3
337.1832,2511.9
337.2744,4237
337.6179,461
337.9371,664.6
338.0508,278.4
338.066,51123.1
338.1291,501
338.1866,31
338.2781,580.6
338.3673,77
338.4497,105.9
338.4572,472.7
338.785,371.1
338.8913,26.5
338.9216,1845.8
339.0262,207
339.0389,2629
339.0474,361.7
339.0665,5066.8
339.1992,103.4
339.2514,6697.8
339.2902,4977.3
339.5589,489.2
339.6364,162.4
339.7784,261.6
339.9672,683
339.9765,1812.3
340.0652,19.4
340.5274,106.5
340.6106,111
340.6343,654.7
340.7117,183.2
340.7769,86
340.7831,1603.7
340.8531,772.4
340.9732,90.5
341.0203,18.8
341.0951,18.7
341.1333,181
341.1858,364.8
341.1939,465.3
341.2958,225.3
341.3056,4083.8
341.511,673.7
341.6724,448
341.7274,101.7
341.7586,169.6
341.8173,266.3
341.9941,385.7
342.0159,4663.3
342.0638,370.3
342.2292,454.5
342.266,89.1
342.3279,263.7
342.3999,20.8
342.4688,195.3
342.6253,94.7
342.815,124.4
342.8386,240.9
342.8698,688.8
342.9899,1508.1
343.0268,510.4
343.0343,317
343.0555,250.1
343.0658,164.7
343.1953,18775.4
343.2027,1147.7
343.2375,113.6
343.2764,177.3
343.3914,22
343.4805,275.6
343.9202,164.3
343.9892,490.8
344.199,2287.2
344.431,367.4
344.482,142.2
344.5042,122.9
344.5467,166.1
344.6168,470.1
344.8345,182.4
344.8624,93.1
344.8674,725.7
344.9677,497.6
345.0303,92
345.1127,32.7
345.1251,124.8
345.211,4164.4
345.2292,201.7
345.2568,280.2
345.3037,210.3
345.3191,726.5
345.4482,165
345.5744,419.2
345.818,22.3
345.8832,92
345.9183,166.1
345.9843,37505.4
346.0104,131.1
346.0213,632.1
346.0414,267.7
346.2197,18.7
346.4349,82.7
346.6727,303.1
346.6896,148.7
346.8045,434.5
346.8325,129.5
346.9881,1370.5
347.0182,2265.3
347.1743,95.8
347.396,338.8
347.4534,292.4
347.581,83.9
347.6639,155.1
347.7215,486
347.782,150.3
347.916,22.7
348.1856,273.2
348.3435,20.2
348.6681,157.5
348.6795,678.1
348.8226,75.2
348.9344,192.6
349.0186,2296.2
349.0408,99.9
349.1003,183.4
349.1094,84
349.2422,150.7
349.3619,373.8
349.4417,182.3
349.4941,18.5
349.7243,164.1
350.0149,22.7
350.222,180.1
350.2675,19.1
350.3616,170.1
350.649,400.3
350.6651,136.6
350.7689,88.4
350.8474,214.6
350.8799,431.3
350.9008,251.5
350.9468,335.9
351.0145,160.6
351.0315,652.5
351.1345,22.1
351.1526,313.2
351.162,18.4
351.2562,422.6
351.5796,30.5
351.5907,335.7
351.9582,178.1
351.9955,501.1
352.1849,111.7
352.3219,112.6
352.3927,289.9
352.4263,172.2
352.5199,85.4
352.5377,18.3
352.5513,30
352.6143,127.3
352.6791,178.7
352.7344,932.2
352.8003,177
352.8264,19.6
352.8582,330.8
352.8988,1581.7
352.9264,84.4
353.0277,120440.7
353.0366,185614.8
353.22,217.5
353.4447,564.3
353.4657,19
353.5842,192.3
353.7085,113.9
353.9821,209.6
354.0309,8697.9
354.0399,17818.7
354.1816,97.7
354.2384,18.8
354.4163,102.2
354.5288,131.5
354.8675,132.1
354.8952,1157.7
354.9805,115.9
354.9906,537.5
355.0124,769.5
355.0349,10695.5
355.0708,263.4
355.2776,19.6
355.3837,206
355.5288,383.2
355.592,455.3
355.9099,172
355.9412,22.2
356.0355,102.4
356.0706,38.7
356.2479,704.4
356.3077,156
356.4672,121
356.7025,504.2
356.7423,283.3
356.7689,127.4
356.893,508.5
356.9001,139.3
356.9347,93.4
357.0093,391.2
357.0205,326
357.1785,181.9
357.2375,138
357.4747,116.8
357.5051,182.5
357.5065,181.7
357.5562,30.9
357.5729,188.5
357.5911,163.4
357.6164,408
357.8109,80.8
357.8781,182.9
357.9554,21.3
357.9781,1203.7
357.9967,98.4
358.001,92.2
358.231,102.7
358.2401,351.7
358.5463,524.5
358.7209,199.9
358.7917,104.7
358.8444,821.5
358.9827,114.8
359.0073,304.5
359.0322,9654
359.0447,315520.7
359.0554,128.1
359.1676,1485.4
359.3272,123.2
359.3709,747.8
359.3875,144.9
359.4025,340.9
359.4111,453.5
359.416,190.1
359.447,305
359.4659,348.7
359.4854,269.4
359.4998,928.4
359.5154,301.9
359.5334,807.7
359.5445,54.1
359.552,364.7
359.5668,166.6
359.5737,822.5
359.5898,101.1
359.6429,96.7
359.6758,167.8
359.6861,112
359.8178,27.8
359.9311,158.9
359.9661,93.4
360.048,26859.7
360.0953,459.9
360.3249,121.2
360.4393,93.5
360.7198,22.7
360.8251,18.1
360.9523,708.2
360.9877,427.1
361.0122,276.3
361.0209,5559.3
361.0298,128
361.0492,1368.6
361.1023,243.4
361.1274,166.1
361.1831,69.9
361.2746,661.5
361.3126,316.5
361.3392,120.2
361.7274,22.5
361.7574,193.5
361.8318,729.7
361.8854,445.2
361.9583,9831.8
362.0241,116.6
362.1331,468.7
362.2491,138.3
362.464,126.2
362.488,442.8
362.8204,59.9
362.8693,214.5
362.9273,1838.8
362.9754,174.2
362.9986,166
363.257,285.5
363.353,109.8
363.3662,106.8
363.3946,90.4
363.4795,345
363.6195,143.9
363.7906,50.4
363.8261,104.2
363.9977,445
364.0154,81.7
364.2876,300.7
364.5866,101.8
364.6754,278.4
364.7733,18.8
364.8705,39.3
364.881,173.8
364.9137,19.7
364.9355,406.1
364.9442,442
364.9605,169.5
365.0109,189.4
365.1748,146.8
365.194,544.2
365.2288,110.8
365.324,175.4
365.3578,360.5
365.4346,85.4
365.7842,99.2
365.8314,659.8
365.9744,322.2
365.9869,106
366.2829,163.6
366.4206,174
366.447,128.2
366.6092,33.5
366.6835,158.3
366.699,377.6
366.8202,20.9
366.8737,405.1
366.9997,88.5
367.035,404.4
367.0519,112.3
367.1219,4996.1
367.1952,3432.7
367.3363,102.5
367.4409,18.9
367.5985,291
367.6129,121.9
367.8008,126.2
367.8263,275
367.9109,101.7
367.9921,1446
368.0035,671.1
368.1473,474.7
368.3088,207
368.3184,154.7
368.3633,357.4
368.4318,35.1
368.4824,245.7
368.5767,250.9
368.6828,281.3
368.6972,192.7
368.7543,156.9
368.8724,1057.5
368.9929,3295.3
369.0015,13955.9
369.0104,7460.6
369.0383,150.3
369.1883,174
369.2114,634.4
369.2553,80.8
369.275,263.7
369.2917,278.6
369.3525,211.8
369.5165,162.7
369.694,167.1
369.7047,128.4
369.7631,97.8
369.9635,31.9
370.0051,107.6
370.1116,156
370.2802,398.4
370.3768,179.1
370.4772,158.9
370.5621,324.3
370.7866,365.3
370.814,414.4
370.8805,792.3
370.8911,85.9
371.0004,2010.7
371.011,421.2
371.1017,305.1
371.1723,528.9
371.2544,19.1
371.2664,1012
371.3259,18.7
371.4054,153.4
371.5004,252.9
371.5286,109.8
371.5897,150.9
371.7375,22
371.7681,30.1
371.7943,95.5
371.8571,708.2
371.9916,104.4
372.0229,167.6
372.0483,247.1
372.1033,216.2
372.1177,264.7
372.1529,188.4
372.1853,213.2
372.2258,19.7
372.2316,128.1
372.4033,144.1
372.493,446.2
372.5935,94.9
372.63,21.6
372.6493,451.3
372.7114,198.4
372.7391,480.3
373.138,179.2
373.1686,225.1
373.32,171.6
373.4149,121.1
373.6132,1203.1
373.7478,466.3
373.8122,21.1
373.8492,448.6
373.8764,158.5
373.9506,42.3
374.0532,161.8
374.6292,496.1
374.6488,98.3
374.7362,481.1
374.9313,728
375.0097,121828.6
375.0186,94421.9
375.2144,208.4
375.2618,315.7
375.3393,20
375.3909,632.3
375.4911,159.1
375.5993,148.4
375.7877,495.7
375.8869,116.8
375.9038,100.6
375.9638,35
376.0131,7292.2
376.022,8463.4
376.1761,172.7
376.2791,191.6
376.2864,244.2
376.3511,219.3
376.4183,1272.4
376.5247,258.6
376.5907,83
376.6168,367.4
376.6361,661.1
376.6641,153.8
376.6706,579.4
376.6883,121.2
376.7605,18.2
376.8014,18.9
376.8356,36
376.9949,1593.6
377.0171,3088.5
377.0437,712.3
377.4733,127.7
377.6213,588.3
377.904,180.5
377.9135,152.6
377.9316,462.8
378.1267,23.5
378.3353,167
378.4111,339.6
378.4169,344.8
378.6024,93.4
378.6352,703.7
378.9006,711
378.9533,721.3
379.0154,123.6
379.1375,33.9
379.1554,192.8
379.2333,171.5
379.3369,240.2
379.3542,213.7
379.4405,106.5
379.7029,95.7
379.7637,138.7
379.8968,287.2
380.0016,78.7
380.0196,84.6
380.1839,529.1
380.2032,265.7
380.5002,153.8
380.5377,447.5
380.6676,20.6
380.7707,1379.1
380.7803,124.5
380.8308,45.8
380.9886,20.2
381.0141,19531.7
381.0267,186020.6
381.2316,805.6
381.6041,104.5
381.7001,463.3
381.7409,755
381.858,172.9
381.8887,268.7
382.0107,172.1
382.03,16303.7
382.0606,256.9
382.1995,236.8
382.2035,249.2
382.2323,107.5
382.3073,610.9
382.5811,95
382.7675,2108.4
382.897,167.4
382.9375,389.4
383.012,751.3
383.0289,377.8
383.1169,184160
383.2697,376.2
383.3528,537.3
383.4701,99
383.5078,536.6
383.585,113.2
383.6009,84.1
383.6922,129.2
383.8218,417.7
383.8647,190.2
383.9662,2310.9
384.0099,143
384.1203,23493.2
384.1811,430.7
384.2263,115.4
384.3384,370.1
384.396,19.5
384.5002,471.6
384.595,411.9
384.6519,139.2
384.7654,1497.2
384.8158,145.8
384.8436,164
384.9738,854.3
385.0382,333.4
385.0434,354.5
385.104,521.9
385.1138,616.4
385.1208,714.7
385.1369,120.3
385.1479,33.1
385.2242,378
385.3139,123.5
385.4417,378
385.4937,146
385.5191,102.8
385.7678,455.3
385.9068,147.4
385.9566,372.9
385.9636,88.3
385.9798,6029.7
386.0123,447.9
386.4969,238
386.5235,32.1
386.5658,158
386.7155,430.9
386.7798,323.3
386.9504,371.7
386.9748,372
387.003,1544.8
387.2239,153.7
387.4577,752.7
387.9787,916.3
388.0913,395.3
388.3731,317.2
388.4775,107.7
388.5277,282.5
388.668,94.1
388.6736,782.9
388.7131,1664
388.9918,98.3
389.0015,738.1
389.0376,848.7
389.0436,359.4
389.0502,118
389.2336,21.9
389.4738,279.4
389.5189,486.7
389.5455,672.7
389.5981,774
389.8053,130.8
389.8425,107.1
389.8993,421.3
389.9742,36674.1
390.1289,121.1
390.2809,106.8
390.29,85.4
390.3249,291.9
390.4761,120.9
390.6523,28.9
390.71,1055.4
390.7993,1541
390.8162,292.7
390.8422,151.9
390.8506,508.6
390.8683,691.5
390.9247,176.7
390.9747,10259.4
390.9834,20342.1
390.9925,10873.7
391.0241,91.1
391.1249,113.6
391.1524,764.3
391.3383,311
391.4755,469.9
391.809,107.5
391.9516,133.9
391.9767,646
391.9854,106.6
392.0055,73.8
392.1579,110.3
392.6486,193.3
392.7965,2784
392.9826,1689.2
392.9901,528.3
393.0598,176.5
393.5974,609.7
393.618,198.2
393.8103,369
393.8278,683.6
393.971,104.3
394.0316,185.4
394.2223,272.2
394.3318,169.7
394.3669,80.5
394.4991,205.9
394.5311,464.8
395.007,126.1
395.0554,90.6
395.1625,314.8
395.4859,522.5
395.5427,353.4
395.5513,259.4
395.9329,114.9
396.0673,168
396.0905,134.8
396.21,210
396.4009,30.2
396.7291,181.4
396.7445,1400.3
396.9797,631.4
396.9917,168440.9
397.0005,56474.6
397.1325,17.6
397.2329,78.7
397.4419,200.6
397.7039,298.9
397.8393,91.1
397.8566,600.7
397.8698,181.7
397.9677,68.2
397.995,13722.1
398.0038,2727.4
398.0336,270
398.1074,118.7
398.1994,24.3
398.2424,7893.4
398.3541,273.4
398.5433,256.2
398.5971,22.4
398.6259,291
398.7417,1816.3
398.763,2153.3
398.8066,684
398.8383,114
398.8762,199.2
398.8822,220.2
398.8894,335.9
398.9985,1119.8
399.1553,156.5
399.1757,22.6
399.2456,532.2
399.2662,1183.7
399.893,174.6
399.9808,278.5
400.0018,23.9
400.0309,404.5
400.0706,23.5
400.28,736.2
400.6658,267.8
400.681,112.2
400.701,475.3
400.7392,640.3
400.7578,167.3
400.8285,2576.3
400.9837,427
401.2919,128.3
401.6073,197.4
401.6167,92.8
401.6765,140.3
401.7229,29.3
401.9231,19.9
401.9458,22
401.9539,574.9
402.1994,353.9
402.4449,202.8
402.6721,505.9
402.6893,286.9
402.7884,96.8
402.8257,2372
403.0086,244983.3
403.0314,199.6
403.1145,195.2
403.4191,233.6
403.5023,342.4
403.6675,493.8
403.9149,696.2
404.0119,21059
404.2278,103.7
404.5338,51.8
404.6433,709.5
404.6866,950.6
404.7237,254.6
404.8559,138.1
405.0103,1208.5
405.0216,98.3
405.1875,167.5
405.3216,319.1
405.3258,394.8
405.3318,498.5
405.3464,77
405.4106,162.2
405.5813,711.5
405.5941,106.1
405.6272,499.8
405.6392,85.1
405.8583,351.6
405.9481,22228.2
405.9602,170.4
406.2661,168.6
406.285,735.5
406.3302,783
406.3683,88.7
406.5262,29
406.5421,17.2
406.6843,378.2
406.7062,16.9
406.7384,18.8
406.7733,1748.9
406.8592,18
406.9552,396
406.9757,30.1
407.011,288.6
407.0637,19.9
407.1443,279.2
407.3357,469.1
407.3774,150.9
407.4097,157.9
407.4189,491
407.6021,100.1
407.7207,393.6
407.8184,224.5
407.9458,115.1
407.9835,443
408.1345,213.4
408.2064,103
408.2545,465.5
408.405,745.7
408.6946,178.2
408.7485,170.8
408.7708,1585.5
408.8088,142.2
408.8246,16.5
408.8377,216
408.8907,103.9
408.9854,2810.5
409.0189,28.1
409.1716,294.9
409.1795,159.6
409.2087,197.8
409.3128,170.5
409.5025,129
409.5814,309.5
409.8217,546.2
410.0677,300.4
410.0942,92.6
410.1596,211.2
410.3406,270.8
410.4586,178.1
410.764,1242.7
410.8215,271.9
410.8575,958
410.9676,235.1
411.0067,191.8
411.2755,760.1
411.3169,474.1
411.4911,85.7
411.5023,353.3
411.5844,121
411.6812,99.2
412.007,658.9
412.2328,331.3
412.2536,267.8
412.3219,1183.5
412.3424,391.2
412.6213,883.3
412.6412,342.5
412.8537,662.2
412.8663,30.8
412.9276,41.1
412.9471,133.5
412.9652,36956.7
412.9746,10012.8
413.0445,140.7
413.1034,512.8
413.2675,3180.1
413.3253,143.5
413.3819,250.5
413.4263,595
413.6133,137.3
413.8277,456.5
413.8961,725.7
413.9404,263.9
413.9691,725.8
413.9942,377.6
414.0477,456.6
414.0943,199.3
414.2705,242.8
414.2793,370.2
414.3307,181.4
414.6502,331.7
414.7153,770.4
414.8014,184.2
414.8326,668.8
414.9642,1494
414.9737,175.3
415.0719,335.9
415.137,259.8
415.2236,486.2
415.4572,162.2
415.553,141.4
415.7665,24.7
415.8138,107.3
415.8731,650.7
415.9774,21.4
416.1359,11274
416.1757,137.4
416.2148,26405.2
416.3038,206.5
416.4452,666.4
416.7022,22.5
416.8016,1081.4
416.9606,154.2
417.0752,81.9
417.2177,2079.1
417.3164,375.4
417.3629,169.5
417.7495,223.1
417.7891,115.7
417.8627,29.4
417.9367,158.3
417.9794,21.3
418.0319,406.9
418.3217,313.7
418.6325,168
418.7075,388.4
418.8,1253.5
418.8087,384.5
418.8839,195.8
418.9825,84897.9
419.075,156.1
419.2262,23.5
419.2564,1666.2
419.4419,264.8
419.5359,496.5
419.6924,780
419.986,5044.3
419.9999,48.2
420.043,123.1
420.2042,465.7
420.2646,423.7
420.4705,814.7
420.4803,757.3
420.6015,110.5
420.6594,538.1
420.7793,391.3
420.8856,1107.4
420.958,1276.9
420.9686,420.6
420.9808,1708.8
421.0017,421.3
421.3291,273.8
421.4384,415.7
421.8333,26.1
421.9224,4327.2
421.9338,126.8
422.3042,263.8
422.4056,364
422.4385,103.4
422.5336,359.4
422.9019,130.9
422.9259,159.8
423.2478,28.8
423.3781,466.8
423.6812,115.4
423.7961,387.1
423.9437,173.9
424.2399,117.3
424.2763,141.1
424.305,139.6
424.3876,110.6
424.4216,261.8
424.4591,438.4
424.5089,493.9
425.1544,739
425.1784,286.3
425.6978,203.9
425.7216,401.5
425.7744,590.9
426.0827,238.8
426.1302,220
426.3566,599.4
426.3851,184.7
426.412,178
426.741,191.2
426.831,684.6
426.8955,94.4
426.9908,33.9
427.7769,412.7
427.8349,403
427.9695,172.2
427.9998,178.5
428.0725,171.4
428.1346,604.3
428.4102,425
428.6393,20.3
428.7476,227.8
428.7798,479.5
428.8338,28.8
428.9381,6047.8
428.9779,371.1
428.9924,265
428.9979,233.7
429.058,86.2
429.0898,250.4
429.1931,362.1
429.2638,423.9
429.3195,27.4
429.4167,297.1
429.5119,117.6
429.5692,144.2
429.7285,382.9
429.8737,19.4
430.027,218.4
430.1566,90
430.5761,79.5
430.5873,563.5
430.6901,363.5
430.696,410.4
430.8187,168.4
430.9158,2081.7
431.2183,2426.7
431.658,797.1
431.7124,110.7
431.8169,93.7
431.9342,238.7
431.9521,654.9
431.9917,249.3
432.3214,107
432.3305,265
432.3841,758.7
432.4004,427.9
432.4636,373.2
432.6077,196.5
432.6537,218.5
432.695,394.5
433.0637,186.4
433.2088,309.2
433.2502,39.1
433.6648,496.8
433.738,18.2
433.9168,184.1
433.982,115.3
434.0008,196
434.0495,23.7
434.0776,236.8
434.2746,219.2
434.4079,207.1
434.714,348.7
434.8593,157.5
434.8834,162.8
434.9566,15295.3
435.0446,387.3
435.1686,290.4
435.1915,316.4
435.2457,153.6
435.2758,353.2
435.5433,109.1
435.7685,533.5
435.8122,198.7
435.9601,769.4
436.0828,132.2
436.1023,240.5
436.1347,878
436.4092,135.4
436.4198,105.7
436.8593,965.8
436.8833,194
436.9344,20.9
436.9545,988.2
437.0022,405.1
437.0698,248.4
437.188,618.9
437.2166,164.1
437.3648,101.8
437.6275,20.9
437.7866,94.6
437.8922,505.4
437.9697,97
438.0169,389.7
438.1981,581.2
438.2731,203.9
438.4393,326.2
438.7472,25.4
438.9726,3649.6
438.9854,3774.9
439.4343,19.3
439.5693,209.1
439.6938,312.1
439.9694,414.3
439.9996,96.9
440.1568,184.2
440.2482,502.1
440.3351,29.9
440.5451,411.2
440.7266,619.9
440.9582,25.2
440.9823,463
441.2987,153
441.3141,106.4
441.5818,591.2
441.6169,129.2
441.6923,111.7
442.5726,95.3
442.5785,173.8
442.7231,438.7
442.8739,256.9
442.969,239.4
443.0288,437.8
443.1819,148.4
443.2149,399.2
443.2333,325.9
443.2533,1297.4
443.2775,133.7
443.9732,36.4
444.1172,19.5
444.2429,184.4
444.2535,32.3
444.3063,33.1
444.479,303.2
444.5481,99.5
444.5901,80.6
444.7311,76.5
444.7517,128.5
444.769,129
445.2343,1229.9
445.2698,1015.1
445.4883,484.9
445.5111,21.4
445.5249,85.6
445.5875,119.2
445.612,361
445.7161,160.8
446.3765,432.3
446.4154,216.1
446.5024,148.6
446.5545,144.9
446.6707,987.3
446.7753,288.1
446.8546,622.1
446.8883,912.1
446.9305,83.6
446.981,96.8
447.1021,179.5
447.1047,167.7
447.1424,495.7
447.1828,279.8
447.2139,22.5
447.2222,87.5
447.2885,51.2
447.2986,297.9
447.68,20.8
447.7553,386.3
447.9329,2176.7
448.2679,289.8
448.669,530.2
448.8462,127.8
448.9334,4013.3
448.9876,19.7
449.1549,2205.9
449.1955,82.7
449.2601,223.3
449.9299,118.1
450.0411,19.1
450.1584,436
450.3356,404.6
450.6881,164.6
450.8589,95.9
450.8721,168.9
450.9301,1486.9
450.9421,266.5
451.1339,369.4
451.1507,126
451.3979,389.8
451.8201,159.1
451.8752,365.9
452.102,469.5
452.1149,187.3
452.2607,844.7
453.1738,1600.9
453.2547,154.9
453.3021,102.3
453.4038,209.9
453.452,453.8
454.0341,631
454.0448,94.7
454.0572,443.1
454.1378,152.9
454.1778,384.1
454.1949,274.7
454.2261,111.8
454.7558,316.9
454.7604,316.5
454.9221,182
454.9505,38786.8
455.1611,332.9
455.3046,20.2
455.5877,135.9
455.7606,163.1
455.8344,790
455.9536,2899.5
456.0384,83.3
456.1215,318.5
456.3781,352.4
456.5817,122.3
456.6358,176.1
456.6999,1198.8
456.7636,810.7
456.9264,726.5
456.9476,8728.3
457.0101,116.8
457.1203,302.6
457.2336,8852.4
457.5061,439.9
457.5252,356.5
457.6521,462.5
457.7612,19.8
457.8951,355.6
458.0041,654.6
458.1789,267.7
458.1918,455.1
458.4523,102.3
458.5205,155.1
458.6977,729.4
458.7877,275.6
458.8042,232.7
458.8332,99.1
458.949,156.9
458.9626,2318.9
459.1038,86.1
459.1108,104.2
459.1755,145.6
459.2492,358200.8
459.4755,79
459.763,362.7
459.7721,184
459.7916,114
459.829,95.7
459.8938,397.7
459.9254,724.2
459.9452,74.1
459.9924,596.8
460.1322,22.4
460.2525,76942.5
460.4098,91.2
460.5709,74.9
460.6599,99.3
460.7015,104.6
460.7379,106
460.8527,130.8
460.9361,364.4
460.9673,75905.7
460.9808,425.7
461.035,213.8
461.2562,3560.1
461.3905,312.7
461.4467,356.7
461.4752,638.2
461.4824,253.8
461.9704,4756.5
462.0306,91.7
462.1554,385.9
462.2102,126.5
462.4677,347.9
462.9643,19096.8
463.1488,88.9
463.1665,760.6
463.2028,1375.5
463.2851,189.5
463.3259,104.6
463.4823,705.8
463.5345,313.9
463.7554,273.4
463.7714,174.3
463.7811,87.2
463.907,841
463.9682,1535.6
464.376,191
464.5111,83.9
464.9291,84.5
464.9793,8350
465.1635,18.4
465.5612,165.9
465.7753,125.2
465.8877,294.9
465.9036,648.9
466.0879,18.7
466.2108,283.1
466.2913,95.7
466.7291,1580.7
467.3079,26.2
467.3289,102.3
467.5653,177.7
467.7022,115.9
467.7136,139.8
467.8353,276.8
468.1117,241
468.1406,741.3
468.2677,176.4
468.3091,842.2
468.4116,210.6
468.511,669.4
468.6005,93.9
468.6462,105.3
468.7153,20.1
468.7264,453.4
468.7706,315.3
468.8245,183.4
468.9416,343.1
469.0186,234.3
469.1474,804.3
469.579,24.5
469.6808,263.2
469.7165,375.7
470.0351,251.5
470.35,454.4
470.4005,117
470.6064,163
470.8723,587.2
470.9243,18261.3
470.9965,2856.9
471.1963,123.7
471.2849,1061
471.3968,18.5
471.5121,171.9
472.1775,100.5
472.2005,164.8
472.2542,254.2
472.6785,678.9
472.6818,656.6
472.7386,496.1
472.921,4360.2
472.9391,426.2
472.945,446.3
472.9529,654.9
472.9733,19.3
473.1426,154.2
473.1499,118.3
473.2044,226.2
473.2648,2004.6
473.2993,104.8
473.5772,315.1
473.6301,565.3
473.8147,381.7
473.9632,21.4
474.4211,352.3
474.4407,100.6
474.5051,195
474.6716,455.8
474.8485,769.9
474.9506,389.4
475.0935,383.7
475.223,16600.2
475.352,113.5
475.4743,87.5
475.5685,631.1
475.7609,536.8
475.892,253.8
475.946,195.2
476.2268,3129.8
476.304,19.3
476.4897,156.7
476.5692,488.5
476.6191,750.6
476.7068,323.3
476.8585,208.7
476.8739,127.6
476.9412,46543.4
477.1743,367.6
477.2223,828.4
477.6748,21.5
477.8056,348.5
477.8893,20.4
477.9448,2650.4
477.9943,116.1
478.1507,357.5
478.3037,20.2
478.33,51698.1
478.4788,723.1
478.5152,164.3
478.6249,639.8
478.6873,22
478.7565,268.2
478.7793,21.7
478.8136,150
478.9384,13646.6
479.0977,22.6
479.131,98
479.1406,18.8
479.177,757
479.2061,160.5
479.2156,90.6
479.2769,197.4
479.3333,10762.1
479.3629,28.8
479.3745,474.9
479.8768,212.8
479.9414,842.7
480.0967,20.8
480.1296,347.6
480.7805,756.8
480.953,2082
481.0924,2149.9
481.2826,19.1
481.384,355.3
481.5355,192.8
481.6339,872.4
481.6776,165.6
482.0131,83.3
482.0961,316.6
482.1365,760.2
482.3614,937.3
482.702,183
482.7962,153.3
483.0022,190.8
483.054,111.6
483.1701,227.2
483.2491,85082.3
483.3224,530.7
483.4645,773.2
483.9776,456.3
484.0837,176.3
484.1628,166.8
484.2525,14198.3
484.3116,174.6
484.492,215.7
484.6978,257.1
484.7308,659.8
484.7814,20.8
484.9565,234.9
485.2648,88585.2
485.3724,633.7
485.4529,146.7
485.7275,340.7
485.8915,276.2
486.0127,290.9
486.2682,17342.7
486.4559,404.5
486.7401,40.5
486.899,1418.3
486.9532,20.6
487.2805,92519.7
487.3325,140.5
487.521,147.8
487.8729,144.2
488.0825,121
488.2836,18087.9
488.3053,104.3
488.3238,599
488.3844,615.1
488.894,372
488.9494,91.9
489.0834,124.2
489.2836,645
489.288,831.6
489.2966,525.8
489.3042,499.9
489.3105,153.7
489.3228,415.2
489.3555,1468.8
489.4022,188.4
489.4877,202.3
489.5082,183.2
489.774,202.5
489.8693,455.4
489.9267,95.4
490.0843,164.2
490.1924,89.9
490.2914,2857.5
490.4106,21.5
490.4302,162
490.6065,78.1
490.7161,934.7
490.7429,160.6
490.7535,117
490.8368,94.5
490.902,120.7
490.9768,224.9
491.229,170.4
491.3725,2486.2
491.54,111.4
491.6887,102.4
491.7289,280.7
491.9484,310
492.2424,382.1
492.2817,80.6
492.4402,134.1
492.5073,364.6
492.5461,695
492.8568,112.1
492.9152,6509.8
492.9406,95.2
493.0492,132.1
493.1578,20.8
493.2281,21.5
493.7232,134.6
493.7822,201.6
493.9893,85.6
494.0878,241.2
494.2132,510.1
494.2349,461.1
494.325,3059.2
494.4469,35.1
494.4657,21.8
494.882,99.6
494.9127,2804.3
494.9676,340.3
494.9957,641.5
495.0279,92.2
495.3268,993.6
495.5812,172.3
495.5985,133.8
495.845,449.5
495.9533,164.7
496.2464,129.6
496.3407,317989.5
496.687,101.4
496.9319,464.9
496.9799,639.7
497.0262,192.9
497.1481,18.6
497.2838,294.7
497.2999,407.1
497.3441,78816.8
497.4639,18.4
497.7676,169.3
498.0904,410.5
498.2566,699.4
498.3471,5933.7
498.3656,243.4
498.7375,203.4
498.8199,211
498.8473,99.7
498.872,24.3
498.9277,1074.6
499.2233,4488.7
499.5232,148.8
499.8792,535.7
500.0385,185
500.0508,157.8
500.176,439.1
500.4881,532.9
500.5234,119.4
500.5479,560.1
500.7109,31.5
500.7622,121.4
500.8817,232.6
500.9873,195.7
501.0796,137.8
501.2387,1900.3
501.3773,22
501.4423,132.6
501.5026,400.1
501.6856,183.9
501.8293,29.5
501.8762,389
502.1373,187.8
502.1795,491.4
502.2417,604.4
502.2939,520.7
502.3297,20763.7
502.538,218
502.9222,34.3
503.0703,136.9
503.2543,5172.8
503.3331,2410.6
503.4082,527.7
503.4574,507.5
503.5588,136
503.6295,194.9
503.6447,31.3
504.0349,462
504.0718,697.6
504.1127,379.7
504.2792,383.9
504.3073,2483.9
504.3451,10496.3
504.6296,923.2
504.8121,422.7
504.8443,155.1
504.9258,97.4
505.0324,104.6
505.0635,886.4
505.2328,1992.7
505.303,183.1
505.3489,2168.3
505.4801,303.5
505.5309,750.2
505.5582,160.4
505.6267,21
505.6739,670.8
505.8525,389.9
505.8913,864.2
505.9529,194.1
506.0191,127.8
506.1923,506.2
506.3613,9518.1
506.3878,135.1
506.8916,4387.8
507.2491,26366.1
507.3647,898.2
507.4874,88.3
507.5082,18.9
507.6139,222.2
507.8899,329.7
507.9695,394.2
508.2525,3165.1
508.3533,110.2
508.3757,495
508.4598,132
508.6695,160.2
508.713,557.1
508.7679,425.4
508.847,155.4
508.871,138.4
508.8894,2351
509.0052,2481.1
509.0814,364.7
509.2651,7176.1
509.2768,279.1
509.3373,594.2
509.624,464.3
509.6396,466.8
509.7957,480.3
509.8519,385.2
509.9871,365
510.0342,221.7
510.2686,863.3
510.3564,1807.6
510.4788,159.1
510.6594,370
510.7117,539.1
510.8038,106.6
510.8184,108.8
510.9035,593.4
510.9763,704.6
511.3389,784.9
511.3566,797.6
511.9697,494
512.1819,144.7
512.193,19.4
512.2532,535.9
512.2959,369.7
512.3348,300.1
512.4691,250.7
512.5218,90.4
512.6126,444.5
512.8614,143.7
512.9091,19930
513.0497,110.1
513.0646,20.2
513.1223,426.6
513.6232,665.3
513.754,21.2
513.9133,690.1
513.9312,302.2
513.9538,533.4
514.203,161.5
514.6159,76.7
514.658,692.5
514.6878,267.3
514.858,704.2
514.8735,114
514.9063,9574
515.0231,992.9
515.2949,20.6
515.3727,391.4
515.4535,194.2
515.5069,293.6
515.6203,297.5
516.1764,133.6
516.3072,13612.6
516.6561,430.1
516.7164,19.8
516.9211,1052
516.9526,338.3
516.96,405.4
516.9891,488.6
517.2417,107.5
517.3096,2187.7
517.3426,140.7
517.7178,31
517.8025,159.6
518.2656,438.6
518.2742,18
518.3227,631499.1
518.4558,168.8
518.9258,29571.7
518.989,140.4
519.0107,20.9
519.326,151603.1
519.4372,265.6
519.8664,17.6
519.9285,609.7
520.1502,179.9
520.1982,410.3
520.2502,34.5
520.2915,288
520.3302,16627.3
520.3408,67300
520.3706,355.5
520.575,355.7
520.702,102.6
520.9229,18195.7
520.9775,145.1
521.1729,927.2
521.1902,653.5
521.3323,537.5
521.3438,16548.9
521.3874,260.1
521.6549,275.4
521.8631,297.9
521.9264,964.8
521.9639,191.3
521.9775,538.9
522.3008,28.8
522.3563,84592.6
522.9202,1436.1
522.9378,4972.3
523.018,19.5
523.2921,490.7
523.3595,18854
523.6362,221
523.6838,413.8
523.7696,185.3
523.7756,127.5
523.8326,383.2
523.9467,90.2
524.0251,149.9
524.0356,43
524.0445,379.7
524.0586,183.1
524.2498,122.3
524.2706,104.9
524.3245,201.6
524.3721,104862.6
524.5081,216.2
524.6459,603.9
524.6877,434.5
524.6961,269
524.7436,284.3
524.8633,710.9
524.9349,1285.4
524.98,376.2
525.1776,682.9
525.2601,158.4
525.2793,274.6
525.3145,240.2
525.3753,24672.8
526.021,282.5
526.3301,5529.5
526.3793,1123.2
526.6141,39.4
526.7094,315.9
526.774,423.3
526.828,248
526.8683,22.6
526.8908,372.5
526.9935,380.7
527.1562,83.8
527.2986,430.6
527.333,696.3
527.6038,161.1
527.6615,241.1
528.1992,302.8
528.2316,706.4
528.3465,380.2
528.5871,301.7
528.8649,127.1
528.8829,7422
528.9549,2378.2
529.033,33.1
529.25,425.2
529.2618,430.2
529.5776,164.3
529.6694,526.9
529.9493,136.4
530.1895,28.4
530.3586,531.5
530.3783,442.5
530.4564,175.2
530.4686,22.8
530.7714,279.6
530.8571,18.2
530.8802,3943.7
531.0306,111
531.0856,188.8
531.2211,3041.4
531.2488,2738.2
531.6089,92.3
531.8535,318
531.8917,345.1
531.9074,77.2
532.009,128.6
532.1287,195.3
532.2516,1563.5
532.2804,3266.4
532.3384,8755.6
532.8768,408.3
532.9112,756.2
532.9678,771.4
533.0079,211.1
533.3416,544.5
533.4021,381.7
533.4393,108.9
533.523,200.6
533.8209,436.2
533.9303,450.4
534.2967,159228.5
534.3158,659.4
534.5119,835.5
534.6241,494.4
534.6563,157.8
534.7168,371
534.8998,18637.2
535.0212,186.7
535.3001,36739
535.4991,96.2
535.5604,206.8
535.5805,89
535.7208,141.9
535.9035,495.1
536.2947,7858.2
536.3341,474.8
536.5288,168.9
536.5634,125.2
536.6924,380.8
536.8971,11152.4
537.0431,832.5
537.1645,227.4
537.1947,30.3
537.2861,183.8
537.2995,1307.3
537.3341,360.3
537.501,452.8
537.5899,17.4
537.6373,282.2
537.9007,367.5
537.911,100.3
537.9793,97.3
538.0507,126.4
538.0577,186.8
538.0613,189.6
538.0815,365.5
538.2157,196.8
538.3634,175.9
538.6566,86.1
538.6754,93.4
538.8472,300
538.8937,1271.4
538.9119,2242.9
538.9318,579.4
538.9859,987.1
539.0691,779.2
539.281,19.8
539.5041,102.4
539.6274,102.2
539.9181,542.4
539.9524,367.2
540.1745,102.5
540.1857,33.9
540.2314,310.6
540.4375,807.8
540.473,785.8
540.659,207.7
540.91,356.4
541.545,120.6
542.1892,86
542.3227,124131.6
542.7106,98.7
543.0093,233.1
543.3261,32591.9
543.4031,3569.4
543.7144,23.7
543.7763,654.9
543.8049,382.5
543.8372,113
543.961,502.9
544.2741,1540.7
544.3385,155943.6
544.5873,391
544.8577,1003.4
544.9489,1183.1
544.997,194.8
545.2375,218
545.3418,40052
546.0463,94.9
546.1695,129.8
546.1899,90.6
546.2556,488.8
546.3541,191215.9
546.5831,108.3
546.6042,122.5
546.6222,435.1
546.6421,273.8
546.8536,1309.3
547.0349,349.1
547.061,661.6
547.0739,21
547.3576,49111.9
547.8829,311
548.0035,157.4
548.2322,186.5
548.3124,1893.9
548.3601,6070.8
548.7789,101.6
548.9419,569.2
549.0176,549.1
549.4136,130.6
549.7172,256.7
549.8198,238.6
550.0094,692.9
550.1285,193.7
550.2433,408.1
550.5458,18.6
550.8738,3235.5
551.5532,427.1
551.5762,548.2
551.694,172
551.9819,93.2
552.2111,149.8
552.2819,41.1
552.3581,105.9
552.7384,299.9
552.8706,1977.9
553.0373,140.8
553.0642,701.9
553.8264,84.3
554.2826,145
554.3097,85.5
554.4748,21
554.6763,173.9
554.7495,519.2
554.8593,570.7
554.9178,124.7
555.0813,270
555.3986,366.6
556.2632,113.2
556.2979,47.1
556.5658,498.2
556.8846,534.3
557.4949,210.8
558.2969,29670.5
558.3132,180.6
558.4451,501.6
558.4575,99.6
558.5743,360.3
558.8989,184.5
558.9593,362.2
559.2999,5716.6
559.3851,169
559.6104,652.9
559.7163,21.3
560.0085,121.5
560.2942,864.1
560.3124,38633.4
560.7369,210.8
560.8822,337.6
560.9225,372.3
561.0412,145.3
561.2383,223
561.3156,9853.3
561.3496,407.9
561.4139,5472.4
561.4641,525
561.4875,126.3
561.5033,392.3
561.7492,20.4
561.8972,106
561.9117,19.4
562.0958,477.4
562.1207,179.7
562.1665,358
562.2591,21.6
562.3113,1468.2
562.328,39660.9
562.3735,138.9
562.4159,1020
562.8158,261
563.0004,175.3
563.1011,148.1
563.1893,395.9
563.2007,260.7
563.3006,270.5
563.3317,9624
563.4291,6350.9
564.0173,146.9
564.1996,331.9
564.307,1422.3
564.3267,1774.5
564.6585,183.2
564.7136,110.8
564.849,622.1
565.1008,270.4
565.8132,166.5
566.0015,102
566.323,37760
566.4483,347.8
566.4835,120.8
566.7322,260.9
566.8561,325.6
566.8781,270
566.9213,86.4
567.3261,8010.4
567.9673,548.1
568.245,913.3
568.3389,15495
569.021,40.4
569.3415,4206.1
569.4496,45.9
569.4784,689
569.536,175.1
569.5444,148.8
569.5833,215.8
569.9085,512.5
569.9936,622.1
570.3519,1282.5
570.8677,5717.9
571.0589,865.3
571.33,110.5
571.5332,345.3
571.8708,348
572.3082,542.1
572.4684,20.6
572.6557,102.1
572.8648,6911.1
573.0441,208.9
573.2222,632
573.8657,152.8
574.0808,19.3
574.1774,702.6
574.2304,217.3
574.2851,1163.7
574.304,419.9
574.3226,758.1
574.5772,18.1
574.6162,311.1
574.7327,268.1
574.8629,384.4
575.4173,276.2
575.4233,376.6
575.4294,255.6
575.4794,499.2
575.5045,7149.4
576.2814,5145.4
576.5067,33.2
576.5905,795.1
576.6019,113.7
576.6924,157.2
576.705,354.1
576.8847,9818.3
577.0395,459.4
577.0507,210.6
577.2706,195
577.2839,628.8
577.5204,391.7
577.7035,206.8
577.7505,120.7
577.8915,21.3
578.044,150.2
578.162,116.4
578.2186,18.7
578.2772,501
578.3135,126.6
578.407,220.4
578.8821,8117.9
578.9372,717.2
578.9957,729.6
579.0176,461
579.2109,500.1
579.2743,280.5
579.3003,90.3
579.885,430.7
579.9012,213.8
580.0169,84
580.2225,574.9
580.2882,504.5
580.401,717.1
580.8789,2169.3
580.8973,985.9
581.4426,139.7
581.679,253.8
581.8221,20.4
581.8996,484.7
582.0008,168.7
582.0974,21.3
582.1455,881.8
582.1837,353.7
582.1982,158.8
582.2118,722.4
582.2261,21.9
582.2471,194.4
582.2534,446.6
582.2575,442.5
582.2968,7464
582.3247,457.6
582.3715,250.2
582.3954,93.9
582.4524,261.1
582.4889,542.2
582.5092,103.7
582.5602,19.9
582.703,337.5
582.7785,115.7
582.8943,1622.1
582.9703,425.1
583.0263,704.7
583.086,183
583.2564,2622.2
583.3014,518.8
583.3234,461.1
583.3973,465.8
583.422,99.4
583.5198,407.7
583.7915,116
583.841,130.5
583.8708,675.7
584.0174,232.6
584.3126,1097.7
584.418,117.3
584.436,215.5
584.5306,106.8
584.6078,252.6
584.646,315.4
584.8996,177.1
584.9137,195.4
584.9266,446.7
584.9841,123.4
585.0531,382.7
585.1299,93.1
585.2719,2784.4
585.5345,678.6
585.7479,409.9
586.3106,3934.9
586.3269,90.9
586.4495,664
586.7565,182.7
586.8414,2289.9
586.9137,1326.3
587.0467,224.7
587.2499,220
587.8614,914
587.9036,135.6
588.0268,97.4
588.4721,89.5
588.5098,157.7
588.527,91.6
588.6389,112.5
588.7301,447.9
588.839,2944.7
588.9091,506.6
589.0928,908.5
589.1373,22.6
589.2276,588.7
589.3639,163.4
589.4814,812.6
589.521,251.8
589.831,20.4
590.0655,106.1
590.1181,231.2
590.3224,6040.5
590.4683,714.6
590.5974,131.7
590.9254,1365.1
591.0097,586.1
591.3028,210.7
591.3865,206.5
591.4592,853.7
591.5809,395.7
592.1563,90.9
592.2552,718.7
592.3431,1104.4
592.5001,291.2
592.8587,7403.2
593.0197,166.1
593.6824,373.1
593.9006,381.9
593.9486,143.4
594.0581,199.4
594.3544,665.2
594.453,79.7
594.5434,642.8
594.6447,263.8
594.7178,672.7
594.8554,7171.6
595.0009,183
595.0434,348.9
595.2367,18.1
595.3097,768.5
595.4556,610.5
595.6594,31.6
595.9239,368.5
596.1522,134.6
596.2144,275.3
596.4143,21.4
596.8529,1542.6
596.87,513.8
597.3405,466
597.3732,228.9
597.4508,13097.2
597.4867,10637.2
597.5274,646.5
597.8239,368
597.832,110.2
597.8698,496.9
597.9489,168.7
598.2592,318.7
598.3987,133
598.4272,20.2
598.4543,3987.7
598.4908,988.5
598.867,427.3
598.9059,502.4
599.1579,18.7
599.1671,214
599.2903,150.7
599.4122,519.7
599.4665,3193.5
599.4838,1227.4
599.5042,2953.7
599.934,186.9
600.093,186.2
600.1268,283
600.4677,768.2
600.5087,888
600.7084,393.3
600.9457,329.8
601.1741,131.9
601.4823,337.7
601.5792,180
601.7343,122.6
601.9398,95.9
602.0228,606
602.0642,153.3
602.1492,632.9
602.2423,121.4
602.2964,518
602.6789,163.5
602.6969,230.1
602.8163,305.7
602.8897,463.4
603.2127,97
603.5355,1193.4
603.6388,491.6
603.683,173.7
603.8536,151.9
604.8125,531
604.9204,328.8
605.2267,205
605.5376,126.9
605.5664,176.8
605.9004,32.6
606.297,1856.8
606.408,526
606.4219,293.8
606.4836,307.1
606.8515,188.4
607.1716,5049.8
607.2298,360.6
607.4142,88.4
607.9516,408.2
608.1755,342.7
608.3281,168.1
608.5275,20.8
608.8315,915.8
608.9859,20.4
609.1242,44.8
609.5094,731.6
609.7473,286.7
610.1258,158.5
610.5844,388.8
610.7842,107.9
610.8308,1495.6
610.8675,152.2
611.0003,137.3
611.4532,115.6
611.5514,216
611.9781,131.7
612.0017,270.4
612.2152,102.1
612.4666,206.2
612.4835,381.9
612.5061,672.2
612.5431,840.9
612.6463,319.5
612.7474,132.1
612.8409,938.7
612.9332,20.3
613.4032,21.5
613.4394,144.7
614.0146,119.4
614.3425,558.7
614.6183,99.8
615.1904,215.6
615.4395,305.7
615.4604,13314.4
615.6492,28.9
616.0266,17.8
616.1885,217.6
616.3128,514.4
616.4082,124.1
616.4636,2272.3
616.837,750.3
616.9324,128.2
617.0663,161.7
617.4764,37899.7
617.5339,360.4
618.4008,121.2
618.4794,12510.7
618.6691,702.8
618.8176,556.3
619.0848,445
619.0893,506.3
619.4922,32476.2
619.5448,390.9
619.7634,107.6
619.7703,112.5
620.0484,273.6
620.4953,10723.2
620.8311,111.6
621.4524,2383.5
621.4868,6042.7
621.9626,645.8
621.9856,332
622.2134,17.7
622.4576,425.5
623.1369,20055.6
623.2575,34.5
623.3766,161.9
623.4123,114.2
623.4639,957.2
623.4736,971.9
623.5035,2164.8
623.6476,111.1
623.7348,108.9
623.9091,171.4
623.9742,237.3
624.1408,2456.6
624.4592,19.8
624.4777,192.1
624.5066,266
624.559,400.8
624.7198,298.1
624.8145,499
625.0225,191.2
625.0642,413.2
625.2637,428.7
625.4713,576.2
625.4833,644.5
625.5245,733.2
625.5541,130.9
625.6169,332.1
625.906,106.2
625.9205,197.5
626.6136,17.1
627.1306,122.3
627.3183,305.8
627.5359,278.1
627.8051,399.5
627.9404,178.2
627.954,268.9
628.0698,98.2
628.5386,454.9
628.7242,107.7
628.9474,137.8
629.1538,41002.9
629.443,930.7
629.6694,81.6
629.7735,165.8
629.7806,158.1
629.7941,254
630.0091,247.2
630.1377,112.3
630.1577,8085.6
630.8212,386.5
631.1607,161.6
631.4325,860.1
632.0383,99.2
632.0587,549
632.2877,696.6
632.3178,122.4
632.4373,157.5
633.2549,257.3
633.303,222.4
633.3371,109.8
633.4498,5679.3
634.2861,96.1
634.3095,176.9
634.3373,46.6
634.4451,716
634.5932,442.4
634.6113,193.3
634.8,210.7
634.8435,3408.7
635.1944,280.4
635.4651,2468
635.6632,36.5
635.9597,149.8
635.9935,341
636.4119,185.9
636.6157,702.5
636.7054,491.1
636.7884,208.3
636.8406,4210.7
637.0671,100.4
637.7704,193.3
638.1015,573.6
638.3106,591.3
638.5472,533.3
638.838,1647.6
638.8857,181.2
638.9202,19.7
638.9975,288.5
639.2494,397
639.2775,238.6
639.4558,1247.9
639.5,25.1
640.065,203.8
640.7078,218.8
640.7658,106.1
641.0369,106.6
641.403,245
641.5405,218.2
641.8976,361.5
642.0814,117.5
642.0971,180.8
642.7066,397.2
642.8565,149.5
643.1851,201.7
643.794,703.9
643.8459,189.5
643.9852,165.1
643.9995,214.1
644.6151,151.7
644.6352,156.3
644.7537,474
644.8014,386.8
644.8986,270.4
645.1189,13778.4
645.316,315.5
645.4346,502.7
645.8963,170.3
646.077,320.8
646.1066,88.4
646.1223,1921.4
646.7223,122.4
646.7948,304.2
646.9541,148.9
647.0951,631.1
647.1312,111
647.4135,755.1
647.9709,21.2
648.1952,503.8
648.233,130.2
648.4949,409.1
648.6576,114.3
648.8217,206.7
649.0877,290.5
649.5148,597.2
649.8004,100.5
650.0936,604.2
650.3149,332.9
650.442,792.7
650.5583,96.6
650.8178,2723.6
651.1359,41811
651.2132,129.6
651.4472,602.9
651.8719,174.4
652.1395,7060.1
652.4799,675.9
652.539,408.5
652.6964,114.4
652.7903,533.5
652.8146,3532.7
652.8665,894.7
653.112,435.7
653.1849,326.4
653.2137,118.9
653.2415,247
653.7623,331.4
653.9196,19
654.2893,171.4
654.5651,111.6
654.6044,368.8
654.6906,528.3
654.8123,1240.8
654.9044,140
655.1695,160.8
656.0898,128.4
657.0035,379.9
657.0396,779.5
657.0962,358.3
657.283,183.6
657.4387,486.4
657.8436,445.8
657.9972,168.1
658.0162,108.7
658.1111,635.7
658.4936,215.7
658.8515,105.5
658.908,165.6
658.9313,776.1
658.9452,21.6
658.9808,55
659.0473,850.6
659.3128,117.1
659.3297,172.3
659.5219,463.1
659.5833,130.4
659.943,126.3
660.056,309.1
660.0838,5226
660.4604,120.3
660.5248,465.5
660.8384,105.1
661.0833,8415.2
661.1658,332.6
661.4693,392.4
661.4968,907.1
661.7155,443
662.0887,207.7
662.1942,20.8
662.4355,161.4
662.7724,527
663.0925,301.1
663.2708,582
663.3856,679.2
663.4385,139.5
663.4542,1196
663.9489,135.9
664.469,2525.7
664.5241,359.2
664.8379,286.1
664.9511,515.1
665.037,390.5
665.1026,377.9
665.1238,365.7
665.1595,31.7
665.1811,196.3
665.3228,191.5
665.34,608.6
665.473,993.8
665.6384,362.5
665.7573,146
665.8755,19.4
665.9098,105
666.3003,373
666.4843,4946.5
666.6997,565.3
666.7918,368.7
666.9692,256.2
667.1005,20086
667.2205,130
667.2419,278.6
667.3832,269.9
667.4888,837.2
667.5764,162.4
667.9304,112.7
668.0744,273.5
668.1046,1935.7
668.253,353.3
668.7897,360.7
669.0754,208.7
669.1064,651.5
669.4964,1777.5
669.5503,323.1
669.9461,97
670.1667,424.8
670.3158,243.6
670.4101,34.9
670.7856,327.5
670.8457,585.3
671.0333,19.3
671.106,133.4
671.6967,266.7
671.9846,483.8
672.1378,470.5
672.1911,692.3
672.4208,467.3
672.4917,279.9
672.7736,110.7
673.1178,47404.3
673.2283,431.7
673.5273,1039.1
673.7176,680.9
673.7637,796.5
674.0542,147.2
674.0946,212.1
674.1214,7864
674.3262,437.2
674.4568,361.2
674.8094,106.2
674.859,139.2
675.0072,154
675.0966,129.7
675.1202,358.4
675.545,10600.5
675.5742,164.3
675.7622,322.5
675.8854,87.8
675.9996,203.8
676.0484,5611.9
676.0932,547.5
676.5484,3314.3
676.586,80.2
676.6033,459.4
676.7688,18.4
677.0532,391
677.5335,185.6
678.0931,29.1
678.4703,663.8
679.1282,258.3
679.2343,192.7
679.5478,20
679.8047,270.3
680.0689,390.1
680.3417,116.6
680.3891,206.3
680.5251,544.6
680.7832,96.1
680.8057,473.8
681.2956,86.5
681.3997,570.6
681.7862,369.8
681.8436,20.8
681.8679,288.1
682.0657,15216.9
682.2313,369.8
682.5446,20.9
682.7544,102.2
683.0654,4065.3
683.3921,169.5
683.465,809.3
683.4904,292.9
683.6756,324.7
684.0777,84.7
684.5027,111.6
684.5485,366.6
684.6185,281.9
684.874,705.8
685.0737,804.8
685.3449,177.3
685.4377,4746.4
685.9905,287.4
686.2266,651.7
686.3705,623.8
686.4417,150.3
686.5113,784.4
687.01,144.5
687.13,362.1
688.3936,214.1
689.0635,759.9
689.0822,14657.3
689.0916,12906.5
689.5606,2520
689.8754,99.1
690.0951,1262.1
690.2379,275.5
690.5655,103
690.9163,98.7
690.9887,134.9
691.0398,21.4
691.0893,291.1
691.1912,439.5
691.4425,510.7
691.5023,34.3
691.8555,406.8
691.9231,158.6
691.9461,171.2
692.0905,118
692.3807,21.8
692.9936,311.4
693.0264,296.3
693.1976,113.9
694.1566,690.4
694.3531,184.1
694.4128,815.5
694.8015,1638.7
694.8829,400
694.9313,327.3
695.0261,118.3
695.0565,492.8
695.0998,30603.1
695.1611,18.3
695.1932,220.4
695.2225,81.7
695.5117,4018.2
695.6136,21.4
696.1034,4870
696.4718,311
696.6366,306
696.7987,1053.3
696.9081,312.5
696.937,88.5
696.9952,105.5
697.0777,216.5
697.1067,54.5
697.1379,99.2
697.2607,174.3
697.4577,76.2
697.4749,201.5
697.5272,21050.4
697.9679,80
698.0295,3378.3
698.1116,332.2
698.1565,96.4
698.3411,211.7
698.4778,100.4
698.531,6768
698.8497,250.4
698.8785,261.4
699.2751,646.2
699.3142,21.1
699.5339,472.7
699.7996,309.2
699.9827,167.6
700.4378,503.9
700.5907,80.8
700.8708,20.2
700.9485,29.4
701.197,87.8
701.4112,591.5
701.5607,31633.8
701.6818,378.5
702.023,227.9
702.1745,502.3
702.2719,175.2
702.3201,513.5
702.3434,3022.6
702.5641,12258.9
702.6778,118
702.8361,362.2
703.0075,381.2
703.0273,165.4
703.14,111.4
703.2028,425.4
703.3484,566.1
703.5207,352.6
703.5419,502.3
703.5764,77158
703.8061,154.2
704.0473,8945.7
704.1188,516.1
704.4488,3138
704.5141,571.5
704.5797,27120.7
704.6529,448.2
704.6897,530.8
704.7434,368.3
704.781,336
704.9585,92.1
705.0483,2212.4
705.0573,2844.8
705.4166,265.2
705.4514,2055.3
705.5824,1542.1
706.0522,153.2
706.1475,229.9
706.4398,848.5
706.5107,592.8
706.5368,688.5
707.0557,157.9
707.156,562.4
707.7729,571.5
708.3939,170.5
708.4396,168.2
708.511,98.1
708.7762,808.4
708.8037,366.2
708.9811,120.6
708.9986,142.5
709.2922,124.4
709.3892,171.9
709.66,288.5
709.8764,383.9
710.2736,100.4
710.5358,387.6
710.7745,1466.7
711.0637,9654
711.0753,10710.7
711.5428,5425.1
711.6194,105.2
711.644,107.7
711.7558,189.9
711.9896,102.3
712.0664,450.2
712.2522,607.6
713.3387,368.6
713.5022,693.2
713.5503,92.3
714.0065,136.1
714.2391,133.9
714.2798,108.3
714.3578,253.2
714.4651,25.4
714.7191,22.1
715.0331,672
715.0878,117.4
715.176,31.6
715.3868,225.2
715.7173,91.1
715.7412,723.9
715.9545,84.8
716.1058,370.5
716.1428,256.2
716.2079,381.6
716.2622,189.3
716.428,188.2
716.5631,256.5
716.733,98.5
716.8745,436.1
716.9584,170.9
717.0821,15266
717.7746,456.5
717.8894,578.3
717.9098,103.1
717.9437,308.7
718.0865,1460.2
718.1266,200.1
718.5754,1035.1
718.7057,98.7
718.8582,94.6
718.9154,465.7
719.2397,512.1
719.3234,209
719.539,192.9
719.5808,414.8
720.0224,2947.1
720.4671,170.4
720.5316,103.2
720.5563,281.3
720.5876,349.7
720.8886,302.8
721.0127,529.2
721.2913,261.1
721.4795,49872.9
721.5589,33.6
721.8513,181.7
722.3785,376
722.4829,20972.1
722.6285,107.5
723.0112,162.2
723.0774,83.3
723.3224,174.6
723.3406,265.8
723.4245,522.2
723.4577,944.9
723.496,8594.8
723.5429,43829.2
723.6934,400.2
723.8813,174.6
724.0218,207.1
724.4947,1314.7
724.5464,15802.5
724.8922,529.1
725.025,188.4
725.5587,91292.9
726.0282,5179.9
726.199,175
726.3395,205
726.3698,273.6
726.396,190.5
726.5378,89.6
726.5621,31067.4
726.6186,595
726.9355,19.8
727.0293,1418.6
727.0492,848.9
727.0856,260.2
727.1208,100.1
727.2306,384.6
727.3793,533.3
727.565,5162.9
727.6425,331.7
727.6938,465.2
727.8473,20
727.8994,262.8
727.9209,181.9
728.1507,521.8
728.5206,1730.7
728.9966,18.3
729.0223,138.1
729.3811,315.3
729.5248,189.7
729.5578,269.5
729.5919,10802.2
729.8484,138.4
730.2026,133.7
730.3813,171.3
730.5402,5041
730.5953,1833.7
730.6478,418.9
730.6795,124.8
730.728,273.1
731.0309,111.1
731.118,97.4
731.3602,762
731.5395,794
731.6085,5205.3
731.6956,636.3
731.7775,333
732.021,389.6
732.076,266.7
732.3227,376.5
732.4789,813.8
732.5555,25794.2
732.6108,1287.4
732.6531,192.3
732.8471,161.9
732.9945,103.7
733.0461,4850.8
733.057,6187.5
733.4711,96.9
733.5587,10348.9
734.048,247.3
734.1353,403.7
734.572,5748.5
734.7773,148
734.7911,745.5
734.9767,253
735.0298,695.1
735.5748,1310.5
735.8275,735.3
735.9867,453.8
736.0638,149.3
736.181,336.6
736.3026,409.3
736.5669,379.5
736.7141,664.4
736.8112,280.9
737.4534,10014.4
737.5426,282.1
738.1138,175
738.2657,354
738.4569,4355.3
738.5623,159.1
738.9158,118.4
738.9505,203.5
738.9831,686.9
739.0638,7078.4
739.1928,218.4
739.4693,1043.7
739.5169,5116.9
739.6313,577.5
739.828,111.1
739.8894,31
740.0311,118.5
740.0709,154.4
740.2641,655.3
740.4759,340.7
740.5215,1898.9
740.5797,494.9
740.9211,187.3
741.2321,268.9
741.4484,156
741.5324,10853.6
741.5888,97
741.7305,292.9
742.0054,913.4
742.3727,123.8
742.5363,3036.1
742.5765,4487.7
742.6683,22.4
743.3398,149.7
743.4217,468.1
743.4621,771
743.5277,438.2
743.5792,586.8
743.6417,19.8
744.5549,4638.5
744.5917,10732.3
744.6569,742.2
744.7753,112.5
745.2789,148.7
745.2947,743.7
745.4799,30022.3
745.5211,640.3
745.5596,918.3
745.5954,1861.9
745.8447,170.9
746.0891,192.1
746.2378,186.3
746.3677,280.1
746.4827,11327.8
746.5701,2493.2
746.6082,1685.6
746.8818,32.8
747.0941,96.5
747.4526,674.7
747.4966,9445.4
747.586,210.7
747.6104,250.9
747.6789,204.4
747.8298,143.3
747.8806,269
748.0108,1300.8
748.1444,215.9
748.4991,403.5
748.5877,531.9
748.6182,180.4
748.6556,317.8
748.7832,354.7
748.9069,34.5
749.01,548.9
749.0262,647.3
749.3765,161.2
749.4539,330
749.5116,5164.7
749.6799,138.4
749.7324,158.3
749.943,24.2
749.9607,167.8
750.0607,435
750.3866,432.5
750.515,1399.5
750.5626,435.2
750.7693,136
750.8418,271.7
750.8704,111.7
751.5743,7694.6
751.7761,136.6
751.8147,226.3
751.9032,634.8
751.9861,156.5
752.0735,158
752.2891,156.2
752.4356,557.3
752.4989,690.4
752.5223,7985.1
752.5771,2532.9
753.0075,130.4
753.5266,1046.4
753.5901,3707.4
753.6091,249.6
753.7849,101.4
753.8015,19.5
753.9801,19.8
754.3242,582.1
754.5379,26806.2
754.7333,149.8
755.0258,2426.1
755.0394,2513
755.154,185.8
755.2411,267
755.5405,7339.5
755.7853,218.5
756.0431,227.9
756.5554,42055.2
756.78,681.8
756.8033,489.8
757.2029,168.8
757.2344,94.2
757.4393,254
757.5073,126.7
757.559,19250
757.6228,817
757.968,232.9
758.0113,208.1
758.0669,567.3
758.2233,277.3
758.4842,170.2
758.5194,104.4
758.5714,956325.1
758.6534,119.5
758.7672,354
758.8272,17.7
758.8566,21.1
758.883,349.9
759.2072,321.8
759.2505,89
759.5747,417125.2
759.6391,1024.3
759.8637,18.3
759.8968,272.8
759.9564,221.7
760.1711,378.3
760.3449,152.3
760.588,306265.9
761.0453,2372.6
761.3561,310
761.4548,3665
761.5907,145465.9
761.844,120.5
762.0498,109
762.4571,1207.1
762.5936,31275.1
763.0518,200.7
763.1886,162
763.4937,204.1
763.5959,1750.8
763.7213,260.9
763.9379,415.5
763.9755,482.8
764.1757,491.1
764.2583,206.5
764.5575,3546.6
764.6636,274.1
764.7629,504.4
764.9226,663.2
764.9762,1249.1
765.2255,709.2
765.3183,305
765.7446,287.5
765.8467,172.5
765.8815,383.7
766.1239,351.1
766.1873,436.3
766.5377,2446.7
766.5761,30150.7
766.77,372
767.1601,272.1
767.5045,31.3
767.5792,10354.3
767.6146,292.2
768.3492,110.8
768.4774,157.3
768.5542,2602.5
768.5921,47312.7
768.7337,320.4
768.9084,1090.5
768.9417,531
768.9708,18.7
769.0015,533.6
769.0976,371.2
769.2487,240.9
769.4798,9239.4
769.5573,702.3
769.5953,20976.3
769.7464,472.2
769.7822,302.8
769.8615,388.2
770.044,254.5
770.4821,790
770.5111,3732.5
770.6087,5314.5
770.7984,23
770.9927,4483.5
771.4349,588.3
771.4961,1695.7
771.5129,613.6
771.5678,88.4
771.6131,1125.6
771.8109,474.4
771.8717,179.5
772.1846,151.3
772.3952,237.9
772.5868,12983.2
772.9267,102.5
773.5091,1291.3
773.5905,3590.6
773.657,96.7
773.9423,104.1
774.4143,267.8
774.5171,462.3
774.543,94.6
774.6029,740.7
774.6277,83.6
776.2693,159.5
776.4057,547.5
776.5209,1042.3
777.0098,3476.9
777.1902,283.7
778.0473,691.8
778.3141,619.3
778.3938,299.8
778.4482,354.4
778.5379,33999.5
778.7589,267.4
778.7938,324.3
778.8878,769.1
778.9354,433.4
779.0035,158.6
779.0539,811.6
779.1272,20.3
779.5414,14671.1
779.8037,114.3
779.9517,132.8
779.9769,179.6
780.3376,955.2
780.5194,179.8
780.5535,698572.6
780.6029,669.2
781.1405,795.2
781.5122,613.9
781.5568,305565.4
781.7449,20.4
781.8311,194.6
781.8562,350.3
782.5711,699120.9
782.7874,213.9
783.0277,5633.7
783.5743,333282.4
783.6999,84
783.8451,366.5
784.2013,351.4
784.2726,271.2
784.588,291605.6
785.2849,793.2
785.5101,114.2
785.5907,145587.7
785.6558,6135
786.3036,210.1
786.3475,165.3
786.6032,258519.9
786.6583,1280
786.716,86.5
786.8833,167.4
786.9707,866.3
787.0407,147.2
787.3665,280.9
787.5085,178
787.5587,184.5
787.6063,127547.6
787.6713,1456.7
787.8743,372.1
788.1552,301.9
788.2308,87
788.3577,962.6
788.51,242.4
788.5585,11234.1
788.606,17336
788.6221,12762.8
788.6747,215
789.4673,122.9
789.5593,4561.6
789.6227,5888
790.0441,1173
790.2161,133.1
790.271,354.1
790.4336,731.1
790.5745,27902.8
790.6136,698
790.6727,291.3
791.3233,181.9
791.483,234.4
791.5779,11531.7
791.6259,20.5
791.7442,409.8
791.8045,333.2
792.0613,479.6
792.267,145.2
792.557,561.7
792.5925,16414.1
792.7734,136.8
792.8142,164.1
792.9797,758
793.5954,6231
793.6892,186.3
794.1938,103.9
794.4223,260.5
794.5119,3399.4
794.5688,8356.8
794.6078,42642.1
794.808,155.9
795.0092,114.4
795.056,215
795.0808,586.5
795.5123,181.1
795.6112,21907.5
796.5273,123392.7
796.5866,5260.4
796.6254,5296.2
796.9351,111.4
796.9661,474.6
797.1112,268.8
797.1439,454.7
797.2079,382.3
797.3358,348.7
797.5304,51565.8
797.5913,831.9
797.6269,1638
797.9729,546.6
798.0876,296.7
798.2843,18
798.5198,1874.3
798.5443,29898.1
798.6049,662.9
798.9978,468.8
799.5467,13407.2
799.5767,362.9
799.6011,109.2
799.6729,372.9
799.7342,111.8
799.8748,379.4
799.8944,532.4
800.3465,506.6
800.3638,269
800.5209,793.2
800.6734,108.2
800.9663,191.8
801.5429,498.9
801.7843,257.5
801.9887,102.9
802.5377,44059.8
803.3416,223
803.3994,289.4
803.5412,19556.7
803.9171,449.7
803.9804,288.4
804.0646,731.3
804.2037,132.7
804.3874,117.7
804.5534,377349.5
805.5569,172310.2
805.7339,277.6
806.2743,136.8
806.3879,19.3
806.5707,344282.9
806.7271,88.3
806.8475,137.6
806.9287,391.6
807.2987,291.9
807.5144,443.6
807.5739,169674
807.6392,1693.1
808.1533,222.2
808.5866,204210
809.0986,117.5
809.2182,369.3
809.5894,110298.9
809.6192,398.4
809.6535,1161.6
809.7278,112.4
809.9169,173.5
809.9385,184.1
810.387,242.4
810.4148,642.5
810.5429,875
810.6034,147002.5
810.8098,115.3
811.6064,77570.8
811.6711,8994.5
812.2267,196.2
812.321,265.2
812.5482,296.6
812.6034,4944.9
812.621,26181.4
812.6738,4067.3
813.3062,572.6
813.6226,12427.4
813.687,7031.6
813.8825,190.9
814.0456,690.3
814.5739,5717.9
814.6898,2358.2
815.312,180.3
815.3319,126.9
815.4252,401.7
815.468,469.8
815.71,179.2
815.7412,179.1
816.3873,224.3
816.4691,678
816.59,22560.2
816.7383,210.7
816.8367,304.2
817.1429,19.6
817.5927,5797.1
818.3023,769.6
818.5113,4637.2
818.5696,1537.7
818.6091,3212.5
818.7532,930.4
819.2986,120.5
819.5146,1185.3
819.572,898
819.6118,362
820.0761,323.1
820.1632,174
820.5275,69068.8
820.5954,183.7
820.6248,1193.9
820.7253,831.6
820.9229,95.3
821.277,187.9
821.4624,359.8
821.5308,29526.3
821.5888,179.1
821.6254,311.7
821.8506,178.4
821.9085,121.5
822.544,31564.6
822.5925,22
822.6614,529.7
822.6968,306.6
823.0708,126.6
823.4955,201.3
823.5466,12289.6
824.1889,145.8
824.5075,138.6
824.5595,19344.7
824.9401,403.5
824.9609,329.7
825.5618,6267.8
825.5875,580.4
825.7526,22.2
826.5373,890
826.5732,266.6
826.597,109.2
826.8553,18.4
826.926,542.9
827.0849,126.5
827.6151,307.8
827.6928,106.4
827.7913,22.8
827.8175,302.4
827.946,758.6
828.1093,100.2
828.5535,111584.2
829.5569,59555.1
829.792,398.7
830.0688,140
830.3229,87.1
830.5167,561.4
830.5703,58217.3
831.0034,445.8
831.29,98
831.3894,143.7
831.4285,159.3
831.5726,28759.4
832.5855,76740.5
832.7832,20.4
833.1203,179.6
833.2971,398.7
833.5107,309.1
833.5886,39075.9
833.6497,805.4
833.9778,102.1
834.0283,288.6
834.2911,392.4
834.5412,52
834.6028,31462.1
834.654,225.9
835.4849,130.6
835.6055,13001.5
835.668,172.9
835.8804,233.3
835.9028,33.3
836.3283,166.7
836.4206,738.9
836.6199,1671.7
836.6836,189.7
837.2667,604.5
837.5366,102.1
837.6207,356.9
837.6504,342.5
837.6994,1349.4
838.9992,386.1
839.1093,103.2
839.1454,146.2
839.3474,764.6
839.6235,113.6
839.7596,233.4
839.7884,93.8
840.0285,387.3
840.0625,399
840.1015,43
840.2467,380.7
840.4545,499.1
840.5021,199.6
840.5322,726.5
840.5934,854.6
840.7154,41.4
840.7367,797.3
840.7619,1209.2
840.7979,575.4
840.8309,259.9
841.3347,136
841.6558,20
843.1095,238.5
844.2443,417.2
844.5274,18293.9
845.2881,831
845.5301,7120
845.8124,457.5
846.4044,908.7
846.5447,8062.4
847.0162,441.6
847.5471,1214.6
847.8982,521
848.0529,346.9
848.5582,9484.9
848.6146,104
848.6861,378.9
849.0308,338.1
849.06,112
849.3911,530.2
849.5619,2259.2
849.802,440.7
849.9151,782.7
850.4158,99.1
850.4525,417.3
850.5752,1376
850.6743,158.1
850.7112,367.3
851.0265,391.9
851.3628,470.9
851.389,99.3
851.4403,526.4
851.7213,910.6
851.7955,234.5
851.9624,365.9
852.0154,31.6
852.1605,208.9
852.1938,240.5
852.2133,103.5
852.4762,163.8
852.5167,103.9
852.5643,408.3
852.6667,403.6
852.8549,18.9
853.0261,120.4
853.1696,119.2
853.628,653.7
853.7697,925.1
854.5687,3773.1
854.7365,110.2
854.9781,105.1
855.5057,812.1
856.1193,334.7
856.5846,7742.4
856.7636,20.4
857.3307,129
857.3715,130.1
857.5867,872.3
857.8081,196.9
857.9144,122.9
858.042,204.9
858.0816,22.6
858.4759,189.3
858.7317,426.3
858.9635,224
859.18,355.5
859.6074,116.3
859.9203,122
860.0806,32.8
860.2226,247.4
860.3078,131.1
860.6199,1005.6
861.1837,303.6
861.3801,589.6
861.4451,247.9
861.5804,703.3
861.8993,140.9
862.0123,317.8
862.1748,130.1
862.2356,584.3
862.5029,132.4
862.986,17.3
863.8382,589.6
864.0594,209.9
864.5197,516.9
864.9272,369
864.9571,462.6
865.1151,957.5
865.1632,114.9
865.6249,225.7
866.009,167.6
866.2769,117.7
866.5669,240.5
866.6448,648.7
866.8311,532.4
866.9473,387.1
867.1232,260.4
867.7813,132.8
868.0036,588.5
868.3229,567.5
868.7828,96.4
868.8105,269.7
868.8213,274.4
868.8509,330.8
869.4314,274.4
869.4786,25
869.5294,572.4
869.5625,156
869.5827,26.6
869.605,112.8
869.6457,300.3
869.6718,1287.4
869.7384,1369.3
869.7578,1379.9
869.7843,913.7
869.8065,416.2
869.8223,528.6
869.8673,2978.8
869.8854,2925.8
869.9011,2539.4
869.9382,2586.4
869.978,2197.7
870.0438,2540.4
870.0693,1327.3
870.1229,1701.4
870.1687,666.5
870.2113,836.8
870.262,100.1
870.4318,298.7
870.5429,123
870.5879,307.9
871.2729,109.2
871.4103,389.7
872.2328,199.8
872.4647,467.4
872.5514,784.8
872.6057,788.4
873.2408,353.2
873.3413,104
873.9606,175.3
874.0103,534.5
874.2587,240
874.5634,752.8
874.7824,30
874.939,117.4
875.2942,536.2
875.5928,34.7
875.6654,167.9
875.9008,101.1
876.0297,419.1
876.5109,687.9
876.8118,241
877.1963,281.6
877.3405,433.7
877.7866,194.7
878.0894,22.6
878.2258,21.7
878.495,1165.9
878.6629,284.1
878.7234,211.4
878.7617,164.5
878.8463,339.2
879.2119,365
879.4529,391.9
879.4782,165.8
879.691,387.7
880.3541,20.1
880.4445,429.5
880.9034,28.8
881.0144,190.5
881.5954,171.4
881.6753,110.2
881.771,213.8
882.2833,99
882.5215,170
882.6961,183.5
883.0089,310.7
883.0597,123.7
884.0673,20.4
884.6342,19.6
885.0906,460.5
885.462,139.5
885.6358,614.4
885.9775,21.7
886.5257,20.3
887.1362,115.3
887.4431,19.4
887.678,262.3
888.3723,357.3
888.5812,242
888.6672,353.3
888.7673,666.3
888.9112,978
889.1135,164.5
889.1979,660.1
889.5283,456.1
889.5946,36.5
889.785,225.6
889.9985,89.2
890.0375,673.4
890.1582,212.6
890.2172,195.7
890.3682,29.8
890.5717,125.1
891.3156,372.2
891.5132,295
892.2833,20.7
892.3207,469
892.6012,640.6
892.6284,418.1
892.6711,248.4
892.8047,381.7
892.8319,718.3
893.0361,332
893.0847,116.2
893.7721,305.8
894.0487,753.2
894.4627,354.5
894.6225,325.7
894.8774,342.9
895.3926,349
896.2902,105.8
896.6187,362.2
897.022,403.8
897.1559,1007.9
897.2164,564.4
897.3949,198.6
897.466,78
897.623,278.9
897.9818,283.5
898.0048,135.3
898.1202,516.2
899.0942,290.8
899.4683,99.3
899.5622,136.5
900.1335,22.1
901.0295,623.2
901.1684,598.7
901.4166,320.3
901.7823,421.1
901.8805,701.3
902.1405,672.2
902.3319,129.7
902.6975,712.9
903.1209,462.7
903.5696,412.7
903.7784,957.4
904.0326,117
904.4727,643.7
904.5644,34.9
904.7596,391.2
904.9499,105.1
905.2209,644.4
905.4005,129.6
905.4284,411.6
906.4127,174.6
907.0739,441.9
907.6367,20
908.0054,338
908.0721,168.1
908.6409,32.5
909.1068,789.3
909.7449,634.3
909.9769,142.2
910.2509,144.3
910.6211,178.2
911.0737,644.8
911.2398,1065
911.2765,21.4
911.4417,442.8
911.6508,772.6
911.7314,19.9
911.8941,353.2
912.0031,833.4
912.4752,20
912.6102,252
912.8402,356.2
913.0784,224.3
913.9977,313
914.0287,174.4
914.1046,131.4
914.2621,385.7
914.2894,503.4
914.3829,24.5
914.5522,456.9
914.6907,294.4
915.2436,1405.7
916.0092,277.3
916.2872,287.2
917.2932,122.2
917.3971,727.7
917.5979,24.6
918.3502,131.3
918.8382,729.7
918.8807,20.8
919.8378,523.5
920.1695,599.8
920.2167,383.9
920.4194,22.7
920.5177,29.4
920.6104,184.3
920.8494,482.2
921.0286,365.4
921.2267,174.2
921.5152,20.5
921.8423,90.8
922.1593,112.3
922.4718,306.8
923.8399,862.4
924.0035,1070.6
924.1042,679.4
924.3652,135.7
924.5748,688.6
924.6985,1079.8
925.1763,104.2
925.4222,668.6
925.4911,25.9
925.5484,25.4
926.1082,447.6
926.4956,349.1
926.6025,416.9
926.6725,21.6
926.9432,114.6
927.032,447
927.0861,16.9
927.4394,263.2
927.8979,127.2
928.0046,84.1
928.0301,194.7
928.2931,34.2
928.6834,103.3
929.6458,817.4
929.7819,372
930.0687,288.8
930.4823,676.5
931.3916,209.9
932.0586,129.1
933.4977,508.5
933.5131,726.7
933.5219,706.5
934.7453,298.3
934.9724,18
935.0942,94.6
935.7239,87.2
936.1274,182.3
936.3231,20.9
936.4744,236.1
936.5504,374.2
936.6137,387.6
936.7955,1112.4
936.9647,424.2
937.3428,409.9
937.8092,413.2
938.1994,166.1
938.244,20.2
938.4861,97.7
939.2936,644
939.3276,426.8
939.434,226.6
939.5088,255.2
940.1593,692.6
940.3984,301.2
942.0445,185.8
942.2311,555.9
942.642,286.9
942.7629,467.9
942.9515,89.1
943.1108,260.5
943.4283,363.6
944.1306,155.8
944.2684,642.2
945.0719,101.7
945.778,411.4
946.0162,19.9
946.0794,155.2
946.1553,180.5
946.852,156.8
946.9192,920
947.4644,312.1
947.8424,108.2
948.1955,18.3
948.589,746.5
948.7536,358.2
948.8358,221.6
949.0303,231.1
950.017,107
950.0798,354.3
950.1255,774.3
950.1466,374.3
950.2101,106.2
950.4636,480.7
950.5222,2287.9
950.6125,1066.6
950.7689,219.5
950.9072,409.9
950.9656,431.1
951.024,982.9
951.2292,127.9
951.6889,225.2
952.1779,105
952.3728,189
952.6444,216.6
952.7804,127.6
952.8113,142.7
952.8402,136.7
952.9341,506.5
953.5289,354.6
953.7675,300
954.4677,246.6
954.8833,1244.5
955.1633,211.4
955.672,240.9
956.2127,397.9
956.5591,384.3
957.1416,243.6
957.1972,561.9
957.2977,398
957.4758,509.3
957.7379,1533.9
957.888,539.5
958.2281,475.2
958.7302,481.5
958.8658,168.7
958.9313,180.8
959.2193,432.8
959.8562,110.4
959.9085,22
959.9428,214.5
960.3229,87.3
960.6501,20.8
960.8209,504.1
960.8465,267.8
960.937,109.8
961.9435,883.7
962.0007,133.2
962.5349,612.1
962.983,309.2
963.0667,125.7
964.0294,421.6
964.5666,547.5
965.155,960.6
965.2113,380.6
966.2229,648.1
967.3596,605.1
967.6727,154.1
968.0547,770.6
968.8276,209.8
968.8371,227.2
968.8499,186.9
969.9468,344.7
970.0391,944.8
970.8333,96.9
971.1666,573.3
971.7575,1295.7
971.8297,338.6
971.8662,605.2
972.3015,22.1
972.3851,22.5
972.5199,227.1
972.6161,22.9
972.9674,109.4
973.134,21.2
973.326,187
973.5118,119.9
973.5792,286.6
973.9645,33.2
974.8402,510.1
974.9392,329.4
975.588,474.9
975.5981,432
976.0816,564.8
976.2998,283.9
976.8371,541.7
976.9752,157.8
977.0308,208.8
977.145,401.8
977.4934,18.2
978.6123,760.2
978.7344,1091.6
978.8389,23
979.347,618
979.4391,21.9
979.7048,178.6
979.796,1527.7
980.1104,624.6
980.1588,294.7
980.1904,54.2
980.3784,908.5
980.5831,812.2
980.7489,97.9
981.2439,21.2
981.2821,100.2
981.4525,469.2
981.5016,637.8
982.2441,766.2
982.4679,115.7
982.7905,265
982.922,124.1
983.3792,444
983.9767,104.1
984.4578,114
984.5555,20.4
984.6586,686.5
984.94,674.2
985.1673,688.4
985.4535,153.5
985.6343,400.1
985.7696,600.4
985.8519,248
986.6135,226.8
987.0008,300.5
987.0698,450.8
987.3558,195.2
988.4658,19.6
988.611,685.3
988.6981,424.3
988.7639,198.1
989.0032,495.2
989.5139,172.1
989.9034,26.3
990.5498,1665.1
991.3208,154.4
991.6025,547.2
991.6383,464
991.9431,525.3
992.3874,444.3
992.9513,101.2
992.9789,21
993.2327,101.1
993.4257,205
993.7065,753.9
994.1086,341.8
994.4849,1045
994.5825,89.9
994.6148,342
995.0532,1691.9
995.7055,709.6
995.9662,362
996.2144,465.3
996.8045,392.6
997.468,1161.4
998.0288,452.2
998.0556,194.9
998.211,212
998.2731,396.6
998.5926,254.9
998.9214,572.8
999.0834,154
999.4577,188.9
999.5266,946.1
999.7972,371.2
