SPECTRUM - MS,
1373.RAW,
FTMS + p ESI Full ms [50.00-1000.00],
Scan #: 1-40,
RT: 0.01-1.97,
AV: 40,
m/z,Intensity

50.0304,73.9
50.0319,94
50.045,192.5
50.0474,94.3
50.0616,89.5
50.0636,313.8
50.0751,270.9
50.1149,404.7
50.1276,518
50.1298,151.8
50.1619,394.7
50.1638,238.7
50.1687,216.9
50.1822,486.1
50.1849,266
50.1914,275.1
50.2069,313
50.209,137.8
50.2129,205.4
50.2143,201.7
50.2429,17.2
50.2582,106.9
50.2629,235.3
50.2708,21
50.2933,163.3
50.3061,337.8
50.3179,279.5
50.343,400.3
50.3468,152.7
50.3706,100
50.3868,18.5
50.3913,97.1
50.3935,604.7
50.3987,467.1
50.4123,199.6
50.4156,561.9
50.4185,93.9
50.4241,233.7
50.4356,111.3
50.4505,97.2
50.4732,146.9
50.474,88.4
50.476,20.4
50.4797,383.2
50.4807,193.8
50.4871,90.5
50.4975,180
50.4997,17.8
50.5042,552.2
50.5105,137.1
50.5138,114.3
50.54,215.4
50.5404,86.9
50.5406,458.8
50.5427,280.9
50.5512,136.7
50.5522,198.9
50.558,533.2
50.5725,444.7
50.5767,96.9
50.5896,491.6
50.6012,343
50.6196,242.3
50.6303,565.1
50.6674,17.5
50.6733,111.2
50.7028,90.2
50.7222,123.4
50.7245,118
50.7262,165.9
50.7312,408.1
50.7445,205.1
50.7546,20.2
50.7562,150
50.7572,206.5
50.7673,20
50.7758,767.5
50.8197,103.4
50.8225,144
50.8351,97.9
50.8425,86.7
50.8492,18.9
50.8567,80
50.8691,254.7
50.8969,153.2
50.907,68.8
50.9305,150.9
50.9319,77.6
50.9476,87.6
50.9606,15.5
50.9639,297.1
50.9748,693.5
50.9756,24
50.9962,499.2
51.0004,205
51.0254,184.6
51.0304,361
51.0316,266.7
51.0531,103
51.0728,385.2
51.1128,236.4
51.1192,101.5
51.1353,597.1
51.1695,682.6
51.1711,122.5
51.1738,83.4
51.1787,18.7
51.1794,373.5
51.18,428.1
51.1838,24.3
51.1865,88.2
51.1942,240.9
51.1982,143.8
51.2229,116.6
51.2272,178.7
51.2279,93.3
51.2285,91.9
51.2364,93
51.2638,427.2
51.2758,219.6
51.2813,15.2
51.2898,326.2
51.2902,215.6
51.2919,603.8
51.2941,24.4
51.3134,681.7
51.3236,219.8
51.3416,89
51.3434,403.4
51.3464,385.2
51.3522,356.2
51.3534,135.9
51.3685,216.5
51.4111,15.7
51.4231,157.7
51.4334,198.5
51.4383,411.4
51.4442,394.2
51.4516,477.9
51.4623,15.8
51.4631,121.9
51.475,312.3
51.4838,90.9
51.4891,585.7
51.519,642.1
51.5224,16.5
51.526,199.4
51.5454,87.5
51.5506,364.4
51.5623,99.2
51.5689,367.5
51.5915,627.9
51.5985,652.1
51.6012,30
51.6067,164.1
51.6186,514
51.6329,17.1
51.6396,534.2
51.6666,230.4
51.6685,424.3
51.6783,15.9
51.6787,449.8
51.7027,75.3
51.7141,280.2
51.7187,79.5
51.7299,293.7
51.7342,273.6
51.7355,92.5
51.738,263.4
51.751,97.3
51.77,77.5
51.7719,226
51.7755,221.4
51.7909,32.4
51.7946,342
51.7947,385.5
51.7949,319.5
51.8018,220.5
51.8241,18.9
51.8279,19.2
51.8298,397.5
51.8399,280.6
51.8438,347.5
51.8486,18.2
51.8571,581.8
51.8583,234.7
51.8733,68.9
51.8993,241
51.8996,16.5
51.9006,107.7
51.9193,82.1
51.9382,99.3
51.9516,80.7
51.9596,381.2
51.9606,29.4
51.9865,17.3
51.9921,18.5
52.0376,215.4
52.0468,97.8
52.048,115.5
52.0523,60.8
52.0573,312.1
52.0634,88.7
52.0712,302.8
52.0828,89.7
52.0875,303
52.0981,354.2
52.1188,99.1
52.1259,414.3
52.1478,409.5
52.1512,17.7
52.1525,125.8
52.1743,69.2
52.1984,81.9
52.2145,92.9
52.2298,183.1
52.2306,654.1
52.2448,20.4
52.2539,87.6
52.2542,25.6
52.2642,152.6
52.2853,356.8
52.3063,234.7
52.3106,339.4
52.3168,207.6
52.3333,152.7
52.3413,84.1
52.3471,383.1
52.3715,119.8
52.3751,219.9
52.3991,15.4
52.4067,99
52.4202,83.1
52.4252,93.3
52.4296,260.2
52.4306,268.6
52.4321,499.1
52.4458,333.9
52.4658,17.6
52.4806,73.1
52.5174,16.9
52.5347,326.1
52.5423,127.1
52.5447,386.5
52.5541,82.8
52.5556,170.4
52.5579,400.5
52.5706,170
52.5875,210.1
52.6119,439.7
52.6319,316.8
52.6344,87.1
52.6447,332.4
52.6973,78.3
52.7012,399.1
52.7239,81.6
52.7265,224.7
52.7272,82.1
52.7297,15.5
52.7382,17.4
52.7438,613.4
52.7552,706.4
52.7623,619.6
52.7684,85.3
52.7687,90.4
52.771,23.4
52.7721,207.6
52.7726,17.6
52.7917,1645.9
52.7924,307.8
52.7928,3438
52.7935,2294.3
52.794,1293
52.7945,2556.8
52.7954,567.4
52.7958,591
52.7979,91.6
52.8045,105.2
52.8135,434.6
52.8212,18.1
52.8218,439.5
52.8247,766.9
52.8338,347.1
52.8449,122.7
52.8456,273.6
52.8515,320.4
52.8524,371.3
52.8587,98.6
52.8777,234.6
52.88,188.2
52.883,80.1
52.8854,123.6
52.9033,693.1
52.9125,92.8
52.9159,226.6
52.9306,17.8
52.9708,123.2
52.9746,128.6
52.9778,216.4
52.9799,121.5
52.9931,730.8
53.0096,90.6
53.012,130.2
53.0179,349
53.0447,395.7
53.0472,350.4
53.0612,280.9
53.0667,249.1
53.0765,38.1
53.0813,96
53.094,262
53.1116,16.8
53.1196,73
53.1268,235.9
53.1347,414.2
53.1412,115.9
53.166,333.4
53.1824,158.8
53.183,384.7
53.1856,678.5
53.1929,311.2
53.197,378.9
53.22,130.2
53.2225,251.7
53.2254,88.9
53.2405,140.4
53.2601,84.2
53.2772,285.7
53.2873,25.1
53.2952,191.3
53.3029,28.6
53.3183,368.5
53.33,299.5
53.3317,17.6
53.3364,407.4
53.3388,242
53.3495,221.6
53.3646,477.5
53.369,18.5
53.3918,629.2
53.3931,456.6
53.4085,118
53.4133,17.1
53.4212,118.9
53.4219,267.2
53.4548,205.3
53.4743,158.5
53.4924,125.2
53.5053,686.7
53.5118,140.7
53.5222,94
53.5321,73.5
53.5444,66
53.5481,87.7
53.5601,15.1
53.5645,290.4
53.5756,78.3
53.5767,272.9
53.58,149.9
53.5823,259.7
53.5892,306.2
53.605,15.9
53.6141,82.7
53.6205,104.9
53.6217,250.6
53.6514,17.2
53.6662,17.6
53.6734,245.2
53.6813,132.6
53.7011,509.1
53.7246,352.9
53.7293,14.9
53.7335,432.4
53.7484,258.8
53.749,17
53.7683,277.4
53.7885,16
53.804,84.2
53.8086,361.1
53.8665,74.8
53.8702,561
53.8797,160.7
53.8805,350
53.8978,475.3
53.899,283
53.8998,127.2
53.9078,179.3
53.9182,114.1
53.9444,18.2
53.9742,318
53.9888,90.7
53.9897,97.7
53.9938,272.7
53.9955,81.7
54.0163,14.5
54.0338,18.8
54.0351,288.2
54.0465,133.4
54.0571,523.3
54.0661,314.4
54.0705,153.7
54.0738,87.9
54.086,655
54.0887,82.9
54.1354,17.6
54.1399,631.3
54.1672,108.3
54.172,448
54.1906,331.2
54.1923,137.8
54.1947,88.8
54.2043,83
54.2062,547.7
54.2064,523.5
54.2214,529.3
54.2253,212.1
54.2459,439.9
54.2484,383.3
54.2493,737.3
54.2523,124.5
54.2576,610
54.2647,234.5
54.2841,357.8
54.3017,260
54.3277,156.2
54.3335,114.2
54.3355,354.8
54.3488,75.7
54.3501,16.7
54.351,262.2
54.3514,514.4
54.3817,92.3
54.3964,18.6
54.4327,325.6
54.4427,88.7
54.4548,125
54.4691,127.9
54.5055,303.1
54.5087,197.3
54.5192,269.6
54.524,311
54.5384,365.7
54.5457,120.8
54.5459,121.5
54.5522,17.2
54.5546,17.6
54.5574,704.7
54.5585,158.4
54.5603,249.6
54.5725,90.6
54.5784,315.7
54.5827,158
54.5839,141.4
54.6402,356.4
54.654,77.1
54.6596,214
54.6633,104.7
54.6734,631.4
54.6764,19.7
54.6846,222
54.6861,89.1
54.6982,355
54.7335,104
54.7371,16.8
54.7454,70.2
54.7632,587.7
54.7777,392.5
54.7917,197.7
54.7977,107.4
54.8044,399.7
54.8351,26.3
54.8435,192.2
54.8597,105.5
54.8617,343.7
54.8632,483.7
54.867,516.9
54.8793,119.1
54.8935,218.2
54.8946,563.6
54.9229,274.1
54.9237,65.2
54.9248,337.1
54.9495,361
54.9635,226.6
54.9644,131.3
54.9709,139.4
54.9981,299.7
55.0084,229.2
55.0176,95
55.028,213.3
55.0333,24
55.0673,16.7
55.0709,588.9
55.0723,16.9
55.0744,387.1
55.0823,81.1
55.0838,130.3
55.1088,19.4
55.145,436
55.1461,125.6
55.1521,17.7
55.1606,24.5
55.1752,352.4
55.1765,182.8
55.1919,215.3
55.1992,19.3
55.2212,391.7
55.2247,198.7
55.2392,206.5
55.2516,100.7
55.254,218.1
55.2544,137.4
55.2893,292.4
55.3139,190.2
55.3146,328
55.3243,634.3
55.3338,142.6
55.3365,142.4
55.3416,115
55.3559,519.1
55.3967,124.4
55.4022,314.6
55.4043,209.3
55.408,27.5
55.4154,204
55.4158,732.3
55.4252,265.1
55.4331,656.9
55.4356,115.9
55.4358,104.2
55.4395,201.7
55.4596,16.3
55.4664,134.6
55.4746,118.1
55.5094,249.3
55.5114,120.4
55.533,459.8
55.5348,187.6
55.5432,756.7
55.5672,262
55.5812,195.6
55.5852,88.4
55.5937,299.7
55.6015,509.3
55.655,17.1
55.6553,368.3
55.6765,901.3
55.6909,211.6
55.6943,87.2
55.708,347.6
55.7192,84.2
55.7392,88.2
55.7519,277.2
55.7584,17.3
55.7618,585.1
55.7636,129.2
55.7718,273.4
55.8193,79.1
55.8236,115.3
55.8333,275.4
55.8448,295.5
55.8591,113.7
55.8603,102.1
55.8703,344.4
55.8727,294.6
55.8941,19.1
55.9128,91
55.9207,536.9
55.9308,161.7
55.9379,93.8
55.9513,104.4
55.9786,375.3
55.9912,16.8
55.9939,198.9
56.0115,758.9
56.0162,94
56.0186,261.5
56.0492,213.1
56.0505,101.6
56.051,73
56.0538,18.6
56.0623,94.2
56.0714,327.4
56.0877,168.5
56.123,684.1
56.1489,140.4
56.1896,263.5
56.1968,191.6
56.1999,527.7
56.2222,84.2
56.2248,214.7
56.2278,17.3
56.2379,375.5
56.2495,135.8
56.2767,537.8
56.2802,234.2
56.3128,224.7
56.3239,103.4
56.3272,541.6
56.3452,98.8
56.3468,341.8
56.3479,125.6
56.3537,620.6
56.3663,21.2
56.3722,74.8
56.3741,134.3
56.4057,124.9
56.4162,353.2
56.4175,209
56.4179,173.5
56.438,595.6
56.4451,104.4
56.4463,609
56.4488,17.2
56.4543,18.6
56.4771,490.9
56.4863,87.9
56.4893,117.9
56.4993,100.5
56.5317,88.9
56.5452,100
56.5516,122.1
56.5537,424.7
56.5569,494.2
56.5573,117.4
56.562,97.9
56.5723,399.5
56.5755,18.2
56.5766,133.1
56.5872,92.4
56.6051,108.3
56.6155,16.1
56.668,84.9
56.6784,422.1
56.6834,297.6
56.6846,122.1
56.69,107.2
56.6963,469.7
56.7,67.8
56.7026,119.7
56.7325,381.5
56.7608,229.4
56.7684,433.9
56.7716,363.1
56.7941,309.5
56.8007,15.9
56.8029,296.1
56.8064,206.7
56.8069,326.6
56.8084,16.4
56.823,634.2
56.8427,357
56.8539,183
56.881,140.7
56.8877,95.5
56.9077,108.1
56.9273,87.4
56.9559,349.1
56.9573,406.3
56.9643,65.9
56.9838,712.9
57.0422,79.8
57.0429,255.8
57.0461,95
57.0517,708.8
57.0554,87.8
57.0628,94.4
57.074,82.2
57.0749,262.2
57.0828,317.5
57.0831,109.5
57.1028,28.2
57.1122,185.5
57.1241,179.2
57.1243,163.3
57.1305,368.4
57.137,97.7
57.1568,23.7
57.1615,139.8
57.1917,289.2
57.1926,81.8
57.1978,240.1
57.2135,104.9
57.2198,520
57.2256,359.4
57.2353,87.9
57.238,452.2
57.2405,233.9
57.2426,361.1
57.2449,15.6
57.26,646.9
57.2635,286.9
57.2845,742.3
57.2866,284
57.2939,83.2
57.3051,221.1
57.3059,249.9
57.3137,18
57.3193,99.6
57.338,88.2
57.3394,21.5
57.3785,83.3
57.3877,230.5
57.3951,117.2
57.408,92.6
57.4213,15.8
57.4286,304.5
57.4372,587.3
57.4794,62.2
57.4868,115.8
57.488,487.2
57.4924,356.3
57.4973,88.6
57.5005,259.5
57.5013,141.5
57.5118,90.4
57.5163,104.9
57.532,289.5
57.545,124.7
57.5689,18.1
57.5696,93.1
57.5933,234.1
57.6374,112.4
57.6655,219.6
57.6716,78.9
57.6801,198.8
57.6949,328.5
57.6988,66.1
57.7033,336.1
57.7163,81
57.718,130.8
57.7191,252.5
57.7431,263.1
57.7552,152.7
57.7623,293.4
57.7716,219.4
57.7774,310.2
57.7812,264
57.8053,368.4
57.8231,304
57.8549,230.1
57.8666,16.2
57.8836,221.6
57.8888,16.5
57.8962,83.2
57.9042,91.3
57.9121,378.1
57.9134,194.3
57.9194,338.5
57.9488,380.5
57.9621,378.6
57.969,519.7
57.9996,17
58.0329,457.2
58.0629,641.2
58.064,194.6
58.0764,473.8
58.0855,19.1
58.0926,224.1
58.0938,201.1
58.1188,632
58.134,454.3
58.1491,86.6
58.1561,82.6
58.1765,83
58.1872,117.2
58.1907,75.6
58.1931,69
58.1955,183.1
58.1984,453.2
58.2288,404.8
58.2313,350.6
58.2355,109.6
58.2544,188.4
58.2569,106.6
58.2756,306
58.276,373
58.3038,336.3
58.3107,149.3
58.3133,270.7
58.3225,200.2
58.3363,246.2
58.3411,76.1
58.3431,261.8
58.3534,209.2
58.3852,84.8
58.404,259
58.4088,356.9
58.4206,527.8
58.4345,335.1
58.4376,348.3
58.4407,459.6
58.4488,19.2
58.4639,263.8
58.4738,392
58.4742,685.8
58.4752,93.4
58.4851,675
58.5006,16.8
58.5228,268.2
58.5361,124.7
58.5827,153
58.5869,111.6
58.5901,212.5
58.61,114.2
58.6191,19.2
58.6382,128.9
58.6403,102.1
58.6619,130
58.6674,182.9
58.6789,393.2
58.6893,221.2
58.7005,161.7
58.7479,244.7
58.7615,94
58.8137,89.8
58.8197,106.5
58.8207,130.4
58.8336,343.2
58.8523,133.5
58.8559,127
58.8645,19.6
58.8813,17.6
58.8855,85.2
58.8948,87.4
58.9134,305.4
58.9277,213.3
58.929,155.9
58.9457,198.8
58.9521,327
58.9857,482.6
58.986,109.7
59.0049,17.5
59.0166,607.9
59.0202,135.9
59.0288,18.8
59.0308,580.1
59.0341,344.2
59.0431,375.6
59.0672,349.7
59.0767,616.9
59.0843,92.3
59.0959,330.5
59.108,342.1
59.1103,364.9
59.113,71.7
59.1156,87.8
59.1181,89.6
59.1209,17.5
59.1461,342.5
59.1511,176.6
59.1627,374.6
59.1643,376.7
59.1746,119.9
59.1784,116
59.2172,453.4
59.2342,109.7
59.25,98.1
59.2651,85.8
59.2719,736.7
59.3011,123.5
59.325,117.3
59.3514,671.6
59.3573,153.5
59.3581,16.4
59.3625,228.4
59.3696,215.5
59.3912,15.4
59.3971,186
59.4046,134.2
59.407,187
59.4306,234.2
59.4627,63.9
59.467,395.5
59.4699,399
59.4755,92.2
59.4819,17.4
59.4827,94.9
59.4837,120.3
59.492,88.7
59.494,25.2
59.4986,176.3
59.5142,220.6
59.5288,289.7
59.5318,18.8
59.5481,110.8
59.5504,109.9
59.5686,182.5
59.5787,104.5
59.5851,574.6
59.5981,18.5
59.6094,162.7
59.629,358.1
59.6297,289.1
59.6513,552.8
59.6628,693.6
59.6716,151.1
59.6756,263
59.6926,231.7
59.6951,220.7
59.698,129.2
59.6987,84.3
59.7025,578.5
59.7045,526.3
59.7237,575.9
59.7264,247.3
59.7396,111.4
59.7404,20.4
59.746,148.9
59.7513,130.9
59.7552,343.8
59.7558,286.2
59.7666,17.1
59.7822,215
59.7846,362.7
59.7897,262.8
59.792,112.5
59.8,283.3
59.8198,119.1
59.8208,122.7
59.8274,397.4
59.8437,343.5
59.8445,339.1
59.8537,438.3
59.8623,15.7
59.8722,328.5
59.8785,220.5
59.8828,109.1
59.9016,360.8
59.9022,15.1
59.9029,17.1
59.9125,241.5
59.9221,537
59.9414,288.8
59.9432,379.5
59.9522,240.2
59.9629,118.6
60.0185,276.7
60.045,17.3
60.0525,516.6
60.0539,402.1
60.0569,256.3
60.0592,199.3
60.062,425.3
60.0777,83.3
60.0861,99.4
60.0997,18.1
60.1005,95.4
60.1035,395
60.1056,118.2
60.1255,322.5
60.1309,229.6
60.1407,362.3
60.1424,81.8
60.1455,92.9
60.147,203.3
60.1641,81
60.1706,433.1
60.201,112.7
60.2177,181.7
60.2342,88.7
60.263,396.5
60.2771,211.5
60.2794,127.3
60.3227,96.6
60.3236,287.1
60.3247,215.3
60.3525,354.2
60.3595,78.2
60.3618,766.7
60.3952,267.3
60.4146,87.4
60.4253,159.4
60.4348,88
60.4357,96.7
60.4593,320.6
60.4678,691.7
60.4949,17.6
60.536,116
60.5477,328.3
60.5546,396.5
60.6062,541.9
60.6094,134.4
60.6325,758.1
60.6353,168.4
60.6478,277.9
60.669,83.5
60.6759,27.8
60.6767,113.5
60.6862,222.5
60.6909,270.9
60.6917,358.9
60.6928,89.1
60.7019,17.1
60.7094,362.7
60.7139,222.9
60.7183,366.9
60.741,271
60.7747,19.3
60.7774,123.3
60.7911,17.5
60.8061,106.3
60.8188,122
60.8484,350.6
60.852,775.5
60.8622,190.9
60.8709,99.7
60.8904,17.8
60.8941,484.3
60.895,89
60.9138,410.9
60.9176,321.6
60.9257,248.5
60.9376,445.2
60.9406,129.6
60.9557,384
60.9633,839.4
60.9791,17.6
60.9809,195.9
60.9824,128.4
60.9858,677
61.0215,102.7
61.0335,377
61.0362,127.9
61.0416,255.9
61.0591,173.1
61.0659,263.8
61.0693,136.8
61.1129,21.5
61.1214,120
61.1269,96.8
61.1392,274.5
61.1422,374.3
61.1612,263.6
61.1911,86.7
61.2019,565.8
61.2021,567.3
61.219,171.1
61.2278,213.7
61.2488,19.4
61.2676,291.1
61.3103,278.7
61.3241,142.3
61.3568,688.8
61.3574,17.5
61.3764,115.8
61.3772,399.7
61.3855,131.9
61.4099,152.7
61.4119,127.8
61.4199,216.1
61.4228,131.6
61.424,112.2
61.4499,704
61.4528,29.1
61.4546,355.3
61.4622,93.7
61.4703,215.1
61.487,267.8
61.5102,95.8
61.5168,141.5
61.5199,88.1
61.5227,235.6
61.5353,16.2
61.555,227.7
61.583,608.7
61.591,219.3
61.5921,320.1
61.6001,403.4
61.6086,16.9
61.6364,389.2
61.6446,82
61.6567,276.1
61.6681,87.2
61.6801,123.9
61.6826,177.3
61.6886,129.1
61.6937,309.6
61.6972,600.1
61.6996,445.9
61.7125,717.8
61.7191,19.2
61.7261,136
61.7269,91.4
61.7354,386
61.7387,18
61.7459,186.5
61.7532,124.6
61.7593,382.7
61.7621,767.5
61.8128,135.8
61.8172,133
61.8193,341.9
61.8256,207.6
61.8288,162.9
61.8537,151
61.8883,370.1
61.9002,97.5
61.9027,705.3
61.9201,72.5
61.9244,545.4
61.9606,112.5
61.9653,751.7
61.9675,194.5
61.9957,115.4
61.9968,275.8
62.0026,450.9
62.0027,458.5
62.0117,329.8
62.0499,20.9
62.0553,81.8
62.0572,15
62.0919,18.4
62.114,416.1
62.1155,25.1
62.119,413.7
62.132,17.5
62.1376,78.1
62.1461,18.6
62.1745,67.7
62.1817,206.7
62.1993,331.4
62.2052,259.1
62.2433,127.7
62.2464,413.9
62.2476,222.6
62.2522,386.8
62.2942,325.3
62.2998,24.2
62.31,177.3
62.3129,335.6
62.3193,227.1
62.3208,253
62.3295,147.8
62.3342,539
62.335,541.9
62.3394,245.5
62.3479,213.4
62.3515,417.2
62.3535,18.5
62.3594,20.7
62.3618,665.7
62.4038,195.3
62.408,23.6
62.4299,224.3
62.4659,95
62.4765,625.5
62.4969,311.5
62.553,254.8
62.5577,305.1
62.5664,94.1
62.5926,25.4
62.6119,155.2
62.6346,77
62.652,218.6
62.6581,317.2
62.6896,693.3
62.6956,342.5
62.7059,677.2
62.7117,291.5
62.7469,79.3
62.7579,90.9
62.7615,264.9
62.7659,88.6
62.7673,106.2
62.7708,434.9
62.7731,400.2
62.8073,349.8
62.8729,298.2
62.8862,16.9
62.8923,210.4
62.8937,155.5
62.9043,101.3
62.9248,194.1
62.9314,26.6
62.9345,721.8
62.9366,224.4
62.9588,101
62.9627,621.3
62.9727,339.1
62.9774,18.8
62.9881,152
62.9887,102.2
62.994,217.7
63.0392,446.4
63.0491,122.3
63.0585,643.5
63.0622,20.2
63.0629,725.8
63.0732,20.6
63.076,18
63.0875,116.3
63.1258,142.6
63.1332,166
63.1576,118.4
63.1616,386.2
63.1779,380.2
63.2483,25.4
63.2506,17.2
63.2529,532.7
63.2609,392.4
63.2619,98.9
63.2639,255.1
63.2724,339.1
63.2734,88.1
63.2908,322.7
63.2968,85.1
63.3306,803.2
63.3508,301.6
63.358,236
63.3751,431.7
63.3862,786.4
63.4085,310.4
63.4237,699.6
63.4278,18.1
63.44,612.7
63.4492,229
63.4569,126.7
63.4695,192.7
63.471,18.8
63.4749,18.6
63.4905,270
63.4973,793.9
63.5618,367.3
63.568,128.6
63.5833,176.3
63.5854,118.6
63.6075,98.1
63.6122,125.7
63.6235,143
63.6672,20.3
63.6776,127.3
63.6899,348.9
63.6921,117.3
63.6974,110.2
63.7021,339.5
63.7331,349
63.7442,94.1
63.747,639.8
63.7736,214.3
63.7763,21.4
63.781,755
63.785,112.1
63.8079,15.7
63.819,18.4
63.8211,84.7
63.8274,113.7
63.8348,213.8
63.8362,391.8
63.8398,73.6
63.8494,181.8
63.8512,333.5
63.8514,613
63.8516,627.1
63.8542,17.5
63.8549,98.4
63.867,726
63.891,230.9
63.9134,82
63.9483,294.8
63.9642,93
63.9735,106.5
63.9955,103
64.0033,190.2
64.0057,135.6
64.0266,155.7
64.0337,470.7
64.0655,35.2
64.0836,247.1
64.097,264.2
64.0986,305.6
64.1582,123.1
64.1587,162.1
64.1802,101.3
64.1823,88.7
64.1833,451.8
64.217,25
64.2373,94
64.2605,120.9
64.2612,627.2
64.2816,227.1
64.2958,387.8
64.3074,16.5
64.3101,254.4
64.3173,854.5
64.3202,14.9
64.3421,249.2
64.3463,19.1
64.3469,157.3
64.3483,263.5
64.3501,14.8
64.3739,17.6
64.3745,314.1
64.3764,185.5
64.3874,175.1
64.4091,95.7
64.4294,331.9
64.4447,120.1
64.4723,360.1
64.4904,134.9
64.5263,657.6
64.5572,546.5
64.5891,147.4
64.5931,89.9
64.5963,307.9
64.5973,110.2
64.6223,417
64.6245,181.8
64.6296,214
64.6301,87.6
64.6393,359.6
64.65,20
64.691,201.8
64.7044,18.8
64.7116,146.6
64.7151,397
64.7273,183.1
64.7379,470.2
64.7465,140.2
64.751,120.1
64.7631,545.4
64.7674,28.4
64.7686,381.2
64.7716,108.1
64.7813,105.5
64.7875,29.9
64.7884,445
64.814,91.2
64.8666,645.4
64.8678,689.6
64.8775,121.3
64.8791,280.8
64.8802,387.8
64.8894,116.4
64.8905,392.6
64.8983,282.5
64.9047,313.5
64.9097,111
64.9119,122.2
64.9177,389.5
64.9226,145.4
64.9308,393.7
64.9376,84.4
64.9378,78
64.9406,95.6
64.9566,110.2
64.9684,126.3
64.9717,288.5
64.9947,145.2
65.0149,165.7
65.0209,493.9
65.0241,96.6
65.031,276.7
65.0489,345
65.0551,132.8
65.0626,98
65.0853,554.2
65.1014,30
65.1297,370.6
65.1388,271.7
65.1415,484.8
65.1501,107.8
65.1566,274.7
65.1695,649.5
65.1703,22.1
65.1785,145.1
65.1984,195.2
65.1993,221.7
65.201,648.2
65.2031,106.7
65.2154,451.6
65.2575,125.1
65.2582,270.9
65.2796,249.1
65.3126,327.9
65.3161,377.5
65.3256,271.6
65.3286,26.6
65.3446,216.7
65.3818,346.4
65.3824,141.1
65.3837,158.3
65.3898,735.9
65.3951,344.2
65.4221,15.4
65.4291,134.1
65.4321,536.9
65.4359,16.6
65.4383,89.6
65.4728,488.8
65.4845,18.6
65.51,71.6
65.5345,138.3
65.5401,341
65.5471,18.6
65.56,161.7
65.5607,16.8
65.5784,177
65.5928,17.2
65.604,234.1
65.6181,140.3
65.6198,472.3
65.6462,474.5
65.6591,323.9
65.688,418.9
65.7223,142
65.75,95.3
65.7577,371.8
65.7766,328.2
65.7819,17
65.7976,99.5
65.852,223.1
65.8547,137.6
65.8639,17.7
65.8658,291
65.8764,73.1
65.8925,254.1
65.8989,437
65.9071,103.2
65.9188,320.9
65.9235,227
65.9596,90.8
65.9636,87.4
65.9709,294.7
65.9822,323.3
65.9883,102.4
65.994,117.7
66.0012,79.9
66.0078,144.3
66.0112,284.4
66.0281,371.3
66.0307,582.3
66.0328,16
66.0475,389.5
66.0489,208.6
66.0537,429.5
66.0639,311.9
66.073,215.4
66.1225,96.2
66.125,80
66.1345,365.9
66.1647,345.1
66.1763,566.1
66.178,207.5
66.1844,359.8
66.1869,111.4
66.1979,107.5
66.2037,73.6
66.2074,103.4
66.2121,834
66.2188,86.8
66.2292,28.1
66.2426,103
66.2437,136
66.2456,103.9
66.2491,782.9
66.2557,199.1
66.2681,363.7
66.2881,106.2
66.2986,19.8
66.3073,25.7
66.3139,102.4
66.3198,392.1
66.3414,18.1
66.3455,320.9
66.3592,221.1
66.3705,98.7
66.3721,205.8
66.3758,419.8
66.3839,190.7
66.3861,98.9
66.389,175.8
66.3936,19.4
66.3976,154.2
66.3978,154.1
66.4013,124
66.4073,15.1
66.4118,98.2
66.4211,94.6
66.4334,19.3
66.434,135.4
66.4591,123.3
66.4743,84
66.4811,128.9
66.5027,212.2
66.5058,497.8
66.5162,77.8
66.548,348.6
66.5724,91.4
66.5781,97.5
66.5832,247.8
66.6296,151.9
66.6305,281.6
66.6374,62.4
66.6407,346.4
66.6432,200.4
66.6444,69
66.6462,615.8
66.6596,396.5
66.6675,19.2
66.6682,18.5
66.6688,106.7
66.6885,93.2
66.7059,234.5
66.7173,17.8
66.7183,114.3
66.7257,94.6
66.7286,426.5
66.7498,17
66.7526,132
66.7827,231.5
66.7889,366.3
66.7984,86.3
66.8195,250.6
66.8633,111.4
66.8698,281.9
66.8753,173.9
66.8789,651.9
66.8797,120.3
66.8856,74.4
66.8987,89.6
66.9332,142.8
66.9522,301
66.9669,251.6
66.9707,650.5
66.9732,392.3
66.9826,26.2
66.987,326.4
66.9891,140.1
67.0061,162.2
67.0113,510.1
67.0125,79.3
67.0249,387.2
67.0254,351.5
67.0541,65.3
67.0586,433.6
67.0609,90.7
67.0784,258
67.0804,144.8
67.0887,266.8
67.0922,119
67.104,20.4
67.1188,658
67.1334,367.9
67.1509,320.2
67.1545,251.8
67.1651,143.7
67.1679,499.1
67.1689,23.2
67.1731,333.8
67.1847,192.8
67.1885,118.8
67.215,622.8
67.2239,332.7
67.2249,703.7
67.267,302.2
67.2818,177.2
67.2828,799
67.2845,489.2
67.2913,16.7
67.3159,307
67.3211,157.3
67.331,486.2
67.348,137.3
67.3529,149.5
67.3558,73.4
67.3601,78.3
67.3789,127.6
67.3943,96.4
67.3954,16.4
67.4048,103.3
67.4159,98.4
67.4478,126.8
67.4818,113.9
67.4975,612.1
67.5126,344.4
67.516,426
67.5197,239.6
67.57,416.9
67.5799,16.1
67.5807,81.9
67.599,26.2
67.6014,16.7
67.609,531.9
67.6178,17.6
67.6184,132.6
67.6234,200.8
67.7344,284.6
67.7348,216.6
67.7483,377.6
67.752,351.8
67.7596,204.3
67.7708,189.1
67.772,234.8
67.8201,566.1
67.8288,90.1
67.8641,137.6
67.8858,788.7
67.9068,215.5
67.9137,215.2
67.9304,341.5
67.9493,223.6
67.9738,215.4
67.9821,503.5
67.9981,587.9
68.0048,119.7
68.0159,83.6
68.0289,26.2
68.0437,656.3
68.0472,142.1
68.0528,246
68.0548,231
68.0635,386.5
68.0808,98.4
68.1064,260.3
68.1173,19.9
68.1224,344.7
68.1363,283.7
68.1425,132.9
68.1898,81
68.2222,89.2
68.2271,212.7
68.2347,160.4
68.2482,229
68.2529,163.9
68.2747,214.1
68.298,142.1
68.3007,81.4
68.3646,31.2
68.3665,149.2
68.3704,308
68.4065,20.2
68.449,26.3
68.4682,134.9
68.479,174.9
68.4833,424.5
68.5091,248.8
68.5105,313.4
68.5178,99
68.5377,376.1
68.5449,156.4
68.5512,157
68.5681,17.6
68.5945,100.4
68.5981,793.1
68.5999,611.7
68.6214,361.4
68.627,319.6
68.6287,238.5
68.6401,18.9
68.6426,425
68.6433,683.5
68.6836,126.3
68.7138,196.4
68.7198,171.7
68.7211,260.9
68.7541,149.7
68.7588,223.4
68.7598,325.6
68.7604,649.3
68.7648,285.5
68.7689,17.3
68.7753,94.8
68.7968,251.6
68.8067,163.4
68.8069,169.8
68.8071,146.8
68.8176,292.8
68.8239,94.9
68.8281,108.5
68.8818,276.1
68.9049,91.6
68.9175,215.4
68.9217,91
68.9232,148.1
68.9342,190.6
68.9486,230.4
68.9728,300.7
68.9773,152.6
69.0046,431.7
69.0246,109
69.0289,263.2
69.0867,527.4
69.1286,695.7
69.133,793.2
69.1601,367.8
69.1912,171.7
69.1931,204.2
69.201,406.8
69.2094,299.2
69.2248,309.4
69.2522,422.5
69.2586,165.7
69.2612,705.4
69.2756,305.6
69.2788,319.7
69.2796,92.4
69.2831,381.9
69.2857,18.5
69.3174,233.3
69.3435,238.5
69.3463,125.5
69.3512,146.9
69.3529,181.5
69.3581,485
69.3659,151.7
69.379,92.6
69.3897,156.9
69.3964,90.3
69.4011,367.3
69.4149,104
69.4252,97.1
69.4299,258.3
69.4473,117
69.45,187.7
69.4727,16.1
69.4734,18.6
69.4824,116.3
69.484,114.2
69.5136,349
69.5368,229.5
69.548,88.7
69.5694,382
69.5978,270.4
69.612,277.5
69.6316,88.4
69.6715,636.1
69.6731,121.9
69.684,129.1
69.6899,18
69.7069,153.1
69.7089,191.7
69.7143,470.5
69.7341,141.3
69.7429,362.5
69.7699,358.4
69.7797,72.7
69.8129,214.6
69.8201,16.1
69.8229,499.5
69.8562,17.5
69.8797,108
69.9348,255.9
69.9927,673.9
70.0109,137.4
70.0363,253
70.0577,32.6
70.0648,408.6
70.0697,323.2
70.0791,276.1
70.1036,80.1
70.1089,292.4
70.1121,362.2
70.1247,99.8
70.1253,399.3
70.1584,460.6
70.1648,284.4
70.1846,97.5
70.2044,130.1
70.2097,78.8
70.2234,98.9
70.2252,120.6
70.2254,118.9
70.2438,146.3
70.2471,452.8
70.253,431.7
70.2599,569.4
70.262,297.6
70.2819,86.3
70.2846,16.8
70.3196,585.9
70.3661,85.3
70.3767,256.6
70.3967,432.8
70.4086,22.5
70.4212,190.3
70.4561,110
70.4677,22.5
70.4712,140.8
70.4918,27.2
70.5031,313.1
70.5128,210.5
70.5204,392.4
70.5395,260.2
70.5445,255.6
70.5679,260.5
70.5867,17.3
70.5944,106
70.6228,208.2
70.6509,19.1
70.6573,243.1
70.6589,662.1
70.671,179.4
70.6866,75
70.7177,624.8
70.7276,89.1
70.7443,94.4
70.7547,227.6
70.7561,305.9
70.7871,106.2
70.8049,94.3
70.8118,128
70.8257,108.8
70.8576,152.1
70.8669,475.7
70.8704,405.2
70.9075,20.5
70.9152,153.2
70.9274,78.6
70.9418,106.3
70.9425,107.6
70.9435,212.7
70.9974,248.3
71.0106,288.1
71.036,153.6
71.0563,171.1
71.065,386.3
71.0806,138.2
71.1373,17
71.1755,381.5
71.1817,89
71.1895,97.1
71.1906,139.2
71.2127,166.3
71.2406,366
71.2463,197.1
71.2504,86.4
71.2672,121.5
71.2867,203.2
71.2936,182.3
71.2963,111.3
71.2996,139.4
71.3162,102.2
71.3175,111.9
71.3236,109.6
71.3486,127.1
71.3696,362.8
71.3723,471.5
71.3738,16.4
71.4095,389.4
71.4142,16.7
71.4253,17.6
71.4299,136.8
71.4454,243.3
71.457,267.1
71.4702,99.2
71.4795,345.3
71.495,291.1
71.5127,134.9
71.5171,89.1
71.5317,211.6
71.5546,345.5
71.5672,17.5
71.5689,323.6
71.5696,159.7
71.6133,300.8
71.615,203
71.6159,183.6
71.6364,172.9
71.6447,364.6
71.6651,98.4
71.6727,96.2
71.6825,18.4
71.7136,467.7
71.7706,692
71.7813,330.8
71.8128,671.9
71.8153,140.3
71.8374,228.1
71.8404,271
71.8551,90.7
71.8674,290.5
71.8891,644.9
71.9104,287.1
71.934,32.3
71.9391,89.1
71.948,29.9
71.9537,18.7
71.9807,626.7
71.9935,154
72.0068,506.5
72.0137,62.5
72.0167,135.8
72.0234,106
72.0335,512.4
72.0442,23.8
72.0483,829.5
72.0586,269.3
72.0644,604.3
72.0762,384.5
72.0806,742.7
72.0956,25.2
72.1013,746.8
72.1411,467.5
72.1884,780.3
72.2107,145.1
72.2148,166.6
72.222,173.2
72.2239,628.4
72.225,663.6
72.2262,17.7
72.2275,237.3
72.2293,417.6
72.2305,526.9
72.2315,1077
72.2321,1080.9
72.2333,1089.3
72.2339,2123.8
72.2347,1130.9
72.2359,2945
72.2374,3663.8
72.2389,2024.4
72.2392,1853.7
72.2394,1858.5
72.2406,2514
72.2418,4151.3
72.2432,2121.7
72.244,1601.5
72.2452,2408.7
72.2461,1152.1
72.2469,1448.3
72.248,2338.7
72.2494,639.8
72.2501,973.9
72.2503,940
72.251,1130.4
72.2519,611.4
72.2533,218.2
72.2543,533.4
72.2547,441.8
72.2548,446.8
72.2556,422.2
72.2714,201.1
72.274,113.2
72.2752,138.7
72.2828,121.1
72.2882,222.2
72.3044,83.9
72.359,363
72.3882,370.7
72.437,256.9
72.443,195
72.4481,385.8
72.4725,138.3
72.4838,271.8
72.4941,20.7
72.5089,18.8
72.5223,255.2
72.5523,767.5
72.5652,360.1
72.5691,157.2
72.5751,80.5
72.6263,108.6
72.6349,439.6
72.6688,375.1
72.6863,112.4
72.7071,192.9
72.7108,256
72.7365,252.1
72.7471,173.9
72.7545,251.4
72.7632,89.1
72.7652,134.5
72.7735,382.2
72.7997,77.8
72.804,97.3
72.8089,290.1
72.8105,475.4
72.8203,335.3
72.8365,298.9
72.8381,271.8
72.8525,223.2
72.8648,229
72.8677,96.2
72.8723,98.2
72.9006,368.4
72.919,337.7
72.9295,15.6
72.9369,947.6
72.9487,132.2
72.9657,20.6
72.9732,384.7
73.0178,104
73.0228,183.1
73.0263,145.9
73.0394,624.2
73.0422,390.7
73.0499,376.1
73.0793,75.9
73.1207,383.9
73.1526,117.7
73.1555,370.4
73.1578,131.6
73.1729,528
73.1847,114.5
73.1909,99.2
73.204,139.9
73.3126,16.8
73.383,20.4
73.3898,83
73.4254,141.3
73.4277,292.4
73.441,174.6
73.449,716.9
73.4498,354.8
73.4855,739.6
73.4886,18
73.4991,301.6
73.5055,364.7
73.5219,344.4
73.5457,318.3
73.55,207.3
73.5619,86.9
73.5705,212.7
73.5746,920.3
73.5778,131.9
73.5843,158.6
73.5937,471.3
73.6607,107.1
73.6869,84.3
73.727,151.2
73.7307,394.9
73.743,16.5
73.7515,164.9
73.8021,255.3
73.8184,21.5
73.8206,657.3
73.8312,629
73.8744,215.4
73.8897,555.6
73.8992,109.6
73.9096,354
73.9642,790.8
73.9677,21.4
73.9952,280.4
73.9957,206.3
74.0304,123.9
74.0485,19.1
74.0598,4955.9
74.0701,88.1
74.0716,81.2
74.1156,528.7
74.1311,225.6
74.141,627.4
74.1511,242.7
74.18,347.7
74.1831,433
74.1872,223.9
74.1913,135.3
74.2002,298.9
74.2024,761.5
74.2525,239.6
74.2821,22.4
74.2996,351.6
74.3346,377.7
74.3461,251.2
74.3632,108.4
74.3751,158.7
74.381,81.6
74.3816,330.2
74.3874,714.8
74.3904,15.8
74.3957,76.4
74.403,112.9
74.4145,130.7
74.4291,91.5
74.4384,15.7
74.4388,28.4
74.4684,270.6
74.4771,252.5
74.4929,386.7
74.4985,162.5
74.5435,145.5
74.5488,17.3
74.57,217.3
74.5766,239.6
74.5969,113
74.6249,79.6
74.6489,323.6
74.6531,668.4
74.6587,163.2
74.6599,112.5
74.6666,185.6
74.6766,782.5
74.6787,98.4
74.7167,268.6
74.7243,203.4
74.7339,427.2
74.7579,432.4
74.7603,104
74.7839,131.5
74.7844,357.1
74.7933,20
74.8056,296.2
74.8062,157.1
74.8371,435.6
74.8393,137.9
74.8515,672.3
74.8542,293.5
74.8603,298.2
74.9092,114.9
74.9365,25.7
74.9403,488.9
74.9477,301.1
74.9564,426.3
74.9698,494.9
74.9782,79.6
74.9869,380.1
75.009,542.5
75.0216,163.2
75.0228,23.9
75.0543,74.6
75.0639,363.1
75.0743,16.7
75.0783,156.8
75.0831,353
75.0973,80.2
75.1037,403.7
75.1927,324.9
75.2272,135.7
75.233,17.6
75.2395,364.1
75.2726,141.7
75.2948,180.7
75.312,16.3
75.3398,306.4
75.3419,88.2
75.3464,747.8
75.3509,141.1
75.3641,20.9
75.3681,691.4
75.3759,128.9
75.3799,84.8
75.3817,91
75.3949,361.4
75.4304,315.2
75.4414,108.5
75.448,359.7
75.4581,140.9
75.4635,712.2
75.4798,204.7
75.4817,269.6
75.4949,435
75.5036,17.3
75.5187,740.4
75.5332,103.6
75.56,126.9
75.5736,128.2
75.5834,238.1
75.5893,159.5
75.6036,443.2
75.621,691.4
75.6691,304.9
75.6702,349.8
75.6778,136.8
75.6843,243.7
75.6946,267
75.7124,217.5
75.7207,85.3
75.7261,765.2
75.7276,387.7
75.7309,215
75.7316,22.6
75.7912,248.6
75.7934,338.8
75.8035,195.2
75.8049,237.4
75.8096,318
75.8279,19.3
75.891,99.9
75.9339,72.6
75.9463,98.5
75.9593,670.3
75.9636,293.3
75.9784,406.6
75.9994,217.9
76.0065,406.5
76.0278,96.6
76.0387,26.8
76.063,395.9
76.0664,235.3
76.0701,563.2
76.0708,112.5
76.0755,168.4
76.0824,124.5
76.0952,81.3
76.0989,99.9
76.1115,749.3
76.1282,118.3
76.1426,18.2
76.1683,91
76.1812,106.9
76.1832,71.7
76.1883,69.8
76.1923,768.6
76.2125,123.5
76.2354,342.5
76.2524,575.8
76.3622,21.2
76.4005,270.1
76.4051,248
76.4073,100.8
76.4184,350.8
76.4389,78.1
76.4826,97.6
76.4862,80.6
76.4909,223.4
76.5225,91.2
76.5233,144.4
76.5451,68.1
76.5584,127.2
76.5637,447.3
76.5953,18.9
76.6126,351.5
76.6464,16.9
76.654,509.7
76.7598,123.3
76.7686,253.8
76.8283,26.6
76.8316,868.8
76.8398,379.6
76.8413,100.4
76.8494,201.7
76.8949,585.8
76.8988,84.6
76.9628,80.8
76.9709,99
76.9756,126.6
76.9835,318
77.02,468.5
77.021,90.7
77.0225,90.3
77.0348,421.3
77.0355,1065.5
77.0384,130492.5
77.0402,19.5
77.0435,126.8
77.0497,650.1
77.0521,317.1
77.0582,16.7
77.0771,105
77.0858,69.4
77.0911,97.5
77.1231,171.3
77.1274,90.9
77.1401,174.9
77.1485,136.5
77.1617,94.6
77.1848,497.8
77.1875,155.9
77.2149,18.3
77.2233,932.6
77.2315,589.8
77.2998,123.5
77.3039,143.1
77.3087,352.9
77.3217,138.7
77.3357,181.6
77.3413,20.2
77.3858,372.7
77.3984,128.9
77.4371,415
77.4455,377.2
77.4624,405.2
77.473,95.7
77.4925,81.8
77.5096,126.7
77.5114,24.6
77.5352,133.5
77.5418,201
77.5628,255.8
77.5747,294.4
77.581,647
77.5896,292.9
77.6049,171.5
77.6238,111.6
77.6322,89.3
77.6525,176.9
77.6681,99.9
77.6762,91.1
77.7096,28.5
77.719,154.1
77.7285,32.7
77.7464,22
77.75,467.9
77.767,368.5
77.8032,89.8
77.8171,67.1
77.8565,117.4
77.8628,132.6
77.8811,162.7
77.8953,241
77.9117,250.9
77.9201,551.2
77.9373,721.3
77.9617,84.9
77.984,351.5
77.9912,96.2
78.0063,290.4
78.0408,205.7
78.0417,4505.2
78.0463,21.4
78.0568,16.4
78.0687,393.1
78.0732,402.9
78.0771,328.2
78.1028,465.4
78.1051,112.4
78.1413,121.4
78.1484,535.8
78.15,388.1
78.1595,153
78.1735,107.8
78.1959,186.9
78.2111,19
78.2423,114.7
78.2528,83.4
78.2548,358.1
78.2573,74.5
78.2808,354.5
78.3079,503.7
78.3095,72.6
78.3753,186.4
78.4169,191.1
78.4279,357.3
78.4359,89.6
78.4509,72.5
78.5041,133.4
78.514,17.9
78.5243,18.9
78.528,290.6
78.5482,244.6
78.5778,342.9
78.5812,85.9
78.5883,78.1
78.6089,18.4
78.6238,29.4
78.6458,108
78.6661,138.3
78.7077,21.9
78.7859,347.9
78.8008,659.1
78.8155,32.8
78.83,236.3
78.8487,268.6
78.8895,242.5
78.9025,79.8
78.9207,115.3
78.9515,108.4
78.9969,103.5
79.0145,120.8
79.0167,275.8
79.0479,121.9
79.0541,2569.7
79.0698,91.1
79.0722,204.3
79.1189,320.6
79.1294,520
79.1462,16.9
79.1527,99.6
79.1598,77.4
79.1628,257.8
79.1741,350.8
79.1869,314.4
79.1888,69.6
79.1904,28.5
79.208,260.3
79.2213,189.2
79.2349,123.7
79.2439,211.1
79.2608,498.7
79.2627,120.4
79.2771,115
79.2906,235.8
79.2913,233.1
79.3281,99.5
79.352,270.7
79.3644,228.2
79.3771,200.5
79.3832,107.5
79.4152,485.4
79.4486,651.5
79.4522,560.7
79.467,266
79.4886,408.8
79.504,27.1
79.5089,307.2
79.6308,421.2
79.6397,138.8
79.6507,85
79.6556,97.7
79.6657,469.4
79.6738,16.3
79.6883,127.6
79.6908,16.6
79.6946,101.3
79.6951,326.3
79.7097,85.9
79.7389,92.4
79.7781,117.1
79.8557,18.5
79.8693,193.1
79.8746,341.7
79.8914,17.4
79.8926,106.9
79.9388,236.8
79.9463,18.4
79.9589,471.7
79.9615,724.1
79.9721,133.6
79.9799,395.5
79.9859,213.1
79.9938,16.1
79.9952,222.9
79.9993,741.2
80.014,115
80.0516,81.2
80.0528,217
80.0569,16.6
80.0574,19.5
80.0634,93.4
80.0778,646.1
80.0985,234.8
80.1004,252.5
80.1283,127.9
80.1349,19.4
80.1497,412.2
80.1795,17.7
80.2395,391.2
80.2551,114.9
80.2642,155
80.2778,104.6
80.2996,257.9
80.3147,444.3
80.328,317.5
80.3715,77.1
80.3769,78.3
80.4132,181.4
80.4399,236.7
80.4679,16.2
80.5002,278.2
80.5061,179.4
80.5291,756.5
80.5296,367.6
80.5363,140.6
80.5421,375.7
80.5451,831.9
80.5461,132.9
80.551,142.4
80.5578,19.1
80.5923,850.4
80.595,153.2
80.6585,122.3
80.6739,84.4
80.696,331.9
80.6989,211.7
80.7339,18.2
80.7351,541.6
80.7443,519.3
80.764,127.8
80.7843,422.6
80.8207,100.5
80.8217,19.1
80.8257,17.8
80.8378,167.7
80.8938,64.8
80.8961,584.6
80.911,17.1
80.9205,210.6
80.9398,134.2
80.9477,40749.3
80.9892,211.8
81.0081,594.3
81.0085,595.4
81.0228,90
81.0266,102.4
81.0345,217.9
81.0409,143.3
81.0419,132.3
81.0636,296.2
81.0697,1281.5
81.0783,319.1
81.1071,220.1
81.1474,797.1
81.1481,521.3
81.1484,483.2
81.1493,568.1
81.15,490.2
81.1508,576.2
81.1518,253.7
81.1528,233.7
81.1543,183.5
81.1545,186
81.1586,101.6
81.2174,552.6
81.2251,292.9
81.2385,632.7
81.2396,199.6
81.242,131.8
81.2668,75.2
81.2864,20.6
81.2971,355.9
81.3162,128
81.3475,273.5
81.3866,31.6
81.3927,123.6
81.4032,751.7
81.4228,196.9
81.4277,94.9
81.4853,99
81.4893,496.2
81.492,205.6
81.5153,570
81.5402,215
81.5633,146.2
81.5845,94.9
81.5915,17
81.5961,892.2
81.6075,89.8
81.6095,138.4
81.6192,215.6
81.6685,99.4
81.6703,328.7
81.6854,494.4
81.7024,107.3
81.7227,105.8
81.7419,285.3
81.7979,96.8
81.8093,792.6
81.8549,147.7
81.8622,198.3
81.8741,86.8
81.8789,273
81.9542,443.9
82.0565,267.2
82.0617,27.3
82.0989,637.6
82.1009,369.8
82.1062,369.8
82.1167,137.6
82.1466,369.8
82.1569,702.9
82.1686,297.3
82.2031,78.9
82.2112,138.2
82.2294,460
82.2351,98.2
82.254,409.2
82.2652,135.7
82.2671,32.6
82.2873,104.2
82.2942,104.1
82.3069,199.8
82.3238,17.9
82.3337,668.6
82.3637,128.5
82.3709,19.4
82.3729,573.5
82.3736,170.2
82.3794,18.3
82.3984,95.7
82.4041,86.2
82.4092,235.6
82.4172,95.5
82.4271,146.7
82.486,472.9
82.4864,210.5
82.4887,17.5
82.502,369.5
82.5383,17.2
82.5537,247.1
82.5604,478.6
82.5613,234.5
82.5748,105.2
82.5783,90.7
82.5891,229.6
82.5941,395.7
82.6053,103.2
82.6071,172
82.6239,90.8
82.6272,172.3
82.6706,186.2
82.6778,241.3
82.6907,138.2
82.7108,96.3
82.7213,214.6
82.7274,80.2
82.7497,581.4
82.7741,112.5
82.7802,759.9
82.7813,366.4
82.7943,122.4
82.7976,313.6
82.8223,226.2
82.8312,376.8
82.837,22.8
82.884,344.4
82.8846,82.1
82.8943,140.3
82.9018,122.7
82.9171,272.5
82.9215,494.9
82.9253,18.5
82.9302,17.2
82.9447,11235
82.9562,155.2
82.9851,117.8
82.9966,260.3
83.0097,25.2
83.0215,628
83.0288,344.8
83.0583,71.9
83.0641,262.4
83.0717,19.3
83.0774,155
83.0863,84.7
83.0944,201.4
83.122,19.6
83.1356,535.6
83.1604,17
83.1948,262
83.2091,111.4
83.213,675.5
83.2205,372.9
83.2374,441.6
83.2663,355.7
83.2676,187.2
83.2713,218.5
83.2773,103
83.2832,382.5
83.29,93.6
83.3173,103.8
83.3196,404.3
83.3226,111.3
83.3242,520.4
83.325,304.9
83.3769,129.8
83.3954,18.7
83.4197,344
83.4519,637.9
83.4843,93.6
83.5019,153.8
83.521,65.1
83.523,695.1
83.5329,105.3
83.5506,453.8
83.5624,84.2
83.584,17.2
83.6226,113.1
83.6271,226.2
83.6475,231.8
83.6595,224.4
83.6648,20.3
83.687,197.9
83.6873,216.2
83.6876,100.1
83.6954,144.4
83.7106,498.3
83.7145,243.3
83.7243,123.2
83.7425,419.1
83.7466,432.5
83.7481,772
83.7624,150.2
83.7657,269.3
83.7743,335.5
83.8212,325.8
83.8661,638.1
83.8716,362.9
83.8811,241
83.8854,174.8
83.9723,90.4
83.976,29.1
83.9885,670.3
84.0243,545.2
84.0442,286.8
84.0769,119.3
84.1626,568.6
84.1649,78.1
84.1752,174
84.1767,220.3
84.1789,87.6
84.1954,90.2
84.2072,92.4
84.2122,132.6
84.2153,84.7
84.2244,16.7
84.2345,350.1
84.2936,108.4
84.3048,204.6
84.3178,18.9
84.3195,19.3
84.3639,180
84.3799,130.8
84.3886,270
84.4207,138.2
84.4297,476.4
84.451,85.4
84.4842,103.7
84.492,641.5
84.4987,161.7
84.564,324.6
84.5695,549.1
84.5706,20.2
84.6123,175.5
84.6787,69
84.691,261.8
84.7127,363.7
84.7144,436.5
84.7311,273.6
84.7387,175.9
84.7397,19.8
84.7434,260.5
84.7566,89.4
84.7652,212.5
84.7722,332
84.786,338.1
84.7888,688.8
84.7954,189.8
84.8207,314.6
84.8296,531.2
84.8355,252.2
84.8526,106.2
84.8694,580.7
84.8737,282.7
84.8744,325.3
84.8808,351
84.9002,19.9
84.9115,247.3
84.9571,19.3
84.9596,22784.1
84.981,249.8
84.997,121.9
85.0219,506.5
85.0283,663.1
85.0555,837.4
85.0861,145.9
85.1086,402
85.124,598.4
85.1273,215.6
85.1312,469
85.1373,17.6
85.1383,356.4
85.1388,443.1
85.1541,329.9
85.1684,131.5
85.1863,392.8
85.1901,295.9
85.2133,308.6
85.2139,95.5
85.2323,168
85.2516,98.1
85.2629,209.8
85.2657,91.9
85.2935,17.5
85.2989,72.8
85.3016,365.4
85.32,346.8
85.3246,191.8
85.3269,98.1
85.3278,682.3
85.3487,127.8
85.3894,611.6
85.4182,18.7
85.435,156.1
85.5139,91.8
85.5483,370.9
85.5555,375.5
85.576,90.1
85.5864,471.1
85.5974,157.3
85.6287,101.6
85.6367,22.2
85.6494,362.1
85.6562,143.2
85.7044,411.9
85.7073,18
85.7141,737.1
85.7157,455.7
85.741,293.1
85.7484,627.1
85.7557,138.4
85.758,351.1
85.8142,192
85.8209,93.6
85.8331,424.7
85.8355,19.2
85.8586,742.5
85.8636,93.5
85.883,203.4
85.8988,692.1
85.9542,17.1
85.965,417.4
85.975,506
85.9916,19.6
85.9982,588.9
86.0039,479.8
86.0236,169.4
86.027,156.3
86.0323,686.6
86.0599,48245.9
86.0909,780.7
86.0963,102466.5
86.2391,476.8
86.2475,367
86.2538,88
86.2609,95.4
86.2658,102.8
86.2783,89.9
86.2889,358.2
86.3112,455.6
86.3409,99.2
86.3453,71.2
86.3723,154.5
86.3807,74.6
86.382,386.1
86.4024,384.2
86.4288,384.6
86.432,80.2
86.433,424.9
86.4382,364.8
86.461,16.8
86.5276,174.8
86.5469,21.4
86.5589,351.9
86.56,225.4
86.5984,246
86.6128,389.9
86.6225,404.4
86.6239,18.7
86.6282,181.1
86.6332,138.8
86.6347,333
86.6577,27.5
86.6663,204.9
86.6692,368.2
86.6698,91.3
86.6777,17.4
86.6994,93.6
86.713,477.2
86.7236,117
86.7957,533.2
86.7982,367.1
86.8,95
86.8054,551.5
86.8117,230.3
86.8194,295.3
86.8525,164
86.8639,105.4
86.8857,17.8
86.9137,147.6
86.9527,142.8
86.9877,118.9
87.0047,178.5
87.008,461.1
87.0338,18.7
87.0519,136.9
87.0556,156.7
87.0768,582.1
87.094,415.1
87.0988,218.9
87.0996,244.2
87.128,76.3
87.1296,90.1
87.1606,99.7
87.1615,472.5
87.1797,278.8
87.1978,283.3
87.2211,28.8
87.2245,475.8
87.2477,92.4
87.2959,114.7
87.3378,18.2
87.3428,420.2
87.4164,122
87.4356,190.4
87.436,206.4
87.4539,101.5
87.4972,73.4
87.5055,100.9
87.5088,426.4
87.5516,105.1
87.5648,566.3
87.591,226.3
87.6488,198.5
87.6536,538.2
87.6602,19.3
87.711,24.8
87.7568,371.7
87.7737,339
87.7882,130.5
87.8104,637.5
87.8153,72.7
87.8377,20.1
87.8432,85.8
87.8585,235.8
87.8679,122.4
87.8856,28.1
87.8983,99.5
87.906,109.2
87.9155,133.7
87.9214,332
87.9251,133.5
87.9651,104
87.9969,274.5
88.0315,408.7
88.0366,315
88.0392,10832.7
88.0488,305.8
88.0663,107.4
88.0889,559.3
88.1085,395.7
88.12,73.4
88.1248,219
88.1289,234.6
88.1314,17.5
88.1488,124.2
88.1757,18.4
88.2202,94.7
88.2442,134.2
88.2509,74.2
88.2658,322.8
88.2662,319.2
88.3218,137.8
88.3354,20.8
88.3707,783.9
88.3846,80.2
88.397,324.3
88.4312,222.3
88.437,558.2
88.4629,225.1
88.4741,18.3
88.4976,143.2
88.5152,192.1
88.5181,136.4
88.5198,131.9
88.5449,145.7
88.5615,17.5
88.5633,227.3
88.5652,462.5
88.582,409.3
88.5928,217.6
88.5983,76.6
88.6048,96.3
88.6383,409.7
88.6639,107.1
88.6719,18.9
88.7428,30.1
88.7462,336.5
88.7561,17.8
88.7787,693.6
88.789,210.7
88.7984,230
88.8897,99.4
88.8945,281.6
88.934,22.3
88.9354,150.3
88.9523,111.2
88.9684,46
88.989,75.2
89.0426,311
89.0587,381.2
89.1002,18.1
89.1603,96.4
89.1771,94.3
89.1794,479.1
89.1877,337.7
89.2147,144.2
89.227,100.4
89.2956,370
89.3026,220
89.3178,18
89.3197,299.5
89.336,138.1
89.3557,154.6
89.3598,16.7
89.3916,222.4
89.3939,18.4
89.4018,88.9
89.4168,398.7
89.4178,395.5
89.4347,105.6
89.4567,227.3
89.4681,84.8
89.4731,498.1
89.4879,278.9
89.5429,515.5
89.5897,211
89.5975,343.3
89.5986,346.7
89.6572,468.4
89.6599,264.9
89.6755,365.2
89.6861,701.6
89.724,334.7
89.7683,252
89.7712,243.6
89.7737,356.5
89.8026,93.6
89.8073,778.8
89.8184,278.6
89.8206,289.1
89.8339,156.9
89.8623,87.1
89.8779,541.1
89.8832,334.7
89.906,100
89.9227,564.8
89.9337,171.6
89.9611,26.2
89.9636,591.6
90.0817,19.2
90.111,101.3
90.1485,116.9
90.1886,191
90.1898,22.9
90.2001,117.6
90.2054,559.2
90.2141,128.6
90.2323,20.1
90.2517,103.7
90.2604,93.8
90.281,93.4
90.3207,353.5
90.3331,111.6
90.3529,292.9
90.3584,291.4
90.375,86.2
90.3889,376.2
90.4757,683.1
90.4813,205.3
90.4924,373.4
90.5292,98.4
90.5959,413.4
90.6553,115
90.6609,18
90.6858,446.5
90.7129,174.4
90.7173,129.6
90.7575,17.5
90.8137,269.1
90.8205,97.4
90.8603,105.1
90.867,313.1
90.903,24.3
90.9062,90.7
90.9123,798.9
90.9326,17.9
90.9476,3839.3
90.955,225.6
90.9725,495.7
90.9766,7405.1
90.9906,89.8
91.0248,144.6
91.0344,656.2
91.0489,184
91.0542,2433.9
91.0707,28.9
91.123,255.5
91.1741,182.4
91.1958,469.4
91.2022,677.4
91.2134,782.9
91.2244,16.1
91.2344,216.5
91.2628,21
91.269,182.3
91.2766,76
91.3008,365.5
91.3176,185.9
91.319,336.1
91.3248,17.1
91.3296,575.6
91.3727,123.8
91.3837,149.8
91.4049,397
91.4324,138.3
91.4349,232.9
91.4464,431.8
91.4763,740.4
91.4796,729.9
91.4867,18.3
91.4927,553.7
91.5401,151.9
91.5594,19.4
91.5626,621.1
91.587,360.2
91.595,29.9
91.5975,18.7
91.6178,105.5
91.6349,197.2
91.6359,162.4
91.6485,176.4
91.6681,136.4
91.7208,417.5
91.7255,97.8
91.7328,472.3
91.7438,185.1
91.824,123.4
91.8345,109.2
91.8516,511.6
91.8793,251.8
91.8835,18.6
91.9064,315.2
91.9158,215.5
91.9433,398
91.9481,25.3
91.9553,242.3
91.9678,143.1
91.9739,89.9
91.977,98.3
91.9802,115.4
92.0068,214.8
92.0096,410.9
92.0223,70.7
92.0494,296.1
92.0858,26.6
92.0901,139
92.0916,17.5
92.1213,259.8
92.1251,197.6
92.127,208.3
92.1349,152.1
92.1399,134.4
92.144,219.2
92.1713,93.1
92.2104,684.9
92.2359,143.2
92.2417,541
92.2552,101.8
92.2634,120.8
92.2684,81.2
92.2723,99.5
92.2902,190.7
92.2925,22.3
92.2972,500
92.2994,130.8
92.3268,477.3
92.3895,224.7
92.3933,179.4
92.4433,359.2
92.4828,95.1
92.5181,234.5
92.5279,18.3
92.5351,178.4
92.5504,335.6
92.5524,234.6
92.5618,399.1
92.5645,109.2
92.6,122.3
92.6188,161.4
92.6497,112.5
92.6558,130.1
92.7063,16.7
92.7662,95.9
92.7829,248
92.8309,123.3
92.8335,392.2
92.8596,113.6
92.8649,186.2
92.9211,132.1
92.9322,143.8
92.9369,174.4
92.9496,19.2
92.9693,218.3
92.9777,282
92.9897,26.9
92.9987,23
93.0127,564.4
93.0172,426.6
93.0318,304.2
93.0382,438.4
93.0594,396.7
93.0699,143.3
93.0883,85.8
93.1009,469.2
93.1038,97.4
93.1279,307.6
93.1506,34.6
93.1568,93
93.1734,188.8
93.1826,17.5
93.1978,271.2
93.2177,172.9
93.2271,95.2
93.2388,489
93.2664,525.8
93.3013,123.1
93.3029,196.1
93.3298,288.5
93.3363,636.4
93.4527,135.3
93.4549,121.2
93.4727,167.2
93.4733,194.9
93.4743,184
93.4792,200
93.4846,189.1
93.5189,224.7
93.577,275.5
93.6305,377.9
93.6418,25.1
93.6738,28.2
93.6764,477.1
93.6964,709.4
93.7534,274.8
93.7874,18.7
93.8057,486.3
93.8089,92.1
93.8109,167.6
93.8428,72.6
93.86,346.2
93.8746,189.8
93.9004,99.1
93.9264,91.6
93.9321,109.8
93.9585,20.6
93.9697,432.2
93.9792,219.3
93.9998,128
94.0387,29.6
94.0403,47.1
94.0413,61964.8
94.0426,34
94.0459,117.2
94.1093,108
94.11,85.7
94.1439,368.5
94.1596,100.1
94.1647,98.2
94.1678,411.9
94.2009,696.2
94.202,110.2
94.2154,18.8
94.227,425.2
94.2309,221.3
94.2477,161.7
94.2621,331.5
94.2948,145
94.3808,101
94.3835,166.8
94.3923,80.4
94.4136,251.6
94.4797,428.5
94.4827,141.2
94.4866,723.8
94.4908,267.5
94.5084,142
94.5175,406.6
94.5242,173
94.5299,465.2
94.5664,25.8
94.5978,119.4
94.5989,274.2
94.611,99.5
94.686,187.8
94.6879,93.9
94.7003,401.3
94.7284,122.9
94.781,107.8
94.807,239.3
94.8262,114.2
94.8331,93.4
94.8388,321.8
94.8469,17.4
94.8708,282.6
94.8731,146.1
94.8759,368.4
94.8945,402.3
94.8979,85.7
94.9066,105.8
94.9151,132.9
94.9289,449.6
94.9366,814.7
94.9476,104.9
95.0088,57.8
95.0125,280.5
95.0174,368.2
95.022,20.8
95.0358,22.7
95.0447,1220.2
95.0461,32.8
95.0475,170
95.0491,463339.4
95.0583,150.5
95.0855,493.8
95.0894,21.1
95.0935,90
95.1082,217.2
95.1231,337.9
95.1302,162
95.1329,20.9
95.1398,314
95.1495,20.4
95.1601,309.3
95.2247,559.7
95.2632,102.9
95.2652,105.9
95.2875,29.3
95.3737,431.8
95.3753,240.6
95.4201,427.4
95.4312,367.2
95.4473,20.8
95.4974,90.1
95.5118,421.2
95.5128,115.1
95.5465,79.4
95.5615,222.4
95.5649,249.7
95.5733,223.6
95.5954,108.9
95.6132,21.6
95.6198,204
95.6726,20.5
95.6856,183
95.7282,30.9
95.7397,70.4
95.7475,243.7
95.8071,234.7
95.8305,122.8
95.8364,281.6
95.8523,211.8
95.889,367
95.8903,151.3
95.8978,137.2
95.9109,17.4
95.9312,16.4
95.9369,205.5
95.9585,144.6
95.972,327.3
95.9914,232
96.0184,195.5
96.0403,719.7
96.0477,19
96.0524,21879
96.0788,759.6
96.0971,678.4
96.1135,133.9
96.122,88.4
96.1429,16.3
96.161,451.2
96.1836,425.5
96.2059,211
96.2445,244.5
96.2498,79.3
96.3017,116.2
96.305,268.3
96.3078,385.2
96.3229,147.7
96.3488,74.1
96.3673,124.2
96.3921,195.5
96.4083,18.1
96.4126,18.7
96.4713,94.3
96.4765,328.7
96.4893,385.7
96.4989,869.3
96.5369,695.3
96.5419,437.8
96.5463,532.3
96.595,376.7
96.6002,235.7
96.6027,16.5
96.6183,161.4
96.6236,232.3
96.6445,19.6
96.6613,333.8
96.6811,377.5
96.6849,350.3
96.724,18
96.725,585.1
96.7265,265.6
96.7643,400.5
96.7779,217.2
96.7899,313.2
96.8014,847.1
96.8207,143.5
96.8765,192.9
96.9217,137047.5
96.9375,51.6
96.9537,375
96.9944,146.1
97.0075,90.8
97.0107,105.5
97.0173,93.8
97.0229,193.3
97.0533,70.9
97.0559,29.6
97.1852,159.6
97.2152,104.6
97.2577,146.4
97.2675,25.9
97.3695,506.4
97.4006,18.9
97.4056,177.1
97.4076,349.4
97.4519,525.2
97.4767,24.8
97.5848,163.1
97.6213,770.4
97.6343,206.9
97.6446,102.3
97.7251,136.5
97.7338,258.8
97.7614,281.2
97.7656,153.3
97.7717,319.5
97.7751,309.6
97.8061,153.2
97.8342,134.2
97.8432,383.5
97.8497,22.7
97.8512,27.7
97.859,151.3
97.8713,301.4
97.8838,17.6
97.8848,708.2
97.8905,205
97.9232,344.1
97.9663,140.7
98.027,76.7
98.0522,482.7
98.0582,110.6
98.0665,262.8
98.069,349.4
98.0749,197.1
98.0871,359.3
98.1505,287.4
98.1679,148.1
98.1893,108.6
98.2073,360.6
98.2512,17
98.2871,194.5
98.295,140.6
98.3654,138.3
98.3834,94.9
98.4084,144.9
98.4346,92.7
98.4544,131.1
98.4575,106.1
98.4754,25.6
98.5066,101.8
98.5076,90.2
98.528,150.7
98.5308,90.4
98.5538,778.4
98.5545,454.6
98.5716,19.3
98.5786,578.3
98.5921,30.1
98.5936,362.2
98.6222,19.3
98.6394,18.5
98.646,133.9
98.6492,444.3
98.678,98.3
98.6913,142.4
98.694,18.7
98.7438,249.8
98.7595,216.3
98.784,137.7
98.7948,294.1
98.7997,27
98.8266,83.2
98.8343,31.3
98.8441,101.7
98.8522,84.6
98.9012,163.6
98.9188,37632.8
98.9199,6703.5
98.9606,87.7
98.9753,19077.3
98.9842,63.5
99.0276,85.1
99.0329,16.4
99.0591,85.4
99.0694,96.8
99.073,152
99.0823,94.6
99.0917,334.6
99.1117,413.8
99.1175,152.5
99.1635,236.8
99.167,81.6
99.1833,289.5
99.2025,143.2
99.2143,535.6
99.2227,91.5
99.2367,202.7
99.2589,458.4
99.3396,17.2
99.3454,368.2
99.4005,104.5
99.4122,95.7
99.4282,19.4
99.4332,270.9
99.4358,345
99.4751,567.6
99.4819,186.1
99.5548,136.4
99.5823,598.3
99.6169,397.1
99.619,329.9
99.6369,27.4
99.6737,235.1
99.6796,89.7
99.6851,130.9
99.7106,189
99.7222,113.4
99.7418,247
99.7674,218.7
99.7948,102.5
99.8012,136.2
99.8059,391.3
99.8092,195.5
99.8224,17.6
99.829,233.4
99.8362,165.5
99.8473,20.7
99.8629,783.6
99.8886,139
99.9239,381.8
99.9653,128.2
99.9667,97
99.9699,462.8
99.9947,240.9
100.0012,209.3
100.0758,234.4
100.0875,32.6
100.0922,128.5
100.1116,308.4
100.1284,91.1
100.1593,288.6
100.1606,276.3
100.1909,133.2
100.2079,147
100.2141,194.8
100.2606,18.7
100.2715,196.1
100.3056,258.9
100.3924,171.4
100.4573,169.2
100.4867,125.4
100.4986,248
100.516,124.2
100.5783,79.9
100.5973,115.3
100.6127,164.2
100.6467,340.8
100.6862,102.2
100.6902,112.4
100.7069,259.4
100.7346,86.1
100.7892,185.9
100.8007,634.2
100.8111,377.1
100.8505,95
100.8671,232.3
100.9169,1468.8
100.9629,410.9
100.985,680.1
100.9912,629.8
100.9933,191.7
101.0019,18.2
101.0145,403.6
101.0199,325.7
101.0359,314.9
101.0446,163.9
101.0471,4221.7
101.061,305.8
101.071,850.8
101.1077,17.4
101.1155,602.6
101.1286,92
101.1567,373.2
101.1961,125.5
101.2005,18.1
101.2781,140.8
101.2803,86.1
101.2921,486.9
101.3021,18
101.3029,480.9
101.4149,149.9
101.4341,154.4
101.4399,328.8
101.4989,463.9
101.5744,350.1
101.6536,419.5
101.7032,145.2
101.7193,421.3
101.74,29.9
101.7894,176.6
101.7993,208.9
101.8292,101.7
101.9013,91.7
101.9152,377
101.9175,93.9
101.9425,151.4
101.9467,96.9
101.9481,84.8
101.9637,332.6
102.0549,5934
102.0566,356
102.0581,481.6
102.1232,360.8
102.1402,292.9
102.1557,212.2
102.1933,98.6
102.267,133.3
102.317,317.7
102.3225,369.2
102.3364,121.9
102.4074,29.4
102.4159,392.3
102.438,248.8
102.4466,271.5
102.4921,69
102.4958,95.4
102.5031,152.7
102.5617,720.7
102.5853,354.3
102.6269,219.9
102.6601,114.3
102.6631,118.2
102.6735,137.1
102.6787,239.9
102.7204,521.7
102.7327,208.1
102.7482,119.5
102.7504,365.3
102.7545,669.3
102.7669,17.5
102.7762,515.4
102.7964,86.8
102.8213,936.4
102.8502,510.5
102.863,460.8
102.8642,299
102.8686,81.2
102.8779,107.8
102.8856,98.1
102.9122,138.1
102.9477,35.6
102.9569,28.6
102.9629,331.5
102.968,220.4
102.9703,488.8
102.9842,45.4
103.0184,468
103.0644,20.4
103.0653,105.9
103.1021,18.7
103.1071,201.7
103.1855,182.3
103.2288,17
103.2589,18.6
103.3066,679.5
103.311,386.9
103.3348,260.5
103.3553,326.7
103.3784,727.9
103.4041,451
103.4068,319.7
103.4148,207.2
103.4187,566.5
103.4225,275.5
103.4488,64.7
103.4696,364.7
103.4827,191.2
103.4851,276.5
103.4971,117.3
103.5254,731.6
103.573,353
103.5859,268.8
103.587,681
103.6094,587.5
103.6974,968
103.7022,107
103.774,514.9
103.8445,18.8
103.8798,76.8
103.9793,357.9
103.9813,815.8
103.9906,422.1
104.0178,311.8
104.0322,723.6
104.0358,121.8
104.0577,133.7
104.0586,661.5
104.0798,16.6
104.0869,108
104.0968,217.6
104.107,390581.6
104.1092,260.4
104.154,134.1
104.1555,249
104.1693,413.2
104.1882,628.8
104.1919,96.9
104.2221,495.4
104.2231,124.5
104.2533,137.7
104.2582,225.1
104.35,686.1
104.3863,353.1
104.3986,442.8
104.4028,292.4
104.4066,151.1
104.4314,394
104.4353,230.8
104.4413,17.8
104.5013,16.2
104.5056,17.6
104.5125,192
104.5326,672.6
104.5424,102.6
104.5689,436.6
104.6249,71.2
104.6288,366.6
104.6421,99.9
104.6562,18.9
104.6723,71.7
104.6744,345.2
104.6817,88.7
104.7023,221.9
104.7321,130.4
104.7979,166.1
104.8252,282.4
104.8291,105.5
104.8674,226.6
104.9027,97.8
104.9093,196.6
104.9481,163.5
104.96,499.3
104.9633,5374.1
104.9741,81.9
104.9811,278.4
104.9922,3058.1
105.0032,22
105.0191,206.8
105.028,134.4
105.0433,531.9
105.0447,43628.5
105.0528,150.4
105.0699,57.5
105.0759,206.9
105.0853,84.5
105.1022,108
105.1103,15582.6
105.1378,435
105.1472,771.7
105.1946,388.7
105.197,124.6
105.2203,94.7
105.2464,204.2
105.2497,19
105.2637,420.1
105.3023,361
105.3652,207.4
105.3674,599.9
105.3743,84.6
105.3928,19
105.3936,19.1
105.4164,177.6
105.4187,96.4
105.4449,140.4
105.4566,119.6
105.5117,103.2
105.5663,859.4
105.5764,137.9
105.6215,72.5
105.6252,97.4
105.6409,397.1
105.6798,17.7
105.7793,224.7
105.8002,117.6
105.8395,205
105.8937,822.6
105.8957,422
105.9173,216.9
105.927,102.2
105.9313,251.1
105.9406,329.5
105.962,29.2
105.9638,96.3
105.9718,18
105.9843,21.3
106.0068,83.5
106.0131,91.6
106.0273,456.6
106.0348,92.9
106.0416,108.5
106.048,627
106.0652,38.2
106.0701,17.3
106.0825,322.9
106.0876,17.4
106.1069,551.2
106.2171,158.9
106.2452,308
106.2688,497.1
106.2709,16.8
106.3099,301.6
106.32,702.8
106.3289,320.6
106.3321,625.6
106.389,344.6
106.3931,109.5
106.4125,895.4
106.4692,339.5
106.4953,557.5
106.5011,326.1
106.5039,323.1
106.5142,577.8
106.5159,444.6
106.53,18
106.5865,181.7
106.6576,89.5
106.6717,100.4
106.6925,130.7
106.751,165.5
106.8338,355.3
106.9033,30.4
106.9506,2374.3
106.9638,127.8
106.9919,56.4
107.0064,436.9
107.0283,63.9
107.0491,735.9
107.0576,296.7
107.0725,689.1
107.0748,17.2
107.0759,110.8
107.0826,91.4
107.0953,85.5
107.1565,287.6
107.1885,210.4
107.1981,89.2
107.2503,192.9
107.2522,69
107.2942,96.9
107.3763,252.6
107.3952,402.7
107.4628,19.4
107.4746,282.4
107.5073,214
107.5336,152
107.5354,118.5
107.597,131.2
107.608,607.9
107.655,402.2
107.6833,698
107.7107,96.3
107.7814,17.5
107.7897,727.1
107.7931,272.3
107.8574,18.3
107.8597,97.5
107.8787,19.9
107.9265,26.8
107.9474,99
107.9583,923.1
107.9914,459.7
108.0521,256.3
108.057,19.2
108.0598,404.7
108.0934,292.4
108.1768,121.4
108.2274,106.4
108.2465,144.4
108.3137,26.4
108.3409,29.6
108.3529,74.5
108.4084,339.1
108.4616,108
108.4639,88.9
108.479,101.1
108.506,496.4
108.5327,193
108.5529,335.9
108.5587,182.5
108.5864,262.6
108.6332,115.7
108.6353,176.1
108.6718,483.5
108.7424,98.7
108.7572,623.7
108.7701,17.7
108.7756,90.5
108.8515,85.7
108.8712,168
108.8725,493
108.9083,104.4
108.913,18.3
108.9499,116.4
108.951,130.2
108.9583,180.3
108.9925,112.9
109.0168,19.5
109.0346,239.1
109.0397,156.6
109.0648,66514.1
109.0665,51.1
109.0706,78.1
109.0978,17.1
109.1011,148
109.1222,388.5
109.1337,136.3
109.1417,89.9
109.3077,18.6
109.3277,27.2
109.3302,473.5
109.3463,222.8
109.4244,366.6
109.4323,29.8
109.4425,329
109.4544,91.7
109.4781,18.6
109.5006,149.2
109.5079,479.3
109.564,162.6
109.5916,304.6
109.6005,162.4
109.6588,117.3
109.6812,185.2
109.7151,405.2
109.7342,21.1
109.7404,205.9
109.7906,163.7
109.8233,16.6
109.8723,226.1
109.8948,102.2
109.9186,399.6
109.9278,471.4
109.9354,131.9
109.9412,486.7
109.963,121.3
109.9708,219
109.9752,523.7
109.9763,177.4
109.9977,17.7
110.0216,110.9
110.022,138.7
110.0225,99.9
110.0577,394
110.0682,2658.2
110.0713,727.4
110.0977,20.8
110.1014,111.8
110.1158,149.9
110.1178,384.9
110.1292,137.3
110.1721,18.6
110.2301,23.2
110.2365,317.5
110.314,364.1
110.3341,169.5
110.3545,241.3
110.3709,611.4
110.4401,220.9
110.4597,114.9
110.4999,282.3
110.5217,18.3
110.5425,96
110.5594,97.6
110.6224,556.7
110.6485,485.7
110.6939,90.7
110.7173,127.5
110.7587,113.8
110.8315,126.6
110.8509,77
110.86,21.2
110.8665,657.5
110.9679,136.9
110.973,126.3
110.98,332.8
111.0233,300.2
111.0381,745.5
111.0441,179.2
111.0655,144.8
111.0957,92.9
111.1152,84.7
111.1173,260.4
111.1522,116.8
111.2144,707
111.2592,347.7
111.2602,103.2
111.3021,268
111.3115,207.7
111.3203,508.7
111.3234,78.9
111.3265,351.5
111.4215,118.3
111.4822,17.8
111.6002,342
111.6026,18.5
111.6489,139.6
111.8146,291.9
111.8205,292.7
111.8407,352.5
111.8771,18.1
111.9347,118
111.9547,87.2
111.9603,15.8
111.9619,132.8
111.9999,515.4
112.0019,102.7
112.017,497.8
112.0219,180.2
112.0387,86.7
112.0666,141.2
112.0698,121
112.0784,108.1
112.0858,744
112.0995,792.7
112.1058,116.3
112.1271,19.6
112.1785,378.6
112.1835,199.1
112.2211,105.6
112.2697,356
112.3353,100.1
112.3524,104.2
112.3595,605.6
112.4155,176.7
112.4426,102.6
112.5412,587.4
112.5729,94.5
112.6528,212
112.6679,100.3
112.6819,109.8
112.6832,353.2
112.7238,18
112.7492,26.2
112.815,384.1
112.8957,441067.3
112.9045,19.2
112.9479,275.4
112.9848,142.7
113.0471,123.4
113.0607,750.7
113.1074,616.4
113.1399,93.7
113.1458,206.5
113.1469,560.3
113.1776,95.3
113.1973,822
113.2356,570.1
113.26,315.1
113.3295,408.4
113.3404,368.6
113.3615,307.1
113.4324,189.6
113.446,21.4
113.474,131.9
113.516,220.8
113.54,72.7
113.5498,101.3
113.5841,418.1
113.5886,89.3
113.6266,155.5
113.6403,81.9
113.6463,262.9
113.6699,541.3
113.7044,525.9
113.7292,396.7
113.7343,121.6
113.7425,17.3
113.7783,24.4
113.8421,166.3
113.8497,80.8
113.8523,434.6
113.9062,642.8
113.9135,87
113.9309,115.7
113.9759,148.7
113.9851,190.9
114.0394,391.2
114.0524,536
114.055,69656.4
114.0914,23
114.0979,110
114.1176,320.4
114.1226,117.1
114.1278,87.9
114.214,553
114.2474,21.5
114.3208,94.7
114.328,95.7
114.3649,351.3
114.4013,246.9
114.4336,127.5
114.4484,302.5
114.5139,140.9
114.5187,120.9
114.5301,413.1
114.6153,100.3
114.6167,114.5
114.6191,137.5
114.6411,207.2
114.6452,107.2
114.653,135.5
114.6693,367.2
114.6726,353.7
114.7948,412.6
114.8693,393.9
114.8928,137802.1
114.9099,86.5
114.9315,400.5
114.9483,363.3
114.9587,227.6
114.9718,15.8
115.0202,182.6
115.0543,23.6
115.0583,1955.2
115.0866,925.6
115.1289,712
115.2027,73.8
115.2229,338.4
115.2397,114.6
115.2467,113.1
115.2649,403.3
115.3848,279.5
115.3944,675.5
115.4087,733.8
115.4245,233.3
115.4875,150.9
115.5343,262
115.554,864
115.6026,686.3
115.6633,95.9
115.6818,304.3
115.6916,675.6
115.7081,101.6
115.7519,132.3
115.7706,83.1
115.7821,528.9
115.7864,355.4
115.7979,411.4
115.8025,336.9
115.8078,406.2
115.8254,103
115.8596,696.8
115.872,16.8
115.8843,103.1
115.9083,230.1
115.9244,100.9
115.9271,88.9
115.9692,80.5
115.9794,756.8
115.9925,247.4
116.0123,18.8
116.0139,527.4
116.0194,127.2
116.0564,86.2
116.0683,69.3
116.0707,3098.3
116.0997,122.8
116.1049,19
116.1077,139
116.1327,142.8
116.1523,234.3
116.1758,339.6
116.1849,90.3
116.2101,75.1
116.2961,420
116.2973,149.4
116.3189,137.2
116.3867,106.2
116.3923,89.8
116.4227,18.1
116.4279,206.5
116.468,342.9
116.476,696
116.4953,162.4
116.5208,95.7
116.5241,238.8
116.5333,263.7
116.5439,395.7
116.5642,527.4
116.5676,218.7
116.5797,19.6
116.598,293.3
116.6833,65.7
116.7109,542.5
116.7218,341.6
116.7736,328.4
116.8101,28.4
116.8371,91.7
116.8414,135.9
116.8909,14933.5
116.9171,108.5
116.9205,246.9
116.9225,388.2
116.9472,19
116.9536,400.7
116.9634,276.2
116.9846,19.9
116.9859,4370.5
117.0175,198.4
117.0489,272.4
117.0699,73.6
117.1175,19.2
117.1219,112.9
117.1465,387.9
117.1694,18
117.1705,368
117.1863,338.9
117.1941,143.1
117.2095,171.6
117.2802,141.8
117.3159,162.2
117.4211,469.4
117.4696,159.8
117.5,19.6
117.5048,19.8
117.5323,672.4
117.6157,739.3
117.6609,102.6
117.6641,78
117.6802,248.7
117.7451,318.6
117.7541,73.7
117.7722,111.8
117.7838,206.2
117.7933,351.5
117.8325,80.9
117.8533,87.1
117.9326,72.8
117.9339,348.8
117.9459,22.6
117.9638,418.4
117.9897,25.8
118.0441,288.4
118.0586,125.3
118.0652,178.9
118.1869,65.9
118.1903,707.6
118.2131,76.5
118.2279,312.8
118.2422,127.4
118.2755,141.6
118.3741,581.8
118.3786,433.9
118.4177,348.3
118.4455,647.6
118.4542,144.8
118.4661,20.2
118.4871,220.3
118.4928,380.2
118.5371,156.7
118.6355,201
118.6466,97.2
118.6644,92.5
118.669,143.6
118.6809,100.1
118.6927,714.8
118.7186,346.6
118.8124,154.9
118.9189,548.4
118.9381,90
118.9427,994.4
118.9628,155.4
118.979,1087.1
119.0013,21.5
119.019,22.3
119.0215,373.7
119.0437,417.1
119.0693,132
119.0858,55.4
119.1079,97.1
119.1329,478.6
119.1439,81.7
119.1667,19.6
119.1908,18.5
119.2069,17.7
119.2285,315.8
119.2391,110.4
119.2466,190.8
119.2502,264.9
119.3294,741.9
119.3592,266.4
119.361,105.8
119.3795,480.1
119.4168,216.3
119.4222,379.5
119.4234,29.7
119.4357,93.8
119.4539,578.6
119.4585,18
119.4628,128
119.4697,18.8
119.4777,462.2
119.4893,134.5
119.4931,751.6
119.5453,275.5
119.5865,111.8
119.6415,99.9
119.6472,1014.6
119.6771,251.2
119.7137,128.3
119.7175,120.8
119.7393,440.2
119.7487,662.9
119.7598,95.4
119.8392,148.5
119.8555,187.3
119.8571,501.1
120.0032,2097
120.0601,98.8
120.0808,11420.1
120.1035,20.7
120.1148,17.8
120.2388,124.9
120.2475,83.9
120.2501,347.9
120.333,100.6
120.3507,104.3
120.3631,175.6
120.3695,81.7
120.3704,88.4
120.3888,323
120.4864,830
120.5043,617.6
120.5192,570.1
120.5511,229.2
120.6917,304.2
120.7145,650.5
120.7622,295
120.778,20.3
120.7861,21.4
120.8139,129.4
120.8263,349.6
120.828,101.1
120.908,540.6
120.9292,138
120.9406,257.6
120.9459,142
120.9794,18.6
120.981,65
121.0003,30.1
121.0076,328.4
121.0197,785.4
121.0231,305.1
121.0285,258.5
121.0355,93.8
121.096,110.3
121.1013,19.1
121.1264,264.3
121.2145,29.5
121.2498,91.3
121.2995,101.2
121.3041,110.3
121.3112,163
121.3273,124.7
121.3315,171.9
121.3356,90.5
121.3369,215.4
121.3488,78.1
121.3682,27.7
121.3829,428.7
121.3988,174.6
121.4087,20.7
121.4126,72.7
121.4149,375.7
121.4193,250.3
121.4222,163.9
121.4293,108
121.4368,253.2
121.454,318.2
121.4688,427.3
121.4714,318.3
121.4809,101.1
121.6333,19.3
121.6521,135.5
121.7414,694.2
121.793,393.5
121.8857,20.9
121.9187,373
122.0097,16.9
122.039,136.1
122.0729,18
122.077,97.2
122.0938,234.6
122.1143,87.6
122.1248,108.5
122.1572,388
122.166,427.6
122.2115,355.9
122.2302,99.6
122.308,722.5
122.3196,1033.9
122.3292,87
122.3338,421.7
122.343,20.9
122.3617,16.4
122.3624,15.8
122.3759,446.5
122.3906,363.9
122.3923,16.8
122.4317,18.3
122.4328,100.9
122.4597,99.4
122.5845,111.9
122.5932,106.8
122.682,16.5
122.6873,117.4
122.6957,139.3
122.7037,108.2
122.7074,413
122.7194,397.3
122.7221,579.3
122.7768,109.4
122.8287,289
122.8394,308.5
122.8483,36.3
122.8746,110.6
122.8893,20.3
122.9246,23070.6
122.9322,19.7
122.974,298
122.9921,817
123.0209,575.5
123.0418,243.9
123.0595,588.4
123.0805,53.4
123.087,73
123.0954,79.8
123.1149,104.7
123.1644,21.7
123.1912,133.6
123.214,894.7
123.2306,627.1
123.3338,96.3
123.3729,298.5
123.3752,156.2
123.5573,17.5
123.5625,157.6
123.6046,201.6
123.6657,83.5
123.6819,267
123.7085,111.5
123.71,95.4
123.7138,278.8
123.7809,116.5
123.791,650.6
123.7964,495
123.8371,122.2
123.8828,29.3
123.9104,142.2
123.9125,701.2
123.9175,745.7
123.9232,78
123.9251,96.3
123.932,563.7
123.9593,222.3
123.9652,20.3
124.0335,339.7
124.0653,679.6
124.0666,203.5
124.0915,219.1
124.1298,377.6
124.2029,136.2
124.2309,27.8
124.2637,367.1
124.2751,89.4
124.3636,311.7
124.3759,141.7
124.3801,517.1
124.3939,110.3
124.3955,484.5
124.4759,90.3
124.5368,260.9
124.5417,374
124.5616,143
124.6501,239.2
124.6765,271.9
124.6889,162.1
124.7551,208
124.767,93
124.8005,438.2
124.8458,400.5
124.8489,29.6
124.9228,2016.5
124.9815,165.3
124.9999,5229.3
125.0057,1076.1
125.008,685.1
125.039,363.1
125.0586,297.1
125.0598,68.4
125.148,274.4
125.1648,15.8
125.1889,99.6
125.1945,133.7
125.1986,90.7
125.2046,323.7
125.2355,292.5
125.239,95.8
125.2508,415.4
125.2546,224.2
125.2574,122
125.3973,171.9
125.4122,269.1
125.4405,106.5
125.4428,154.9
125.4478,601.9
125.4488,87.6
125.4607,123
125.4927,312.1
125.5449,293.1
125.5521,74
125.5559,150.1
125.5948,20.2
125.644,322
125.6471,135.1
125.6998,77.8
125.7268,141.3
125.7412,383.6
125.747,75.7
125.8223,205.6
125.8536,402.9
125.8757,88.2
125.9262,119.8
125.939,265.6
125.9495,96.5
125.9861,307.2
126.0002,287
126.034,299.3
126.0438,134.9
126.0887,729.1
126.148,82.6
126.1542,19.4
126.1572,18.6
126.1593,39.1
126.1633,330.8
126.2093,92.9
126.2231,531.8
126.3089,555.2
126.3185,378.9
126.377,274.6
126.3842,95.2
126.3968,212.9
126.4061,515.4
126.449,128.7
126.4531,103.6
126.483,168.3
126.4873,107
126.6466,692.3
126.7645,94.2
126.7846,105.3
126.8908,174.6
126.9184,371.6
126.9355,734.8
126.9531,147.6
126.9865,389.8
127.008,18.5
127.0202,92.6
127.0259,119.7
127.0479,255.7
127.1233,229
127.2325,111.9
127.2612,27.1
127.2682,99.4
127.2838,19.1
127.2873,108.9
127.3462,343.4
127.3522,176.3
127.3672,85.5
127.4161,242.3
127.4745,263
127.5272,437.8
127.539,779.2
127.6063,286.9
127.6334,809.5
127.7011,324.3
127.7207,377.1
127.7534,185.3
127.7814,21
127.7947,213.2
127.8648,29.5
127.869,265.6
127.8727,313.8
127.8879,26.9
127.9569,22.1
127.9716,271.9
128.0102,95.4
128.0158,28.8
128.0274,162.4
128.1335,32.2
128.1373,228.7
128.1454,530.2
128.1858,243.3
128.2594,461.4
128.2632,71.9
128.268,536.4
128.3178,77.3
128.3257,18
128.3419,121.9
128.3578,365.6
128.3602,115.6
128.4717,118.4
128.5233,150.3
128.5925,381.3
128.595,170.4
128.6285,405.6
128.6349,85.6
128.6712,378.5
128.7509,112.3
128.764,100.6
128.7842,17.5
128.8037,137.6
128.8867,97.8
128.91,139.5
128.9192,116.7
128.9296,77.6
128.9638,313.9
128.9749,108.5
129.0034,1259.8
129.0468,833.4
129.0986,83.5
129.1023,1915.3
129.1369,253.9
129.1681,535.1
129.194,365.1
129.2045,197.8
129.2686,430.8
129.2705,27.3
129.3147,19.3
129.3964,224.8
129.4128,130.9
129.4202,228.8
129.4494,351.3
129.4691,574.9
129.4718,207.4
129.5238,636.1
129.5458,630.5
129.6697,90.4
129.7049,22.3
129.7652,114.2
129.7828,74.7
129.8615,146
129.8875,20.4
129.9209,108.8
129.9272,330.6
129.9587,296.3
129.9639,21.7
129.9949,355.8
130.0142,18.2
130.0387,97.9
130.05,6528.8
130.0648,504.6
130.1142,100.4
130.2021,110.9
130.2209,145.7
130.223,674.5
130.234,80.7
130.2505,425.7
130.2965,298.8
130.4443,19.7
130.5009,223.4
130.5187,263.1
130.5497,105.1
130.7195,763.7
130.8011,91.2
130.8289,135.8
130.841,102.4
130.8657,84.3
130.8908,479.6
130.9107,19
130.9296,31
130.933,611.5
130.9623,86.4
130.9771,270.3
130.9791,117.1
131.0003,79.2
131.0012,114.1
131.0044,103.9
131.0089,272.2
131.0151,123.5
131.0184,19.1
131.0231,473.7
131.0385,109.3
131.0491,292.3
131.0815,84.2
131.1449,31.5
131.1464,376.6
131.1696,20.7
131.1999,184.1
131.2009,175.1
131.2223,208.9
131.2328,213.7
131.2703,567.4
131.3052,81.5
131.3354,92.5
131.3709,88.7
131.4112,17.4
131.4423,552.8
131.5174,298.9
131.5276,295.4
131.5403,113
131.5435,204.5
131.5516,17.4
131.5608,77.9
131.5636,325.8
131.5907,91.2
131.6305,178.3
131.6899,527.9
131.8256,21.6
131.8935,208.3
131.9151,227.6
131.9745,368
132.0033,24256.3
132.0074,526.9
132.0551,98
132.0609,161.9
132.0656,120468.8
132.0763,233.4
132.0937,663.2
132.1288,158.4
132.1403,419.3
132.1493,427.8
132.1571,354.9
132.1619,87
132.1856,485.3
132.2187,98
132.2236,536.3
132.3735,692.7
132.39,300.2
132.4102,133.6
132.4645,140.8
132.4696,196.9
132.4756,33.4
132.4976,171.9
132.5023,17.6
132.5276,510.4
132.5303,148.6
132.6106,829.2
132.6134,285
132.7601,16.9
132.7739,645.6
132.8767,194.3
132.8853,379.9
132.8885,17.3
132.9348,226.8
132.9583,848.9
132.9621,128.9
132.9696,80.5
132.9744,78.9
132.9817,330.8
132.9873,2011.1
133.0544,16.8
133.0689,3748.9
133.0729,94.2
133.0973,22362.7
133.1023,384.2
133.1109,265.2
133.1153,186.8
133.1544,241.7
133.1637,159.1
133.3079,253.9
133.3252,84.8
133.3714,479.9
133.3904,94.7
133.43,165.8
133.4317,94.1
133.4619,88.1
133.5127,467.6
133.5166,250.7
133.5531,148.2
133.5706,236.5
133.5791,189.6
133.5834,101.6
133.6056,452.6
133.6134,87.8
133.6228,80.6
133.637,265.8
133.6739,129.5
133.7004,16.6
133.7092,95.4
133.8666,184.8
133.9327,159.5
134.0098,481.3
134.0189,9326
134.07,119.4
134.0754,100.1
134.0798,406.3
134.0815,319.6
134.134,263.7
134.2169,111.5
134.2659,135.8
134.2981,17.8
134.3873,279.4
134.4188,458.7
134.4291,381.4
134.4626,17.9
134.523,136.9
134.5245,321.7
134.5441,382.5
134.5512,346.4
134.592,485
134.6067,246.6
134.6226,539.9
134.6571,752.8
134.7041,189
134.8131,674
134.8281,99.5
134.8305,335.7
134.8776,856.9
134.9178,309.3
134.9333,327.7
134.9741,61.5
134.9893,230.4
134.9966,84.3
135.003,90835.8
135.0144,570.2
135.0252,86.7
135.1009,474.2
135.1035,289.1
135.1171,23.3
135.1339,296.2
135.1622,366.6
135.1936,122.7
135.2582,179.5
135.2917,504.9
135.3294,143.2
135.3594,247.2
135.4219,103.4
135.4826,132.3
135.4939,554.1
135.5171,19.6
135.5422,205.3
135.5574,75.8
135.6372,410.6
135.6402,236.3
135.6674,92
135.7552,98.6
135.7675,347.6
135.7989,299.2
135.8113,146.9
135.8241,111.4
135.8806,113.8
135.9409,393.2
135.943,18.5
135.9773,2299.9
135.9818,31.9
136.0066,786.5
136.0482,2080.3
136.0601,156
136.0618,23.5
136.0726,96.3
136.0758,7162.1
136.1367,418.3
136.1676,603.4
136.224,465.5
136.2526,21.6
136.2577,398.1
136.2884,19.4
136.3133,126.1
136.3217,122.3
136.387,101
136.4549,250
136.4935,359.7
136.5396,20.4
136.5768,126.2
136.5801,717
136.5894,19.4
136.6687,99.1
136.7731,272.5
136.7806,679
136.8322,247.8
136.868,100.4
136.8945,270.9
136.9091,88.2
136.9293,353.5
136.9311,970.7
136.9427,99.8
136.9534,182.1
136.9764,17.8
136.9897,92.8
136.994,314.4
137.0138,331.9
137.0264,98.4
137.0604,118.8
137.0659,476.6
137.0823,771.6
137.0991,221.4
137.167,147
137.1784,91.5
137.2362,355.4
137.258,797.5
137.2784,675.6
137.2837,21.6
137.2978,578.4
137.3047,403.9
137.32,565.7
137.3493,290
137.438,23.8
137.4815,118.3
137.5097,102.3
137.5206,376.1
137.5699,389.5
137.6166,146.8
137.6251,17.5
137.676,22.2
137.7281,384.2
137.7301,134.9
137.7721,561.4
137.7774,99
137.8146,110.3
137.8917,20.1
137.9041,408.7
137.91,233
137.9198,504.5
137.9356,304.2
137.9526,110.7
137.9876,160
138.0526,5022.4
138.0663,29.9
138.0921,119.4
138.0958,90.5
138.1427,222
138.146,202.2
138.1865,425.6
138.1915,20.2
138.1943,140.6
138.3101,101.4
138.3161,97.4
138.3283,144.5
138.3579,17.8
138.3797,26.6
138.4236,577.2
138.4249,150.9
138.4271,709.1
138.4538,298.4
138.4584,128.1
138.4708,228.6
138.5474,21.4
138.6676,209.4
138.7768,551.9
138.8019,441.6
138.8152,441.5
138.835,424.4
138.8554,102.6
138.8745,355.3
138.9066,1198.3
138.9159,243.8
138.9201,133.4
138.9231,495.5
138.9387,333.5
138.9485,109.6
138.9842,34.1
138.9897,17.4
139.0324,75.2
139.0488,83.5
139.1206,149
139.1374,331.5
139.1476,190.3
139.1957,101.2
139.2489,137.1
139.2764,617.9
139.3589,137.2
139.399,104.2
139.4236,297.8
139.4699,100.5
139.4767,157.4
139.506,339
139.5591,861
139.5656,139.3
139.5873,277.9
139.5877,285.6
139.5974,658.6
139.6181,404
139.6217,18.4
139.6558,265.4
139.6704,91.4
139.6988,75.7
139.7471,65.9
139.803,93.3
139.8688,96.7
139.9169,286.5
139.9362,661.8
139.9773,347.1
139.9885,129.6
140.0019,89.7
140.0166,5481.6
140.0684,4453.3
140.1086,20.4
140.1685,98.2
140.1823,458.6
140.2211,163.3
140.2423,264.5
140.4644,123.2
140.468,203.9
140.484,236.5
140.5235,410.5
140.5367,446.5
140.6826,280.8
140.8648,654.2
140.8674,255.9
140.8797,221.2
140.9037,491.3
140.9284,805
140.9524,23.6
140.995,138.6
141.0006,17818.3
141.02,192.7
141.0621,672.1
141.1083,116.4
141.1182,260.7
141.1513,219.2
141.1663,130.4
141.2667,252.8
141.3206,411.8
141.324,129.6
141.3669,676.2
141.3758,104.9
141.3863,708.3
141.3927,392.6
141.4091,544.2
141.4126,220.3
141.473,227.4
141.4758,790.7
141.4898,691
141.5011,165.7
141.5752,81.6
141.5784,539.7
141.6143,193.3
141.6443,153.9
141.6645,116.7
141.6669,131.7
141.7127,679.8
141.8413,1053.6
141.8892,399.8
141.9635,123
141.9679,107.4
141.975,89.9
141.9952,347.7
142.004,348.5
142.0124,98.8
142.0177,382.5
142.0326,95
142.0459,345.4
142.156,106.8
142.2849,255.2
142.2999,555.8
142.3285,94
142.3424,394.8
142.4116,91.7
142.448,217.2
142.5046,68
142.5119,393.9
142.6292,108.1
142.7486,116.1
142.7821,117.3
142.8161,107.7
142.8499,100.4
142.8702,686.4
142.8744,88.5
142.8843,110.3
142.9964,238
143.0051,260.5
143.0144,32.1
143.0193,1004.8
143.0817,258.2
143.0831,411.1
143.0885,140.6
143.1117,70.9
143.141,28.1
143.1479,129.3
143.1938,281
143.2377,76.3
143.2537,214.9
143.275,110.4
143.2942,393.3
143.3511,155.9
143.3753,166.1
143.3787,418.8
143.4076,87
143.4192,19.1
143.4589,132.3
143.5439,140.5
143.5571,16.6
143.6338,266.8
143.6414,287.4
143.653,586.3
143.7911,152.6
143.7953,94.9
143.8422,241.8
143.8598,20
143.8787,356.9
143.939,31
143.9493,330
143.997,344.7
144.0108,1214
144.0185,72.1
144.0199,545.6
144.0335,155.4
144.0393,105.6
144.1021,242.3
144.1668,518.1
144.226,16
144.2711,124.2
144.3219,122.8
144.3612,191.8
144.3696,20.6
144.3756,327.8
144.4377,22
144.4401,202.8
144.4417,20.1
144.4519,170.4
144.5654,233.5
144.5775,17.7
144.6245,85.6
144.6394,116.9
144.8105,267
144.8941,97.8
144.9581,504.9
144.9649,402.1
144.981,5175.6
144.9948,61.7
145.0075,22.4
145.016,72.6
145.033,349.4
145.037,17.8
145.1177,144.7
145.1693,138.4
145.2461,19.7
145.2627,237.4
145.3405,854.5
145.3746,460.8
145.4223,97.8
145.4463,373.4
145.4479,25.1
145.4639,224.5
145.4722,231.2
145.4741,693.3
145.4942,264.4
145.5246,100.6
145.5405,17.1
145.5477,330.8
145.553,262.9
145.5558,213
145.5893,354
145.6117,693.3
145.6343,121.4
145.6416,192.9
145.654,336.2
145.7037,219.6
145.7106,169.4
145.7194,27.9
145.724,21.8
145.7696,129.4
145.7881,159.9
145.799,307.7
145.8409,133.2
145.8898,185.5
145.8959,83.2
145.9512,277.8
145.9588,274.9
145.9696,199
145.9765,424.2
145.9786,341
145.9804,417.8
145.9919,215.6
146.0126,2890.6
146.019,16503.3
146.022,146.3
146.0264,165.6
146.0487,173.7
146.0726,207.9
146.1051,187.9
146.1866,19.7
146.1992,138.6
146.2048,17.3
146.2179,299.6
146.2436,197.6
146.2473,18.2
146.3127,561.2
146.3446,70.7
146.413,180.4
146.4222,94.8
146.4263,498.4
146.4823,240.2
146.5007,22.1
146.5043,17.4
146.5094,343.2
146.5274,184.3
146.5594,358.5
146.5737,350.1
146.5774,345.1
146.5947,290.2
146.5988,17.8
146.6773,390.8
146.7615,197.7
146.7826,19.9
146.8334,102.4
146.8489,477.1
146.8552,248.2
146.8698,449
146.9055,59.5
146.9331,107.4
146.9739,23.5
146.9819,105807.5
146.9853,18.5
147.0208,248.8
147.0348,101.1
147.0356,205.1
147.0362,191
147.0725,131.9
147.0766,48268.1
147.0938,126
147.113,22189
147.1735,18.2
147.1952,86.4
147.2505,90.7
147.2877,413.4
147.3008,96.2
147.3044,719.8
147.3157,112.8
147.3206,705.3
147.3408,366.2
147.3943,411.3
147.4106,174.8
147.449,441.7
147.4593,20.8
147.4832,131.7
147.5112,123.4
147.6108,147.8
147.6157,173.6
147.6562,545.7
147.6613,72.7
147.7613,209.8
147.8112,111.6
147.8169,108.1
147.8355,143.8
147.8632,276.3
147.8649,257.9
147.979,73.1
148.0064,93.5
148.0162,17.8
148.0228,476.9
148.0409,444.5
148.0502,217.6
148.0799,356.7
148.0851,382.5
148.1007,328.3
148.1123,49.6
148.1211,18.3
148.1328,33.2
148.1673,777.6
148.1931,331.4
148.2287,403.1
148.2554,880.1
148.2738,91
148.2761,696.8
148.2815,78.6
148.424,137.5
148.4341,266.9
148.5274,105.2
148.5323,2992.2
148.5356,439.9
148.5711,350.4
148.6293,313.2
148.6518,459.3
148.7087,76.8
148.7511,739.3
148.7597,144.3
148.7772,28.9
148.783,203.3
148.8945,418.1
148.8993,661.7
148.9108,79.4
148.9613,2044.1
148.9671,112.5
148.9889,224.1
148.9988,106.9
149.0028,27.3
149.0051,20.1
149.0186,4269.1
149.0235,5637.4
149.1844,339.2
149.1962,30.3
149.2409,96.8
149.3104,338.8
149.4714,130.2
149.5068,18.8
149.532,194.5
149.5492,153.6
149.7174,347.3
149.7363,470.6
149.741,174.1
149.7483,401.2
149.75,91.1
149.8068,184.2
149.8185,88.9
149.8426,81.8
149.8636,22.3
149.8659,25.3
149.869,105.3
149.8795,326
149.9623,116.4
149.9765,45.8
149.9875,116.9
149.9929,7338.3
150.0139,7734.2
150.0268,49.1
150.0621,109.3
150.1267,245.9
150.2057,260.7
150.2069,130.4
150.2777,115.7
150.3045,357
150.3543,338.5
150.3788,671.7
150.3894,711.1
150.4134,219.1
150.4472,714.2
150.4742,83
150.4947,805.4
150.6702,17.8
150.6892,160.3
150.7557,119.6
150.8064,520.5
150.8213,372.9
150.8492,21.1
150.877,117.2
150.9345,19
150.969,116.3
150.977,65411.5
150.9843,6417.4
150.9951,254
151.0066,315.7
151.037,767.3
151.0479,2479.8
151.0779,364.8
151.0848,207.2
151.1095,709.2
151.1121,65
151.1555,288.7
151.1723,106.7
151.2013,18.9
151.2508,20.2
151.2814,30
151.3503,115.9
151.4625,179.6
151.5312,146.3
151.5832,511.2
151.6495,154.5
151.7669,417.7
151.8238,133.7
151.8362,115.7
151.8723,228.8
151.8832,190.5
151.9807,28
151.9847,34.4
151.9877,269.2
151.9934,152.1
152.0222,5548.2
152.0278,442.1
152.032,2088.4
152.0459,144.7
152.0548,78.8
152.0599,143.4
152.0822,22.5
152.1347,293.1
152.1405,106.9
152.2131,183.4
152.2542,120.9
152.2617,98.3
152.3157,500.9
152.3254,100.2
152.3479,189.3
152.4304,385.6
152.4508,101.3
152.5242,250.2
152.5418,91.8
152.5439,136.6
152.5701,119.8
152.6962,482.4
152.713,354.7
152.7447,267.7
152.7578,620.5
152.8857,121.7
152.9075,386.9
152.9306,21.9
152.9751,4128.7
152.98,958.8
152.9923,772.5
153.0275,237.2
153.0621,341.2
153.1021,321.2
153.1382,264.3
153.1486,574.9
153.185,263.9
153.1931,355.7
153.1972,123.8
153.212,285.5
153.2657,400.5
153.2714,109.1
153.2915,285.5
153.3466,154.6
153.3765,128.5
153.3876,301.6
153.4019,404.6
153.4163,214.3
153.4911,74.7
153.5944,20.8
153.6049,125.9
153.699,186.8
153.7038,18.5
153.7148,124.9
153.7433,342.5
153.8065,20.1
153.8337,717.3
154.0016,282.4
154.0113,775.9
154.0266,624.2
154.0587,779.7
154.159,77.8
154.2051,262.5
154.235,124.3
154.2838,406.4
154.2975,147.2
154.3507,477.7
154.4262,18.4
154.4338,824.7
154.4361,74.5
154.4401,138.1
154.4439,105.3
154.4974,502.2
154.5077,546
154.5466,319
154.5627,771.2
154.6511,95.9
154.6864,285.4
154.6976,27.2
154.7638,17.2
154.7843,21.1
154.7933,202.8
154.8263,207.2
154.8808,344.4
154.8883,329.7
154.9077,102.5
154.9253,18.6
154.9693,1900.8
154.9985,728.8
155.0429,1823.4
155.046,102.7
155.0493,578.8
155.0542,2939.8
155.0792,741.9
155.081,246.3
155.112,174.5
155.1836,292.7
155.2212,322.1
155.3186,715.7
155.3709,96.6
155.3752,389.9
155.44,126
155.4649,139.4
155.5484,19.3
155.5912,18.8
155.5983,293.9
155.6408,206.6
155.6947,316.6
155.6976,105.3
155.7048,99.9
155.753,16.9
155.7769,81.1
155.7956,332.8
155.9121,219.1
155.9215,107.3
155.9756,140.3
155.9967,118.7
156.0044,107
156.0109,23.6
156.034,124.3
156.0424,4272.9
156.0578,20.5
156.077,46322.6
156.0794,724.7
156.1478,101.6
156.1812,173.1
156.2003,555.2
156.2149,352.9
156.414,72.8
156.4343,526.4
156.4553,472.1
156.4966,20
156.608,426.8
156.6862,19.3
156.7328,267.1
156.7473,87.1
156.7658,265.9
156.792,775
156.8533,531.1
156.8719,901.4
156.8954,813.2
156.9467,340.9
157.0051,151.5
157.0804,353.2
157.0975,242.3
157.1279,217.2
157.1777,28.1
157.1831,215.6
157.245,476.8
157.2907,267.9
157.3396,19.4
157.3504,94.6
157.3869,83.7
157.5217,273.2
157.56,28.8
157.5855,105.8
157.6026,151.4
157.6826,158
157.776,359.5
157.8045,18.5
157.866,596.3
158.0052,280.8
158.0127,2633.7
158.0273,3667.7
158.0905,107.7
158.1119,20.8
158.1223,435.8
158.1409,80.5
158.1435,18.2
158.1672,192.5
158.1799,170.1
158.2287,140.2
158.2721,85.4
158.2939,227.4
158.3456,654.5
158.3898,499
158.3924,134.9
158.4167,17.4
158.5616,383
158.5771,114
158.5849,144.3
158.5895,107.4
158.5924,375.5
158.6159,98.1
158.8376,90.7
158.9046,391.3
158.9142,144.1
158.9271,322
158.9579,104
158.9643,11250.7
158.9739,18.8
158.9967,11010
159.0113,35.9
159.0306,92.2
159.0433,433.4
159.0632,21.1
159.0921,35.2
159.2329,81.9
159.2569,436.5
159.2723,98
159.3023,329.1
159.3673,340.8
159.4376,299.6
159.5641,17.8
159.5875,307.2
159.6449,278
159.648,28.4
159.6507,143.4
159.7017,82.3
159.704,364.9
159.7556,816.7
159.7573,1260.9
159.7609,103.1
159.7738,503.5
159.7843,221.6
159.8015,198.8
159.8051,221.3
159.8347,67.5
159.8668,17.5
159.9284,473.2
159.9306,132.5
159.9815,153.2
160.0229,26.3
160.0348,12305.7
160.0607,145427.5
160.0777,78.1
160.0903,212.8
160.1068,107.2
160.1279,139
160.145,123.6
160.2109,273.4
160.2243,93.7
160.2465,18.8
160.2866,320.5
160.333,665.2
160.4087,667
160.4461,18.8
160.4561,20.7
160.5133,19.2
160.5384,755.5
160.7449,309.9
160.7587,106.3
160.8893,666.5
160.899,411.9
160.9898,20.3
160.9925,194.4
161.064,5738.6
161.0822,303.9
161.0928,90.6
161.0984,204.5
161.1285,981.7
161.1331,422.1
161.3677,85.7
161.4174,86.2
161.4191,239.7
161.4247,310.8
161.5658,667.5
161.5708,102.4
161.6508,810
161.7048,319
161.7389,193.4
161.767,27.7
161.8422,84.2
161.9371,93.8
161.9948,136.5
162.0504,13131.6
162.0569,224.5
162.0637,117.3
162.0647,167.1
162.0886,28
162.1124,318.7
162.2351,333.8
162.2553,109.1
162.2787,805.7
162.285,18.2
162.3671,275.3
162.3998,221.7
162.4173,92.7
162.4494,225.6
162.4606,137.4
162.4871,130.9
162.4894,89.9
162.5541,120.9
162.6076,461
162.666,433.3
162.7036,18.9
162.718,203.6
162.7212,108
162.7605,645.7
162.8037,97.3
162.8778,270.9
162.8994,88.2
162.9346,78.2
162.9559,6941.2
162.9623,238.2
162.9716,207.3
162.9975,184.6
163.0156,4207.9
163.0345,740.9
163.0597,94
163.1483,28.5
163.1697,389.9
163.2107,167.4
163.3084,392.2
163.3524,116.8
163.4029,19.7
163.5044,283.1
163.5727,396.5
163.5934,113.6
163.6276,334.8
163.6361,175.2
163.6516,442.7
163.6573,20.8
163.6605,324
163.6773,161.9
163.6813,90.1
163.691,801.3
163.7015,377.5
163.7613,105.1
163.8307,162.9
163.8316,166.9
163.8826,307.5
163.8918,202.8
163.9535,20.7
163.9785,147
163.9997,22.4
164.0236,85.3
164.0297,10970.2
164.0621,325.7
164.0912,120.3
164.1807,352.8
164.2151,788.4
164.226,30.2
164.2543,631.8
164.3733,725.9
164.3787,81.4
164.3976,892.2
164.4257,212.6
164.556,245.9
164.584,150.7
164.6836,329.6
164.7092,308.2
164.7348,232.2
164.8087,116.8
164.8205,16.7
164.873,84.3
164.9178,33.4
164.9208,3854.1
164.9302,10785.4
164.9353,2625.1
164.9377,396.3
164.9481,226
164.9846,59.1
164.9927,2711
165,585
165.0094,329.7
165.0131,228.1
165.0524,462.6
165.0911,287.2
165.1664,668.8
165.188,18.3
165.1971,104.8
165.2068,31.2
165.2726,752.7
165.2761,433
165.3535,417.6
165.3668,140.4
165.3886,121
165.4548,412.9
165.5248,201.7
165.6315,95.7
165.7139,354.8
165.7418,105.4
165.7472,409.7
165.7494,277.7
165.7551,144.8
165.7725,799.4
165.7858,91.9
165.8429,210.3
165.8788,512.4
165.9285,465.8
165.9496,360.1
165.9669,2601.5
165.9791,812.9
165.9822,96.9
165.988,6120.8
165.9953,2719.4
165.998,233.4
166.003,25.7
166.0157,246.5
166.0395,250
166.0485,559.9
166.1023,445.8
166.1085,20.5
166.1792,142.1
166.219,643.3
166.2778,17.8
166.3077,106.1
166.4346,666.1
166.4957,126.8
166.5063,392.2
166.6041,93.4
166.6062,129.4
166.6133,92.8
166.6149,131.7
166.6914,546.5
166.7523,212.4
166.8475,109
166.8667,164.7
166.951,31767.6
166.9794,43.2
167.0003,110.4
167.022,4797.1
167.0607,356.3
167.0637,23.4
167.067,161.9
167.2194,124.4
167.3327,306.8
167.3557,74.3
167.5077,134.9
167.5903,486.8
167.6114,135.9
167.6873,250.4
167.6903,335.3
167.694,409.4
167.7418,184.4
167.7438,234.7
167.7875,162.8
167.7899,131.2
167.8308,295.1
167.8889,109.5
167.9091,18.8
167.9947,1767.5
168.0612,413.8
168.0845,17
168.099,285.3
168.1074,137.7
168.1117,90.6
168.1307,322.3
168.2382,99.7
168.2777,405.8
168.293,72.6
168.3999,230.2
168.4813,66.6
168.5407,19.5
168.5727,20.3
168.6124,24.3
168.6254,413.1
168.6354,275
168.6383,800
168.6994,329.6
168.7262,137
168.7288,392.4
168.7318,394.6
168.7553,138.7
168.7723,20
168.81,26.5
168.8987,214.3
168.9094,347.5
168.9137,17.9
168.9253,110.1
168.9285,676
168.9378,189
168.9491,3590.7
168.9986,296
169.0035,35.8
169.0549,145.9
169.0586,51656.4
169.065,870.3
169.0861,118.7
169.0949,1232.9
169.1427,667
169.2586,277.3
169.2739,105.3
169.3582,29.1
169.3922,158.9
169.4516,718.3
169.4758,70.6
169.5266,637.7
169.658,82.7
169.6786,157.2
169.7303,93.4
169.7979,265.4
169.8835,374.2
169.8867,132.1
169.9096,97.2
169.9807,32.5
169.986,2216.5
170.0221,164.3
170.0253,484.7
170.0329,1323.2
170.062,962.2
170.0927,2712.7
170.1209,147.9
170.138,18.2
170.2171,809.4
170.271,75.9
170.286,337.3
170.2885,595.2
170.2935,583.8
170.2998,19.7
170.3377,327.2
170.3461,294.5
170.4683,106.8
170.4845,110
170.501,238.9
170.528,284.5
170.5394,406.6
170.599,158.2
170.6532,300.9
170.7389,201.4
170.7597,273.7
170.7638,135.9
170.8546,3522.1
170.9143,157.6
170.9792,151.3
171.0109,737.8
171.0169,1159
171.0197,19.8
171.0219,119.7
171.028,65.7
171.0463,176.5
171.0534,2216.7
171.1007,133.9
171.1372,724.5
171.1512,176
171.1827,106.9
171.1979,301.1
171.2244,136.3
171.2958,424.4
171.3847,395.8
171.4505,114.2
171.4709,801.8
171.4811,323.6
171.5076,212.3
171.563,102
171.5784,85.3
171.6231,96.6
171.6787,141.9
171.6844,321.8
171.7146,344.6
171.7309,365.6
171.8339,219.5
171.8703,98.6
171.8835,143.4
171.8957,407.4
171.9133,140.6
171.9342,145.9
171.9592,16.9
172.0057,22.9
172.0285,1146.1
172.0659,246.9
172.0703,523.2
172.1461,348.3
172.1569,100.5
172.1727,90.2
172.1801,942.8
172.2326,387.8
172.2395,184
172.2809,901.3
172.353,348.9
172.4562,154.3
172.5185,193.8
172.5323,430.7
172.5909,111.2
172.6123,128.6
172.6205,206.9
172.6649,322.1
172.6804,69.8
172.7125,138.4
172.7532,104.1
172.8266,110.1
172.8336,110
172.839,105.8
172.8516,2458.8
172.8928,225.4
173.0234,439.6
173.027,289.2
173.0422,317.2
173.0559,111.5
173.0641,706.3
173.0676,19.7
173.0826,89.4
173.121,20.9
173.1729,106.9
173.2149,404.6
173.229,145.9
173.2416,224.2
173.3224,423.9
173.3806,762.8
173.4155,109.9
173.4218,179.8
173.5113,283.2
173.5772,20.1
173.6486,599.6
173.6626,342.1
173.6932,100.4
173.7074,306.7
173.7184,513.5
173.7281,660.8
173.7376,187.7
173.7419,520.9
173.761,179.8
173.8534,91
173.8596,93.9
173.87,150.3
174.0006,20.4
174.0047,16.6
174.0138,113.6
174.0293,615.8
174.055,339.2
174.1813,214.9
174.1911,207.8
174.1924,387.1
174.1931,373.5
174.2789,83.2
174.2932,70.3
174.3406,96.8
174.5695,31.1
174.5983,325.4
174.6109,145.2
174.6659,283
174.6762,28.1
174.7273,171.4
174.7286,106.5
174.8882,90.4
174.8963,361.5
174.9003,300.4
174.9066,208.9
174.9383,5672.3
174.969,1258.1
174.9717,292
174.9851,32.2
175.0022,323.2
175.014,117.9
175.0291,148.7
175.0345,3985
175.043,239.7
175.0457,1812.8
175.0581,303.9
175.0657,281.9
175.0724,19.3
175.1193,94886.5
175.1253,211.9
175.1681,340.6
175.1818,238.4
175.2352,75.2
175.4161,143
175.463,518.4
175.4806,100.2
175.5523,398.7
175.5944,298.5
175.6499,194.5
175.658,229.4
175.7022,369.1
175.765,241.6
175.9068,206.9
175.9737,334.9
175.9877,402.9
176.0009,115.6
176.0088,7882.5
176.0167,24.7
176.0454,131.1
176.0661,20813.8
176.0759,413.3
176.0984,107
176.1033,2498.1
176.1225,1623.3
176.1353,207.5
176.1431,106.4
176.2518,349.8
176.2566,236.1
176.3079,310.5
176.3098,18.8
176.315,91.4
176.3286,408.4
176.3539,138.4
176.4,477.1
176.4348,297.1
176.4809,146.4
176.5248,232.3
176.5722,265.6
176.5914,215.2
176.6254,833.6
176.6658,22.6
176.7809,99.4
176.8111,619.4
176.8234,693.6
176.8262,447.1
176.8432,19
176.8711,19.8
176.8786,21.4
176.8941,496.3
176.9039,608.6
176.9179,166.2
176.9336,19.5
176.945,25.5
176.9588,73.7
176.9773,95.9
176.9926,952.3
177.025,5887.5
177.0333,210.2
177.0481,761.8
177.0613,9598.1
177.0695,748.1
177.2403,78
177.3167,124.4
177.3259,178.8
177.3615,86
177.3668,188.7
177.4033,758.3
177.4941,424.7
177.6245,29.2
177.687,190.3
177.7448,70.9
177.777,69.4
177.7919,438.2
177.7964,154.6
177.8024,106.7
177.8072,236.1
177.916,140.2
177.9527,206.2
177.9715,258.7
177.9844,478.5
177.9912,18.8
177.995,94.6
178.009,9436.4
178.0164,45.3
178.0244,8101.3
178.0321,231.9
178.047,24.8
178.059,6295
178.11,234.5
178.1447,113.3
178.163,298.3
178.1895,96.7
178.262,413.6
178.3247,563.8
178.3504,791.6
178.4606,440.6
178.5751,95.4
178.6836,666.4
178.7632,373
178.7749,32.4
178.7905,110
178.8088,118.6
178.8212,236.4
178.8932,78.3
178.9024,411.9
178.9171,374.2
178.9222,52
178.9642,241.4
179.0008,21.8
179.003,145.2
179.0056,185.7
179.1744,169.4
179.2256,17.4
179.2555,402
179.4505,132.2
179.4583,90.9
179.4612,93.6
179.5533,412.2
179.7784,18.2
179.8113,138.1
179.8141,19.4
179.8915,26.6
179.9149,98.2
179.9891,754.2
180.0037,8458.1
180.0109,193.8
180.0973,223.1
180.1474,354
180.1897,130.5
180.2265,77
180.2582,166.2
180.3152,676.7
180.3446,93.9
180.4226,357.9
180.4576,751.7
180.6885,389.5
180.7701,18.3
180.8254,338
180.8353,237.8
180.8408,186.9
180.8455,208.5
180.8738,700.2
180.8885,1062.8
180.8948,3859.4
180.9043,6564.4
180.9262,119.8
180.9665,407.2
180.9842,442.7
181.0006,150.8
181.0161,36.9
181.0264,897.5
181.0391,664.2
181.0652,12023.1
181.0682,295.3
181.2266,435.8
181.2357,18.6
181.2616,140.2
181.2764,747
181.3567,444.3
181.4406,332.9
181.5548,18.4
181.5788,194.6
181.5918,144.5
181.6672,548.1
181.6697,610.4
181.7429,406.4
181.861,30.8
181.8771,746.8
181.9206,18.2
181.9514,189.2
181.9903,18.7
182.0116,22.4
182.0158,29.4
182.0319,20.7
182.0428,35915.3
182.0688,96.2
182.138,322.6
182.1413,149.7
182.1583,35.1
182.1618,18
182.1835,79.9
182.3188,17.4
182.3877,689
182.469,110.2
182.483,210
182.5052,337.8
182.5463,402.1
182.5705,177.6
182.6493,93
182.6577,233.9
182.6955,102.5
182.7005,393.5
182.7098,20.8
182.7412,185.6
182.8792,375.2
182.9028,83.7
182.9242,342.3
182.9282,716.5
182.941,23.9
183.0124,18.7
183.0445,1400
183.0907,566.7
183.0981,137.1
183.1242,284.2
183.1639,417.1
183.2194,157.8
183.224,713.6
183.41,194.9
183.5152,94.1
183.6721,22.7
183.6857,783.4
183.7359,447.6
183.7596,96
183.7622,134.4
183.8059,17.3
183.8358,418.8
183.8907,89.4
183.9025,20.1
183.9658,203.9
184.0067,27.2
184.0091,75.7
184.0113,306.9
184.0373,1139.1
184.0646,201.4
184.0737,3894678.3
184.0796,1417.9
184.0849,143.9
184.0876,181.6
184.1097,1042.3
184.1653,161.7
184.17,78.5
184.1824,716
184.232,141
184.2682,212.9
184.3067,373.3
184.3697,20.9
184.4448,202.8
184.4698,212.9
184.6047,170.3
184.6947,22.7
184.7301,100.9
184.7665,86.9
184.9298,25.8
184.9991,116.2
185.0326,48683.7
185.0706,6339.6
185.077,186055.8
185.2468,92.6
185.3245,233.7
185.3349,256.3
185.4082,123.8
185.445,114.5
185.4801,18.2
185.5857,366.8
185.6195,320.4
185.6319,216.1
185.687,382
185.7553,140.5
185.7691,20.1
185.8223,265.4
185.8874,92.2
185.9103,279
185.9242,219.8
185.9602,1767.5
186.036,1427.8
186.0462,80.7
186.0544,182.1
186.0779,25027.2
186.0911,170.2
186.1933,287.2
186.2174,102
186.2246,324.3
186.2308,295
186.2911,271.9
186.3433,117.7
186.4422,99.1
186.462,77.1
186.4653,84.9
186.4719,448.5
186.5427,337.2
186.5469,156.1
186.6249,115.3
186.8789,44.2
186.8995,21.9
186.9123,2056.9
186.9639,366.6
187.0306,1444.2
187.0375,222.7
187.0478,107.7
187.053,107.8
187.058,2061.3
187.0652,489.2
187.0717,745.7
187.1079,2379
187.1955,75.4
187.311,137.6
187.3178,475.4
187.3571,406.7
187.3772,780.3
187.4548,676.5
187.5167,558.8
187.6055,621
187.7233,125.7
187.7562,226.7
187.8132,327.2
187.8531,97.6
187.8669,83
187.8789,20.1
187.9386,596.3
187.9717,121.8
187.9979,445.1
188.0411,68.6
188.0527,81.4
188.0688,505.2
188.0785,136.2
188.1051,305.1
188.1962,891.5
188.2123,1005
188.2362,412.6
188.2487,123.2
188.2524,377.1
188.2628,18.3
188.3147,352.5
188.3613,218.4
188.4004,334.4
188.4083,576.5
188.4138,105.4
188.4355,22.9
188.6203,286.7
188.6676,381.2
188.6947,565
188.7332,193.2
188.7474,146.5
188.7706,17.8
188.8217,130.8
188.8348,210.9
188.8776,87.4
188.9449,560.3
189.0075,465.1
189.0213,85.7
189.0614,1643.4
189.0837,72.1
189.0874,8422.9
189.1234,30.3
189.1849,285.5
189.2324,230.4
189.2445,112.7
189.2973,422.6
189.3535,400.1
189.6765,155.7
189.6861,914.3
189.7541,329.4
189.8146,283.9
189.8503,90
189.8757,21.4
189.9392,547.7
189.9412,240.3
190.0914,503.5
190.1231,400.3
190.1719,185.6
190.1732,189.5
190.195,29.6
190.2528,323
190.3714,107.1
190.3756,301.3
190.4084,90.8
190.4413,186.2
190.5591,332.7
190.6025,311.9
190.6754,92.7
190.7329,106.7
190.7374,512.1
190.7988,26.9
190.8728,719.1
190.9123,1548.4
190.9265,864
190.9497,235
191.0006,179.9
191.0085,5862.6
191.0243,90.4
191.0407,119101.2
191.0524,117.5
191.0657,526.8
191.0771,17826.1
191.1084,102.6
191.1404,400.5
191.1505,722.4
191.1606,550.7
191.2649,352.4
191.3188,298.1
191.4196,225.2
191.4798,99.7
191.5153,193
191.6128,408.1
191.7385,108.3
191.7593,197.2
191.9419,301.2
191.9433,323.2
191.9829,1334.7
192.0101,380.7
192.0401,12096
192.044,3232.9
192.0799,332.6
192.1318,387.9
192.1827,575.3
192.2772,139.8
192.32,327.8
192.3864,540.9
192.5106,95.3
192.5419,28.1
192.5478,427.5
192.6705,124.2
192.7027,22.5
192.7914,118.8
192.911,144.7
192.9445,142.4
192.9676,93
192.9801,708.6
192.9935,315.5
192.9989,3478.5
193.0162,259
193.0187,23.9
193.0255,18.5
193.0322,18.1
193.0353,7322.9
193.099,269.8
193.1155,201.4
193.2922,189.4
193.308,422.5
193.3943,444.6
193.411,119.6
193.418,361.7
193.4589,361.6
193.4837,241.7
193.4916,133.5
193.5888,243.3
193.717,667.4
193.7193,273.2
193.8985,111.4
193.9117,85.1
193.9423,508
193.9983,2283.8
194.0014,363.7
194.0052,2571.7
194.033,2429.4
194.0382,458.7
194.0602,217.9
194.0673,246.5
194.1463,103.3
194.1544,68
194.1619,748.1
194.1752,259.7
194.2526,227.5
194.2622,264.1
194.2819,344.3
194.3114,20.5
194.649,348.4
194.6787,102.2
194.6937,141.6
194.8419,509.3
194.8578,379.8
194.8759,375.2
194.9042,371.6
194.9616,534.3
195.0011,69.7
195.0117,27.7
195.0444,107.9
195.0527,264
195.1804,470.4
195.2205,335.7
195.3052,228.5
195.4215,326.3
195.4592,324.2
195.4713,20.1
195.4972,223.1
195.5107,97.5
195.5435,169.7
195.5863,355.7
195.5976,278.9
195.699,533.7
195.7196,169.6
195.7369,399.7
195.7552,26.9
195.853,114
195.8567,506.7
195.8913,351.5
195.9196,118.4
195.9522,141.2
195.9671,113.1
195.978,845.7
195.9822,16.9
195.9919,149.7
196.0795,457.9
196.085,156.4
196.17,259.6
196.2224,74.8
196.2295,227.9
196.2505,371.1
196.2833,149
196.3362,17.6
196.3481,162.4
196.372,332.8
196.4339,107.2
196.4417,91.4
196.4697,79.8
196.5611,18.6
196.5805,713.6
196.7044,70.5
196.7292,66.3
196.8655,4410.8
196.869,106.6
196.8784,1283.6
196.9301,383.5
196.9328,323.5
196.9754,109.2
196.9845,449.9
197.0241,414.1
197.0615,530.8
197.0848,105.2
197.1012,2168
197.1444,97.6
197.2044,282.6
197.292,806.4
197.3976,322.3
197.4611,140.7
197.6149,32.7
197.6916,127.5
197.7023,120.1
197.719,92.8
197.794,555.1
197.8478,242
197.8566,128.1
197.867,220.4
197.8716,415.5
197.8769,169.1
197.8914,30
197.9112,236.6
197.9397,19.6
197.9437,429.2
197.9941,461.6
198.0635,777.4
198.079,18.3
198.0816,126.4
198.0853,10047.6
198.0896,448.8
198.0973,18.7
198.1496,21.3
198.1856,6448.1
198.192,234.6
198.2323,521.6
198.3258,321.2
198.3373,105.7
198.4585,969.8
198.6344,110.7
198.732,175.7
198.8626,3868.9
198.8671,430.4
198.8699,84.2
198.8895,332.8
198.9213,86.4
198.9519,22.4
198.996,104.9
199.0166,411.7
199.053,185
199.0758,2842.7
199.1075,241.3
199.1243,124.3
199.189,209.5
199.2482,18.2
199.2606,778.9
199.2666,85.4
199.3155,18.5
199.339,107.8
199.3448,290.9
199.4107,320
199.5633,337.9
199.5722,19
199.5974,104.9
199.6384,670.4
199.7521,344.7
199.8699,28.5
199.8841,687
199.991,22919.2
200.0192,546.9
200.0247,510.7
200.0377,114.4
200.0411,19957.6
200.0544,234.5
200.0843,20.4
200.1028,9899.7
200.1144,324.2
200.1313,321.3
200.139,118.7
200.1829,223.9
200.3015,285.4
200.4011,222
200.4069,127.7
200.4407,548.4
200.4507,412
200.4746,83.7
200.4823,262.5
200.5099,162.2
200.5153,690.8
200.599,579.6
200.616,22
200.7247,137.5
200.7571,82.8
200.816,19.7
200.8945,2458.4
200.8975,431.1
200.913,441.1
200.9261,786.5
200.947,317.6
201.0292,145
201.0434,408.2
201.0551,432.2
201.0874,167.1
201.0992,258.8
201.108,101.8
201.1167,270.3
201.1234,352.9
201.1827,112.7
201.2125,133.6
201.2397,288.3
201.2497,135.3
201.3366,303.2
201.3812,83.5
201.4738,782.3
201.5657,108.9
201.5797,170.8
201.7476,105.4
201.8127,190.2
201.8511,93.1
201.8651,350.3
201.8947,216.9
201.934,828.5
201.9956,83.1
202.0166,98.6
202.0438,291.1
202.0477,368.8
202.0694,372.4
202.091,466.8
202.1084,98.1
202.1788,134.1
202.3067,104.5
202.342,792.8
202.4389,101.1
202.4794,14417.2
202.506,222.2
202.5793,117.6
202.7193,268
202.7232,537.1
202.8954,67.9
202.9123,825
202.9282,185.2
202.9772,341.3
202.9798,885.6
202.9907,661.3
203.0321,673.1
203.053,1337253.8
203.0597,168.5
203.0771,7301.1
203.1286,130
203.1394,278.4
203.1695,85
203.1789,180.2
203.1856,442.2
203.2069,98.1
203.3156,437.1
203.3229,272
203.51,380.8
203.5277,196.5
203.5742,80.8
203.5798,105.5
203.6392,298.1
203.6521,30.9
203.866,383
203.8947,966.9
203.9136,675.6
203.9203,402.4
203.9435,369.9
203.9494,276.6
203.9608,112.7
204.0247,36951
204.0327,564.8
204.0474,20.1
204.0563,66432.6
204.0633,1486.5
204.076,21.3
204.1282,825
204.1393,294.1
204.2382,170.5
204.2715,129.6
204.2829,99.5
204.311,110
204.3283,89.3
204.3318,561.7
204.3454,114.3
204.3583,108.1
204.4025,412.5
204.4304,89.1
204.4982,118.1
204.5988,229.1
204.6447,310
204.6762,306
204.7436,193.8
204.8845,25.6
204.8891,720.7
204.9214,18.5
204.9415,117.7
205.0031,268.6
205.0572,11296.5
205.0687,56311.5
205.0838,20.3
205.0977,700.9
205.11,147.6
205.1186,83.6
205.2186,339.2
205.2242,619.2
205.373,330
205.3919,264.3
205.4025,18.3
205.4484,206.3
205.5279,144.4
205.5302,18.6
205.5559,353.9
205.607,347.5
205.621,99.8
205.6477,140.1
205.6823,134.4
205.6924,129.4
205.7313,20.7
205.8597,364.6
205.8866,145.1
205.8881,159.6
205.8892,146.6
205.9528,347.1
205.9826,325.7
206.0068,469.4
206.0478,139.8
206.0558,544.1
206.0718,1625.7
206.1965,154.7
206.2729,185.6
206.3114,100.5
206.4089,21.7
206.4845,184.8
206.5673,159
206.5975,29.9
206.6919,201.8
206.7925,105.2
206.8507,93.1
206.8881,275.6
206.8943,12284.9
206.9172,313.5
206.9207,307.1
206.9824,1846.4
206.9981,131.9
207.0147,91057.7
207.0314,29.5
207.0446,2450.6
207.0511,10547.6
207.1161,214.6
207.1669,158.5
207.1724,728
207.1765,372.9
207.1856,232.8
207.1989,81.6
207.2035,88.2
207.3235,95.7
207.342,154.4
207.5841,84.4
207.5931,117
207.6078,488.5
207.6685,149.7
207.8866,128.1
207.9181,17.8
207.9216,84.1
207.9609,347.3
207.9807,473.5
207.991,1981.1
208.014,3217.3
208.018,2782.3
208.0234,149.2
208.0433,48.7
208.1115,266.3
208.1267,467.2
208.1882,185.6
208.2631,451.8
208.2747,156.7
208.3719,19.2
208.4612,94.2
208.4857,197.3
208.5343,202.8
208.6187,186.8
208.6675,82.4
208.8035,229.4
208.814,225
208.8588,591.9
208.8697,101
208.8835,2753.7
208.8914,8126.8
208.9188,17.5
208.9358,1238.3
208.9955,848.8
209.0129,5533.7
209.1567,17.2
209.2216,313.7
209.3695,169.1
209.438,18.9
209.4956,420.6
209.5087,98.7
209.8842,48
210.7237,447.1
210.8335,149.4
210.8836,24.7
210.8866,103.1
210.8902,122
210.9333,678.1
210.9363,395.3
210.9484,88.1
210.9718,166.5
210.9895,193.5
211.03,414.4
211.0403,107.3
211.0486,284.3
211.0543,397.1
211.0563,254
211.0643,316.4
211.0692,356.6
211.0754,363.6
211.1238,797.7
211.1313,132.6
211.1653,10996.6
211.1676,16454.7
211.1712,26026.7
211.1736,32024.2
211.1873,1594.3
211.2061,640.8
211.2091,21.1
211.2161,212.9
211.2698,87.5
211.2802,176.2
211.3053,289.8
211.314,85.7
211.3743,770.6
211.4887,188
211.5113,319.9
211.6074,137.8
211.8056,873.2
211.8094,122.1
211.8283,118.4
211.8604,169.8
211.8996,332.9
211.9297,439.1
211.9361,326.8
211.946,86.8
211.9595,53.5
211.9672,113.7
212.0089,294.1
212.0244,228.8
212.0743,34.4
212.1372,260.4
212.2821,92
212.4807,697
212.6,74.3
212.6539,128.2
212.715,141
212.7347,137
212.7385,101.6
212.7571,117.5
212.7699,187.4
212.8079,458.7
212.8395,2355.3
212.8648,418.9
212.8812,90.9
212.94,354.7
212.9655,32.5
213.0552,814.9
213.0753,654.1
213.0987,111.8
213.1171,18.8
213.1434,98.8
213.1604,101.8
213.1952,85.3
213.2259,100.9
213.2501,527.5
213.2684,80.8
213.2949,470
213.3149,96.2
213.3972,95.6
213.5078,727.2
213.6032,240
213.6838,325.8
213.6889,77.3
213.7282,743.5
213.8006,34.6
213.8085,205.6
213.8668,72.2
213.9374,17.7
213.9565,274.1
213.9625,3331.8
213.9846,709.6
213.9958,423.9
214.0593,11027.4
214.0816,303.1
214.0901,959.1
214.1319,124.6
214.1833,412.9
214.6045,113.2
214.6624,179.3
214.7336,209.9
214.7491,108.3
214.7546,326.4
214.8366,2078.1
214.874,296.5
214.9103,326.6
214.9175,781.9
214.9657,100.1
214.9994,97.4
215.048,226.8
215.0932,38.4
215.1028,134.4
215.1317,338.8
215.2514,153.1
215.3016,209.3
215.3714,250.7
215.4704,121.4
215.4766,29.8
215.5466,108.1
215.676,280.7
215.8028,209.9
215.8273,229.2
215.8742,26.1
215.9106,22.3
215.9549,24.7
215.9582,82.7
215.9646,180.5
215.9866,220.6
216.0096,181.4
216.0151,10572.4
216.0665,107.3
216.1655,91.1
216.1698,197.9
216.235,371.6
216.2522,97
216.3005,228.4
216.3372,86.9
216.3655,82.3
216.5069,18.8
216.5622,208.8
216.6303,354
216.6555,775.2
216.7555,303.6
216.917,538.4
216.9232,39879
216.938,356.9
216.9765,18.6
216.9847,33.8
217.0274,1002
217.048,396.7
217.0568,262.7
217.1979,199.2
217.4049,468.9
217.4222,440.9
217.444,102.8
217.5016,418.8
217.5123,372.9
217.5465,232.1
217.5997,150.8
217.691,92.8
217.7015,17.6
217.7744,288.5
217.7836,183.5
217.796,302.5
217.8123,237.7
217.8386,182.7
217.9306,115.8
218.0067,24.2
218.0156,22.1
218.0343,16.5
218.0914,538.3
218.1521,54
218.2585,861.4
218.3871,19.2
218.4071,31
218.4146,101.3
218.4324,421.4
218.4749,67.8
218.5601,127.4
218.585,452
218.6662,190.6
218.79,102.7
218.8648,139.6
218.868,296.5
218.8774,387
218.905,407.7
218.9202,11777.7
218.9571,101.5
218.9766,24.5
218.9827,97
219.0181,916.9
219.027,1530222.3
219.0833,9480.4
219.4048,18.7
219.4308,338.6
219.4657,843
219.5056,430.2
219.5491,151.1
219.7459,469.1
219.8035,341.1
219.8156,137.9
219.8984,22.3
219.9635,18.3
219.9983,390.6
220.006,104.5
220.0304,83643.8
220.0371,653.3
220.0673,13399.4
220.0739,717.1
220.1394,267.2
220.1459,223.3
220.1677,403.2
220.2146,142.4
220.2768,20.2
220.2849,79.1
220.3618,76.6
220.4451,221.9
220.4486,22.1
220.5318,223.2
220.5854,137.2
220.6584,92
220.6863,106.6
220.7826,113.7
220.8697,134.4
220.884,140.9
220.8888,700.1
220.9039,659.9
220.9345,619.4
220.9989,201.2
221.0034,258.1
221.0251,93813
221.0312,13952.5
221.0377,215.9
221.0426,36137.6
221.0513,1967.2
221.0689,700.6
221.0851,120.6
221.1711,26.2
221.1759,823.5
221.1816,29.5
221.2811,201.7
221.4341,17.4
221.4863,141.6
221.6864,17.3
221.7191,98.1
221.8017,35
221.8303,120.5
221.8711,331.4
221.9561,414
221.984,5199.8
222.0147,733.5
222.0287,1177.8
222.0456,759.2
222.2082,102
222.2171,407.1
222.2801,390.7
222.3879,137.3
222.414,19.8
222.4971,722.8
222.5083,193.1
222.5564,269.8
222.7414,17.8
222.7761,165.8
222.8683,13629.6
222.8795,382.8
222.8992,806.4
222.9544,1911.8
222.9886,12520.3
223.0369,130.5
223.0407,344.7
223.0644,19.3
223.1195,179.9
223.1285,780
223.1426,20.4
223.1574,231.2
223.2257,115.2
223.2621,143
223.3214,112.4
223.3642,20.3
223.5433,151.4
223.5894,312
223.8376,108.5
223.9534,42.2
223.9589,88.5
224.0299,1281.8
224.0345,92.5
224.0472,95.4
224.0636,81.9
224.083,149.2
224.0864,449.3
224.1043,19.9
224.3202,105.8
224.3762,75.3
224.3796,519.2
224.409,86
224.4321,275.8
224.4638,143.2
224.467,282.8
224.472,432.8
224.6088,134.3
224.7165,193.7
224.7593,229.4
224.8371,257.5
224.8652,6733.8
224.8808,106.5
224.9277,124.3
224.9378,20.5
224.9869,697.1
224.9934,636.1
225.0241,49.7
225.0551,28958.9
225.0758,21.6
225.085,459.1
225.1828,419.9
225.2093,123.8
225.254,205.4
225.2866,249.6
225.2902,17.4
225.5877,232
225.6923,740.5
225.7041,447.5
225.7683,916.4
225.8121,387.8
225.8882,348
225.9259,216.5
225.9391,19.4
225.9525,36.6
225.9626,21.9
225.9697,676.7
225.9898,409.8
226.0025,443.6
226.0069,1188.1
226.0246,10248.6
226.0456,7932.2
226.0582,375
226.1165,805.9
226.1665,89.9
226.1926,258
226.3098,197.4
226.4625,124.7
226.5373,244.6
226.5817,350
226.622,146.3
226.8208,452.6
226.8352,177.6
226.8939,63.1
226.929,310.2
226.952,36292.1
226.9972,755
227.0347,1013
227.0795,4605.2
227.0871,204.1
227.1666,130
227.1839,284.7
227.2902,237.4
227.4534,520.6
227.5761,146.3
227.7206,357.6
227.7558,702
227.7745,204
227.8001,85.8
227.8607,326.5
227.8688,110
227.8876,407.5
227.962,441.2
228.0007,1433.3
228.0224,1190
228.0261,714.5
228.0565,686.6
228.1931,119.4
228.1988,27.3
228.2111,77.8
228.2453,179.2
228.3802,69.4
228.4053,422.3
228.4378,275.1
228.5182,215.9
228.5724,437.1
228.5978,403.3
228.6207,238.2
228.677,695.7
228.7638,125.7
228.7889,517.3
228.7923,152.7
228.8133,558.2
228.8665,185.2
228.8895,55.9
228.9605,188
228.9922,1370.4
229.0501,87.9
229.0909,121.4
229.1406,528.4
229.1692,20.1
229.2574,368.4
229.3886,150.4
229.556,758
229.6252,19.5
229.638,302.8
229.729,125.6
229.7725,342.1
229.7945,702.4
229.9259,813.5
229.9406,441.4
229.9574,10340.9
230.0336,112.1
230.0813,229.9
230.2134,248.3
230.2351,75.5
230.2661,848.3
230.3084,132
230.3204,862.9
230.4438,130.1
230.4773,481.8
230.5712,250.5
230.7015,81.1
230.7135,224.7
230.7729,99.4
230.7801,127
230.81,451.4
230.8715,801.9
230.8846,499.4
230.8909,698.1
230.9046,25.9
230.9606,415.2
230.9914,18.9
231.0075,203.9
231.1016,33.1
231.1461,165.8
231.1663,155.8
231.2974,29
231.3551,108.8
231.4045,240.6
231.5034,923.1
231.5996,174.5
231.6951,299.9
231.7884,127.8
231.8299,144
231.9533,275.9
231.9578,374
231.9637,359
231.9731,162.1
231.9897,415.9
231.9956,118.6
232.0063,104.5
232.0124,195.1
232.0453,153.9
232.0822,444.1
232.1903,333
232.2098,339.6
232.2267,117.4
232.232,398.1
232.3783,510
232.4709,366.2
232.5128,242.4
232.5437,231.8
232.7044,18.8
232.7715,110.4
232.8047,124.3
232.8636,212.1
232.8838,172.1
232.8971,37003
232.9199,313.4
232.986,495.1
232.9943,620.7
233.0513,5846.6
233.0835,18.2
233.1135,512.2
233.1323,551.3
233.1562,157.3
233.2137,131.3
233.3086,243.2
233.3273,120.2
233.3935,164
233.5667,140.2
233.5717,19.5
233.7079,258
233.7714,411.7
233.7957,97.2
233.911,736.2
233.9186,154.3
233.9536,68.8
233.9574,95.7
234.158,89.5
234.1634,120.5
234.1813,93.1
234.2394,781.3
234.3537,112.3
234.3781,158.3
234.3806,131.5
234.5284,109.2
234.5447,765.7
234.5958,131.1
234.6321,149.1
234.6747,22.2
234.7082,294.8
234.72,147.9
234.7765,125.2
234.8097,473.1
234.8672,993.4
234.8834,22.8
234.8887,133.2
234.8941,7684.8
234.9001,92.5
234.9167,21.4
234.982,1911.8
234.9961,563.4
235.0367,374.4
235.0448,388.6
235.0572,6982.7
235.067,960.1
235.093,16312.9
235.1297,121.8
235.3987,127.8
235.432,210.3
235.6309,309.3
235.755,128.9
235.8373,147.4
235.9099,283.7
235.996,102.5
236.0225,238.8
236.0414,8578.4
236.0721,46431.4
236.0963,117
236.3012,466.9
236.5029,152.8
236.557,72.9
236.6052,30.8
236.6588,380.5
236.778,207.9
236.78,255.4
236.8784,466.2
236.9074,139.4
236.9143,29.3
236.939,472.8
236.9716,20.2
236.9733,17.7
236.9745,17.8
237.0524,534.1
237.0706,48
237.0755,1690.1
237.2711,341.1
237.3897,366.9
237.3978,35
237.4549,223.3
237.4828,109.7
237.5416,573.3
237.7189,546.8
237.7472,69.9
237.7782,18.2
237.9273,609.1
237.9459,86.8
237.9596,428.1
238.0679,619.2
238.0985,30.8
238.1846,342.6
238.262,252.7
238.28,764.8
238.3492,18.2
238.4043,351.3
238.4679,186.5
238.5128,126.7
238.5358,334.8
238.5927,124.9
238.6434,296.4
238.6819,124.4
238.7731,599.5
238.8423,5436.3
238.8536,1020.8
238.8625,418
238.8779,19.5
238.9434,119.6
238.9664,207
238.9708,247.3
239.0094,6150.4
239.049,208.5
239.0546,116.2
239.0685,1464.5
239.0711,24.4
239.1503,19.3
239.3248,19.3
239.4261,204.6
239.4486,335
239.5639,76.5
239.5949,95.6
239.8077,24.2
239.8964,29.3
239.9556,298.5
240.0032,435.8
240.0088,458.5
240.0171,542.8
240.1,458.8
240.1107,424.2
240.179,771
240.192,181.5
240.308,17.8
240.3777,84.8
240.4044,794.8
240.416,737.6
240.4193,385.7
240.4651,372.8
240.6762,150.2
240.7483,291.9
240.8392,2856.4
240.8627,16.5
240.8938,429.4
240.9067,103.7
240.955,1916.2
240.9679,1549.5
240.9728,28.2
241.0074,172.9
241.0952,312.9
241.1855,204.1
241.1897,716.9
241.2653,75.1
241.2982,29.9
241.304,1026.1
241.312,683
241.3171,104.6
241.3228,87.8
241.3271,152.1
241.5006,165.7
241.6807,19.2
241.7369,117.6
241.7663,337.3
241.7774,1031.2
241.7941,726.2
241.8525,23.7
241.9779,142.1
241.9985,3036.6
242.0194,3476.4
242.0481,131.1
242.1,104.7
242.1272,192.3
242.1896,243.2
242.3306,218.6
242.3419,165.7
242.3505,697.6
242.3853,409.6
242.4058,143.7
242.7163,90.7
242.814,28.8
242.834,67
242.926,23408.6
242.9375,347.1
242.9394,457.8
242.9767,27.3
243.0068,653.4
243.0536,6545
243.0658,11275.7
243.0836,95.5
243.1267,20
243.1795,20.7
243.1848,108.9
243.2738,93.7
243.3166,341.3
243.4653,452.3
243.5087,111.8
243.5131,130.8
243.729,143.7
243.773,555.7
243.7922,20.3
243.8455,341.6
243.8574,277
243.8772,843.2
243.8834,103.9
243.9404,20.1
243.9579,26.5
243.9731,3517.7
244.0132,211.6
244.0173,187.1
244.0398,109.1
244.0571,365
244.0617,413.6
244.0683,111.2
244.155,316.1
244.5093,160.9
244.5277,170.8
244.5749,276.1
244.7098,179.6
244.7561,21.9
244.771,108.8
244.7928,437.9
244.8711,5210.8
244.8836,21.8
244.9242,1535.5
244.9766,212.1
245.0071,86.4
245.0289,103.7
245.1107,567.7
245.1884,447.8
245.2005,265.5
245.3062,96.8
245.3129,109.5
245.4545,256.9
245.5795,164.6
245.5979,580.6
245.6441,77.2
245.8035,95.2
245.8678,144.5
245.938,93.2
245.9512,382.9
245.9688,153.4
245.9736,420.4
245.9886,62.8
246.0017,116.2
246.062,346.2
246.1414,245.5
246.1897,19.6
246.3334,124.9
246.3977,408
246.4859,259
246.5085,230.4
246.6854,354
246.7223,144.7
246.784,578.3
246.7954,576
246.8079,85.7
246.8629,717.2
246.868,715.6
246.952,1314
246.9713,22.6
247.0363,1325.1
247.0672,308
247.0887,385.7
247.093,7797.9
247.2362,76.6
247.3401,27.1
247.5882,82.3
247.6775,21.5
247.7595,110.9
247.771,505
247.7971,129.5
247.8631,452.9
247.9035,105.5
247.9681,676.3
247.9836,137.1
248.0085,243.2
248.096,121.7
248.1246,11370.8
248.2849,335.9
248.5047,712.5
248.6207,456.9
248.7463,275.8
248.828,215.7
248.8594,104.3
248.8711,11569.6
248.9011,231.7
248.916,59.9
248.9487,157.9
248.9597,1022.6
248.9994,666.6
249.0166,1320.7
249.0616,14703.6
249.0879,232.2
249.1087,367.4
249.1157,104.4
249.1277,502.7
249.3434,468.6
249.3911,359.9
249.4289,148.1
249.4503,129.1
249.5639,125.2
249.5962,563.2
249.8427,262.6
249.8856,119.6
249.9638,28.8
249.9687,29.5
250.0384,658.5
250.1393,85.8
250.1783,4525.6
250.2023,18.1
250.2535,518
250.2821,300
250.2941,336.7
250.6727,498.9
250.7148,148
250.7367,112
250.8198,429.6
250.8263,367.7
250.8682,2810.4
250.895,349.9
250.9207,1858.5
250.9247,36.6
250.9562,319.8
250.9617,255.8
251.0007,29.6
251.0344,1003.6
251.146,182.3
251.1942,83.3
251.3141,260.5
251.3449,180.6
251.3998,258.6
251.4075,272.5
251.4344,19.6
251.4542,110.8
251.4946,113.2
251.5032,303.4
251.5121,107.2
251.5398,214.7
251.6375,17.3
251.6574,279.9
251.8278,814.9
251.938,222.2
251.9777,17.2
251.9816,512.9
252.0152,874.4
252.0461,92237.2
252.1725,108
252.5032,235.9
252.5639,330.8
252.6133,203.8
252.6326,97.5
252.7,96
252.7475,108.4
252.7986,301.8
252.8103,85.2
252.9105,60.9
252.9175,1110.8
252.9515,22.4
252.9568,794.4
252.9892,224.3
252.9975,22.6
253.0495,6310.4
253.1056,115.8
253.1248,30.3
253.1492,232
253.1537,77.7
253.1575,18.1
253.1684,381.4
253.2906,185.4
253.3185,176.8
253.3552,33.7
253.3673,301.8
253.4442,114.8
253.4942,451
253.532,102.8
253.5686,135.9
253.8586,97.4
253.8721,125.4
253.915,210.9
253.9344,151.6
253.9604,136.2
254.0441,3299.8
254.0846,270
254.1209,72.5
254.1821,20.8
254.1927,110.9
254.3184,166.3
254.3238,324.1
254.3343,19.1
254.5403,430.1
254.5647,20.4
254.6326,19.1
254.718,407.3
254.7407,110.5
254.7477,245.3
254.7883,17.7
254.8162,2582.6
254.8243,6044.8
254.8946,343.1
254.9314,394
254.954,240.3
254.9864,129.3
255.0334,19705.4
255.0385,636.7
255.0467,527.1
255.0509,385.6
255.1583,757.2
255.1935,132.5
255.1998,217.1
255.2108,26
255.2851,386.1
255.4108,110.4
255.4146,367.7
255.6203,796.6
255.649,311.2
255.7942,220.8
255.8307,154.6
255.8464,508.1
255.9327,240.6
255.9787,935.4
256.0039,1992.9
256.0247,472
256.0586,330.1
256.0668,190.4
256.074,17.4
256.1483,763.7
256.2384,89.4
256.2652,359.1
256.3396,274.3
256.4049,23.5
256.4401,547
256.7911,19.8
256.8133,1559.5
256.8213,6609.7
256.887,223.8
256.8947,156.3
256.9039,163.2
256.9331,790.1
257.018,161.6
257.0226,278.5
257.0491,3152.7
257.0631,404.2
257.066,754.5
257.075,41752.1
257.1145,124.1
257.1159,124.7
257.1582,117.3
257.1676,362.1
257.1796,239.9
257.2177,188
257.2234,408.2
257.2477,127.4
257.2741,141.9
257.3219,115
257.329,334.6
257.3604,238.7
257.3931,202.9
257.4828,97.8
257.5175,182.8
257.5298,126.2
257.5679,105.3
257.6504,424.8
257.7601,218.3
257.8211,82.7
257.8505,104
257.8998,313.1
257.9495,495.2
257.9524,354.6
257.9641,593.9
257.9886,70.3
257.9934,387.6
258.0305,1093.6
258.0571,77.2
258.0745,107.7
258.0787,506.6
258.1107,14018.4
258.1575,24.7
258.25,301.3
258.3402,241.8
258.4401,861.7
258.4894,160.3
258.5572,23.8
258.5947,21
258.7193,97.5
258.8185,3097.9
258.8299,125.3
258.8345,204.9
258.8417,285.2
258.864,28.8
258.9,3831
258.9795,103.6
259.0037,174.4
259.0145,505.1
259.0959,176.2
259.1101,99.1
259.2774,20
259.3677,110.3
259.3773,433.2
259.4436,480.9
259.4903,187
259.5017,125.3
259.5891,258.3
259.5948,120.4
259.7245,120.6
259.7585,208.1
259.7902,253.7
259.8597,210.4
259.9445,23.5
259.9677,544.2
259.9762,166.8
260.0175,33.6
260.0536,422.1
260.0655,110.8
260.0926,222.2
260.1224,94.1
260.1631,110
260.2104,771.7
260.2188,126.1
260.2557,366.2
260.2683,439.2
260.4961,314.1
260.5575,503
260.7047,29.4
260.8451,2504.1
260.8901,24.6
260.8984,623.6
260.9172,20.1
260.9495,6905.7
261.0221,122.7
261.0463,266.3
261.0839,455.8
261.1027,475
261.1868,160.1
261.2527,385.4
261.2591,99.3
261.4211,31.6
261.4728,90.2
261.5978,20.2
261.7153,202.9
261.8038,186.9
261.8293,383.2
261.8714,232
261.9455,219.1
261.9837,303.1
262.1384,104.5
262.3389,179.1
262.4313,18.5
262.4832,259.6
262.5078,218.2
262.5146,357.7
262.5221,437.8
262.5371,228
262.6164,208.3
262.6458,224.4
262.6732,108.4
262.6943,222.8
262.8953,25.3
262.9166,26.8
262.9467,1330.5
262.9942,108.8
263.0769,226
263.0856,1029.6
263.1415,203.9
263.2315,109.9
263.4475,19.4
263.517,328.6
263.5221,115
263.7699,485.6
263.8325,103.4
263.9026,18.4
263.9811,380.2
263.9904,466.3
264.1463,150.8
264.4252,686.7
264.4532,294.3
264.504,424.9
264.6186,17.8
264.6818,160.7
264.7619,300.2
264.8452,2066.9
264.8532,3887.6
264.8734,233.8
264.9238,632.7
264.9339,1568.7
264.9732,459.4
264.9888,12740.8
265.0041,103
265.0134,19
265.0164,79.7
265.0237,1152.4
265.0356,8454
265.0476,3559.9
265.1494,18.9
265.1646,337.7
265.1735,404.6
265.2031,170.3
265.2208,108.9
265.2572,455.8
265.4807,21.5
265.5682,117.5
265.582,210.9
265.6538,165.3
265.752,105.8
265.9503,744.9
265.958,66.9
265.9788,439.7
265.9923,367.2
266.1338,180.6
266.4554,129
266.4957,32.2
266.5248,79.1
266.6265,490.1
266.6672,141.1
266.8502,3262.1
266.8745,22.3
266.8947,3218.2
266.9593,91.1
267.071,162.3
267.1194,106.4
267.2323,187.3
267.2774,21
267.3081,340.5
267.4889,110
267.5916,511.7
267.6384,308.5
267.7486,144.3
267.8817,318.7
267.9083,17.8
267.911,19.3
267.9402,163.8
267.9743,168.2
267.9943,1011.5
268.0095,66.2
268.0299,836.2
268.0852,114.3
268.1304,373.4
268.2635,99
268.3267,271.8
268.4084,170.2
268.4161,145.5
268.6387,18.6
268.6964,355.7
268.848,1292.8
268.8918,1665.6
268.9634,317.2
268.9659,312.7
268.9979,78.3
269.0284,507.8
269.0393,207.9
269.0454,18186
269.049,32645.5
269.2123,337.3
269.336,114.9
269.3748,161.4
269.3799,357.3
269.4007,114.7
269.4701,132.6
269.4924,20.2
269.5848,327.9
269.6758,86.2
269.6883,188.2
269.8365,306.1
269.9366,204.4
269.9854,88.4
269.9898,441.4
269.9945,1837.6
270.0101,230.8
270.0252,20497.2
270.0478,27543.8
270.08,412.5
270.0841,238.3
270.0911,473.9
270.1016,143
270.1155,142
270.3374,263.9
270.7357,128.1
270.7537,487.1
270.7982,3311.2
270.8131,224.4
270.8595,228.6
270.9604,46.5
270.9783,17649.4
271.0248,549.5
271.0286,1413.7
271.0508,1002
271.0659,218.1
271.0779,746
271.0909,1892.8
271.2555,110.6
271.4695,195.1
271.5244,165.6
271.6159,279.5
271.6205,79.6
271.6768,97.1
271.6855,773.4
271.7343,230.3
271.7835,106.9
271.8394,133.8
271.8732,284.4
271.8836,128
271.9083,66.5
271.9169,362.5
271.9623,371.6
272.0048,21.3
272.0211,548.7
272.0292,23.5
272.0435,35.3
272.049,398.6
272.0808,232.9
272.09,34.3
272.1407,94.9
272.3163,88
272.3223,164.2
272.3897,395.9
272.4464,19.3
272.4995,210.1
272.6849,412.8
272.7728,23.6
272.7828,203.6
272.7954,3317.1
272.8253,354.9
272.8434,292
272.8596,692.1
272.9131,291.3
272.9449,611.7
273.0239,41
273.049,1555.5
273.1937,663.2
273.2353,159.1
273.3522,19.6
273.4194,186.9
273.4736,953.9
273.4849,519.6
273.5096,94.1
273.5409,372.1
273.828,265
273.8803,108.8
273.933,20.6
273.963,9821.1
273.9726,158.8
274.0695,98.3
274.0929,1129.9
274.0979,213.4
274.1968,132.1
274.4219,110.4
274.5024,94.2
274.5369,85.7
274.7924,1662.3
274.8033,49.1
274.8095,326.5
274.926,99.4
274.9695,282.2
274.9829,22.8
275.0588,19.5
275.1003,387.7
275.1418,113.1
275.189,275.6
275.1954,129.4
275.2184,699.6
275.2357,170.1
275.2461,76.8
275.283,137.6
275.3035,125.8
275.307,234.4
275.3557,92.5
275.4084,100.4
275.522,101.8
275.6673,86.5
275.7399,85.1
275.7463,104.6
275.7934,110.4
275.9323,216.4
276.0038,147.6
276.0311,861.5
276.0851,34
276.2445,250
276.3868,81.5
276.4893,106.3
276.7665,254.7
276.8188,35.6
276.878,201.9
276.8947,20.7
276.911,113.9
276.9236,7452.1
276.9553,458.3
276.9856,22.2
277.0073,153.3
277.0276,490.6
277.0912,169.1
277.0998,415.7
277.3002,17.4
277.4122,265.3
277.414,266.6
277.4162,152.3
277.5148,287.9
277.618,19.1
277.6221,93.5
277.7019,253.9
277.7499,727.8
277.9057,100.2
278.0006,55.3
278.0194,438.9
278.0303,20.6
278.0962,123.6
278.1268,213.1
278.252,18.5
278.5828,320.8
278.5845,397.4
278.5863,323.2
278.6133,100.9
278.7438,313.9
278.8366,237.8
278.8469,29.8
278.8906,301.2
278.9206,2155.1
278.9876,1932.8
279.0045,1484.3
279.0152,274.8
279.0229,30.9
279.057,31388.8
279.1165,629.9
279.1982,310.1
279.2751,133.7
279.3738,215.7
279.5014,118.8
279.5825,116.6
279.5889,154.2
279.6643,406
279.7306,258.1
279.7499,102
279.7792,385.1
279.8637,271.1
279.9299,457.5
279.9763,189.3
280.0124,964.6
280.0617,446.6
280.069,257.1
280.0763,574.2
280.1101,315.5
280.3854,460.9
280.5332,21.2
280.5489,451.9
280.6009,178.5
280.7239,95.8
280.8272,1589.4
280.9628,1033.1
281.0041,332.3
281.01,2334.5
281.0176,26.3
281.0328,229.3
281.0521,113.6
281.1184,677.5
281.1267,18.1
281.1625,431
281.2216,86
281.246,23.1
281.4545,255.8
281.7485,104.2
281.793,90
281.925,333.4
281.9298,242.3
281.957,350.3
282.0074,462.1
282.0153,157.5
282.054,124.6
282.0651,326.5
282.0805,199.7
282.0961,316.9
282.1445,213.3
282.2842,166.6
282.3802,235.6
282.3905,323.4
282.6488,388.3
282.7095,200.6
282.8243,1709.7
282.9444,438.1
282.9973,239.4
283.0285,871
283.0665,23
283.1368,329
283.1418,258.5
283.2313,83.1
283.3497,373.5
283.393,263
283.5513,247.6
283.6455,19.3
283.8595,271.6
283.9729,90.6
283.9895,82.9
284.005,78.2
284.0249,224.1
284.0316,18.3
284.0634,111.2
284.141,72.7
284.3987,17.7
284.745,125.4
284.9269,765.1
285.0233,343.4
285.1237,1529.7
285.1407,124.5
285.2799,902.6
285.4463,139.9
285.4511,208.2
285.5248,324.5
285.6122,466.2
285.8614,196
285.8786,706.8
285.9685,1019.9
285.9847,37
285.9888,570.9
286.0202,4659.9
286.4487,524.2
286.5233,185.8
286.5276,200.8
286.7723,2260.9
286.8031,21.5
286.8612,478.8
286.8742,369.7
286.8871,795.1
286.9524,9486.5
287.0236,455.7
287.0558,39483.6
287.0649,454.1
287.09,540.5
287.1009,313.2
287.1868,117.6
287.2147,295.4
287.2597,625.3
287.4106,96.7
287.5069,98.4
287.6034,604.2
287.6713,148.1
287.7834,106.6
287.811,26.9
287.8512,235.9
287.9323,20
287.9392,333.2
287.95,50.8
288.0175,387.6
288.0361,117.7
288.0587,1987.2
288.0851,69.7
288.156,10016.3
288.162,20.3
288.3044,335.8
288.3703,399.6
288.4695,368.7
288.4865,32.4
288.5521,519.1
288.6192,280.9
288.7326,644.4
288.7423,137.5
288.7692,3306.3
288.8553,144.4
288.8673,149.2
288.8751,647
288.8826,646.7
288.8882,1588
288.8932,1628.8
288.9003,2889.9
288.9063,2035
288.9134,2342.2
288.9193,4995.5
288.923,9408.6
288.9313,12254.4
288.9403,15843
288.9548,19502.1
288.9619,15509.3
288.9674,13096.2
288.9729,15018.6
288.9777,16644
288.9832,13298.5
288.9884,11715.8
288.9945,11278.5
288.9991,10227.5
289.0056,6570.4
289.0162,3590.7
289.0258,746.4
289.029,1119.4
289.0333,523.5
289.0347,490.4
289.087,474.1
289.1589,428.1
289.375,99.1
289.4134,475.3
289.4689,142.1
289.5702,20
289.6565,422.9
289.6753,135.5
289.6901,20.2
289.8089,21.1
289.8953,131
289.937,1078.5
290.0478,20.6
290.1966,142.5
290.2477,250.8
290.2708,621.8
290.6296,115.5
290.7227,422.7
290.7671,912.2
290.7976,59.9
290.8352,59.8
290.8462,93.3
290.8903,120.5
290.9264,72.7
290.9428,28.3
291.0271,1883.8
291.1252,97.3
291.149,239.7
291.1795,20.8
291.4102,93.1
291.4899,148.5
291.5054,834.9
291.6407,331.4
291.7776,214.1
291.8053,33.7
292.0433,105.9
292.0802,102.6
292.1451,104.2
292.2138,217.4
292.2191,730.9
292.2279,554.3
292.28,235.7
292.4119,338.7
292.6352,211.7
292.7654,606.5
292.8017,829.9
292.8169,786.7
292.8554,518
292.8627,27.5
292.8806,103.4
292.8974,1855.5
293.0069,372.6
293.036,20.1
293.0407,477.6
293.0579,345.2
293.0726,1227.1
293.0986,675423.3
293.1358,364.6
293.1716,84.2
293.1795,2180.3
293.3177,77.3
293.3378,796.3
293.3701,18.8
293.4697,160.2
293.481,91.4
293.7979,230.7
294.0958,1685.6
294.102,61460.8
294.2208,389
294.2834,493.6
294.344,153.4
294.7801,348.9
294.7976,94.7
294.8297,21.1
294.8803,181
294.9911,246
295.0311,212.3
295.1027,5807.2
295.1951,23366.7
295.2449,114
295.2774,214.3
295.4404,745.1
295.5076,65.9
295.5798,254.7
295.6146,134.7
295.6556,17.2
295.7115,771.9
295.7612,271.7
295.8096,941.7
295.8416,245.2
295.9039,190.4
295.9091,148.8
295.9618,116
295.9783,133.3
295.9956,18.9
296.0282,32.4
296.1048,779.6
296.1486,133.6
296.1987,2117.2
296.382,277.6
296.422,866.3
296.7488,76.2
296.8012,776.3
296.8125,332
296.8582,27.3
296.8656,134.4
296.9448,273.9
296.9881,150.8
297.0311,88.5
297.0563,96.9
297.062,100.7
297.1367,122.1
297.2083,155.1
297.2372,134.9
297.2651,84
297.3114,552.3
297.6031,222.7
297.6507,215.3
297.9182,360
297.9699,96.9
298.0051,85.9
298.0259,1685
298.0427,15546.1
298.068,771
298.2097,268.4
298.301,237.2
298.4589,185.2
298.6469,350.6
298.6614,416.1
298.8408,432.5
298.9031,104.8
298.9135,622.3
298.9693,102.4
298.9869,77.9
299.0235,4166
299.0391,27.5
299.0461,427.6
299.0939,143.9
299.0997,206.9
299.1269,363.7
299.1396,8246.6
299.1523,222.2
299.2194,458
299.2285,116.2
299.3087,99.4
299.3716,451.2
299.48,166.5
299.5017,909
299.5133,293.1
299.7583,223.6
299.8473,91.9
299.8903,19.3
299.9,394.7
299.9717,110.1
300.0055,558
300.0359,1294.8
300.0497,24.1
300.0753,1056.3
300.1309,235.6
300.1968,19.9
300.2614,122.3
300.3733,324
300.3845,230.7
300.3899,596.9
300.4394,218.2
300.4532,186.9
300.4858,141.1
300.5987,586.4
300.7729,81.4
300.8196,40.9
300.8775,21
300.8858,572.9
301.0123,89.2
301.0322,140
301.0391,16684.2
301.0766,19.2
301.0959,155.6
301.1017,489.8
301.1415,799
301.1951,70.1
301.2122,2602.8
301.3352,150.6
301.4244,417.8
301.5823,83.9
301.6297,754.5
301.7398,402
301.9944,5571.6
302.0202,1592.3
302.0359,74.1
302.0516,376.4
302.0645,3462.6
302.0741,21.6
302.0795,215.3
302.1343,341.6
302.2182,301.7
302.4126,339.1
302.4447,19
302.6874,388.5
302.6929,466.9
302.6984,327.2
302.704,473.5
302.7113,234.7
302.7259,95.5
302.7282,92.5
302.8297,1899.6
302.9059,749.4
302.9263,1394.3
302.9832,105.2
303.0279,506.7
303.0677,275.7
303.0744,972.9
303.0984,33
303.207,142.4
303.2175,4149.5
303.2247,355.6
303.3016,264
303.3248,31.9
303.3382,107.7
303.423,113.9
303.4932,19.1
303.5932,327.6
303.7385,98
303.9706,348.8
303.9864,138.7
304.0265,228.7
304.0604,124.2
304.0691,24.5
304.0928,662.1
304.154,159.2
304.1609,98.5
304.1741,347
304.1981,379.3
304.2319,602.9
304.2714,268.5
304.6684,126.9
304.6948,312.9
304.7432,695.8
304.792,127.9
304.8145,92.3
304.8266,877.3
304.8363,96
304.895,33.5
304.9059,119.6
304.9125,202.7
304.9751,412.4
305.0087,98.1
305.0284,89.3
305.0379,250.2
305.0868,431.3
305.1478,81.5
305.1642,18.6
305.2338,1155.8
305.3849,382.1
305.6596,442.2
305.7729,184.2
305.8361,843
305.8538,21.1
305.9143,831.3
305.9747,231.4
305.9828,38.8
306.0632,719.3
306.0891,270.8
306.0958,45.9
306.2944,113.5
306.3321,363.2
306.6991,245.3
306.7414,539.9
306.8132,43.2
306.8424,65.5
306.8956,146.5
306.9243,312.1
306.9583,702.6
306.9778,4272.8
307.0506,428.3
307.1139,108.1
307.1371,21.3
307.1548,91.9
307.1959,419
307.226,257.1
307.2343,324.1
307.2617,182.6
307.367,274.5
307.5622,155.7
307.8124,421.3
307.9246,865.3
307.9583,353.2
308.2076,21.8
308.3306,329.8
308.5011,360.5
308.5952,221.1
308.8087,330.2
308.8429,196.9
308.8678,341.4
308.8793,2513.5
308.9012,42.8
308.9567,380.9
309.0069,109.6
309.0379,3166.1
309.0829,4163.8
309.1519,80.8
309.2032,18.3
309.3274,21.5
309.4243,141.3
309.4788,19.1
309.5025,19
309.5098,751.2
309.7268,187.4
309.8363,338.6
309.8631,141.3
309.9943,109.6
310.0206,22.2
310.1257,104.9
310.3289,777.8
310.3775,18.9
310.4197,171.9
310.4729,648.1
310.5216,451
310.5595,354.8
310.6146,414.4
310.6257,340.5
310.79,527.1
310.8765,2620.5
311.1676,367.9
311.3058,803
311.3431,23.2
311.4502,85.8
311.5301,94.7
311.7076,573.1
311.7162,131.3
311.9866,362.7
311.9993,110.3
312.0199,236.8
312.0302,854.5
312.042,1147.2
312.1002,120.4
312.1692,20.1
312.2842,142.9
312.2988,438.7
312.4366,332.7
312.6493,800.6
312.7231,72.2
312.8559,454.5
312.8744,858.2
312.9053,202.3
312.9388,197.9
313.0182,207.2
313.0369,679
313.2034,20.2
313.2744,34747.2
313.6002,496.8
313.6995,18.2
313.7485,217.1
313.7809,95.3
313.8496,163.1
313.9518,29.4
314.0153,5927.3
314.023,409.9
314.0917,71.8
314.0967,245.5
314.1082,954.2
314.1297,315.7
314.1935,506.3
314.2778,3256.3
314.284,17.7
314.406,102.3
314.4269,92.6
314.48,147
314.4924,112.4
314.5304,95.5
314.5405,131.5
314.6759,246.4
314.7564,128.5
314.7986,206.3
314.8089,154.2
314.8374,5918.5
314.8501,22.4
314.892,22.6
314.9016,193.2
314.9995,6943.6
315.005,1937
315.0186,450
315.0353,317.1
315.037,252.8
315.0415,305.4
315.0503,1872.9
315.0557,6212.9
315.0604,5360.1
315.0639,8391.7
315.0669,20323.4
315.07,28437.9
315.0726,20051.1
315.0807,8909974
315.0867,38286.9
315.089,20484.9
315.0963,8011.8
315.0987,8445.1
315.1028,4179.6
315.1048,3242.1
315.1092,1994.1
315.1134,965
315.1151,672
315.1174,599.6
315.1194,425.4
315.1242,297.1
315.1282,421
315.1327,288.7
315.1367,176.4
315.1385,153.9
315.1618,7172.7
315.2032,374.3
315.2611,574.2
315.3241,8129.9
315.4349,149.3
315.4862,390.1
315.5311,85.8
315.6212,853.8
315.711,82.7
315.7302,141.6
315.7574,121.1
315.8499,758.7
315.9449,52.3
316.0109,128.4
316.0187,46.6
316.0454,19.3
316.0686,1352.3
316.0779,48418
316.084,946328.3
316.1216,162.6
316.2355,403.5
316.3255,21
316.7551,678.7
316.7974,201.2
316.851,154.4
316.904,19
316.9095,736.2
316.9869,740.3
317.0032,1091.7
317.0276,464.2
317.0568,914.1
317.0656,2670.5
317.0845,104085.9
317.1544,235.4
317.1608,249.3
317.2469,635.2
317.3264,196
317.3397,311.2
317.3861,174.1
317.3966,284.4
317.6843,197.3
317.7569,336.7
317.7976,19.7
317.8224,30.4
317.836,20.4
317.8782,236.5
317.9575,110.9
318.047,22
318.088,10518.7
318.0973,159.6
318.2773,128.9
318.3074,242
318.3355,103.4
318.7291,91.1
318.7931,1053
318.8041,1304.2
318.8336,125.1
318.8582,116.5
318.9082,849.2
318.984,660.8
319.1951,63212.4
319.2037,531.3
319.2272,388.6
319.5183,262.8
319.5949,213
319.5969,316.2
319.7024,429.3
319.7566,266.9
319.8379,108.2
319.9412,404.6
319.9765,221.7
320.0353,241.8
320.0646,154.9
320.075,22
320.1985,10688.2
320.2593,1675.1
320.3132,151.3
320.4823,180.6
320.5128,87.1
320.6715,584.6
320.7598,154.9
320.7709,88.7
320.7966,225.5
320.8235,91.8
320.8315,50.6
321.034,133.9
321.0607,141.8
321.2108,50902
321.2421,727.7
321.2626,84
321.3573,255.6
321.589,410.9
321.6011,416.7
321.6904,172.7
321.973,175.4
321.9779,22
322.0096,138.2
322.1671,261.6
322.1887,226.8
322.2144,6095.2
322.2322,223.4
322.4381,18
322.4687,223.7
322.4777,107.7
322.5114,258.8
322.5471,126.4
322.6608,331.8
322.6743,421.9
322.8108,476.8
322.8235,37.9
322.8582,172.1
322.9318,1147.1
322.969,123.9
322.976,397.7
323.0138,23.6
323.0211,7141.5
323.0304,383.8
323.2265,7116.1
323.3811,295
323.4246,100.7
323.5109,89.6
323.539,312.2
323.5625,80.9
323.6022,91.9
323.6365,162.3
323.6733,91.9
323.7555,133.1
323.7674,439.1
323.7936,132.7
323.8102,222
323.8513,332.3
323.9333,443.7
324.0023,9607.4
324.0319,460.4
324.1583,752.8
324.1958,20.7
324.2531,93.8
324.3015,136.5
324.3467,543.8
324.4585,390.8
324.5156,875.3
324.5828,692.9
324.5916,5725
324.598,3464.5
324.6153,1113.1
324.6208,496.1
324.637,19.9
324.7904,229.2
324.809,818.9
324.8535,2195.2
325.0025,980.4
325.0569,1069
325.097,260.5
325.1177,468.7
325.1384,388
325.1989,454.9
325.2118,5093.8
325.2401,288.5
325.3261,100
325.7042,504.8
325.7179,188.6
325.8896,145.7
325.9562,583.7
326.0518,211.3
326.1423,237.4
326.2997,417.3
326.329,111.9
326.3821,309.5
326.6216,136.6
326.702,598.8
326.8302,380.7
326.8504,2686.8
327.0161,5632.9
327.046,318
327.0524,1842.7
327.0815,221
327.0844,202.3
327.2278,7011.8
327.4873,75.3
327.6539,164.3
327.7347,208.2
327.7983,213
327.8379,139
327.9085,340.5
327.9892,438.1
328.015,359.1
328.2315,1162.6
328.3134,120.5
328.3236,185.2
328.4417,753.6
328.4452,736
328.455,203.5
328.4697,165.8
328.533,125.9
328.6981,138.6
328.7743,472.6
328.7789,452.3
328.8147,89.2
328.832,412.7
328.9099,101.3
328.92,121.9
328.9527,81.1
329.0067,397.5
329.0215,86.7
329.0652,106.5
329.0965,2801
329.2003,251.1
329.2314,305.3
329.4343,240.3
329.5951,148.2
330.011,77.6
330.031,765.8
330.0596,111
330.4187,1052.9
330.6096,144.8
330.667,793.8
330.6877,785.2
330.7261,513.6
330.8354,789.7
330.8855,365.3
330.9059,372.4
330.9681,143
331.0197,1009.4
331.0458,138632.9
331.0546,1345740.9
331.0949,8357.4
331.1556,228.7
331.2055,626.6
331.5718,401.7
331.672,22.9
331.9454,195.7
331.9517,476.3
331.9748,378.4
332.026,62.3
332.0484,9296
332.058,121082.9
332.069,18.7
332.0908,745.5
332.0982,1068.4
332.1321,588.3
332.1648,104.4
332.2838,182.6
332.4068,474.8
332.4339,89.7
332.4681,186.4
332.5932,21
332.8092,108.6
332.9562,456.6
332.9612,954.8
333.0412,149.8
333.0527,80301
333.0583,13811.7
333.1104,1747.3
333.1523,773.7
333.1724,157.2
333.1859,246.3
333.3418,25
333.3803,203.9
333.6929,20.9
333.7193,205.1
333.7676,318.5
333.8406,20.7
333.8771,106.2
333.9556,22.5
334.0561,8017.6
334.0624,266.2
334.0909,41.3
334.1319,333.1
334.1336,345.1
334.1911,211.7
334.2168,94
334.2374,755.7
334.2813,27.5
334.5344,419
334.5753,190.5
334.6663,426.8
334.7778,412.8
334.8072,21.4
334.8372,168.2
334.8827,367.6
335.0169,383.2
335.0385,926
335.0574,608.1
335.0712,443.9
335.0913,156
335.1676,3554.2
335.2179,488.1
335.2363,104.4
335.2982,139.9
335.5636,101.4
335.6731,285.7
335.7945,28.8
335.8334,92.2
335.9848,151.5
335.9941,339.3
336.0094,385.6
336.1708,516.9
336.22,319.7
336.3757,596.8
336.6757,380.6
336.9994,422.7
337.0368,8458.6
337.0501,19684.4
337.0626,552017.4
337.1832,1898.3
337.2058,644.1
337.2745,13585.2
337.4147,108.5
337.6016,212.1
337.6084,407.5
337.6562,19.3
337.9622,272.1
338.0507,152.7
338.066,48941.5
338.0832,383
338.2772,802.1
338.3426,42.9
338.4252,84.3
338.4582,250.9
338.5779,17.2
338.6003,104.9
338.6242,507.3
338.8696,316.1
338.9216,2009.4
338.9645,414.1
338.9947,333
339.0075,663.7
339.0388,2053.5
339.0479,868.9
339.0665,5017.4
339.1991,70.9
339.2696,117
339.2904,8068
339.532,106
339.5538,74.3
339.5612,102.5
339.7063,18.8
339.7798,119
339.9673,529.5
339.9763,2431.9
340.0724,102.7
340.4434,898.9
340.5629,234
340.5997,67.9
340.606,211.9
340.7263,626.9
340.8073,19.4
340.8956,18.4
340.915,154.8
340.9957,367
341.0197,512.5
341.0467,77.3
341.1859,1162
341.1942,320.4
341.3058,2505
341.3344,243.9
341.3609,131.8
341.3954,20.4
341.4344,188.8
341.7214,402.3
341.9889,120.3
342.0048,232.1
342.0158,5004.1
342.1109,111.9
342.1752,91.5
342.2153,78.9
342.2453,20.4
342.3083,452.2
342.4522,295
342.5046,116.3
342.6105,243.4
342.6971,327.1
342.7217,125.9
342.8243,573.8
342.8398,739.2
342.9903,1752.3
343.0173,104.6
343.1953,17088.7
343.2793,22.4
343.5791,113.2
343.6767,228.5
343.7811,352.1
343.8005,30.3
343.9655,399.6
343.9888,406.2
344.0826,507.1
344.1331,325.8
344.1658,307
344.1977,1253.3
344.25,97.8
344.274,90.8
344.462,170.2
344.5385,151.6
344.6521,422.9
344.6658,127.4
345.0151,21.6
345.0727,362.4
345.0922,678.7
345.2111,913.8
345.3511,255.3
345.3779,784.5
345.3943,340
345.5488,106.1
345.6921,207.3
345.817,22.4
345.9843,29557.6
346.0104,455.1
346.0213,562.2
346.0413,240.4
346.1754,207.9
346.2089,146.2
346.2194,572.8
346.2343,106.8
346.3363,94.6
346.3563,114.7
346.4958,70.3
346.8277,387.2
346.9882,959.6
347.018,4091.8
347.0623,199.8
347.0687,4169.3
347.1025,23.5
347.2351,338
347.3685,456.7
347.5328,34
347.6463,149.1
347.6648,292.5
347.7094,18.4
347.7982,160.5
348.0464,201.3
348.0813,307.9
348.1245,199.6
348.3245,710
348.4049,18.9
348.499,297.1
348.63,363.4
348.7747,27.6
348.8273,24
348.9512,490.9
348.9546,335.9
349.0185,3296.2
349.2806,697.8
349.2893,129.1
349.3447,98
349.5905,289.8
349.7355,200.5
349.7594,255.3
349.7957,135.5
349.8494,31.2
350.019,979
350.3221,440.4
350.3406,424.8
350.7606,412.8
350.9296,296.5
351.0133,634.8
351.1497,552.4
351.3983,20.6
351.4861,148
351.5608,706.1
351.764,95.3
351.8556,138.6
351.8848,279.3
351.9222,91.6
352.0691,134.7
352.0748,431.2
352.1492,451.4
352.5769,18.9
352.7343,21.9
352.7614,65
352.9493,130.7
353.0277,134519.8
353.0366,198181.8
353.0622,174.3
353.2051,18.6
353.2282,301
353.3916,102.1
353.4027,98.7
353.4466,235.6
353.5212,339.4
353.7133,305.8
353.7457,93.5
353.7804,73.7
353.9109,211.4
353.9331,116.9
354.0311,9468
354.0399,18223.8
354.1057,18.9
354.2643,96.8
354.3909,229.6
354.498,150.5
354.8713,183.8
354.8959,1383.1
354.9506,85.4
355.0123,1397
355.035,10445.3
355.0707,210.6
355.2415,108.3
355.4575,30.9
355.5656,81.4
355.8058,218.5
355.9283,94.7
355.9417,123.5
355.9746,517.4
356.0158,32
356.0363,822.9
356.0706,32.4
356.0963,366.3
356.2943,141.2
356.3833,102.5
356.4617,24.6
356.5408,437.2
356.5595,115.6
356.9415,17.6
356.9739,174.4
357.0093,401.7
357.0207,707.5
357.0471,461.9
357.0872,103.5
357.128,157.6
357.1361,99.3
357.1642,372.6
357.2777,226.1
357.4641,427.9
357.5365,343
357.5691,500.8
357.6109,658
357.6673,91.9
357.7276,102.1
357.8071,369.4
357.8591,93.7
357.8761,154.6
357.9159,112.8
357.9244,202.6
357.9776,1051.1
358.0091,30.6
358.3165,30.4
358.5062,201.7
358.8251,768.2
359.0079,274.1
359.0321,9055.3
359.0447,291822.5
359.1523,277.6
359.1677,1316.9
359.1892,208.8
359.3272,132.9
359.3684,173.9
359.3788,234.6
359.4247,154.5
359.4376,135.2
359.4457,288.4
359.4559,743.2
359.4656,862.8
359.472,717
359.4838,153.5
359.4918,1141.2
359.5056,665.5
359.5409,411.8
359.549,1003.8
359.5603,188.2
359.5697,499.6
359.5894,316.5
359.5998,219.1
359.6227,144.3
359.6571,341.1
359.6799,18.6
359.8752,316.5
359.8838,523.2
360.0118,23
360.0393,693.7
360.048,25731.3
360.0633,92.8
360.1236,148.6
360.1496,94.4
360.2033,18.2
360.3169,140.9
360.3246,25988.1
360.3613,759.3
360.3828,390.4
360.3849,429.7
360.5469,233.7
360.6574,23.9
360.6912,20.6
360.7482,218.8
360.7814,268.8
360.8236,167.1
360.8818,360
360.9026,475.7
360.9316,17.8
361.0113,102
361.0207,2911.9
361.0297,159.4
361.0495,609.1
361.2745,3973.5
361.3015,121.7
361.3208,353.7
361.3279,4677
361.4508,400.4
361.5994,161.6
361.6893,221.1
361.7429,99.5
361.9354,98.1
361.9583,8480.6
362.0617,20.8
362.1465,74.9
362.1666,478.3
362.2251,97.3
362.2775,559
362.5318,99.5
362.6031,263.6
362.6435,591.7
362.6993,92.8
362.7356,116.6
362.7506,400
362.8207,108
362.9272,1540.5
362.9749,420.3
363.179,352.7
363.3354,425.7
363.3566,134.7
363.385,745.5
363.4735,18.2
363.4795,86.8
363.5724,105.7
363.6746,19.2
363.6885,287.9
363.7413,672.5
363.7908,41.1
363.8197,34
363.9434,101.5
363.9984,1248.9
364.1171,399.7
364.1412,105.5
364.591,102.7
364.7906,703.7
364.8351,19.2
364.9352,82.3
364.9603,153.8
365.0748,400.3
365.1065,1792.9
365.126,130.3
365.2228,75.8
365.3211,131.9
365.6097,19.3
365.6475,166.6
365.7395,189.5
365.7899,191.3
365.7974,20.9
365.9867,89.4
366.2003,475.9
366.2073,367.5
366.2284,22.4
366.2617,499.3
366.3026,566.4
366.4953,227.4
366.5381,117.7
366.6864,89.6
366.81,103.7
366.9564,20.8
367.0149,120.4
367.0775,118.6
367.0984,115.6
367.1952,675.4
367.2142,322.4
367.2311,389.4
367.3127,25.2
367.4572,292.6
367.585,500.3
367.7203,344.9
367.8083,93.9
367.8553,120.4
367.9004,388.7
367.9922,1836.2
368.0036,424.3
368.0424,789.1
368.673,597.6
368.8716,359.7
368.9924,3381.3
369.0015,20516.8
369.0108,8349.4
369.0273,264.7
369.1174,19.3
369.352,46.4
369.4173,116.4
369.4959,560.2
369.6513,229.3
369.8917,271.7
370.0042,261.5
370.0579,145.5
370.2299,819.9
370.2569,867.6
370.3256,357.6
370.3754,137.9
370.5866,113.3
370.6852,153.3
370.77,20.3
371.0005,3065.9
371.0421,861.8
371.0665,224.9
371.1167,85.8
371.4246,103.1
371.5963,278.9
371.6887,223.9
371.7679,111.5
371.777,152.2
371.9444,35.3
371.9937,132.9
372.1018,410.7
372.1099,22.3
372.1865,255.1
372.2436,18.4
372.3231,318.6
372.4838,197.5
372.4978,212.5
372.8521,1028.3
372.9961,347.9
373.1091,348
373.1821,573
373.202,460.8
373.4188,24.9
373.5653,209.4
373.7561,268
373.7751,21.2
373.7945,19.7
373.8124,31.1
373.9504,73.2
373.9937,578.9
374.0091,456.8
374.0169,180.4
374.3429,164.1
374.4224,245.7
374.5931,864.4
374.6146,89.6
374.6845,17.1
374.7082,106.3
374.8199,127.8
374.8651,494.9
374.8966,506.4
374.9214,159.1
375.0097,119795.7
375.0186,98328.7
375.0331,135.3
375.1104,19.5
375.2862,17
375.6976,76.4
375.7731,91.9
375.8137,311.4
375.8417,18.3
375.9194,92.6
375.9351,19
375.9489,253.8
375.965,76.7
376.013,8823.2
376.0219,8267.9
376.2986,8322.1
376.4116,756
376.6212,205.8
376.6297,336.2
376.7928,219.1
376.8147,391.8
376.9949,1069.5
377.0169,4825.8
377.5546,100.3
377.6928,379.3
377.7209,28.9
377.7455,145.1
377.9328,95.9
378.2041,221.9
378.335,138.8
378.4131,349.9
378.5375,19.1
378.5441,378.2
379.1486,21.1
379.1876,264.5
379.4297,396.7
379.4468,81.2
379.5127,331
379.6311,260
379.7434,87.9
379.7572,450.3
379.8511,716.5
379.8641,453.1
380.1085,557.4
380.2421,335
380.3408,241
380.4206,166
380.5813,118.6
380.6405,333.7
380.8302,84
380.8691,530.3
380.8889,394.9
380.9179,173.3
380.9907,31.1
381.0141,17713.3
381.0267,160411.3
381.1506,136.7
381.2042,890.5
381.3369,112.1
381.5945,101.7
381.7818,194.6
381.8076,102.5
381.8299,112.2
381.8648,125.3
382.0299,11344.1
382.3503,105.5
382.4685,22.2
382.5531,656.5
382.7256,273.1
382.7676,1890.2
382.7749,107.4
382.7978,83.3
382.838,37.8
382.8892,342.8
382.9455,20.8
383.013,763.8
383.1169,212288.6
383.4284,105.7
383.4835,141.4
383.5812,339.4
383.6526,118
383.7824,152.4
383.8108,18.5
383.838,128.6
383.9534,71.3
383.9661,4112.2
383.9799,765.9
384.1202,22142.8
384.4323,26.8
384.6135,31.6
384.7127,377.2
384.77,30.5
384.9739,890.2
385.0024,541.5
385.0472,354.4
385.139,87
385.2046,111.6
385.41,84.4
385.5168,186
385.5286,117.5
385.7689,242.9
385.8015,146.8
385.8108,21.4
385.858,152.4
385.897,181.4
385.9086,393.9
385.9445,22.1
385.9799,3141.1
385.9922,19.7
386.1759,296.4
386.4038,26.4
386.523,93.3
386.5407,99.7
386.7153,372.7
386.9747,595.4
387.0033,1446.5
387.4565,86.2
387.4844,151.4
387.8158,31.6
387.8312,98.2
387.9786,646.8
388.0089,550.1
388.0273,24.1
388.2209,112.2
388.2535,621
388.388,465.8
388.7061,263.9
389.291,121.6
389.3596,241.3
389.4178,408.3
389.471,449.8
389.5801,19.7
389.6345,156.3
389.8074,22.7
389.8773,572.3
389.9742,30443.6
390.0917,575.9
390.2356,372.3
390.351,109.1
390.3683,172.6
390.3943,488.6
390.6508,91.3
390.6616,831.8
390.7097,438.5
390.7991,392.9
390.8625,282.3
390.8854,984.4
390.9078,86.1
390.9469,677
390.9613,333.9
390.9746,11577.9
390.9835,22908.5
390.9925,10767.5
391.0247,142.6
391.1686,204.3
391.1809,135.7
391.258,522.6
391.6614,120
391.7428,72.9
391.9871,305.6
391.9953,226.5
392.0055,57.1
392.0972,384.2
392.1482,388.9
392.1597,131.4
392.3125,824.5
392.3696,134.8
392.5872,387.4
392.6033,159.7
392.6777,252.4
392.747,111.4
392.7959,1731.3
392.8721,101.7
392.963,103.3
392.9654,113.9
392.9695,103.5
392.9823,1205.5
392.991,156.7
393.0117,142.3
393.0297,336.6
393.0996,135.2
393.2274,80.2
393.2992,382.4
393.5683,84.9
393.6203,99.3
393.7479,644.6
393.7601,171.8
393.8337,111.8
393.8409,162.1
393.9465,403.1
394.0864,23.5
394.1208,420.5
394.3649,101.6
394.4107,363.5
394.6307,388.6
394.6839,468.7
394.6914,375.1
394.7073,542.8
394.828,24.6
394.8439,231.2
394.8633,127
394.9073,103.5
395.0074,318.5
395.0687,92
395.5853,372.9
395.6569,215.7
395.7562,77.7
395.763,99.9
395.8807,89.1
396.0359,251.6
396.1004,601.8
396.4158,114.7
396.4471,17.7
396.487,106.3
396.6054,842.7
396.7451,547.7
396.9755,528.2
396.9917,144041.5
397.0005,56212.7
397.0989,18.1
397.1087,164.3
397.2518,405.2
397.4944,353.3
397.8055,331.4
397.9587,695
397.9674,44
397.995,12148.4
398.0041,1738.9
398.1283,298.5
398.139,505.8
398.2,22.3
398.2317,237.4
398.2424,6404.4
398.2692,121.8
398.4746,30.7
398.6111,76.2
398.7416,2013.6
398.7631,2627.5
398.9985,623.3
399.1341,545.7
399.2444,305
399.2858,113.5
399.4554,277.1
399.8346,701.4
399.9753,118.6
400.0992,409.7
400.6111,25
400.737,458
400.9771,23.1
401.192,611.1
401.4185,160
401.5795,110.3
401.5997,478.9
401.6707,24.5
401.7874,25.7
401.8375,524.8
401.8829,749.1
401.9438,25.4
402.0145,30.6
402.0692,198.4
402.2618,170.8
402.3021,103.1
402.6959,603.8
402.8965,20.5
402.9592,105.5
402.9959,908.1
403.0086,205849.5
403.1773,292.6
403.4805,270.8
403.5765,19.6
403.7528,84.9
403.9054,420.1
403.9432,195.2
404.0117,17864.2
404.0807,157.3
404.2694,31.9
404.3046,19.9
404.4552,345.9
404.686,426.5
404.6951,254.1
404.8227,481.6
404.878,123.6
404.9242,197.4
405.0129,1678.8
405.4049,196.9
405.4673,21.9
405.5309,154.8
405.6828,92.2
405.8168,295.1
405.9481,19644.3
406.0539,407.8
406.3301,709.3
406.3434,93.6
406.4099,242.1
406.5272,20.1
406.5977,151.6
406.6845,348.7
406.7008,138.4
406.8327,246.2
406.8976,165.1
406.9557,1233.7
406.9909,404.8
407.2394,581
407.3331,59.9
407.4223,192.9
407.5187,201.1
407.6335,18.9
407.8175,219.5
407.9029,20.9
407.9467,366.7
408.2369,108.7
408.3087,1648.4
408.3401,276.2
408.6286,141.4
408.6468,106.8
408.6775,451.3
408.7698,2459.5
408.9563,104.4
408.9852,2414.7
409.0109,24.6
409.1374,251.9
409.2333,110.2
409.4745,320.4
409.6049,81.3
409.6088,77.7
409.9903,746.9
410.2002,441.1
410.2724,675.2
410.3185,480.6
410.3282,30.3
410.4988,71.1
410.6132,175.5
410.6491,491.1
410.7644,801.5
410.879,28.3
410.8999,500
410.9806,22.3
411.1166,358
411.1308,214.7
411.2344,121.7
411.263,590.9
411.2782,130
411.4336,190
411.471,213.8
411.5892,510.5
411.7157,297.7
411.7842,86.5
411.8498,104.8
411.9032,221.6
412.0114,131
412.0297,95.7
412.2989,384.1
412.3222,1628.2
412.5148,354.8
412.6181,137.7
412.7184,852
412.814,755.2
412.8305,22.8
412.893,415
412.9163,146.4
412.9381,46.8
412.9652,36416.8
412.9745,11000.3
413.004,394.2
413.1568,32.5
413.2577,437.7
413.2673,3687.5
413.3249,215.6
413.6037,28.9
413.6873,619.9
413.7816,93.4
413.9398,265.7
413.9665,172.4
413.9791,104.9
414.1286,153.5
414.2481,215.1
414.2708,287.7
414.2789,552.3
414.3271,362.4
414.3424,128
414.3449,126.6
414.3719,133.9
414.6043,547.7
414.716,1007.1
414.874,336.3
414.9405,23.8
414.9538,94.7
414.9641,1106.3
414.9984,228.8
415.0319,143.9
415.0846,100.7
415.1127,427.6
415.2232,1116.6
415.2824,4860.1
415.3225,644.4
415.7853,19.1
415.7965,94.1
415.9793,26.6
416.1359,10259.1
416.1927,272.9
416.2148,18771.5
416.463,140.8
416.5146,110.1
416.7152,327.2
416.7919,21.8
416.8027,443.4
416.8357,281.6
416.8563,223.1
416.8665,19.7
416.9634,20
417.1238,230.6
417.1461,222.5
417.1549,141.8
417.2182,1675.5
417.7771,112
417.8486,20.2
417.9722,19.1
418.2044,274.6
418.4875,104.9
418.7562,665.6
418.7995,558.5
418.81,70
418.9825,82872
419.2073,34.3
419.2285,1107.9
419.2558,56.1
419.9151,18.8
419.9859,4810.4
419.9997,47.6
420.1265,368.2
420.2485,103.3
420.423,523.9
420.5433,490.8
420.5607,70.3
420.6097,224.6
420.8858,1429.4
420.964,418.9
420.981,2308.1
421.0458,231
421.3726,21.7
421.4352,106.4
421.8339,115.8
421.9221,3354.8
422.0719,608.1
422.2602,838
422.5322,696.5
422.748,732.8
422.8803,380
422.9914,125.5
423.0033,327
423.0804,161.9
423.2235,97.5
423.3876,180
423.656,305.6
423.9211,92.2
424.1869,160
424.2835,4264.2
424.4342,276.1
424.4455,20.4
424.4606,395.6
424.9546,382.7
425.03,35.3
425.1165,890.8
425.4558,760.4
425.4981,358.2
425.5327,309.6
425.8261,159.1
425.8811,298.9
426.0118,85
426.1668,684.1
426.3135,391
426.4671,20.2
426.9422,73.6
427.1612,94.7
427.3229,746.9
427.3412,431.7
427.4209,160
427.6949,320.8
427.8028,17.7
427.8532,70.3
428.1614,547.1
428.2174,281.2
428.4006,331.1
428.5387,100.1
428.6046,118.4
428.6973,469.5
428.8281,731.8
428.9386,7749.5
428.952,108.5
428.9741,112.8
428.9881,472.6
428.9995,443.9
429.0027,476
429.0082,286.1
429.0278,217.4
429.0534,821.4
429.0898,163.3
429.1708,98.6
429.2133,196.4
429.3246,483.2
429.4032,564.8
429.4293,97.7
429.9613,146.6
430.0422,716.6
430.6693,135.2
430.6963,455.1
430.8195,426.6
430.8288,262.9
430.8618,320.8
430.9154,1510
430.9395,23.4
431.0178,246
431.0831,106
431.218,1879.8
431.2786,436
431.3913,304.2
431.4555,94.9
431.5779,95.9
431.5905,20.7
431.65,161.7
431.7406,220.3
431.818,250
431.841,250.3
431.9512,156
432.0138,174.1
432.0522,295.7
432.0824,20.6
432.1725,32.6
432.2804,105.7
432.3147,380.4
432.4568,121.3
432.6723,148.7
432.7194,545.2
432.7688,242
433.1824,622.7
433.2505,67.5
433.3242,308.2
433.4592,90
433.8559,101.6
434.3271,598.3
434.5272,323.2
434.6624,412.8
434.69,394.2
434.9565,16224.4
435.0097,18
435.1129,222.1
435.2761,143.3
435.3278,302.8
435.4041,109.9
435.4168,464.2
435.4648,220.9
435.908,344.7
435.9322,592.1
436.4995,19.6
436.6558,451.8
436.6895,325.1
436.8598,865.8
436.954,1124.2
437.1822,144.2
437.463,288.7
437.7069,155.6
438.0778,101.6
438.1063,341.5
438.1539,113.8
438.1967,731.8
438.3707,239.2
438.3949,450.3
438.5296,296.3
438.6712,521.5
438.7132,107
438.8184,440.8
438.9235,769.4
438.9725,2516.5
438.9853,3274.1
439.1601,610.5
439.6082,171
439.6237,158.6
439.6428,333.2
439.6982,122.2
439.7765,100.3
439.9931,242.1
440.1649,1180.7
440.4728,96
440.5076,630.7
440.6632,174.7
440.7259,354
440.9215,589.3
440.982,663.8
441.0143,105
441.1799,400
441.2985,224.4
441.3697,242.2
441.4149,753.1
441.4461,120.3
441.4862,91.9
441.6361,489.6
441.7899,594.9
441.9778,479
442.1662,388.6
442.3257,102.8
442.5649,491.2
442.6125,100.1
442.7215,740.9
443.1331,862.5
443.2409,346.7
443.2547,2703.9
443.3521,107.9
443.3896,464.8
443.4234,106.6
443.4946,262.2
443.8083,343.2
443.9099,344.7
443.9737,103.5
444.1416,22
444.25,250.6
444.5138,337.3
444.5398,125.1
444.5541,84
444.5775,33.4
444.6959,482.5
444.7048,868.9
444.8765,197.9
444.9103,88.7
445.3818,106.4
445.4673,541.5
446.0936,385.5
446.1153,89.3
446.3289,205.8
446.6123,384
446.6999,100.1
446.7336,380.1
446.8658,81.3
446.8894,906.4
447.1372,30
447.2204,115.4
447.2602,328.2
447.5757,153.1
447.7767,23.7
447.8709,115.8
447.9324,1365.5
448.3669,680.5
448.6682,508.3
448.7466,515.4
448.874,121.9
448.906,307.5
448.9331,3248.5
448.955,26.9
449.155,2177.9
449.5489,88.5
449.5661,20.7
449.6965,170.5
449.8855,118.4
449.9625,211.8
450.001,20.9
450.0395,584.4
450.1559,581.8
450.1686,465.2
450.2716,415.8
450.2849,244.8
450.3241,149.3
450.3933,269.9
450.4266,744.1
450.6782,18.7
450.9308,1494.1
450.9561,20.6
450.9646,126
450.9807,19.8
451.1258,367.9
451.1503,144.8
451.4705,161.6
451.5382,151.4
451.8701,459.3
451.9455,100.2
452.4764,19.3
452.9114,629.5
453.1734,1372.3
453.3549,18.6
453.4766,249.5
453.5909,37.5
453.8818,764.8
454.019,254.5
454.2859,152.5
454.3702,739.3
454.52,245.9
454.734,94.8
454.8747,601.2
454.9505,30533
455.8749,85.4
455.9529,2242.5
456.0161,121.8
456.3045,245
456.3847,165
456.4374,183.8
456.6335,555.8
456.6988,486.7
456.9477,6814.1
456.98,95.4
457.2337,7061.6
457.3916,123.6
457.4181,125.2
457.6236,373.9
457.6901,94.4
458.1739,87.4
458.1833,118.8
458.2014,215.1
458.2375,410.2
458.3684,20.4
458.3934,218
458.4904,445.5
458.5143,293.4
458.7423,18.8
458.9613,1531.9
459.0857,439.5
459.126,436.6
459.2491,322991.6
459.3458,811.3
459.4817,160.5
459.7509,340.7
459.9149,251.7
459.947,481.1
459.9808,578
460.1657,207.1
460.2524,64770.1
460.3878,386.3
460.5796,354.1
460.6367,192.3
460.8336,69
460.9495,483.2
460.9672,66290.7
461.1193,265.8
461.1707,102.2
461.2561,4107.3
461.3609,434.4
461.546,447.7
461.9705,3458.1
462.1122,276.9
462.1734,227.4
462.2862,202.3
462.4257,115.9
462.6774,284
462.8256,322.7
462.9644,17221.1
463.2998,327.9
463.326,136.5
463.3566,101.6
463.4048,106.1
463.473,224.6
463.4994,697.6
463.5078,133
463.5446,84.4
463.7582,100.3
463.9075,87.7
463.9507,652.8
463.9708,392.8
464.0425,269.2
464.3448,93.5
464.7225,192.7
464.9793,9410.9
465.1277,496.4
465.5225,467.5
465.7176,478.7
465.7848,753
465.8682,909.3
465.9115,461.3
465.9218,20.6
466.158,363
466.2216,314
466.2647,331.4
466.6245,413.9
466.6913,82.7
467.0405,198.9
467.0553,258.9
467.1994,453.1
467.459,19.7
467.707,103.6
467.8405,503.8
467.9296,465.3
468.1239,243.2
468.1715,21.6
468.2632,834.6
468.3976,162.2
468.9597,151.2
469.1192,340
469.2644,158.9
469.331,795
469.5994,164.1
469.7277,87.8
469.9985,282.7
470.42,357.4
470.4385,408.4
470.9243,14964.4
470.9436,227.5
470.9963,4056.2
471.2848,499
471.3032,419.2
471.4012,155.4
471.4978,214.2
471.7975,112.7
471.8714,19.2
471.9928,175.4
472.1022,284.5
472.2349,697.1
472.3654,445.6
472.7144,701.7
472.7385,525.8
472.9214,2096.1
472.9591,921.3
472.9702,1022.4
472.975,896.4
472.9895,159.4
473.0192,333.1
473.1491,439
473.2652,2529.7
473.3484,243
473.4298,144.5
473.7706,373.4
473.8246,86.7
473.9177,28.1
473.962,492.3
474.016,19.9
474.0553,301.7
474.1385,261.7
474.2742,165.5
474.4325,100.5
474.528,776.3
474.6125,324
474.7197,223.2
475.0243,253.9
475.1044,142
475.223,18228.4
475.3646,517.8
475.4449,172.6
475.5327,21.4
475.8116,168
475.9839,75.8
476.0139,253.6
476.2261,1375.6
476.3491,202.6
476.873,19.2
476.9412,39484.2
476.9627,294.1
476.9701,220.8
477.0308,219.9
477.1411,402.9
477.151,273
477.2215,494.9
477.4676,72.2
477.608,289.7
477.7325,181.6
477.8717,18.9
477.9034,719.7
477.9446,2506.8
477.9739,19.1
478.3302,39939.7
478.4207,762.9
478.8651,112.4
478.9384,13077.3
479.0607,504.5
479.0964,30.6
479.2954,536.1
479.3334,8596.8
479.3526,398.4
479.413,143.2
479.4639,150.9
479.5529,154.9
479.5739,453.5
479.5807,213.2
479.6723,403.4
479.6846,266.6
479.9411,1408.8
480.1276,253.4
480.1584,199.9
480.2781,18
480.3457,477.9
480.4752,792.1
480.5176,100.7
480.6095,233.4
480.6494,19.9
480.7212,712.8
480.7383,76.1
480.813,441.3
480.8474,25
480.9531,1564.5
481.0739,226.4
481.0923,1939.6
481.1938,458.5
481.2354,382.1
481.3647,29.9
482.0959,270.5
482.3251,1178
482.4086,113.1
482.7652,309
482.9556,18.8
483.0046,462.6
483.0505,309.2
483.0869,85
483.2492,167346.6
483.2816,111.6
483.6788,344.4
483.7441,361.8
484.0914,22.2
484.1487,22.3
484.2301,629.1
484.2524,36993.2
484.3303,20.4
484.5579,487.3
484.7956,21
484.9015,270.9
485.1305,404.9
485.2285,207.5
485.2648,100700.2
485.7767,1145.2
485.8043,569.4
485.8692,26.7
486.0135,539.5
486.1065,130.7
486.1221,18.3
486.1542,158.8
486.268,22067.9
486.4308,175.1
486.5035,360.7
486.5661,601
486.7188,405.3
486.8089,549.6
486.8988,1421.5
486.9701,725.9
487.2804,81445
487.4237,427.3
487.4422,133.8
487.495,246.8
487.8416,21.3
487.9041,383.2
487.9134,329.3
487.9801,489.7
488.0483,296.7
488.1496,152.1
488.2322,348.2
488.2838,20604.4
488.8734,589.8
489.1088,719
489.1635,84.9
489.268,235
489.2861,792.8
489.331,114.3
489.3457,117.5
489.3692,36
489.404,175.9
489.4659,231.3
489.6202,108.8
489.6339,20.3
489.7733,116.6
489.8422,106.3
490.0304,96.9
490.2917,1955.6
490.38,193
490.7151,772.5
490.9601,267.6
490.9974,787.3
491.1507,130.2
491.1724,357.6
491.2535,400.9
491.4167,244.6
491.443,215
491.5083,226
491.534,103.3
491.63,230.2
491.8763,305.2
491.946,364.2
492.118,153
492.2261,107.2
492.2487,255.9
492.2935,275.8
492.2999,365.6
492.3028,384.7
492.5839,18.9
492.7354,202.8
492.8628,387.2
492.8971,392.7
492.9149,9803.8
493.3915,821.2
493.5669,182.3
493.7501,403.6
493.8218,286.8
493.9187,1022.4
493.9609,301.4
494.2075,340.2
494.2413,248.6
494.2861,458.3
494.3242,1495.8
494.4898,283.9
494.6788,368.5
494.8842,193.6
494.9123,3020.6
494.9439,114.2
495.3875,26.6
495.4172,112.6
495.4984,1018.7
495.6823,193.3
495.7613,107.2
496.3407,274008.4
496.6135,418.8
496.9324,1072.7
496.998,211.4
497.1063,123.1
497.247,246
497.344,68078.9
497.5679,22.1
498.3471,2956.4
498.6071,21.6
498.9287,403.6
499.021,20.2
499.0649,688.3
499.2232,9741.9
499.6154,448.6
499.9954,230.2
500.1515,342.5
500.2266,1305.7
500.2786,501
500.3123,414.9
500.4625,89
500.5449,776.4
500.6654,352.9
500.6803,460.8
500.6939,355.9
500.8887,405.4
500.9282,208.6
501.2385,6067
501.3111,794.2
501.4869,766.5
501.8002,110.3
501.9698,127.7
502.1472,22.2
502.1599,769.4
502.1776,126.9
502.2419,917.6
502.3301,26477.8
502.5495,328.3
502.9736,163.2
502.9896,1330.4
502.9985,147.3
503.1087,58.2
503.2543,4230
503.3333,4721.3
503.6744,182.3
503.9371,93.4
504.0927,136.5
504.307,2161.8
504.3456,8894.2
504.491,149.1
504.6727,585.2
504.8016,102.9
504.9358,94.4
505.0929,197.8
505.1224,118.5
505.2206,197.1
505.2332,729.6
505.3091,187.4
505.3335,106
505.3495,1120.8
505.4766,223.1
505.541,106.2
505.7434,205.9
505.7566,291.1
505.8494,128.8
506.2395,675.9
506.2631,281.8
506.3612,7072
506.4953,123.4
506.525,855.8
506.557,157.8
506.6778,199.3
506.8918,2111.7
506.9202,436.9
507.1735,31
507.2491,26707.1
507.2849,22.8
507.3634,644.2
507.5732,197.7
507.7052,236.3
507.7865,134.6
507.878,399.8
508.0333,758.2
508.2281,389.6
508.2524,5753.9
508.6241,337.5
508.8235,96.5
508.8552,28.6
508.8889,2274.3
509.0052,3649.9
509.0856,146.6
509.1289,731.1
509.2171,394.3
509.265,5570.1
509.352,954.3
509.7233,163.5
509.8154,153.9
509.941,17.9
510.1711,179.1
510.1988,471.9
510.2673,512.6
510.301,391.1
510.3563,1335.1
510.4079,228.8
510.7587,290.2
510.7628,249.3
510.9337,336.7
511.0823,443.7
511.2135,260
511.5203,567.7
511.6089,396.7
511.7732,75.5
511.9229,145.7
511.9697,342.7
511.9793,297.2
512.0051,424.8
512.0901,143.8
512.125,148.1
512.3461,282.4
512.4003,300.3
512.4573,347.3
512.6636,311.7
512.6918,142.3
512.9092,10779.7
513.0623,101.4
513.1515,90.3
513.2903,915.1
513.335,406.5
513.5043,338.1
513.6806,121.4
513.8978,115.1
513.9064,18.9
513.926,217.4
514.1272,102.2
514.6114,392.6
514.6603,434.1
514.8677,549.4
514.9062,7211.2
515.0216,1034.8
515.3151,321.2
515.9755,205.7
516.1517,162.2
516.255,146.5
516.307,12723.7
516.5121,111.2
516.6274,429.8
516.6575,453.7
516.7733,280.9
516.8454,117
516.9203,834.9
516.9512,644
517.2667,390
517.3096,1514.2
517.3351,20.8
517.3643,712.2
517.4325,283.2
517.6247,275.9
517.8803,241.7
518.1477,27.7
518.3227,512327.9
518.3396,526.7
518.7301,86.5
518.8598,348
518.9258,23023.2
518.9996,686.1
519.0737,787.5
519.1358,706.4
519.2493,252.8
519.2746,405.7
519.326,125815.4
519.4349,214.4
519.5038,379.1
519.5695,206
519.8397,129.6
519.9297,2381.6
520.1435,808.1
520.3407,135119.5
520.4706,169.8
520.5197,105
520.7422,411.7
520.7921,123.8
520.9231,13672
521.0312,110.8
521.1694,116.2
521.3442,34869.2
521.9272,927.1
521.9785,478.9
522.0105,296.3
522.1519,89
522.2585,750.3
522.3563,95007.7
522.576,250.1
522.7338,346.4
522.8666,541.6
522.9202,1280.6
522.9375,4531.8
522.969,289.6
523.0222,414.7
523.0531,82
523.2212,68.4
523.3028,21
523.3237,18.9
523.3458,405.7
523.3599,22780.3
523.4489,255.6
523.4821,338.9
523.5761,330.2
523.6818,115.7
523.9743,109.3
524.0506,691.9
524.0644,751
524.0814,106.9
524.2509,68.8
524.2739,405.6
524.3138,683.2
524.3721,92841.8
524.6905,645.3
524.9805,622.7
525.3752,20453.6
525.6554,94
525.7645,165.7
525.796,118
525.8168,97.6
525.8658,223.2
526.0375,226.2
526.1684,105.3
526.2826,226.3
526.3301,3400.8
526.3766,286.1
526.4965,117.1
526.56,390.5
526.6553,120.6
526.6732,111.2
526.6919,72.4
526.8385,350.9
526.9273,161.6
527.1591,1320.8
527.2788,117.9
527.3336,1103.9
527.3464,23.2
527.4204,33.4
527.4915,619.5
527.6402,386.3
527.6611,133
527.7104,226
527.8829,22
528.3453,436.1
528.3975,103.1
528.8462,264.7
528.8831,4431.5
528.9546,1614.8
528.9872,130.6
529.9131,186.9
530.0988,216.5
530.2142,725.7
530.3284,84
530.3597,3303.7
530.4067,638.9
530.6059,193.3
530.7694,21.7
530.8801,4678.8
530.9565,215.9
531.0072,235.3
531.2489,2331.5
531.5109,126.6
531.5458,18.3
531.8257,201.1
531.9968,120.5
532.2493,396.3
532.2817,1177.8
532.3383,6134.5
532.6952,218.5
532.7165,647.2
532.7495,76.5
532.8158,123.3
532.8775,435.4
532.9518,1040.9
532.9665,1800.4
532.9958,110.6
533.5067,96.6
533.5674,73.1
533.6535,115.8
533.8513,196.4
533.9121,21.5
533.9736,20
534.2458,408.5
534.2967,136586.5
534.9,14968.1
534.9949,384.5
535.0739,222.4
535.3001,33193.9
535.4235,263.7
535.5793,118.5
535.6094,210.4
535.8396,169.4
535.9036,987.6
535.9549,763.3
536.0898,92.7
536.2045,213.4
536.2954,6608.3
536.3184,381.7
536.6618,371.2
536.8543,89.7
536.8971,10498.9
537.0278,104.7
537.1964,89.7
537.6801,21.1
537.7223,103.9
537.8384,167
537.9006,332.2
538.0005,98.3
538.3959,183.2
538.4676,375
538.6344,120.2
538.6629,330.3
538.7396,97.2
538.8638,109.4
538.8942,2032.4
538.9114,1368.9
538.9313,1443.7
538.9847,660.6
539.0702,337.1
539.1586,20.7
539.6708,212.3
539.7406,387.5
539.9515,305
540.3054,376.3
540.323,587.5
540.4354,117.3
540.6439,99.7
540.7251,18.5
540.7426,101.7
540.8223,519.3
540.8415,566.4
541.0459,20
541.066,126.3
541.2564,113.6
541.3856,1092.9
541.5531,248.2
541.6104,544.7
541.8881,384.8
541.9848,131.4
542.1113,19.6
542.3228,241851.2
542.3905,927.3
542.4032,334.5
542.4567,443.4
542.4919,120.4
542.7794,95.7
543.0092,29.1
543.0277,133
543.3091,910.8
543.3262,64248
543.349,140
543.402,1126.6
543.4296,231.9
543.5853,149.2
543.6942,255
543.8299,33.8
543.9804,843.1
544.2272,275.8
544.274,523.6
544.2878,22.1
544.3136,20
544.3384,169314.8
544.805,591.8
544.8548,384.8
544.9289,800.5
544.949,560.6
545.3253,252.5
545.3419,42697.7
545.4951,21.8
545.8444,98.3
545.8654,178.2
546.1355,515.8
546.2292,149.8
546.354,171022.8
546.5062,117.9
546.6565,217.3
546.8548,416.1
546.9245,339.2
546.9967,250
547.0966,128.8
547.27,317
547.3574,44893.9
547.5501,109.1
547.563,22.3
547.6273,94.4
547.6573,220.2
547.7537,292.3
547.7866,117.4
547.8146,222.8
547.8382,146.7
548.0324,79.1
548.0753,553
548.1003,100.5
548.268,896.7
548.3597,3290.6
548.4128,132.9
548.4516,673.7
548.538,301.7
548.8104,130.2
548.9346,105.3
548.9612,991.7
549.0076,401.5
549.0295,117.4
549.2916,94.2
549.3887,18.9
549.437,274.2
549.5927,870.9
549.9843,158
550.3461,612.7
550.4117,124.3
550.7528,224
550.7692,24.4
550.8745,3620.2
550.966,823.2
551.9579,175.9
552.0241,343.8
552.1765,385.7
552.2291,21.8
552.7942,99.1
552.8708,2988.2
552.939,186.6
553.4286,261.5
553.9843,254.4
554.0264,98.8
554.2086,321.2
554.2407,491.2
554.2769,129.5
554.3219,242
554.3909,300.1
554.4048,18.3
554.7092,654.5
555.0278,99
555.4196,359.9
555.4422,20.1
555.5043,98.9
555.6945,402.4
555.74,440.1
555.9842,748.9
556.0443,387.5
556.387,23.1
556.5567,144.2
556.8576,622.7
556.9043,19.9
556.9651,743.9
557.166,620
557.2865,37.5
557.3475,18.8
557.7396,126.2
558.0804,863.6
558.2735,34.6
558.2968,70356.9
558.3426,699.2
558.733,32.7
558.7519,18.5
558.8516,95.3
559.009,228.7
559.0943,73.1
559.1152,155.2
559.1975,19.9
559.3002,18328
559.4152,106.7
559.5398,743.4
559.5502,92.8
560.0102,162.5
560.0297,147.6
560.0488,240.2
560.2948,3299.7
560.3125,42064
560.8364,563.9
560.9189,584.3
561.1862,158.2
561.254,814.5
561.2986,472.9
561.3157,9117.2
561.4021,96.2
561.4138,874.9
561.669,258.9
561.9857,142.9
562.1335,118.8
562.328,39833.7
562.4037,105
562.5492,129.1
562.6061,89.4
562.9114,19.9
562.9572,352.8
563.0368,231.3
563.3315,9710.9
563.4318,939.2
563.8275,479.8
563.9902,114.8
563.9974,32.9
564.2498,293.7
564.3282,400.9
564.3628,22.9
564.436,295.6
564.781,139
564.8363,260.2
565.0783,686.9
565.0815,756.1
565.087,414.9
565.182,243.6
565.1868,232.1
565.5593,287
565.5979,287.5
565.6798,116.2
565.7089,426.6
565.902,320.6
566.3228,36159.1
566.5058,258.3
566.5841,250.6
566.6486,441.9
566.9633,1218.7
567.0521,768.2
567.3261,9153.8
567.3465,152.8
568.2965,230.7
568.3389,9613.7
568.399,419.8
568.5842,683.8
568.9387,182.1
569.0203,24.7
569.18,110.8
569.3416,1401.6
569.6115,111.1
569.7132,336.1
569.885,279.1
569.927,19.6
569.9445,115.9
570.1146,122.7
570.1785,479.7
570.2586,441.1
570.3558,1058.8
570.6024,21.5
570.8679,4094.1
571.06,415.3
571.1058,370.1
571.1466,108
571.168,745.5
571.4077,100.6
571.534,30.8
571.632,100.3
572.1972,159.8
572.3266,104.8
572.3705,844.1
572.6274,297.5
572.6432,141.1
572.865,4026.4
572.8974,20.3
572.9805,1415.2
573.0303,280.8
573.0499,153.5
573.2946,105.3
573.3983,302.5
573.8247,406.1
573.9748,194.9
574.0327,155.2
574.0947,452.8
574.1092,170.7
574.1827,45
574.3385,98
574.3875,741.4
574.4152,317.2
574.6699,92.8
574.8683,362.1
574.986,110.4
575.1964,20.9
575.3856,75.9
575.5047,12147
575.7232,107.4
575.7467,104.7
575.9633,201.2
576.2816,5444.2
576.3314,29.6
576.5924,542
576.8844,8613.5
577.2439,781.6
577.5033,135
577.5934,356.3
577.6703,379.7
578.218,103.2
578.6085,103.8
578.7212,131.9
578.819,108.4
578.882,6067.7
578.9787,22.2
579.0712,141.7
579.49,253.2
579.5091,444.4
579.7182,419.8
579.9839,174.2
580.2965,505.4
580.4943,122.9
580.8794,1318.9
580.8967,2332.8
581.0845,19.8
581.2177,512.6
581.3556,129.4
581.4276,140
581.4487,108.7
581.4811,704.6
581.5526,288.1
581.6295,217
581.6812,20.1
582.0874,149.2
582.1826,290.7
582.204,336.6
582.2653,1045.8
582.297,9812.8
582.3339,417.8
582.3389,314.9
582.3557,1030
582.3989,870.8
582.4307,476
582.4493,451.2
582.4759,218.9
582.497,136.1
582.5278,119.7
582.5787,612.9
582.7117,102.9
582.7994,501.4
582.8957,764
583.2558,3566.8
583.2997,477.3
583.4482,20.8
583.6006,146.2
583.6689,181.7
583.6923,286.4
583.7586,670.1
583.8846,272
584.0197,151.4
584.1815,129.8
584.3525,247.4
584.3842,296.4
584.623,882
585.093,100.6
585.2402,108.2
585.2723,6161.4
585.3114,379.1
585.3793,112.5
585.9015,19.2
586.0039,182.1
586.1394,423.3
586.1661,209.7
586.3114,1806.3
586.501,181.8
586.568,149.1
586.5926,95.5
586.7886,683.7
586.8423,2451
586.9133,532.7
587.3133,499
587.4305,295.3
587.5378,20.1
587.7698,800.2
587.8535,210.1
587.8724,149.9
587.8911,772.9
588.0146,470
588.0677,162.7
588.3165,626.1
588.7017,107.2
588.8008,365.9
588.8385,2292.5
588.936,134.5
589.4156,443.4
589.5148,99.4
589.5475,265
589.6031,241.9
589.7115,210.5
589.743,22.9
589.9383,98.4
590.0204,176.9
590.2496,441.6
590.3241,932.5
590.5198,688.1
590.9256,609.5
591.2135,282.5
591.3147,882.5
591.5167,146
591.6308,71.2
591.7938,114
591.9389,558.9
591.9771,419.5
592.1151,336.7
592.2526,496.4
592.3406,733.8
592.5904,452.5
592.8588,6057.4
592.9083,117
592.9944,27.5
593.4239,897.7
593.6967,89.6
593.8053,306.7
593.8564,265.8
594.1037,107.2
594.3674,186
594.5034,386.5
594.5091,392.4
594.5371,178.1
594.5813,107.7
594.8558,5653.2
594.8716,178.8
594.993,76.7
595.2013,105.4
595.3133,75
595.437,361.5
595.4731,610.4
596.0934,467.2
596.276,102
596.3044,135
596.5256,536.4
596.6123,417.9
596.8531,2141.4
596.8711,401.2
596.9425,395
597.1002,19.5
597.1444,385.2
597.2104,186.8
597.454,5134.9
597.4864,15242.1
597.585,256.5
597.7963,117.5
598.0594,177.9
598.3086,122.7
598.3787,154.1
598.4515,2004.8
598.4888,292.7
598.5799,219.1
598.7848,600.5
598.8645,459.2
599.1622,378.9
599.4584,318.6
599.4704,519
599.5041,1043.3
599.895,350.2
600.1462,28.2
600.2814,2762.3
600.4591,102.9
600.4769,257.7
600.5082,438
601.1099,121.6
601.2652,481.1
601.4857,87.9
601.5218,534.7
601.6914,284.8
601.702,19.2
601.8041,165.5
602.0174,94.7
602.1349,931.5
602.2966,966.3
602.3877,321.6
602.5201,345.6
602.8162,315.5
602.8866,1087
603.1466,18.3
603.1519,22
603.1569,18.8
603.3439,106.9
603.4163,114.5
603.4967,100.5
603.5351,977.5
603.5664,492.6
603.6475,287.1
603.7527,135.6
604.0267,349.4
604.0319,350.7
604.1099,495.3
604.1625,365.9
604.1737,24.3
604.2142,1160.7
604.286,257.5
604.2968,437
604.3337,115.5
604.5386,43.3
604.555,324.8
604.9393,479.5
605.0156,252.7
605.7632,108
606.0374,19.6
606.8984,623.8
607.1718,9190.5
607.2037,220.2
607.268,116.8
607.4345,161.2
607.9517,1001.5
608.0063,485.9
608.0343,100.4
608.0504,105.1
608.1104,489.8
608.1751,1336.4
608.3016,178.6
608.3734,846.1
608.6176,345.3
608.6423,211.4
608.8113,563.6
608.8333,1776.3
608.8931,101.3
608.9269,252.9
609.2697,141.9
609.3095,100.2
609.4887,716.4
609.5245,249.8
609.545,89.7
609.7147,90.2
609.7476,132.3
610.1742,123.3
610.3105,814.1
610.4713,162
610.7738,133.4
610.8303,2614.2
611.0059,300.5
611.5406,348.9
611.5566,365.8
611.6297,22.5
611.6572,160.3
611.8581,269.7
611.8828,224.1
612.0269,139.9
612.1687,358.3
612.3258,544.5
612.6404,220.3
612.6455,247.4
612.6545,105.2
612.7128,672.7
612.884,214.6
613.0118,20.7
613.2303,19.7
613.2888,295.8
613.4477,305.3
613.7523,119.6
613.9782,20.2
613.9969,20.5
614.1609,117.8
614.3424,500.4
614.4094,319.9
614.5033,760.9
614.8499,197.6
614.9265,18.4
614.976,100.5
615.0958,199.9
615.2359,334.6
615.4605,1615
615.4834,302.4
615.699,23.9
615.8626,447.4
616.0604,486.6
616.2498,34.1
616.4464,256.1
616.4893,20.9
616.5016,119.2
616.6872,258.5
617.0122,317.6
617.2262,96.9
617.4766,9335.5
617.9666,431
618.3371,426.9
618.7664,180.3
618.8062,318
618.8661,179
618.9374,485
619.1122,18.4
619.4913,2328.1
619.8251,117.7
619.8653,286.4
619.8823,404.2
620.1317,966.3
620.2731,19
620.4707,164.2
620.5921,340.9
620.7902,145.6
621.12,434.3
621.1247,407.8
621.133,378.9
621.2584,130
621.4562,990.8
621.464,845.8
621.4867,5876.8
621.5619,112.8
621.8945,124
622.218,174.2
622.2582,408.2
622.4205,21.4
622.4621,1455
623.0138,156.6
623.0443,419.5
623.0858,94
623.1369,27176.2
623.1855,798.8
623.2667,138
623.2937,33.1
623.4451,435.2
623.4708,1108.1
623.5018,1295.7
623.6734,189.4
623.9384,99.7
624.1404,5188.5
624.5468,147.4
624.6012,92.4
624.6219,117.2
624.7046,18.1
624.7815,104.7
624.8045,392.5
624.8274,125.6
625.091,112.9
625.1372,150.2
625.4715,115.6
625.4812,664.3
625.4958,35.5
625.5191,602.1
625.7456,84.3
625.9027,104
626.1489,480.8
626.8616,126.7
627.1267,109.1
627.2767,298
627.4727,247.6
627.5361,893.1
627.724,128.1
628.1558,21.7
628.5376,50.9
628.8034,456.5
628.8805,325
628.9068,173.5
629.1538,53194.8
629.8449,353.5
630.1574,10871.2
630.3517,96.8
630.4161,461.5
630.6189,105.6
630.6517,93.7
631.1297,140.2
631.1601,935.9
631.2746,284
631.4499,493.5
631.502,20.1
631.7517,154.6
631.8389,213.8
632.042,104.3
632.0596,586.9
632.2693,20.1
632.6156,90.4
632.8194,300.6
632.9522,129
632.9901,338.2
633.1504,357.4
633.5827,327.2
633.9292,82.2
633.9595,369.8
634.2013,113
634.324,374.1
634.4514,429.2
634.7187,18.3
634.8441,2495.2
634.8782,273
635.2685,142
635.5474,18.7
635.6524,590.3
636.2951,394.6
636.3605,639.8
636.5047,610.9
636.5436,115.3
636.8405,3385.6
636.9269,100.8
636.9888,116.4
637.0543,106.7
637.2886,601.2
637.5448,298.8
637.6478,141.9
637.9994,413.2
638.1017,1376.1
638.1965,410.1
638.4535,806.8
638.4981,245.8
638.617,173.6
638.8373,1793.7
638.8619,227.2
639.1295,140.7
639.4549,747.8
639.5337,101.6
639.8151,270.1
640.1914,177.8
640.2478,508.1
640.2923,826.2
640.3865,436.4
640.5231,632.6
640.7543,136.8
640.8523,21.2
641.777,703.4
641.8364,212.1
642.475,119.7
642.8228,192.4
643.016,109.3
643.2618,98.6
643.4852,187
643.843,147.1
644.002,337.5
644.4234,680.8
644.6143,18.8
644.8288,271.4
644.9149,287.2
645.1188,19812.2
645.1502,186.9
645.2417,558.9
645.8463,190.5
645.9558,173
646.032,85.9
646.1295,1720.7
646.4298,915.9
646.6154,341.7
646.709,384.1
646.7335,18.4
646.9846,504.4
647.0016,484.3
647.0219,114.3
647.095,543.2
647.1345,167.7
647.203,113
647.4553,107.9
647.4789,336.1
648.0173,411.5
648.3859,1012.9
648.4821,114.7
648.51,184.8
648.5398,99.2
648.6839,467.5
648.9618,209.2
649.0925,327
649.1053,93.1
649.4419,109
649.8158,772.7
649.8416,760.4
650.4392,923.5
650.6981,760.1
650.818,2132.9
651.0824,22.6
651.1357,46433.2
651.8036,692
651.8917,21
652.0351,117.8
652.1396,7802.2
652.4584,91.8
652.7046,906.1
652.815,3054.5
653.1,25
653.1124,396.4
653.1414,483.5
653.2955,108.4
653.4622,811.5
653.7025,94.2
653.762,599.2
653.9743,128.2
654.149,19.1
654.5932,1660.7
654.6345,985.5
654.65,98
654.8003,260.2
654.9486,347.7
654.9566,293
655.106,19.6
655.2546,19
655.4168,234.8
655.4888,148.1
655.7404,311.6
655.8749,31.4
655.9714,389.8
656.0533,227.5
656.0888,153.3
656.6667,244.3
656.8663,347.4
657.7728,434.4
658.0923,79.3
658.3047,144.4
658.3471,122.2
658.43,2758.3
658.5025,119.1
659.1185,117.8
659.3987,334.7
659.4379,1200.5
660.0834,6408.4
660.4421,19
660.7367,425.1
660.8819,385.8
660.9494,793.7
661.0835,10444.9
661.2101,143.7
661.4679,459.4
661.6533,109.3
661.9966,120.8
662.0045,153.5
662.0131,124.3
662.088,589.6
662.108,93.3
662.208,250.8
662.2771,19.6
662.4239,443.8
662.6045,107.2
662.6473,311.5
663.0929,279.6
663.3256,224.4
663.4546,1382.1
663.7024,181.1
663.92,721.3
664.03,92.3
664.0911,162.1
664.469,3353.2
664.5766,615.8
664.7153,374.7
665.0083,68.8
665.1251,481.5
665.4278,83.9
666.0958,23.6
666.1871,487.3
666.485,4337.8
666.6708,767.8
667.0089,111.4
667.1004,23069.7
667.4038,630
667.899,97.6
668.0113,195.4
668.1045,3703.4
668.1555,770.1
668.4442,383.8
668.5003,353.6
668.5662,365.8
668.7155,374.3
668.7932,474
668.8271,74.6
668.9514,264.7
669.0038,93.9
669.0858,282.1
669.1846,245.5
669.4545,300.6
670.404,117
671.2218,117
671.2767,121.8
671.3464,234.7
671.549,288.1
671.5725,512.4
672.0536,85.5
672.0858,140.2
672.4223,1526.4
672.6028,24.6
672.7707,200.1
673.0877,487.6
673.1178,44759.8
673.1436,130.7
673.5297,487.5
673.5851,386.6
673.8659,403.8
674.1214,7811.2
674.2594,542
674.5898,266.3
674.669,24.8
674.8315,355.2
675.0039,210.9
675.0931,96.3
675.2919,264.3
675.4839,214.7
675.5445,4646.2
675.7293,405.8
675.8364,125.2
676.0482,8505.2
676.5483,1293.3
676.652,410.2
676.7891,313.6
676.9617,181.3
677.0514,540.6
677.3182,32.3
677.4955,111.7
677.6246,323.7
677.7448,99.4
678.0692,125.8
678.2613,142.2
678.2696,135.4
678.3174,277.5
678.4722,998.1
678.6049,143.4
678.6118,279.9
678.6158,260
678.7548,156.9
679.2354,98.5
679.6299,705.2
679.7778,121.3
679.8152,238.2
679.8616,97.8
680.075,825.2
680.4225,168.5
680.8661,394.9
680.9977,160.5
681.0534,17.5
681.238,429.6
681.3401,366.1
681.8154,455.8
682.0124,69
682.0653,16967.4
682.1969,97.5
682.3344,160.7
682.3917,543.2
682.5443,582
682.7589,395.2
683.0434,285.7
683.0653,7233.7
683.0986,809.2
683.4874,380.7
683.6442,282.2
683.6861,406.9
683.7059,31.1
683.9364,130.7
684.0685,336.5
684.3551,141.6
684.9514,111.8
685.0144,136.7
685.0547,119
685.0711,643.9
685.4373,14282.2
685.5385,73.6
685.6651,273.6
685.7003,20.1
686.1468,106.6
686.285,90.8
686.3031,90.2
686.4411,2177.1
686.5676,20.5
686.7389,19.4
686.8824,314.4
687.068,134.6
687.656,171.9
687.923,605.8
687.9338,574.9
688.5902,17.9
688.6678,170.4
688.6863,281.5
689.0822,15149.5
689.0922,15237
689.4682,156.2
689.5608,2105.7
689.7451,582.3
690.0866,1736.9
690.7477,102.3
691.2188,138.3
691.2933,110.9
691.3493,321.6
691.3706,448.9
691.4718,414.2
691.5099,47.5
691.5893,183
691.6606,437.2
691.7637,317.8
691.8847,222
692.0223,312.9
692.1155,590.8
692.3891,451.4
692.4894,18.9
692.5197,254
692.6212,121.9
693.2785,119.4
693.3397,22.4
693.4714,366.1
693.488,585.6
693.7374,144
693.857,147
694.0888,142.6
694.262,120.1
694.278,127.9
694.528,124.7
694.7977,449.3
695.0999,26178.6
695.4625,422.7
695.4916,381.1
695.5123,2484.2
695.6113,483.5
695.7182,348.7
695.7568,24.5
695.7814,583.5
696.1024,2753.3
696.2483,20.3
696.3818,529.4
696.4094,210.6
696.425,817.5
696.4418,488.1
696.5932,780.9
696.7457,436.9
696.7972,328.7
697.0781,154.1
697.3735,334.6
697.4682,311.3
697.4909,213.1
697.5268,16764.3
697.746,345.1
697.8843,295.4
698.0008,143.9
698.0294,3959.2
698.04,3679.9
698.5301,3759.8
698.5715,749.6
698.8371,20.5
698.9217,502
699.0323,254.2
699.1507,605.1
699.2627,432.2
699.2685,559.2
699.3848,405.3
699.476,413.8
699.6074,88.7
700.0101,157.3
700.0559,126.7
700.1952,363.4
700.537,697
700.7318,22.6
701.0354,128
701.2186,202.9
701.2355,342.8
701.4137,349.6
701.5257,132.9
701.5606,30760.1
701.8713,100.7
701.9552,145.7
701.9925,19.9
702.1062,265.6
702.2779,284.6
702.3433,2844
702.4159,627.7
702.4423,139.6
702.5644,10136.9
702.8059,339.3
702.8275,333.1
703.0696,356.4
703.3457,750.2
703.3705,50.1
703.5766,60153.2
703.7354,594
703.7399,588.9
704.0475,8265.5
704.1925,22.3
704.4023,678
704.45,2676.8
704.58,22637.1
704.6843,285.4
704.7478,491.2
704.7832,143.2
704.8244,90.1
704.844,158.1
705.0487,1899.3
705.0566,1782.5
705.1942,134.9
705.261,30.1
705.3653,495.9
705.4845,174.1
705.5828,3093.2
705.7347,125.6
706.0615,437.4
706.1071,101.4
706.2658,447.1
706.29,108.9
706.3716,21.6
706.743,359.6
706.9123,121.4
707.0025,398.1
707.0513,154.5
707.2947,170.8
707.3145,21.7
707.4163,92.2
707.8859,20.7
708.1509,18.6
708.6957,126.1
708.8357,474.8
710.1382,298
710.5069,412.6
710.5836,162.6
710.6058,451.5
710.7279,90.8
710.7598,271.9
710.7734,906
711.0405,18
711.0634,10635.2
711.0743,10126.8
711.4438,158.8
711.5436,4358.5
711.7256,415.4
712.0665,511.6
712.1535,228.8
712.2238,92.7
712.489,90.7
712.5893,466.5
713.0076,98.8
713.2388,234.7
713.9366,211.5
713.985,313.2
714.0048,417
714.0646,369.5
714.1123,444.9
714.1749,114.7
714.2133,225.6
714.4811,85.4
714.4887,135.2
714.746,574.6
714.7751,454
714.8344,23.4
714.8851,228.7
715.0046,87.6
715.3445,625.8
715.4425,113.9
715.785,722.2
715.9903,144.6
716.4045,149.3
716.6571,26.8
716.9336,416.9
717.0816,13446.4
717.3671,512.5
717.5934,289.5
717.6229,98.1
717.6422,246.7
718.0858,905.2
718.4283,21.9
718.5753,402.8
718.6001,419.2
718.9813,314
719.3428,21.8
719.4685,19.4
719.5416,211.3
719.7575,800.8
720.0229,3625
720.2382,73.9
720.4376,640.4
720.9462,421.6
721.0232,111.8
721.126,684.8
721.2114,481.2
721.4797,58804.3
721.5526,731.7
721.6305,20.4
721.9429,381.6
722.2827,132
722.386,751.1
722.4829,23819
723.3215,117.3
723.4952,3894.6
723.5427,44883.3
723.7879,110.7
724.0172,134.4
724.1646,856.7
724.2182,266
724.364,830.6
724.5463,15078.1
724.6463,111.2
724.9932,733.3
725.0228,584.4
725.5587,73962.8
725.6774,729.1
725.8631,22.3
725.9586,478.4
726.0292,3203.9
726.344,431.7
726.3975,260.7
726.493,142.3
726.5619,26616.9
726.728,829.7
726.8884,20.3
727.0284,4228.2
727.049,969.8
727.2749,408.4
727.3185,300.8
727.5655,4533.8
727.5944,85.2
727.9251,656.4
728.8932,760.4
728.9564,378.9
728.9934,30.1
729.0871,171.1
729.5923,6856
729.7895,131
729.8123,181.4
730.1461,722.4
730.3284,157.7
730.4605,98.8
730.54,6968.5
730.5959,892
730.6507,201.7
730.9745,252.5
731.329,148.9
731.4071,102.3
731.4994,1201.3
731.5436,1074.3
731.5831,106.2
731.6087,2507.1
732.5556,12189.8
732.598,21.7
732.6237,383.1
732.9199,22.6
733.0462,5009.1
733.3309,97.3
733.3471,407.4
733.5592,3624.6
734.1354,348.9
734.5713,4751.8
734.978,708.9
735.1467,143
735.2419,730.2
735.3877,451.1
735.4422,336.9
735.4807,91.9
735.5153,33.7
735.5736,511.7
735.6887,105
735.8388,291.4
735.9868,119.8
736.258,134.6
736.3427,128.9
736.5776,273.3
737.0401,574.6
737.1918,120.6
737.4534,12900.2
737.6226,21.1
737.8417,84.1
738.2146,394.9
738.3587,83.6
738.4556,2928.3
738.9853,441.5
739.0271,799.1
739.0636,5864.4
739.3688,134.9
739.4436,103.1
739.5172,2841.7
739.6059,143.9
740.0662,280.9
740.1018,279.8
740.2055,302.6
740.5193,875.3
740.6247,144.4
741.0098,136.8
741.0878,338
741.1934,89.1
741.5325,8796.4
741.721,146.3
741.8653,134.3
742.005,1057
742.1051,405.3
742.3504,570.7
742.4717,618.4
742.5357,2778.8
742.5763,14040.9
742.6041,238.1
742.6856,117.3
742.7003,296.3
742.9406,650.4
743.3089,21
743.5342,18.1
743.5803,4299.6
744.4001,630.6
744.5561,4509.5
744.5922,15001
744.6603,149.7
744.7742,127.6
744.9351,350.6
745.341,849.8
745.3781,247.8
745.4796,27620.6
745.5955,4111.4
745.6846,20.3
746.3333,459.6
746.4826,11094.2
746.5681,498.2
746.6082,2650.4
746.6405,586.4
746.8221,494.6
746.8668,164.6
747.2877,160.5
747.4958,12780.8
747.5756,144.2
747.8708,290.7
747.9226,103.4
747.965,20.4
748.0113,879.8
748.1864,120.5
748.4976,3235.2
748.521,367.5
748.541,250.4
748.8878,480.2
748.989,189.2
749.011,3245.2
749.0308,389.6
749.1293,760.5
749.321,199.7
749.4241,253
749.5119,4610.7
749.5556,722.8
749.9357,20
750.3343,101.9
750.4313,691.7
750.5123,927.6
750.5437,375.2
750.5654,768.3
750.783,83.5
750.8395,95.2
750.8692,19.1
751.4598,844.2
751.5745,4347.6
751.6124,21
752.1541,18.4
752.1805,296.5
752.2429,240.8
752.2862,210.8
752.5214,6591.7
752.5768,737.8
752.8592,269.9
753.1411,79.3
753.5245,3429.7
753.7214,375.7
753.8454,334.5
753.8709,212.6
754.3676,725.6
754.538,13911.1
754.6139,274.3
754.7727,336.1
754.8829,422.9
754.9644,136.6
755.0277,2623.5
755.0386,2677.7
755.5412,4307.9
755.5657,177
755.7812,776.3
755.9207,124.1
756.0603,459.5
756.099,130.6
756.3073,31
756.3496,249.8
756.5555,41900
756.6637,139
756.7052,189.8
756.9613,125.2
757.0306,107.5
757.1876,235.8
757.4125,334.6
757.5149,709.9
757.559,16212.3
757.6231,316.2
757.7326,880.1
757.9788,432.3
758.1966,354.7
758.4183,107.5
758.5713,1040177.7
758.8076,114.1
759.5189,76.5
759.5747,455094
759.6394,416.2
759.8017,438.8
759.829,102.9
760.5746,59338.2
760.5887,182310.4
760.9869,21.8
761.0456,1704.9
761.3469,403.4
761.4537,3647.5
761.5909,97485.2
762.07,188.3
762.1066,254.8
762.4577,1702.2
762.4799,327.4
762.5936,18327.9
762.8104,99.1
762.9274,371.5
763.0745,503.7
763.1484,238.3
763.2472,18.3
763.3008,342.7
763.4592,154.2
763.5946,453.1
763.9862,515.3
764.3469,117
764.5585,7199.1
764.6941,601.1
764.8843,497.2
764.9867,660.9
765.0856,117.9
765.1185,907.6
765.4871,636.2
765.5616,1152.2
765.8613,151.3
765.9028,482.4
766.5371,2187.1
766.5761,42879.5
766.7267,112.9
767.193,244.2
767.2652,145
767.3028,87.8
767.3179,92.2
767.4927,310.7
767.5421,894.7
767.5796,14674.2
768.0684,322
768.2419,122.5
768.3851,90.2
768.5532,1629.1
768.5922,46777.9
768.6546,118.2
769.4783,2531.7
769.5017,1221.6
769.5955,22461.9
769.7438,99.4
769.8223,300.8
770.0328,715.1
770.4821,268.4
770.5112,1105.7
770.5409,172.6
770.5741,227.8
770.6091,8983.2
770.8609,381.7
770.9935,3061
771.1114,154.4
771.3598,153.7
771.4983,1483.7
771.5748,573.2
771.6112,1932
771.7793,19.5
772.3263,243.7
772.4612,207.4
772.5867,13694.7
772.6295,329.9
772.9141,20.5
773.0041,328.8
773.1677,122.1
773.4173,147.6
773.5897,1786.2
773.642,92.9
773.6919,466.5
773.9126,95.6
774.2831,91.7
774.3482,395.5
774.5058,189.2
774.5611,726.2
774.601,459
775.0286,133.1
775.9606,30.9
776.184,384.7
776.3947,576.2
776.5187,1062.8
776.5474,130.3
776.7704,490.6
777.0094,3494.4
777.1925,186.9
777.426,220.2
777.5434,883.2
777.5959,30.8
777.6352,767.8
778.0111,216.3
778.0463,1579.3
778.1673,49.3
778.5376,32688
779.2902,710.7
779.5409,14993.9
779.6618,203.2
780.1008,142.4
780.5534,738940.4
780.5892,499.1
780.8118,157.7
781.1085,118.5
781.1349,416.5
781.1586,18.9
781.5568,325660.2
781.9055,352.2
781.9481,121.5
782.1597,105.7
782.4668,185.7
782.5135,406
782.5712,570141.7
782.9978,108.1
783.0286,3416.4
783.2463,29.3
783.4928,196.4
783.5744,269685.3
784.0362,625.5
784.4553,428.4
784.5876,334411.9
784.7415,243.9
784.8962,91.8
785.0956,119
785.4285,338.8
785.5907,158150.3
785.655,2832.2
785.6773,114.8
785.7897,20
785.9264,569
786.2016,115.7
786.6032,283966.5
786.6555,776
787.1709,173.8
787.5557,279
787.6063,136609.7
787.6715,280.6
787.7094,18.1
788.4146,224
788.5583,20103.8
788.6072,27191.9
788.8223,682.6
788.9773,233.7
789.0544,441.7
789.0779,170.4
789.5614,7056.9
789.6105,2139.4
789.6579,356.4
789.8302,379.7
790.315,277.1
790.5499,2538.1
790.5745,26350.7
790.6267,303.2
790.8323,22
791.449,790.9
791.5113,814.8
791.5776,8771.7
791.8837,111
792.077,334.5
792.4036,125.7
792.5918,17912
792.9839,378
793.0039,402.1
793.4494,185.2
793.5629,479.3
793.5945,6393.5
794.4398,226.8
794.512,1806.2
794.5692,7614.2
794.6079,54353.6
795.5123,1601.4
795.5726,801.1
795.6111,25118.6
795.7757,274
796.5272,147992.6
796.5869,3490.3
796.6258,5299.4
796.8856,347.7
796.9075,178.8
797.1446,219.8
797.2416,413.5
797.2764,156.9
797.3621,431.4
797.5306,66783.5
797.5904,967.3
797.627,2706.3
798.0212,199.5
798.0963,373.8
798.1863,19.2
798.4076,433.6
798.5254,1262
798.5452,17690.7
799.003,1734.3
799.265,398.7
799.4872,128.2
799.5468,6119.7
799.6721,165.6
800.1514,1546
800.274,487.9
800.3538,2138.8
800.4146,101.5
800.6145,90.8
801.0083,33.3
801.1981,179.5
801.5026,39.6
801.5467,22.3
801.6263,134.1
802.28,480
802.3717,94.2
802.5375,14453.8
802.6628,176.3
802.7866,110.5
803.1114,30.8
803.2922,136.2
803.4291,343.8
803.5411,5103.2
804.0602,181.2
804.5535,337352.2
804.5906,566.1
804.9157,102.3
804.9788,185.6
805.0064,43.4
805.1876,1133
805.3976,128.5
805.5567,146265
805.8099,478.3
806.0761,310.1
806.3792,17.9
806.4801,344.7
806.5173,41.1
806.5703,280342.8
807.0228,162.4
807.0656,310.5
807.2384,32.3
807.5734,136022.6
807.6361,924
808.5863,213468.2
809.2824,140.2
809.3667,118.6
809.4253,525.9
809.5893,105863.4
809.6531,1222.2
809.8183,122
809.8874,772
810.233,158.7
810.2656,283.1
810.5408,575.1
810.6034,119791.3
810.715,784.9
810.8739,64.8
810.9442,165.4
811.6063,63824.8
811.6708,11034.9
811.8581,1392.4
812.1062,24.5
812.5226,569.7
812.5511,138.8
812.6038,3372
812.6212,17870.1
812.6737,1550.7
812.703,211.3
813.428,1550.6
813.4627,168.2
813.6232,7179
813.687,8496.3
814.1458,96.4
814.5753,3392.8
814.6358,449
814.69,3149.9
815.1778,835.5
815.3197,106.1
815.5776,1134
815.689,315.3
816.4144,396.7
816.5901,26132.2
816.8359,143
816.9421,1222.3
817.3175,635.8
817.5699,851
817.594,10994.8
818.2312,106.4
818.3705,481.5
818.5102,1087
818.572,439.8
818.6069,2141.2
818.8564,360.5
819.2742,19.7
819.5133,1029.3
819.6107,602.1
819.6397,256.2
820.4959,769.8
820.5274,71552.8
820.6228,654.1
820.6465,603.5
821.2738,474.6
821.3126,685.6
821.3402,343.9
821.5307,27679.6
821.5761,104.1
821.7362,314.5
821.8779,317.5
822.1196,456.2
822.1852,185.6
822.2254,98.4
822.3404,565.4
822.5437,39299.1
822.6174,496.2
822.6467,91
823.5466,17559.6
824.1859,373.3
824.5588,22978
825.1681,206.6
825.4035,32.4
825.562,8574.4
825.6085,269.8
825.6456,339.6
825.8515,99.1
825.9051,441.6
826.1478,151.3
826.1968,236.3
826.3234,114.6
826.543,150.7
827.3235,829.5
827.5737,259.8
827.7023,251.4
827.7307,372.2
827.8599,224.2
828.5532,61062.5
828.6968,460.8
829.0927,449.4
829.4552,214.1
829.5571,25476.1
829.6983,1537.9
829.8224,536.4
829.9482,962.8
830.0551,251.9
830.1623,97.2
830.57,53376.6
830.6131,434.2
831.5727,27578.5
831.7267,266.3
832.2137,116.4
832.5858,63787.1
832.6336,475.2
832.6965,610.9
832.938,20.5
833.145,790.2
833.3221,237.3
833.5458,19
833.5889,31190
833.6541,1010.4
833.935,1145.4
834.1847,112.1
834.3587,18.4
834.6034,14379.6
834.8422,100.5
835.0512,79.1
835.1929,149.5
835.2396,131.6
835.5045,426
835.6047,6068.2
835.6702,988
835.7447,103.5
835.8895,656.7
836.0866,1042.5
836.4245,440.8
836.443,501.2
836.6207,1346.9
837.4122,739.2
837.5435,319.6
837.6196,268.1
837.7375,17.5
837.7668,221.3
838.2401,693.1
838.3332,531
838.3661,21.4
838.4388,107.6
838.5152,1218.2
838.7335,139.4
838.8013,439.7
839.2871,135.6
839.3511,721.9
839.705,384
839.7366,360.3
839.7604,97.2
839.9503,640.4
840.0471,228.7
840.6275,490.7
840.6796,108.1
840.7652,296.7
840.8378,690.4
840.8683,503.6
840.9451,98.2
840.9813,351.4
841.0399,130.4
841.5101,130
841.7269,622.5
842.4272,690.8
842.5701,100.3
842.8695,90.3
843.1714,460
843.2506,205.3
843.313,854.6
843.7233,135
843.7521,26.7
843.8689,137.4
843.9111,105.6
844.1191,32
844.5268,9644.9
844.6436,248.3
844.7206,59.9
845.2893,113.2
845.532,2170.1
845.682,108
845.7256,475.3
846.2021,622.8
846.5423,8422.3
846.9112,1012.9
847.1346,419.9
847.2477,73.6
847.2859,869.2
847.4986,630
847.5461,1091.8
847.7953,17.5
848.5593,8413.9
848.6401,615.8
848.7331,87.1
848.8919,349.6
849.0892,156.5
849.1758,408.6
849.4291,426.4
849.5624,2287
850.4135,1508.3
850.7196,307.4
851.1559,97
851.1933,297.9
851.2825,276.2
851.7488,382.3
852.1665,485.1
852.3069,39.2
853.5696,45.5
854.334,21.3
854.3699,458.5
854.7081,390.7
854.9204,180.2
855.009,20.3
855.2425,19
855.7725,287.1
856.3842,108.1
856.5843,761.8
856.7519,100.5
857.0966,97.4
858.0427,102.3
858.5953,555.3
858.8342,547.4
859.056,416.4
859.2526,149
859.5302,98
859.6765,434.1
860.2962,146.6
860.5292,324
860.9492,95.9
861.4811,105.7
861.528,20.2
862.1906,373.4
862.5125,1284
862.558,264.1
862.9232,126.3
863.1311,510.5
863.3435,232.9
863.3743,232.2
863.4994,22.9
864.0249,32.5
864.0894,126.5
865.0753,107.9
865.1818,97.6
865.5016,1619.1
865.6156,36.7
866.0068,87.4
866.1367,520.5
866.1884,121.8
866.553,117.1
866.6757,37.2
866.849,54.8
866.9858,160.7
867.2646,425.3
867.6073,398.9
867.9131,21.9
868.0074,825.8
869.3333,610.7
869.3895,156.6
869.4796,662.5
869.5193,1224.1
869.5922,545.9
869.6195,1613.3
869.65,766.9
869.682,993.3
869.7393,2104.1
869.7937,1308.3
869.8101,1583.7
869.8684,5428.1
869.9331,2959.5
869.9692,3265.9
870.0105,2633
870.0401,2008.2
870.0472,1993.9
870.3742,832
870.4768,20.1
871.1463,454.4
871.2738,150
871.601,674.4
871.8094,133.1
871.8331,19.1
872.5027,930.3
872.5418,676.2
872.8467,602.1
872.952,381.5
873.019,775
873.1851,361.2
873.2414,166.8
873.9502,95
874.25,246.6
875.0249,19.4
875.2312,799.6
875.4234,80.5
875.4711,802.2
875.4921,98.8
875.7824,19.2
876.2729,133
876.8735,241.6
877.7876,587.2
877.8565,97.4
877.9019,661.2
878.027,248.8
878.5395,218.3
878.5866,195.9
878.9,20.1
879.2016,163.5
879.2486,232.1
879.8148,317
880.1824,534.9
880.7376,101.3
880.8221,1061.6
881.3982,461.7
881.4304,308.1
881.5772,18.8
881.7448,17.7
881.9642,202.1
882.0075,456.9
882.3714,441.3
882.5568,20
882.9441,102.3
883.4691,136
884.0302,949.9
884.4268,91.4
884.6015,1165.4
885.0872,99.6
885.3881,130.4
885.552,146.3
885.8707,969
885.918,69.9
886.2655,45.7
886.5204,498.3
886.8136,202.3
887.0736,423.1
887.4331,336.1
887.5323,56.3
887.6365,422.3
889.0478,102.1
889.1445,838.3
889.6432,315
890.0026,852.1
890.3896,19.8
890.4566,21.3
890.7889,105.3
890.9273,133.3
891.1888,329.7
891.3096,316.2
891.5438,312.4
891.5567,317.8
891.8534,115.8
892.3805,160.3
892.5083,250.5
892.5511,77
892.5928,322.2
893.0997,703.2
893.1623,269.1
893.9268,268.1
894.3334,611.3
894.3997,398.5
894.8356,311.6
895.0419,275.6
895.392,139.3
896.5503,96.5
896.7557,822.4
897.5358,82.1
898.6263,337.9
899.1496,880.6
899.322,377.6
899.5113,105.9
900.4733,36.8
900.5136,1000.8
900.7705,567.7
900.8237,399.7
901.2947,467.3
901.3576,20.1
901.5466,185.3
901.6434,311.6
902.329,153.3
902.8517,434.8
903.2745,299.2
903.4815,105.6
903.6034,573.7
904.5228,21.3
904.5849,96.9
904.8968,153.5
905.0631,402.2
905.1963,234.2
905.5248,149.7
905.8806,404.6
906.2358,170.3
906.6891,99.2
906.8899,256.8
906.9583,772
907.2391,393.9
907.2867,547
907.4858,257.2
907.7803,528.5
908.4925,352.3
908.5904,93.1
908.8574,849.5
908.9029,440.5
909.2266,826.5
909.2908,383.9
909.6706,97.3
909.7095,779.4
909.8936,263.1
910.1506,117
910.6104,251.8
910.6343,155.6
910.8605,337.7
911.1638,520.5
911.2792,282.3
911.4041,288.1
911.9342,421.1
912.3127,413.3
912.5428,486.8
912.8201,22.8
913.2862,785.5
913.3343,19.7
913.566,659.8
913.6016,117.8
914.4354,263.2
914.5413,377.7
914.5803,344.1
915.8011,885.1
916.1376,111.1
916.4175,244.4
916.7722,201.9
916.8538,746.6
917.358,169.6
917.8982,813.7
918.3975,285.9
918.7113,251.6
919.4544,514.8
919.654,290.5
919.9258,537.6
920.8548,426.5
920.9039,352
920.9822,120.5
921.2633,146.3
922.1741,509.9
922.6431,508.6
923.212,395.6
923.4125,113.8
923.5966,326.6
923.7086,120.1
924.0961,542.9
924.1553,1396.9
924.22,190.6
924.2582,140.3
924.4087,819.8
924.4631,98.6
924.5695,542.7
925.2225,116.1
925.3063,137.3
925.5911,18.3
925.7464,994.2
926.077,275.5
926.2517,463.3
926.3946,278.4
926.4418,582.2
926.4886,1247.1
927.3841,714.5
927.6678,142
928.364,18.4
929.2149,138.2
929.6651,193.9
929.8323,99.2
930.1911,1017.2
930.459,880.8
930.7587,266.8
931.4769,489.7
931.5763,684.4
931.6974,643.4
932.4301,86.6
933.0701,725.4
933.6216,825.2
933.6647,170.8
933.6929,147.5
933.7928,150
933.9046,452
934.5597,85.8
934.6863,147
934.8361,198.1
934.9992,49.4
935.2835,129
935.3465,878.2
935.7652,563.6
935.9389,140
936.5284,108.3
936.7739,777.2
936.9342,828.7
937.7547,1029.8
937.8156,121.3
938.2216,592.9
938.652,241.2
938.7182,136.1
939.5575,654.5
939.6167,238.8
939.7861,703.2
940.2613,377.4
941.6362,579.2
941.9716,488.1
942.2137,627.9
942.2529,21.9
942.4223,150.4
942.7545,55.2
942.7743,56.6
942.8985,21.3
943.2305,108.9
943.607,637.7
943.6648,390.2
944.1373,112.5
944.2285,69.6
944.2755,309.2
945.1776,36.3
945.221,681.1
945.4742,1023
945.8179,110.2
945.8561,419.3
945.9994,605.5
946.2991,22.5
946.3247,98.6
947.4088,216.7
947.8883,142.7
947.9407,1550.1
948.0872,2477.6
948.2278,497
948.3706,522.1
948.5105,1175.7
948.6155,117.9
948.6533,33.4
948.8269,87.4
949.2283,251.4
949.4561,743.6
949.5229,42.7
949.6917,71.1
949.8095,158
949.9013,715.1
950.1348,718.6
950.2236,609.6
950.4139,106.2
950.609,512.9
950.6821,590.2
951.0806,467.6
951.563,224.9
951.6638,102.4
951.946,522.8
952.0651,172.7
952.1753,88.4
952.9032,822.6
953.1199,30.6
953.1765,117.3
953.3362,104.9
953.5442,159.5
953.5755,231.4
954.0537,402.5
954.2451,992.8
954.6331,1292.3
954.6833,730.4
955.208,211
955.42,338.8
956.3076,463.9
956.5639,268.4
957.0508,92.3
957.1758,217.8
957.4259,239.8
958.1659,596.4
958.2044,706.2
958.2424,600
958.3564,669.4
958.8831,572.6
959.029,737.9
959.0784,88.1
959.1995,264.6
959.348,156.8
959.3797,768.6
959.9357,620.3
960.5211,259.6
960.9835,147.3
961.3333,934.9
961.3813,238.1
962.0636,1197.2
962.4081,107.4
962.4759,134.6
962.5946,19
963.1276,543.3
963.5424,743.7
963.7097,112.4
964.106,157.4
964.8172,19
965.2189,518.9
966.1111,118.7
966.3616,561.1
966.7346,448.2
966.8993,518.3
967.338,328.5
967.3535,362.3
967.7049,220.6
967.8544,869.8
967.9663,95.7
968.3634,423.5
968.7926,91.8
968.9045,400
969.3845,299.2
969.6534,243.1
969.7854,417.8
970.0349,269.3
970.5085,315.1
971.1566,89.9
971.7857,341.6
971.8803,258.3
972.0355,35.5
972.0687,399.9
972.2348,326.1
973.2957,160
973.3468,917.7
973.5167,77.6
973.6045,333
974.162,112.4
974.4649,492.6
974.6346,1216.3
974.9663,218
975.0515,291.8
975.3499,97.8
976.4475,152.1
976.5924,926.9
976.8521,95.6
977.0695,102.3
977.303,155.4
977.5098,126.4
977.7539,315.4
977.8285,230.4
978.2203,531.3
978.4262,400.9
978.5765,567.8
978.6626,394.7
978.8768,425.2
979.1479,387.4
979.2295,291.2
979.4123,45.5
979.7187,273.5
980.3546,186.2
980.4192,583.6
980.9244,111.5
981.2269,32.1
981.5469,108
981.7329,109
982.014,283.9
982.3002,456.7
982.3981,439.5
982.4921,75.1
982.6839,430.5
982.7142,148
982.8367,267.5
982.8514,331.4
982.8688,430.2
982.9989,130
983.0775,491.2
983.6395,32.9
984.0241,140.7
985.2021,161.8
986.1808,695.2
986.4455,643.8
986.7354,292
987.0119,506.6
987.0603,19.3
987.3407,746
987.6003,527.6
987.6817,155.5
987.7338,1178.2
988.2449,748.4
988.3096,2009
988.3864,18
988.42,392.3
988.4607,137.1
988.5842,70.5
989.1993,175.4
989.8237,18.9
990.0364,131.6
990.5061,271.6
990.9208,211.6
990.9942,126.7
991.3524,728.9
991.7562,428.6
992.204,452.6
992.7382,130.6
992.7733,265.4
993.1391,452.9
993.3269,17.5
993.5874,1017.6
993.6904,487.2
994.2253,140.5
994.6196,707.5
995.0558,99.9
995.0918,163
995.3096,214.7
996.1304,32.9
996.2951,121.4
996.6956,939.2
996.9711,706
997.6571,478.6
997.7159,147.8
997.8765,242.8
998.0598,107
998.5752,81.6
998.9847,183.6
999.019,391.1
999.232,221.9
999.8033,559.4
