SPECTRUM - MS,
1385.RAW,
FTMS + p ESI Full ms [50.00-1000.00],
Scan #: 1-40,
RT: 0.01-1.97,
AV: 40,
m/z,Intensity

50.0065,82.2
50.0091,307.2
50.0186,253.7
50.0291,200.3
50.0406,96.7
50.0473,139.7
50.0597,96.3
50.062,438.9
50.091,135
50.0962,83.3
50.1275,502.9
50.1307,540
50.132,109.7
50.1333,329.9
50.1466,100.6
50.1501,283.2
50.1536,253.8
50.1578,251.9
50.1599,103.3
50.1628,554.6
50.1691,94.9
50.1707,91.6
50.1912,509.7
50.1936,688
50.196,49.4
50.2077,279.1
50.2105,17.7
50.2281,251.2
50.2356,103.7
50.2375,238.7
50.2613,216.6
50.2643,194.5
50.2723,660.6
50.2775,135.9
50.2806,242.2
50.2834,96.2
50.2877,176.9
50.2964,162.9
50.3135,496
50.3281,84.1
50.3319,49
50.345,323
50.3489,126.5
50.3557,150.5
50.3577,124.2
50.3631,182.4
50.3644,272.1
50.3763,16.9
50.3865,206.3
50.3922,281
50.4063,170.7
50.4391,281.2
50.4423,931.4
50.4495,19.8
50.4537,184.4
50.4581,17.6
50.4747,80
50.4849,145.8
50.4873,169.6
50.5048,69.7
50.5095,44.4
50.5191,732.9
50.5364,311.6
50.5569,14.4
50.5584,392.3
50.566,17.7
50.5731,282.5
50.5908,119.9
50.6118,113
50.621,172.2
50.624,20.1
50.6732,279.2
50.6782,232.7
50.6798,245.5
50.6832,159.5
50.6872,89.7
50.6902,94.5
50.6942,137.7
50.7015,79.5
50.7056,226.5
50.7204,99.8
50.7423,287
50.7435,171.2
50.747,83.1
50.7517,163.7
50.7528,443.4
50.7529,429.6
50.7531,297.1
50.7668,20.5
50.7701,179.5
50.7729,114.3
50.7745,213.3
50.7881,489
50.7882,520.7
50.7929,18.9
50.7962,98.4
50.8044,186.4
50.8078,98.5
50.8195,441.1
50.8203,156.5
50.8268,16.7
50.8319,141.8
50.8603,268.1
50.868,745.5
50.8719,256.6
50.891,78
50.8926,130.5
50.9004,77.9
50.9039,280.1
50.9133,91.9
50.9286,169.2
50.9323,417.5
50.9445,206.8
50.9536,100.5
50.9624,79.8
50.9641,297.7
50.9843,174.3
51.0621,358.8
51.0774,322.4
51.0883,150.2
51.115,230.8
51.1257,17.7
51.1287,498.1
51.1318,397.3
51.1366,697.1
51.1442,144.3
51.1449,45.6
51.1559,255.8
51.159,16.2
51.1605,135.3
51.1616,372.9
51.1687,268.1
51.1753,163.7
51.187,83
51.1906,75.7
51.2157,89.4
51.228,216.8
51.2351,81.9
51.2519,535.6
51.2547,90.7
51.261,262.7
51.2641,88.5
51.265,161.5
51.2803,448.8
51.2946,232.3
51.3059,291.6
51.3164,134.8
51.3314,379.5
51.3339,212.1
51.338,17.4
51.3539,267.2
51.3809,79.1
51.3841,103.4
51.3971,156
51.4072,20.6
51.4163,176.4
51.4199,143.9
51.4248,409.1
51.4303,762.9
51.4539,83.4
51.4694,115.6
51.488,173.1
51.4979,350
51.5058,713.9
51.5156,36.6
51.5177,141.8
51.5342,206.8
51.5427,501.7
51.5451,78.2
51.546,16.7
51.5506,120.4
51.5566,685.6
51.5645,36.7
51.5823,89.8
51.5986,515.7
51.6113,35.1
51.6236,509.9
51.671,85.2
51.6719,712.3
51.6914,145.5
51.716,418
51.7216,415.8
51.7253,138
51.7265,18.2
51.7698,15.6
51.8018,17.5
51.8027,373.7
51.8042,188.9
51.805,264.7
51.814,297.9
51.8248,213.1
51.8393,185.7
51.8439,77.2
51.8518,86.8
51.8571,339.1
51.8658,111.9
51.8837,100.9
51.8839,109.6
51.8873,192.7
51.9121,284.2
51.916,254.6
51.9233,690.6
51.9283,165.6
51.9449,467.6
51.9639,16.5
51.9768,259.7
51.9839,533.6
52.008,305.5
52.0205,97.8
52.035,438
52.0362,97.4
52.0389,86.8
52.05,16.8
52.0641,91.5
52.0719,750.6
52.0918,85
52.0928,272.9
52.1113,111.3
52.1307,97.2
52.1638,17.5
52.1727,227.6
52.184,442
52.1969,81.8
52.1992,314.7
52.2046,97.7
52.2147,15.2
52.2305,97.5
52.2371,91.3
52.2379,82.7
52.2548,143.5
52.2551,532.6
52.2594,322.1
52.2687,150.8
52.2722,80.8
52.2726,92.1
52.2888,296.8
52.2927,82.4
52.293,406.6
52.3005,452.6
52.3018,83.5
52.3022,115.5
52.3127,330.1
52.3299,143.2
52.3418,206.3
52.3704,158
52.3756,19
52.384,258.1
52.4003,97.8
52.4646,416.5
52.4723,317.1
52.4745,202.1
52.501,457.2
52.5053,136.6
52.5183,277.5
52.5199,83.9
52.5304,39.9
52.531,179.5
52.5494,293.3
52.5553,19
52.5782,81
52.5794,96.4
52.5851,16.2
52.6101,17.7
52.6198,664.2
52.6227,467
52.6528,92.6
52.6621,470.2
52.6794,16.2
52.683,322.4
52.6859,19.1
52.6957,292.5
52.6965,87.7
52.7097,89.8
52.7308,116.2
52.7312,342
52.7334,307.1
52.7394,103.9
52.7459,115.9
52.7517,284.6
52.7544,73.5
52.7704,462
52.7817,540.9
52.7819,755.2
52.7911,917.8
52.7917,153.8
52.7924,761.4
52.7928,256.4
52.7932,520.4
52.7939,2416.1
52.7946,3781.1
52.7953,2800.7
52.7956,2226.9
52.7959,2662.6
52.7963,2270.3
52.7967,2433.4
52.7984,201.1
52.7987,150.4
52.7992,169.5
52.8201,119.1
52.8324,85
52.8328,144.3
52.8527,136.3
52.8741,348.2
52.8916,201.4
52.9196,102.6
52.935,309.5
52.9366,566.1
52.9425,308.2
52.9656,79
52.9689,112.2
52.98,228.3
52.9849,417.3
52.9895,40.8
52.99,101.9
52.9991,98.5
53.013,234.1
53.0166,81.7
53.0315,108.2
53.0767,402.2
53.0974,141.1
53.1109,86.9
53.1278,391.4
53.1523,132
53.1592,40.4
53.1619,118
53.1795,90
53.201,342
53.2035,97.7
53.2148,89.2
53.2188,138.5
53.2257,234.6
53.2325,125.1
53.2395,519.7
53.2421,17.8
53.2475,357.9
53.2537,86.3
53.2667,75.1
53.2721,593.2
53.2787,88.5
53.2877,496.3
53.2905,171.8
53.2946,17.1
53.3087,255.4
53.3187,115.8
53.3206,47.1
53.3281,119.4
53.3287,202.2
53.3409,101.1
53.3607,202.8
53.3678,90.4
53.3758,75.2
53.3807,39.9
53.3818,549.9
53.4041,348.1
53.4194,90.9
53.4203,113.9
53.4271,261.2
53.4451,86.7
53.449,18.9
53.4626,173.2
53.4714,256.4
53.4747,685.1
53.4836,19
53.5013,103
53.5149,447.2
53.5277,156.7
53.5396,694.8
53.5451,93.9
53.5924,18.6
53.6013,195.2
53.6054,129.7
53.6082,757.1
53.612,383.4
53.6178,79.4
53.6283,131.2
53.6411,124
53.6417,47.2
53.6438,162.8
53.6641,328.2
53.6742,116
53.6901,14.9
53.7064,122.7
53.7338,878.1
53.7558,891.3
53.757,99.6
53.7653,538.4
53.777,134.4
53.7873,19.4
53.7962,175.6
53.7973,696.2
53.8046,87.8
53.8058,99.2
53.8573,513.6
53.8631,321.1
53.8768,194.3
53.8943,45.5
53.9021,87.5
53.9048,136.2
53.9115,163.9
53.9129,219.8
53.9188,219.3
53.92,361.5
53.9226,499
53.9338,15.9
53.939,559.9
53.9427,116.7
53.9455,292.8
53.9561,17.5
53.9673,106.9
53.9834,220.9
53.9932,447.4
54.0101,672
54.0216,134.8
54.0244,653.3
54.0627,245.3
54.0784,533.8
54.0807,128
54.0929,267.5
54.0955,297.2
54.0969,441.8
54.1037,75.8
54.1249,199.1
54.1258,456.4
54.1274,129.5
54.1372,259.4
54.1482,115.3
54.1495,41.6
54.155,240.8
54.1596,434.1
54.1709,139.4
54.1765,261.9
54.1898,104.1
54.2136,541.7
54.2275,198.7
54.2364,135.9
54.2372,128.5
54.2446,710.6
54.2593,110.3
54.2678,489.3
54.287,639.9
54.2879,75.5
54.2987,197.2
54.3208,622.5
54.3421,79.5
54.3445,423.7
54.3451,432.6
54.3458,141.8
54.3579,473.1
54.3588,141.9
54.3869,572.9
54.3881,206.5
54.4021,235.9
54.4073,18.8
54.4252,129.2
54.4465,529.8
54.4542,84.8
54.4584,81
54.4763,217.3
54.4773,456.7
54.4791,79.3
54.4807,543.2
54.4831,133.6
54.5262,68.4
54.535,675.9
54.5468,97.2
54.548,77.9
54.5505,256.5
54.5538,167.2
54.5562,446
54.5904,391.6
54.5996,33.6
54.631,184.4
54.6312,265.9
54.6313,261.8
54.638,166.5
54.6565,526.2
54.6646,968.2
54.6655,91.9
54.6661,218.8
54.6709,266.4
54.6811,101.1
54.6915,422.9
54.6948,695.4
54.7257,467.5
54.727,189.8
54.7338,249.4
54.7628,92.3
54.7818,127.4
54.7944,84.9
54.8059,449.5
54.8386,17.2
54.8414,71.2
54.8622,134.6
54.8679,129.2
54.8741,400
54.8795,16.4
54.9064,451.3
54.9085,127
54.928,90
54.9343,464.1
54.9384,667.8
54.9388,117
54.9542,253.3
54.9847,137.1
55,302.5
55.009,157.4
55.0379,197.5
55.049,120.8
55.0504,100.4
55.0524,333.8
55.0593,115.3
55.0691,102.1
55.0741,79.2
55.1055,157.8
55.1099,115.5
55.1282,381
55.1356,441
55.1514,203.5
55.1525,218.8
55.1565,82.9
55.1682,251.1
55.1692,197.9
55.1766,107.1
55.1784,15.3
55.2078,113.3
55.2148,299.6
55.2179,474
55.2441,193.5
55.2452,731.5
55.2472,567.1
55.2524,119.6
55.2611,41.8
55.2639,98.8
55.2838,155.9
55.301,504.3
55.3057,17.4
55.3336,234.3
55.3407,326.9
55.3447,102.9
55.3796,408.4
55.3827,748.8
55.3971,511.1
55.4017,433
55.4085,115.3
55.4358,96.9
55.4445,120.7
55.4467,124.2
55.4731,411.4
55.4739,17.3
55.4804,428.7
55.4887,91.3
55.4929,252.7
55.4962,124.2
55.5045,101
55.5057,15.9
55.5073,844.7
55.5242,112.3
55.5256,78.2
55.5387,264.9
55.5564,313
55.5583,18
55.5858,299.8
55.6036,258.1
55.6048,343.7
55.6629,102.9
55.6663,91.1
55.6774,204.6
55.6804,93.9
55.6894,81.9
55.6986,283.5
55.7054,182.2
55.7218,146.6
55.7369,41.2
55.7423,84.7
55.7578,175.4
55.7586,265.6
55.7733,297.9
55.7966,177.7
55.7972,790.1
55.8392,370.2
55.854,737.4
55.8891,103
55.9065,345.8
55.9277,288.4
55.9611,39.7
55.9692,135.5
55.9833,103.5
55.9844,84.6
55.988,274.7
55.9883,35
56.026,521.5
56.0269,135.7
56.0381,216.2
56.04,15.7
56.0843,120.2
56.0853,435.5
56.089,86.4
56.1006,126.4
56.1104,487.1
56.132,20.7
56.1358,148.8
56.1426,592.4
56.1481,188.2
56.1529,183.2
56.1573,490
56.1601,587.1
56.1617,112
56.1736,227.3
56.181,379.9
56.1821,207.8
56.1837,70.4
56.187,76.9
56.229,456.7
56.2329,763.9
56.2398,539.4
56.2588,98.7
56.2656,36.8
56.2724,132.6
56.2747,16.8
56.2841,471
56.2851,275.2
56.3106,19.5
56.3281,211.8
56.3669,489.5
56.3823,15.5
56.385,507.4
56.4129,222.1
56.4171,118.1
56.4313,284
56.4346,76.5
56.4368,792.7
56.4432,142.2
56.4512,204.4
56.4564,441.6
56.4643,79.7
56.4673,444.6
56.4977,547.8
56.507,105.8
56.5313,135.5
56.5747,16.1
56.5832,101.3
56.5978,107.8
56.6029,284.8
56.6127,18.2
56.6279,297.4
56.6385,134.5
56.6394,263.8
56.643,114
56.6448,41.3
56.6459,143.8
56.6489,152.6
56.6509,471.8
56.6579,117.1
56.672,86.2
56.6729,129.8
56.6945,261.9
56.7098,281.1
56.73,125.9
56.7442,178.7
56.7515,134.5
56.7677,445.7
56.7719,579
56.779,82.8
56.7876,234.7
56.8004,222.7
56.8239,109.3
56.8255,137
56.8462,122.7
56.8633,301.5
56.8684,169.9
56.8739,239.6
56.893,140.3
56.8966,919.5
56.8992,655.6
56.9094,511.8
56.9207,393.2
56.9284,104
56.9302,18.4
56.9467,267.6
56.9603,415.9
56.9732,709
56.9831,93.1
56.9877,537.2
56.9888,40.5
57.0122,95.1
57.0281,96.6
57.0353,114.9
57.0555,35.4
57.0627,241.2
57.0633,16.1
57.0729,82.1
57.0901,97
57.0929,499.9
57.0988,87.3
57.1125,42.7
57.1283,354.8
57.1623,105.4
57.1733,168.3
57.1763,97.8
57.1795,260.8
57.1832,86.6
57.1875,141.9
57.1879,213.2
57.1941,123.7
57.1953,98.8
57.2025,440.2
57.2042,208
57.2103,90.8
57.2306,214.6
57.2486,15.9
57.2617,847.1
57.2776,14.9
57.2896,38.3
57.2918,528.9
57.2951,971.2
57.2983,719.3
57.3021,100.7
57.3511,106.2
57.3623,108.4
57.3727,436.1
57.3913,193
57.4003,308.8
57.408,709
57.4084,337.2
57.4139,143.6
57.4414,762.6
57.4602,110.3
57.4749,216.7
57.4849,286.8
57.4915,319.4
57.4978,16.5
57.5051,230.4
57.5126,138.7
57.5148,240.1
57.5193,399.7
57.5415,124.4
57.5424,494.7
57.5462,509
57.5476,555.9
57.5594,88.3
57.5597,111
57.5598,115.6
57.5611,273.2
57.5702,194.8
57.577,75.2
57.589,105.1
57.5958,795.5
57.623,90.2
57.6375,444.5
57.648,264.6
57.6519,490
57.6635,333.1
57.6719,89.7
57.7134,91.3
57.7259,76.1
57.7397,255.8
57.7734,19.6
57.7869,42.7
57.8023,610.6
57.8248,279.6
57.8312,656.4
57.838,1012.8
57.8584,229.1
57.8619,100.4
57.8701,291.7
57.8763,73
57.8999,152.9
57.9055,617.8
57.9295,105.2
57.9393,257.7
57.9552,82.1
57.9928,86.7
58.007,176.2
58.0303,109.3
58.0425,15.2
58.0532,126.4
58.0549,296.4
58.0577,110.5
58.0729,55
58.0863,77.8
58.1106,90.9
58.1118,129.3
58.1224,86.3
58.128,90
58.1455,103.8
58.151,84.7
58.1661,112.1
58.1976,73
58.2047,118.5
58.2072,199.9
58.2102,283.6
58.2232,524.7
58.239,449.6
58.2401,323
58.247,140.6
58.2518,417.2
58.2536,92.7
58.2764,457.3
58.28,92.3
58.3052,157.9
58.3146,16.9
58.3176,501.4
58.3246,18.1
58.326,368.7
58.3268,145.2
58.3318,119
58.3358,249.8
58.3404,82.8
58.3439,145.8
58.3467,226.5
58.3484,130.7
58.3806,87.7
58.4038,385.8
58.4071,546.5
58.4111,231
58.4184,16.4
58.4241,121.6
58.4263,101.9
58.4941,202.5
58.5245,36.1
58.5596,318
58.5655,406.3
58.5749,842.8
58.5813,343
58.5943,173.1
58.6198,350.5
58.621,556.4
58.66,214
58.666,17.1
58.6696,445
58.6857,81.3
58.6902,209.9
58.6913,160.5
58.7167,679.2
58.7392,170.8
58.7492,355.6
58.7494,357.9
58.7674,220.9
58.7929,153.9
58.8108,156.5
58.8361,123.6
58.8532,93.7
58.8664,294.9
58.8693,18.6
58.8785,16.8
58.8801,83
58.8835,119.1
58.8846,331.6
58.9023,22.9
58.913,573.6
58.9467,148.4
58.9476,140.7
58.9523,324.4
58.9536,241.8
58.9903,100.3
59.0025,18.5
59.0109,442.7
59.014,563.3
59.0493,151.2
59.0525,441.5
59.101,743.9
59.1119,16
59.1188,315.3
59.1505,190.3
59.1917,88.4
59.2104,82
59.2177,91.8
59.237,564.9
59.2564,17.5
59.2827,91.3
59.2937,446.3
59.3018,132
59.3047,503.1
59.3133,95.6
59.3199,71.6
59.327,69.8
59.3369,152.4
59.3716,354.4
59.3721,71.8
59.3722,70.5
59.3839,17.7
59.4,68.9
59.4079,485.4
59.4174,15
59.4273,274.1
59.4919,134.1
59.5409,80.3
59.5442,278.4
59.5527,15.6
59.5558,77.3
59.5677,147.7
59.5686,474.6
59.5705,379.4
59.5757,458.6
59.5869,203.1
59.5882,114.1
59.6098,332.4
59.6304,97.8
59.6588,17
59.6674,128.3
59.679,192.2
59.6842,18.4
59.6998,640.5
59.7041,168.3
59.709,41.6
59.7096,235.3
59.7173,103.9
59.7221,371.4
59.7285,45.3
59.7465,19
59.7508,178.2
59.7614,106.3
59.7726,79.2
59.7728,76.5
59.7791,16.3
59.7915,133.8
59.8114,18.8
59.8217,285.9
59.8266,526
59.8493,94.9
59.893,133.4
59.894,18.1
59.904,437.5
59.9136,706.3
59.9373,433.5
59.9616,481.4
60.0166,85.4
60.0181,342.7
60.0273,294.2
60.0309,169.4
60.0513,294.5
60.059,85.7
60.1174,97.1
60.128,678.9
60.1304,78.6
60.1417,150.9
60.1483,104.3
60.1531,435.9
60.1547,413.2
60.1578,615.8
60.1705,336.5
60.1734,335.3
60.1896,595.5
60.1935,537.5
60.2026,402.1
60.2286,92.8
60.2472,99.6
60.2505,139.4
60.2563,18.9
60.2708,399.5
60.2713,16.2
60.2757,87.4
60.3058,300.7
60.3174,183.1
60.3225,413.4
60.3345,38.2
60.3679,127.1
60.3902,197
60.4021,98.1
60.4321,106.9
60.4347,97.2
60.4646,75.7
60.4943,864.8
60.5041,213.7
60.5076,294.4
60.5206,47.6
60.5352,39.7
60.5402,22.7
60.5432,351.3
60.5515,155.2
60.5617,209.9
60.5765,490.5
60.5876,217.3
60.594,98.8
60.6109,249.7
60.6207,80.2
60.6217,272.8
60.6225,110
60.6258,145.9
60.6364,164.1
60.6645,152.2
60.6654,234.6
60.6671,379.6
60.7007,46.2
60.7152,322
60.7257,89.4
60.7295,93.1
60.7381,509.7
60.7491,129.3
60.7619,210.7
60.7809,126.7
60.7833,38.2
60.7841,165.8
60.849,86.4
60.8533,212.1
60.8973,91.7
60.9373,97.2
60.9638,372.9
60.9639,433
60.9641,361.3
60.9649,130.6
60.9686,334.8
60.9757,535.3
60.9786,180.9
60.9893,83.9
61.0161,466.3
61.0166,394.6
61.0416,509.6
61.0672,17
61.075,38.5
61.0843,315.7
61.0952,176.7
61.098,753.6
61.1024,164.4
61.1109,276.6
61.1488,117.2
61.1699,96.2
61.1727,263.5
61.1802,115.2
61.1816,569.9
61.2262,19.1
61.2288,17.7
61.2454,17.6
61.2542,239.1
61.2594,730.3
61.2599,484.7
61.2643,436.3
61.3029,117.3
61.3201,329.7
61.3211,524.8
61.336,88.3
61.3404,171.2
61.3593,36.3
61.3756,139.3
61.3896,510.9
61.3916,519.1
61.4045,129.6
61.4052,356.7
61.4069,458.4
61.4108,17.6
61.422,204.1
61.4331,370.2
61.4513,139.9
61.4516,133.9
61.4695,549.2
61.4758,344
61.4785,84.5
61.4916,155
61.4977,80.1
61.508,97
61.5147,138.6
61.5153,125.4
61.5215,142.9
61.5527,295.2
61.5536,519.4
61.5625,216.3
61.5796,83.1
61.593,481.6
61.6387,574.7
61.6557,155.9
61.6603,105
61.6743,80.7
61.6761,89.6
61.7058,83.9
61.7376,115.4
61.7584,208.7
61.7786,79.1
61.7851,591.3
61.8056,93.5
61.8529,546.8
61.8751,228
61.8805,87.3
61.8911,524.5
61.9244,554.5
61.944,209.5
61.9462,84.8
61.9617,74.7
61.9973,16.7
62.0506,461.9
62.0831,484.9
62.1026,18.2
62.1381,419.6
62.1407,348.4
62.1532,129.4
62.1627,223.3
62.1687,218.5
62.2166,16.9
62.2393,38
62.2538,154.3
62.2549,19.4
62.2591,130
62.2682,248.2
62.3015,284.6
62.3139,360.8
62.3178,91.6
62.3371,915
62.3457,92.4
62.3599,79.8
62.3731,873.9
62.3995,106.1
62.4028,319.4
62.4054,39.3
62.4102,253.1
62.4177,345.2
62.4239,99.4
62.4276,783.4
62.4386,91.6
62.4405,17.4
62.4642,91.7
62.4755,112.5
62.4938,476.8
62.4954,120.9
62.4993,807.1
62.509,426.6
62.5304,123
62.531,204.3
62.5321,169.1
62.5357,17.1
62.5364,433.1
62.567,237.9
62.5908,127
62.6124,19.2
62.6176,149.6
62.6195,114.2
62.6267,145.8
62.6296,404.6
62.6347,288.1
62.6422,89.9
62.6665,104.6
62.6679,225.5
62.6738,772.4
62.7266,300.4
62.745,408.7
62.7526,267
62.7543,39.1
62.7705,483
62.8031,85.1
62.8493,128.8
62.8519,447.4
62.8718,200.2
62.9038,92.9
62.9311,235
62.9458,139.9
62.9482,17.3
62.9708,109.7
62.9787,535.6
62.9867,18
62.9941,928.5
63.0226,446.5
63.0343,50
63.0675,89.4
63.0761,89.9
63.0889,18.7
63.0895,77.6
63.0923,107.2
63.097,150.2
63.1045,185.3
63.1062,36.8
63.1183,162.4
63.141,321.8
63.1512,45.1
63.152,71.7
63.1707,169.4
63.1937,154.6
63.2087,140.2
63.2228,174
63.2417,307.1
63.2432,181.9
63.2566,285.1
63.2716,456.5
63.272,253.6
63.2725,1035.2
63.2842,152.2
63.2928,145.4
63.3019,16.2
63.3139,394.6
63.3219,148
63.3391,411.1
63.3579,206.9
63.3921,559.5
63.3929,883.6
63.399,128.9
63.423,760.1
63.4455,272.8
63.4467,17.6
63.4479,107.3
63.4653,1014.9
63.4683,16.6
63.4706,137.7
63.506,100.4
63.5152,404.4
63.531,290.4
63.5392,490.1
63.5949,16.7
63.6013,131.3
63.6018,77
63.6044,111.8
63.6202,83.8
63.6279,165
63.63,860.6
63.6344,163.3
63.6596,548.3
63.6773,255.5
63.7058,106.2
63.726,568.3
63.7324,109.6
63.7383,258.6
63.7638,89.4
63.7945,151.1
63.7992,189.6
63.8291,144.8
63.834,742.9
63.8567,81.9
63.8735,368.2
63.8785,337.8
63.8805,87.1
63.9022,588.2
63.92,77.4
63.9321,155.1
63.9334,17.5
63.9365,16.9
63.9401,165.7
63.9525,132.6
63.9944,138.6
63.9994,170
64.0267,97.6
64.0324,246.7
64.0335,566
64.0356,49.2
64.0397,17.8
64.0427,81.8
64.0462,287.2
64.0477,392.3
64.0548,655.2
64.0692,17.7
64.1004,114.5
64.1179,116
64.1198,91.3
64.1207,802.8
64.1438,256.7
64.1487,163.1
64.1569,514.9
64.1678,255.2
64.1736,725.6
64.1835,18.1
64.1893,448.4
64.2089,486.5
64.2142,84.8
64.2298,537.1
64.2473,739.9
64.248,218.5
64.2581,340.1
64.2853,315.1
64.2859,80
64.2898,110
64.3134,18
64.3246,110.3
64.3475,257.2
64.3517,18.6
64.373,573
64.3812,84.1
64.383,456.8
64.3962,291.9
64.4012,95.4
64.4034,236
64.4509,360.3
64.4543,341.1
64.463,199.2
64.4836,17.1
64.5053,189.9
64.5105,386
64.517,85.5
64.5224,130.3
64.5413,17.4
64.5427,308.6
64.5451,108.7
64.5557,347.7
64.5837,473.5
64.5861,98.4
64.6035,166.5
64.612,92.1
64.6132,90.8
64.6301,396.3
64.6334,207
64.6451,723.8
64.6566,301.4
64.6718,182.1
64.6891,227.9
64.7053,82.8
64.72,476
64.7387,88.2
64.7426,650.1
64.774,92.1
64.7841,455.7
64.8033,296.8
64.811,47.8
64.8133,312.2
64.8146,88.7
64.8285,84.8
64.8496,356.3
64.8652,321.7
64.8741,779.4
64.8837,560.9
64.8987,332.3
64.9022,19.3
64.9209,515.4
64.9319,165.5
64.9684,105.3
64.9731,434.4
64.9737,199.2
64.9767,423.7
64.9826,84
65.0023,144.3
65.0057,254.5
65.0109,237.2
65.0305,42.1
65.0381,371.4
65.0519,37.3
65.0542,118
65.0628,170.7
65.0828,552.3
65.0948,459.2
65.113,475.9
65.1166,93.6
65.1216,299
65.1585,890.8
65.1681,213.2
65.1885,431.9
65.2051,299.5
65.2131,444.6
65.2241,431.8
65.2371,17.3
65.2412,81.1
65.2479,141.1
65.2578,89
65.2726,263.1
65.2736,112.5
65.2756,302.5
65.2923,19.1
65.2955,325.4
65.3047,109.2
65.3199,17.2
65.324,293.1
65.3575,19.7
65.3759,91.9
65.3824,263.3
65.3947,290.9
65.4188,220.3
65.4252,87.6
65.4274,17.2
65.4371,291.7
65.4414,301.3
65.4602,46.9
65.4664,531.7
65.4855,570.8
65.4907,159.8
65.4995,96.9
65.5045,95.2
65.5128,138.5
65.5232,81.3
65.5299,496.8
65.5515,88.3
65.5557,236.8
65.5835,18.5
65.6178,392.4
65.6368,116.5
65.642,176.7
65.6433,97.6
65.6525,538.6
65.6553,215.5
65.6727,17.5
65.6872,794.5
65.7415,71
65.7445,509.8
65.7535,100.5
65.7574,538.9
65.7911,158
65.8052,102.6
65.8071,276.1
65.8135,317.4
65.8147,148
65.8204,138.2
65.8269,205.6
65.8393,714.5
65.8474,18.3
65.8515,76.4
65.854,327.3
65.883,98.6
65.8851,207.5
65.9008,91.4
65.9042,17.1
65.9117,159.4
65.9358,16.2
65.9388,581.9
65.9413,783.6
65.9435,91.5
65.9503,19.6
65.9566,189.2
65.9624,126.4
65.964,94.9
65.9652,715.4
65.9748,293.5
65.975,292.5
65.9752,239.7
66.0092,289
66.0177,185.4
66.0265,558.1
66.0384,132.4
66.0458,17.5
66.0582,284.6
66.0923,235.3
66.0967,152.5
66.1362,17.4
66.1801,88.7
66.1974,92.7
66.209,267.2
66.2097,299.7
66.2175,422.1
66.2218,140
66.244,222.5
66.2708,277.4
66.2956,128.1
66.3071,42.8
66.3104,283.2
66.3205,102.3
66.3239,18.4
66.3729,213.7
66.3746,261.8
66.388,156.5
66.392,456.7
66.405,325.9
66.4192,501.3
66.4328,104.1
66.4452,492.8
66.4557,846.6
66.4608,17.5
66.4777,195.5
66.4989,109.7
66.5007,19.1
66.5131,706.8
66.5184,655.1
66.5194,112.1
66.5224,118.1
66.5291,99.2
66.5669,83.1
66.6122,111
66.6323,85.4
66.6331,119.2
66.6509,116.2
66.6836,467.4
66.6934,197.7
66.6965,256.2
66.6999,81
66.7026,16.9
66.7032,97.5
66.7067,89.3
66.7079,220.7
66.7124,94.2
66.7168,516.2
66.7239,173.5
66.7332,178.9
66.7462,21.9
66.7506,160.2
66.7622,242
66.7733,106.1
66.7751,121.5
66.802,511.5
66.8193,123
66.8319,123.8
66.8357,141.6
66.8512,240.8
66.8518,515.5
66.8776,117
66.8904,96.3
66.8977,82.3
66.9231,185.2
66.9273,279.3
66.9289,96.7
66.9301,102.7
66.9352,426.1
66.9404,107.1
66.9659,737.1
66.9755,408.9
66.976,335.7
67.0023,125.7
67.0063,251.6
67.0242,144.9
67.0276,128.4
67.0482,806.7
67.0504,24.2
67.0539,57.9
67.0564,443.9
67.0602,154.3
67.0724,81.7
67.0742,91.6
67.0768,283.5
67.0982,134.3
67.1262,19.4
67.1818,246
67.1836,143.6
67.2363,18.2
67.2449,110.1
67.2456,545.6
67.247,92.2
67.2492,150.7
67.2521,450.2
67.3039,112.9
67.3083,471.7
67.3259,191.3
67.3287,133.8
67.3385,596.6
67.3445,452.9
67.3754,945.7
67.3779,303.8
67.3823,332.3
67.3847,80
67.3976,104.6
67.4279,150.6
67.4297,87.3
67.4434,339
67.4505,445.6
67.466,233
67.4758,452.1
67.4843,503.9
67.4879,143.5
67.497,189.6
67.5057,114.9
67.5255,87.8
67.535,478.9
67.5437,72
67.5879,86.6
67.5949,124.8
67.6046,443
67.622,320.7
67.6373,590.7
67.6419,194.6
67.6585,196.5
67.6612,43.7
67.6704,337.6
67.6755,18.4
67.6894,313
67.7007,103.2
67.7214,644.4
67.7235,199.3
67.7372,18.8
67.7512,191
67.7643,95.1
67.7786,336.3
67.7795,561.7
67.7979,291.3
67.7989,438.3
67.8058,211.7
67.8093,392.6
67.8442,21.1
67.8578,140.5
67.8847,177.7
67.8889,706.8
67.8901,411.8
67.8976,569.3
67.9113,17.8
67.9349,74
67.9623,101.8
68.0133,524.9
68.0223,97.4
68.0314,21.7
68.0761,337.5
68.0916,453.4
68.1062,200.6
68.1134,192.9
68.1452,48.7
68.1645,17.6
68.1658,211.3
68.1678,85.5
68.1714,322.6
68.19,187.5
68.1912,17.7
68.1939,70.1
68.2225,17.1
68.2251,335
68.2392,105.3
68.2402,199.6
68.2421,15.6
68.2431,82.6
68.2478,557.4
68.2496,135
68.271,97.2
68.2843,97.3
68.299,20.2
68.3165,754.1
68.3278,504.1
68.333,100.3
68.3359,287.1
68.3461,124.8
68.3611,427.2
68.3933,253.7
68.3969,49.7
68.3991,130.9
68.4019,314.2
68.4339,19.6
68.439,824.9
68.4537,88.6
68.4566,105.6
68.4643,114.3
68.4657,98.7
68.4735,89.4
68.4777,114.8
68.4784,98.3
68.4798,270.2
68.4811,42.6
68.5059,79.9
68.5272,165.9
68.5388,687.6
68.5409,105.8
68.542,315.3
68.5562,15.5
68.5591,277.2
68.5741,107.6
68.58,157.6
68.5845,158.8
68.5865,151.5
68.5948,160.4
68.6142,515.6
68.6318,361.7
68.6628,150.1
68.6652,18.7
68.6928,41
68.7097,128.8
68.7223,281.2
68.7336,15.1
68.7605,408.1
68.7614,107.8
68.774,85.9
68.7801,496.8
68.7945,142
68.7972,610.8
68.8037,142.6
68.8393,190.5
68.8806,486.5
68.8941,174
68.9283,178.4
68.9343,109.5
68.9435,131.9
68.9578,41.1
68.9824,18.1
68.9884,308.1
68.9944,191.8
68.9989,371.7
69.0068,95.6
69.0181,239.1
69.0215,17.9
69.0421,16.9
69.0549,56.7
69.0958,322.3
69.1066,124.1
69.1124,625.8
69.1193,18.4
69.1275,471.1
69.1304,618.3
69.1319,99.8
69.1492,84.1
69.1669,208.5
69.2246,265.3
69.246,158.7
69.2623,167.4
69.2958,530.4
69.3057,319.7
69.3476,101
69.3484,246.3
69.3569,237.5
69.3812,516.5
69.4033,82.8
69.4039,327.8
69.4091,16.3
69.4111,365.9
69.4452,135
69.4467,92.4
69.4496,378.9
69.4548,434.6
69.4599,145.9
69.4995,17.2
69.5638,729.5
69.5648,796.8
69.5775,478.1
69.5813,556.4
69.584,99.6
69.588,235
69.6291,543.8
69.632,208
69.6382,38.3
69.6608,16.3
69.6717,114.5
69.6724,320.4
69.6825,773.8
69.684,332.8
69.6847,75.6
69.706,192.3
69.7291,235.8
69.7752,17
69.7832,106.9
69.7987,573.8
69.8315,734.9
69.8561,262.1
69.8686,272
69.8791,84.5
69.8945,17.6
69.9067,673.6
69.9106,120.7
69.938,91
69.9474,151.8
69.9509,157
69.9586,81.8
69.9752,119.9
69.9766,170.1
69.9904,16
69.9961,179.8
70.0335,485.9
70.0526,88
70.0649,458.9
70.0735,534
70.0752,156
70.0802,88.6
70.0897,279.6
70.1142,348.2
70.1233,97.1
70.1518,222.1
70.1858,238.4
70.1873,127.7
70.1936,715.8
70.206,16.3
70.2094,257.3
70.2533,204.5
70.2679,139.9
70.2728,125.2
70.2869,89.3
70.3041,286.5
70.3332,151.7
70.3347,96.1
70.3352,241.8
70.3359,90.5
70.3411,309.7
70.3433,326.6
70.3444,91.6
70.3581,456.6
70.359,136.7
70.3612,99.8
70.364,86.3
70.3773,90.4
70.3847,19.3
70.3958,133.3
70.3993,226.6
70.4113,251.4
70.4147,558.3
70.4181,284.3
70.426,779.5
70.4488,185.8
70.4514,115.7
70.4629,321
70.4864,538.2
70.4983,93
70.51,317.6
70.519,693.6
70.5237,116.5
70.5471,237.6
70.5855,348.1
70.5952,196
70.61,280.4
70.6134,353
70.6594,210.9
70.6679,332.5
70.6688,187.6
70.7011,386.9
70.7168,253.1
70.717,281.7
70.7339,174.1
70.7365,210.9
70.7395,321.6
70.7505,743.9
70.7826,667.1
70.784,43.9
70.8094,469.6
70.8105,86.4
70.8194,182.7
70.8198,490.9
70.8556,105
70.8565,110.7
70.8639,20.2
70.8689,506.7
70.8863,112.5
70.8899,128.5
70.8915,770.9
70.9045,301.9
70.9225,826.8
70.9485,98.3
70.9551,467.9
70.968,88.3
70.9951,115.3
71.0273,80.6
71.0432,142.5
71.0503,805.8
71.0592,367.4
71.0739,538.8
71.0757,70.1
71.1089,146.4
71.1273,264.7
71.1659,346.7
71.1732,262.7
71.18,17.7
71.2419,21.5
71.2479,113.8
71.2664,243.2
71.2735,301.7
71.2816,272.2
71.2984,23.2
71.3112,144.5
71.3531,16.7
71.3539,44.9
71.3552,325.9
71.3574,305.9
71.3652,264.6
71.3693,18.9
71.404,722.8
71.4301,659.2
71.4495,18
71.4686,204.2
71.4772,216.1
71.4908,449.7
71.4969,111.8
71.5027,189.4
71.537,734.5
71.5474,18
71.5489,432.9
71.565,314.2
71.5767,20.7
71.5816,18.2
71.5875,224.6
71.5921,84.8
71.5971,465.2
71.6018,119.2
71.6051,280
71.6241,16.7
71.6392,257.1
71.6504,583.4
71.6728,125.4
71.6919,120
71.6933,326.7
71.6954,720.6
71.7257,753.7
71.7519,17.9
71.7697,96.9
71.7849,126.9
71.7901,18.4
71.7908,302.5
71.8021,710.9
71.8209,99.4
71.8305,101.2
71.855,295.8
71.8776,275.5
71.8788,698.1
71.8879,123.7
71.9288,408.8
71.9407,101.5
71.9431,381.9
71.9491,900.7
71.9518,144.4
71.9672,296
71.9867,350.4
71.9943,179.1
72.0017,19.1
72.0208,184.9
72.0475,159.5
72.07,79.3
72.0805,1299
72.0864,318
72.0907,172.1
72.1099,507.8
72.144,293.4
72.1476,757.8
72.156,175.1
72.1566,500.9
72.1724,17.9
72.2002,105.8
72.2026,18.2
72.2058,135.3
72.2112,435.2
72.2157,913.3
72.2185,589.9
72.2194,1272.1
72.2202,17.6
72.2212,676.9
72.2226,1560.3
72.2237,40.7
72.2244,736
72.2255,1701.3
72.2263,1948.2
72.2274,2805.1
72.2286,1848.5
72.2288,1939.7
72.2297,1024.4
72.2309,2248.5
72.2319,2084.3
72.2326,3325.1
72.2335,2023.8
72.2346,2632.2
72.2356,2083.4
72.2374,3448.9
72.2388,2346.8
72.2402,2223.1
72.2409,1918.8
72.2419,1297.6
72.2429,1522.1
72.2448,495.2
72.2456,979.6
72.246,734.7
72.2472,168.5
72.2485,101.9
72.2587,221.7
72.2603,112.6
72.2732,132.7
72.2771,98.3
72.2801,310.1
72.284,76.5
72.2888,432.3
72.2958,138.3
72.2963,215.6
72.2979,161.5
72.3349,295.2
72.3665,18.1
72.3764,103.6
72.3948,548.4
72.4195,18.6
72.4283,554.1
72.4297,114.8
72.4468,153.9
72.493,18.5
72.5002,93.3
72.5184,78.2
72.5211,117.2
72.5306,831.8
72.5432,507
72.5476,18.3
72.5663,52.8
72.5729,152.1
72.6043,50.7
72.6125,95.3
72.6194,87.5
72.6437,117.3
72.6534,136
72.692,72.7
72.7034,770.3
72.7192,757.5
72.7283,129.8
72.741,455.4
72.7513,166.5
72.7816,99.5
72.7975,136.3
72.8044,183.1
72.8091,376.3
72.8122,84.9
72.8148,90.7
72.8537,115.7
72.8547,312.8
72.8653,279
72.8662,1066.5
72.8977,214.9
72.9202,95.2
72.9337,262.8
72.9369,1038.2
72.9705,192.4
73.0123,78.3
73.0161,290.6
73.0439,642.1
73.0487,20.3
73.0551,140.1
73.0607,91.7
73.0785,544
73.1033,73.9
73.105,265
73.1261,740
73.1412,94.9
73.1452,502.1
73.1519,554.1
73.1553,87.7
73.1567,147.2
73.1623,96.5
73.1648,112.8
73.1722,122.3
73.1744,282.8
73.1896,16.7
73.1954,832.2
73.2066,1012.7
73.2074,131.6
73.2095,795.3
73.2174,17
73.2226,186.9
73.2468,118.6
73.2717,16.9
73.2782,89.5
73.2804,277.1
73.2907,147.5
73.2922,88
73.2943,84.2
73.3175,16.9
73.3214,99.4
73.3272,248.8
73.3306,40.4
73.3483,80.9
73.3531,189
73.3716,237.8
73.3776,142.9
73.3824,136.6
73.3925,212.1
73.3958,215.8
73.3978,82.9
73.4342,326.3
73.4445,17.1
73.475,131.4
73.4869,223.9
73.5006,293.9
73.5073,302.5
73.5152,478.9
73.5233,95.5
73.5516,156.8
73.5518,164.3
73.5625,120.2
73.5694,315.7
73.5716,160
73.5841,233.6
73.5984,746.9
73.6095,93.3
73.613,302.9
73.6206,172.5
73.635,845.6
73.6373,316.9
73.661,766.8
73.6637,248.1
73.6792,346.1
73.6837,779.7
73.6842,16.6
73.695,41.9
73.7188,160.3
73.7259,258.8
73.7285,899.2
73.7533,18.6
73.7617,486.6
73.7788,37.6
73.7831,301.5
73.8012,242
73.8049,124.4
73.8141,423.4
73.8333,107.8
73.8337,99.5
73.8647,16.2
73.8803,20.6
73.8897,320.8
73.8996,867.8
73.9164,317.2
73.9512,668.8
73.9542,994.3
73.9555,48.1
74.0146,191.7
74.0184,433.9
74.0231,74.1
74.0278,185.1
74.0335,86
74.0349,21.2
74.0362,18.8
74.0451,40.6
74.0598,3951.7
74.0621,351.2
74.0658,215.5
74.0694,191.3
74.0838,86.7
74.1004,18.4
74.1086,316.2
74.1172,82.4
74.1449,121.9
74.1815,564.1
74.2033,359.1
74.2136,275.7
74.2222,94.8
74.2238,120.5
74.2268,551.2
74.2502,506.5
74.318,129.1
74.3245,18.2
74.3271,556.3
74.3831,249.3
74.3969,416.3
74.4208,189.8
74.4582,86.5
74.4793,172
74.5047,324.8
74.5128,78.9
74.5195,212.5
74.5299,99.8
74.5438,84
74.5562,337.6
74.5575,192.3
74.619,325.7
74.6214,287.1
74.6244,105.1
74.6275,176.9
74.6431,39.6
74.6609,313.4
74.6721,279.5
74.6915,173.3
74.695,136.7
74.7164,85.6
74.7711,189.6
74.8134,310.3
74.8474,84.7
74.864,736
74.8707,19
74.881,85.5
74.8978,155.1
74.9146,41
74.9179,16.7
74.927,528.7
74.9278,319.1
74.9353,16.7
74.9367,287.6
74.9523,595.5
74.9815,290.7
74.9904,81.1
75.004,240.5
75.0229,274.6
75.0416,114.9
75.0582,206.2
75.0688,76.9
75.0903,81.6
75.1031,372.2
75.1065,169.5
75.1204,77.1
75.1255,308.4
75.1339,294.5
75.1354,262.1
75.1375,504.9
75.1423,98.3
75.1489,505.1
75.1681,271.8
75.173,15.7
75.1835,94.7
75.2246,16.7
75.2446,150.2
75.2578,18.9
75.2842,365.8
75.2918,293.6
75.3009,374
75.3086,16.8
75.3244,263.5
75.3314,721.7
75.3377,292.7
75.3473,430.6
75.3692,108.9
75.3712,19
75.3957,112.2
75.3994,283.6
75.452,362.3
75.4535,80.9
75.4552,183.1
75.4645,111.5
75.4808,97.5
75.4995,205.1
75.5244,859.8
75.527,122.4
75.5272,123.4
75.5489,130.4
75.5578,326.1
75.5737,441.8
75.6672,263.4
75.669,908.5
75.671,139
75.6724,340.5
75.7,312.5
75.712,131
75.7314,138
75.7585,273.9
75.7598,104.7
75.7791,402.9
75.8079,89.5
75.8286,354.4
75.8374,302.6
75.8503,304.8
75.8537,28
75.8923,22.8
75.894,104.3
75.9208,265
75.9419,18.4
75.9453,62.2
75.9524,99.7
75.9575,81.4
75.9667,105.4
75.9677,41.4
75.9794,98.2
75.9853,46.3
75.9998,133.2
76.0084,870.3
76.012,127.2
76.0189,336.7
76.0263,340.3
76.0579,324.4
76.103,40.5
76.1063,298.1
76.12,89.6
76.1261,145.1
76.1313,15.4
76.1351,241.2
76.1424,19.9
76.1435,17.1
76.1589,272.1
76.1602,520.9
76.1742,442.5
76.1804,140.6
76.2132,489.9
76.214,14.5
76.2467,18
76.2926,94.8
76.3113,570.7
76.325,374.8
76.3512,116.5
76.3558,241.9
76.3897,47.2
76.4128,79.6
76.4194,127.1
76.4687,269.4
76.4858,318.6
76.5322,121.6
76.5384,15.3
76.5507,181.5
76.5843,127.5
76.6017,221.7
76.6045,104.3
76.6061,18.3
76.6259,709.2
76.6827,86.6
76.6922,198.2
76.6972,162.1
76.6988,335.4
76.7044,289.3
76.7083,290.5
76.7442,117.6
76.754,103.7
76.8191,89.1
76.8346,89.8
76.8438,95.2
76.8743,129.6
76.9147,192.9
76.9343,104.8
76.9552,403.6
76.9603,145.1
76.9746,285.5
76.9878,90.7
76.9923,116.9
76.993,324.7
76.9988,130.2
77.0074,97.1
77.0098,330.9
77.0254,163.3
77.0306,158.2
77.0323,83.6
77.0355,113
77.0384,132657.9
77.0399,18
77.0533,799.5
77.0563,230.1
77.0627,266.8
77.0977,104.7
77.1363,215.1
77.1384,195.3
77.1816,129.1
77.1862,88.7
77.198,324.9
77.1994,508.6
77.2,309
77.2111,172
77.2298,333.3
77.2306,90.8
77.2428,291.7
77.2714,862.9
77.2933,461.1
77.3017,82.5
77.3132,207.9
77.3251,125
77.3293,19.7
77.3749,383.7
77.3781,382.1
77.3853,86.1
77.4079,19.4
77.41,127.3
77.4106,203.6
77.4152,158.5
77.4293,429
77.4314,19.2
77.4362,97.3
77.4415,512.5
77.4568,74.5
77.505,103.2
77.5231,538.7
77.5265,87.9
77.5345,170.9
77.5434,119.2
77.5463,249.3
77.556,280.5
77.5765,176.9
77.6097,168.3
77.6314,91
77.6408,109.6
77.6579,216.7
77.6624,107.2
77.6647,449.6
77.7076,495.1
77.7231,150.9
77.7242,128.9
77.7294,613.4
77.7415,100.8
77.778,943.7
77.7889,48.1
77.7905,44.7
77.7913,218
77.8092,214.4
77.8407,102.2
77.865,968.7
77.8766,381.2
77.9135,479.7
77.9227,205.6
77.928,819.8
77.9528,112.1
77.9662,465.9
77.9671,259.1
77.9766,97.1
77.9881,209.6
77.9947,88.9
78.0189,103.5
78.0225,20.4
78.0232,83.9
78.028,438.7
78.0384,16.7
78.0417,4390.3
78.0497,317.7
78.063,836.9
78.0863,530.1
78.1874,168.1
78.2184,813.9
78.2398,477.8
78.2443,81.5
78.259,297.4
78.2629,627.6
78.2879,146.4
78.2937,111.7
78.3029,297.4
78.311,190.6
78.3165,145.9
78.3467,154.8
78.3499,362.1
78.4007,191
78.4051,88
78.4467,41.5
78.4624,481.4
78.4686,116.2
78.4943,140.9
78.5146,21.4
78.5196,101.9
78.5267,495.4
78.5364,1034.4
78.5578,502.7
78.5724,107.7
78.5901,114.5
78.6252,199.5
78.647,825.5
78.6526,166.8
78.6567,153
78.6576,116.4
78.6707,220.9
78.6799,175.5
78.7003,130.5
78.7152,119.4
78.7424,18
78.7719,330.1
78.7773,18.4
78.8026,21.1
78.8146,83.2
78.8227,185.4
78.8364,176.2
78.8522,111.5
78.8579,425.2
78.8586,213.9
78.8653,141.3
78.8663,342.4
78.876,37.4
78.8814,84.4
78.8864,169.5
78.8923,19.6
78.9123,17.1
78.9143,442.2
78.9252,86
78.9543,802.6
78.9835,193.6
78.9969,78
79.0381,268.2
79.0454,278
79.054,2299.7
79.0608,288.5
79.0613,152.2
79.0702,92.7
79.0834,675.6
79.0846,111.4
79.0885,99.5
79.1043,186.2
79.1384,296
79.1769,188.1
79.1831,16.2
79.2078,96.3
79.2211,43
79.2805,16.6
79.286,645
79.291,450.1
79.2984,440.2
79.318,17.5
79.3191,86.4
79.3228,727.2
79.3306,119.7
79.3362,15.2
79.3846,344.3
79.4167,20.1
79.4593,309.5
79.4666,227.4
79.4929,787.6
79.5108,171.7
79.5147,167.3
79.522,147
79.5641,102
79.5929,528.9
79.5995,306.1
79.6289,40.6
79.6372,310.8
79.6412,290.3
79.6819,559.4
79.7152,18.8
79.7215,117.2
79.7289,342.3
79.7367,16.9
79.7377,42.3
79.745,725.5
79.7464,101.3
79.7554,81.3
79.7578,195.9
79.8162,15.4
79.8264,170.7
79.8382,79.7
79.8573,790.4
79.8687,241.7
79.8728,237.1
79.8754,118.5
79.8779,146.5
79.9013,99.9
79.9498,99.5
79.9618,288.3
79.9799,339.9
79.9935,22.7
80.0176,113.8
80.0239,295.9
80.0326,188.5
80.0341,375.3
80.0486,243.6
80.0529,887.5
80.0548,153.3
80.0574,21.9
80.0608,157.5
80.0805,320.4
80.0831,108.2
80.084,829.8
80.0858,298.4
80.0973,529.1
80.1078,133.4
80.1086,235.4
80.1158,525.6
80.1204,93.2
80.1206,93.8
80.1486,89.4
80.1592,227.1
80.166,150.8
80.1877,239.1
80.2056,218
80.2158,19
80.2211,17.7
80.2537,102.9
80.2551,119.5
80.3013,287.7
80.3079,84.8
80.3198,105.4
80.3241,285.5
80.3286,992.6
80.3323,95.5
80.3405,102.4
80.3464,74.5
80.3511,298.4
80.3575,264.9
80.3707,247.6
80.3798,93.8
80.4763,417.7
80.4951,218.6
80.4962,166
80.5066,201.6
80.5245,145.6
80.5281,282.8
80.5502,239.6
80.5565,101.4
80.5588,134.5
80.5636,42.3
80.5842,582.6
80.5893,41.9
80.6094,595.5
80.6338,141.1
80.6355,17.5
80.6398,385.2
80.662,139.6
80.7225,183.1
80.741,92.9
80.7437,407.4
80.7713,426.2
80.7762,109.2
80.7839,346.5
80.8004,534.3
80.8287,131.7
80.8427,19
80.8753,166.6
80.9271,273.3
80.9462,104.6
80.9477,65073.9
80.9508,171.1
80.9542,317
80.9697,135.2
80.9808,68.8
80.9947,127.8
81.0069,88.7
81.0271,151.3
81.0405,220.3
81.0697,1595.8
81.0822,127.4
81.1141,277
81.1403,207.4
81.146,1023.1
81.1479,3055.8
81.1488,432.2
81.1495,717.5
81.1524,91
81.1645,438.1
81.1693,15.9
81.1752,704.7
81.1977,18.6
81.2117,175.5
81.2257,270
81.2782,187
81.2815,33.1
81.3186,634.6
81.3289,127.3
81.3303,257.5
81.3429,100.9
81.3511,140.1
81.3547,60.4
81.3611,18.8
81.4073,162.3
81.4086,560.8
81.4402,360.5
81.4425,122.5
81.4638,103.8
81.4692,145.1
81.5408,103.7
81.5563,512.6
81.5571,142.1
81.5704,94.7
81.5774,177.5
81.5828,304
81.6142,224
81.6178,234.1
81.6267,169.4
81.6589,116.8
81.6921,104.1
81.6989,99.6
81.724,15.9
81.7547,66.2
81.7889,291
81.8047,93.7
81.8084,99.9
81.8538,241.7
81.8547,84.7
81.954,87.8
81.9872,127.9
81.9955,375.4
81.9981,92.3
82.0479,17.3
82.0599,212.7
82.0731,18
82.0875,106.2
82.0885,371.2
82.0973,343.7
82.1105,23.4
82.1143,187.4
82.122,590
82.1274,228.7
82.1536,617.2
82.1614,707.5
82.2156,17.9
82.2224,736.4
82.2348,55.8
82.237,392.5
82.2401,128.3
82.2672,17
82.2746,15.8
82.2938,133.1
82.3049,429.9
82.3107,88.6
82.3181,264.3
82.3213,734.3
82.3383,185.1
82.3404,689.1
82.3631,94.2
82.4009,164.9
82.4029,192.9
82.4121,187.8
82.417,201.2
82.4192,437.7
82.4306,404.6
82.4318,148.4
82.4417,87.3
82.4634,349.8
82.4656,312.9
82.4899,17.2
82.4933,513.1
82.5068,499
82.5083,752.1
82.5146,670.9
82.5172,721.9
82.5188,230.1
82.5799,132
82.6053,452.7
82.6245,284.7
82.6534,110.8
82.6997,145.1
82.7196,196.7
82.734,731.8
82.7398,42.7
82.7568,305.5
82.777,82.6
82.7896,389.9
82.8051,127.5
82.824,155.4
82.8413,155.2
82.8704,605
82.8722,226.3
82.8789,642
82.8918,109.1
82.9098,152.2
82.9231,362.7
82.9433,340.7
82.9447,17229.3
82.9496,133.8
82.9664,47
82.9765,586.7
82.9929,332.1
83.0047,137.5
83.0214,134.4
83.0499,190.5
83.0585,118.2
83.0854,83.9
83.0886,130.2
83.1219,195.2
83.1475,174.8
83.1586,114.3
83.1988,142.3
83.2088,101
83.2395,99.7
83.2711,448.1
83.2783,563.8
83.308,146.7
83.3326,295.9
83.3716,736.6
83.3752,383.6
83.3847,183.1
83.388,412.9
83.4071,100.2
83.416,372.1
83.4487,482.7
83.4512,284.1
83.4582,773.8
83.4715,237.1
83.487,205.7
83.489,142.3
83.5472,86.1
83.594,89
83.6211,131.2
83.7471,775.9
83.7746,247.1
83.7923,96.2
83.8112,16.8
83.8476,336
83.8805,407.3
83.8978,174.4
83.9406,18.6
83.9414,482.6
83.9455,243.2
83.9522,93.8
83.9823,551
84,78.7
84.0083,302.7
84.0198,210.2
84.0247,137.5
84.0328,211.7
84.0383,413
84.0442,410.4
84.0653,914.8
84.096,92.3
84.11,238.2
84.1105,192.1
84.1329,309.2
84.1435,112.8
84.1525,224.4
84.1626,148
84.1662,101.1
84.1678,275.1
84.2167,737.5
84.2219,249.7
84.2327,109.1
84.2484,17.6
84.2551,175.9
84.2989,148.9
84.3112,809.6
84.3242,103.2
84.3311,252.7
84.3593,251.7
84.3761,187.6
84.3812,83.9
84.4124,109.4
84.4201,17.9
84.4266,132.3
84.4404,44
84.4949,83.9
84.5023,522.7
84.5495,83.8
84.5548,141
84.5607,385.1
84.5772,80.7
84.5795,312
84.5879,17.3
84.6307,804.1
84.6401,291.9
84.6458,130.6
84.6849,350.1
84.6949,109
84.7026,247.5
84.7086,435.3
84.7674,332.6
84.7789,45.2
84.7889,137.3
84.8228,461.7
84.8403,854.6
84.8485,524.9
84.8842,337.7
84.938,254.3
84.9544,17.5
84.9595,20137.5
84.9881,103.1
84.9904,470.1
85.0001,322
85.0283,3856.8
85.0313,484.4
85.0372,20.9
85.058,106.8
85.0723,91.7
85.1376,282.6
85.1631,161.3
85.2049,410.6
85.2151,532.7
85.2165,125.3
85.2256,346.2
85.2456,427.1
85.2512,175.5
85.2802,101.6
85.3087,504.6
85.3095,90.9
85.3124,400.4
85.3157,171.6
85.3257,187.8
85.3355,331.9
85.3537,106.2
85.3724,319.1
85.415,316.7
85.4401,385.6
85.4449,760.1
85.4457,89.3
85.4485,494.7
85.4567,475
85.5161,405.7
85.5815,108.2
85.5871,139.1
85.5967,282.6
85.6118,269
85.6137,191.6
85.6174,18
85.6193,458
85.6316,282.7
85.6369,101.4
85.6441,746.6
85.6488,96.8
85.6526,93.6
85.6627,209.4
85.6649,348.6
85.714,550.6
85.7242,105.9
85.7288,161.1
85.759,296.2
85.793,167.5
85.8052,149
85.8078,20
85.8108,496.5
85.8244,246.5
85.8537,180
85.8914,333.6
85.9023,165.8
85.9194,72.3
85.9399,514.5
85.9598,392.3
85.9651,47.2
85.9658,489.3
85.9694,332.8
85.9741,363.7
85.9856,90.2
85.9875,250
86.0115,373.3
86.0197,95
86.0258,142.9
86.038,136.5
86.0498,18.3
86.0599,35703
86.0633,87.5
86.0675,152.8
86.0683,571.6
86.0811,155
86.0929,116.1
86.0963,130172.4
86.1042,103.6
86.1066,104.9
86.1222,323.6
86.1332,289.4
86.142,123
86.1547,548.2
86.157,571.3
86.1672,44.8
86.1887,461.4
86.2166,291.1
86.2267,98.3
86.2966,109.8
86.3261,342.3
86.3445,76.9
86.3486,390.1
86.3497,175
86.3506,110.8
86.3565,297.7
86.3655,329.2
86.3824,170.2
86.4042,372.5
86.406,129.5
86.4708,82.3
86.4773,197.2
86.5028,307.3
86.5074,17.7
86.5184,193.2
86.5374,118.7
86.5432,93.2
86.5482,305.7
86.5702,250.7
86.5805,84.7
86.6093,19.9
86.6475,404.4
86.6742,239.4
86.699,91.8
86.7211,347.3
86.7466,99.2
86.7506,354.3
86.7724,161.2
86.8165,114.5
86.8298,90.8
86.8767,139.3
86.8939,100.1
86.8947,83.5
86.8955,102.5
86.9112,165.4
86.9125,684.9
86.9286,108.3
86.9526,144.9
86.9621,19.4
86.982,414.6
86.9888,316.3
86.9898,105
86.9914,19.5
86.9968,85.2
87.0342,484.3
87.035,96.1
87.0376,238.2
87.0569,183.7
87.0813,22
87.0996,2326.7
87.1363,490.1
87.1453,176.9
87.1496,41.4
87.1888,227.3
87.2228,317.9
87.259,306.7
87.2624,465.9
87.2701,343.2
87.2749,47.4
87.2989,787.2
87.339,205.3
87.3567,94.1
87.3772,91.7
87.4198,96.1
87.4414,712
87.4428,253.4
87.4492,112.7
87.4591,150.4
87.463,170.9
87.4811,111.2
87.4975,93.5
87.5075,134.6
87.5208,188.7
87.5565,20.4
87.5963,135.6
87.6205,98.1
87.6398,791.3
87.6445,359.5
87.6481,284.7
87.6596,350.7
87.7077,454.3
87.7143,252.2
87.7192,104
87.7206,299.6
87.7264,144.7
87.734,162.5
87.743,346.1
87.7441,99
87.8233,272.9
87.8246,99.5
87.8474,772.6
87.8615,902.9
87.8748,15.7
87.8941,493.8
87.96,188.5
87.9633,95.6
87.9707,127.3
87.9814,835.7
88.0136,546.6
88.0392,8639.3
88.05,305.4
88.0784,294.7
88.1024,105.4
88.1078,352.2
88.1105,108.3
88.1453,313
88.1606,278.1
88.1637,63.7
88.1705,113.5
88.1773,732.1
88.1806,287.3
88.1815,156.5
88.1926,99.1
88.2137,19.5
88.2162,572.6
88.2545,16.8
88.3163,105.8
88.3305,324.6
88.3336,445.2
88.3362,321.9
88.3715,829.1
88.3858,452.3
88.4003,777.9
88.4056,526.3
88.4122,573.9
88.44,158.6
88.4422,314.3
88.4483,228.7
88.4758,144.6
88.4777,104.6
88.4899,105.4
88.491,338.9
88.5034,169.2
88.5428,122.4
88.5432,110.9
88.5489,325.2
88.5621,803.9
88.5893,407.7
88.6008,165.5
88.6304,604.1
88.6568,142
88.6605,41.6
88.6727,95.9
88.6735,99.7
88.7377,92.1
88.7814,544.6
88.8447,22.2
88.904,429.9
88.9245,178.5
88.9296,846
88.9316,176.9
88.9452,517.4
88.9462,18.2
88.9522,95.1
88.9528,27.7
88.962,129.4
88.9727,401.8
88.9846,208
89.0042,337.3
89.007,516.8
89.0085,849.3
89.0403,391.5
89.046,244.4
89.0482,309.9
89.0588,104.1
89.0671,126.1
89.0718,98.7
89.1367,87
89.149,453.1
89.2059,88.5
89.2168,137.6
89.2998,270.1
89.3017,326.7
89.3278,17.5
89.3844,429.5
89.4382,87
89.4418,307.3
89.4425,298.4
89.4771,117.7
89.4935,94.7
89.5325,456.3
89.5752,201.2
89.5831,197.6
89.6398,22.4
89.6457,395.9
89.6967,575.2
89.7037,104.8
89.7294,288.7
89.7367,143
89.7381,94.7
89.7387,97.2
89.8497,404.8
89.8511,744.1
89.8581,549.3
89.8815,506.7
89.8866,425.7
89.8905,478.6
89.9038,105.9
89.9222,107
89.9249,572.6
89.9395,72.1
89.9399,75.2
89.9411,98.3
89.9506,20.5
89.9609,30.4
89.9636,568.3
89.99,279
89.9981,18.9
90.0048,300.1
90.0424,147.2
90.1034,108.5
90.1188,135.6
90.137,85.3
90.1481,91.8
90.1877,319
90.2156,179.4
90.2162,186.3
90.2342,537.9
90.2488,97.2
90.2606,497.8
90.2694,616.4
90.3025,147.9
90.3128,92.6
90.3382,43.5
90.3919,319.8
90.4016,137
90.4117,402.8
90.4583,349
90.4632,229.4
90.4732,358.6
90.4753,90.6
90.5076,272.5
90.5337,18.8
90.5554,19.2
90.5566,215.1
90.5875,109.5
90.6221,365.4
90.623,813.5
90.6257,17.9
90.6439,156.4
90.6891,92.8
90.6922,206.4
90.6964,219.3
90.7035,229.1
90.7234,254.7
90.7293,122.5
90.7531,522
90.7609,829.9
90.7868,41.7
90.7963,483.8
90.807,108.5
90.8093,253.5
90.8236,875.6
90.8328,476.8
90.8444,88.6
90.8634,505.2
90.8691,319.3
90.8794,23.5
90.9031,57
90.9383,113
90.9476,3856.5
90.9598,283.5
90.9755,743.1
90.9765,10187.3
90.9786,107.8
91.0368,121.7
91.049,292.8
91.0541,2132.2
91.0623,745.4
91.0681,107.3
91.0799,16.8
91.0893,247.5
91.156,106.7
91.16,113.2
91.1643,222.5
91.1756,141.4
91.23,104.4
91.2475,168.5
91.2744,171.2
91.3023,155.8
91.322,122.6
91.3388,473
91.343,478.7
91.3834,204.8
91.3881,45.3
91.4109,19.7
91.4184,87.5
91.4397,152.4
91.5401,303.9
91.5433,593.2
91.576,136.2
91.5951,139.9
91.6026,92.9
91.6097,90.9
91.6225,208.9
91.6993,432.2
91.8142,546.4
91.8174,44.4
91.8537,350.7
91.9109,88
91.9157,223
91.9482,42
91.9508,100.3
91.9539,211.9
92.0126,355.3
92.0201,361.3
92.0272,608.8
92.0451,549.8
92.0494,144.9
92.0577,20.3
92.0666,17.9
92.0812,102.1
92.1056,506.5
92.112,115.1
92.1667,88.7
92.1689,99.5
92.2073,97.4
92.2107,171.9
92.2712,88.7
92.2742,111.1
92.3305,97.4
92.411,110.8
92.4213,175.9
92.4399,248.7
92.4418,354.3
92.4571,294.8
92.469,121.9
92.4718,258.4
92.5289,644.5
92.5509,302.3
92.5607,253.7
92.5625,193.1
92.5904,106.7
92.6431,87.6
92.6821,183.8
92.6953,16.7
92.7541,516.3
92.7665,374.2
92.7809,24.7
92.8013,175.3
92.8038,198.1
92.8053,314.4
92.8203,354.7
92.8315,97.1
92.8358,953.1
92.8475,99.5
92.8533,561.2
92.8737,136.9
92.9059,105.2
92.9073,258.3
92.9178,75.7
92.9195,659.6
92.9236,313.8
92.9246,112
92.9291,133.2
92.9319,193.1
92.9429,373.4
92.9517,17.6
92.9939,677.4
93.0126,557.2
93.0334,40.3
93.0572,48.2
93.0697,499.8
93.0719,151.9
93.0788,978.6
93.116,287.9
93.1262,254.3
93.1403,373.7
93.1492,356.8
93.1617,133.2
93.1659,20.3
93.1701,388.4
93.2318,245.6
93.2498,17.6
93.2589,205.9
93.2719,81.9
93.2831,316.6
93.3431,377.3
93.3623,193.6
93.3653,95.4
93.3716,217.2
93.3916,147.9
93.3931,91.7
93.3983,18.4
93.401,307.3
93.4327,265.4
93.434,90.2
93.4498,18.5
93.4786,226.2
93.4984,91
93.5189,210.8
93.5294,530.8
93.5336,128.1
93.5486,16.4
93.552,85.3
93.5611,127.5
93.5952,46.2
93.614,20.2
93.7244,199.6
93.7403,283.9
93.7453,767.6
93.7652,217
93.7863,351.2
93.8076,180.9
93.8133,355.1
93.8308,331.4
93.8329,100.4
93.8499,179.9
93.902,469.4
93.9219,179
93.9282,191.4
93.9332,93.7
93.9629,24.5
93.9652,176.3
93.9872,89.8
93.9974,710
94.0284,323.2
94.0412,67293.2
94.0657,825.5
94.0821,312.9
94.1021,599.7
94.1152,767.7
94.117,74.1
94.1386,99.1
94.1699,18.5
94.1706,320.1
94.1751,384.6
94.1784,403.9
94.1814,316.4
94.1976,137.9
94.2074,125
94.2314,108.4
94.2464,96.2
94.2561,145.6
94.2636,149.4
94.2743,593.7
94.2759,435.1
94.2939,200
94.322,397.5
94.3248,554.2
94.3902,349.4
94.393,20
94.3988,465.3
94.4054,44.9
94.4308,360.8
94.511,292.8
94.5658,18.4
94.5917,127.3
94.6016,263.8
94.6091,16.4
94.614,41.9
94.6353,97.4
94.6557,157.9
94.6819,207.4
94.6944,336.2
94.7147,97.3
94.7295,289.4
94.7697,187.7
94.7763,439.2
94.8315,90.5
94.8451,563.1
94.8785,43.9
94.8933,751.3
94.923,759.9
94.9348,93.7
94.9711,200
94.993,85.9
94.9956,108.8
95.0108,927.3
95.0203,337.9
95.0223,34.6
95.0374,214.9
95.0446,1083.8
95.046,38.5
95.0463,18.6
95.049,460591.1
95.0511,88.4
95.0518,49.1
95.0524,39.4
95.0625,24.4
95.0853,536
95.0893,20.6
95.0912,21.1
95.0967,525.5
95.1345,1049.2
95.1425,85.9
95.2235,122.5
95.2722,340.5
95.2731,86.7
95.2994,165.1
95.3366,378.6
95.3727,94.1
95.3748,18.6
95.4302,229.9
95.5769,571.9
95.61,530.4
95.6332,736.1
95.6433,104.2
95.6605,479.2
95.7139,110.1
95.7199,384.7
95.7496,177
95.771,329.7
95.7744,492.9
95.7931,380.7
95.8068,18.1
95.8145,106.7
95.8855,231
95.8912,19.6
95.9016,19.6
95.9286,640.8
95.9371,477.3
95.9686,295.5
96.0014,852.1
96.0061,158.1
96.0231,348.8
96.0524,21901.4
96.0552,20.7
96.0683,123.7
96.0729,42.3
96.0904,175.8
96.1222,459.6
96.1453,160.8
96.1755,506
96.218,94.8
96.2468,436.9
96.3697,446.1
96.3792,104.2
96.4028,363.7
96.4051,303.9
96.4281,307.4
96.4663,944.5
96.4805,100.5
96.523,159.2
96.6203,16.9
96.6506,332.4
96.6653,698.3
96.689,19
96.6898,570.2
96.7099,91
96.7395,88.4
96.7585,153.9
96.764,347.6
96.8807,338
96.895,175.5
96.9217,165124.5
96.9365,128.3
96.9498,196.1
96.9722,256.6
97.0075,152.1
97.0105,98.6
97.0378,812.4
97.0411,166.8
97.0466,18.4
97.0537,151.7
97.0557,35.1
97.0644,107.5
97.0849,308.4
97.1011,57.3
97.1033,355.4
97.114,850.6
97.138,114.2
97.2287,364.4
97.2774,141.5
97.2891,205.5
97.2988,18.8
97.3102,299.8
97.3248,234.8
97.3926,301.7
97.4435,17.9
97.4457,628.6
97.4568,963.4
97.4614,145.5
97.4787,246.1
97.5013,517.4
97.5185,18
97.5227,200.8
97.608,291.5
97.7205,18.1
97.7422,23.2
97.7567,396.6
97.8035,137
97.8223,153.8
97.8637,133.6
97.9028,144.2
97.9279,110.9
97.9524,279.3
97.9543,41.8
97.9593,297.2
97.96,318.6
97.9757,117.8
98.0304,313.3
98.0682,243
98.0733,976.5
98.078,82.5
98.0865,85.8
98.0936,183
98.1089,109.2
98.1175,373.8
98.1256,601.6
98.1288,326.8
98.1516,17.6
98.1669,90.9
98.1915,110.5
98.2211,18.6
98.2255,178.2
98.2357,139.9
98.2481,222.9
98.2881,190.1
98.2899,144.7
98.306,94.3
98.3434,261.5
98.3541,314.6
98.385,288.3
98.4284,277.1
98.4306,339.5
98.4509,558.6
98.4734,129.5
98.4743,161.6
98.5354,134.3
98.572,89.5
98.631,259.4
98.67,446.7
98.7128,276.1
98.7421,181.1
98.81,252.9
98.8132,149.6
98.8226,181.2
98.8599,98.2
98.8648,98.3
98.8748,645
98.8751,652.5
98.8883,147.1
98.8923,370.3
98.8969,58.6
98.903,311.9
98.9188,46349.7
98.9198,7289.1
98.9571,158.7
98.9753,13241.6
98.9776,285.3
98.9807,142.7
98.9902,595.2
99.0443,106.5
99.052,108.3
99.0727,814.9
99.0956,507.8
99.1093,155.5
99.1445,89.1
99.1479,16.4
99.2026,406.9
99.2065,18.9
99.3032,149.1
99.3099,771.6
99.3209,529.6
99.3338,107
99.3493,378.2
99.3657,107.1
99.3783,43.3
99.3821,147.5
99.3962,97.7
99.4251,102.9
99.4949,132.8
99.5345,501.8
99.5705,246.9
99.6297,149.1
99.638,215.3
99.6393,392.8
99.6922,546.4
99.7292,545.7
99.7323,384.4
99.7545,148.4
99.7784,88.1
99.78,533.5
99.785,20.6
99.8011,101.3
99.8932,299.9
99.9177,299.8
99.9214,177.5
99.9463,122.3
99.9481,118.1
99.9488,801.4
99.9516,581.4
99.9858,589.7
100.0078,128.7
100.0092,607
100.0359,40.5
100.0825,377.8
100.1018,838.7
100.1218,308.2
100.1517,788.3
100.1599,331.3
100.1672,17.7
100.1985,78.6
100.2333,260.3
100.237,359.6
100.2425,106.8
100.2841,320.9
100.3137,492.6
100.3165,91.5
100.3366,240.9
100.3453,86.6
100.3861,18.3
100.3972,119.3
100.4177,17.4
100.4269,963.9
100.4319,839.8
100.4658,228.1
100.4799,102
100.4851,222.3
100.498,166.9
100.5097,502.2
100.6071,147.4
100.6088,85.1
100.6241,92.9
100.6356,330.5
100.6816,569.4
100.734,117.3
100.7381,92.3
100.7443,100.9
100.778,19.1
100.7803,106.2
100.7835,16.4
100.7956,404.9
100.7978,148.7
100.8131,19.3
100.8261,48.7
100.8368,117.3
100.8431,560.6
100.8552,141.6
100.8703,535.4
100.9169,1108.6
100.9434,889.2
100.9884,597
100.995,19.8
101.0068,86.9
101.0471,1825.1
101.0663,436.2
101.0708,525.1
101.0888,605.4
101.107,134.3
101.1227,562.1
101.1319,191.7
101.1379,234.4
101.1388,342.6
101.1982,222.9
101.2133,111.1
101.2205,173.5
101.233,249
101.2538,97.1
101.2639,199
101.2988,279.5
101.3104,170.9
101.3235,80.2
101.3253,17.3
101.3313,294.8
101.4231,454.1
101.4345,80
101.4553,143.7
101.4764,124.1
101.4782,88.3
101.5057,219.6
101.5181,216.3
101.5312,335.9
101.5417,20
101.552,614.4
101.6188,139.5
101.6214,138.6
101.6234,354.2
101.6273,271.2
101.6342,24
101.744,180.6
101.7504,91.5
101.7509,82.2
101.7626,147.7
101.7892,79.5
101.8144,17.9
101.8183,541.5
101.8814,304.6
101.8881,189.1
101.9226,189.1
101.9425,199.5
101.9636,284.3
101.9765,346.5
101.9797,115.7
102.0149,329.3
102.0217,184.1
102.0549,3385.3
102.0697,423.9
102.078,511.6
102.0898,38.8
102.1222,516.9
102.1373,669.1
102.1444,94.8
102.1481,882
102.1534,281.4
102.1771,18.4
102.1823,116.6
102.1926,518.2
102.2593,101.8
102.2717,378.7
102.3041,465.2
102.3078,131.3
102.3145,436.2
102.3163,517.4
102.3346,127.8
102.3437,451.5
102.345,185.7
102.3609,87.1
102.3618,614
102.3963,16.3
102.4125,109.4
102.4431,130.7
102.4998,49.2
102.5033,173.8
102.5162,158.4
102.5311,254.8
102.5511,96.2
102.5844,358.2
102.5924,17.3
102.6073,81.7
102.6084,341.2
102.6129,16.3
102.6273,100.4
102.6328,468.3
102.6376,518.2
102.7547,374.8
102.7571,371.1
102.7635,316.2
102.8241,159
102.8303,462.7
102.837,379.1
102.8476,132.3
102.8644,409.8
102.8772,510.9
102.8866,856.8
102.9131,353.4
102.9152,725.4
102.9188,106.7
102.9477,84
102.9515,87.5
102.9679,184.5
102.9702,587.1
102.9841,53.4
103.0206,24.2
103.0539,445.9
103.0582,94.3
103.0796,118
103.0888,585.4
103.0951,83.5
103.1221,94.9
103.1381,97
103.1867,144
103.1894,552.6
103.2038,217.2
103.2253,145.4
103.2359,189.3
103.2646,583.6
103.3199,155.6
103.3352,106.7
103.344,467.9
103.4587,18.4
103.479,83.7
103.484,557
103.5011,154.2
103.5283,230.2
103.5294,278.3
103.5546,165.7
103.5564,509.3
103.5774,472.1
103.5792,136.9
103.6084,485.6
103.677,514
103.6826,157.2
103.7071,94.7
103.7186,354.4
103.7584,1058.3
103.7698,514.9
103.7905,356.1
103.8062,315.1
103.8197,375.2
103.85,17.9
103.8608,116.9
103.871,129.3
103.8948,139
103.9042,719.6
103.9052,345.2
103.913,141.1
103.924,16.9
103.9638,18.4
103.9665,47.1
103.9675,819
103.9793,423.7
103.9844,121
103.9921,480.8
104.0166,429.8
104.0203,228.2
104.0456,19.6
104.049,90.3
104.0704,86.1
104.0799,527.6
104.1069,537353.1
104.1557,611.4
104.1919,640.3
104.2346,86.2
104.2415,19.7
104.2726,448.7
104.3291,299.5
104.3571,927.4
104.36,351.1
104.3648,19.5
104.3857,272.8
104.3924,297.6
104.4446,624.8
104.4524,98.6
104.4717,216.4
104.4822,261.1
104.5039,286.7
104.5367,87.5
104.5609,82.1
104.5793,546.1
104.5904,1086
104.5957,228.3
104.5994,233.6
104.6147,162.3
104.6291,344.9
104.6818,106.6
104.7042,82.9
104.714,284
104.7302,18.6
104.737,385.5
104.739,227.9
104.7447,634.3
104.7632,383.1
104.7675,94.1
104.7842,88.3
104.8011,93.2
104.8317,264.7
104.8335,233.7
104.9078,24.7
104.9204,95
104.948,154.8
104.9633,5419.5
104.9906,364.2
104.9922,4210.6
104.9959,872.8
105.002,45.8
105.0147,135.9
105.0447,43336.9
105.0698,18.8
105.0763,375.7
105.102,188.7
105.1103,19376.4
105.1481,304.6
105.1659,93.5
105.2062,344.4
105.2597,156.2
105.2687,199.6
105.2761,128.6
105.2978,91.3
105.3214,833.1
105.3662,45.2
105.3717,114.9
105.3953,96.9
105.4096,93.1
105.4421,154.1
105.5028,109.7
105.5253,192.5
105.5436,117.7
105.5927,90.7
105.6298,158.3
105.6603,126.9
105.6711,214.1
105.7101,215
105.7299,22.4
105.758,223
105.7925,301.2
105.8549,469.4
105.8713,149.1
105.88,345
105.8892,109.6
105.9109,375.5
105.9196,154.8
105.9638,23.6
105.9666,23.2
105.9683,447.8
105.9715,258.2
105.9961,113
106.0417,18.8
106.0481,857.2
106.0642,18.9
106.0911,574.9
106.1651,117.5
106.2629,79.6
106.266,426.9
106.2977,436.6
106.3064,133.5
106.3183,768.3
106.3482,17.9
106.3962,158.1
106.4049,16.6
106.4161,333.2
106.4241,150.9
106.456,121
106.6119,323.8
106.6242,376.2
106.7181,520.5
106.7233,517.6
106.7404,271.2
106.7724,126.8
106.795,733.9
106.804,157.4
106.8784,377.2
106.894,208
106.9299,102.3
106.9337,520.6
106.9435,46.4
106.9506,3397.6
106.9637,169.5
106.9722,525.4
106.9919,45
107.0283,70.5
107.0491,434.2
107.0719,313.8
107.0729,22.3
107.0855,89.7
107.1503,571.7
107.1673,324.9
107.1818,322.9
107.193,546.6
107.2419,18.1
107.2677,582.9
107.2782,120.9
107.3104,315.3
107.3111,376.9
107.3125,491.3
107.3355,747.3
107.3635,163.2
107.3669,18.4
107.4173,521.3
107.4234,293.6
107.4357,92.9
107.486,156.1
107.5197,146.6
107.5386,894.4
107.5579,137.3
107.5967,315.8
107.619,135.6
107.6358,283
107.6506,127.4
107.6873,81.9
107.7154,19.4
107.7229,652.3
107.743,151.9
107.7448,859.5
107.7782,297.5
107.7961,590.8
107.7996,306.3
107.823,364.4
107.8608,82.3
107.8799,170.2
107.9166,15.9
107.944,19.2
107.9532,125.9
107.9575,168.5
107.9596,17.3
107.9838,926.2
108.0087,131.8
108.0481,186.1
108.1028,76.3
108.1067,260
108.1791,101.3
108.1847,637.1
108.2434,99.5
108.2695,80.5
108.2709,253.9
108.3018,835.4
108.3423,100.8
108.3514,84.3
108.3568,254.6
108.3715,108.2
108.3926,19.7
108.4191,148
108.4206,253.8
108.4695,271.3
108.4717,109.4
108.5548,401.6
108.5661,341.6
108.5994,105.2
108.6263,142
108.6497,74.2
108.6514,45.1
108.6525,96.2
108.6704,125.5
108.6995,430.9
108.7071,91.5
108.7231,166.7
108.7754,84.1
108.8377,86.7
108.8873,191.3
108.8895,96.4
108.9236,727
108.9583,120.6
108.9817,93.1
108.9858,784.5
108.9901,322.1
109.0107,20.4
109.0588,42.6
109.0648,71994.8
109.068,178.8
109.1011,1423.3
109.1081,383.1
109.1256,461.4
109.1331,20.2
109.2008,90.1
109.3006,104.4
109.314,515
109.3618,95.8
109.4111,902.7
109.4201,131.6
109.4426,40
109.4764,94
109.4992,341.3
109.5052,847.4
109.5091,363.9
109.5337,322.6
109.5535,529.4
109.6308,293.9
109.6417,107.2
109.6469,271.4
109.6581,309.8
109.6877,525.5
109.6898,260.4
109.6912,165.1
109.7204,847.3
109.7313,293.4
109.8095,144.2
109.8132,253.5
109.825,115.5
109.839,131.1
109.8604,209.9
109.8909,84.2
109.9179,85.1
109.9477,290.6
110.0102,561.2
110.015,277.1
110.0599,519.3
110.0621,238
110.0649,549.5
110.0681,2785
110.0707,446.9
110.0854,337.9
110.088,262.6
110.1934,128
110.2019,225.3
110.2219,250.5
110.228,129.6
110.2389,87.1
110.2874,369.8
110.311,46.5
110.3215,176.6
110.3311,140.2
110.3724,825.1
110.381,260.9
110.4273,153.1
110.4635,298.1
110.4698,822.9
110.4808,315.7
110.4923,369.8
110.5308,99.7
110.589,94.9
110.6066,246.4
110.6559,261.5
110.6671,91.5
110.6696,18
110.6736,772
110.6816,748.6
110.7361,330.5
110.7491,19.1
110.7533,208
110.7725,106.8
110.8039,261.2
110.8526,204.6
110.8539,918.3
110.8698,178.2
110.8888,113.5
110.892,123.5
110.9013,81.4
110.9088,590.1
110.9123,362.6
110.9399,217.6
110.9425,246.7
110.9794,210.4
110.9914,112.8
111.0047,904.2
111.0232,286.2
111.0439,286.7
111.0688,27.8
111.1181,97.7
111.3066,727.7
111.3237,20.7
111.3997,154.8
111.4097,544.6
111.421,352.4
111.4987,415.6
111.5042,303.8
111.5174,119.9
111.5606,360.7
111.5891,82.1
111.6059,212.3
111.6313,347.6
111.6324,755
111.6596,134.7
111.6953,206.3
111.7247,185.1
111.7289,103.3
111.7354,18.7
111.7814,234.7
111.7865,157.9
111.7958,134.6
111.8607,17.8
111.8918,317.2
111.9055,17.5
111.9344,80.5
111.978,350
111.988,116.7
112.004,20.4
112.0895,222.3
112.0995,369.3
112.1072,420.8
112.1259,21.7
112.1493,95.7
112.1523,426.5
112.2514,84.5
112.2625,78.3
112.2824,301.3
112.2852,568.5
112.3461,134.5
112.3616,184.1
112.3842,832.7
112.4095,757.8
112.4151,188.3
112.4445,205.6
112.472,112.6
112.4751,96.9
112.4763,246.3
112.5014,99
112.5072,89.9
112.5489,383.3
112.5964,141.6
112.6699,366.4
112.76,401.3
112.8568,558.4
112.8628,1052.5
112.8957,373175.9
112.9078,268.1
112.9102,320.2
112.9112,187.7
112.9155,490.6
112.949,104.8
112.9651,241.2
113.0794,203.7
113.1023,88
113.1075,263.9
113.1379,311.4
113.1462,105.5
113.1507,97.5
113.171,94
113.1984,195.8
113.2506,74.6
113.3167,519.8
113.3386,100.8
113.361,16.9
113.3661,334.3
113.3969,325.3
113.4664,312.1
113.5661,291.7
113.5811,123.3
113.5956,348.5
113.6069,42.2
113.6179,384.8
113.6524,16.6
113.6801,268
113.6952,853.6
113.7174,101.4
113.7484,295.5
113.7641,125.1
113.7864,119.1
113.8137,98.5
113.8155,190.3
113.8283,215
113.8311,402.4
113.8514,202
113.8765,95.6
113.892,18.8
113.9485,955.8
113.9637,33.4
113.9766,19.1
113.9888,117.1
113.9946,105.5
114.0077,17.9
114.0211,112.8
114.029,103.4
114.0549,52317.8
114.0616,476.8
114.0662,437.5
114.078,72.1
114.0867,560.2
114.0913,24.3
114.1477,146.2
114.1535,89.5
114.1728,321.8
114.2215,438.1
114.2263,286.2
114.2533,43.1
114.2555,500.6
114.3082,324.4
114.3154,605.1
114.3579,612
114.4144,83.2
114.4171,198.7
114.4603,596.7
114.466,232.6
114.4733,507.7
114.4747,606.1
114.4866,80.7
114.4999,528.3
114.5055,486.4
114.5152,304.4
114.5207,307.3
114.5358,86.5
114.5504,1001.6
114.5562,199.8
114.6251,827.5
114.6857,338.5
114.6874,335.1
114.6977,616.4
114.7207,105.9
114.7491,729.8
114.7828,132
114.8228,773.1
114.8635,184.8
114.8711,253
114.8846,19.4
114.8928,112756.9
114.9228,79
114.9355,126.5
114.9482,279.1
114.9591,196.2
114.9643,645.4
115.0262,77.9
115.0366,324.8
115.0546,151.9
115.0583,738.3
115.0865,389.6
115.1067,98.4
115.1325,90.6
115.1345,484.3
115.1531,15.7
115.1738,20.6
115.3001,410.1
115.3381,535.2
115.3465,365.4
115.3609,99.5
115.3837,103
115.3926,87.9
115.3978,222.5
115.4481,459.7
115.4547,540.2
115.4565,139.4
115.5615,194.4
115.5665,116
115.5713,122.1
115.6401,127.1
115.6633,85.2
115.6735,537.9
115.6937,79.3
115.8236,48.9
115.8501,192.8
115.8744,499.4
115.8928,584.4
115.8987,476.6
115.9531,17.9
115.9794,845
116.0383,311
116.0706,929.4
116.1388,182.2
116.1631,99.4
116.1656,374
116.2158,110.5
116.2317,147
116.2642,641.7
116.3104,734.6
116.3601,498.8
116.3995,399
116.4106,96.5
116.4548,136.5
116.4736,101
116.4759,87.5
116.4887,105.4
116.497,242.5
116.5036,86.1
116.6651,312.6
116.7058,85.1
116.7432,20
116.7448,579.2
116.7794,495.9
116.8341,763.7
116.8664,18.5
116.8909,11412.7
116.9158,72.2
116.9172,382.6
116.9244,346.6
116.9471,25.1
116.9597,17.6
116.9633,197.3
116.9836,42.9
116.9859,2897.1
116.9996,18.3
117.0222,515.9
117.0402,276.5
117.0699,80.3
117.0724,123.8
117.0771,299.3
117.0964,213.2
117.1065,18.9
117.1141,99.8
117.1271,515.3
117.1364,130.5
117.1547,16.9
117.1737,266
117.1937,88.4
117.229,124.9
117.2395,184.5
117.2461,297.1
117.2713,49.3
117.295,586
117.3334,122.8
117.3694,801.3
117.44,80.3
117.4711,305.2
117.5175,18.4
117.5208,239.6
117.5673,814.4
117.5963,401.4
117.6215,119.4
117.7239,95
117.7395,120.5
117.7419,219.5
117.7427,269.2
117.7637,86.1
117.765,824.8
117.7941,17.2
117.8335,130.5
117.8429,17.7
117.8447,302.9
117.8607,383.2
117.8725,550.1
117.8888,214.2
117.9108,219.7
117.9457,22.8
117.9662,651.2
118.0591,229.7
118.0726,372.1
118.109,119.5
118.1464,148.5
118.2191,119.3
118.2319,106.5
118.2345,164.1
118.2352,176.4
118.2411,553.4
118.2848,889.1
118.2962,134.1
118.302,295.5
118.309,367.8
118.3121,499.7
118.3171,210.3
118.3229,201.1
118.3696,625.1
118.3839,445.6
118.5118,180.6
118.5264,114.2
118.5343,564
118.6019,77.6
118.6514,17.8
118.6554,91.4
118.7513,133.8
118.7825,97.5
118.8195,360.4
118.8819,106.1
118.8972,335.4
118.905,87.1
118.914,735
118.9222,103.9
118.9426,1058.9
118.9765,448.3
118.979,1299.7
119.003,90.1
119.0234,356.7
119.0604,347.4
119.0729,463
119.0855,60.8
119.1414,135.8
119.1452,304
119.1743,124.8
119.1796,411.7
119.2103,517
119.2209,177.8
119.2332,123.1
119.2642,223.5
119.3012,362.5
119.3836,248.8
119.4046,345.8
119.426,509.2
119.433,201.3
119.4365,801
119.4525,340.9
119.5517,853.3
119.5579,153.5
119.581,77.7
119.626,294.5
119.6299,935.6
119.7231,310.3
119.7344,137.3
119.7644,222.8
119.7754,451.5
119.7819,187.7
119.8187,438.1
119.8281,18.4
119.8461,220.2
119.8529,140.9
119.8639,218.3
119.8665,159.4
119.9173,17.4
119.9244,463.3
119.9493,18.1
119.955,19.2
119.9641,386.9
119.9795,127.5
120.0033,4731.5
120.0278,80.6
120.0609,632.1
120.0808,8670
120.0982,107.8
120.1259,186.4
120.1789,365.2
120.2005,386.1
120.2148,338.2
120.2224,320.1
120.2353,323.4
120.2649,93.2
120.3535,95.8
120.368,375.2
120.3771,112.4
120.4115,317.9
120.4507,84.7
120.4807,495.9
120.5092,93.7
120.5337,145
120.5493,323.2
120.5582,88.4
120.5901,128.7
120.6101,93.7
120.6325,18.6
120.6987,75.7
120.7318,124.3
120.7435,18.7
120.7867,306.8
120.8677,235.8
120.8694,539.7
120.9349,17.6
120.964,632
120.9659,18.4
120.9793,22
120.9809,176.5
121.0076,319.9
121.0161,94.6
121.0284,213.8
121.0689,108.4
121.0754,196.8
121.0767,114.7
121.1012,52.3
121.1152,155.9
121.1875,112
121.2176,177.4
121.2337,95.5
121.2371,19.2
121.3303,237.2
121.3477,354.6
121.3625,154.2
121.4092,18.5
121.4396,125.2
121.5427,168.7
121.5515,174.2
121.64,158.4
121.6642,472.2
121.6801,958.2
121.7139,16.6
121.7276,558.8
121.7406,144.2
121.7554,219.7
121.8117,281.3
121.8316,534.6
121.8597,92.8
121.877,288
121.884,308
121.9406,72.7
121.9427,335.9
121.9818,366.3
122.0077,100.2
122.068,19
122.1523,115.5
122.162,677.4
122.3217,141.1
122.3258,119
122.3281,254.4
122.3436,791.1
122.4136,119.9
122.422,118.4
122.4838,187.3
122.4899,279.7
122.5245,921.1
122.5302,106.4
122.5579,160.3
122.5633,280.3
122.6211,824.3
122.6612,449.1
122.688,44.4
122.6946,20.6
122.6987,134.1
122.7791,265.3
122.7934,504.9
122.8019,82.1
122.8067,97
122.8214,540.8
122.8619,346.6
122.8754,114
122.922,321.5
122.9246,16874
122.9739,288.4
123.0068,17.1
123.0315,481
123.0365,341
123.0624,588.1
123.0804,23.9
123.0965,45.1
123.1088,336.6
123.1205,390.4
123.1463,273.8
123.1648,90.9
123.2425,113.7
123.2656,230.6
123.3017,134.4
123.3245,116.5
123.3319,372.4
123.4378,17.7
123.4857,213
123.4977,97.8
123.5434,306.1
123.5628,292.6
123.5719,522.8
123.6324,342.5
123.6694,495.2
123.672,300.8
123.7105,91.4
123.7317,235.9
123.7509,498
123.7777,295.6
123.8257,517
123.8464,92.7
123.8481,371.8
123.8493,717.4
123.8635,16.5
123.8647,259
123.9002,491.5
123.9238,555.3
123.9631,420
123.9683,557.5
123.9937,17.9
124.1069,532.7
124.1081,172.7
124.1261,207.2
124.1294,157.3
124.1329,894.1
124.1845,215.2
124.2636,350.4
124.2709,90
124.2943,96
124.2979,319
124.3179,94.6
124.3539,797.1
124.4157,312.6
124.4474,18
124.4552,285
124.4728,81.3
124.4745,121.8
124.4817,397.1
124.5064,41.8
124.508,105.3
124.5317,294.5
124.5342,96.6
124.544,164.8
124.5553,180.2
124.568,190.8
124.6014,90.7
124.6393,501.9
124.6842,496.3
124.6929,95.9
124.7231,302.1
124.726,327.2
124.8002,18.5
124.8556,18.2
124.8826,17.9
124.9118,101.1
124.9227,685.4
124.9353,19
124.9366,537.8
124.9458,304
124.9792,593.8
124.987,158.5
124.9971,188.3
124.9999,5322.3
125.0056,1004.5
125.0229,344.8
125.0356,94.6
125.0389,253.6
125.0597,68.4
125.1173,112.5
125.1201,860.8
125.1552,105
125.2288,264.3
125.2458,263.7
125.2876,194.3
125.3016,504.5
125.3159,79
125.3226,113.6
125.3582,142.6
125.3639,92.2
125.436,116.1
125.4417,174.3
125.4515,147
125.4519,146.3
125.5211,95.4
125.5297,17.8
125.5386,115.9
125.5559,258
125.5919,206.7
125.6047,509.9
125.6631,92.3
125.6869,128.8
125.7401,94.7
125.7461,137.5
125.779,99.1
125.796,156
125.8905,17.5
125.9157,97
125.9238,91.4
125.9848,18.8
125.9942,261.3
126.0001,170.5
126.0129,123.6
126.0805,21.4
126.089,589.8
126.1389,1215.6
126.1419,93.9
126.146,340.2
126.168,304.5
126.1905,231.5
126.2032,206.6
126.23,104.2
126.2857,157.9
126.2927,116.4
126.2957,18.7
126.3212,639.8
126.3491,108.3
126.3809,266.4
126.4202,94.9
126.4486,335.2
126.4642,86.5
126.4904,121.4
126.4995,16.9
126.5104,88.9
126.6074,94.8
126.628,507.8
126.6437,100.1
126.701,17.5
126.8234,455.8
126.8901,149.5
126.9187,406.6
126.9672,189
126.971,229.6
126.9931,218.9
127.0021,90.8
127.0079,103.8
127.0098,93.3
127.0132,291.8
127.0198,297.8
127.0211,42.1
127.0478,311.1
127.057,134.6
127.0817,109.5
127.0979,116.1
127.1325,99.5
127.1359,85.9
127.1495,294.1
127.2029,99.8
127.2238,531.8
127.2856,127
127.2883,18.9
127.3029,322.8
127.3151,16.4
127.3169,105.1
127.3214,199.6
127.3389,611.6
127.3678,301.6
127.4177,85.7
127.4223,87.9
127.438,17.3
127.4462,125.5
127.5149,96.5
127.552,345.1
127.571,43.7
127.5836,725.1
127.6075,87.9
127.6159,769.9
127.6264,849.4
127.6307,642.5
127.6364,20.2
127.7052,855
127.742,108.5
127.831,270
127.8473,564.5
127.8924,19.5
127.8984,322.5
127.8996,121.4
127.9528,571.6
127.9564,265.4
127.9738,832
127.9793,43.6
128.0158,62.6
128.0455,82.6
128.0625,20.3
128.1054,308.3
128.1745,549.2
128.1851,293.3
128.1961,44.4
128.2339,108.1
128.2406,19.7
128.246,358.4
128.2688,537.9
128.2868,130.6
128.2888,101.4
128.3261,19.9
128.3343,82.2
128.4038,359.9
128.4095,292.3
128.4185,172.3
128.4395,240.9
128.453,138.6
128.4559,299.5
128.4589,113
128.5209,338.4
128.531,252.3
128.5631,133.5
128.5776,576.5
128.5988,42.6
128.6853,345.9
128.7082,128.6
128.7214,111.1
128.728,153.6
128.7628,743.5
128.8981,821.9
128.9226,373.6
128.9639,224.4
128.9881,314.1
129.0032,758.2
129.0675,97.1
129.0692,86.9
129.124,594.1
129.1885,22.1
129.2092,132.1
129.2337,1021.5
129.2681,18.5
129.3537,843.1
129.358,140.9
129.3872,222.5
129.3963,109.6
129.5575,43.6
129.5614,130.5
129.5978,17.5
129.6605,136.9
129.6987,421.5
129.7014,560.7
129.7126,332.2
129.7213,21.3
129.7425,49.4
129.8258,140.4
129.8704,127.4
129.8734,276.7
129.9587,240.8
129.9951,219.7
130.0499,5067.2
130.0604,223.8
130.0788,167
130.0863,566.5
130.1147,129.9
130.1282,20.3
130.1482,378.3
130.1677,202.1
130.2185,297.1
130.2359,102.4
130.2426,227.4
130.3538,449.5
130.3846,249.2
130.4692,466.6
130.4887,48.1
130.5284,99.7
130.5607,221.1
130.5654,127.8
130.5993,98.7
130.6441,156
130.7256,449.3
130.7375,261.7
130.7426,136.3
130.7495,86.7
130.7532,392.8
130.825,118.5
130.9064,17.9
130.9302,92.6
130.9354,289.5
130.9791,131.9
130.9859,261.3
130.9891,104.1
130.9965,114.9
130.9982,586.2
131.0002,158.1
131.0161,229.6
131.0193,116.1
131.0578,200.1
131.0646,114.1
131.0848,389.6
131.1007,844.7
131.1043,200.8
131.1173,263
131.1351,231.6
131.1781,464
131.1836,231.2
131.196,198.8
131.203,257
131.2216,217.5
131.2592,111.8
131.2652,175.6
131.2962,119.4
131.3205,88
131.3237,522.2
131.344,107.5
131.349,439.8
131.4519,196.4
131.5261,102.3
131.5712,142.4
131.5732,350.1
131.5835,328.3
131.5876,96.9
131.6075,638.2
131.7084,107.5
131.7298,97.5
131.7358,17.3
131.7832,152.7
131.8113,102.3
131.8405,409.8
131.9305,82.9
131.9613,58.4
131.9697,552.8
132.0032,35169.2
132.0092,709.8
132.0135,177.3
132.0613,84.9
132.0656,87333.6
132.0768,3041.7
132.1527,261.3
132.166,20.1
132.177,161.9
132.1898,17.8
132.2042,88.7
132.207,596.9
132.2199,82.7
132.2379,778.1
132.2486,717.1
132.2674,726.7
132.2806,260.2
132.2832,20.4
132.2891,547.3
132.3182,146.9
132.341,86.1
132.3449,18.9
132.3524,278.2
132.3587,456.5
132.4022,19
132.4249,96.4
132.4286,172.1
132.4367,97.3
132.5201,97.9
132.5372,19.2
132.5482,186.6
132.5539,534.8
132.8589,761.8
132.8796,45.2
132.9036,108.8
132.9099,373.1
132.9247,144.9
132.9583,1105.1
132.9696,49.2
132.9873,5416.1
132.9957,41.6
133.0101,786.2
133.0289,557.5
133.0626,154.4
133.0637,565.1
133.0689,2742.4
133.086,44.3
133.0972,8308.9
133.1011,483
133.1256,469.6
133.1411,131.7
133.1451,19.5
133.1679,80.6
133.1683,79.7
133.1956,127.2
133.2055,17.5
133.25,717.6
133.2891,719.1
133.323,200.6
133.3354,142.6
133.3857,88.8
133.4581,96.4
133.6112,147.7
133.6301,304.5
133.6491,118.3
133.669,608
133.7471,798.3
133.7606,94.9
133.7649,313.5
133.7921,262.9
133.8604,123.5
133.8634,135
133.8991,226.7
133.903,482
133.9749,181.5
133.9923,52.2
134.004,862.6
134.0189,25017.1
134.0507,257.5
134.0562,309.5
134.0814,86.7
134.0821,162.5
134.0917,503.5
134.1504,202.3
134.1549,132.4
134.3288,118.2
134.3313,250.3
134.3446,135.8
134.3525,277.9
134.3829,245.6
134.4175,378.8
134.4296,153.6
134.4418,95.2
134.465,18
134.4815,464.1
134.485,19.2
134.5495,98.9
134.5577,112.1
134.6076,263.2
134.6244,253.3
134.7633,552.7
134.7731,304.3
134.824,21.7
134.8518,328.3
134.8806,218.8
134.9092,106.6
134.9589,19.4
134.974,62.9
134.9757,937.5
134.9881,545
134.9891,264.8
134.9965,41.9
135.0029,153844.3
135.013,271.1
135.0232,42.5
135.1038,17.6
135.1169,102.7
135.1937,128.7
135.2068,338.9
135.2122,148.9
135.2171,18
135.242,130.4
135.2729,43.1
135.2785,390.2
135.3279,245
135.3472,196
135.3649,422.9
135.3803,117.8
135.407,164.6
135.4234,353.2
135.4369,228.3
135.4442,287
135.513,329.1
135.5618,792.3
135.5627,784.4
135.5641,243.8
135.5956,350.2
135.6089,19.5
135.635,153.6
135.6521,812.1
135.7155,205
135.8143,918.8
135.8306,94.5
135.8546,17.2
135.8988,138.9
135.9057,902.8
135.9076,136
135.9202,197
135.9362,122.5
135.9384,101.4
135.944,343.9
135.9555,101.7
135.9597,16.7
135.9678,437.2
135.9772,2824.8
135.9926,21.5
136.0063,1817.9
136.0144,18
136.0286,479.6
136.0482,6262.1
136.0618,30.2
136.0712,436
136.0758,5648.7
136.106,887.7
136.1269,281.8
136.1277,246.2
136.138,174.2
136.1452,334.8
136.1673,157.5
136.1812,280.5
136.1977,563.5
136.2454,94.9
136.2554,309.3
136.2622,179.7
136.2889,807.3
136.3298,948.4
136.3544,797.9
136.421,295.4
136.5661,49
136.5697,85.8
136.6308,98.6
136.6775,393.9
136.7062,92.9
136.7196,148.3
136.7388,19.4
136.7921,407.7
136.8072,686
136.8793,18.9
136.884,120.6
136.9149,200.7
136.9296,92
136.9314,1003.4
136.9534,193.1
136.9897,123.4
137.0073,270.4
137.0283,151.6
137.0615,131.7
137.1207,848.9
137.1495,384.5
137.173,349.6
137.2403,150.3
137.3515,215
137.3911,96.6
137.4164,539.8
137.4404,87.1
137.4541,283.9
137.49,332.7
137.4932,88.8
137.4994,521.9
137.5188,319.3
137.5242,154.2
137.5273,119.2
137.6147,20
137.6306,598.7
137.6421,97.2
137.6433,17.8
137.6721,100.4
137.852,271.7
137.8623,380.8
137.9687,90.5
138.0407,95.9
138.0508,269.5
138.0526,7681.3
138.0661,24.1
138.0747,93.5
138.0775,510
138.0787,143
138.0877,417
138.0956,122.8
138.1783,343.3
138.1834,307
138.2519,235.2
138.2698,736.6
138.3259,323.9
138.3542,92.7
138.3821,259.8
138.4717,92.9
138.6089,395
138.6858,231.8
138.6916,45.6
138.6995,100.6
138.7348,120.3
138.7434,189.7
138.7535,128.5
138.7684,165.5
138.7813,147.1
138.8504,103.6
138.9065,4692.2
138.9393,285.7
138.9466,322.5
138.9811,942.2
139.0151,18.1
139.051,567.7
139.0674,84.6
139.0776,157.4
139.104,103.9
139.1324,357.5
139.2586,17
139.2729,350.8
139.3055,103.9
139.3161,108.8
139.343,746.6
139.3899,240.3
139.4411,130
139.4564,356.2
139.4725,617.2
139.518,123.5
139.5226,100.1
139.5633,129.2
139.5819,583
139.6049,319.7
139.6085,222.3
139.6417,88.9
139.687,675.7
139.8005,152.9
139.8062,17.2
139.8101,114.8
139.8494,257.1
139.851,291.8
139.8536,890
139.894,359.9
139.9583,374.5
139.9704,88.2
139.9908,366.5
140.0073,107.6
140.0166,4946.4
140.0263,534.4
140.0605,152.6
140.0683,3300.8
140.116,109.5
140.1246,882.1
140.1459,488.6
140.1766,391.6
140.2096,876.3
140.2707,274.6
140.3263,104.4
140.332,236.7
140.3885,172.4
140.4036,93.9
140.5218,916.5
140.5717,852.1
140.6034,190.4
140.6822,320.9
140.6839,578.4
140.6978,106.6
140.724,394.3
140.7327,554.7
140.7531,397
140.8361,19.3
140.8709,535.9
140.8939,564.6
140.9036,1983.9
140.9118,441.8
140.9236,899.7
140.9606,615.1
140.9962,27
141.0006,19889.8
141.0199,297.6
141.0886,659
141.1481,45.6
141.2085,88.3
141.2656,50.4
141.2872,552
141.2959,732.8
141.3114,97.7
141.3985,283.5
141.4339,303.5
141.4694,19.7
141.491,17.1
141.5033,122.8
141.5537,233.3
141.5693,323.1
141.632,345.9
141.6476,176.2
141.6553,311.2
141.6729,652.3
141.6842,966.5
141.6957,1007.1
141.7152,168.4
141.7509,316.9
141.7728,24.3
141.8686,19.6
141.9173,100.3
141.9283,888.3
141.9402,113.2
141.9435,454.5
141.9795,20.2
141.9857,117.1
141.9951,289.9
142.0039,377.4
142.0106,91.3
142.0123,113
142.0153,70.6
142.0234,667.7
142.0474,229.4
142.0492,322.5
142.076,86.9
142.0936,93.4
142.1556,804
142.2344,323
142.2449,819.1
142.2802,310.9
142.3197,17.2
142.5324,709.7
142.5431,202.6
142.5543,351.4
142.5656,337.6
142.6459,15.8
142.6639,235.3
142.6904,265.1
142.6968,101.9
142.7393,18.3
142.8682,782.8
142.8714,112.3
142.894,18.9
142.9053,173.8
142.9482,925.8
142.9792,19.1
142.9964,345.8
143.0044,19.5
143.0191,1384.3
143.0248,329.5
143.0317,1677.5
143.0722,43.4
143.0816,346.3
143.2339,522.4
143.2437,441.9
143.2622,97.9
143.2733,21.2
143.3044,229.9
143.3315,452.9
143.3874,20.3
143.4089,118
143.4315,79.5
143.4605,80.7
143.4739,22.6
143.5962,325.5
143.6007,384.6
143.6219,468.3
143.6359,153.3
143.726,251.1
143.7486,89.4
143.7525,231.9
143.7575,419.8
143.795,271.2
143.7973,133.1
143.842,324.8
143.8519,94.5
143.8655,109.1
143.9193,88
143.9907,103.6
144.0107,1146.6
144.0269,45.3
144.1173,309.3
144.1488,147.3
144.1542,52.8
144.1868,145.2
144.2239,338.6
144.2408,860.8
144.2472,303.3
144.2523,276.5
144.3434,874.1
144.3613,18.1
144.3734,131.6
144.3779,43.3
144.5361,87.9
144.5424,160.9
144.5804,94
144.5882,42.4
144.6343,252.3
144.739,20.4
144.7746,145.6
144.7885,292.8
144.8079,382.6
144.8208,211.2
144.849,211.1
144.8624,84.2
144.8697,262.7
144.919,364.7
144.9399,19.3
144.9808,2714.3
144.9948,53
145.02,312.6
145.0603,46.9
145.0835,114.8
145.2237,95.9
145.2375,338.6
145.2387,100
145.2995,97.8
145.314,273
145.3271,46.2
145.4059,128.9
145.4674,148.6
145.5056,45.3
145.5257,1039.2
145.5591,101.6
145.5895,455.6
145.8295,110.7
145.84,189.8
145.8442,138.6
145.8471,132.7
145.8515,21.1
145.8802,720.4
145.9343,124.9
145.9615,367.1
145.9629,102.8
145.9658,616.6
145.9708,848.7
145.9726,349.8
145.9742,17.4
145.983,122
146.0126,1826
146.019,20975.7
146.0264,169.6
146.0318,125.1
146.1105,214.7
146.2212,304.9
146.3113,112.4
146.3241,158
146.4428,130.8
146.4611,93.6
146.4692,140.1
146.4759,19.4
146.4986,18.9
146.5108,766.2
146.5373,121.7
146.542,264.8
146.5469,345.5
146.549,360.7
146.6022,196.5
146.6092,89.1
146.6173,17.2
146.6729,195.7
146.6953,887.6
146.6974,156.2
146.7043,123.5
146.7325,380
146.7385,628.9
146.7598,306.6
146.8041,260.4
146.8761,89.7
146.9051,23.5
146.9114,434.3
146.9691,17.5
146.974,105.4
146.9819,148782.7
147.0053,54
147.0271,304.7
147.0765,38556
147.1082,579.4
147.1129,25666.9
147.1258,16.3
147.1629,48.6
147.2555,213.9
147.2806,101.1
147.2917,91.3
147.396,584.7
147.4608,496.2
147.5212,98.7
147.5633,252.9
147.5885,293.8
147.641,17.7
147.6572,311.9
147.7094,594.7
147.7312,803.5
147.7359,97.1
147.7659,109.3
147.8139,179.4
147.8229,832.6
147.8447,299.4
147.8889,101.7
147.913,90.2
147.9317,194.2
147.9513,98.8
147.9591,105.9
147.9891,111.9
147.996,114
148.0208,100.9
148.0243,556.5
148.0331,89.1
148.0347,533.8
148.0799,424.5
148.0942,290.1
148.0983,599.8
148.1124,22.6
148.1156,84.7
148.1945,398.6
148.2044,20.3
148.2702,101.1
148.2863,216.7
148.3151,306.7
148.3201,234
148.3697,93.7
148.4015,158.9
148.4466,182.3
148.482,89.8
148.5322,5154.2
148.6446,47.3
148.6745,473.7
148.6875,491.1
148.6892,884.3
148.7177,298.8
148.7477,332.1
148.7865,277.7
148.8006,342.5
148.8185,114.9
148.8236,135.8
148.8629,125.9
148.9533,477.5
148.9612,5769.4
148.9803,929
148.9888,136.9
148.9939,304.2
149.0024,26.4
149.0187,12204.6
149.0235,5216.2
149.1289,132.8
149.1331,780.3
149.1349,365.5
149.1684,19.1
149.2532,18.8
149.2606,293.7
149.4177,810.5
149.4222,146.1
149.4346,354.4
149.5414,99.5
149.5492,51.7
149.6009,409.7
149.7101,133.7
149.7163,40.8
149.735,18.5
149.7697,89.1
149.7749,18.7
149.8117,16.5
149.9873,82.2
149.9929,14823.2
150.0139,6208.6
150.0232,93
150.0267,130.5
150.0608,94.7
150.1608,17.7
150.1645,544.6
150.2153,17.7
150.251,176.9
150.2594,888.1
150.2928,539.8
150.3102,17.4
150.3346,92.8
150.3386,299.4
150.4005,330
150.4134,402.9
150.4208,601.4
150.4288,303.1
150.4839,600.8
150.5733,352
150.6054,193.3
150.6369,545.6
150.6922,132.6
150.7506,984.3
150.8389,407.4
150.8434,126.5
150.9132,224.4
150.9347,646
150.9392,85.4
150.9537,1044.3
150.969,134.3
150.9769,75456.9
150.9842,6147.3
150.9943,281.1
151.0011,89
151.0201,300.1
151.0276,203.2
151.0377,135
151.0479,2028.8
151.0824,377.5
151.1513,154.2
151.173,86.8
151.1778,331.4
151.208,457.5
151.2575,250.1
151.2707,369.3
151.2729,47.1
151.2876,378.5
151.3259,157.5
151.3284,618
151.3527,361.5
151.3545,608.1
151.3886,176.1
151.5496,788.5
151.5875,107.6
151.6046,102.2
151.6707,128.8
151.7506,497.8
151.7755,116.5
151.8422,231.3
151.8442,326.5
151.8511,112.8
151.8635,106.9
151.881,107.6
151.8878,296.6
151.8914,115.7
151.9564,179.1
151.9804,732.9
151.9847,69.3
151.9876,192.3
151.9911,325.5
152.0223,6205.4
152.032,1564
152.0917,559.7
152.1036,179
152.1323,105.1
152.1632,132.1
152.2221,40.3
152.2462,17.9
152.2613,119.1
152.2788,255
152.3001,104.4
152.3691,111.3
152.4802,144.9
152.6278,496.7
152.7547,123.7
152.7688,970.7
152.771,121
152.8597,125.2
152.9751,2744.9
152.9848,37.5
152.9995,18.3
153.0327,170.4
153.0519,445.5
153.0626,106.5
153.0752,533.7
153.0843,241.5
153.159,244.9
153.1865,100.5
153.263,93.2
153.4855,128.8
153.5131,325.2
153.5161,321.3
153.5362,883.9
153.5555,483.2
153.6397,41.3
153.6485,106.3
153.6949,87.5
153.7177,182.8
153.7513,20.4
153.7911,578.8
153.798,134.3
153.8607,145.1
153.9371,292.8
153.9505,137.8
153.9899,573.4
154.0113,530.7
154.0241,84.3
154.0267,1338.1
154.0322,1803.4
154.0589,4430.7
154.0778,409.3
154.0867,198.1
154.0909,257.9
154.0936,20.1
154.1675,97.5
154.1924,98.9
154.2092,28.7
154.2358,724.5
154.2721,534.2
154.2959,739.1
154.3128,257.3
154.3344,202.9
154.3443,299.5
154.4251,759.7
154.4282,517.1
154.4314,56.5
154.4335,437.6
154.5979,113.1
154.6502,943.8
154.6581,90.1
154.7635,520.8
154.7663,126.8
154.8129,133
154.8158,398.4
154.8311,17.3
154.858,116.8
154.8738,389.1
154.8805,618.8
154.9076,77
154.9094,751.3
154.9417,626.6
154.9625,23.5
154.9693,1302.2
154.9755,299.5
154.981,500.8
155.0356,126.3
155.0379,47
155.043,1002.7
155.0541,2798.4
155.1289,495.9
155.1542,18.2
155.1827,89.2
155.1834,88.1
155.2212,204.2
155.2397,572.3
155.246,40.3
155.3665,236.7
155.4334,624.2
155.4389,134.8
155.4691,471.7
155.4857,378.2
155.5205,93.3
155.5286,112.3
155.5568,116.9
155.6096,17.3
155.6261,142
155.6842,23.1
155.702,133.4
155.715,416.4
155.8212,256.3
155.8263,97.5
155.8463,106.2
155.8919,300.8
155.8944,273.7
155.9338,354.1
155.9664,103.6
155.9863,211.6
156.0117,141.6
156.0274,108.4
156.0423,2723.9
156.069,386.9
156.0769,40021
156.1382,114.5
156.1459,805
156.1682,89.6
156.2077,620.8
156.2173,344.8
156.4069,391.9
156.459,152
156.5188,18.7
156.596,145.2
156.6771,106.2
156.7397,680.7
156.7676,517.1
156.7992,473.7
156.9115,287.3
157.0061,121
157.0158,141.4
157.0266,82.3
157.0597,169.8
157.08,954.6
157.0973,116.9
157.1125,756.4
157.1657,292.3
157.1689,234
157.1887,202.8
157.2019,354.4
157.2103,17.9
157.2867,330.2
157.3253,100.7
157.3361,484.6
157.3393,149.8
157.3977,108.2
157.4246,140.4
157.6169,548.8
157.6933,121.3
157.7345,243.5
157.8014,91.7
157.8054,480.1
157.8219,119.1
157.8833,95.2
157.8905,138
157.8994,323.4
157.9032,413.9
157.9707,24.5
158.0006,452.8
158.0058,15.5
158.0116,20.4
158.0272,4582.1
158.1262,20.1
158.2111,202.5
158.2248,492.9
158.3206,102.6
158.3281,139.7
158.557,146.6
158.5807,252
158.5936,394
158.6278,591.8
158.6582,177.2
158.6666,42.6
158.6928,19.2
158.7126,563.9
158.7755,296.9
158.8132,521.7
158.8436,87.9
158.8459,614.7
158.8874,82.4
158.9279,582.2
158.933,215.8
158.9642,12105.5
158.9966,7899.7
159.0306,94.5
159.0854,115.7
159.1575,239.3
159.2026,92.4
159.2293,17.9
159.2541,20.3
159.3506,604.1
159.3528,223.3
159.4223,336.9
159.4345,133.3
159.4625,101.8
159.4768,119.4
159.4922,76.1
159.5398,116
159.5418,327.4
159.5474,622.6
159.5998,127.8
159.6335,140.6
159.7011,248.8
159.7323,168
159.847,173
159.9009,83.3
159.9084,135.3
159.9344,250.3
160.0229,60.8
160.0347,24433.8
160.0422,23.5
160.0606,83848.4
160.0782,513.1
160.1071,848.5
160.1729,228.8
160.251,18
160.2605,561.1
160.2821,67.8
160.3531,99.5
160.3645,814.5
160.3791,97.1
160.3872,129.9
160.4363,290.6
160.4688,257.6
160.4789,188.1
160.4873,211.3
160.4973,295.7
160.5185,181.4
160.545,140
160.5495,93.7
160.5555,18.1
160.6115,502.1
160.7072,99.9
160.7638,225.3
160.8515,41.3
160.8701,98.2
160.9924,185.9
161.0057,864.6
161.0188,892.3
161.0248,330.2
161.0381,92.4
161.0532,108.4
161.0602,130.2
161.064,3709.8
161.0894,133.5
161.1007,935.9
161.1172,135.1
161.1287,323.6
161.1327,877.8
161.1401,728.4
161.1763,88.2
161.1855,48.8
161.2723,139.8
161.3637,306.7
161.441,314.8
161.5083,299
161.5987,347.2
161.6101,200.9
161.6491,17.8
161.6682,19.5
161.7303,104.5
161.9325,817.2
161.9426,463.5
161.9438,456.6
161.9873,103.3
162.009,460
162.0244,20.9
162.0503,26653.4
162.0726,260
162.0838,18
162.1187,206.7
162.2082,534
162.2249,210.4
162.2306,43.2
162.3024,794.6
162.3339,89.8
162.3468,299.8
162.4018,115.5
162.4392,94.7
162.5902,765.9
162.601,201
162.7168,221.5
162.7915,130.8
162.83,111
162.8354,533.1
162.8778,264.1
162.9559,3896.6
162.9888,327
163.0046,22.3
163.0155,2023.2
163.0209,19.5
163.0344,2020.5
163.0391,22.1
163.0534,405
163.0695,93.3
163.0831,455.6
163.1477,21.9
163.1516,344.3
163.1552,18.3
163.184,311.1
163.2182,380.6
163.2338,468.2
163.3387,485.6
163.367,166.1
163.4037,470.2
163.4606,233.8
163.5462,211.4
163.5917,577.2
163.6038,398.1
163.6285,784.1
163.6403,380.7
163.6445,99.4
163.6504,595.8
163.6531,329
163.6583,181.5
163.6691,185
163.7165,153.2
163.7305,81.2
163.7539,340.2
163.8142,532.7
163.8357,177
163.8544,556.9
163.9,100.7
163.9997,35.8
164.0296,16214.2
164.0879,808.4
164.0964,106.1
164.0988,211.9
164.1205,369.2
164.1221,338.7
164.1661,74.5
164.1792,127.7
164.2352,580.8
164.2722,413.3
164.3052,230.2
164.3771,387.7
164.4094,91.1
164.4358,568
164.5026,121.8
164.5191,46.9
164.7283,164.3
164.7546,616.8
164.916,21.8
164.9207,4234
164.9302,23296.2
164.9352,1634.7
164.9689,566.1
164.9731,375.5
164.9848,70.8
164.9895,523.4
164.9926,4038.9
164.9999,676.2
165.0125,18.8
165.055,270.5
165.0793,17.9
165.1624,125.9
165.1715,241.4
165.1956,763.8
165.2145,157.3
165.2204,184.3
165.2446,90
165.2567,527
165.2951,272
165.3023,78.6
165.3228,102.4
165.3564,741.6
165.372,175.3
165.4033,21.4
165.4333,79.9
165.4551,285.2
165.5256,96
165.6652,22.3
165.6749,334
165.7265,84.2
165.745,101.9
165.7543,266.3
165.7905,117.1
165.8389,610.3
165.8817,107.5
165.9246,239.9
165.9669,3256.2
165.9789,2421.5
165.9829,45.9
165.9879,4670.9
165.9951,2319.3
166.0073,149.8
166.089,373.3
166.1009,18.6
166.1255,173.3
166.1333,16.6
166.236,287.6
166.2855,559.6
166.3671,212.7
166.3741,80.5
166.5899,317.1
166.6337,248.6
166.6527,527.6
166.7472,338.3
166.8281,130.1
166.8799,118.1
166.8973,223.2
166.9192,94.5
166.9434,85.5
166.951,23067.2
166.9629,657.3
166.9794,35.4
166.9851,22.8
166.9961,94.9
167,129.4
167.0133,20.9
167.0219,3187
167.029,308.8
167.0407,107
167.0758,942.8
167.088,252.1
167.1448,331.9
167.2014,328.8
167.2504,474.7
167.303,116.7
167.3116,153.2
167.3183,18
167.3287,43
167.3468,200.6
167.3603,260.3
167.3774,18.6
167.3877,89.2
167.398,263.4
167.4413,90.8
167.4638,312
167.4808,203.3
167.4874,17.8
167.4893,85.2
167.5311,209.7
167.5429,331
167.574,125.8
167.5874,541
167.6595,137.6
167.7605,465.6
167.7662,145.3
167.8013,19.5
167.8159,53.5
167.8735,222
167.9109,433.1
167.9805,178.1
167.9945,3346.8
168.0283,98
168.0563,733.9
168.1326,18.4
168.2169,315.3
168.2867,162.9
168.2891,334.3
168.2972,343.5
168.3401,267.2
168.3429,107
168.3573,601.3
168.3648,82.5
168.403,174.9
168.4243,85.3
168.5002,140.3
168.5602,41.9
168.6158,115
168.6317,119.8
168.6441,144.9
168.6787,481.2
168.7308,293.9
168.7613,102.7
168.8651,302.8
168.909,230
168.9252,61.3
168.937,487.4
168.9491,2142.1
168.9881,79.5
168.9947,89.5
169.0586,47383.8
169.0649,155.8
169.0948,3007.2
169.0973,302.7
169.1501,126.9
169.3347,332
169.3691,22.2
169.4462,339.1
169.4575,377.4
169.4741,83.4
169.5316,616.2
169.5354,297.4
169.5992,261.3
169.6748,303.3
169.7356,135.9
169.8282,296.4
169.8958,177.6
169.912,192
169.9182,502.9
169.9251,22.2
169.9526,450.1
169.9645,357.3
169.9724,521.8
169.9862,1137.5
169.991,29.6
170.0271,20.3
170.0329,6881.9
170.0576,162.5
170.062,722.9
170.0654,156.6
170.0836,85.8
170.0926,52043.4
170.1414,518.3
170.1999,166.4
170.2508,86.8
170.2575,119.1
170.3503,283.1
170.3583,202
170.3617,364.5
170.3915,177.3
170.3925,183.1
170.4579,287.9
170.5171,45.4
170.5946,872.7
170.6398,117.2
170.7057,189.3
170.8044,497.9
170.8259,18.1
170.8545,3885.7
170.9121,476.4
170.9141,203.5
170.9434,362.1
170.9948,542.8
171.0169,1448
171.0282,79.8
171.0803,42.3
171.0856,17.4
171.096,1164.6
171.1059,99.4
171.1115,144.7
171.1173,138
171.1698,713.4
171.2819,441.5
171.2976,111.3
171.3135,198.5
171.3912,149.2
171.4204,122
171.4857,224.3
171.5125,180.7
171.5607,377
171.5991,123.4
171.6455,244.5
171.6829,321.6
171.6942,561.5
171.7008,43.8
171.7076,981.6
171.7505,167.2
171.7905,142.7
171.8591,94
171.9133,131.9
171.943,367.5
172.0283,1188
172.0596,98.1
172.0886,88.5
172.1367,213.9
172.1976,1092.5
172.2633,593.3
172.3076,100.2
172.3688,630.1
172.3752,747.4
172.4353,492.2
172.4581,367.2
172.4669,103.1
172.5045,19.5
172.5712,195.4
172.6499,17.5
172.6743,16.6
172.7448,202.9
172.8137,19.2
172.8425,222.3
172.8516,2536.9
172.8995,26.8
172.9322,237.9
172.9368,148.9
172.9457,330.9
172.9548,58.7
172.9567,319.1
172.9777,106.1
173.0269,314
173.0298,378.4
173.0894,122.4
173.0953,80.7
173.1287,948.4
173.2721,165.2
173.392,18.5
173.4164,136.4
173.4734,150.2
173.5834,169.4
173.5907,348.4
173.6754,351.4
173.6998,122.1
173.7022,18.3
173.7051,316.8
173.7094,557.2
173.8275,18.3
173.8699,85
173.9072,747.2
173.9317,143.4
173.9392,76.7
173.9598,762.2
173.9994,165.1
174.0173,473.5
174.0312,389.3
174.0919,240.4
174.104,357.1
174.1141,224.2
174.1281,491.2
174.1622,294.8
174.2229,761.1
174.2989,82.7
174.3188,134.3
174.3196,137.2
174.3428,120
174.3903,268
174.4319,518.7
174.4567,89.1
174.4868,91.1
174.5479,841.4
174.582,167.4
174.5916,346.6
174.6364,22.5
174.7129,343.1
174.7546,136.6
174.7952,828.7
174.81,87.4
174.8141,480.4
174.8612,97
174.9003,183
174.9282,98
174.9383,4072.8
174.9691,1250.5
174.9774,155.9
174.9904,450.1
175.0016,514.2
175.0344,15030.3
175.0456,3230.9
175.0957,321.9
175.1192,38649.8
175.1358,19
175.2903,125.9
175.3897,50.3
175.4351,498.6
175.4377,505.1
175.4586,165.7
175.484,101.3
175.5698,134.3
175.5818,285
175.6159,17.5
175.7168,46.9
175.7514,792.8
175.8161,750.2
175.8266,132.1
175.8442,287.9
176.001,229.8
176.0087,8589.7
176.0409,405.1
176.0661,40844.2
176.1228,406.4
176.1725,508.1
176.1827,255.4
176.1975,848.2
176.2741,323.5
176.4479,386.9
176.4544,247.7
176.4613,108.5
176.4718,276.9
176.4748,562.1
176.4995,144.3
176.5392,233.9
176.5903,81.5
176.6083,93.3
176.623,413.4
176.6798,311.5
176.7437,179.8
176.7845,18.3
176.8183,311.8
176.8552,202.5
176.8794,100.1
176.894,74.8
176.9253,760.8
176.9334,26.2
176.9364,588.2
176.9578,171.4
176.9927,3599.7
177.0249,5953.1
177.0467,118.1
177.0613,4678.2
177.0694,1016.1
177.1124,27
177.242,18.6
177.2929,170.6
177.3334,119.1
177.4222,19.7
177.4409,211
177.5226,187.3
177.5575,355.8
177.5749,318.6
177.6426,207.6
177.6688,240.7
177.7026,244.6
177.7903,110
177.8447,109.9
177.8513,414.8
177.893,99
177.8945,134.7
177.9714,160.7
177.995,77.7
178.0089,13271.8
178.0165,83.6
178.0243,12653.3
178.0476,147.4
178.059,3031.7
178.0833,18
178.1316,554.4
178.2795,312
178.3179,21.2
178.3758,92.8
178.3855,889.5
178.4098,274.2
178.5277,94.3
178.5516,48.5
178.621,203.5
178.6561,100.8
178.7291,328.8
178.7741,95.7
178.7894,178.8
178.7921,71.6
178.8778,122.6
178.893,60.1
178.9054,253
178.9217,42.7
178.9357,109.3
178.9392,365.3
178.9722,96.5
178.975,491.4
179.003,128.8
179.0084,614.8
179.0153,19.5
179.0255,184.5
179.1406,345.8
179.2165,213.9
179.2425,571.9
179.2614,212.5
179.3205,103
179.3457,119.6
179.3845,443
179.3982,22.2
179.4401,112.1
179.4715,231.2
179.6228,291.6
179.686,104.4
179.6908,420.5
179.7246,314.1
179.8547,21.7
179.8917,75.2
179.8947,20.1
179.9089,21.3
179.9719,20
180.0036,8755.5
180.0108,158.6
180.0998,811.7
180.1053,352.3
180.1749,749.4
180.3034,692.9
180.4686,119.3
180.6087,424.3
180.6495,325.3
180.8243,376
180.8433,342.5
180.8508,252.5
180.8884,1146.6
180.8946,3226.5
180.9042,9314.5
180.9796,94.4
180.9915,189.7
181.0026,280.9
181.0161,30.9
181.0264,553
181.0315,275.2
181.0651,7548.2
181.1886,87.3
181.3085,403.2
181.401,96
181.4075,229.5
181.4304,736.6
181.4504,180
181.4919,136.6
181.583,646.5
181.6359,18.7
181.7179,92.6
181.7317,86.5
181.7479,523.5
181.7631,334.7
181.8332,75.7
181.845,138.1
181.8909,230.9
181.9438,136.2
181.9511,93.1
181.9687,184.6
182.0111,48.4
182.0427,35387.5
182.0815,260.6
182.1829,598.3
182.1984,158.1
182.3805,16.5
182.4567,90.4
182.5119,94
182.5893,105.8
182.6266,101.8
182.6793,299.2
182.696,197.2
182.7328,455.3
182.7424,105.5
182.7739,313.8
182.812,145.2
182.8819,21
182.9024,54.1
182.9412,23.3
182.9533,28.1
183.0267,93.5
183.0445,1729.6
183.0756,506.2
183.3975,148.3
183.4044,349.6
183.4667,183.9
183.4951,626.2
183.6325,129.9
183.7382,537.4
183.7796,192.1
183.8691,845
183.8962,92
183.9651,1773.4
184.017,98.7
184.0197,329.7
184.0288,458.1
184.0375,369.1
184.0682,1666.2
184.0736,4418330.5
184.0797,744.1
184.1096,72.8
184.1566,160.7
184.1698,33.7
184.1781,123.9
184.1823,2516.3
184.3139,309.2
184.4384,134.4
184.6189,91.9
184.6223,96.3
184.7009,191.5
184.73,88.2
184.7768,93
184.8522,19.4
184.8902,21.1
184.9058,43.2
184.93,26.7
184.9553,18.5
185.0325,42316
185.0536,226.2
185.0706,8026.7
185.0769,201724.5
185.0796,3049.4
185.1325,80.9
185.2773,201
185.3586,98.6
185.3619,111.1
185.3783,89.5
185.4613,336.3
185.5284,210.2
185.6702,117.1
185.7443,285.7
185.7629,100
185.77,156.9
185.8022,402.4
185.8257,50.9
185.8509,137.9
186.0303,123.4
186.0359,461.3
186.0778,27497.2
186.0938,411.6
186.1597,16.6
186.2168,319.5
186.2307,523.9
186.2577,94.8
186.2667,21.1
186.2727,84.3
186.3043,304.5
186.3244,315.1
186.3948,269.4
186.4835,293.2
186.5129,247.7
186.538,571.1
186.5402,193
186.5467,276.9
186.6814,166.6
186.7295,23
186.7527,307.6
186.8037,94.3
186.8438,140.8
186.8785,55.3
186.9123,6320.2
186.9226,270.1
186.9527,128.2
186.9586,318.8
186.9668,504.6
187.0013,424.4
187.0276,239
187.0307,1538.9
187.0454,131.8
187.0533,209.8
187.058,20917.4
187.0646,434.9
187.0717,1015.5
187.1035,534.7
187.108,1636.2
187.2263,18.9
187.2291,17.5
187.2475,122.3
187.2891,88.6
187.3171,20.4
187.3515,177
187.404,228.2
187.4598,324.1
187.5121,171
187.5296,140.6
187.6148,247.3
187.6386,501.2
187.706,600.6
187.7469,84.5
187.8416,97.1
187.8801,351.4
187.9064,198.2
188.0613,198.2
188.1863,18.1
188.1923,921.8
188.2196,370.5
188.2467,17.7
188.2522,775.4
188.356,119.9
188.461,163.6
188.5117,17.9
188.5138,512.9
188.6179,112.9
188.6377,99
188.6675,124.8
188.6785,114.1
188.7233,897.7
188.7281,17
188.7642,259.5
188.8321,94.1
188.8398,573.6
188.8492,255.6
188.8774,31.1
188.9448,702.5
188.9539,512
189.0154,320.9
189.0212,56.8
189.037,144.2
189.0613,3262
189.0873,6347.8
189.1685,107.4
189.2658,255.2
189.3427,584.2
189.3983,183.9
189.4167,174.2
189.428,18.8
189.4552,306.9
189.5188,122.7
189.5711,246.5
189.6255,205.4
189.7078,282.6
189.7829,114.2
189.8491,153.1
189.8784,103.1
189.929,191.9
190.0168,406.5
190.0293,319.4
190.0369,364.6
190.0514,85.6
190.058,583.6
190.0811,95.2
190.131,271.7
190.2946,101.6
190.419,334
190.4494,830.6
190.4532,343.8
190.5342,108.5
190.5521,394.3
190.5959,329.4
190.6386,18
190.7435,290.2
190.7843,134.5
190.806,220.7
190.8728,711.4
190.9097,36.6
190.9313,104.3
190.9443,42.8
190.9894,259.4
191.0004,154.4
191.0084,7452.5
191.0341,245.1
191.0406,129361.1
191.077,25884.1
191.1279,154.9
191.1535,206.8
191.1928,370.9
191.2355,308.7
191.3399,300.2
191.4707,729.9
191.4923,98.7
191.6204,140.6
191.6326,202.7
191.6393,138.6
191.6497,100.5
191.726,121.6
191.7746,112.1
191.797,47.6
191.9284,167.3
191.9827,524.6
191.995,141.3
192.015,1572.4
192.0401,16868.9
192.0441,4202.6
192.0966,177.1
192.1091,107.3
192.1738,580.1
192.199,952.8
192.2716,20.6
192.3734,136.6
192.4007,235.5
192.4036,95.6
192.4243,92.7
192.6495,301.8
192.7389,379.8
192.9048,100.8
192.911,111.9
192.9219,89.1
192.9799,734.8
192.9989,3464.8
193.016,190.3
193.0316,24.3
193.0355,1150.4
193.0535,119.4
193.1618,41.8
193.1983,123.9
193.3174,17.1
193.3764,306.8
193.4366,162.6
193.5023,356.5
193.5145,191.9
193.518,96
193.5452,455.5
193.7798,314.4
193.8129,94.2
193.8631,315.8
193.8938,17.5
193.9083,586.1
193.9196,18.9
193.9396,985.1
193.9433,279.6
193.987,20.5
193.9982,1813.6
194.0052,1046.6
194.0327,1108.9
194.0764,98.1
194.0923,281
194.124,46.9
194.133,377.6
194.1544,47.2
194.1908,112.4
194.2465,361.3
194.2741,174.7
194.2799,112.3
194.3237,546.5
194.3443,536.6
194.376,476.4
194.3887,514.3
194.399,806.8
194.419,41.2
194.4935,342.8
194.5024,113.9
194.5679,638.4
194.6224,131.6
194.701,523.2
194.7146,154.6
194.8018,20.3
194.8204,302.2
194.863,346.4
194.882,86.8
194.8993,91.6
194.9041,287.4
194.9313,102.5
194.9621,396.3
194.9987,202.8
195.0014,157.2
195.0114,30.6
195.0322,118.8
195.0357,409.4
195.0772,190.4
195.109,639.8
195.1523,532
195.1737,122.2
195.2147,18
195.3322,112.4
195.3645,508.3
195.4032,140.2
195.4662,224
195.4746,465.7
195.5996,145.4
195.6045,254.7
195.702,322.1
195.7503,19.1
195.7753,759.5
195.8304,149.5
195.8482,779.2
195.8772,167.6
195.9113,200.6
195.9684,165.4
195.9819,22
196.0031,318.8
196.0489,607.6
196.0794,516.5
196.1699,343.8
196.1862,671.1
196.2058,171.2
196.2162,272.9
196.2852,229.6
196.3025,763.8
196.4371,112.6
196.5374,135
196.5943,358.7
196.6064,255.5
196.6342,185.8
196.6654,307.7
196.6742,525.8
196.702,103.8
196.7608,18.5
196.8584,418
196.8655,7195.2
196.8688,438.9
196.878,912.6
196.9326,578.2
196.9567,132.9
196.9749,216
197.0016,296.3
197.0263,43.8
197.0502,239.2
197.0602,155.4
197.0665,100.6
197.0722,356.7
197.131,266.8
197.203,823.3
197.2913,261.7
197.4741,489
197.558,351.1
197.6015,264.6
197.6969,274.8
197.7451,94.7
197.7477,201.6
197.7871,18.7
197.8675,107.8
197.8912,171
197.9291,18.3
197.9436,361.4
197.9921,443.6
198.0073,141.6
198.0852,1576.6
198.1621,80.6
198.1803,495.8
198.1855,5743.8
198.3077,17.8
198.3188,17.5
198.3669,157.4
198.3852,85.9
198.4377,467.9
198.4386,410.3
198.4564,830
198.5317,236.6
198.5584,16.9
198.5672,108.6
198.669,100.8
198.682,45.3
198.721,211.7
198.7587,384.2
198.7635,521.6
198.7755,97.5
198.8625,6942.2
198.8663,320.2
198.8795,244.4
198.9006,20.7
198.9079,352.5
198.9193,138.1
198.9489,196
198.9525,19.8
198.9727,418
199.0167,221.3
199.0221,344.2
199.044,143.4
199.0757,1309.1
199.0806,49.4
199.1119,343.3
199.1715,191.3
199.1889,222.9
199.1934,506.9
199.2316,521.1
199.2613,318.8
199.2722,95.5
199.3161,493.7
199.3207,380.2
199.3926,132.4
199.5576,101.9
199.5947,324.4
199.6022,107
199.6437,17
199.6504,113.8
199.6534,359.2
199.6992,344.4
199.8554,335
199.9309,712.1
199.991,31108.7
200.0269,638.4
200.041,16269.3
200.046,110.6
200.0801,124.3
200.0829,25.1
200.1144,517.4
200.1287,12918.3
200.1527,197.8
200.1787,605.8
200.1829,239.8
200.1882,313.5
200.2147,165
200.3912,217
200.4324,306.8
200.48,107.1
200.4884,19.6
200.5565,597.4
200.5669,131.1
200.5778,354.1
200.6417,126.5
200.7855,571.7
200.8154,18.1
200.8596,1705
200.8946,2310.5
200.9347,175.6
200.9627,731.8
201.055,164.3
201.0819,403.5
201.0874,140.7
201.1276,172.2
201.184,191.2
201.1922,284.8
201.3991,138.8
201.4019,18.7
201.4124,140.2
201.5401,328.7
201.5517,19
201.5708,100.9
201.6806,464.2
201.6887,95.1
201.6964,184.7
201.7014,191
201.783,101.5
201.8651,174.6
201.8909,454.1
201.8946,120.3
202.0163,102
202.0375,476.5
202.1242,104.4
202.2561,222.6
202.362,89.1
202.3634,84
202.4968,14792.1
202.5033,93.6
202.681,142
202.818,334.3
202.8818,964.1
202.8862,369
202.8955,84
202.9646,245.5
203.0159,85.7
203.0274,161.8
203.032,6822
203.0529,1679832.3
203.077,8763.5
203.1034,294.8
203.1117,217.9
203.1319,347.8
203.1791,910.9
203.2052,18.5
203.2576,95.8
203.2999,232.9
203.3193,109.9
203.5334,91.7
203.5369,301.4
203.6395,117.4
203.6832,143.6
203.7647,144.9
203.7964,355.8
203.8382,88.2
203.8819,136.2
203.8859,208.1
203.9108,158.9
203.918,20.5
203.9219,198.4
203.9461,44.2
203.9731,745.6
204.018,594.1
204.0203,350.5
204.0247,47535.4
204.0318,419.4
204.0563,87891.3
204.061,110.4
204.2615,98.1
204.4418,126.4
204.4591,656.8
204.5214,215.4
204.5363,307.1
204.6666,354.6
204.8294,279.5
204.8456,293.7
204.8735,105.5
204.889,659.2
204.8974,106
204.9412,353.1
204.9933,812.2
205.006,186.6
205.0162,38.3
205.0572,12585.3
205.1605,118.8
205.1987,347.7
205.3254,92.2
205.3291,145.6
205.403,197.3
205.4653,92.6
205.5133,54.8
205.5637,347
205.5859,363.3
205.6809,197.5
205.7902,18
205.8894,21.8
205.9106,20
205.9713,425.6
206.0478,179.4
206.0791,101.8
206.138,90.8
206.197,312.3
206.2174,361
206.2443,331.1
206.3689,114.4
206.5945,199.7
206.6521,476.5
206.6992,182.9
206.7311,18.4
206.7854,561.8
206.8828,87.8
206.888,129
206.8942,22137.3
206.917,407.9
206.9484,191.3
206.9825,2504.2
206.998,241.3
207.0146,65709
207.0318,52.7
207.0445,944.8
207.051,10693.2
207.0921,876
207.0982,85.6
207.1544,637.6
207.1666,384.8
207.1799,104.8
207.1997,160.5
207.2915,355.1
207.3664,20.1
207.3795,311.3
207.4135,228.2
207.5397,18.4
207.5788,56.9
207.5868,316.6
207.6282,397.2
207.6751,231.4
207.8084,46.8
207.8865,110.8
207.894,117.7
207.97,273
207.9867,295.9
207.9909,1353
208.014,1203.4
208.018,598.8
208.0402,78.4
208.0435,19.8
208.0976,120.1
208.1685,129.2
208.1779,104.7
208.2146,438.5
208.2169,127.2
208.2287,411.3
208.4292,573.8
208.4372,299.2
208.5272,549.6
208.529,905.7
208.53,816.5
208.5626,235.8
208.7397,94.3
208.8133,611.3
208.8715,199.4
208.8834,2472
208.8913,11625.1
208.9187,234.1
208.9359,1714.9
209.0126,1037.5
209.1711,39.5
209.4447,105.6
209.5061,319.3
209.5438,890.3
209.6021,825.3
210.0018,18.2
210.6394,96.4
210.6999,771.4
210.7254,162.2
210.7358,479.2
210.7571,286.6
210.7916,282.4
210.8838,39
210.8884,929.8
210.9156,516.6
210.9484,85.9
210.999,108.7
211.0533,371.1
211.0693,1457
211.0736,222.8
211.1334,586.3
211.1459,163.2
211.1589,5041.7
211.1646,4741.8
211.1689,7548.3
211.1714,11033
211.1757,20728.7
211.179,30335.4
211.1825,26052.1
211.1871,15452.4
211.1943,1337.3
211.198,474.8
211.2164,236.2
211.241,45.2
211.2484,785.8
211.439,412.1
211.5565,814.2
211.5922,380.6
211.7618,100.3
211.8016,704.4
211.8673,87.4
211.9394,23.3
211.9443,75.7
211.9589,28.4
211.9672,57.9
211.9884,132
212.0194,979.6
212.0244,721
212.0473,317.9
212.0584,105.9
212.0744,84.1
212.0857,92.9
212.1791,124.1
212.1854,148.5
212.2224,491
212.3707,363.1
212.4425,119.2
212.4636,410.2
212.5978,106.6
212.6205,442.8
212.6668,180.6
212.696,20.4
212.7176,276.9
212.7247,186.9
212.7938,303.6
212.8156,90.8
212.8396,1682.9
212.8605,307.4
212.8706,146.2
212.9655,34.6
212.9821,829.4
213.0005,956.1
213.0326,64.8
213.0561,513.4
213.0632,19.6
213.08,125.2
213.1052,128.9
213.1083,113.9
213.1775,305.5
213.1809,407.9
213.2028,220.3
213.2255,424.8
213.3586,126.8
213.5092,283
213.5351,708
213.6622,82.4
213.6846,88.2
213.8127,500.9
213.8717,157.3
213.9078,571.2
213.9415,307.6
213.9623,3506.9
213.985,320.8
214.0413,213.4
214.0567,2487.5
214.09,1210.7
214.1584,229.7
214.1649,185.1
214.3508,306.4
214.3652,152.5
214.489,92.8
214.7642,264.2
214.777,124.4
214.8365,1441.6
214.859,19.2
214.8739,153.8
214.8927,626.7
214.9103,428.2
214.9139,279.3
214.9178,529.9
214.9656,70.2
215.0434,228.7
215.0708,167.5
215.0934,52.8
215.1227,772.9
215.1446,92
215.2943,288.6
215.297,483.5
215.2999,94.7
215.3392,20.4
215.3708,119.3
215.4299,522.4
215.4356,56.4
215.4602,51.3
215.566,497.4
215.7622,119.4
215.8235,199.8
215.8428,100.1
215.873,312.4
215.8811,25.1
215.958,24.9
216.015,8518.2
216.0324,589.9
216.0386,289.6
216.0594,100.2
216.0714,213.5
216.086,20.9
216.093,20.9
216.2719,110.9
216.4067,821.7
216.6211,274
216.8245,722.4
216.8894,32.6
216.9013,122
216.9231,60717.6
217.0237,20.5
217.0275,461.6
217.0338,404
217.0561,351.2
217.0752,777.6
217.0942,174
217.1724,215.7
217.2389,831.7
217.2855,238.7
217.296,133
217.3528,490.1
217.3738,405.9
217.476,117.3
217.493,310.6
217.565,177.8
217.6797,398.3
217.684,166.3
217.703,114.9
217.7532,19.4
217.7889,176.3
217.7963,183.9
217.8102,393
217.821,20.8
217.8966,24.9
217.9585,505.2
218.0804,1040.9
218.1517,35.1
218.2168,168.2
218.2224,103.3
218.2979,91.8
218.4237,111.3
218.4703,18.8
218.5249,325.4
218.5807,386.3
218.589,464.6
218.6154,140.8
218.619,212.2
218.6319,295.6
218.7509,150.2
218.793,251.7
218.8394,19.5
218.8678,260.1
218.9054,536.4
218.9202,17267.1
218.9642,437
219.0179,1397.8
219.0269,1613549.8
219.0343,312.7
219.0475,20.4
219.0834,4916.9
219.1546,789.8
219.1609,264.1
219.2112,299.5
219.3669,296.6
219.488,889.8
219.5023,19
219.5546,285.4
219.5639,904.7
219.5689,109.9
219.6001,130.8
219.6669,318.8
219.7024,1011.2
219.717,111.1
219.7237,106.8
219.9023,136.7
219.9433,479.5
219.9681,17.8
220.0303,86997.2
220.0376,667.3
220.0672,1549.4
220.1676,402.5
220.235,127.1
220.2396,228.6
220.2512,215.1
220.2812,116.2
220.2874,633.3
220.33,331.9
220.3658,304.5
220.4647,731.5
220.4661,727.5
220.5123,113.3
220.5247,19.2
220.5642,334
220.6219,19.5
220.8362,250.5
220.8691,160
220.8842,66.5
220.8869,98.2
220.9052,98.3
220.9351,593.2
221,84.9
221.001,86.6
221.0194,1023.9
221.025,99891.9
221.0312,14057.7
221.0513,1084.3
221.0706,473.8
221.0848,53
221.0879,598.8
221.1246,508
221.2129,117.5
221.3062,251.8
221.3507,300.2
221.5288,278.6
221.6467,85.1
221.7866,157.9
221.9015,18.3
221.9125,393.2
221.937,101.6
221.9566,177.9
221.9839,850.2
221.9881,145.1
222.0166,550.8
222.0193,505.6
222.0284,1352.6
222.0498,109.1
222.1281,416.5
222.167,91.9
222.219,524.1
222.2273,256.6
222.23,252.4
222.2448,591.7
222.315,522.8
222.6221,132.2
222.7157,764.9
222.7491,770.9
222.8123,21.6
222.8633,152.3
222.8682,15200.4
222.8791,1137.3
222.8892,863.7
222.8991,870.5
222.9542,1553
222.9612,17.9
222.9885,4722.5
223.037,963.7
223.0406,320.2
223.1279,120.1
223.1557,20.3
223.1589,148.8
223.2646,299.2
223.272,110.9
223.2758,138.8
223.3144,848.5
223.3916,137.1
223.4251,96.7
223.4646,439.2
223.5216,18.5
223.5731,353
223.6269,85.8
223.6583,113.7
223.7234,225.8
223.8057,304.2
223.8242,117.4
223.8466,78.4
223.92,142.8
223.9531,415.7
224.0454,663.3
224.0572,274.8
224.16,196.1
224.189,321.3
224.2204,406
224.2394,602.9
224.2761,114.9
224.301,961.6
224.3096,97.6
224.3622,799.5
224.4277,248.4
224.4514,314.7
224.4732,108.9
224.4935,127.1
224.5387,447.8
224.6099,336.5
224.6569,837.2
224.7098,877
224.8107,131.9
224.8461,23.5
224.8498,308.2
224.8652,7536.9
224.9161,271
224.9276,151.1
224.9296,152.7
224.9308,165.7
224.9369,848.9
224.9471,292.5
224.9566,24.5
225.024,25.7
225.0349,919.8
225.055,23986.6
225.0631,19.6
225.085,700.2
225.1915,281.6
225.2226,17.9
225.3279,272.7
225.3488,18.7
225.4014,133.2
225.4255,141.9
225.5043,147
225.5707,249.4
225.5753,151
225.627,106
225.6465,88.7
225.6591,18.7
225.73,110.1
225.848,111.2
225.8633,306.9
225.9522,26.5
225.9624,72.5
226.0019,67.4
226.0067,2246.5
226.0245,9029.1
226.0455,7203.4
226.0589,321.7
226.1061,358.4
226.1451,21.3
226.1591,110
226.1644,575.3
226.2255,18.6
226.274,218.3
226.3251,347
226.4138,20.9
226.4374,524.1
226.4596,215.3
226.5571,153.9
226.5696,215
226.632,296.9
226.6726,604.3
226.699,92.7
226.894,53
226.9197,270.5
226.9278,48
226.9342,339.6
226.9519,46535.1
226.9795,673.7
227.0275,339.7
227.0342,154.2
227.0431,231.4
227.0733,89
227.0793,2896.9
227.0868,160.8
227.1299,1509.3
227.1511,407.1
227.1813,837.2
227.1965,611.5
227.2398,19.8
227.246,552.7
227.399,814.3
227.609,98.1
227.6488,712.7
227.7514,689.7
227.804,143.5
227.8088,573.9
227.8372,188.5
227.9409,90.4
227.9563,577
227.962,355.8
228,521.3
228.0221,746.8
228.057,120
228.0963,95.7
228.1003,161.1
228.1692,198.8
228.1846,108
228.2966,113.8
228.3001,392.2
228.3181,343.8
228.3675,370.7
228.3784,113.9
228.5454,473.3
228.6568,148.9
228.7117,22.1
228.7575,109.9
228.8895,36.3
228.8975,285.8
228.9266,880
228.9447,476.6
228.9604,173.3
228.9659,22.3
228.9966,601.1
229.0503,232.1
229.1004,623.4
229.1024,434.8
229.105,341.2
229.3007,149.1
229.4493,20.4
229.5419,527.5
229.5499,168.7
229.6671,678.1
229.6707,781.3
229.7192,227.6
229.8564,19
229.9445,108.8
229.9573,10231.1
230.0303,348.1
230.0334,137.7
230.055,18.2
230.091,21.6
230.1507,349.2
230.1742,295.5
230.1973,301.8
230.2112,105
230.2324,188.5
230.2609,173.5
230.3294,88.6
230.3548,479.1
230.3597,183.5
230.4724,105.1
230.4889,112.6
230.5136,140
230.5686,96.3
230.7226,18.7
230.7332,137.6
230.8023,102.9
230.8904,627.7
230.9607,360.1
230.9906,26.6
231.002,21
231.0568,93.8
231.1609,281.9
231.2562,109.4
231.3373,207.3
231.4192,103.9
231.4447,586.8
231.4576,326.3
231.4966,127.3
231.5054,105.2
231.5931,220.4
231.6007,627
231.6809,17.2
231.8371,144.5
231.9173,599.3
231.9265,91.9
231.9532,235.4
231.9578,279
231.9729,156.5
231.9945,583.3
232.1353,920.5
232.3215,19.7
232.3303,98.7
232.3357,567.1
232.404,853.6
232.4686,156.4
232.4782,403.1
232.4996,574.6
232.5176,104.8
232.657,356.6
232.7214,386.4
232.7622,171.8
232.8836,147.7
232.897,41164.5
232.915,567.1
232.9206,53.4
232.9855,615.3
232.9929,104.6
233.0085,102.8
233.0513,10497.4
233.1544,91.4
233.253,200.6
233.2766,619.6
233.355,96.8
233.3636,858.8
233.5151,125.4
233.5753,155
233.6361,189.3
233.8665,19.7
233.8974,508.2
233.9468,19.5
233.9533,40.9
234.0437,384.9
234.1235,47.4
234.212,313.4
234.4071,320.9
234.5311,46.3
234.6224,18
234.8312,511.3
234.8387,173.3
234.8835,60.5
234.8941,10223
234.9,68.6
234.912,20.6
234.9278,27.1
234.9506,747.2
234.9818,8056.9
234.9869,133.1
235.0671,790.9
235.0797,382.9
235.0929,8721.4
235.1018,278.2
235.1562,19
235.1835,251.7
235.2497,205.8
235.2997,243.1
235.3184,113.3
235.4043,101.3
235.5223,568.6
235.5402,213.9
235.572,266
235.6348,43.7
235.8611,91.8
235.9467,849.2
236.0222,827.9
236.035,108.5
236.072,53241.2
236.1415,185.1
236.2968,123.9
236.3225,158.6
236.3935,229
236.4057,114.8
236.5201,22.7
236.5965,309.3
236.6746,225.4
236.7187,361.8
236.7585,134.8
236.8453,109.4
236.8784,381.5
236.9073,123.2
236.9147,26.4
236.9179,20.9
237.0526,106.2
237.0753,1880
237.0939,98.3
237.1051,1020
237.1253,91
237.2696,17.7
237.4595,399.7
237.5969,534.9
237.7859,94
237.8171,302.6
237.8952,772.6
237.9182,402.9
238.0221,323.3
238.0678,603.6
238.0766,45.7
238.1083,98
238.2198,17.7
238.3237,489.6
238.4326,548.6
238.5287,205.4
238.6413,20
238.8421,4568.3
238.8531,789.3
238.8629,784.5
238.8837,20.5
238.9376,109.2
238.9434,143
239.0094,6748.2
239.0295,253.8
239.0492,188.5
239.0539,96.8
239.0642,518.3
239.0683,1145.4
239.1727,207
239.192,654.3
239.3452,175.6
239.4174,166.8
239.4392,177.8
239.4804,23.2
239.5228,206.2
239.5565,95.2
239.5756,306.8
239.6014,533.4
239.6098,163.6
239.7547,333.1
239.7831,101.9
239.8133,106.5
239.8916,18.9
239.9194,173.2
239.9238,386.1
240.0313,544.1
240.0676,530.5
240.1003,1152.9
240.1253,497
240.192,92.2
240.2031,344.5
240.2338,106.2
240.2459,626.6
240.2776,571.8
240.368,115.3
240.4334,45.7
240.5375,309.1
240.5818,98.9
240.6697,529.1
240.7199,316.9
240.8391,1833.6
240.9141,107.9
240.9549,1598.2
240.9673,1165.2
241.0497,156.2
241.1347,325
241.1549,501
241.1918,100.9
241.2922,220.3
241.3014,313
241.3046,158.9
241.3928,19.5
241.434,152.3
241.4454,262.9
241.4651,811
241.4887,137.5
241.5096,105.6
241.5417,139.9
241.5536,202.8
241.6005,342.4
241.6538,393.7
241.6992,180.2
241.7123,173.4
241.748,786.8
241.8603,111.8
241.9144,19.4
241.9777,161.7
241.9985,1242.7
242.0194,3709.7
242.0349,127.6
242.0407,734.4
242.1563,86.1
242.1589,105.5
242.2625,290.3
242.3136,370.8
242.4116,169
242.4287,155.5
242.4404,297.1
242.5023,297.4
242.511,564.9
242.5419,541.7
242.5535,315
242.5882,159.1
242.6362,807.2
242.7286,164.4
242.8131,23.5
242.8466,97.3
242.864,300.3
242.8756,488.5
242.8785,314.8
242.9258,21286.1
242.9448,170.9
242.9759,50.5
242.9828,474.1
243.0066,721.1
243.0332,561
243.0534,6831.2
243.0657,8833.5
243.0852,20.2
243.2259,145
243.2856,158.4
243.5785,178.6
243.5961,87
243.7426,540.8
243.9244,816.7
243.973,4572.8
244.013,219.8
244.0481,125.2
244.0577,319.7
244.1923,743.4
244.2752,150.9
244.465,474.8
244.5434,229.7
244.6152,630.6
244.7003,558.1
244.7324,134.5
244.7569,460.2
244.7956,584.8
244.8711,11145.4
244.924,809.7
244.9763,252.1
245.0795,144.5
245.2936,343.2
245.3637,83.1
245.5227,400.1
245.6625,234.3
245.6878,107
245.6983,624.5
245.7498,149.5
245.8223,525.8
245.8537,473.1
245.8637,58.3
245.9689,62.8
245.9745,416.8
245.9886,127.4
246.0015,108.9
246.0114,23.4
246.2714,425.5
246.4566,309.5
246.4752,96.7
246.6093,104.9
246.7067,20.3
246.7137,100.4
246.7834,421
246.8079,85.8
246.8516,525.4
246.8627,802.7
246.8681,1702.8
246.9,19.1
246.9255,566.7
246.9519,2582
246.9705,43.7
247.0115,338.2
247.0174,347.5
247.032,338.4
247.0372,432.5
247.0576,248
247.0673,1118.3
247.0752,92.8
247.0929,4631.2
247.1126,530.1
247.1559,108.8
247.1943,136.3
247.2266,130.6
247.2798,195.5
247.2984,566.8
247.4498,329.8
247.4613,193.1
247.4925,262.1
247.5133,120.4
247.531,273.6
247.6078,343.6
247.6504,350.3
247.7035,354.5
247.7413,134.6
247.9007,587.8
247.9679,605.8
247.9836,863.7
248.0697,253.6
248.1245,8634.4
248.1495,358.5
248.2536,180.7
248.4784,104.7
248.4886,117.9
248.6524,21.2
248.6783,507.6
248.7216,147.6
248.7454,114.4
248.7672,19.3
248.7838,343.1
248.8498,89.3
248.8711,6756.8
248.8829,19.2
248.901,166.3
248.9158,53
248.9486,129.9
248.9991,1068
249.0163,2026.9
249.0615,19561.7
249.1131,109.6
249.1198,20.3
249.1898,356.6
249.3451,88.1
249.3607,94.5
249.4134,309.4
249.5046,604.6
249.7523,257.1
249.8247,104.7
249.8651,22.8
249.8686,401.1
249.8824,132
249.8893,91.7
249.8939,209.4
249.9684,226.3
249.976,436.4
249.9914,818.1
250.0222,18.7
250.0386,364
250.0511,24.1
250.1056,203.6
250.3893,187
250.4639,715.6
250.4784,589.9
250.4848,610.5
250.5141,161.8
250.5554,18.2
250.6772,397.6
250.7902,95.6
250.8423,286
250.8523,43.1
250.8679,355.6
250.894,275.6
250.9207,4814.1
250.9557,2266.5
251.0351,143.4
251.0781,174.3
251.1245,206
251.2419,45.5
251.3486,178
251.671,109.3
251.746,432.7
251.9163,124.2
251.9504,512.7
251.9811,358.5
251.9929,191.6
251.9993,23.9
252.0371,112.6
252.046,102790
252.1405,104.7
252.3026,318.9
252.3365,94.7
252.4599,102.9
252.5623,217.8
252.8223,101.1
252.8471,106.8
252.8718,173.5
252.9109,65.4
252.9177,4051.3
252.952,40.7
252.9886,96.3
253.0268,155.7
253.0494,7182
253.0553,207.4
253.1032,360.6
253.1722,97.5
253.3243,236.5
253.7524,315.6
253.9437,209.4
253.9739,287.1
254.0442,2460.2
254.0789,144.8
254.1196,367.7
254.1824,20.4
254.1974,100.3
254.2937,502.3
254.3206,143.1
254.3443,418.3
254.4849,102.9
254.5014,141
254.5301,433.3
254.5838,330.3
254.6142,119.6
254.7828,589.4
254.816,374.9
254.8242,10716.2
254.8407,21.9
254.8997,1168.5
254.9242,330.9
254.939,280
254.9819,438.7
254.9863,160.6
255.0259,136.3
255.0333,26048.1
255.053,213.8
255.0795,124.8
255.1945,257.9
255.2714,88.7
255.3632,293.8
255.4171,553.5
255.5535,565.1
255.6785,95.9
255.6937,106.6
255.7094,313.4
255.7249,382.8
255.7699,111.2
255.7857,224.8
255.8551,94.1
255.8952,113.4
255.9787,2025.1
255.9939,21.4
256.0034,1855.7
256.0362,178
256.0475,293.5
256.0583,44
256.167,124.3
256.1832,191.8
256.2296,42.5
256.5126,307.9
256.5916,515.7
256.6478,96.8
256.6601,145
256.6788,20.4
256.7773,83.7
256.7812,455.8
256.8133,873
256.8212,15913.2
256.835,172.1
256.8425,299
256.8597,449.8
256.8993,21.3
257.0225,169.5
257.026,510.6
257.049,8765.5
257.0655,798.1
257.0671,658.1
257.0749,47644.2
257.1813,23.3
257.2327,47.6
257.6567,89.2
257.6777,118.9
257.7698,316.1
257.7948,208.8
257.8082,384.8
257.9523,301.9
257.9886,100.3
257.9938,494.7
258.0219,121.6
258.0302,1186.4
258.064,139.8
258.0743,60.9
258.0783,1902
258.0914,102
258.1107,18876.5
258.2166,172.8
258.2397,930.7
258.4074,363.5
258.4837,369.8
258.5144,312.5
258.5824,153
258.7024,100
258.8183,6011.8
258.8637,37.9
258.8784,130.5
258.8999,2359.4
259.0283,1767.8
259.0581,225.2
259.0997,292.4
259.1358,164.6
259.2037,310.9
259.3978,20
259.4099,19.4
259.4847,623.7
259.4947,84.2
259.4989,885.1
259.5159,656.8
259.6004,119.7
259.6252,888.1
259.6732,647.4
259.8115,560.7
259.8575,122.1
259.9655,1931.6
259.9855,49.4
260.0592,117.9
260.2376,137.9
260.3961,780.6
260.4851,477.3
260.6023,98.8
260.7939,298.9
260.8147,452.9
260.8451,3183
260.8789,27.1
260.9441,19.3
260.9495,14302.5
261.016,134.3
261.0194,878.2
261.0457,230.6
261.1368,155.5
261.1661,269
261.3403,97.6
261.3444,751.8
261.3965,220
261.4482,778.7
261.4648,103.4
261.5888,22.5
261.6628,873.6
261.6766,148.1
261.6941,129.8
261.8269,249
261.8548,437.5
261.9463,24
261.9614,241.7
261.967,21
261.9835,373.3
261.9887,113.3
262.1749,99.8
262.2032,18.9
262.2986,94.7
262.3491,21.2
262.3774,375.2
262.4979,217.5
262.6396,99.6
262.6458,105.5
262.6818,101.2
262.9166,18.2
262.9466,1382.9
262.9932,237.4
263.0252,354.3
263.0853,2610.1
263.1387,1105.6
263.2268,189.4
263.2527,201.6
263.6174,393.4
263.7388,502.6
263.7697,109.9
263.7876,119.3
263.8593,94.8
263.9755,609.9
264.0267,509.4
264.0806,47.1
264.1051,166.2
264.1106,537.5
264.2208,504.9
264.2688,57
264.4122,21
264.6489,104.3
264.6665,243.8
264.7962,119.6
264.853,6646.6
264.8734,216.9
264.9495,318.9
264.9888,15387.7
265.0026,272.9
265.0356,7956.7
265.0476,3592.7
265.1429,167.2
265.2367,17.2
265.2503,142.7
265.4588,913.6
265.4649,95
265.5058,152.1
265.6198,22.4
265.6557,112
265.7364,138.7
265.8017,150.6
265.9246,150.5
265.9336,129.6
265.9786,363.1
265.9882,23.8
265.9931,81.5
266.0793,94.3
266.0946,174.4
266.1902,917.4
266.5022,670.7
266.523,351.8
266.5571,763.7
266.5925,151
266.8428,679
266.8501,5723.2
266.8945,2779.9
266.9422,167.8
266.9593,72.2
266.9842,99.5
267.108,111.4
267.1107,377.4
267.3906,144.2
267.4125,20.3
267.5584,342.6
267.5986,413.7
267.6475,2860.1
267.6568,159.4
267.6616,860.3
267.6936,337.6
267.6991,143.8
267.766,86.2
267.9741,146.4
267.9942,1057.4
268.0094,95.2
268.014,189.4
268.0201,139.9
268.0297,889.8
268.1491,893.6
268.241,92
268.2788,102.7
268.2845,18.8
268.3346,168.7
268.3429,830.2
268.4865,130.8
268.5688,780
268.5819,374.8
268.7868,17.3
268.8473,667.1
268.8648,584.1
268.8804,17.1
268.892,1341
268.9712,257.9
268.9971,26.3
269.0286,452.5
269.0352,348.1
269.0454,13470.7
269.049,45831.9
269.0754,213.4
269.1746,121.1
269.2125,246
269.2369,106
269.2435,255.2
269.4117,517.5
269.541,134
269.5903,96.5
269.9416,342.3
269.9854,500
269.9897,408.1
269.9942,4062.5
270.0004,207.1
270.0098,117.1
270.0251,20405.7
270.0477,22934
270.1454,318.2
270.2311,77.9
270.4043,108.7
270.414,290.3
270.5043,430.5
270.5549,94.3
270.5761,328.7
270.6145,18.1
270.6424,496.6
270.7588,20.5
270.7982,3349.9
270.827,318.1
270.8944,179.6
270.9601,28.3
270.9783,25533.4
270.9932,21.4
271.0109,263.6
271.0131,261.2
271.0284,1615
271.0513,776.6
271.0643,198.4
271.0783,255.4
271.0907,2056.7
271.2717,587
271.3753,757.2
271.3945,313.4
271.4125,402.8
271.4582,627.9
271.5155,16.4
271.5901,419
271.5958,102.3
271.6026,208.3
271.697,107.9
271.7044,105.7
271.7205,177.5
271.7246,274.7
271.758,219.5
271.775,827.8
271.7962,857.4
271.8151,380.5
271.847,22.6
271.962,117.9
271.9995,22.6
272.0209,578.9
272.0294,26.9
272.0437,64.6
272.0668,51.7
272.0807,144.9
272.1546,149.8
272.3121,92.4
272.3478,96.1
272.3676,92.8
272.4294,207.7
272.4546,960.3
272.4697,112.6
272.6256,544.6
272.6417,143.4
272.7326,146.7
272.7743,20
272.7952,4305.1
272.8133,18.6
272.827,370.8
272.8899,20.8
272.9244,318.1
273.0035,23.8
273.0489,1241.1
273.0814,24.5
273.2627,347.5
273.4628,145.7
273.5149,134.5
273.5519,568.3
273.6174,149.2
273.7802,505.2
273.9102,968
273.9212,93.7
273.9629,14276.7
274.0694,86.2
274.0777,24.7
274.0927,906.1
274.1051,94.8
274.1466,361.8
274.2673,592.4
274.3129,379.6
274.3944,281.8
274.4084,246.8
274.4764,227
274.5531,19.8
274.5739,831.3
274.6006,767.8
274.6121,170.2
274.6727,18.9
274.7587,48.6
274.7924,1663.6
274.8024,44
274.8161,612
274.8501,239.6
274.8819,610.7
274.9644,987.5
274.9832,23.7
275.0953,172.9
275.1044,270.2
275.1572,81.5
275.2089,264.7
275.2426,129.8
275.2679,611
275.4953,55.7
275.5722,464.9
275.6066,99.9
275.6684,256
275.8004,110.2
275.8124,346.8
275.8792,346.8
275.9329,289.6
275.9396,1270.8
275.9996,25.9
276.0037,137.8
276.0859,28.6
276.2059,289.4
276.3128,508.6
276.4798,150.8
276.4989,282.3
276.6671,158.5
276.6789,468.6
276.7884,114
276.8191,48.1
276.8962,421.8
276.8984,461.2
276.911,81
276.9235,11313.4
276.9369,86.1
277.2008,713.7
277.268,160.1
277.2843,110.3
277.3467,22
277.3692,366.9
277.5288,20.3
277.6234,450.5
277.6341,176.3
277.6586,396.2
277.6675,822.9
277.6926,793.2
277.9866,202.1
278.0006,20.2
278.0193,431.1
278.3646,102
278.5651,373.7
278.6692,108.7
278.7867,167.1
278.8471,52.1
278.8889,75.5
278.8934,1121
278.9202,1389.8
278.987,310.2
278.9927,699.8
279.0045,1419.3
279.0179,609.5
279.0569,39613.2
279.082,706.8
279.178,433.6
279.1822,102.6
279.2405,358.5
279.3887,348
279.396,145.9
279.4198,401.4
279.4628,105.1
279.5344,153.1
279.5563,491.1
279.7577,387.1
279.7658,157
279.7945,45.7
279.8431,985.8
279.8498,58.4
279.8541,282.2
279.9789,374.4
280.0125,1085.6
280.0287,367.7
280.06,597.1
280.0922,1083.9
280.143,109.1
280.2257,327.9
280.2362,19.3
280.2453,202.3
280.4793,311
280.5243,94.6
280.6719,328.3
280.8196,212.3
280.8272,2044
280.8514,22.1
280.9204,19.2
280.9628,714.9
281.0097,820.2
281.0518,155.2
281.0994,379.1
281.1759,526.1
281.3815,150.3
281.4085,372.9
281.4315,18.1
281.5047,84.7
281.9878,21.5
282.0148,91.4
282.0651,366.8
282.1382,26.6
282.3101,93.3
282.3396,194.2
282.3589,196.6
282.3799,19.2
282.4564,120.8
282.7638,288.5
282.8182,384.3
282.8204,355.9
282.8241,2423.4
282.8565,422.9
282.8688,496.1
283.0141,424.5
283.0279,1254.5
283.1328,155.6
283.1602,777
283.3233,121.4
283.3465,98.2
283.3573,154.4
283.4924,264.6
283.6376,268.7
283.6501,319.8
283.6977,20.1
283.9893,128.9
284.0007,16.2
284.0059,229
284.0122,186
284.0247,213
284.0625,153.5
284.1097,123.5
284.1151,106.9
284.3106,20.5
284.3319,178.8
284.4771,477.4
284.5496,829.6
284.8218,392.5
284.8826,790.7
284.9111,109.7
285.0233,346.3
285.1474,117.7
285.2279,18.3
285.372,330.9
285.9554,140.7
285.9808,409.6
285.9896,593
286.0201,5182.2
286.0964,26.4
286.3359,236.3
286.3419,149.3
286.4163,17.1
286.4231,507.3
286.4619,231.9
286.72,888.5
286.7514,44.6
286.7721,1447.7
286.8043,24.5
286.8315,99
286.8703,98.4
286.9346,650.9
286.9522,9102.9
287.0235,416.9
287.0365,98.4
287.0557,30051.8
287.0702,378.7
287.4558,582.6
287.5562,636.6
287.5864,543.8
287.6122,541.1
287.712,477.3
287.8114,29
287.9166,123.6
287.9493,44.7
287.9965,444.7
288.0153,476.4
288.0358,172
288.0588,399.2
288.0849,102.7
288.1559,19846.4
288.1676,94.1
288.4095,49.1
288.4291,99.8
288.4828,284.2
288.7366,158.4
288.7692,2152.3
288.845,904.7
288.8492,1582
288.8594,3018
288.8647,3314.1
288.8717,1774
288.8879,9825.9
288.8932,7124.5
288.8965,8505.4
288.905,11258.8
288.9143,16400.1
288.9213,21475.4
288.9293,18435.4
288.9317,17635.7
288.9382,16578.2
288.9428,15115.7
288.9458,14481.3
288.9522,15038.4
288.9614,10302
288.9643,10274.3
288.9709,6824.1
288.9755,4958
288.988,2420.7
288.9948,723
289.0079,324.5
289.062,112.3
289.0893,126.9
289.122,118.3
289.2998,94.9
289.4428,226.4
289.5014,638.5
289.738,100.2
289.7687,266.7
289.8365,436.1
289.8971,426.4
289.9213,132.5
289.9373,1233.2
289.9791,20.4
290.1009,36.8
290.3076,22.4
290.3822,694.8
290.4255,403
290.4573,142.7
290.4617,342.7
290.57,142.6
290.578,592
290.6829,188
290.72,230.1
290.798,50
290.8571,313.4
290.8903,179.5
290.9264,84.4
290.9398,499.8
291.0268,1920.3
291.087,116.8
291.1978,114.8
291.2027,300
291.2225,18.7
291.2739,303.4
291.2939,1086.4
291.3893,187.9
291.4609,19.6
291.661,286.1
291.6879,121.7
291.8483,206.9
291.972,999.8
291.9838,821.4
292.0228,512.2
292.0802,54.4
292.2856,124.6
292.3941,149.1
292.6495,299.2
292.6728,142.5
292.8975,884.6
292.9415,548.1
292.963,19.1
292.9717,22
293.0572,301
293.0727,1957.1
293.0986,280979.4
293.1794,6839.9
293.3446,206.2
293.4038,212.3
293.4144,198.8
293.8438,253.5
293.8488,96
294.0956,405.7
294.1019,26477.9
294.1511,94.7
294.4552,119.8
294.5155,254.6
294.6262,524.4
294.7225,180.3
294.7629,250.1
294.7866,95.3
294.8294,28.6
294.9214,228
294.9912,158.5
295.0311,604.7
295.0819,187.9
295.1027,1639.5
295.1225,123.9
295.1367,279
295.1482,18.9
295.195,35338.7
295.2167,602.8
295.2444,171.8
295.3956,300.1
295.412,493.5
295.4482,285.5
295.7565,133.6
295.7665,127.1
295.7992,547
295.8523,110.4
295.8755,556.5
295.9394,408.1
296.0101,647.2
296.0675,110.4
296.1046,483.4
296.1333,358.5
296.1984,3470.8
296.2752,21.5
296.4439,100.9
296.4854,143.1
296.4935,129.6
296.5649,327.5
296.5889,18.3
296.6677,590
296.7462,177.5
296.8143,379.3
296.822,352.6
296.8457,21.3
296.9314,517.9
296.9366,425.1
296.9877,32.5
296.9915,136.8
297.3976,229.1
297.454,440.6
297.7237,164.5
297.9503,94.3
298.0048,22.6
298.0257,2444.9
298.0427,15629.8
298.106,20.3
298.1615,95.9
298.2799,584.2
298.2982,264.6
298.3355,689.8
298.3899,893.8
298.4201,122
298.4466,96.9
298.4891,149.8
298.5428,793.6
298.6421,314.4
298.6548,231.4
298.6793,18.9
298.8183,376.3
298.8797,253
298.9865,19
299.0233,1076.1
299.0459,444
299.1397,8749.7
299.1964,1093.1
299.219,244.3
299.3113,297.3
299.3309,344.3
299.5367,133.7
299.563,501.2
299.7631,86.6
299.8327,20.1
299.9681,261.3
300.0357,1534.6
300.0494,57.3
300.0574,86.2
300.0757,332.4
300.1426,1097
300.1585,466.9
300.1967,109.5
300.2208,97.4
300.2588,351.8
300.3225,248.1
300.369,114.3
300.5455,305.9
300.6161,187.3
300.6332,42.5
300.6611,923.1
300.6782,27.1
300.7034,152.5
300.7119,832
300.7579,345.9
300.9259,124.7
301.0115,305.7
301.039,24441
301.1017,274.5
301.1412,301.1
301.2012,363.3
301.212,10079.7
301.6023,110.5
301.7126,749.4
301.768,204.5
301.7996,91.9
301.8274,315.6
301.8968,21.7
301.9942,7825.2
302.012,887.8
302.0203,1503.2
302.0352,70.3
302.0424,86.4
302.0506,493.3
302.0644,3560.7
302.276,103.9
302.3717,204.2
302.4192,125.3
302.5202,264.9
302.668,18.9
302.6746,374
302.6801,304.7
302.6907,150.6
302.6928,148.7
302.7127,233.3
302.8299,6239.9
302.9976,136.8
303.0281,141.5
303.0677,289.3
303.2115,101.6
303.2178,707.1
303.2739,581.8
303.3679,200
303.7159,147.4
303.7826,167.2
303.8457,18.6
303.8999,212.9
303.9702,426.3
303.9861,159.8
304.0141,109.8
304.063,95.7
304.0687,154.3
304.1229,317
304.4185,118.3
304.4479,312.1
304.6003,627.7
304.6543,290.7
304.699,327.4
304.7385,847.1
304.8138,58
304.827,3753
304.8954,24.3
304.9058,56.5
304.9759,845.5
305.0287,193.4
305.1674,117.8
305.2004,511.5
305.2164,685.4
305.2823,251.2
305.3023,143.4
305.4025,733.9
305.4147,559.4
305.6054,114.6
305.6738,52.2
305.7145,220.8
305.7618,183.9
305.8936,131.1
305.9815,53.6
305.9882,464.9
306.0418,327
306.0955,49.1
306.2323,253.9
306.4061,379.9
306.652,276.2
306.8119,44.8
306.8414,39
306.8588,579
306.8793,386.7
306.8954,77.9
306.9244,345.3
306.9582,645.5
306.9776,3670.9
307.0793,147.5
307.1782,121.9
307.2592,20.6
307.2785,141.2
307.3552,19.1
307.3665,401.4
307.3962,153.4
307.5199,21.1
307.5641,89.3
307.6412,484.2
307.8204,368.8
307.8411,151.5
308.0699,183.9
308.0713,202.6
308.0919,20
308.1303,294.8
308.1959,113.5
308.2347,354.9
308.4141,97.6
308.4888,396.8
308.511,601.6
308.5158,322.4
308.5634,95.9
308.6104,148.3
308.7332,110.4
308.8084,288.9
308.852,18.4
308.8793,6901.8
308.9046,124.7
308.9557,369.5
309.0064,111.3
309.0377,5426.8
309.083,383.1
309.1495,149.9
309.1523,116.7
309.1708,100.2
309.3282,95.8
309.4633,21.5
309.5403,119.4
309.5687,324.4
309.8723,535.9
309.8948,236.4
310.0134,446.9
310.1435,21
310.1649,18.5
310.4262,103.6
310.573,42.4
310.6039,169.7
310.6337,489.7
310.669,104.9
310.7221,98.7
310.7468,93.3
310.7977,877.9
310.8764,4893
310.9278,17.6
310.973,141.4
311.0038,44.1
311.0442,113.6
311.1084,151
311.1293,18.9
311.1676,420.2
311.309,299
311.3333,926.3
311.5403,328
311.5427,352.7
311.5444,360.8
311.5904,110.3
311.6182,320.8
311.6442,129.9
311.7655,108.5
311.9179,60.8
311.9831,194.5
311.9993,101.5
312.0196,293.8
312.0247,1184.5
312.0411,2203.7
312.0582,371.8
312.1708,23.2
312.1875,358.4
312.411,338.6
312.5867,97.7
312.6276,710.9
312.7695,340.6
312.8586,2027.1
312.8736,918.7
312.9292,232.1
312.9468,826.4
312.9844,101.5
313.0184,248.5
313.0263,19.6
313.1278,16.2
313.2744,56152.1
313.2862,934.4
313.3366,392
313.4275,590.4
313.5427,748.4
313.9999,1268.4
314.0055,147
314.0151,6670.2
314.0745,20.4
314.0915,150.6
314.1294,630.7
314.206,16.9
314.2779,6888.9
314.2985,370.6
314.4503,193.2
314.5425,103.6
314.5683,99.6
314.5738,191
314.591,100.7
314.676,264.1
314.7103,145.6
314.7296,379.4
314.7803,555.9
314.7986,265.3
314.818,328.2
314.8219,565.2
314.8374,5260
314.8502,31.5
314.9721,215
314.9868,192.6
314.9995,4910
315.0045,3915.4
315.0184,579.8
315.0329,517
315.0395,247.2
315.0494,1521.4
315.0524,4028
315.0556,9902.4
315.0618,4560.9
315.0639,5884
315.0665,12293.7
315.0701,18869.7
315.0729,16757
315.0806,7944116
315.0869,31752.9
315.0887,16257.4
315.0942,9328
315.0961,6214.2
315.0985,5314.8
315.1005,3578.4
315.1028,3309.7
315.1047,2227.8
315.1067,1585.3
315.109,1407.5
315.1129,410.3
315.1156,321.7
315.1174,284.8
315.1243,140.1
315.1348,126.3
315.1364,123.3
315.1433,137.1
315.1617,4911.6
315.3103,20.3
315.3142,166.3
315.3239,6809.7
315.4865,548.6
315.5787,119.8
315.6115,419.4
315.6193,219.7
315.6556,142.6
315.7198,112.7
315.8178,302
315.8906,364.9
315.9434,23.9
316.011,217.5
316.0535,34.3
316.0778,44209.7
316.0839,822535
316.2842,217.6
316.4008,125.6
316.4126,92.9
316.5223,555.7
316.5894,150
316.595,114.3
316.7633,18.6
316.7973,149.3
316.8201,781.7
316.9104,206.5
316.9581,104.8
316.9875,1152.5
317.0041,121.2
317.0172,208.3
317.0565,738.9
317.0654,969.2
317.0844,92690.9
317.1162,300.3
317.1354,588.1
317.1784,908.1
317.1934,23.3
317.3704,190.4
317.4127,947.9
317.4285,946.7
317.4896,197.5
317.5174,398
317.5794,514.6
317.5872,941.8
317.6615,95
317.6693,168.5
317.7071,115.5
317.7358,676.9
317.7956,19.1
317.8229,171.5
317.8283,533.3
318.0879,9232.3
318.1154,308.8
318.2435,128.6
318.4145,95.1
318.6024,20.2
318.6541,294.2
318.7928,1017.6
318.804,2933
318.829,19.5
318.8868,320.8
318.9084,416.6
318.9558,113.6
319.0299,46.2
319.045,145.9
319.1548,243.2
319.1807,298.4
319.1951,47734.9
319.3866,532.8
319.5503,99.9
319.6948,118.5
319.7032,95.9
319.7303,106.8
319.7968,22
319.8518,912.1
319.9072,18.3
319.9317,24.8
319.9716,46.5
319.9909,604
320.0765,124.5
320.0779,115.4
320.1983,6967.8
320.2592,1409.6
320.2705,618.9
320.3266,583.5
320.366,22.5
320.7934,108.5
320.801,1986.1
320.8311,67
321.0019,947.5
321.1893,23.1
321.2107,80326.1
321.2626,62
321.4509,567.4
321.5084,49.2
321.5787,117
321.6249,147.4
321.6696,371.7
321.7415,540.7
321.9315,142.5
321.9494,116.6
321.976,104.6
322.0069,292.2
322.0243,545.3
322.2141,11631.4
322.3069,18.6
322.4799,100.8
322.6538,47.5
322.7142,288.9
322.7473,871.2
322.7729,461.8
322.8638,186.8
322.8818,363.3
323.0209,11573.2
323.0897,631.7
323.1885,692.7
323.2168,317.7
323.2266,4096.5
323.2565,19.4
323.3082,114.4
323.5401,471.4
323.5591,119.6
323.8855,189.1
324.0022,10498.6
324.028,110.9
324.0578,20.8
324.1115,17.9
324.1681,62.1
324.244,213.7
324.2833,872.6
324.4529,968.6
324.5724,1136.4
324.5797,689
324.5848,2526.8
324.5922,6252.6
324.6034,1417.9
324.7803,173.7
324.8088,1137
324.8275,585.5
324.8534,3640.8
324.9198,585.9
325.0018,589.8
325.0079,146
325.0733,91.2
325.2028,705.5
325.212,10065.6
325.5189,634
325.7954,19.1
325.843,776.8
325.8553,370.4
325.8628,108
325.8812,820.7
325.9077,370
325.961,347.5
325.9637,325.3
326.0049,27.8
326.0913,140.2
326.4436,46.4
326.4509,814.2
326.8503,2390.8
326.9969,856.1
327.0158,4950.9
327.0521,1045.6
327.0939,85.1
327.1191,104.1
327.2277,29436.8
327.5467,413.6
327.5648,195.9
327.6575,99.9
327.6889,58.2
327.8213,919.4
327.8434,182.5
327.9959,190.3
328.0308,20.9
328.231,4503.5
328.3148,50.8
328.3633,24
328.3763,163
328.392,125.7
328.4056,108.6
328.4328,111.9
328.8064,159.2
328.8145,44.9
328.9191,340.5
328.9951,252
329.0964,1251.8
329.292,362.8
329.3385,191.3
329.385,213.6
329.3961,287.2
329.4827,47.8
329.6561,214.2
329.6679,291.7
329.8604,344.9
330.0592,162.9
330.2518,937.5
330.2813,88.1
330.3574,777.4
330.5568,166.7
330.5714,423.6
330.6183,103.2
330.6944,299.9
330.751,820.3
330.9784,520.1
331.0198,1470.7
331.0457,95356.9
331.0545,883352.8
331.3301,333.4
331.4532,590.7
331.5059,486.5
331.7487,112.9
331.8667,345.1
332.0234,397.5
332.0484,5043.5
332.0578,79280.8
332.0887,324.6
332.2552,103.5
332.2835,434.3
332.3241,18.8
332.3379,373.6
332.3666,105.1
332.507,231.4
332.5089,228.2
332.5707,397.4
332.6305,120.9
332.8092,76
332.837,20.3
332.8695,50.6
333.0526,51101.7
333.0582,9183.6
333.0759,149.9
333.1517,997.2
333.3513,20.8
333.4974,314.4
333.5384,101.5
333.7098,156.8
333.7532,114.5
333.8145,161.2
333.9191,111.8
333.9509,325.5
333.9924,146.5
334.0559,3238.2
334.0823,341.8
334.0914,23.9
334.3627,121
334.5907,114.9
334.728,205.5
334.7478,386.5
334.8372,1266.2
335.0248,90.3
335.0385,100.9
335.057,795.3
335.1674,3922.9
335.2571,546.1
335.3349,386.5
335.4766,307.3
335.6015,113.2
335.6591,19
335.8328,67.1
336.0224,351.3
336.1241,157.8
336.1706,465.3
336.3836,173.5
336.4327,202.2
336.4641,48.3
336.5311,141.6
336.7553,126.6
336.7913,187.8
336.879,370.8
336.9965,239.1
337.0367,11465.4
337.0501,11230.3
337.0625,612721
337.1831,3511.9
337.2492,184.3
337.2745,8638
337.3555,155.9
337.4102,144.4
337.4211,96.9
337.7361,127.7
337.7545,185.5
337.8051,198.2
337.9584,232.5
338.0493,204.8
338.0659,56380.3
338.0994,329.3
338.1791,946.1
338.1866,331.2
338.2206,262.9
338.278,620.2
338.2965,297.9
338.3068,197.6
338.3421,45.3
338.5585,146.1
338.8033,144.4
338.8451,104.3
338.8611,555.7
338.8909,125.3
338.9218,2328.1
339.0386,2273.7
339.0484,226.3
339.0663,3758.1
339.1989,655.1
339.232,207.8
339.2472,110.9
339.2902,10031
339.3599,238.2
339.5695,166.2
339.6507,958
339.8674,146.4
339.9287,141.2
339.9669,961
339.9762,1442.7
340.2547,133.2
340.2934,872.6
340.3581,215.8
340.3992,128.3
340.7008,22
340.7143,125.3
340.8913,493.4
340.9184,244.7
341.0308,214.7
341.0759,84
341.3061,8652.9
341.374,234.5
341.4725,273.8
341.5009,231.7
341.7373,256.4
342.0157,2520.7
342.0523,182.6
342.7019,678.2
342.9197,372.6
342.9965,105.5
343.1515,83.4
343.1952,18514.4
343.2021,2240.2
343.2194,463.9
343.3638,1099.3
343.6898,90.7
343.6992,429.2
343.9888,1119.3
344.0342,594.3
344.1173,233.9
344.1996,1113.3
344.3151,206.8
344.4054,336.1
344.5421,304.1
344.5723,365.9
344.6207,509.3
344.6749,197.7
344.711,153.5
344.7959,19.5
344.9475,295.1
345.1978,97.5
345.2106,591.7
345.4259,142
345.527,313.2
345.5395,301.8
345.5564,90.1
345.595,193.1
345.6256,464.7
345.8453,372.4
345.9842,45769.1
346.0103,614.7
346.0213,519.6
346.0413,256.8
346.0762,516.8
346.1447,198.3
346.2823,332.8
346.5944,90.8
346.6138,565.4
346.988,1520.8
347.018,2626.9
347.053,172.3
347.19,354.4
347.3523,816.2
347.5603,508.3
347.658,141.2
347.7188,128
347.7856,143.5
347.831,92.2
347.8981,168.5
347.9449,165.8
348.0145,355.3
348.1826,423.6
348.2955,348.7
348.7039,967.1
348.794,374.2
349.0183,1820.1
349.1807,104.2
349.1967,114.3
349.203,760.7
349.2137,179.4
349.4283,107.8
349.4431,103.7
349.4841,327.5
349.6541,107
350.1313,45.3
350.1533,137.1
350.3183,789.1
350.4479,191.5
350.5145,653.6
350.6968,255.6
350.8814,341.2
350.8995,737.6
350.9714,467.4
351.1393,116.1
351.3803,390.1
351.4522,608.2
351.5083,166.5
351.5352,116.2
351.5424,526.3
351.9231,153.3
352.118,359.2
352.1781,218.4
352.2338,206.7
352.3356,265
352.562,137.2
352.586,265.6
352.5985,150.2
352.6863,88.7
352.7637,396.6
352.8351,89
352.84,523.6
352.8986,1919.4
352.9938,19.8
353.0093,290.9
353.012,301.9
353.0276,120163.1
353.0365,177803.6
353.0756,488.6
353.1785,19.5
353.3179,331.7
353.3691,21.5
353.6916,676.9
353.717,113.4
353.832,92.5
353.9855,22.5
354.0172,187.7
354.0308,8609
354.0398,15964.6
354.0703,53.3
354.4553,321.7
354.5659,50.1
354.7096,124
354.7518,98.7
354.8413,20.6
354.896,1075.5
355.0117,1426.8
355.0349,9605.4
355.0675,602.1
355.2124,343.7
355.2213,550.1
355.2298,19.2
355.2853,631.6
355.3983,18.1
355.4248,18.5
355.5262,504.8
355.5451,248.3
355.6241,135
355.7271,97.4
355.7572,145.6
355.7642,115.6
355.9208,1049.9
355.9606,276.4
356.0028,925.7
356.016,46.7
356.0398,94.9
356.0946,150.6
356.101,405.3
356.1586,106.8
356.3202,120.8
356.7556,348.5
356.8285,106.8
356.9767,95.7
357.0015,103.8
357.0091,335.4
357.021,462.1
357.0484,643.4
357.062,327.4
357.068,20
357.1383,1099.1
357.152,87.6
357.1667,665.1
357.1996,228.6
357.3569,179.3
357.537,113.5
357.5727,22.5
357.5939,263.3
357.6089,923.1
357.6191,283.6
357.6846,355.6
357.7685,55.7
357.8998,321.4
357.909,104
357.9776,1573.5
358.1777,517.8
358.2509,99.8
358.6163,134.4
358.8437,937.9
358.8514,20.3
358.892,126.3
358.9005,325
359.008,159.5
359.0321,6980.3
359.0445,393406.3
359.0579,371.9
359.0929,507.4
359.1674,1219.1
359.1886,364.6
359.3432,149
359.3847,325.2
359.4278,135.4
359.4469,192.6
359.4571,146.6
359.485,442.8
359.497,713.5
359.5074,628.4
359.5186,306.8
359.53,143.6
359.5321,134.7
359.5363,119.3
359.5483,1328.4
359.564,206.4
359.5737,1423.7
359.5907,689
359.5927,672.5
359.5986,618.2
359.6017,739.7
359.6066,608.3
359.611,753.9
359.6134,746.1
359.6525,487.5
359.8548,233.2
360.0174,43
360.0376,197.4
360.0479,35541.7
360.1717,82.3
360.1956,92.6
360.2277,365.3
360.3245,842.1
360.7165,293.2
360.7249,318.1
360.7331,19.1
360.7884,389.8
360.8378,94.1
360.9786,550.2
361.0207,6129
361.0485,1864.9
361.1756,377.6
361.1804,631.9
361.2576,601.7
361.2744,1209.3
361.3872,349.3
361.4533,196.2
361.6884,228.4
361.7858,224.1
361.9583,9899.1
362.1616,17.4
362.1732,478.4
362.1868,56.6
362.4416,17.6
362.4898,244.4
362.6258,125.3
362.6875,295.4
362.7853,790.6
362.8202,94.6
362.8691,151.1
362.9276,1239.3
363.2393,327.9
363.3868,109.7
363.7502,165.7
363.7909,27.6
363.8379,524.4
363.9368,22.2
363.9566,774.8
363.9802,45.8
363.9972,167.9
364.2629,117.3
364.3625,20.3
364.4381,858.8
364.822,127.1
364.8335,150.8
364.8521,102.8
364.8767,809.2
364.9009,545.2
364.9445,425.5
365.1008,292.6
365.1859,115.9
365.2555,560.9
365.3524,349.3
365.5123,210.1
365.9865,112.8
366.0066,354.5
366.1226,195.7
366.249,338.1
366.4737,621.1
366.529,99.2
366.5536,598.9
366.8737,479.7
366.9905,348.2
367.0107,358
367.068,227.3
367.1219,11130.2
367.134,824.3
367.1641,17.4
367.1953,8607.4
367.4282,118.3
367.459,972.9
367.4712,21.5
367.6233,177.7
367.7409,151
367.8272,20.5
367.8459,18.6
367.8539,377.9
367.8929,254.7
367.9405,274.8
367.9818,597.9
367.9922,2333
368.0031,925.7
368.0873,761.6
368.1754,348.1
368.1966,590.1
368.3297,19.1
368.46,85.9
368.4871,309
368.5986,621.2
368.6088,90.7
368.6181,394.9
368.6795,194.6
368.6892,18.1
368.701,319.6
368.7947,145.9
368.992,2106.6
369.0011,10501.9
369.0105,3672.3
369.0246,181.5
369.2243,163.8
369.2793,98.3
369.3526,406.6
369.6359,171.8
369.7379,254.5
369.7452,99.7
369.8184,19.1
369.8789,143
369.9405,121.4
369.9636,347.9
370.0971,20.2
370.3163,965.8
370.3832,125.4
370.3936,614.4
370.4199,103
370.4772,194.7
370.5549,307.9
370.7334,98.6
370.7604,97.9
370.9124,644.2
370.9841,146.3
371.0004,2321.1
371.0416,944.8
371.1788,133.2
371.2137,18.3
371.2655,1644.2
371.3665,347
371.3773,420.3
371.3916,124.6
371.4073,260.2
371.6185,398.6
371.6341,312.7
371.7112,268.3
371.7479,290.1
371.7666,1086.5
371.9899,516.4
372.0582,328.7
372.1024,530.2
372.2601,234.8
372.4992,20.7
372.5395,453
372.5728,371.5
372.5907,320.7
372.6867,113.6
372.739,978.3
372.7527,95.2
372.8132,754.3
372.8655,282.2
372.9964,108.2
373.4333,383.5
373.4648,152.1
373.5556,514.4
373.595,307.7
373.6274,456.1
373.7222,269.9
373.7784,22.5
373.8126,158.3
373.9979,387.9
374.1899,271
374.9243,147.1
374.9476,207
374.973,19.6
375.0096,123194.7
375.0185,92110.2
375.1026,112
375.1477,386
375.2125,121.4
375.3472,626.1
375.7948,20.5
375.9659,47.3
376.0128,8031.8
376.022,7171.3
376.1158,126.2
376.3326,49.4
376.4055,566.7
376.4199,386.4
376.762,810.7
376.9944,1921.7
377.0168,3811.3
377.0428,452
377.2253,20.4
377.2354,176.3
377.2762,148
377.3196,96.8
377.3657,100.1
377.3711,105.3
377.5867,360
377.7153,336.7
377.8292,17.2
377.839,393.4
377.9323,214.8
378.3347,95.6
378.4765,24.5
378.4846,300.2
378.5028,18.5
378.5242,386.4
378.5358,234.9
378.6819,269.6
378.7261,81.7
378.7481,276.4
378.7641,19.3
378.8103,137.5
378.9004,1317.3
378.9231,22
378.9381,84.6
378.9807,997
379.0406,291.1
379.0833,29.3
379.3003,20.1
379.4565,156.1
379.5692,575.7
379.5924,413.2
379.6034,828.2
379.6181,295.7
379.8745,189.6
380.1557,131.6
380.2099,94
380.2493,345.3
380.3701,111.3
380.5536,113.8
380.6381,216
380.7653,354.6
380.7707,613.5
380.8259,92.1
380.979,358.2
381.0141,13612.9
381.0265,229787.7
381.1681,165.5
381.1962,415
381.2734,116.2
381.4806,197.6
381.641,139.2
381.6843,565
381.7029,440
381.9499,108.9
382.0086,793.9
382.0298,21340
382.1893,136.2
382.2124,182.9
382.3117,272.2
382.5089,1046.1
382.6918,228.6
382.767,1438.6
382.779,22.2
382.8374,19
382.8631,18.3
383.0298,580.2
383.1168,255232.1
383.1582,604.8
383.1678,619.4
383.396,99.8
383.4266,111.4
383.4597,223
383.5953,197
383.6493,125.3
383.7801,95.4
383.8437,112.4
383.8573,143.8
383.9292,48.5
383.9546,50.9
383.9662,1913.5
384.1201,26923.9
384.2283,144.6
384.2475,220.3
384.3581,98.8
384.3736,130.2
384.4245,166.8
384.6247,109.1
384.8155,87.6
384.972,106.7
385.0478,110.3
385.0534,385.9
385.1112,201
385.1201,1879.1
385.1803,191.6
385.2875,19.9
385.4807,238.7
385.4921,109.7
385.5486,328.8
385.7758,504.4
385.9447,67.7
385.9797,5541.5
386.0315,864.3
386.0545,263.3
386.0759,366.8
386.2079,124.2
386.3938,340.2
386.7164,417.8
386.8517,182.4
386.9168,604.5
386.9744,436.3
386.9873,107.5
387.0026,1723.4
387.1468,118.3
387.1871,264.3
387.197,767
387.2489,261.1
387.4744,187.2
387.4939,119.3
387.5404,221.9
387.5687,410.3
387.614,324.7
387.8958,339
387.9464,875.7
387.9785,1705.7
388.0606,107.8
388.3534,173
388.496,352.1
389.2044,440.2
389.5843,160.5
389.6464,459.3
389.8853,120
389.974,48202.6
389.9962,257.7
390.1819,589.4
390.3096,104.8
390.6246,829.4
390.7106,577.6
390.7992,1904.3
390.8227,130.8
390.8416,422.3
390.8695,222.9
390.8956,108.7
390.9746,8222
390.9831,14811.1
390.9922,7583
391.0245,153.4
391.603,96
391.697,944.3
391.8063,91.8
391.8403,725.9
391.8633,195.6
391.9781,110.2
391.9873,157.9
392.0044,25.9
392.2321,371.1
392.2591,144.3
392.2943,98.8
392.3346,106.1
392.6038,18.9
392.6413,823.7
392.7617,237.9
392.7967,2522.8
392.859,202.7
392.9676,151.2
392.9822,3037.9
392.9915,228.9
393.7293,532.5
393.9091,304.9
394.06,245.3
394.5298,97.9
394.5773,119.3
394.6208,150.6
394.802,617.4
394.8153,335.9
394.9668,88.2
394.9773,195.6
395.0845,285.9
395.1,170.5
395.2388,19.1
395.2442,16.6
395.3004,305.1
395.3657,95.7
395.4014,301.3
395.5356,99.9
395.5426,598
395.729,964
395.9368,336.5
395.9799,366.7
396.1539,19.4
396.1834,192
396.4963,147.3
396.7738,802.2
396.8776,368.9
396.9228,19
396.9915,182564.1
397.0004,57897.4
397.0335,645
397.0709,358.8
397.3642,547.4
397.3749,108.3
397.5047,311.9
397.7875,240
397.8772,19.9
397.9277,93.5
397.967,88.9
397.9949,12877.3
398.0036,1947.3
398.1144,278
398.2422,4001.8
398.5437,47
398.5647,317.1
398.7144,51
398.7415,2756.4
398.7627,2949.6
398.7772,97.1
398.9059,153.3
398.9763,101.6
398.9986,532.3
399.0095,127.8
399.3203,307.8
399.4671,387.2
399.6225,19.7
399.6863,466.5
399.921,105.1
400.1898,21
400.2992,132.3
400.339,191.4
400.4707,164.9
400.5381,225.9
400.7386,921.1
400.8278,453.5
400.8503,100.4
400.961,81.6
400.9835,512.2
401.1086,20.3
401.138,18.7
401.2073,113.4
401.7174,534.8
401.8116,110.6
401.8469,313.3
401.9535,417.5
401.99,23.5
402.2046,577.8
402.3233,130.9
402.4389,310.2
402.5536,17
402.7376,399.8
403.0085,283119.9
403.2743,16.8
403.2984,531.4
403.3838,599.9
403.4255,111.1
403.4498,102.6
403.5485,23.4
403.6211,300.9
403.6777,106.7
403.831,477
403.9233,495.1
403.9428,878.7
403.9525,249.7
403.9753,371
403.986,335.2
404.0117,25340.4
404.0537,220
404.1182,314.7
404.1381,409
404.1791,115.4
404.6769,181.9
404.6813,334.1
404.6847,336.1
404.7405,182.8
404.8086,256.5
404.9307,154.2
404.9796,282.8
405.0118,751.7
405.0208,18
405.0732,97.9
405.3114,417
405.4415,223.8
405.5173,200.8
405.5595,118.8
405.5948,88
405.6165,869.1
405.8187,164.9
405.8678,94.6
405.9334,149.4
405.948,23407
406.1395,595.2
406.2039,409.4
406.3302,642.9
406.342,378
406.3629,143.4
406.4414,546.1
406.6835,528.9
406.7538,89.3
406.7737,912.7
406.8995,304.9
406.9101,482.4
406.9522,380.1
407.1707,242.2
407.1781,100.2
407.3332,79.9
407.4328,581.3
407.445,156.9
407.4532,206.1
407.7247,115
407.8179,1745
407.845,283.3
407.8556,22.1
407.9538,784.2
408.3088,1032.7
408.616,292.1
408.7709,1648.7
408.8175,76.1
408.9565,227.2
408.9852,2386.6
409.1398,948.8
409.1622,785.1
409.333,524.5
409.4426,112.5
409.535,17.8
409.7197,109.8
409.8133,108.8
409.9827,95.2
410.0737,323.9
410.0833,119.4
410.1298,560.7
410.2293,312.7
410.2467,186.8
410.5551,595.3
410.577,187
410.5942,387.7
410.6037,127.9
410.6259,400.3
410.7633,517.7
410.8395,113.1
410.8571,859.5
410.9121,97
410.9492,141.8
410.959,91.6
411.1139,517.6
411.3479,635.4
411.7467,273.7
411.7504,269.7
411.8404,132.7
411.8492,345.8
411.968,496.1
412.0803,111.5
412.192,134.7
412.3217,949.7
412.6013,924.3
412.8415,347.4
412.9648,38022.9
412.9743,7140.8
412.9957,959.8
413.2671,3952
413.3251,156.4
413.554,586.8
413.578,140.3
413.5952,620.6
413.6282,238.6
413.6625,419.8
413.8956,84.9
413.9399,243.4
413.9684,858.8
414.0194,233.5
414.1413,355.4
414.2704,228.4
414.3402,389.3
414.3674,285.7
414.3924,88.8
414.4418,379
414.471,435.6
414.8244,108.4
414.8767,212.7
414.9643,1978.9
414.9986,540
415.1487,1071.5
415.2008,230.9
415.2231,1189.6
415.2535,116.6
415.7803,117.5
415.8562,616.1
415.9785,47
416.032,207.1
416.1355,13616.5
416.2148,14836.4
416.4074,426.5
416.8017,1337
416.845,229.8
417.0055,205.1
417.1205,721.6
417.2152,1525.6
417.2378,364.5
417.6593,46.6
417.7687,401
417.9931,437.2
418.0803,103.2
418.0923,597.5
418.1212,297
418.2461,375
418.2701,18.4
418.4432,353.1
418.5262,853.1
418.6216,136.3
418.7879,230.4
418.8101,400.5
418.9824,76904.4
419.1203,797.7
419.2563,3233.3
419.2799,138.2
419.4283,303.5
419.5599,158.1
419.6138,279.4
419.6353,299.8
419.6602,428.3
419.852,106.2
419.9415,137.3
419.9566,185.9
419.9858,5140.6
419.9996,125.3
420.0422,102.2
420.0743,152.9
420.2603,294.4
420.2736,125.8
420.429,123.2
420.4405,214.6
420.4839,582.1
420.5551,266.5
420.931,230.8
420.9582,734.7
420.9806,1417.5
421.0915,313.3
421.1185,354.1
421.1447,168.8
421.2253,215.2
421.2616,789.5
421.3283,220.8
421.3994,158.4
421.8334,333.2
421.922,4110.4
421.9637,92.9
421.9853,438.6
422.0509,133.8
422.0792,89.6
422.1831,439.6
422.3336,44.9
422.3632,100.7
422.4544,293.2
422.5106,309.7
422.6136,308.1
422.6258,283.3
422.6664,134.7
422.7187,104.6
422.7585,812.6
422.8008,299.2
422.8816,761.1
422.9307,109.8
422.9689,95.8
423.4651,98.7
423.4833,130.2
423.508,269.9
423.5643,358.5
423.6694,273.1
423.8526,20.3
423.9194,113.6
423.9588,123.4
424.2834,1484.3
424.3519,306.3
424.7337,208
425.0297,25.1
425.1179,93
425.6069,640.7
425.7183,201.9
425.8278,42.6
426.0002,247.3
426.0987,19.7
426.2596,85.6
426.3032,50.5
426.3599,569.1
426.4351,157.6
426.5364,185
426.574,789.6
426.7926,936.8
426.9419,93
426.9971,379.5
427.0268,153.6
427.2335,140.8
427.3904,454.6
427.4849,21.4
427.5704,166.4
427.5781,322.4
427.5992,115.6
427.6374,130.6
428.3323,290.3
428.539,565
428.9379,6513.5
428.9551,1405.9
428.9746,56.9
429.0799,185.4
429.0898,111.2
429.1175,22.7
429.2401,18.4
429.4686,82
429.6177,50
429.6266,21.4
429.6654,48.8
429.7375,107
429.7778,118.5
429.883,1124.2
430.2454,109.9
430.3552,112.1
430.4581,163
430.4872,120.3
430.5335,137.3
430.6989,366.4
430.9134,613.8
430.9372,168.6
430.9506,749.1
430.9689,220.9
430.972,218.2
431.0418,400
431.0872,24.3
431.2174,403.5
431.2304,93.3
431.3836,137.1
431.4853,169.3
431.5582,296.6
431.6596,95.6
431.6917,364.1
431.7171,584.8
431.7292,344.6
431.8729,166.7
431.9509,125.3
432.0115,524.6
432.3735,609.7
432.531,243.5
432.7863,223.9
432.8238,380.7
432.9613,289.4
432.9642,290.8
433.0054,244.6
433.102,512.9
433.1514,644
433.2112,187.5
433.2502,46.9
433.52,20.7
433.7393,153.9
433.8023,97.8
433.8555,105
433.9718,349
434.0486,382.2
434.0942,107.9
434.3154,593.2
434.3416,600.2
434.676,87.6
434.6909,346.1
434.7512,202.7
434.7537,209.1
434.8098,17.7
434.9563,9925
435.1697,19.2
435.3086,104
435.3412,106.8
435.5515,17.7
435.8496,57.5
435.9039,101.6
435.9377,758.1
436.5042,88.6
436.532,163.5
436.7057,280.2
436.728,879
436.7882,481.1
436.8203,29.4
436.8733,173.6
436.9357,117.3
436.9574,1070.5
436.9902,129.9
437.0567,18.5
437.1863,1502.7
437.2051,1230.8
437.4564,146.6
437.4654,329.9
437.5052,106.9
437.5446,609.9
437.7916,83.3
438.1974,1307.5
438.3264,330.4
438.5864,209.2
438.6101,246.2
438.7284,441.5
438.7349,172.7
438.9112,270.7
438.9732,493.9
438.9851,5374.4
439.1112,239.2
439.2029,192.5
439.4155,611
439.5781,1094.1
439.6795,372.7
439.7148,892.8
439.7308,381.8
439.7742,353.5
439.9961,111.7
440.1514,176
440.2153,741.8
440.225,142.1
440.4444,17.8
440.46,147.9
440.7261,2215.2
440.9556,23.6
440.9824,1447.2
440.9929,21
441.2624,140.2
441.291,300.2
441.2986,125.7
441.3237,573.1
441.5723,97.6
441.653,540.2
441.7803,403.7
442.009,619.2
442.1743,128.5
442.3016,33.6
442.4851,409.6
442.7228,391.5
442.7337,610.3
442.8765,18.7
442.9845,591.9
443.1452,1097.8
443.2549,2550
443.3108,227.5
443.4479,311.8
443.5414,51.4
443.6104,369.1
443.7214,367.2
443.8828,535.2
443.9734,80.3
444.1518,90.4
444.253,601.4
444.2977,203.2
444.4123,562.7
444.6104,98.7
444.6372,778.3
444.6465,19.5
444.8542,646.9
444.8726,21
444.9104,306.3
444.9757,20.1
444.997,17.8
445.0074,439.8
445.1431,748.2
445.2332,1907.1
445.27,963.5
445.3411,148.7
445.7127,676.8
445.7516,656.5
445.9358,104.5
445.966,19.2
445.989,17.2
446.1092,486.2
446.2264,510.5
446.6683,108.4
446.8807,246.1
446.9905,17.7
447.0907,88.9
447.1495,105.3
447.1836,142.6
447.2497,155.5
447.3226,23.6
447.8255,555.9
447.9124,318.5
447.9328,3949.8
448.2635,19.9
448.2884,351
448.3872,342.9
448.6674,430.1
448.75,24.4
448.8497,175.2
448.9331,4121.6
448.9581,398.5
449.1302,194
449.1547,2014
449.1836,87.1
449.2945,624.5
449.563,469.6
449.8662,21.6
449.9291,120.1
450.0237,498.3
450.0501,927.4
450.1581,367.7
450.2303,184.5
450.3575,23.2
450.4186,118.7
450.6657,394.3
450.9436,426.5
450.9977,308.4
451.151,104.2
451.2735,21.5
451.3242,191.1
451.3456,222
451.3698,568.3
451.4294,21.2
451.5603,98.1
451.9017,92.9
451.955,99.7
452.2262,199.9
452.2639,345.7
452.6638,515
452.7563,565.8
452.7746,21.2
452.8487,17.7
453.1162,306
453.1739,3180.6
453.2271,115.8
453.4114,112.5
453.6896,136.4
453.7948,88.6
453.849,349.7
453.9129,20.7
453.967,344.9
454.6336,142.1
454.6594,93.5
454.7033,406.6
454.7437,111.2
454.9264,246.9
454.9367,25.3
454.9503,44754.6
454.9788,119.2
455.0412,308.3
455.1892,347.7
455.2271,219.9
455.2385,94.4
455.3972,130.7
455.678,54.3
455.7394,17.8
455.7563,231.4
455.8166,127.9
455.9537,1534.5
456.1471,227.9
456.2185,129.2
456.23,211.6
456.5283,183.5
456.5357,750.5
456.5506,364.1
456.5652,390.6
456.6167,231.5
456.679,281.5
456.6965,837.3
456.7973,19.1
456.811,601.8
456.9473,10519.2
457.0025,246.9
457.2335,12642.5
457.3953,135.1
457.7117,341.8
457.8943,157.2
457.9683,123.6
458.1275,276.3
458.1514,18.8
458.1984,305.7
458.2366,2137.2
458.4209,171.5
458.6584,91.4
458.9359,119.1
458.9453,367.4
458.9617,1718.4
459.2165,84.9
459.2298,596
459.249,575133.6
459.2852,90.3
459.3614,170.4
459.4171,399.9
459.6707,352.1
459.6783,319.7
459.7648,263.4
459.7809,196.5
459.9468,79.4
460.0959,385.3
460.2523,117131.5
460.2724,208.1
460.5202,328.1
460.6395,129.9
460.9671,87364
461.188,178
461.2554,8425.1
461.2711,571.9
461.3702,93.9
461.6026,195.5
461.812,370
461.9703,5683.9
462.1856,189.2
462.258,546.1
462.4911,569.4
462.5755,123.8
462.6056,20.4
462.619,419.4
462.6327,166.4
462.8359,413.6
462.8736,127.6
462.9642,26659.3
463.134,45.5
463.2023,3123.4
463.2217,602.8
463.4055,164.1
463.8072,71.2
463.8861,293.3
463.9065,791.6
463.9675,1217.4
464.2794,44.2
464.9788,9655.8
465.3274,119
465.5735,142.7
465.9013,252.4
465.9816,375
466.1373,95
466.1953,106.4
466.4715,332.8
466.7277,668.4
466.7921,19
466.82,805.8
467.5942,669.5
467.8955,91.3
468.0366,94.6
468.1219,297.8
468.139,20.6
468.4087,174
468.4362,18
468.5121,19.5
468.5575,235.3
468.583,231.7
468.6745,335.9
469.2728,1173.6
469.3249,485.3
469.3747,128.9
469.5367,118
469.9413,349.2
469.9707,115.6
470.0038,177.5
470.034,123.5
470.0899,180.4
470.1381,486
470.3848,115.9
470.4822,18.2
470.5583,549
470.777,170.8
470.8138,582.1
470.9241,14636.5
470.9958,3723.9
471.2855,868.3
471.3872,52.3
471.8714,26.1
471.9192,135.6
471.9817,20.9
472.056,21.7
472.1742,92.1
472.5999,233.8
472.7374,108.6
472.9049,284.3
472.9213,2893.8
472.9472,1174.1
472.9619,997.3
472.9905,305.2
473.2645,4565.2
473.2945,26.2
473.4954,92.5
473.529,127.3
473.9026,480.2
473.9175,19.7
473.9297,20.8
474.0442,301.9
474.1231,739.6
474.2742,253.4
474.704,434
474.8145,1066.3
474.9476,553.2
475.0719,102.8
475.223,21900.8
475.2673,199.8
475.3082,1009.3
475.7162,19.7
475.7633,802.9
475.8134,603.5
476.0327,331.3
476.226,2908.8
476.4749,206.9
476.6318,19
476.9411,41916.7
477.1265,82.8
477.1722,168.2
477.2628,111.5
477.4613,129.7
477.4947,499.9
477.5964,286.7
477.8516,23.2
477.9184,362.8
477.9442,1940.8
478.13,428
478.1634,403.9
478.2415,589
478.2626,100.6
478.2838,836
478.2923,769.4
478.3299,55117.4
478.6318,646.5
478.8873,131.2
478.9382,11875.2
479.0019,125.7
479.0729,217.5
479.0971,72
479.269,120.5
479.3331,12327
479.3861,386.7
479.4927,68
479.6774,107
479.7396,20.6
479.8742,126
479.9423,403.7
480.1538,579.1
480.3359,528.4
480.3466,648.8
480.3998,807.5
480.4933,797.5
480.5449,140.4
480.5746,132
480.9532,1611.3
481.0921,2725.6
481.1673,57.7
481.2128,309.7
481.2335,890.6
481.2973,535.5
481.3727,19.4
481.4818,301.8
481.5132,772.3
481.5406,322.1
481.8224,114.1
481.9374,184.9
482.0958,308.8
482.3229,150.4
482.3637,222.3
482.4506,221.9
482.4597,99.4
482.691,126.1
482.9881,103.4
483.0081,225.8
483.087,79
483.0956,73.6
483.151,695.8
483.1802,140.1
483.194,686.1
483.2122,147.5
483.2491,136757
483.3002,628.6
483.5192,313.4
483.6784,19.4
483.9138,322.1
484.0036,127.2
484.0671,393.7
484.1961,44.3
484.2523,32014.6
484.3663,20.9
484.4404,20.5
484.6273,89.4
484.9868,314.8
485.01,469.9
485.0857,502.5
485.2647,154564.2
485.8164,82.9
485.8626,139.6
485.9661,48.4
486.0133,121.8
486.2681,35400.1
486.3871,377.9
486.487,577.1
486.6527,20.3
486.7194,109.1
486.8984,1144.6
486.9702,1121.4
487.0989,578.8
487.2178,389
487.2803,116762.5
487.3975,97.6
488.0376,505.6
488.2304,377.2
488.2835,24358.5
488.4311,18.6
488.4425,482.7
488.4622,23.7
488.5194,229.5
488.5433,102.2
488.6042,540.3
488.7088,131
488.8921,614.8
489.0021,18.8
489.0279,140.5
489.0336,145.3
489.0871,23.5
489.2415,511.1
489.2868,625.7
489.307,585.2
489.3461,167.4
489.3549,689.4
489.3704,154.4
489.3883,130.3
489.4174,168.2
489.4357,481.7
489.462,17.8
489.4804,830.1
489.5006,132.9
489.5462,136.9
489.7145,254
490.1256,108.7
490.2924,850.6
490.492,20.7
490.5501,58.1
490.6539,93.9
490.6638,140.1
490.8876,261.1
490.9326,421.9
491.1245,302.9
491.7645,587
492.0057,225.6
492.1492,19.4
492.3166,312.2
492.6146,421.4
492.915,3517.5
493.0486,637.1
493.5113,878.8
493.7763,217.7
493.9591,553.4
494.1006,212.8
494.2338,130.5
494.3092,16.7
494.325,3972.8
494.4152,169.3
494.768,44.2
494.832,43.1
494.9127,1530.9
494.969,182.6
495.0907,477.7
495.1446,20.2
495.1723,464.2
495.2041,151.5
495.3696,199.2
495.3941,18.2
495.6024,549
495.6574,18.4
495.6706,318.1
496.0003,129.9
496.0419,152.7
496.1585,97.4
496.3406,398742.4
496.3716,151.4
496.3821,158.8
496.7778,301
496.8294,206.7
496.9281,387.1
497.0269,18.1
497.1984,98.1
497.2089,119.3
497.3438,98814
497.9933,425.2
498.0259,366.4
498.039,188.5
498.238,124.1
498.3471,5267.7
498.3891,291.7
498.7036,123.4
498.7219,250.5
499.2228,4496.7
499.5625,20.2
499.7524,270.1
499.7934,251.3
499.8143,355.7
500.0799,20.6
500.1316,112.1
500.278,1014.7
500.3738,512.9
500.4446,357.3
500.5212,239
500.5678,151.1
500.6889,125.3
500.8111,20.3
500.9853,749.3
501.2387,4863.4
501.3188,21
501.4045,108.5
501.4787,20.8
501.6144,223.6
502.2418,563
502.2915,623.3
502.3294,16798.4
502.5303,19.3
502.8812,271.2
502.9902,637
503.1088,30.8
503.1172,97.2
503.2216,284
503.254,5248.1
503.3333,609.3
503.4356,843.4
504.1554,114
504.2565,724.4
504.3073,3157.2
504.3452,11343.8
504.5317,861.5
504.5874,467.5
504.7861,18.3
504.8822,88.5
505.0446,120.3
505.1395,115.3
505.1849,240.5
505.2334,2088.9
505.2552,19
505.2748,121.5
505.3112,851
505.3495,83
505.3949,97.7
505.4353,234.7
505.4751,103.7
505.6266,97.1
505.8906,746.2
506.2366,435.3
506.3013,16.8
506.3612,6406.1
506.3963,94.6
506.47,371.7
506.5544,356.5
506.624,376.3
506.7127,18.3
506.7471,89.9
506.8917,3127.8
506.9666,345.8
507.2491,54372.9
507.275,46.1
507.2913,118.1
507.3649,620.2
507.6017,20.2
507.6422,285.7
507.7601,333.1
507.8227,19.2
507.8931,909.8
508.0203,347.1
508.2523,11712.4
508.2992,183.2
508.3103,688.9
508.3748,1423
508.4727,126
508.8306,335.9
508.89,1241.7
509.005,5162.2
509.0477,956.5
509.2643,12356
509.3662,445
509.7302,305
509.8242,121.4
509.8593,208.1
509.9277,193.9
509.9668,104.4
510.0382,288.3
510.268,1574.8
510.3572,650.5
510.4328,89.1
510.6669,94.4
511.1248,23.9
511.1445,592.2
511.6588,325.9
511.6988,348
511.97,462
512.4852,49.4
512.5292,107.8
512.6843,201.1
512.7801,102.1
512.8077,304.3
512.8476,306.9
512.9088,18575.9
512.9374,18.6
512.9596,498
513.0029,389.2
513.062,884.2
513.1055,166.2
513.2957,838
513.4114,598.9
513.765,374.4
513.8997,124.8
513.9125,438.7
513.9262,45.5
514.032,157.9
514.0831,111.8
514.2083,169.3
514.6419,241
514.6592,338.5
514.9058,9717.3
514.9375,18.9
515.0222,393.3
515.0498,17.5
515.1438,989.7
515.2506,740.4
515.3923,465.9
515.6935,813.8
515.8479,147.4
516.0232,202.1
516.1448,208.2
516.1859,629.3
516.2328,123.9
516.3069,15756.6
516.4725,145.4
516.6872,404
516.9199,1176.2
517.1776,295.1
517.2503,95.7
517.3104,1002.9
517.4955,263.4
517.6222,392.4
517.7605,115
517.7974,224.8
518.2518,339.5
518.3226,861183.3
518.444,560
518.5986,217.1
518.6761,215.8
518.8069,16.8
518.8873,628.1
518.9257,36817.6
519.3259,213872.9
519.3884,250.3
519.4388,403.2
519.5865,553.5
519.9291,1980
519.997,56.1
520.3292,22366
520.3405,95087.4
520.637,18.9
520.9229,18662.9
521.2282,102.6
521.3305,1566.3
521.3439,19249.8
521.4186,150.2
521.5535,226
521.5827,21.2
521.9268,534.9
521.978,925.9
521.9936,367.4
522.3562,113556.1
522.3909,284.6
522.5398,20.8
522.9203,1202.5
522.9373,4907.9
522.9695,1072.3
523.0151,152.7
523.1765,108.7
523.2225,741.6
523.241,101.2
523.3597,29227.7
523.6985,97.1
523.9844,18.4
524.0254,706.2
524.0409,709.2
524.2502,138
524.3719,102577.4
524.5144,287.7
524.6146,526
524.7348,327
524.8352,194.5
524.9352,1170.5
524.9553,577.5
524.9821,19.2
525.3753,24385.5
525.4974,104.2
525.6116,1185.7
525.6326,262.9
525.8067,193.7
525.9304,86.9
526.1074,523.5
526.2753,191.6
526.3297,7690.4
526.4097,271.8
526.8747,246.7
526.9875,111.2
527.3342,75.8
527.4047,20.4
527.562,226.9
527.8015,145.1
528.003,344.6
528.1531,19.4
528.3455,90.6
528.3626,458
528.4861,153.4
528.8825,4680.7
528.9131,92.1
528.9546,1590.1
529.0093,100.5
529.2099,142.7
530.2201,103.4
530.324,971.5
530.3593,2810.6
530.434,795.1
530.7511,624.3
530.7609,155.8
530.8341,88.6
530.8795,2404.9
531.1295,527.3
531.2494,13753
531.3616,678.4
531.3881,505.5
531.4601,327
531.6081,142.6
531.6658,454.4
531.7479,369.3
531.7736,359.5
532.2526,1857.5
532.2805,2690.1
532.3383,12728.7
532.5138,155.3
532.5422,115.7
532.587,185.7
532.6438,531.8
532.7171,154.8
532.9668,487.4
533.2642,1122.2
533.2789,165.3
533.3424,717.8
533.5009,417.7
533.5649,258.1
533.6115,293.1
533.63,166.4
533.7376,211.2
533.8985,896.9
534.2502,904.9
534.2966,169093
534.3198,381.9
534.449,561.1
534.4657,387.1
534.6385,932.4
534.8997,17521.6
535.0688,37.9
535.2999,36187.3
535.6912,19.8
535.7111,20.1
535.8067,232.9
535.9024,980
535.9569,125.9
536.295,7619.4
536.8971,9829.3
536.9404,171.9
537.0027,194.8
537.1852,202.8
537.2492,338.3
537.2975,1075.7
537.3396,399.4
537.5672,202.4
537.7952,273.7
537.9271,126.9
537.9512,215.2
538.047,438.8
538.2967,939
538.3697,246.7
538.3948,225.1
538.5185,202.6
538.7256,273.7
538.8677,98.8
538.8944,1141.8
538.9114,1571.6
538.9325,1465.7
539.1297,291.3
539.1325,287.8
539.3765,97.4
539.4316,257.9
539.4469,102.5
539.9164,872.3
540.087,276.2
540.3049,1771.5
540.587,113.4
540.8652,326.9
541.0286,222.6
541.2212,142.4
541.6852,522.4
541.7857,372.4
541.8587,100.5
542.1354,97.9
542.2441,118.8
542.3226,186549.9
542.4554,115.9
542.4902,1018.9
542.5769,239.7
542.606,161.8
542.8154,177.8
543.0026,133.1
543.1883,299.9
543.326,46779.9
543.5172,90.9
543.6379,21.1
543.8159,544.9
543.99,549.4
544.1698,1032.2
544.3384,246265.8
544.4813,778.3
544.5892,149.6
544.7159,188.1
544.8607,285.6
544.9254,614.3
544.9491,1724.1
545.0883,213.2
545.1707,402
545.3026,160.6
545.3418,58855.1
545.3584,506.9
545.8895,82.5
546.0246,484.4
546.0764,176.5
546.3539,221004.2
546.4857,49.4
546.6806,86.4
546.802,113.1
546.9275,341.2
547.0603,435.9
547.3572,53608.7
547.4173,333.9
547.531,1125.9
547.6607,420.9
547.7623,18.9
547.7879,378.9
548.0155,17.9
548.0979,93.8
548.1544,953
548.2764,954.5
548.3127,633.3
548.3605,5706.1
548.502,811.9
548.5154,152.6
549.0315,501.9
549.0496,952.6
549.3308,645.9
549.443,120.2
549.5277,106.9
550.0193,336.7
550.2213,284.3
550.3303,1519.8
550.4624,112.5
550.658,112.8
550.7663,907
550.8412,114
550.8743,1496.7
550.9776,19.4
551.0605,232.2
551.7317,184.3
551.7745,288.8
551.9886,132.9
552.106,22.2
552.2174,93.3
553.2054,168.5
553.4804,92.6
553.5532,200.8
553.8938,241.2
554.0578,130.1
554.2962,20.7
554.4003,439.1
554.4835,614.8
554.5893,228.3
554.7847,154.8
554.8927,353.5
555.1895,105
555.2349,217.1
555.4673,325.8
555.5002,50.7
555.7162,114.6
555.844,211.6
555.8745,82.7
555.8898,182.8
556.7349,331.3
556.8768,649.6
556.9554,441.3
557.2113,275.6
557.2335,563.1
557.3376,365.3
557.5683,177.1
557.5931,150
557.6684,123.6
557.6798,43.6
557.7532,214.4
557.7749,110.6
557.8745,19.6
557.9273,227.9
558.1081,200.9
558.2966,41927.2
558.3278,103.4
558.4792,18.7
558.5971,454.7
558.6142,460.8
559.2768,23.6
559.2997,7327.8
559.3648,160.5
559.4236,118.1
559.4731,334
559.5584,315.2
559.648,334.3
559.8107,204.2
560.0425,225.6
560.2938,796.1
560.3123,45806.8
560.5549,600.1
560.604,1073.3
560.9222,379.5
561.3159,8704.7
561.4648,21.2
561.8373,381.3
562.3105,849.6
562.3278,33718.4
562.6029,186.2
562.7046,138.4
562.7409,406.9
562.7618,207.1
563.331,8628.6
563.458,202
563.648,715.7
563.8085,24.7
563.9701,791.1
564.2984,97
564.3252,606.9
564.6671,511.7
564.682,111.7
564.8504,546.5
565.3354,187.4
565.4664,696.3
565.867,94.8
566.1212,662
566.1663,510.8
566.2324,461.1
566.3227,66726.1
566.8498,325.3
566.9637,940.1
567.0885,85.6
567.3262,19518.5
567.6216,664.9
568.1561,89.2
568.307,107.9
568.3388,20197.3
568.9667,353.5
569.3418,1273.3
569.4403,20.4
569.4622,915.4
569.4957,118.3
569.6533,225.6
569.7803,553.7
569.9072,432.9
569.9199,341.3
569.9384,538.1
570.1299,306.7
570.3511,762.3
570.4183,434.2
570.8672,7018.2
571.1083,149.7
571.1361,194.9
571.2422,313.3
571.5119,21.3
571.5259,235.8
571.7941,729.9
571.8796,188.3
572.1185,548.4
572.3678,641.5
572.6068,764.5
572.624,303.9
572.7469,371
572.8649,6735.6
572.9258,130.9
573.0206,92.5
573.1384,139
573.4378,303.4
573.6184,165.4
573.6445,108.5
573.8692,601.7
573.9499,231.8
574.0599,125.3
574.1695,216.4
574.2832,617.2
574.4647,94.3
574.7718,21.6
574.8381,137.8
574.8601,469
574.9082,130.4
574.9567,546.5
574.9978,553.8
575.0097,241
575.1369,103.7
575.5041,11104.5
575.7777,181.5
575.9515,288.8
576.0155,227.7
576.0557,153
576.2814,9778.6
576.4671,147.8
576.5136,271.2
576.6334,307.3
576.8843,12227.3
576.9322,104
577.022,127.6
577.2848,832.1
577.3355,205.7
577.4215,184.2
577.5185,497.6
577.5351,160.1
577.8872,411
578.1254,360.9
578.1855,115.8
578.2354,19.1
578.2785,1721.7
578.2903,480.8
578.5033,152.3
578.6371,631.6
578.6764,538.1
578.7353,104.3
578.8817,10776.3
578.904,124
579.0002,545.4
579.0181,1018
579.0377,224.3
579.3638,42.2
579.7723,677.3
579.8868,447.1
579.9626,206.6
579.9899,586
580.0098,412.7
580.2497,274.4
580.4003,340.2
580.8555,289.2
580.8789,2897.4
580.8958,2265.2
580.9625,18.1
581.3812,337.7
581.8836,578.5
581.9554,428
582.0645,124.8
582.0926,270.7
582.1757,100.4
582.2155,408.1
582.2426,52.7
582.2771,377.4
582.2969,13300
582.3509,467.3
582.3658,236.8
582.3739,117.5
582.3887,149.4
582.3976,417.7
582.4082,170.7
582.4191,272
582.4685,692.9
582.4864,464.7
582.5923,250.4
582.617,389.7
582.7701,23.3
582.8936,1989.9
582.9351,446.2
583.2569,2160.2
583.2997,1644.6
583.3551,385.3
583.8709,983.8
583.9004,263.3
583.9189,19.6
584.2978,681.5
584.3127,1872.8
584.4469,197.9
584.5139,205.1
584.5543,583.5
584.9057,582.2
584.9503,151.9
585.1686,251.5
585.2721,7503.8
585.5937,52.9
585.7963,502.7
585.8125,907.5
586.275,1433.9
586.3104,4392.1
586.5664,167.5
586.6139,306.1
586.8231,112.3
586.8424,2136.9
586.8817,235.1
586.9121,1045.8
587.0566,310.5
587.5051,251
587.6482,129
587.7048,557.4
587.8826,371.5
588.1435,970.5
588.8382,2131.2
588.9582,117.8
589.266,112
589.6767,100.3
589.7246,439.2
589.7931,159.2
589.8089,271.6
589.9223,611.7
590.0083,431.8
590.323,16631.3
590.6287,390.8
590.8023,163.1
590.924,1351
591.0273,242.2
591.3262,1690.3
591.526,690.7
591.7125,144.9
591.7416,256.9
591.863,939.8
592.0245,383.5
592.3036,396.5
592.3391,1431.4
592.7111,512.1
592.8584,6830.3
592.9045,99.9
592.934,313.1
593.029,106.4
593.1056,785.1
593.1654,390.6
593.1807,596.4
593.3123,310.4
593.3624,672.6
593.4391,209.4
593.7089,123
594.684,162
594.8558,6110.2
595.2991,472.7
595.9061,234.9
596.1927,864.6
596.2641,518.6
596.2964,104.6
596.3253,122
596.604,113.2
596.7667,119.9
596.8524,805.6
596.8687,445.1
597.0976,342
597.1593,44.7
597.4528,4566.7
597.4865,14109.4
597.56,313.6
597.6353,164
597.9658,125.4
598.0517,17.4
598.323,300.8
598.4527,1210.7
598.4641,1138.6
598.4901,2651.4
598.8056,562.2
598.8282,19.1
598.9139,210
599.3879,565.2
599.4713,123.2
599.5036,4569.1
599.5623,320.9
599.9564,160.2
600.3089,361.9
600.3138,366.5
600.3195,237
600.5079,760.4
601.2825,351.3
601.4128,328.7
601.5218,216.1
602.1041,94
602.2959,1071.3
602.4302,572.1
602.5446,318.9
602.9091,665.8
603.0857,171.9
603.1851,19
603.2984,695.4
603.3563,124.7
603.5354,91.2
603.6978,344.6
603.9948,201.6
604.505,164.8
604.527,111
604.5704,116.6
604.5842,376
604.7399,415.9
605.0244,553
605.0513,125.5
605.0913,640.1
605.1923,490.8
605.2975,626.8
605.8571,901.1
605.8794,319.6
605.9698,818
606.0515,551.7
606.096,289.6
606.1357,316.7
606.2971,2505.9
606.3478,267.5
606.4178,107.3
606.4801,148
606.6803,110.8
607.0415,546.7
607.1365,387.7
607.1714,2656.7
607.2532,989.3
607.4562,141.8
607.5865,549.6
607.6735,118.6
608.0023,358.4
608.1747,135.3
608.2449,124.4
608.6002,331.9
608.8332,740.8
609.5384,19.9
609.5973,18.3
610.0451,116.2
610.1527,99.9
610.307,925
610.4414,408
610.5844,556.8
610.8302,1173.8
610.8774,579.5
610.9664,667.5
611.0101,380.9
611.0623,356.6
611.0685,288
611.2852,399
611.384,520.9
611.4911,92.8
612.6033,20.8
613.35,206.4
613.3739,328.8
613.5547,118.1
613.7957,132.8
613.9999,368.8
614.1177,127.8
614.3031,166.3
615.0272,175.2
615.1072,626.3
615.1235,17.9
615.1487,413.5
615.1583,145.3
615.3402,394.3
615.7259,45.7
615.7344,218.9
615.7462,267.9
615.9844,161.3
616.3422,992.7
616.3876,283.6
616.6317,408.4
616.7429,26.3
616.8417,20.6
616.9242,509.8
616.9432,549.6
617.071,48.4
617.1043,110.7
617.4763,605.3
617.5522,172.8
617.9139,642.9
618.5301,468
618.5937,858.8
619.3119,1007
619.358,536.4
619.4916,1029.2
619.7459,332.7
619.9734,108.6
619.9993,376.7
620.3594,56.1
620.6283,332.6
620.7309,1026.3
620.9417,175.8
621.0555,439.2
621.1281,125.1
621.4569,5322.3
621.4862,13290.7
621.6016,561.2
621.6983,108.6
621.7299,936.2
621.8191,168.5
621.9973,511.1
622.0805,234.2
622.0872,245.8
622.2112,804.1
622.3598,91.3
622.4531,572.6
622.4714,251.4
622.4893,2078.2
622.5896,212.3
622.9658,361.7
623.1367,16579.6
623.5028,1320
623.5562,655.2
624.1405,1191.7
624.2118,20.6
624.4001,20.7
624.4724,141.1
624.8609,16.9
624.9489,700.5
624.9909,165.4
625.1423,185.2
625.3625,365.7
625.4864,1228.1
625.5122,1467
625.5177,1197.1
625.9424,104.9
626.2809,786.9
626.3353,411.8
626.4476,110
626.7243,194.4
627.2381,325.9
627.3333,100
627.4936,194.8
627.5355,186.3
627.5887,95.6
627.8445,136.9
627.979,202.2
628.0049,141.7
628.0433,261.2
628.1716,96.7
628.5156,258.7
628.5411,194.9
628.7508,647.8
628.9355,117.2
629.1537,37137.6
629.3214,90.7
629.3563,233.7
629.7649,375.3
630.1573,5918.6
630.4492,114.7
630.5714,228.5
630.9387,584.4
631.1284,135.9
631.3151,327.5
631.3675,288.5
631.7626,153.8
632.1585,363.7
632.4979,894.3
632.6284,110
632.6516,279.4
632.7523,485.4
632.8371,101.9
632.9358,580.6
633.1411,243.4
633.161,353.7
633.4246,144.7
633.8213,20.7
634.3363,212.4
634.8431,3164.4
635.37,153.2
635.4698,273
635.5125,600.8
635.5423,19.7
635.7504,522.1
635.866,179.9
636.1016,180.4
636.84,3458.8
637.4283,317.8
638.0067,285.8
638.1013,235.5
638.2344,361.1
638.4533,540.7
638.5631,163.4
638.837,2004.1
638.9506,19.8
639.3455,190.3
639.5294,233.7
639.7124,503.8
640.606,670.6
640.6344,156.2
640.9034,728.9
641.0706,907.5
641.2672,122.5
641.3226,118.8
641.3855,213.1
641.7509,447.5
641.895,156.8
642.0275,372.2
642.1033,495.4
642.1756,262.8
642.4538,98.3
642.4847,524.9
642.709,117.2
642.7501,556.8
643.0272,105.2
643.9323,117.4
643.9409,152.6
643.9468,114.6
644.0679,618.7
644.1651,117
644.5005,308.8
644.5368,20.9
644.801,382.2
645.0023,617.5
645.1186,12254.8
645.3754,423.9
645.4512,793.6
645.4863,2137.7
645.731,988.8
645.9035,101.8
646.005,147.5
646.1224,778.7
646.4273,974.2
646.457,1230.4
646.492,138.3
646.5877,26.1
646.8115,332.6
647.094,301.6
647.2126,261.3
647.2334,250.6
647.4017,413.4
647.5167,500.5
647.6731,305.5
647.9085,101.5
647.9676,673.8
648.3797,262.9
648.4095,32.2
648.6525,641
648.6886,97.6
648.8067,270.3
649.088,128.3
649.0925,133.2
649.4351,221.4
649.4927,427.4
649.6362,947
649.927,109.1
650.3123,21.7
650.5137,596.8
650.5457,429.3
650.6675,120
650.7022,323.8
650.8173,1939.5
650.8962,49.7
650.964,419.2
650.9835,332.2
651.1356,42944.8
651.4082,461.8
651.4337,287.5
651.4893,107.5
651.5332,47.6
651.7435,172.1
651.8943,594.3
652.1394,8291.2
652.1964,551.9
652.2564,18.4
652.468,944.8
652.4984,218.9
652.5746,189.4
652.814,2467
652.9581,854.8
653.112,555.5
653.1436,248
653.3111,18.6
654.0387,265.7
654.2202,129.7
654.2393,154.1
654.2937,293.1
654.5939,284.9
654.6627,283.4
654.8109,606.6
654.8527,477.6
655.2263,388.3
655.3661,199
655.8287,346.6
656.1085,26.1
656.1496,161.9
656.1745,123.7
656.1899,19.4
656.4338,208.8
656.9799,142.9
657.5689,123.5
657.7984,156.7
658.0888,22.3
658.1808,22.1
658.3634,397.3
658.4369,188.5
658.5088,267.6
659.3308,190.1
659.4388,1013.9
659.559,188.5
659.8392,632.3
659.9679,921.2
660.0283,589
660.0834,4091.2
660.1842,301.3
660.2481,119.4
660.4453,1687
660.776,508.8
661.0217,119
661.0418,239.5
661.083,4204.7
661.5193,144
661.6819,507.4
661.7002,330.5
661.9097,551
662.1007,874.8
662.2633,147
662.4426,199.4
662.5317,176.7
662.5704,103.9
662.8121,631.4
663.0914,342.8
663.3512,307.8
663.4028,353.7
663.4553,651
663.642,19.2
663.8109,417.9
663.9156,382.2
664.4698,3739.1
664.7873,1201.3
665.135,261.4
665.1404,212.7
665.2782,275.3
665.3631,288.5
665.4489,164.7
665.4753,157.1
665.6737,501.1
666.0734,181.1
666.1672,102.6
666.3649,122.2
666.403,112
666.4843,10383.2
666.9881,570.4
667.1003,20013.1
667.4886,866.3
667.5517,120.2
667.6109,178.8
667.6234,156.7
667.7575,149.4
667.798,23.3
667.9205,226.4
668.0671,21.2
668.1045,1725.6
668.3507,21
668.5575,635.6
668.7428,490.3
668.8703,600.5
668.9776,116.6
669.0943,953.9
669.189,520.2
669.4179,116.3
669.732,89.4
670.1101,221.3
670.3403,445.7
670.4332,898.2
670.5385,184.1
670.5751,322.3
670.9734,474.9
671.0924,154.9
671.162,19.9
671.2161,164
671.4374,1186.3
671.6547,106
671.7158,62.8
671.9617,253.3
672.4098,193.9
672.4882,96.8
672.5107,360.6
672.5263,401.4
672.8662,103.6
672.9618,324
673.0444,158.2
673.1175,52794
673.1659,195
673.427,854.2
673.4738,122.5
674.1212,10013.2
674.1796,346.1
674.5426,163.3
674.7575,297.8
674.9867,220.7
675.1228,135.5
675.2244,22.5
675.4265,98.7
675.5448,5769.3
675.6689,122.3
675.8153,176.8
675.9745,89.4
676.0483,5689.7
676.0884,92.2
676.1848,99
676.2306,54
676.5484,1001.7
676.7697,624.3
676.8014,19.2
676.8644,54.9
676.8879,265.2
677.0495,150.2
677.8976,181.6
678.058,119.8
678.0723,285.1
678.3541,179.9
678.6112,263.8
678.7014,123.9
679.0602,109.1
679.2142,287.2
679.6232,299.4
680.0318,96.4
680.3751,252.5
680.6283,90.3
680.702,120.1
681.0225,141.8
681.4344,322.7
681.6717,45.8
681.8836,238.1
681.9747,450
682.0653,15780.5
682.4589,1516.9
682.7659,120.4
682.8366,176
682.8964,119.7
682.9222,129
683.0025,865.7
683.0312,20.6
683.0653,3717.1
683.092,337.5
683.3296,21.4
683.4262,122.7
683.6151,255.8
683.7247,19.4
683.8503,44.9
683.8804,164
684.0208,81.4
684.0719,106.9
684.5307,169.7
685.0724,251.6
685.1863,87.9
685.4371,10339
685.6587,169.5
685.951,123.2
685.9961,396.2
686.0649,94.3
686.0867,198.8
686.1368,27
686.3821,135.4
686.4405,957.5
686.6691,110.8
686.8333,43.4
687.0756,54.9
687.5269,54.7
687.5447,631
687.7246,20.3
688.3448,822.4
688.3954,321.2
688.7846,831.5
688.873,108.8
688.9139,294.5
688.9551,279
689.0819,15323.8
689.0912,12505.6
689.5601,4337.2
689.5896,266.7
689.7795,212.5
690.0861,1176.5
690.1926,480.7
690.3865,747.1
690.5648,962.3
690.6959,91.7
690.8804,578.1
691.0047,366.2
691.0877,104.9
691.1327,140.9
691.1966,205
691.231,121.7
691.4914,143.9
692.7959,362.4
693.0335,114.3
693.0891,18.8
693.3587,274.9
693.7055,122.4
693.7667,336.9
693.9742,338
694.0318,350.2
694.5345,308.4
694.799,1132.7
694.8592,975.2
695.0997,38062.4
695.195,295.3
695.5106,1440
695.5766,321.4
695.8659,649.3
695.9979,128.7
696.0397,98.5
696.1036,6776.1
696.175,136.9
696.4368,26.1
696.9938,370.9
697.1065,484.6
697.4774,244.8
697.5269,16536.7
697.6307,319.7
697.799,97.3
698.0301,3247.5
698.076,374
698.1418,20.1
698.2886,19
698.5303,6480.2
698.6197,509.1
698.7072,124.8
698.9551,243.6
699.4018,88.8
699.5885,1381.3
699.7022,236.2
700.0156,20
700.045,277.3
700.6493,941
700.6787,623.4
700.7997,21.9
701.2417,367.9
701.3371,111.8
701.4114,251.4
701.4609,104.8
701.5605,35385.4
701.9923,27.7
702.343,1571.1
702.426,716
702.5636,15036.2
703.1827,304.5
703.4281,187.7
703.4935,181.9
703.5763,87615.8
703.8136,109.8
703.8586,146.4
704.0474,9477.1
704.0914,286.8
704.1944,543.3
704.3407,130.2
704.5797,36451.9
704.6478,656.9
704.7553,21.6
704.7689,108.3
705.0475,1474.5
705.4054,317.8
705.5821,2224.8
705.7452,150
706.4593,204.8
706.6853,319.1
707.0572,182.8
707.3344,328.8
707.3865,947.4
707.4616,620
707.5687,129.4
708.0486,87.1
708.2406,23.9
708.4862,420.9
708.7939,94.1
708.8394,164.8
708.9381,214
709.089,118.6
709.1529,18.2
709.3415,20.4
709.8775,797.6
710.3074,282.8
710.4161,287.9
710.6951,145.9
710.9463,453
711.064,10260.3
711.0747,12579.8
711.1652,126.5
711.2429,49.9
711.5421,9284.3
711.8382,132.2
712.0772,1095.1
712.1233,137.7
712.2762,101.3
712.5453,2032.4
713.0227,190.9
713.0437,162.7
713.0696,305.4
713.1706,319.5
713.2657,109
713.4229,228.6
714.0207,257.7
714.3669,122.5
715.2332,96.4
715.2748,47.6
715.5795,211.6
716.107,105.4
716.1511,353.2
716.2591,100
716.5721,19.5
716.6563,919.2
716.7447,417.8
717.0814,18850.2
717.1793,167.3
717.3645,569.6
717.3865,365.5
717.5907,686.7
717.6228,101.8
717.698,157.5
717.7625,244.5
717.8028,116.3
717.8862,304.6
717.9015,431.3
718.0854,2186.4
718.5919,151.7
718.7301,92.9
719.0858,159.6
719.2209,18.5
719.3205,20.6
719.4175,834.5
719.4653,983.1
719.4828,28.5
719.5792,47.8
719.6256,159.5
719.9877,427.2
720.0134,1577.7
720.0225,2271.6
720.0854,17.5
720.1315,137
720.1758,20.9
720.6645,532.5
721.0137,111.1
721.0706,136.2
721.119,559.2
721.431,470.4
721.4793,68631.8
721.6715,168.3
721.9207,107
721.972,171.8
722.0739,156.2
722.1375,175.4
722.3663,390.9
722.4826,29722.7
722.745,20.5
723.0248,135.1
723.1646,721.1
723.4958,15647.5
723.5425,50830
724.4981,5113
724.5463,22897.4
724.8096,368
725.0483,503.2
725.1329,105.4
725.5584,124369.5
725.6749,114.4
726.0294,5803.8
726.5618,51374.6
726.7874,381.6
727.0281,226.1
727.0477,175.9
727.2142,50.3
727.4626,177
727.5218,333.1
727.564,7758.4
727.8139,383.4
728.2162,117.6
728.3213,129.1
728.9481,870
729.2034,121.7
729.2209,19.2
729.3427,476.6
729.5917,20098.3
730.5395,1873.4
730.5962,4996.9
731.4082,102.9
731.4878,427.4
731.5413,550.6
731.6079,7207.9
732.518,19.9
732.5551,28770.2
732.6117,1485.4
733.0453,4825.1
733.0554,4700.4
733.4021,156.3
733.5587,9739
733.7275,564.4
733.9712,19.9
734.074,505.5
734.2281,134
734.4197,19.1
734.5719,8195.8
734.9773,148.8
735.2492,948.6
735.289,213.2
735.5748,1461
735.6413,124.3
735.6645,1071.4
735.9155,477.4
735.9443,793.1
736.3226,244.8
736.575,337.1
736.9399,529.2
737.3078,146.7
737.4533,12169.2
737.4781,354.9
737.7229,18.4
738.4158,336.6
738.4544,1787.5
738.7277,840.3
738.9571,520.8
738.9816,245.1
739.0635,12069
739.3221,367.5
739.4674,927.1
739.5162,5759.7
739.8477,24
740.068,821.8
740.2043,102.5
740.2296,277.7
740.2643,392.3
740.3301,21.3
740.5216,1148.2
740.9352,106.4
740.9717,562.8
741.0641,243.7
741.4015,270.8
741.5321,7917.9
741.8229,136.6
742.0046,1211.5
742.1997,106.9
742.4979,127.6
742.5362,4674.5
742.5759,7787.9
742.9339,118.1
743.0066,139.3
743.2704,646.3
743.531,324.9
743.5768,482
743.6358,18.7
744.4072,22.4
744.5546,3144.8
744.5917,5641.5
744.7009,140.9
745.1134,44.1
745.4796,44087.8
745.5934,174.8
745.6001,154
745.8216,361.1
746.1137,25.2
746.167,275.3
746.2565,17.6
746.483,17504.6
746.5707,1882.7
746.6073,3376.4
746.9808,506.7
747.2354,503.3
747.3977,708.6
747.4967,11000.8
747.6149,414
747.783,43.1
748.0108,2116
748.1667,556.8
748.4853,555.3
748.5045,889.5
748.5145,834.1
748.612,18.4
748.8228,215.1
749.1164,42.1
749.2526,146.9
749.477,103.3
749.5109,5708.7
749.6632,120
750.0736,98.3
750.1212,795.6
750.3143,97.4
750.4349,575.8
750.5127,1798.3
750.7896,208
751.1326,524.3
751.227,330.4
751.574,19464.5
751.6789,488.6
752.5217,4216.8
752.5776,6088.3
752.7622,363.9
753.5243,1646.2
753.5904,7357.6
753.9486,591.7
754.1474,680.8
754.2614,488.6
754.5377,25487.8
754.5936,2315.7
755.0386,3102.3
755.4241,163.5
755.5404,11653.7
755.5915,795.5
756.3622,543.7
756.4096,80.9
756.5548,36891.9
756.7128,141
756.8845,20.1
756.9609,224.2
757.0562,117.5
757.4759,521.4
757.5179,875.1
757.5581,13114.1
757.6245,1749.9
758.0073,149.9
758.0895,274.8
758.2824,438.3
758.571,946549.7
758.6261,339.5
758.8508,380.2
758.967,581.7
759.1679,733
759.3291,803.1
759.5744,420998.6
759.64,1346.6
759.7071,141.5
759.9362,19
760.1718,19.3
760.4745,101.6
760.5875,373667.7
760.9527,52.8
761.0455,5225.6
761.1376,321.6
761.1928,469.3
761.4541,5243.1
761.5903,177949.3
761.7896,23
762.4563,2007.8
762.5037,132.8
762.5399,120.9
762.5932,39688
763.0095,203.2
763.0617,108.6
763.4703,647.4
763.5957,3193.7
763.6894,186.1
763.964,568
764.0881,103.7
764.1789,97.8
764.4143,185.8
764.4702,1103.8
764.5582,4128.6
764.9591,141.1
764.9818,163.9
765.776,578.9
765.8805,239.1
765.9199,650.2
766.0108,559.4
766.5367,3960.9
766.5759,29192.1
766.6221,21.2
766.6485,160.9
766.7916,302.6
766.8697,242.9
767.3389,121.4
767.4224,21
767.5408,1159
767.5788,12432.8
767.7013,262.4
767.7824,175.1
768.1137,348.9
768.1521,99.4
768.4023,87.4
768.4455,18.4
768.5543,4008.1
768.5921,33973.5
768.9451,110.3
769.0319,293.7
769.1219,747.9
769.3399,261.8
769.4796,20516.6
769.5574,701.6
769.5955,14036.2
769.8585,344.2
770.2061,163.1
770.4833,6236.4
770.5086,395.7
770.572,566.1
770.6091,1321.1
770.8645,357.7
770.9662,924.9
770.9928,4497.1
771.0727,162.2
771.4959,1767.6
771.6122,57.3
771.8024,114.9
771.9305,114.2
772.0095,217.7
772.1305,440.7
772.2014,251.9
772.4975,977.6
772.5868,11593.6
772.6226,302.6
772.6415,117.9
773.3714,425.8
773.4389,339.7
773.4731,141.7
773.5091,1842
773.5907,2555.3
773.7827,140.9
773.9678,426.2
774.006,217.5
774.6034,1608.5
774.8701,188.5
774.9285,22.2
775.2863,136.5
775.3706,139.8
775.3941,257.8
775.9061,84
776.3681,107.4
776.4574,531.4
776.5215,165.4
777.0104,5629.6
777.2905,217.3
777.3311,306.8
777.5433,730.8
778.1621,160.2
778.2483,357.8
778.4208,118
778.5374,31491.9
778.8336,542.5
779.1961,86.8
779.374,153.1
779.4678,87.6
779.5406,12150.7
779.5847,407.8
779.821,825.8
779.8415,177.8
779.9485,124.9
780.3266,127.9
780.5531,803908.3
780.6266,270.4
781.4358,563.6
781.5074,139.8
781.5566,354743.1
781.7301,103
782.5129,286.3
782.5706,857112.9
783.0274,6039.8
783.1292,321.4
783.5739,403335.8
783.6719,209.5
784.3688,19.5
784.5878,240523.6
785.2027,129.9
785.4516,1059.3
785.5906,116551.7
785.6548,5237.8
786.1589,84.1
786.3384,490
786.4725,55.1
786.6029,228194.3
786.7494,139.5
787.045,923.8
787.4628,1407.6
787.5031,215.4
787.606,113313.4
787.671,564.8
787.7312,197.4
787.9721,336.9
787.9982,122.4
788.5576,16922.9
788.6061,15641.7
788.6218,10027.5
788.7609,196.7
789.3163,137
789.4082,252.1
789.5601,5044.8
789.5848,202.1
789.6228,7139.8
789.9188,518.5
790.0461,522.4
790.4687,327.2
790.5048,225.1
790.5741,19018.9
790.603,161.6
790.8918,193.3
790.9157,490
791.0549,1394.2
791.1212,178.8
791.3281,19.8
791.3754,850
791.4881,97.2
791.5759,6804.3
791.736,123.3
792.554,2205.1
792.592,8435.8
792.8674,103.3
792.9383,311.1
792.983,701.9
793.0423,100.1
793.1042,230.2
793.3077,914.2
793.4897,835
793.5565,109.7
793.5954,2863.7
793.6567,369.1
793.954,94.6
794.5034,561.6
794.5691,8318.6
794.6076,35203.9
794.6736,604.6
795.0527,164.2
795.1996,327.6
795.5137,379.6
795.5721,1647.3
795.6106,16937.5
795.8152,92.4
795.8408,961.4
796.0491,343.4
796.4696,329.1
796.5269,119783.1
796.587,5675.4
796.6255,2278.8
796.8193,148.4
796.9103,306.6
797.5303,52351.3
797.59,1110.4
797.6286,945
798.149,100.2
798.5438,31775.7
798.8061,154.7
798.9793,132.3
798.9951,337.3
799.016,169.5
799.0576,176.8
799.3743,23.1
799.49,513.2
799.5459,16812.1
799.6688,364.1
799.7774,19.6
800.4976,252
800.5185,193.6
800.5499,706.9
800.6794,101
800.7646,79.1
800.8721,212.8
801.2266,816.1
801.5458,1606.5
801.6388,20.5
801.6773,711.4
802.0451,865.5
802.3677,43
802.5376,30156.5
802.5916,504.7
803.0539,524.3
803.1772,439.8
803.2427,42.4
803.4836,673.6
803.541,11966.2
803.8836,180.1
804.4749,343.3
804.5532,512870.2
804.6823,376.1
804.963,586.4
805.0261,144.6
805.0641,22.9
805.4538,243.3
805.511,105.7
805.5564,239378.4
805.7459,236.9
805.956,157.4
806.3245,685.8
806.5706,444025.5
806.7448,103.5
806.9081,757.9
807.5738,221108.1
807.6317,187
807.6798,173.2
807.9312,228.9
808.0163,174.7
808.383,17.5
808.5865,219754.7
808.8587,128.6
809.2304,346.3
809.4794,240.6
809.5893,108851.8
809.651,381
810.5447,118.1
810.6031,155868.4
810.8468,275.9
810.9804,190.5
811.14,129.4
811.3572,191.6
811.6059,78417.8
811.671,11402.4
812.5621,135.8
812.6045,6138.8
812.6212,14548.9
812.6735,3621.9
812.9239,333.2
813.3781,181.9
813.6227,7285.4
813.6867,8436.2
813.7602,108.3
814.0845,109.2
814.5747,1679.5
814.6897,4586.6
814.8622,148.6
815.5765,1179.1
815.9986,605.1
816.0321,169
816.3489,104.3
816.5033,325
816.5257,43
816.5896,22161.7
816.6751,595.1
816.7412,957.9
816.8169,408.2
817.2658,304.6
817.4464,324.7
817.5931,7389.3
818.0653,506.1
818.2283,149.2
818.4551,21.9
818.5113,492.2
818.5671,1535.6
818.608,1544.6
818.8592,245.1
819.1376,327.3
819.263,560.2
819.4405,81.1
819.609,152.3
820.2753,276
820.3897,105
820.4852,634
820.5271,75067.8
820.589,1023.9
820.7839,578.1
820.8226,455.2
820.9637,748.9
821.0682,224.2
821.3964,221.3
821.5306,34746.9
821.5881,426.1
821.6305,245
822.4662,428.6
822.5441,22681.8
822.7508,20.1
823.1038,97.2
823.1489,591.2
823.3611,21
823.5462,8231.8
823.5746,103.7
824.0723,144.3
824.259,342.8
824.4471,603.7
824.5594,13526.5
824.6644,102.2
825.054,260.7
825.2019,150.1
825.5621,5357.7
825.8959,18.6
825.9494,445.7
826.5387,1701.2
826.8613,847.1
827.0534,21.5
827.3843,705.7
827.5687,92.9
827.9023,163.2
828.3898,18.4
828.5532,214848.1
829.1696,332.4
829.2069,22
829.2331,1283.6
829.3789,301
829.5566,103144.6
829.825,302.5
830.3067,177.4
830.5703,77138.1
831.0251,682.1
831.5728,38809.3
832.293,333.6
832.5302,317.5
832.5854,99062.2
832.6461,136.3
833.5883,48062.7
833.6532,3058.8
834.1505,199.8
834.2017,342.5
834.5297,373.4
834.5382,373
834.6032,39074.2
834.6962,200.4
834.9724,494.7
835.1334,728.8
835.1886,1189.6
835.2386,213.5
835.3488,24.5
835.6056,20323.2
835.6662,1483.2
836.4018,127.5
836.5602,184.7
836.6209,2194.9
837.6229,219.7
838.036,338.7
838.511,1731.5
838.6332,635
839.4527,259.7
839.6188,486.1
839.916,527.2
839.9966,329.6
840.1202,756.5
840.3161,19.1
840.4492,120.3
840.7115,252.5
840.7722,1231.9
840.8633,111.3
840.9592,329.2
841.0426,926.5
841.1561,231.5
841.1806,115.5
841.3922,89.2
841.5034,206.2
841.8655,110.7
842.4625,266.1
842.7812,896.6
843.0796,99.7
843.1758,488.4
843.7756,228.2
843.8514,502.7
844.2657,557.4
844.5268,29338.8
844.8278,121.3
845.5304,12682.5
846.0566,834.7
846.3756,383.9
846.544,7527.8
846.5799,634.1
846.677,18.6
846.7101,682
847.1017,123.6
847.3522,109.4
847.5464,2184.2
847.9425,278.2
848.5599,9500.3
849.0438,21.2
849.192,361.6
849.3331,742.8
849.5374,250.4
849.5611,1240.1
849.8483,20.3
849.9031,98.3
850.3542,19.7
851.2142,719
851.486,185.7
851.6021,97.5
851.6704,482.1
852.0291,422.9
852.0572,20
852.275,23.7
852.5554,1317.8
853.6017,503.4
854.0892,476.6
854.2172,107.1
854.5373,114.7
854.5695,9310.3
854.6574,979.5
854.967,447.7
855.3848,732.3
855.5727,1326.1
855.6318,118.7
855.6632,21.5
855.9026,18
856.1245,19.2
856.5549,161.7
856.5852,14583.4
856.8216,47.4
857.1339,369.4
857.216,262.9
857.5072,221.5
857.5872,2487.1
857.63,344.2
857.8818,115.2
857.9853,58.5
858.0855,133.8
858.3762,345.6
858.4971,62.5
859.0278,196.2
859.3921,103.8
859.9636,105.5
860.1638,555.4
860.3604,258.7
861.0556,97.8
861.2045,21.6
861.3764,21.7
861.8443,154
862.0955,2665
862.3544,230.5
862.4692,405
862.5137,801
862.5552,1011.3
862.673,137.4
863.1032,233.9
863.403,94.1
864.3871,138.1
864.4762,238.6
866.2262,100.7
866.4737,405.6
867.2037,367.8
867.4773,94.2
867.5133,161.8
868.5728,494.5
868.8342,303.3
868.9871,19.8
869.0386,423.7
869.2231,119
869.3838,19
869.5606,68.9
869.5837,1406.1
869.6086,946.8
869.6633,1531.3
869.7003,238
869.7242,71
869.7969,672.2
869.8296,1288.4
869.8637,979.5
869.9085,2331.5
869.9491,2962.4
869.9953,3912.4
870.0342,3169.2
870.0761,2614
870.1007,2213.4
870.1328,1383
870.1561,295.6
870.1913,1671.9
870.3884,655.2
870.8621,223.9
871.7299,303.6
871.7674,20.2
872.1595,551.1
872.3792,310.7
872.5044,884
872.5594,457.6
872.698,385.2
872.9723,360.9
873.4979,246.4
873.9029,20.2
874.7997,954.8
874.8801,481
875.4985,200.5
875.6556,663.7
876.4548,240.9
876.7282,138.9
877.1357,160.9
877.4009,46
877.5071,582.8
878.3637,338.8
879.7218,263.9
880.2736,49
880.4243,127.6
880.4603,258.1
880.8822,101.4
880.9442,245.5
881.959,104.2
882.3276,342.3
882.4981,1031.6
883.5924,47.9
883.786,209.5
883.9689,48.6
884.0045,555.7
884.0718,525.3
885.1056,137.2
885.6587,345.3
885.7384,519.1
885.8726,275.3
885.9675,478.8
885.9975,94.6
886.3553,385
886.9796,107.3
888.1078,886.7
888.4908,21.3
888.7115,22.4
888.8174,17.4
888.9269,416.8
890.0364,677.7
890.8977,514.5
890.9218,325.9
891.3132,763.9
891.4097,326.9
891.5003,18.4
891.6701,2766.7
891.8134,521.8
891.8974,19.5
892.7141,1157
892.9657,874.3
893.1193,167
893.3051,21.7
893.4516,18.7
893.677,198.4
895.6018,451.9
895.957,104.9
895.9982,124.1
896.2141,384.3
896.3097,793
897.033,150
897.4907,727.1
897.517,493.4
897.7522,380.9
897.9386,19.8
898.5209,1166.4
898.5746,230.5
900.0593,854.6
900.352,53.4
900.5303,79.9
900.5968,253.1
900.9743,790.2
901.0084,378.8
901.3402,159
902.2064,318.8
902.3063,117.5
902.5881,308.6
902.9529,383.1
903.0316,96.2
903.3605,460.7
903.4343,1263.1
904.3748,199.5
904.7385,400.4
905.0014,25.4
905.7127,1107.7
906.1763,22.3
906.3788,367.3
906.5187,224.7
906.6245,259.6
906.9074,109.3
907.0362,100
907.601,378.3
908.05,55.1
908.5285,1144.8
909.2835,900.6
909.3392,111.9
909.4435,520.3
911.2978,595
911.719,122.4
911.8505,858.7
911.9712,500
912.101,97.1
912.1876,293.9
912.5292,139.4
912.9503,157.3
913.4195,1015.6
913.465,143.3
913.6229,909.3
914.2665,20.7
914.5267,1457.3
914.5675,1044.9
914.994,160.9
915.1138,314.5
915.1401,936.2
915.303,562
915.5882,978.3
916.0036,675.2
916.2969,267.9
917.8301,870
917.8555,639.1
917.9703,412.2
918.1796,19.3
918.9957,91.4
919.7313,79.8
919.769,584.4
919.9798,234.3
920.4451,1169.9
920.5699,159.9
920.8092,248.9
921.2768,25.6
921.5531,169.8
921.8122,1508.4
922.53,929
923.0913,938.8
923.5075,643.5
923.5677,617
924.295,53.6
924.3198,868.6
924.8676,397.7
925.0223,88.7
925.0535,162.3
925.653,132.4
925.7166,371.2
925.8837,146.6
926.9268,856.1
927.3155,521.6
927.3769,186.5
927.5096,131.2
927.5434,248
927.5512,241.4
927.9713,1022.2
927.9975,293.9
928.7158,355.2
928.7893,533.1
929.2586,310
929.3128,19.4
929.3934,557.7
929.5652,871.2
929.6627,125.7
929.8052,106.6
930.0422,333.1
930.0737,178.1
930.3678,19.2
930.582,137.2
930.8653,95.6
931.2049,113
931.7362,925.4
932.4387,368.6
932.4821,384.7
932.5176,594.6
932.7956,401.1
932.8436,20.1
933.1702,662
933.5462,799.1
933.7716,521.6
933.8287,323.2
934.0105,18.3
934.1732,544.7
935.1614,571.7
935.2513,278.6
935.6081,131.4
935.8375,19.9
936.3367,19
936.3613,90.6
936.4766,197.2
937.0903,219.9
937.6408,201.5
937.6923,1353
939.2912,271.1
939.6102,201.9
939.6816,87.9
939.8025,477.1
940.2067,168
940.2828,22.5
940.5271,525.5
940.6984,309.4
940.9922,614.1
941.1236,148.5
941.1665,380.9
941.4517,538
941.713,962.2
941.816,47.7
942.0074,1168.1
942.5331,388.2
942.7821,476.9
942.9889,120.8
944.0712,598.8
944.4358,513.6
944.7118,239
945.1083,225.3
945.2081,22.9
945.6908,88.5
946.1931,105.8
946.2722,213.7
947.3144,190.9
947.6071,480.5
947.6299,706.2
947.793,615.4
948.2904,212.9
948.3655,332.2
948.5125,977.8
948.5504,49.2
949.0428,399
949.6253,17.6
949.6982,588.4
949.7289,346
949.7805,477.9
949.975,446.3
950.0943,146
950.1359,218.2
950.2106,98.7
950.3555,160.8
951.1111,515.3
951.6847,115.2
951.8126,725.1
951.8986,256.5
951.9666,154.1
952.237,620.4
952.2723,684.4
952.5169,695.5
952.8866,119
953.51,105.4
955.7459,638.9
955.8197,149.7
956.1611,329.1
956.3075,221.9
956.3958,17.9
956.8305,178.2
957.0114,96.5
957.1571,233.5
957.3427,439.1
957.9584,183.8
958.3765,466.8
958.8115,111.8
959.2073,127.7
959.416,893.8
959.4905,20.3
959.5677,149.3
960.1498,1318.4
960.6889,224.7
960.9267,102
961.0489,20
961.1309,579.4
961.4713,215.7
962.1755,198.9
962.2882,150.1
962.7947,196.4
962.9856,678.4
964.3184,613.5
964.3825,20.3
964.5987,45.5
965.1084,144.6
965.1525,20.1
965.2049,164.2
965.2496,99.4
965.5734,355.4
965.8785,341.2
966.6296,413.3
966.9708,265.7
967.096,1194.4
967.7839,150.1
968.0078,228
968.301,722.9
968.5645,108.6
968.819,1012.6
968.9851,294.3
969.3336,488.2
969.7952,184.4
970.1951,631.6
970.2597,1050.8
970.376,80.9
970.6296,58.7
970.9876,20.3
971.1562,1522.1
971.6148,483.1
971.7246,97.8
971.8006,19.6
971.8349,379
971.8728,1677.6
971.9379,19.3
972.0793,327.8
972.4836,410.7
973.0823,103.7
973.4148,93.3
973.5668,544.5
974.3547,19.3
974.4822,601.6
975.2813,679.4
975.4553,110.6
975.6101,378.5
976.9337,549.1
976.9635,144.8
977.4346,1037.1
977.4592,44.6
977.6944,182.2
978.4685,914.7
978.8692,115.9
979.5669,23.9
980.107,124
980.1915,86.4
980.6723,126.7
981.129,583.8
981.9299,152.8
982.4601,295.5
982.896,145.5
983.4657,1028.2
983.666,321.3
983.714,514.3
983.735,540.4
983.9666,134.1
984.1868,181
984.237,208.5
984.518,20
984.9951,351.4
985.5784,264.8
985.6623,19.1
986.3345,821.8
986.4686,1023.7
986.6105,365.1
986.8025,48.6
986.8726,748.6
987.1466,726.9
987.8587,477.3
988.0092,215.6
988.7852,295.6
988.8746,248
988.9291,124.9
989.1057,91.6
989.5088,537.9
989.8803,167.8
990.6023,2866.6
991.0726,524.1
991.4151,539.7
991.6257,119
992.174,687.9
992.2569,44.3
992.3324,156.6
992.482,97
992.8493,196.3
993.2209,644.3
993.7526,18.5
994.2364,717.8
994.3143,627.6
994.5017,165.5
994.888,432
995.3624,109.2
997.3634,133.6
997.458,322.1
997.9076,1855.5
998.2889,284.2
998.9763,560.3
999.0573,168.9
999.1113,109.3
999.3826,323.3
