SPECTRUM - MS,
1408.RAW,
FTMS + p ESI Full ms [50.00-1000.00],
Scan #: 1-40,
RT: 0.01-1.97,
AV: 40,
m/z,Intensity

50.0131,112.3
50.0142,23.9
50.0311,128.9
50.0412,310.6
50.0477,84.3
50.0538,621.2
50.0713,67.4
50.0754,17.5
50.0928,398.5
50.0933,73.8
50.0995,118.7
50.105,90
50.1362,197.2
50.1631,181.1
50.192,390.5
50.1929,514
50.1977,90.4
50.2284,19.8
50.2403,719.8
50.2472,595.8
50.2604,408.6
50.2705,295.8
50.2759,153.3
50.2762,374.6
50.2884,547.3
50.2893,393.1
50.297,553.6
50.3005,72
50.3088,616.8
50.3173,254.8
50.319,59.4
50.3506,98.9
50.3541,17.1
50.3673,131.4
50.3679,308.2
50.3765,679.9
50.3876,91.1
50.3913,207.1
50.3949,80
50.4181,17
50.4219,77.7
50.4363,655.1
50.4393,115.6
50.4469,485.4
50.4725,589.7
50.4788,673.4
50.5317,358.8
50.5558,294
50.5581,74.3
50.5634,95.9
50.5712,66.5
50.5848,72.7
50.5983,742.4
50.6129,312.1
50.6206,531
50.6255,384.5
50.6265,56.8
50.6302,442.8
50.643,125.1
50.6534,399.4
50.6554,571.7
50.6655,526.7
50.7131,19.8
50.7163,19.1
50.7268,847.9
50.7355,94.7
50.7369,229.4
50.7416,104.7
50.7476,287.4
50.7619,122.3
50.7753,105.6
50.7802,117.7
50.7808,256.6
50.7888,521.8
50.7911,478.7
50.7972,17.6
50.8191,109.7
50.824,529.6
50.8331,106.1
50.8399,228.1
50.8436,17.7
50.8454,61.4
50.8462,63.9
50.8564,180.1
50.8671,133.5
50.8731,182.5
50.9292,196.3
50.9336,390.2
50.935,84.8
50.947,69.1
50.9488,102.9
50.9551,524.2
50.9576,247.2
50.963,141.9
50.9926,407.2
51.0105,70.8
51.0189,152.3
51.0255,74.4
51.0308,139.8
51.0651,17.9
51.1273,119.2
51.1312,490.7
51.1387,358.9
51.1523,128.2
51.1564,78.2
51.1605,404.8
51.1755,17.8
51.1816,72.6
51.1827,590.6
51.1861,75.5
51.19,491.4
51.1946,290.5
51.1961,124.9
51.2136,118.2
51.219,17.6
51.2231,727
51.2294,554.4
51.2461,118.8
51.2689,167.3
51.2813,293.6
51.2828,96.1
51.2866,212.7
51.2874,214
51.3228,225.3
51.3387,287.2
51.3399,255
51.3561,577.4
51.3615,127.8
51.3661,111
51.3758,280
51.3886,197.4
51.3891,99.2
51.3934,192.9
51.4329,75.1
51.4352,345.4
51.4442,17.4
51.4457,188.9
51.451,14.9
51.482,509.5
51.4853,16
51.4878,119.7
51.4906,565.2
51.5158,104.7
51.5207,127.3
51.5331,560.7
51.5389,102.3
51.5568,577.3
51.5631,105.8
51.5648,90.1
51.5824,86.8
51.6265,151.7
51.6309,91.5
51.651,63.5
51.6646,115.5
51.6841,496.8
51.6985,113.7
51.7034,226.2
51.7222,210.7
51.7445,21.1
51.7458,649.9
51.7477,138.7
51.7548,143.9
51.7746,489.6
51.7824,17.9
51.7983,94.3
51.8024,322.1
51.8053,103
51.8151,697.8
51.8223,19.4
51.8345,205.4
51.8409,637.2
51.8603,485.8
51.8642,239.9
51.8658,132.6
51.8663,135.7
51.8697,20.1
51.8884,151.9
51.8978,106.4
51.9199,182.5
51.9217,161.5
51.9302,352.2
51.9477,530.8
51.9554,102.3
51.976,61.7
51.9899,485.6
51.9922,331.2
51.9962,301.5
52.0493,543.3
52.0601,68.1
52.0821,409
52.0879,618.7
52.089,119.7
52.0953,578.1
52.1268,651.1
52.1301,571
52.1322,81.9
52.1353,209
52.1398,126.8
52.1502,418
52.1641,127.1
52.1669,17.2
52.1677,366.4
52.1736,326.4
52.1826,293.8
52.1893,97
52.216,60.6
52.2317,175.6
52.245,428.6
52.2763,241.7
52.2776,625.7
52.2876,209.9
52.3164,151.3
52.3165,185.7
52.3167,139.4
52.3174,106.3
52.3211,91.9
52.3382,155.7
52.3439,91.6
52.3516,473.9
52.354,139.3
52.3596,18.5
52.3753,224.3
52.3924,115.9
52.3969,249.1
52.4113,516.6
52.4197,566.3
52.4408,603.7
52.4445,144.8
52.4541,175.3
52.476,555.2
52.4803,93.8
52.4873,565.3
52.4886,138.5
52.4954,157.1
52.4971,150.5
52.5246,573.9
52.5411,254
52.5439,320.7
52.5467,520.7
52.5499,244.9
52.5516,411.6
52.5585,230.1
52.5586,226.6
52.5617,514
52.5732,131.5
52.5949,69.2
52.617,588.3
52.6198,94.5
52.6391,77.2
52.642,146.6
52.6494,144.8
52.6652,19.3
52.6704,90.6
52.674,97
52.68,402.8
52.6882,86
52.7037,191.9
52.7242,128.4
52.7396,127.8
52.7638,242.5
52.7661,159
52.7956,1456.3
52.7962,1758.4
52.7967,1691.4
52.7971,1619.7
52.7977,884.2
52.7981,763.5
52.7986,1394
52.799,618.1
52.7996,133.3
52.7999,383
52.8008,1154.3
52.8074,18.7
52.8123,414.1
52.8192,260.3
52.8511,436.5
52.8915,239.5
52.9171,114.1
52.9283,277.2
52.9319,488.7
52.9349,463.6
52.9444,119.8
52.9717,143.1
53.004,274.6
53.0319,133.6
53.0439,119.3
53.0516,356.6
53.0547,232.1
53.0601,644.1
53.0671,373.5
53.0741,396.7
53.1009,578.2
53.1084,54.5
53.1133,131.3
53.1313,117.8
53.1339,311.6
53.1484,488.7
53.1537,68.6
53.1646,19.5
53.1691,126.9
53.2063,133.2
53.2068,105.7
53.2676,101.9
53.2778,372.2
53.2867,518.2
53.2889,107.3
53.2971,130.4
53.2993,212.8
53.2998,446
53.3035,17.3
53.3038,227
53.3118,186.5
53.3157,371.9
53.3488,16.4
53.3711,367.8
53.3832,406.7
53.3894,79.5
53.3928,104.1
53.4068,619.6
53.4155,123.8
53.421,68.9
53.4251,71.9
53.4312,109.6
53.4381,113.3
53.4505,104
53.4681,190.5
53.4769,214.1
53.4838,220.5
53.4935,434.3
53.4987,16.5
53.5207,276.1
53.5319,155.9
53.5337,274
53.5387,15.5
53.541,181.5
53.5653,267.9
53.58,189.1
53.6074,314.2
53.6179,383.6
53.6341,105
53.6383,373.6
53.65,524.2
53.6747,341.6
53.6813,255
53.7026,120.5
53.7156,312.5
53.7186,417.1
53.722,82
53.7412,101.1
53.751,360.3
53.7566,601.5
53.7571,179.6
53.7658,113.8
53.767,96.5
53.7804,20.5
53.7832,132.2
53.798,540.1
53.7985,127.9
53.8015,85.9
53.8032,201.1
53.8234,585.2
53.825,104.6
53.8286,367.4
53.8343,61.8
53.8637,95.2
53.8882,594.3
53.9102,174.7
53.9147,16.6
53.937,265.3
53.94,65.4
53.9442,16.1
53.9679,133.8
53.9955,69.7
53.9987,241.1
54.0029,122.9
54.0034,168.1
54.008,412.3
54.0273,132.7
54.0324,186.4
54.0395,329.2
54.0433,225.7
54.0459,107.7
54.0485,64.2
54.0509,81.9
54.0535,102.7
54.0795,603.2
54.0887,447.3
54.0891,403.4
54.1088,498.9
54.117,641.3
54.1317,21.7
54.1352,244.3
54.1374,18.3
54.1482,517.6
54.1511,423.1
54.1541,59.2
54.1612,509.4
54.1961,306.4
54.2031,461.4
54.2153,111.2
54.2237,94.4
54.2385,550.7
54.2453,227.4
54.2496,177.8
54.2769,102.1
54.2853,82.5
54.2953,214.8
54.3013,88
54.303,90.7
54.3051,63.4
54.3205,167.6
54.3248,420.8
54.3277,730.6
54.3296,73
54.3405,273.2
54.3444,515
54.3502,209.7
54.3566,58.8
54.3575,433.9
54.3666,198.2
54.3687,267
54.3721,86.8
54.3825,86.7
54.3828,82.4
54.3946,482.3
54.402,222.7
54.4177,124.6
54.4281,113.7
54.4374,349.8
54.4382,188.9
54.4816,131.1
54.5054,70.9
54.5081,94.9
54.5212,671
54.5291,159.4
54.5555,330.3
54.5624,86
54.5691,107.9
54.5699,15.7
54.5806,379.2
54.5883,183.4
54.6002,108.1
54.6113,339.2
54.6297,250.4
54.6484,459.5
54.6856,93.2
54.696,118.1
54.7012,207.1
54.713,18.2
54.7159,517
54.7229,228.1
54.7304,529.3
54.7373,209.4
54.7554,475.4
54.7667,559.6
54.7774,291.7
54.7979,117.5
54.7988,122.6
54.8494,260.7
54.8549,250.5
54.8696,17.6
54.8721,128.3
54.8802,92.8
54.8846,65.8
54.885,377.6
54.9103,352.8
54.9352,72.3
54.943,91.6
54.9615,76.4
55.0254,193.2
55.0342,65.7
55.0392,380.3
55.0442,208.8
55.0625,71.9
55.0665,66.8
55.0835,172.3
55.0923,82.5
55.0933,154.6
55.0983,438.4
55.1303,144.2
55.1332,254.5
55.1338,354.1
55.1413,72.4
55.1674,201.7
55.1711,60.4
55.1799,508
55.1811,69.2
55.1825,110.1
55.2013,174.9
55.2071,420.5
55.2148,164.1
55.2272,614.5
55.2325,126.5
55.2687,173.8
55.2705,119.4
55.2977,375.8
55.3039,185.1
55.3046,186.5
55.3149,178.8
55.331,476.9
55.4007,397.1
55.4251,169.2
55.4274,111.1
55.4337,101.9
55.4469,118.9
55.4596,15.9
55.463,385
55.4688,607.1
55.4726,318.1
55.4765,97.2
55.4923,88.9
55.51,18.9
55.5274,123.1
55.5333,525.3
55.5552,375.1
55.5916,336.3
55.6013,19.2
55.6029,252.3
55.6047,257.4
55.6055,534.2
55.6082,672.8
55.6108,247.6
55.6125,91.4
55.6269,144.1
55.6343,331.1
55.6399,189
55.6485,90.8
55.6635,423.5
55.6652,184.5
55.6671,84.2
55.6702,100.6
55.6832,343.9
55.6967,113.1
55.7075,566.2
55.7126,141.2
55.7199,587
55.7667,126.4
55.7738,415.5
55.7746,139.9
55.7931,17.8
55.8259,535.1
55.8308,16.3
55.8318,152
55.8374,196.7
55.8457,128.9
55.8496,135
55.8635,181.5
55.8646,304.3
55.877,17.8
55.8938,216.4
55.8949,790.6
55.895,763.6
55.9077,334.5
55.9275,73.1
55.9291,17.1
55.9365,320.2
55.944,78.1
55.9671,322.1
55.9707,137.3
55.9737,101.8
55.9986,143.7
56.0249,164.7
56.0422,153.9
56.0466,414
56.0589,476.4
56.0683,59.1
56.073,123
56.0847,108.6
56.1225,144
56.1299,16.7
56.1339,17.2
56.1598,82
56.1614,548.4
56.1629,277.5
56.1729,130.2
56.1811,94.2
56.1873,63.9
56.191,151.7
56.198,538
56.2028,225.8
56.2099,174.1
56.2112,18.6
56.241,267.7
56.2464,260.8
56.2474,130.8
56.2489,264.3
56.2561,94.7
56.2627,165.8
56.27,375.1
56.2749,64.2
56.2837,17.8
56.2865,69
56.2947,392
56.3062,101.4
56.3064,111
56.3213,16.9
56.3323,59.3
56.3697,181.8
56.3756,463.8
56.399,274.6
56.4162,79
56.4276,117.4
56.4325,95.6
56.4555,96.1
56.4803,137
56.49,168.9
56.5018,198.6
56.5295,143
56.5308,422.6
56.5473,17.8
56.5569,238.8
56.5631,565.9
56.5978,539
56.5998,72
56.6094,65.7
56.6182,121.6
56.622,497.6
56.6335,135.8
56.6361,122.6
56.6442,142.9
56.6493,119.7
56.6533,442.5
56.6849,69.2
56.7024,501.4
56.7046,141.2
56.7078,222.2
56.7101,135.8
56.7232,106.3
56.7314,61.5
56.7702,250.9
56.7804,165.2
56.7934,309.1
56.8111,132.5
56.8231,116.7
56.8451,334.2
56.8529,161.4
56.856,253.5
56.8584,63.5
56.8635,162.3
56.8687,81.1
56.8854,107.3
56.8869,120.6
56.8913,455.1
56.9121,384.2
56.9375,74.8
56.9713,199.8
56.9805,99
56.9888,646.8
56.9908,235.8
56.9993,494.4
57.0028,17.6
57.0303,389.2
57.0338,365.6
57.0491,521.7
57.0687,183.9
57.1003,17
57.1052,90.6
57.126,114.2
57.1414,133.5
57.1473,167.1
57.1521,596.4
57.1583,112.4
57.1684,414.4
57.1706,515
57.1772,413
57.2004,58.8
57.2072,318.8
57.2426,376.7
57.2433,183.9
57.2455,263.3
57.2662,131.4
57.2966,409.2
57.3007,696.6
57.3242,556.1
57.3488,78.5
57.3489,77.8
57.3647,97
57.3855,90.6
57.3929,316.5
57.3978,93.9
57.4,159.1
57.4029,98.6
57.4074,192.3
57.4084,104.1
57.4106,313.5
57.4325,492.4
57.4536,66.4
57.4787,493.7
57.4848,138.9
57.4986,570.2
57.5494,469.1
57.5579,16.5
57.5786,127
57.5797,156.7
57.586,479.4
57.6034,369.9
57.6186,117.5
57.6213,415.7
57.6261,439.1
57.6366,127.1
57.6563,531.6
57.6567,217.2
57.666,394.1
57.6701,322.3
57.7012,393.3
57.703,251.8
57.7764,403.4
57.8132,275.8
57.821,203.4
57.8271,520.8
57.8461,97.2
57.8605,165.3
57.878,95.3
57.8834,163.8
57.8877,204.7
57.8915,69.6
57.8928,217.1
57.9015,351.6
57.9399,125.7
57.9783,157
57.9788,401.7
58.0317,257.4
58.0421,611.2
58.0619,21.9
58.0729,404
58.0771,96.3
58.0868,132.6
58.1294,107.8
58.1429,156.9
58.1475,317.6
58.1511,136.4
58.1545,135.8
58.1547,121.8
58.1643,238.2
58.1729,376.1
58.1787,137.9
58.2029,416.9
58.2063,603.3
58.2157,363.6
58.2206,66.7
58.2429,138.7
58.2798,316.6
58.3339,17.7
58.3666,128.2
58.3695,69.9
58.3716,136.5
58.3749,283.9
58.3896,447
58.3926,476.5
58.3941,101.1
58.3956,324.5
58.4069,667.5
58.4131,248.2
58.4282,16.6
58.4365,364.2
58.4395,140.1
58.4617,258
58.4652,16.9
58.4725,84.5
58.4863,79.9
58.4943,90.2
58.5191,284.7
58.5352,286.8
58.5383,555.3
58.5477,77.7
58.552,647.2
58.5684,94
58.5757,386.3
58.5966,75.6
58.6211,423.1
58.6319,545.8
58.6326,527.1
58.6386,760.7
58.6488,20.5
58.6523,455.6
58.6851,112.7
58.6859,668.4
58.695,87.3
58.6987,348.9
58.7007,157.2
58.7034,81.4
58.7203,485.3
58.7246,187.1
58.7412,241.8
58.7416,144.2
58.7596,289.3
58.7643,179.1
58.7753,580.5
58.7824,580.8
58.7859,131.7
58.7871,489.8
58.8092,88.2
58.8185,544.9
58.8254,181.3
58.8353,114.9
58.8471,116.1
58.8597,212.2
58.8687,572.6
58.89,92.4
58.9,123.8
58.9135,231
58.9165,234.5
58.949,259.1
58.977,458.8
58.982,82.9
58.9964,750.4
59.0022,246.5
59.0291,154.1
59.0302,86
59.0436,16.1
59.0556,74.6
59.06,356.3
59.0742,81.3
59.0903,296.2
59.0931,98.3
59.0941,365.6
59.1047,140.9
59.1185,346.9
59.1427,476.3
59.1588,311.3
59.1602,355.2
59.1611,17.5
59.1672,82.9
59.1779,100.1
59.1793,490.6
59.21,218.6
59.2473,645.3
59.2625,83.7
59.2652,77.6
59.2896,144.4
59.325,211.8
59.3416,120.6
59.3989,128.1
59.4004,320.4
59.4078,416.3
59.4125,143.4
59.4224,119.8
59.4418,118.2
59.4512,138.1
59.4568,185.1
59.4773,194.3
59.4842,21.4
59.5045,83.2
59.5117,216.4
59.5222,92.5
59.5273,17.3
59.5667,118.7
59.567,124
59.5714,128.5
59.5773,498.7
59.5798,667.1
59.5872,132.8
59.5925,190.6
59.6046,113.9
59.6105,145.5
59.6157,15.3
59.6192,568.1
59.6232,15.4
59.6362,94.9
59.6369,323.3
59.6394,97.9
59.6404,60.1
59.6478,131.6
59.6496,178
59.6602,433.8
59.6737,648.4
59.6746,144.3
59.7023,81
59.7125,434.6
59.7176,219.3
59.7348,139
59.7492,89.3
59.7729,495.8
59.7772,440.6
59.7841,154.2
59.7972,191.2
59.8071,547.6
59.8301,420.8
59.8313,17.1
59.8452,133.7
59.8518,216.3
59.8641,123.6
59.8655,68.4
59.8666,98.6
59.8837,118.1
59.8925,535.2
59.904,547.4
59.9094,488.3
59.9141,70.9
59.9195,515.5
59.9518,371.5
59.9591,299.5
59.9615,395.2
59.9617,392.6
59.9619,374.8
59.9657,106.2
59.9746,226.9
59.9915,264.2
60.0039,102.1
60.0453,17.7
60.0458,353.2
60.0515,127.5
60.0728,106.6
60.0858,16.7
60.0883,130.7
60.0914,17
60.1135,702.6
60.1235,555.2
60.1398,61.8
60.1465,87.1
60.1525,547.6
60.1611,170.6
60.1725,598.4
60.1799,91.2
60.1849,105.7
60.1854,115.4
60.1891,472.5
60.1926,142.7
60.2079,18.6
60.234,453
60.2645,98.1
60.2665,118.3
60.2697,17.3
60.2709,649.1
60.2728,260.6
60.2985,16.7
60.2992,81
60.3063,97.4
60.3148,104.1
60.3275,231.5
60.3438,241.5
60.3502,449.2
60.3621,212.6
60.3764,18.1
60.3917,90.8
60.393,335.7
60.3951,98.6
60.4007,209.5
60.4049,82
60.4121,167.3
60.4136,172.4
60.4189,629.7
60.4531,336.1
60.4585,610.5
60.4602,399.8
60.4633,188.4
60.4658,200.3
60.4763,633.9
60.5023,545.6
60.5269,16.6
60.5365,158.4
60.5598,158.7
60.5623,110.9
60.5661,127.4
60.5721,450.7
60.5742,167.8
60.5972,531.3
60.5983,509.9
60.5998,94.9
60.6013,117.9
60.6018,19.6
60.6103,653.1
60.625,327.9
60.6295,487
60.6358,163
60.6474,17
60.6668,16.5
60.6684,649.6
60.6804,207.7
60.7,64.6
60.7106,352.4
60.7317,344.7
60.7333,197.3
60.7394,127.6
60.7433,18.9
60.7467,469.5
60.7695,134.4
60.7893,110.2
60.7956,87.8
60.7982,92
60.8092,326.3
60.8114,687.5
60.8129,561.5
60.8229,113
60.8249,87.5
60.8283,319.3
60.8414,16.8
60.8419,173.4
60.8438,370.9
60.8455,90.3
60.867,661
60.8801,551.2
60.9298,606.5
60.9359,91.9
60.9366,448.5
60.977,317.1
60.9781,67.5
60.985,135.2
60.9878,87.1
60.9891,130.4
61.0041,82.1
61.0065,617.1
61.0111,93.5
61.012,119.4
61.0174,487.8
61.0634,144.8
61.0676,136.4
61.1009,17.4
61.1279,548.9
61.1306,688.4
61.1375,60.9
61.1401,113.4
61.1634,378.7
61.2078,74.2
61.2107,252.5
61.2266,131.1
61.2298,71.8
61.2374,149.6
61.2797,20
61.2996,18.3
61.3019,101.3
61.3041,22.9
61.3118,169.3
61.3247,499.4
61.3252,161.1
61.3316,92.3
61.3382,140.3
61.3406,94.1
61.381,101.7
61.3906,16.4
61.4005,193.3
61.4032,133.8
61.4376,19.1
61.4427,571.4
61.4465,170.7
61.4745,324.7
61.4752,109.7
61.4855,18.8
61.5132,586.4
61.526,132.3
61.5384,350.2
61.5519,194
61.5731,111
61.5787,68.1
61.5931,84.8
61.6147,105.1
61.6262,165
61.6365,83
61.6463,186.2
61.664,607.5
61.6951,16
61.7221,76.3
61.7265,95
61.7288,140.2
61.7471,118.5
61.751,224.1
61.7542,111.3
61.7834,1252.5
61.7919,123.5
61.8291,154.3
61.8322,118.4
61.8356,107.5
61.8471,117.6
61.8639,327.6
61.8658,101
61.8744,86.4
61.9122,387.9
61.9252,413.4
61.9281,243.5
61.9288,455.1
61.9342,129.1
61.9412,88.5
61.9413,88.4
61.9416,69.2
61.9469,225.9
61.952,345.3
61.9548,567.3
61.9578,280.6
61.9621,154.3
61.9636,582.3
61.9884,246.2
62.0018,118.4
62.011,81.2
62.0236,160.9
62.0351,138.8
62.0412,539.2
62.0554,104.8
62.0753,478.4
62.0791,89
62.0893,110.2
62.093,273.6
62.0968,98.8
62.1055,351.1
62.1143,553.6
62.1629,411.1
62.1733,623.9
62.1796,15.2
62.2134,335.9
62.2143,537.8
62.2443,75.1
62.2689,72.5
62.2738,90.5
62.2788,129.1
62.2838,303.3
62.2891,143
62.2906,650.3
62.2918,108.6
62.2996,539.5
62.3223,401.9
62.3307,165.2
62.3438,184.5
62.3481,87.9
62.349,108.4
62.3555,84
62.3566,95.7
62.3617,156.5
62.3671,161.2
62.3683,65.3
62.3773,110
62.3777,15.4
62.3806,653.3
62.4203,230.9
62.4255,141.7
62.4365,141
62.4373,205
62.4472,335.1
62.4518,97.4
62.4537,496.2
62.4647,720.7
62.4773,357
62.5021,554.3
62.5079,473.2
62.5152,114.5
62.5244,144.5
62.5323,62.3
62.5429,409.3
62.5437,122.2
62.5595,17
62.5749,492
62.5895,290
62.6041,556.9
62.6208,120.1
62.6743,166.5
62.709,563.8
62.7311,76.5
62.7466,135
62.7558,111.1
62.7786,136.8
62.7834,130.5
62.7997,111.5
62.8125,75.8
62.8476,228.8
62.8485,93.2
62.8611,273.1
62.868,81.4
62.8904,274.1
62.9126,16.5
62.9177,84.3
62.9333,569
62.9357,370.6
62.94,98
62.9498,106.3
62.951,506.1
62.9654,640.9
62.9742,110.4
62.9945,432.3
62.9956,290.6
63.0027,187.1
63.0211,187.8
63.0392,17.7
63.0427,162.7
63.0527,91.2
63.0631,17.6
63.0755,105.7
63.1126,155
63.1219,400.8
63.1386,604.1
63.1551,289.9
63.1617,92.6
63.1634,113.2
63.1853,488.2
63.2028,581.7
63.2108,137.3
63.2164,587.5
63.2203,499.6
63.2544,288
63.2572,639.2
63.2796,122.4
63.2877,690.8
63.2949,574.4
63.3037,230.3
63.3092,87.6
63.3178,595.7
63.3188,160.2
63.3267,214.7
63.3269,248.9
63.3271,245.9
63.3324,99.5
63.3353,104
63.3508,172.3
63.3712,566.4
63.3804,319.1
63.3893,136.3
63.3977,269.4
63.4074,18.3
63.41,81.5
63.4109,207.1
63.4164,462.7
63.4216,273.5
63.4685,135.7
63.4722,86.4
63.4734,139.4
63.483,112.7
63.4976,574.2
63.5265,20.7
63.5452,230.6
63.5466,351.7
63.5699,146.2
63.5869,135.6
63.6192,333.5
63.6674,61.9
63.669,71.9
63.6916,112.1
63.7149,376.8
63.7215,282.9
63.7232,431.8
63.7298,327.6
63.7759,555.4
63.7855,689
63.786,109.9
63.8459,15.7
63.8637,143.9
63.8656,209
63.8667,340
63.8725,153.3
63.8733,309.4
63.8771,338.8
63.9341,242.2
63.941,93
63.9421,81.8
63.9468,178
63.956,331.4
63.9672,129.2
63.9828,87.3
63.9906,111.4
63.9915,529.4
63.9931,320.4
64.0059,310.3
64.0065,15.2
64.0123,345.7
64.0205,306.7
64.0331,71.1
64.0391,215.3
64.0538,377
64.0614,159.3
64.064,113.9
64.0857,139.9
64.0912,132.1
64.0923,203.3
64.1703,276.1
64.1964,130
64.1971,268.5
64.2305,731.4
64.2348,137
64.2453,417.2
64.2469,131
64.2628,625.9
64.2739,386.3
64.2752,519.2
64.2766,178.4
64.2847,229.6
64.2885,97.3
64.2908,465.8
64.2977,16.7
64.2991,378
64.3037,459.9
64.3051,267.1
64.3056,75.1
64.379,131.5
64.3831,558
64.3899,406.8
64.3914,393.3
64.4006,240.5
64.4025,136.7
64.4068,147.6
64.4155,113.9
64.4373,104.8
64.4613,189.6
64.4653,254.8
64.4894,125.3
64.4948,190.7
64.5091,138.3
64.5121,91.4
64.5592,301.8
64.5656,773.6
64.5731,16.9
64.6048,93.9
64.6312,100.9
64.6325,121.6
64.6335,199.8
64.6584,434.6
64.6721,104.4
64.722,132.7
64.7254,158.2
64.7559,154.5
64.7583,304.7
64.7699,139.5
64.772,134.5
64.7743,14.8
64.7882,213.8
64.7927,210.8
64.8272,502.6
64.8315,589.9
64.882,214.1
64.9048,112.5
64.9286,17.6
64.9499,628
64.9513,71.9
64.9576,914.9
64.9615,306.6
64.9664,346.6
64.9673,142.4
64.9787,101.6
64.9815,146.4
64.9829,151.5
65.0103,271.5
65.031,22.3
65.0332,525.9
65.0498,135
65.0499,150.3
65.0683,470.3
65.0686,313.3
65.0691,606.2
65.0809,164.3
65.091,512.7
65.1173,117
65.1299,200.3
65.1406,552.5
65.1479,820.3
65.1701,87.7
65.1751,235.3
65.1861,668
65.1946,84.7
65.199,125.4
65.2054,164.3
65.2064,557
65.2087,318.5
65.2246,86
65.2277,559.8
65.2424,66.7
65.2595,134.7
65.3749,470.5
65.3861,104.3
65.4019,16.1
65.451,655.2
65.4516,463.3
65.472,20.4
65.4902,73.5
65.4953,504.4
65.5025,585.5
65.505,21
65.5173,415.4
65.5232,100.2
65.533,621.6
65.5397,19
65.5541,118.6
65.5908,68.7
65.5951,619.1
65.5967,284.3
65.6272,101.2
65.6478,125.4
65.6518,726.3
65.6709,412.4
65.6774,95.5
65.6841,270.8
65.6866,68.9
65.6892,93
65.6927,323.8
65.7002,570.9
65.7318,498.6
65.7334,112.2
65.7363,149.8
65.742,134
65.7498,73.6
65.7705,277.1
65.7738,129.3
65.7924,150.5
65.7951,123.9
65.7969,17.1
65.8043,236.1
65.8084,176.5
65.8437,231.7
65.846,792.6
65.8538,870
65.8576,77.7
65.8604,514.6
65.8625,186.3
65.8686,16.6
65.8735,18.8
65.8769,153.8
65.8918,444.5
65.904,16.3
65.9099,142.8
65.9162,84.5
65.9477,124.2
65.9491,597.1
65.9579,144.1
65.9768,119.6
65.9916,285.7
65.9943,121.2
66.0108,88.1
66.0296,274.3
66.0414,18.1
66.0497,81.8
66.0576,542.3
66.0626,22.9
66.069,65.2
66.0756,82.7
66.0793,525.1
66.0866,20.4
66.0895,198.1
66.0952,134.1
66.1102,669.8
66.1344,238.5
66.1434,405.1
66.1449,114.9
66.1528,115.8
66.1578,18.2
66.1636,67.5
66.2063,572
66.2146,146.1
66.2205,74.8
66.2351,18.2
66.2376,457.4
66.2723,655.7
66.3009,146
66.3051,75.6
66.3223,264.2
66.3269,325.8
66.3342,174.5
66.373,184.2
66.3829,496.7
66.394,171.2
66.3971,84.5
66.4044,136.2
66.4086,295.1
66.4296,513.1
66.4347,83.4
66.4417,109.8
66.4455,697.1
66.4545,127.1
66.4561,119.4
66.4936,664.8
66.4993,72.6
66.5036,284.8
66.5158,149.7
66.5203,467
66.5268,107.6
66.5275,130.3
66.536,299.7
66.5582,18.8
66.56,198.3
66.5607,549
66.5613,88.4
66.5747,496.6
66.5892,477.6
66.5945,91.1
66.6118,16.5
66.6166,196.6
66.6277,637.8
66.6435,127
66.6521,183.6
66.654,154.7
66.6581,186.1
66.6626,363.1
66.6774,85.8
66.6783,587.8
66.6867,421.4
66.6873,387.2
66.7024,490.1
66.7286,17.5
66.7832,456.6
66.7864,317.2
66.8009,258.1
66.8126,144.2
66.8169,522.3
66.8184,364.7
66.8276,15.6
66.837,246.2
66.843,161.9
66.8593,86.3
66.8938,519.9
66.9098,226.3
66.9169,101.4
66.9222,316.4
66.934,420
66.9521,119.9
66.9801,220.9
66.9902,334.5
66.9959,141.5
67.0045,110.8
67.006,74.8
67.009,250.2
67.015,118.7
67.0401,627.7
67.044,17.7
67.0539,201
67.057,116.4
67.0583,185.9
67.066,78.2
67.0713,244.1
67.0738,581.5
67.0821,121.4
67.1002,432.2
67.1005,451.5
67.1241,181.1
67.1425,450.9
67.1485,119.9
67.1517,71.7
67.1697,110.3
67.1945,159.8
67.203,322.5
67.2083,142.4
67.2174,91.1
67.2218,283.3
67.259,121.9
67.2665,129.6
67.2794,115.5
67.2906,512.9
67.2916,481.2
67.2963,18.9
67.3159,138.9
67.3248,76
67.3377,19.7
67.3584,96.4
67.3647,226.9
67.3744,681.2
67.38,316.3
67.3985,106.6
67.4268,16.6
67.4383,134.5
67.4404,345.9
67.4409,19.3
67.4489,100.8
67.48,224.7
67.4833,16.9
67.4961,17.6
67.5026,19.1
67.5106,105
67.5157,71
67.5173,684.6
67.5198,186.8
67.5268,228.1
67.5279,151.7
67.5325,178.1
67.5369,133.2
67.5449,290.8
67.6257,417.8
67.6297,133.4
67.6474,343.7
67.6746,291.6
67.6927,111
67.7026,16.1
67.7156,277.9
67.7188,673.6
67.7203,502.2
67.7538,391.1
67.7676,734.4
67.777,293.6
67.787,182.4
67.7982,57.2
67.8309,220.8
67.8535,250.5
67.864,73.5
67.878,323.6
67.9144,273.2
67.926,137.8
67.9366,285.8
67.9424,107.9
67.9483,238.2
67.9835,16.7
67.9871,333.9
67.9906,183
68.03,624
68.0527,118.2
68.0601,119
68.0738,327.4
68.0881,591.2
68.1033,86.1
68.1065,149.1
68.1204,166.1
68.127,83.1
68.1276,269.7
68.1369,358.4
68.1669,502.6
68.1694,552.7
68.2032,87.4
68.2209,16.2
68.2217,131.9
68.2364,138.3
68.2482,70.3
68.2739,660.8
68.2777,90
68.2886,415.5
68.2969,124.5
68.3005,227.8
68.3125,571.5
68.3225,209.4
68.3291,501.3
68.3609,285
68.4851,471.7
68.5047,89.9
68.5109,174.3
68.5131,138.8
68.5295,625.3
68.5817,153.9
68.5887,17.5
68.6011,327.1
68.6157,16.3
68.62,233.5
68.6211,18.5
68.6257,131
68.6389,101.4
68.6546,19.2
68.6778,594.6
68.6923,679.2
68.6941,618
68.6982,87.9
68.7086,83.5
68.7103,439.1
68.7223,797.8
68.7522,561.8
68.7778,183.6
68.7915,312.4
68.7985,117.9
68.8292,20.6
68.841,349.8
68.8534,174.1
68.9069,17.7
68.9216,620.2
68.9534,544.4
68.9909,99.2
69.0041,594.5
69.0054,108.5
69.0165,107.7
69.0196,696.7
69.022,18
69.0269,76.9
69.0406,17.5
69.0481,120.4
69.0671,67.3
69.0933,601.9
69.0981,566.5
69.1027,354.4
69.114,83.9
69.1295,236
69.1416,108.8
69.1485,715.8
69.1507,108.1
69.1518,137.2
69.1595,392.7
69.1802,100.6
69.1823,135
69.1933,105.6
69.1978,784.1
69.1986,148.9
69.2098,88.3
69.2428,614.4
69.2441,289.2
69.2517,345.6
69.2533,293
69.2678,93.1
69.2924,321.2
69.3273,69.7
69.3311,123.6
69.333,107.2
69.3563,260.8
69.3588,16.5
69.3685,659.2
69.373,451.4
69.3755,313
69.4018,682.8
69.4073,328.5
69.4151,336.2
69.4284,685.1
69.4304,90.5
69.4434,323.6
69.4734,301.7
69.4836,373.8
69.4993,161.3
69.501,599.1
69.5304,234.5
69.5408,615.2
69.5509,18.3
69.5526,583.7
69.5791,70.4
69.6227,116.5
69.6247,150.5
69.67,443.2
69.6954,534.8
69.7041,456.7
69.7154,543.2
69.7196,215.9
69.7246,135.8
69.7396,630.2
69.7425,835.6
69.755,369.1
69.7771,18.5
69.7944,120.4
69.8388,84.4
69.8904,88.4
69.8982,172.3
69.9134,76.4
69.9312,89.1
69.9364,179.2
69.9452,670.1
69.946,570.3
69.9516,262.1
69.9577,126.4
69.9634,115.5
69.9708,735.8
69.9928,416.6
69.9971,16.5
70.0057,134.7
70.008,336.9
70.0209,716.2
70.0634,486.6
70.064,212.2
70.0649,3085.6
70.0869,93.9
70.0927,145
70.108,147.6
70.1288,141.7
70.1301,169.6
70.1406,234.8
70.1667,127.4
70.1673,16.6
70.1724,110
70.1852,148.6
70.2075,126
70.2118,83.7
70.2302,483.9
70.2343,103.9
70.2379,402.9
70.2971,511.1
70.3075,111.4
70.3182,448.6
70.3344,619.8
70.337,91.6
70.3822,658.1
70.3828,127.2
70.3969,225.2
70.4036,230.7
70.4072,195.4
70.4132,146.6
70.428,80.7
70.4346,16.8
70.4413,553.2
70.4454,145.8
70.4539,74.5
70.4635,100.9
70.4658,250.6
70.4664,470.8
70.4731,616.9
70.5202,94
70.5256,225.2
70.5344,275.9
70.5537,102.1
70.5875,239.4
70.6122,602.2
70.6227,425.5
70.636,370.2
70.6382,17.4
70.6613,138
70.6645,109.6
70.6662,60.3
70.6863,113.2
70.7155,72.4
70.7423,533.3
70.7459,166.1
70.77,255.6
70.7744,105.6
70.7882,579.8
70.7917,58.7
70.794,98.1
70.7997,508.5
70.8087,332.4
70.8323,171.6
70.8524,455.1
70.8557,133.1
70.8704,221.6
70.8841,571.9
70.8878,85.6
70.8957,95.9
70.9034,74.5
70.9105,440.3
70.916,229.1
70.9249,263.8
70.9472,101
70.9501,168.2
70.9506,204.2
70.9559,104.5
70.9717,142.6
70.9788,73.5
70.9857,16.9
71.008,383.4
71.0204,579.7
71.0307,166.7
71.0636,283.8
71.0982,306.4
71.1061,77.6
71.1077,259.7
71.1222,586.7
71.1328,19
71.1354,156.8
71.1617,650.8
71.171,138.7
71.1769,79.6
71.1967,254.7
71.1969,272.6
71.2072,349.7
71.2256,119.3
71.2374,135.8
71.2574,136.4
71.2579,426.1
71.2776,18.3
71.2824,684.1
71.2903,16.3
71.295,185.6
71.3221,214.3
71.3305,20.6
71.4139,83.6
71.4212,387.5
71.4231,167.1
71.4348,84
71.4993,168
71.5089,69
71.5247,22.6
71.5612,97.5
71.5653,275.8
71.5689,124.8
71.5701,17.6
71.5744,18.1
71.5859,150.7
71.5908,184.1
71.5961,131.7
71.5988,323.6
71.6065,139.9
71.6266,62.5
71.6453,163.1
71.6507,242
71.6645,101
71.6774,344.1
71.6896,88.9
71.6935,633.4
71.6956,304.1
71.7111,361.7
71.7195,119.2
71.7214,588.9
71.735,129.2
71.7448,437.8
71.7538,90
71.7674,90
71.7728,18.1
71.7832,675.4
71.8092,134.8
71.8126,590.8
71.8373,314.4
71.8414,246.2
71.8423,455.3
71.8615,146.3
71.8645,509.6
71.9006,545.4
71.9048,89.7
71.913,17.7
71.9401,16.3
71.9467,21.3
71.9687,22.3
71.9698,795.5
71.997,85.2
72.0081,96.5
72.0241,15.4
72.0263,102.2
72.0376,19.8
72.0415,81.7
72.075,591.5
72.0765,486.7
72.0806,380.1
72.0996,473.1
72.1146,354.6
72.1413,301.8
72.1473,285.6
72.1486,91.2
72.1928,396.2
72.1954,341.6
72.1968,109.6
72.2065,93.6
72.2073,156.1
72.2082,141.4
72.2099,479.8
72.2117,114.1
72.2132,587.8
72.2143,123.6
72.2162,770.9
72.2164,752.2
72.2181,1262.4
72.2187,2118
72.2195,1344.4
72.2206,2336.2
72.2219,1400.3
72.223,3167.5
72.2236,3689.7
72.2243,4708.7
72.2257,3595.2
72.2265,1214.8
72.2269,1130.1
72.2274,1388.9
72.2285,3125.1
72.2292,2065.7
72.2296,2088.3
72.2303,2520.1
72.2316,4755.4
72.2321,3640.5
72.2329,2799.3
72.2336,1875.5
72.2342,640.2
72.2355,2005.3
72.2363,1404.9
72.2372,1620.8
72.238,251.1
72.2391,344
72.2393,322.8
72.2404,606.8
72.2425,718.2
72.2432,604.3
72.2439,490
72.2455,432
72.2481,473.6
72.2484,601.4
72.2485,575.5
72.2499,260.3
72.279,261.1
72.2855,169.2
72.3076,309.6
72.3637,122
72.3728,164.3
72.3776,369.6
72.382,419.6
72.401,113.8
72.4212,108
72.4291,877.5
72.4321,125.9
72.4403,17.1
72.4472,19.2
72.4714,86.6
72.476,114.8
72.4905,185.6
72.501,180.5
72.5051,182.1
72.5198,619.8
72.5647,644.2
72.5694,81.2
72.582,200.3
72.5867,21.4
72.6161,729
72.6189,473.3
72.6291,296.3
72.6343,143.8
72.6608,156
72.6785,18
72.6851,365.6
72.699,201.5
72.7005,138.3
72.7464,100.8
72.7504,102.1
72.7518,127.4
72.7546,281.3
72.7578,321.9
72.7586,111.1
72.7798,559.9
72.7848,105.9
72.7945,85.8
72.8092,632.7
72.8173,603.8
72.8282,244.8
72.8427,351.8
72.8658,108.2
72.867,89.3
72.8831,212.4
72.8891,358
72.8906,159.9
72.8946,326.7
72.8948,396.1
72.9013,109.6
72.9147,120.4
72.9269,92.6
72.9352,332.8
72.9359,173.9
72.937,211.5
72.9492,290.1
72.9542,17.6
72.9665,389.5
73.0017,70.3
73.003,390.7
73.0051,327.9
73.0234,627.8
73.0284,326
73.0934,203.1
73.0966,16.6
73.1238,176.7
73.1406,132.1
73.1776,689.7
73.1872,325
73.1895,588
73.1969,381.3
73.2068,200.6
73.2312,208.7
73.2597,114.8
73.3308,17.7
73.3315,629.2
73.3361,71
73.3412,162.9
73.3551,547
73.3592,368.5
73.3621,173.8
73.3797,268.2
73.4003,543.8
73.4129,81.1
73.4231,218.8
73.433,549.6
73.4365,281.4
73.4402,532
73.4556,374
73.4681,631
73.4771,124.2
73.4843,553.5
73.4945,134.7
73.5232,511.9
73.5268,18.1
73.5496,21.5
73.6054,108.9
73.6083,483.9
73.6204,296.3
73.6333,383.7
73.6502,19
73.6507,511.2
73.662,101.2
73.6821,98.6
73.6893,19.9
73.695,467.7
73.7024,501.6
73.7081,85.9
73.7103,556.8
73.7169,19.2
73.7313,158.7
73.7651,17.3
73.7665,77.4
73.7694,65.8
73.7951,513.6
73.8213,17.2
73.8352,468.9
73.858,627.3
73.863,388.6
73.8858,65.5
73.8946,530.4
73.9506,325.8
73.9765,821.3
73.979,583.8
73.9865,630.6
74.0184,78.9
74.021,202.4
74.038,161.8
74.0484,118.1
74.0599,4407.9
74.1257,67.8
74.1322,98.7
74.1881,71.5
74.1997,772.5
74.2023,104.5
74.2298,639.7
74.2307,168.6
74.2574,16.6
74.2747,114.8
74.283,555.9
74.294,250.4
74.3008,482.2
74.3164,18.1
74.3252,171.4
74.3513,524.3
74.3574,405.1
74.3944,265
74.3989,466.5
74.4438,577.5
74.4489,72.3
74.4653,17.4
74.4966,89.2
74.5359,339.6
74.571,210
74.5718,16.8
74.5845,233.8
74.5977,447.9
74.6177,559.2
74.6275,91.2
74.6311,77.7
74.6748,592
74.6961,87.7
74.704,124.3
74.7181,16.6
74.7224,76
74.7248,78.1
74.7413,150.1
74.7427,695.8
74.7561,210.6
74.7593,261
74.7622,357.3
74.7722,523.7
74.8163,71.6
74.8268,291.9
74.8273,85.6
74.8299,515.3
74.837,531.6
74.8427,220.7
74.8434,143.1
74.8507,18.6
74.8566,323
74.8931,90.3
74.9107,396
74.9115,17.9
74.9307,77.9
74.9325,320.8
74.9442,84.5
74.9495,152
74.9551,454.2
74.9564,62.8
74.9876,198
74.9905,646.6
74.9954,20.7
74.9988,500.4
75.0029,587.9
75.0371,211.2
75.0385,141.6
75.0446,235.4
75.0612,66.7
75.0827,226.6
75.0935,114
75.0968,434
75.1349,71.1
75.1548,80.8
75.1728,418.5
75.1864,334.3
75.1874,98.5
75.2049,63.1
75.209,682.9
75.218,88.2
75.2226,123.5
75.2268,357.5
75.228,666.2
75.2296,20.1
75.2313,107.1
75.2534,155.9
75.2927,16.4
75.3194,17.9
75.3302,893.8
75.3367,78.7
75.338,227.6
75.3542,651.4
75.3725,209.9
75.3836,103.5
75.3955,300.9
75.4094,86.3
75.4438,115.8
75.4685,111.6
75.4738,122.3
75.4855,182.8
75.5106,642.5
75.5248,614.3
75.5317,125.4
75.5456,221.9
75.5715,89.6
75.5762,181
75.5793,80.2
75.5963,88.5
75.6062,63.5
75.6216,116.3
75.6365,722.8
75.6458,568.5
75.6567,648.8
75.6971,149
75.7078,558.3
75.7344,158
75.747,111.3
75.7507,126.3
75.7604,85.7
75.7638,104.1
75.7889,83.4
75.8082,625.5
75.8307,587.1
75.8339,194.6
75.842,73.6
75.8425,74.7
75.8432,622.4
75.8618,183.7
75.8696,150.3
75.8846,126.9
75.9033,134.7
75.9133,104.1
75.9207,252.1
75.9522,99.1
75.9573,312.2
75.9612,20.6
75.9706,123.1
75.9744,530.5
75.9765,265.9
76.0321,620.9
76.0466,321.8
76.0819,289.6
76.106,108.5
76.1392,819.3
76.1435,95.3
76.1871,18
76.1918,116.2
76.1958,335
76.2015,525.3
76.2058,129.5
76.2231,661.1
76.2317,441.2
76.2437,320.8
76.2476,534.7
76.249,458.8
76.2573,17.9
76.2844,316
76.296,90.1
76.2975,144.9
76.3074,247.3
76.326,273.1
76.3324,135.7
76.3433,448.4
76.3613,194.4
76.3738,187.8
76.3905,447.3
76.3981,492.1
76.4072,147.7
76.4422,142.9
76.4758,146.4
76.4765,249.1
76.5319,194.8
76.5439,78.7
76.5833,538.4
76.6068,293.9
76.6222,102.7
76.6283,606.1
76.6503,87.6
76.653,546.6
76.6646,347.2
76.6703,400.4
76.6818,483.9
76.692,84.9
76.7037,77.5
76.7176,378.3
76.7321,152
76.7342,117.9
76.7395,321.6
76.7403,17
76.7613,178.3
76.7707,201.1
76.7823,79
76.7834,233.9
76.7897,491.5
76.7945,183
76.8113,112
76.8355,721.1
76.8446,426.2
76.8879,520.7
76.9041,151.5
76.9177,66.7
76.951,17.6
76.9711,586.4
76.9717,592.4
76.9789,821.2
77.0041,299.6
77.0201,19.6
77.0236,133.7
77.0314,262.1
77.0337,518.4
77.0354,937.8
77.0367,19
77.0373,27.8
77.0384,130800.3
77.0591,156.3
77.0699,607.2
77.0758,413.6
77.101,600.9
77.1069,85.6
77.1157,102.7
77.146,268
77.1549,135.7
77.1733,79
77.1794,90.7
77.2045,201.7
77.2086,298.9
77.2412,374.8
77.272,18.2
77.3183,602.1
77.3442,371.9
77.3469,227.4
77.3501,126.2
77.3693,92
77.4154,176.7
77.4285,73.6
77.4354,80.6
77.4947,127.9
77.4979,18.1
77.5097,148.1
77.5106,94.6
77.5126,398.1
77.5268,17.6
77.5297,355.4
77.5578,412.9
77.5588,105.2
77.5689,107
77.5858,287.9
77.5896,256.2
77.6222,21
77.653,18.7
77.66,387.6
77.6636,217.9
77.7035,688
77.7112,124.6
77.7201,136.9
77.7491,16.8
77.754,594.7
77.7901,521.5
77.845,163.9
77.8508,91
77.8531,95
77.8701,168.4
77.8823,68.7
77.8969,95.7
77.9123,566.8
77.94,507.2
77.9619,264.1
77.9803,163.5
77.9811,511.7
77.9818,420
77.986,172.8
77.9929,17.3
78.001,108.1
78.0184,319
78.0237,589.4
78.0277,101.4
78.0418,3715.9
78.0651,108.9
78.0674,390.4
78.0787,101.9
78.1019,17.5
78.1058,400
78.1264,124.4
78.1581,176.6
78.1911,17.7
78.2151,203
78.2183,509.3
78.2246,72.5
78.2332,563
78.2367,148.6
78.248,166.5
78.2525,207.8
78.2796,182.2
78.2927,622.9
78.2946,483.4
78.2963,15.1
78.3022,363.1
78.3049,630.6
78.3698,219.5
78.3767,508.2
78.4086,68.9
78.4139,240.4
78.4288,961.7
78.4405,245.9
78.4499,144.8
78.4556,255.4
78.4761,107.8
78.4786,511.4
78.523,18.8
78.5311,158.1
78.5324,163.8
78.5477,101
78.6338,251.6
78.6626,15.7
78.685,466.5
78.6924,18.8
78.6987,731.9
78.706,100.4
78.7094,16.9
78.7859,574.7
78.7873,20.2
78.8472,275.3
78.852,491.4
78.8569,248.2
78.9027,109.5
78.924,359.4
78.9262,281
78.9492,125.3
78.9837,341.5
78.9922,70.5
78.9969,201.7
79.0017,390.8
79.0086,591.2
79.013,101.6
79.0162,92.1
79.0304,287.8
79.0311,66
79.0344,82.4
79.0431,116.8
79.0541,2488.8
79.0615,69.5
79.0638,85.2
79.0902,124.8
79.1046,146.3
79.1303,430.3
79.1352,492.7
79.1474,392.4
79.1556,109.5
79.1583,79.7
79.1856,83.7
79.1885,403.3
79.195,86.3
79.1996,18.2
79.2075,88.2
79.217,68.1
79.2349,567.4
79.2493,18.2
79.2504,174.5
79.2621,18.8
79.2764,136.8
79.285,591.6
79.2855,136.1
79.2903,168.2
79.3057,165.5
79.3341,144
79.3488,687.4
79.3648,158.6
79.3676,273.1
79.4178,314.7
79.4372,253.5
79.4391,153.8
79.47,369.7
79.4719,722
79.4784,75.5
79.4825,124.9
79.4833,264
79.494,152.8
79.5016,66.9
79.5028,110.1
79.5089,81.6
79.5145,117.7
79.5301,93.8
79.5447,99
79.5705,92.6
79.5712,73
79.5807,119.7
79.6064,123
79.6104,274.6
79.6218,102.5
79.6234,105.5
79.6306,401.9
79.6334,16.5
79.6498,316.7
79.6711,170.4
79.7012,89.5
79.7163,115.8
79.728,138.8
79.7792,74.4
79.817,219.7
79.8346,99.9
79.8457,485.9
79.8632,108.4
79.8767,397.2
79.9065,33
79.9276,323.6
79.9296,171.6
79.941,127.6
79.9424,72.7
79.9482,18.6
79.9572,101.3
79.9579,72.7
79.9696,400.9
79.9758,84.6
79.9768,77
79.98,156
79.9906,321.3
79.9971,496
80.0527,608.2
80.0611,556
80.0628,708.6
80.0675,342
80.0709,197.4
80.0731,627.7
80.0762,111.1
80.0775,71.3
80.1004,491.1
80.1361,556.1
80.1417,308.1
80.2007,96.8
80.2196,180.1
80.2286,115.7
80.2363,134.9
80.2736,261.2
80.3093,498.4
80.3108,117.4
80.3128,105.8
80.3144,149.6
80.3793,311.2
80.4068,354.7
80.4171,516
80.4313,208.3
80.4325,83.4
80.44,338.2
80.465,305.7
80.482,120.4
80.57,131.2
80.5747,149.4
80.6102,164.5
80.6651,405.4
80.668,568.7
80.6751,280.4
80.6771,102.2
80.6791,110.6
80.6876,117.1
80.6919,434.2
80.6944,102.3
80.7119,111.4
80.7181,85.9
80.8005,116.8
80.8048,644.2
80.8243,135.2
80.8274,143.5
80.8359,86.6
80.8395,706.7
80.8574,17
80.8783,738.3
80.8795,105.1
80.8982,519.1
80.9374,419.3
80.9424,247.3
80.9477,45909.3
80.9485,72
80.9513,157.2
80.9667,395.6
80.9837,212.2
81.026,16.6
81.036,324.1
81.0653,740.6
81.0698,1011.4
81.0873,222.4
81.1203,82.9
81.1279,133.4
81.1423,121
81.1509,911.7
81.1521,781.2
81.1529,361.8
81.1539,427.6
81.1552,1030.8
81.1566,94
81.1576,800
81.1588,92.5
81.1721,77.3
81.2031,270.8
81.223,408.5
81.3256,91.9
81.342,327.6
81.3533,114.3
81.3591,15.4
81.3597,424.4
81.3612,402.9
81.3668,133.6
81.3826,19.5
81.4028,82.9
81.4166,355.3
81.4354,732.4
81.4375,710
81.4378,678.3
81.4381,595
81.4416,179.8
81.4911,607.8
81.5107,120.1
81.5131,162.6
81.5212,18.5
81.526,577.4
81.5417,243.1
81.5443,135.5
81.5492,406.8
81.5541,150.3
81.572,74.2
81.5909,479.9
81.6028,230.6
81.6281,22.9
81.633,278.9
81.6472,212
81.6604,104
81.6717,79.1
81.7321,237.3
81.7551,263.2
81.7588,136.7
81.7645,19.3
81.7849,380.2
81.8592,309.6
81.8774,252.5
81.8888,194.3
81.8932,559.6
81.908,89
81.9095,431.3
81.9171,190.4
81.9356,184
81.9627,257.5
81.968,199.1
81.9743,285.3
81.9966,674
81.9973,82
82.018,186.5
82.0577,256.8
82.0628,158.9
82.128,166
82.1485,270.4
82.1832,16.9
82.2261,295.5
82.2336,300.9
82.2471,339.8
82.2537,426.9
82.257,87.7
82.2753,178
82.3304,532.3
82.3501,117.8
82.3708,72.7
82.4123,347
82.4148,355.1
82.4311,134.3
82.4438,599.1
82.4777,163.1
82.4855,112.4
82.4865,169.9
82.5222,358
82.5495,118.8
82.568,307.9
82.5835,160.5
82.6143,729.4
82.6211,17.1
82.6627,403.1
82.6659,15.6
82.679,166.4
82.6939,16.4
82.6953,367.2
82.6992,237.4
82.723,263
82.7849,216.9
82.7895,175.1
82.8186,303.3
82.8326,102.9
82.8599,592.7
82.8621,378.1
82.8635,242.4
82.8661,130.3
82.8689,138.4
82.9196,416.3
82.9321,500.6
82.9385,119.7
82.9448,9360.8
82.9676,147.3
82.9694,18
82.9725,407.2
82.9828,381.4
82.9853,67.6
82.9865,441
83.0021,142.2
83.0167,325.8
83.0215,66.9
83.0298,125.7
83.0336,482.6
83.0602,167.2
83.0634,633.8
83.0663,166.2
83.07,19.1
83.0763,125.1
83.0829,18.8
83.0852,17.8
83.0953,264.9
83.1292,140.9
83.1399,154.6
83.1619,88.1
83.164,220.6
83.1719,302.9
83.2133,258.7
83.2305,334.4
83.236,421.1
83.2516,127.5
83.254,206.3
83.2676,268.9
83.2908,104.8
83.3,510.2
83.3041,127.8
83.3052,124.2
83.3507,177.6
83.3771,143.5
83.3808,17.2
83.3829,782.3
83.4261,321.5
83.4405,102.5
83.4857,413.3
83.4878,117.2
83.4956,20.6
83.4965,132.4
83.5133,285.5
83.5147,197.8
83.5287,142.4
83.5442,16.8
83.5513,120.5
83.5556,65.6
83.5737,239.6
83.5971,112.3
83.6451,191.9
83.6662,460.8
83.6773,582.4
83.6924,81.5
83.705,107.3
83.7071,181.3
83.7475,397.1
83.7806,19.5
83.799,116.5
83.8028,153.1
83.8166,20.5
83.837,126.6
83.8835,327.7
83.9126,108
83.9179,108.1
83.9583,83.7
83.972,422
83.9787,295.3
83.9805,123.2
84.0022,440.7
84.0219,17
84.0279,196.5
84.0408,89.3
84.0443,1036.9
84.0608,642.2
84.0771,85.6
84.0808,390
84.0925,70.5
84.1078,286.8
84.1687,789.7
84.1818,80.4
84.1852,110.1
84.1979,382.2
84.2394,457.9
84.2513,568.2
84.2807,350.3
84.315,105.3
84.327,125.1
84.3301,137.3
84.3394,142.3
84.3807,72.6
84.442,277.1
84.4468,297.8
84.4536,420.7
84.4558,17.1
84.4617,153
84.468,379.1
84.4853,89.4
84.4913,624.3
84.4993,66.4
84.5042,73.2
84.5334,100.7
84.5378,120.7
84.5544,107.2
84.5762,19.5
84.5781,103.1
84.5846,201.4
84.5935,90.2
84.6324,124.4
84.6384,73.5
84.6523,500.8
84.6615,88.3
84.6669,320.2
84.6723,82.3
84.6733,434.1
84.7042,337.9
84.7071,106.1
84.8078,432.4
84.8086,182.6
84.8132,420.6
84.8331,413.1
84.8447,22
84.8656,563
84.8785,553.5
84.9137,184.5
84.9162,685.5
84.9359,16.1
84.9424,135.3
84.9434,300.7
84.9596,23493.2
84.9674,117.4
84.9943,198.9
84.9962,355.3
85.047,109.7
85.0576,448.3
85.0929,525
85.0962,287.2
85.117,143.8
85.1692,368.9
85.1806,431.4
85.2093,971.3
85.2194,677.5
85.2254,227.1
85.2272,347.8
85.2373,402.6
85.2405,459.6
85.2827,148.2
85.3402,139.2
85.3954,18.5
85.417,624.3
85.4368,267.9
85.4487,80.9
85.4563,84.1
85.4722,498.2
85.4741,136.3
85.4837,150.7
85.4895,72.6
85.4946,18.4
85.5127,19.9
85.5377,137.9
85.5509,91.6
85.5735,104.6
85.5758,95
85.5987,85.2
85.6223,129.8
85.6277,18.2
85.6406,113.1
85.6436,390.7
85.6499,342.9
85.673,140
85.7283,190
85.8062,199.8
85.8112,373.7
85.8538,126.4
85.862,212.3
85.9194,179.4
85.928,273
85.933,248.1
85.9451,167.1
85.9476,171.2
86.0247,78
86.0402,523.3
86.0463,177.2
86.06,44747.4
86.064,139.8
86.0821,93.8
86.0835,110.9
86.0963,98622
86.0996,85.9
86.1087,649.9
86.1705,128.9
86.1883,174.9
86.1954,115.9
86.1979,249.1
86.2562,406.1
86.2919,371.8
86.3518,174.8
86.3875,375.4
86.399,148.8
86.4036,630.4
86.4592,101.9
86.4682,402.3
86.4784,487.5
86.5304,17.2
86.5629,107.4
86.574,286.4
86.595,93.6
86.6724,463.1
86.685,138.9
86.6969,105.9
86.7072,419.1
86.7103,278.2
86.7249,148.6
86.7334,18.1
86.7515,168.3
86.7701,131.4
86.7841,417.6
86.7869,98.5
86.8112,195.1
86.8191,80.6
86.8333,322.5
86.8438,371.9
86.8561,156.9
86.9058,120.4
86.907,104.9
86.9245,133.5
86.9527,17.7
86.9946,17.9
86.996,534.6
87.0086,352.7
87.0111,269.3
87.0382,330.4
87.0465,154.3
87.0741,191.3
87.0995,945.5
87.1221,208.9
87.1245,236.9
87.1276,79
87.1364,595.1
87.143,95.8
87.1534,126.4
87.1973,402
87.2341,15.7
87.264,82.4
87.2723,17.3
87.333,83.2
87.3362,364.9
87.3567,293.7
87.3648,83.5
87.3748,78.1
87.3808,73.1
87.3836,379.2
87.4147,136.8
87.4607,102.8
87.5022,18.9
87.5084,389.8
87.5286,622.5
87.5464,904.7
87.56,16.7
87.5682,412.5
87.5836,91.7
87.5938,505
87.6452,71.6
87.6509,529.8
87.6731,102.8
87.6895,381.3
87.7038,499.9
87.707,119.7
87.7525,127.7
87.8372,151.3
87.8437,126.4
87.8532,128.6
87.8921,676.9
87.9123,318
87.9582,17
87.9603,434.6
87.9757,267.1
88.0135,17.5
88.034,73.5
88.0392,9869.7
88.0593,68.9
88.0723,120.7
88.0829,597.8
88.0872,81.1
88.0956,958
88.1702,508.5
88.2379,389.8
88.2534,167.5
88.2843,105.6
88.3074,19.5
88.3142,190.1
88.3149,157.9
88.3159,80.3
88.3329,139.8
88.335,537
88.3356,501.6
88.3643,575.8
88.4114,240.7
88.4144,96.2
88.4284,568.9
88.4442,288.8
88.4502,109.9
88.4573,463.3
88.4862,178.7
88.5034,98.9
88.515,700.7
88.5224,84.5
88.5274,153.8
88.5329,18.6
88.5411,624.2
88.5619,112.2
88.5668,16.9
88.6033,327
88.6248,151
88.6268,436.9
88.6367,18.6
88.6785,203.4
88.6799,305.7
88.6911,111.1
88.7101,127.3
88.8231,123.5
88.8307,409
88.8353,217.5
88.9209,16.2
88.9294,18.9
88.9463,424.3
88.9466,789.3
88.9469,686.9
88.9475,202.1
88.9491,642.6
88.9634,146.8
88.9794,96.2
88.9973,279.9
89.0202,305.3
89.0266,178.3
89.0335,517.6
89.0349,348.7
89.0378,146.8
89.0446,497.6
89.0454,19.1
89.0599,83.7
89.0976,534.5
89.1432,314.5
89.1771,97.7
89.1974,237
89.2023,325.3
89.2163,23.9
89.2208,302.7
89.2264,86.8
89.2515,566.4
89.2684,109.5
89.272,542.9
89.2941,560.8
89.3008,18.1
89.3477,473.1
89.368,20.6
89.401,528.7
89.4203,576.7
89.4377,149.3
89.5021,274.9
89.5184,20.6
89.572,18.9
89.5746,388.1
89.5819,151.2
89.5921,20.3
89.613,331.7
89.6195,19.7
89.6221,19.5
89.6298,389.4
89.6495,629.7
89.6659,175
89.6672,119.9
89.6961,97.6
89.7236,127.5
89.7429,63.5
89.7705,77.2
89.8192,146
89.8526,15.9
89.8607,353.6
89.8739,444.8
89.8779,157.8
89.8932,107.2
89.9002,318.4
89.9015,113.3
89.9301,756
89.9399,102.8
89.9636,193.6
89.9994,75.9
90.0175,167.6
90.0301,337.5
90.0359,538.6
90.038,90.5
90.0602,352.1
90.0876,497
90.0931,83.9
90.103,592.2
90.1229,563.1
90.1383,246.1
90.1435,351.2
90.1889,20.1
90.1954,393.1
90.1968,650.3
90.2083,169.6
90.2134,314.9
90.2268,308.3
90.2495,98.1
90.2544,102
90.2588,659.1
90.3348,62.8
90.3437,167.9
90.3574,121.6
90.3586,247.1
90.3782,312.3
90.3886,535.4
90.4115,274.3
90.4132,198.5
90.4169,162.2
90.4237,135
90.4255,238.3
90.4399,160
90.4703,75.8
90.5018,20
90.5229,719.2
90.5249,106.4
90.5271,116.7
90.5291,736.7
90.5552,343
90.5581,200.3
90.5931,386
90.6078,336.9
90.6111,169.7
90.6388,371.2
90.6436,89.9
90.6799,230.2
90.7098,66.1
90.7118,264.5
90.7474,151.4
90.8041,147.9
90.8093,695.3
90.8227,289.5
90.8674,90.7
90.8823,115.5
90.9033,32.5
90.9102,78.7
90.9477,1029.1
90.9766,9058.5
91.0032,485.6
91.0082,413.4
91.0224,145
91.044,254.9
91.0542,1692.4
91.0571,158.5
91.108,154.7
91.1124,565.9
91.1277,114.4
91.1325,545.3
91.1454,91.3
91.1498,238.3
91.1573,21.5
91.1749,246.1
91.1858,501.2
91.189,171
91.2007,151.4
91.2065,120.3
91.2139,101.9
91.2391,286.8
91.2469,353.2
91.2481,123
91.2496,301.3
91.2636,22.1
91.3092,179.4
91.3154,128.5
91.3256,137.7
91.3279,135.5
91.4024,280.6
91.41,392.7
91.4218,72.7
91.4247,112.8
91.4763,346.3
91.4808,277.1
91.4824,611
91.4983,139.3
91.5035,99.1
91.5095,615.4
91.5326,113.6
91.5355,18.4
91.5469,581.9
91.5488,89.3
91.5656,292.4
91.5684,15.2
91.5824,860.7
91.5838,386.3
91.6249,553.6
91.6938,678
91.7012,79.2
91.7222,538
91.7471,704.8
91.7569,124.2
91.7637,585.3
91.7735,18.9
91.8028,298.8
91.8072,638.1
91.8155,171.1
91.8206,323.4
91.8258,121.2
91.84,625.5
91.9159,309
91.9195,202.2
91.9481,153.5
91.9597,108.6
91.9688,467.2
91.9859,87.1
91.9934,130.9
92.0026,111.9
92.0049,211.3
92.0084,319.8
92.0134,551.8
92.0384,80.6
92.0495,92.2
92.0735,315.4
92.0771,145.5
92.096,336.5
92.1395,709.6
92.215,191.6
92.2179,137.2
92.2251,100.5
92.2812,23.2
92.2961,91.6
92.3339,160.7
92.3353,446.2
92.3376,81
92.3612,325.9
92.3894,19.1
92.4203,160.4
92.4335,344.1
92.4405,104.6
92.4941,199.6
92.4967,167.6
92.6142,80.7
92.6463,582.1
92.6642,132.9
92.6902,78.4
92.7693,97.2
92.7747,140.8
92.7796,215.2
92.8,624.5
92.8264,138.6
92.8279,418.5
92.8383,129.5
92.839,136.4
92.848,77.8
92.8589,167.1
92.8801,148.3
92.8962,21.4
92.9398,556.5
92.9735,228.5
93.0127,553.9
93.0699,34.4
93.0884,346.4
93.0904,636.3
93.1214,90.5
93.1406,532
93.1411,468.4
93.1552,16.7
93.1632,122.7
93.1688,166.7
93.1895,567.9
93.2031,93.7
93.2039,338.7
93.2049,102.5
93.2154,179.5
93.2325,346.6
93.2452,155.1
93.258,17.6
93.2783,109.4
93.289,140.8
93.2943,769.8
93.2963,163.9
93.2981,557.6
93.3052,19.6
93.3129,88.5
93.3145,77.9
93.3497,570.9
93.402,120.3
93.4091,606.2
93.4259,336.9
93.4593,75.5
93.4883,17.2
93.542,542.8
93.5466,685.5
93.5701,17.8
93.572,370.7
93.6148,100.3
93.6417,24.6
93.6495,84.5
93.6583,390.5
93.6652,85
93.6687,87.7
93.708,641.5
93.7386,382.5
93.784,327.6
93.7905,135.2
93.8165,18.3
93.8997,340.4
93.9007,269.7
93.9608,714.8
93.9838,349.8
93.9991,113.2
94.0051,124.4
94.0184,575.5
94.028,91.1
94.0362,509.4
94.0385,17.1
94.039,27
94.0396,30.1
94.0413,69209.2
94.0478,217.6
94.0562,166.6
94.0597,74.4
94.0694,80.1
94.0738,244.1
94.0835,161
94.1815,317.5
94.2199,129.3
94.3152,428.5
94.3407,165
94.3507,153.2
94.3658,101.7
94.3669,330
94.3901,592.4
94.4048,430.4
94.4552,17.5
94.5011,681.8
94.5195,379.9
94.5884,321.6
94.6313,587.5
94.6351,134.2
94.6869,479.4
94.6956,918.2
94.7302,147.9
94.7325,115.4
94.7371,107.6
94.7459,144
94.7604,79.9
94.7775,880.8
94.7838,351.7
94.7887,589.6
94.8153,103.2
94.8466,125.2
94.8882,94.2
94.8921,238.7
94.8992,104.6
94.901,227.1
94.905,138.9
94.9368,332.7
94.9484,507.1
94.9491,126
94.9504,85
94.9755,130.1
94.9874,812.5
94.9953,91.4
95.021,17.6
95.0287,131.6
95.0356,30
95.0369,382.8
95.0447,1392.8
95.0491,456875.2
95.0511,93.7
95.0515,27.3
95.0519,55.8
95.0558,100
95.0626,52.7
95.0682,325.2
95.0708,740.5
95.0723,317.1
95.0856,1178.6
95.137,23.5
95.1397,507.1
95.1543,646.1
95.1827,146.3
95.2113,674.2
95.2704,190.1
95.2761,105.2
95.2898,271.6
95.3138,71.7
95.3829,625.7
95.4019,775.2
95.4134,173.8
95.4191,21.1
95.4508,98.2
95.4566,123.9
95.485,327
95.4875,339.8
95.4964,128.6
95.5751,194.6
95.5809,146.4
95.5866,97
95.6257,128
95.634,809.5
95.6413,348.8
95.6531,18.3
95.6563,357.5
95.6595,386.4
95.6838,188.4
95.7039,18.1
95.7155,150
95.8404,281.3
95.866,103
95.8807,471.8
95.9019,196.7
95.9196,206.5
95.9228,324.9
95.9344,120.4
95.9712,125.2
95.974,369.1
95.9765,460.2
95.9795,385.9
96.0023,65.2
96.0473,121.3
96.0525,22791.2
96.0554,20.3
96.0563,98.2
96.0606,633.3
96.0783,128.6
96.0913,19.7
96.1421,216.7
96.1614,146.2
96.1965,125.5
96.2009,116.9
96.227,127.2
96.258,104
96.2656,77.5
96.2813,123.4
96.361,22.5
96.3826,144.1
96.4224,67.2
96.433,237.9
96.4741,90.4
96.4845,364.3
96.4864,446.9
96.5093,75.4
96.583,532.3
96.584,175
96.6025,90
96.6465,252.2
96.7047,726.4
96.727,141.9
96.7508,123
96.794,87
96.8447,480
96.849,489.5
96.899,499.8
96.9035,702.8
96.9058,22.5
96.9217,146315.3
96.9273,169.9
96.9797,538.8
97.0076,171.2
97.0106,35.8
97.0427,111.6
97.0534,85.4
97.0559,44.9
97.0649,249.8
97.0901,140.6
97.0922,579
97.1011,21.4
97.1268,142
97.1963,145.8
97.2065,490.4
97.2235,630.1
97.2288,120
97.24,18.2
97.2493,124.9
97.2858,101.1
97.2968,17.6
97.348,707.7
97.3538,145.1
97.3603,95.6
97.3801,93
97.3857,117.6
97.3889,155.8
97.4338,93.7
97.438,71.3
97.4897,98.9
97.5059,120.2
97.5263,313.3
97.5471,21
97.5774,777.3
97.6024,759.5
97.6124,359.8
97.6181,20.6
97.6941,519.9
97.7,168.5
97.7147,1051.5
97.7303,72.2
97.7407,22.9
97.7699,173
97.7738,578
97.7788,19.3
97.7966,296.6
97.7991,387.1
97.8013,287.7
97.8211,321.6
97.8277,135.3
97.8324,224.3
97.8708,95.9
97.9005,320.3
97.9052,165.8
98.0144,82
98.0175,469.2
98.0352,84.1
98.037,633.3
98.0427,79
98.0458,116.3
98.0516,75.9
98.0531,341.4
98.0983,151.9
98.1314,135.2
98.1419,536.5
98.1542,97.9
98.1573,100.8
98.2299,617.7
98.2581,556.1
98.282,244.2
98.3179,21
98.3368,87.5
98.3668,109.4
98.3815,101.7
98.3944,314.7
98.4024,370.6
98.435,117.2
98.4406,123.3
98.4683,266.7
98.4862,320.7
98.6117,341.5
98.6468,133.4
98.6526,179.6
98.7363,18.3
98.7542,341.8
98.7926,106
98.8069,146.2
98.87,128.5
98.9116,914.2
98.9142,120.1
98.9188,45628.1
98.9199,8076.3
98.931,17.1
98.9697,337.7
98.9738,80.9
98.9753,11895.7
98.9807,17.3
98.9842,21.8
98.9996,785
99.0077,17.2
99.0162,106.6
99.0672,69.1
99.1322,348.3
99.1764,444.7
99.1925,231.2
99.196,471.6
99.2206,506
99.2615,607
99.2974,513.5
99.2993,150.9
99.3,89.1
99.3246,70.3
99.3415,253.7
99.3436,279.9
99.362,22.6
99.3726,94.3
99.3834,170
99.394,189.7
99.4116,396.8
99.4184,71.1
99.4364,624.2
99.4869,18.8
99.5074,337.6
99.5513,17.4
99.6422,373
99.6543,103.1
99.6546,103.6
99.6788,250.4
99.6996,256.1
99.7225,86.8
99.7618,455.5
99.7788,306.8
99.7839,588.2
99.7972,17.9
99.807,84.6
99.8403,234.7
99.8573,86.5
99.8667,105.5
99.8729,99.2
99.8786,79.2
99.8827,259.1
99.8838,280.7
99.9506,469.5
99.9667,90.1
100.008,77.9
100.1162,156.4
100.1215,449.5
100.1325,132.4
100.1357,636.5
100.1724,287.9
100.2185,422.8
100.2236,694.8
100.2271,246
100.2496,609.5
100.2568,94
100.2705,139
100.3067,20.6
100.3081,767.3
100.343,86.9
100.3511,129
100.3786,134.5
100.4269,143.2
100.4435,83.5
100.4464,661.3
100.4795,72.9
100.502,485.6
100.5124,99.7
100.5191,72.8
100.536,436.9
100.5497,76.7
100.5755,281.1
100.5842,19.2
100.6085,207
100.6169,291.8
100.6247,97
100.6316,187.1
100.652,73.5
100.7025,79.1
100.7076,340.4
100.7191,101
100.735,469.5
100.7391,682.7
100.7402,418.5
100.769,77.3
100.7864,429.1
100.8332,66.1
100.8517,254.4
100.852,227.5
100.8653,725.9
100.8952,571
100.9108,723
100.917,374.4
100.9398,19.8
100.9494,431.1
100.9754,312.7
100.9773,89.9
100.9796,122.2
100.995,477.5
101.0226,394.4
101.0329,106.5
101.0471,2460.9
101.071,1384.9
101.0825,405.5
101.1121,314.5
101.1265,188.8
101.2407,73.9
101.267,418.4
101.2865,513.6
101.2886,122.6
101.3053,90.8
101.3587,169
101.3688,446.1
101.4693,139.8
101.4992,523.2
101.5089,509.5
101.5177,17.7
101.5284,237.2
101.5378,83.3
101.5461,842.7
101.5669,656.8
101.595,455.5
101.6284,200.9
101.6591,19.4
101.6614,159
101.6664,489.1
101.7319,293.5
101.7332,17.3
101.7413,18
101.7616,19.1
101.7988,357.8
101.8415,597.2
101.8629,453.1
101.9367,610.5
101.9527,255.4
101.957,340.9
101.9637,122.7
102.0027,284.2
102.0305,567.2
102.055,7427.4
102.0635,669.5
102.0761,20.6
102.0863,636.4
102.0945,79.5
102.1553,176.8
102.1798,145.7
102.1848,144
102.2181,226.8
102.2242,109.8
102.2302,506.9
102.2468,114.7
102.2876,86.8
102.299,16.9
102.3586,80.7
102.3747,190.5
102.4016,202.2
102.408,128
102.4901,524.2
102.5028,94.1
102.5106,19.2
102.5822,131.9
102.6075,429.7
102.61,19.2
102.6196,620.6
102.6753,106.3
102.6948,430.7
102.7264,102.2
102.7543,373.3
102.7897,111.3
102.8055,17
102.8165,431.9
102.8188,232
102.8356,93.3
102.8483,362
102.8623,191.7
102.8659,244.2
102.8671,205.9
102.8897,129.2
102.8955,69.8
102.9152,65.7
102.9215,106.5
102.9648,172.1
102.9703,537.4
102.9948,210.9
102.996,620.7
103.0103,652.5
103.0298,239.2
103.0503,320.3
103.0707,189.1
103.1027,79.2
103.105,345.3
103.1374,123.4
103.1387,19.3
103.202,184
103.2377,70.7
103.26,187
103.2742,204.5
103.2932,797.5
103.309,313
103.3648,540.9
103.3687,759.4
103.4303,155.7
103.4619,438.4
103.4684,225.7
103.4704,17.5
103.476,320.8
103.5079,551.5
103.5391,540.4
103.5527,202.7
103.5884,137.8
103.6793,21.1
103.7048,1415.8
103.7519,730.4
103.8063,99.8
103.8422,299.6
103.8659,74.7
103.8782,98
103.8816,109.8
103.9228,150.5
103.9234,312.7
103.9472,339
103.9599,111.8
103.9794,114.9
103.9868,75.6
104.0461,473.5
104.0539,18.3
104.0644,119
104.0782,17.7
104.107,420554
104.1295,302.5
104.1417,138.6
104.1428,18.5
104.1999,81.7
104.2129,623.4
104.2242,435.1
104.2344,358.7
104.2566,20.5
104.3088,93.4
104.3383,171.9
104.3412,405.8
104.3924,328.2
104.4327,18.3
104.4372,732.6
104.4541,19.5
104.4986,383
104.5317,287
104.5906,243.5
104.6376,142
104.6484,451.9
104.6517,86.6
104.6832,143.5
104.6937,120.9
104.6991,18.6
104.7541,174.2
104.8242,358.5
104.8315,523.9
104.8351,93.2
104.8538,157.9
104.8642,123.1
104.9002,382.2
104.9017,95.4
104.9078,22.7
104.9219,89.6
104.9254,276.9
104.9481,21.8
104.954,19.3
104.9634,1783.5
104.9823,296.1
104.9854,661.8
104.9923,1488.8
105.0111,480
105.0161,110.2
105.0418,139.3
105.0448,43854.6
105.0522,343.2
105.0547,506.3
105.091,128.9
105.1104,14171.5
105.1256,145.7
105.1606,68.9
105.2047,90.4
105.2647,170.6
105.2856,231.7
105.2966,17.3
105.3111,103.9
105.3262,579
105.3376,251.9
105.3428,791.7
105.369,98.4
105.4119,73.3
105.4176,275.6
105.4319,153.9
105.4423,19.6
105.4508,188.3
105.4984,110.1
105.6129,82.3
105.6326,72
105.6379,320.8
105.6491,182.2
105.6585,76.7
105.6797,161.8
105.7075,304.5
105.7321,247.5
105.7381,390.3
105.7748,20.1
105.7852,144.3
105.7917,151.8
105.7931,136.9
105.8138,75
105.8757,121.3
105.8837,595.3
105.9259,85
105.9497,403.4
105.9733,783
105.9889,156.3
105.9926,166.4
105.9967,93.9
106.0143,91.9
106.035,267.2
106.0482,865.7
106.058,247.5
106.0651,33.8
106.0807,541.6
106.1723,17.4
106.1801,17.7
106.1928,184.1
106.2213,422.3
106.2265,150
106.2383,69.3
106.2693,19.6
106.2897,398.4
106.3047,130.2
106.3132,1099.8
106.3161,591
106.3204,595.7
106.3266,110.4
106.3312,764.5
106.3333,418.2
106.3612,537.6
106.3648,733
106.3774,396.8
106.416,255.3
106.4343,573.1
106.4588,525.9
106.4727,328.1
106.481,16.1
106.5132,68.9
106.5161,586.4
106.558,77.1
106.5829,78.8
106.5859,149.6
106.5931,17.3
106.6828,345.6
106.7028,179
106.7196,16.4
106.7292,127.9
106.7902,118
106.8142,129
106.8233,92.8
106.8836,134.3
106.9343,697.5
106.9506,3803.3
106.9641,160.5
106.9683,166.4
106.9919,88.7
107.0286,671
107.0323,279.4
107.0492,595.5
107.0649,227
107.0818,250.3
107.1129,18.7
107.1218,19.5
107.184,175.1
107.2011,17
107.2091,485.4
107.2255,200.5
107.2496,140.1
107.2672,189.4
107.3013,195.1
107.3025,542.4
107.3565,418.5
107.3576,23.5
107.3794,358.1
107.3818,247.9
107.3862,127.2
107.4072,89.2
107.4292,160.5
107.4791,141.9
107.4914,87.5
107.5013,138.3
107.5755,128
107.6627,75.4
107.6707,112.4
107.7075,229.3
107.7345,593.8
107.7391,634.2
107.7431,121.9
107.7572,139.1
107.7621,82.2
107.7688,334.3
107.8391,129.9
107.8609,118.9
107.8901,176.8
107.8957,16.6
107.91,140.2
107.9171,107.3
107.9208,440
107.9818,507.1
108.0326,107.6
108.0403,337.3
108.0571,18.8
108.0757,372.4
108.0906,304.5
108.099,608.2
108.1057,107
108.1363,156.4
108.1369,142.1
108.2444,108.3
108.2665,822.1
108.3291,138
108.3666,17.1
108.4291,498.2
108.4339,89.7
108.4627,598.9
108.4834,248.6
108.4851,134
108.4936,540.3
108.517,200.5
108.5402,445.1
108.5427,16.9
108.5568,137.7
108.5829,80.7
108.6213,739.9
108.6313,336.4
108.649,97.3
108.6614,227.5
108.6966,119.1
108.7026,303.2
108.7641,166.2
108.7729,126.9
108.7832,515
108.7991,97.2
108.8184,280.8
108.8493,192.3
108.8569,18.1
108.872,103.6
108.8878,103.5
108.9156,136
108.9585,18.6
108.9726,18.7
109.0648,72979.5
109.0959,108.1
109.1011,137.9
109.1213,368.7
109.1902,206.1
109.194,499.3
109.228,172.4
109.246,442.4
109.2503,74.5
109.2801,191.2
109.2926,61.6
109.298,588.6
109.2983,553.1
109.3543,79.2
109.3617,77.3
109.3927,234.2
109.4159,298.3
109.4232,19.9
109.4555,63.1
109.474,197.4
109.4786,402.3
109.4805,89.7
109.4909,18.9
109.5334,160
109.539,69.2
109.5498,337.9
109.5649,100
109.6018,827.7
109.6298,180.5
109.636,231.5
109.6725,309.2
109.676,128.1
109.7258,109.2
109.7305,507.8
109.7434,269.7
109.8291,72.5
109.8589,19.6
109.888,391.3
109.8962,413
109.9075,77.8
109.912,129.9
109.9257,104.9
109.9315,163.6
109.9569,180
109.9861,149.2
109.9994,641.2
110.0295,384.2
110.0457,156.2
110.0682,2684.2
110.0697,139.9
110.0714,1346.1
110.0964,21.3
110.1007,155
110.1357,72
110.1779,102.6
110.1828,90.6
110.1904,329.5
110.1987,83
110.2112,79
110.2638,91.6
110.2936,16.9
110.2949,152.5
110.3141,570.3
110.316,99.5
110.3299,121.5
110.3598,580.7
110.4141,412.8
110.4252,84.7
110.4754,81.5
110.4815,85.6
110.5228,219.5
110.5862,19.3
110.6038,138.3
110.6051,69
110.6224,177.6
110.6421,515.1
110.7019,362.6
110.7171,103.8
110.7376,238.9
110.7698,98.9
110.8163,112.8
110.8305,471.6
110.8422,481
110.8604,309.1
110.8958,17.6
110.9459,479.1
110.9755,542.8
111.0233,361.4
111.0441,261.6
111.0736,593.1
111.1044,592.2
111.1332,17.7
111.1585,263.5
111.1684,355.4
111.1756,382.7
111.1922,362.8
111.2882,233.6
111.2984,112.5
111.3428,469.2
111.3511,352.1
111.3782,633.8
111.3804,590.1
111.3936,249.7
111.411,187.6
111.4313,443.8
111.4411,115.7
111.4422,144.5
111.451,316.1
111.4642,350.1
111.4675,348.2
111.5042,370.1
111.5243,733.3
111.5666,79.7
111.5678,101.8
111.5817,145.4
111.5965,115.1
111.6079,149.8
111.6115,330.1
111.6227,162.9
111.6404,296
111.6751,509
111.7006,388.5
111.7393,137.7
111.784,136.5
111.8045,392.4
111.8182,757.2
111.8334,263.5
111.8761,606.9
111.896,156.3
111.9299,280.5
111.9438,134.5
112.0397,229.3
112.0511,98.4
112.0666,116.6
112.0996,116.9
112.1263,595.2
112.1623,17.3
112.2415,87.6
112.2465,578.8
112.2842,99.4
112.2898,353.8
112.2952,104.8
112.3016,246.1
112.3068,231
112.3087,246.7
112.3825,154.6
112.4067,245.3
112.4533,587.3
112.5018,123.2
112.5048,17.8
112.5136,421
112.5163,80
112.5255,68.3
112.5266,77.1
112.543,129
112.5462,387.8
112.604,558.9
112.678,512.4
112.6953,112
112.7704,242.3
112.8003,127.9
112.8257,136.5
112.8304,201.7
112.8519,251.3
112.8645,125.9
112.8958,446229.3
112.9014,178.9
112.9422,379.7
112.973,121.6
112.9801,295.2
113.0534,16.4
113.0915,17.5
113.1283,455.1
113.1303,21.8
113.1813,108.4
113.2115,635.2
113.2124,323
113.2221,82.4
113.2631,17.9
113.2921,340.5
113.2974,251.4
113.361,64.9
113.3661,447.9
113.3924,412.2
113.4081,168.6
113.4384,78.1
113.4726,586.6
113.5432,360.1
113.5583,81.2
113.5645,334.1
113.6036,302.3
113.6273,451
113.654,1060.8
113.6818,178.8
113.685,589.1
113.6972,95.5
113.7232,186.7
113.8483,184.9
113.9149,18.8
113.9584,102.3
113.9637,18.8
113.9772,424.7
113.9986,118.8
114.055,65307.1
114.0661,621.9
114.0776,478.7
114.0914,28.1
114.1104,85
114.1169,145.6
114.1462,176.6
114.1514,257.7
114.1761,17
114.1931,126.3
114.2307,17.7
114.2412,106
114.2477,332.7
114.251,228.4
114.2648,261.9
114.266,602.6
114.2741,126
114.2897,148.5
114.3336,111.4
114.3537,234.8
114.3557,83.1
114.3635,17.8
114.3698,140.6
114.4284,380.6
114.4339,353.1
114.4656,642.5
114.4822,15.7
114.5084,416.3
114.565,101
114.5746,102.5
114.5825,224.4
114.6177,183.7
114.6546,318.3
114.691,145.8
114.7245,686.8
114.7329,81.7
114.7448,511.8
114.7598,439
114.7805,336.8
114.8274,21.6
114.8841,215.7
114.8928,138992.3
114.9415,239.8
114.9483,61
114.9571,155.7
115.0143,163.1
115.0225,139.7
115.0274,228.5
115.0391,85.8
115.0544,221.4
115.0584,1203.2
115.0803,76.9
115.0866,899.9
115.1286,154.4
115.1554,308.7
115.2278,71.5
115.2505,490
115.2557,117.5
115.283,109.9
115.3027,367.6
115.3129,115.4
115.3987,471.6
115.4167,98.3
115.4219,548.7
115.4371,93.7
115.4569,492.2
115.4774,93.3
115.4921,16.1
115.5018,690.1
115.5176,70.8
115.5648,659.7
115.5906,19.1
115.6286,174.5
115.7049,127.2
115.7194,355.5
115.7238,71.1
115.7409,18.5
115.7522,220.6
115.7586,167.8
115.7901,101.2
115.8056,156.1
115.8228,368.5
115.8605,160.8
115.866,305.3
115.8846,20.2
115.9104,138.4
115.9193,23.7
115.9737,332.5
115.9794,266.2
116.03,17
116.0707,6923.8
116.1023,176.5
116.2707,106.3
116.2727,18.2
116.3254,78.1
116.3661,100.9
116.3907,158.3
116.3962,427.1
116.427,328.8
116.4477,380
116.4581,213.4
116.5307,324.7
116.5589,595.8
116.5803,264.6
116.5817,74.8
116.5837,79.7
116.6429,23.5
116.6548,607.6
116.7197,70.4
116.7215,553.9
116.7306,21.2
116.7414,104.8
116.7639,246.1
116.7706,148.1
116.7717,122
116.781,87.2
116.8594,289.8
116.891,16719.9
116.9692,460.5
116.986,3363.6
117.0099,407.8
117.031,21.4
117.0406,338
117.0699,38.9
117.0835,20.7
117.0913,19.7
117.1118,68.6
117.1374,728.8
117.1499,524.7
117.1521,656.6
117.1613,168.1
117.2807,183.4
117.2922,521.9
117.2966,272.8
117.3069,291.9
117.3281,93.4
117.3666,126.7
117.3801,96.7
117.3844,84.2
117.4816,524.8
117.5151,593
117.5305,304.4
117.5533,17.9
117.5645,376.2
117.5797,83.3
117.6097,258.7
117.6367,96.1
117.6602,155.5
117.6827,636.7
117.7204,256.9
117.74,95
117.7454,78
117.7519,74.2
117.7818,220.1
117.8249,162.7
117.8362,259.4
117.8492,77.3
117.8649,242.9
117.8974,397.3
117.9099,325.2
117.9154,149.2
117.925,24.5
117.9568,18.3
118.0412,321.6
118.0776,70.3
118.1158,140.1
118.1169,17
118.1178,19.5
118.1211,71
118.2406,578.8
118.2474,117.4
118.2534,126.8
118.2858,415.3
118.3098,92.4
118.3662,138.9
118.3813,142
118.4138,282.6
118.4469,248
118.4796,238.3
118.4845,453.4
118.492,133.9
118.5187,131.2
118.5877,462.6
118.5953,108.6
118.6218,20.4
118.6482,537.4
118.6553,754.3
118.679,764.7
118.6871,343
118.6968,137.6
118.7241,348.9
118.7264,417
118.7342,509.8
118.7434,18.4
118.7496,125.1
118.8107,18.4
118.8779,595.1
118.9374,536.2
118.9427,269.3
118.9791,427.6
118.9844,173.8
118.9906,334.2
119.019,31.8
119.0428,112.8
119.0533,196.6
119.0674,109.5
119.0831,150.1
119.0857,33.4
119.1809,151.9
119.204,263.7
119.2334,116.2
119.2602,133.7
119.2648,213.5
119.3163,272.1
119.372,136
119.4332,17.8
119.5306,344
119.5332,151.5
119.5343,195.9
119.5365,438.8
119.57,246.4
119.6013,447.6
119.6653,480.9
119.7076,574.4
119.7431,143.6
119.762,148.8
119.7642,16.6
119.8305,224.7
119.8347,469.8
119.8925,16.9
119.9738,507.8
119.9896,69.7
120.0033,5275.5
120.0382,429.4
120.0709,97
120.0809,15589.4
120.1,17
120.1013,92.7
120.116,77.5
120.1226,93.3
120.126,76.4
120.1363,21.7
120.2166,18.7
120.2196,303
120.2241,186
120.3432,120.9
120.4628,18.5
120.4673,411.8
120.4704,126.3
120.4779,91.8
120.4881,258.1
120.4896,330.1
120.5191,105.6
120.5431,115.6
120.5653,301.6
120.5666,251.6
120.6228,197.8
120.624,353.3
120.6775,465.7
120.6919,154.9
120.7156,1007
120.7279,491.9
120.7596,22
120.7691,95.2
120.8173,232.6
120.8537,110.3
120.9014,288.8
120.9291,230.8
120.9523,147.2
120.9662,1011.7
120.9738,317.6
120.9809,184.8
120.9925,267.5
120.999,79.4
121.0077,301.7
121.0285,396.9
121.0397,55.8
121.0734,91
121.1112,543.4
121.1895,220.7
121.2157,82.4
121.2946,99.6
121.3085,611.6
121.3487,330.5
121.3546,444
121.3592,346.5
121.3824,571.3
121.3894,281
121.4133,230.6
121.4473,119.7
121.4677,67.7
121.495,18.8
121.5009,312.6
121.5828,177.1
121.5929,79.7
121.6476,656.9
121.6663,114.4
121.6772,18
121.6922,357
121.7602,786.2
121.7627,322.5
121.831,17.3
121.8618,264
121.8935,524.3
121.8953,484.7
121.9078,441.7
121.9181,441.6
121.9192,184.7
121.9343,20.2
121.9777,177.9
122.0527,687
122.0533,615.5
122.1222,339.1
122.1924,240.8
122.1987,76.3
122.2222,355.8
122.2611,77.7
122.2667,366.9
122.2736,390.9
122.2956,72.6
122.3049,388.5
122.309,603.4
122.3253,118.1
122.3335,18.9
122.3507,389.5
122.3522,158.4
122.4034,123.1
122.4516,135.2
122.5109,127
122.6014,544.8
122.62,269.7
122.6641,18.4
122.6654,87.2
122.7092,18.5
122.7265,85.7
122.7427,545.8
122.7436,644.5
122.7729,310.4
122.7778,89.4
122.7982,157.1
122.8127,360
122.8662,137.9
122.8681,111.9
122.9006,722.5
122.9246,18816.4
122.9295,26.6
122.9413,152.9
122.9522,657.7
122.9742,73
123.0187,592.2
123.0284,530.6
123.0783,96.7
123.0801,319
123.1218,81.3
123.1338,21.6
123.1757,18.2
123.1798,17.7
123.2758,359.6
123.2893,436.2
123.3002,167.7
123.3267,242.6
123.4151,589.4
123.4457,366.2
123.5364,92.2
123.7286,96.5
123.7773,16.7
123.843,17.6
123.9406,145.6
123.9546,530
123.9844,166
124.0347,139.4
124.0369,161.1
124.0413,340.4
124.0729,70.9
124.1196,140.8
124.1277,102.7
124.1589,187.2
124.1708,200.7
124.2199,602.4
124.2506,141.5
124.2941,311.9
124.3146,114.8
124.3275,361.7
124.3767,126.2
124.3834,161.7
124.4095,563.9
124.4126,20
124.4609,173.4
124.4698,17.5
124.6545,112.9
124.6808,480.3
124.7156,177.8
124.7407,562.1
124.7946,79.6
124.8327,351.7
124.8595,311.7
124.8738,636.8
124.9227,2379.8
124.9429,471.7
124.9741,121.1
124.9895,370.6
124.9916,453
124.9999,5924.1
125.0057,660.2
125.039,199.3
125.0427,310.3
125.0535,145.4
125.0598,79.2
125.0987,159.5
125.1001,621.6
125.1075,120.4
125.1282,579.2
125.1371,410
125.1725,225
125.2223,86.5
125.2508,74.8
125.2879,342.1
125.3021,681
125.3346,426.5
125.3396,185.7
125.3767,122.5
125.4831,621.3
125.537,503.1
125.5457,128.9
125.549,144.6
125.5744,138.5
125.5974,126.9
125.6089,98.8
125.6212,180.3
125.6461,88.4
125.7616,89.1
125.7962,254
125.8194,724.3
125.8359,20.5
125.8868,339.6
125.9012,303.4
125.905,140.1
125.9093,75.6
125.9351,82.7
125.9721,319.9
126.0002,84.3
126.0227,97
126.0321,337.1
126.0348,485.5
126.0906,20.8
126.1,118
126.1085,414.3
126.1449,89.6
126.2065,168.7
126.2526,138.1
126.2538,197.9
126.3487,324.3
126.3742,114.8
126.4,124.4
126.4187,195.4
126.4446,584.1
126.4932,149.3
126.5119,527
126.5312,571.7
126.5877,199.5
126.6305,218.4
126.6459,133.4
126.6617,86.5
126.7689,19.8
126.8031,139.5
126.8151,111
126.8179,84.5
126.8483,69.5
126.8504,703.9
126.8595,72.3
126.9198,18.6
126.9286,390.5
126.9369,19.8
126.976,156.4
127.0077,157.1
127.0479,236.2
127.1478,268.1
127.1842,160.2
127.2365,626.4
127.2679,148.8
127.3032,150.5
127.3368,716.1
127.3638,17.1
127.3804,555.5
127.3964,327.1
127.4145,253.3
127.4191,291.4
127.4495,126.2
127.4699,18.6
127.5193,155.9
127.5329,261.5
127.6388,375.6
127.6673,463.4
127.6746,163
127.6898,589.1
127.773,149.6
127.7996,461.5
127.8198,74.7
127.8588,182.1
127.8666,384.4
127.8703,127.1
127.8894,254
128.0213,644.2
128.0605,138.3
128.0742,116.7
128.0922,21.4
128.1435,456.4
128.1525,579.7
128.189,136.1
128.2345,276.7
128.2512,243.9
128.3307,524
128.3669,172.2
128.37,332.4
128.3863,19.3
128.4538,286.9
128.5326,143.7
128.5943,147.6
128.5992,119.8
128.6304,118.6
128.6473,309.3
128.6613,449
128.7534,648.7
128.7901,148
128.8069,155.1
128.8113,93.1
128.8252,18.5
128.8393,61.2
128.9082,665.6
128.9179,137.2
128.9277,381
128.964,76.9
128.9716,605.7
129.0034,897.9
129.0082,69.5
129.022,357.6
129.1024,869.7
129.1213,426
129.1433,150.1
129.2658,179.1
129.3134,113
129.3645,628.3
129.3767,589.3
129.412,216.7
129.462,17
129.4645,712.3
129.5591,800.6
129.5644,180
129.5925,17.9
129.6035,234.7
129.6071,261.5
129.6578,96.9
129.6956,528.6
129.7199,101.6
129.7478,145.7
129.7652,98.9
129.8637,321
129.8729,71.5
129.9015,129.1
129.9588,81.9
129.9627,415.9
129.9906,132.8
129.9952,174.6
129.9968,103.8
130.0054,680.9
130.0153,19
130.0173,20.1
130.0277,103.1
130.0328,178.5
130.05,11954.4
130.062,624.4
130.1628,110.2
130.2025,21.1
130.244,415.6
130.2544,98.4
130.2763,17.5
130.2986,168.4
130.2995,207.1
130.3298,290.2
130.3373,188.2
130.3526,116.8
130.3557,86.7
130.3671,130.4
130.3712,300.8
130.4902,82.4
130.4993,142.2
130.5098,349.4
130.5713,235.5
130.6109,654.1
130.6311,313.5
130.6699,376.2
130.7132,649.6
130.7335,140.3
130.7998,83
130.8067,691.8
130.8104,100.4
130.8264,578.3
130.8587,335.6
130.8686,643.4
130.8725,511.5
130.8869,65.8
130.9575,230.2
131.0003,51.6
131.0057,92.7
131.06,858.5
131.1089,188.8
131.1939,207.4
131.359,22.9
131.3625,228.4
131.3645,421.4
131.3774,766.4
131.3853,263.9
131.3928,301.6
131.3959,16.9
131.404,342.6
131.5034,133.1
131.5132,359.5
131.5764,653.4
131.5855,621.7
131.63,134.9
131.6845,371.7
131.7216,16.4
131.7629,131.9
131.7719,132.9
131.7869,494.9
131.7911,742.2
131.8163,159.3
131.8481,104.4
131.9219,17.3
132.0033,31501.5
132.0053,162.6
132.0098,137.7
132.0394,102.5
132.0657,111520.4
132.0728,109.8
132.0769,8236.5
132.1853,85.3
132.2294,70.8
132.2378,362.5
132.259,133.7
132.2875,587.1
132.3387,610.7
132.3981,141.9
132.4363,198.1
132.4811,501.8
132.5141,105.6
132.628,19.3
132.6328,19.8
132.7333,627.5
132.7582,545.1
132.8376,113.2
132.8905,19
132.903,78.5
132.9172,364.3
132.942,533.8
132.9584,343.5
132.9696,19.5
132.9821,104
132.9834,303.5
132.9875,1633
133.0077,21.3
133.069,3596.3
133.0838,18.7
133.0901,313.7
133.0949,307.8
133.0973,21266.8
133.1031,404
133.111,125.8
133.1344,108.9
133.1492,155.9
133.1869,367.3
133.2862,96.4
133.304,134.3
133.3389,139.9
133.3415,460.4
133.3804,17.6
133.3939,196.2
133.434,37.2
133.4581,129.3
133.4792,467.6
133.5977,364.5
133.6438,154.6
133.6526,403.6
133.6555,289.8
133.7062,723.9
133.7295,151.2
133.7311,170.7
133.7422,200.4
133.8228,375.7
133.8354,244.6
133.8962,228.1
133.9213,96.3
133.9507,380.9
134.019,14236.2
134.0329,353.8
134.0554,641.9
134.0856,522.5
134.1303,717.7
134.1352,720.8
134.1372,558.1
134.1694,169.2
134.2706,155.8
134.2963,310.5
134.3185,19.7
134.3535,18.2
134.4426,183.4
134.4544,379.9
134.4694,660.3
134.4822,198
134.4897,99.6
134.4921,204.7
134.5203,108.4
134.5244,512.9
134.5472,147
134.5495,16.8
134.5958,183.9
134.6181,166
134.6214,127.6
134.6265,141.3
134.6411,328.8
134.6427,160.5
134.6725,404.3
134.6979,335.5
134.7005,251.8
134.7103,136.4
134.747,156.5
134.7628,260.2
134.7692,102.4
134.7787,178.5
134.788,257.6
134.7974,102.1
134.8056,303.1
134.8317,191.7
134.9068,218.1
134.9722,333
134.9894,58.8
134.9966,76.9
135.003,91341.6
135.0498,655.9
135.0567,494.1
135.1055,20.5
135.1169,51.1
135.1857,169
135.2092,477.9
135.237,20.9
135.2543,100.5
135.2586,497.7
135.319,157.6
135.3893,138.7
135.443,188.8
135.4616,125.5
135.5547,72.9
135.6064,432.1
135.6077,180.7
135.6163,627.7
135.6663,19
135.7239,225.6
135.8376,180.9
135.8658,340.3
135.8959,193.4
135.918,18.4
135.9358,220
135.9414,206.5
135.9474,79.7
135.9505,22.9
135.9534,207.2
135.969,139.6
135.9773,1518
136.0062,317.6
136.0224,186.9
136.0483,6910.1
136.0655,18.3
136.0759,14562.6
136.0823,500.4
136.0975,76.6
136.1446,82.6
136.1497,166.2
136.2064,108.9
136.2299,130.8
136.2418,104
136.2445,582.5
136.249,82.9
136.2805,194.1
136.292,115.2
136.3834,134
136.4781,345.1
136.4909,179.8
136.5162,362.8
136.5206,741.3
136.5224,118.4
136.5748,273
136.6517,92.7
136.6549,165.3
136.7153,825.7
136.7706,125.1
136.7882,275.6
136.7914,214.8
136.7974,518
136.8049,375.2
136.8299,80.1
136.8403,18.1
136.9314,1592.2
136.9535,48.2
136.9936,299.9
136.9956,452.1
136.9966,513.6
137.0268,178.6
137.0391,160.9
137.1143,265.9
137.125,131.1
137.1329,122.3
137.1505,432.3
137.2303,116.7
137.3189,134.3
137.3448,92.9
137.3741,573.7
137.4026,217.3
137.4465,273.5
137.5172,187.3
137.534,431.5
137.5713,74.3
137.602,164.4
137.6063,260.8
137.6248,18.3
137.6382,149.8
137.6541,126.9
137.6559,117.4
137.7407,359.3
137.7444,325.2
137.7843,368.3
137.795,402
137.7996,314.8
137.8348,305.4
137.8424,26
137.9663,552.6
137.9712,24.4
137.9943,452.1
138.0527,8291.6
138.0853,104.1
138.0918,437.4
138.109,98.8
138.1507,599.5
138.1733,337.2
138.198,216.8
138.3225,239.6
138.3369,193.5
138.3646,111.4
138.4938,18.2
138.4974,174.7
138.5499,181.8
138.5825,95.8
138.5895,144.2
138.5966,154.4
138.6043,71.9
138.6284,77.2
138.7469,19
138.7617,80.3
138.7744,188.7
138.781,147
138.8413,16.7
138.8559,322.2
138.8599,18.1
138.8618,112.4
138.9066,1401.7
138.93,109.3
138.9578,574.9
138.9608,18.5
139.0399,143.7
139.0497,583.8
139.1217,99.6
139.1469,224.4
139.1765,372.7
139.1988,19.1
139.2598,121
139.3829,575.6
139.3998,401.2
139.4015,754.8
139.4171,193.9
139.4244,161
139.4505,244.3
139.4715,343.6
139.4868,173.1
139.5054,89.6
139.5645,199.9
139.5853,97.6
139.5972,350.1
139.6401,629.4
139.6594,159.4
139.6922,75.8
139.7721,89.7
139.8673,296.3
139.8923,376.5
139.9148,716.8
139.9528,517.2
139.958,18.6
139.9685,108.6
139.9723,352.9
139.9735,101.5
139.9943,235.9
140.0167,2600.5
140.0386,19
140.0683,2578
140.088,555.5
140.0942,115.5
140.101,19.8
140.1022,468.5
140.1338,128.3
140.1413,506.7
140.144,164.7
140.2611,92.8
140.3175,101.9
140.385,844.6
140.4135,293.9
140.4262,80.6
140.4333,79.8
140.4536,21.9
140.4558,81.5
140.49,500.1
140.5057,202.2
140.611,830
140.6224,21.2
140.6294,17.8
140.6539,229.2
140.6873,17.5
140.7069,289.9
140.7274,18
140.7419,179.7
140.7668,17.6
140.8082,139.5
140.8188,377.4
140.835,191.9
140.9036,1201.3
140.9416,75
140.9446,367.6
140.9535,199.6
140.9597,131.3
140.977,116.1
141.0007,18900.4
141.0175,214.6
141.02,143.7
141.0953,430.8
141.1054,73.5
141.1377,368.3
141.1754,109.7
141.1878,544.4
141.2141,18.1
141.2169,460.7
141.3016,120.3
141.3749,463.7
141.3957,142.4
141.4073,456
141.4289,245.2
141.453,185.3
141.6148,74.8
141.6195,21.7
141.6534,210.4
141.8227,511.3
141.888,672.4
141.8898,227
141.9387,530.5
141.9433,128.8
141.9952,82.6
142.004,431.8
142.0125,56.9
142.0335,176
142.0352,129.7
142.0479,168.4
142.061,153.4
142.0738,52.4
142.1218,85
142.1231,139.4
142.1489,22
142.1678,18.7
142.2233,149.7
142.2383,223.8
142.2705,149.3
142.2897,162.8
142.2941,18.2
142.3251,687.5
142.3297,293.9
142.3804,288.2
142.3956,124.6
142.412,18.2
142.4465,418.1
142.5122,104.4
142.5245,21
142.5782,409.8
142.5859,103.7
142.5975,192.6
142.6204,131
142.6509,802.4
142.6533,299.7
142.6912,217.2
142.7138,399.4
142.752,408.4
142.774,154.2
142.8785,17.5
142.8963,137.7
142.956,197.7
142.9686,450.1
142.977,350.5
142.9965,307.8
143.0017,657
143.0058,320.3
143.0112,181.4
143.0191,1994.3
143.055,79.4
143.0817,482.8
143.2,205.6
143.2351,186.5
143.2608,116.1
143.286,19.1
143.2883,287.7
143.3149,81.6
143.3408,140
143.3579,19
143.3786,234.6
143.4036,120.7
143.4107,113.5
143.5151,109.5
143.5374,84.7
143.5645,23.5
143.6043,348.8
143.6282,21.7
143.6326,18
143.6437,211.7
143.654,127.9
143.6616,309.4
143.6759,330.9
143.6933,73.4
143.7865,172.3
143.8134,22.5
143.8222,153.6
143.8613,213.8
143.9138,147.3
143.9178,407.9
143.9216,18.7
143.9467,83.9
143.953,306
143.9742,109
144.0109,401.7
144.0126,756.4
144.0738,112.7
144.0778,19
144.0837,570.6
144.1911,114.5
144.246,704.2
144.2879,348.9
144.3267,539.5
144.3505,646.2
144.4719,794.7
144.5852,123.3
144.611,99.7
144.615,226.9
144.636,374.5
144.6769,19.1
144.6941,144.9
144.7004,411.6
144.7347,120.4
144.7671,667.6
144.7777,696.7
144.8808,146.9
144.8897,149.9
144.8981,265.2
144.9338,17.9
144.9485,23.1
144.9577,76.4
144.9765,452.6
144.981,2721.7
144.9845,204.4
144.9949,20.6
145.1435,460.1
145.1679,614.4
145.2338,219.4
145.2398,146.8
145.2733,147
145.2753,78.7
145.3086,20.2
145.4257,21
145.4292,168.6
145.4423,107.1
145.4543,95.4
145.4644,83.2
145.4695,450.8
145.4715,239
145.4995,361.7
145.5482,415.3
145.5832,98.2
145.627,72.5
145.6365,198.5
145.7545,232.6
145.8618,133.3
145.9577,245.2
145.9671,19.2
145.9733,421.5
145.9739,321.7
145.9768,319
145.9848,23
146.0127,3432.2
146.0191,19658.4
146.0267,122.5
146.154,283.2
146.1632,527.3
146.1989,22.5
146.2531,508.7
146.2776,362.5
146.3111,125
146.3274,17.6
146.3289,361.7
146.4803,404.8
146.4987,254.8
146.6538,16.4
146.7025,473.1
146.7271,184.6
146.7396,14.8
146.7451,807.9
146.8534,851.3
146.9061,166.9
146.9105,350.5
146.972,109.8
146.9741,25.7
146.982,99174.7
147.013,202.1
147.0321,338.9
147.0482,726.5
147.0567,355.7
147.0766,64391.4
147.0806,21.2
147.1049,243.6
147.113,35375.2
147.1172,545
147.1214,131.8
147.1801,671.5
147.1831,134.1
147.2397,443.3
147.2518,83.7
147.3299,485.8
147.3505,22.1
147.3782,395.4
147.4201,77
147.4482,352.9
147.4775,95.2
147.4972,308.3
147.5862,178.3
147.6047,21.6
147.6067,138.2
147.6694,90.3
147.6734,187.7
147.6782,99.8
147.699,125.5
147.7362,86.5
147.7668,18.8
147.7965,297.6
147.8634,180.3
147.8926,21.7
147.894,161.5
147.8981,648.4
147.959,109.8
147.9825,105.7
147.9852,1338.3
148.0071,162.2
148.035,435.8
148.0483,209.1
148.0799,491.9
148.0866,83.2
148.1193,21
148.1519,126.4
148.2059,554.6
148.2211,111.7
148.2253,16.9
148.3,400.6
148.3028,124.4
148.3389,88.8
148.3522,143.7
148.3614,216.9
148.3969,159.1
148.4642,89.1
148.5324,1120.3
148.5435,210.6
148.552,80.1
148.5851,658
148.5923,100.1
148.6,117.8
148.6125,101.9
148.6527,310.5
148.7679,542.4
148.7993,301.2
148.82,297.2
148.8464,567.6
148.8522,571.9
148.8573,18.9
148.8992,633.4
148.9304,167.5
148.9383,92.4
148.9614,2107.5
148.9887,122.7
149.003,66.3
149.0187,2465.6
149.0236,5824.5
149.0583,398.8
149.0799,609.3
149.1549,187.7
149.2738,688.5
149.2986,446.2
149.3026,311.2
149.3756,490.2
149.4125,613.9
149.4145,104.6
149.4728,359
149.5025,291.7
149.5408,100.9
149.5477,19.4
149.5491,305.9
149.556,166
149.5733,183.2
149.6355,163.1
149.6673,750.2
149.6748,144.1
149.7462,181.2
149.7493,121.8
149.8339,106.4
149.8358,369.8
149.9144,74.7
149.9161,165.8
149.9282,668.1
149.9387,78.9
149.9876,26.5
149.993,9805.4
149.9952,198.2
150.014,6587.6
150.0269,106.7
150.0523,74
150.0567,18.8
150.0664,280.3
150.069,112.1
150.0853,93.2
150.0928,109.4
150.1928,70.4
150.2156,241.7
150.2595,442.9
150.2823,179.7
150.3793,180.1
150.4131,400
150.4726,156.4
150.5164,664.8
150.5257,193.5
150.5924,216.8
150.6648,387.8
150.6858,175.9
150.7444,401.1
150.8384,80
150.8832,356.2
150.8877,119
150.977,58156.6
150.9843,2011
151.0481,1579.4
151.0644,71.2
151.0799,436.3
151.0834,186
151.0854,176.9
151.1195,249.9
151.1782,116.4
151.1834,88.4
151.184,109.2
151.185,82.3
151.2074,699.7
151.216,219.5
151.2573,140.3
151.2648,165.9
151.2672,310.9
151.3042,506.7
151.4099,763.1
151.412,189.1
151.4173,18.5
151.43,372.3
151.4631,631
151.4796,76.8
151.5045,73.5
151.5107,77.1
151.5954,641.3
151.6722,368.2
151.677,173.8
151.6931,617.4
151.7414,447.3
151.8132,133.9
151.8529,153.1
151.8782,230.5
151.9803,612.3
151.9876,66.7
152.0223,8967.8
152.032,3008.3
152.0668,138.1
152.0767,305.6
152.1143,526.7
152.156,538.4
152.1701,190.1
152.2377,275.8
152.3165,122.8
152.3529,96.3
152.3782,122.9
152.4586,19.7
152.4762,243
152.479,355.8
152.5239,106.3
152.5363,134.1
152.5686,155.5
152.5822,125.7
152.685,98.2
152.7372,315.2
152.8272,284.6
152.8287,25
152.9044,105.7
152.9751,2310.2
153.0089,305
153.2518,89.3
153.2772,125
153.288,99.3
153.3118,227
153.3528,195.8
153.4198,16.5
153.4332,154.9
153.4361,139.3
153.4511,157.3
153.4959,107.6
153.507,339
153.5924,502.1
153.5978,87.8
153.6207,768.9
153.6454,169.4
153.7273,301.1
153.8399,346.7
153.8591,93.5
153.9381,174
153.9577,255.2
154.0114,1051.4
154.0269,2068.1
154.036,347.3
154.0452,99.9
154.0522,20
154.0589,9429.1
154.076,170.6
154.0893,809.3
154.1829,288
154.1922,100.1
154.197,590.7
154.211,355.5
154.229,522.2
154.2326,115.9
154.2956,404.6
154.375,628.5
154.4084,114.4
154.4245,444.2
154.4336,402
154.4409,755.3
154.4883,443.4
154.5005,481.9
154.5032,17.9
154.5588,19.9
154.6252,904.1
154.6319,490.4
154.6993,78.2
154.723,99.5
154.7958,442.8
154.8466,824.8
154.8806,627.1
154.9077,108.1
154.9169,663.5
154.932,714.7
154.9693,422.1
154.9956,311.3
155.0068,183.5
155.0118,19.6
155.0311,72.3
155.043,311.9
155.0495,194
155.0542,3737.9
155.0727,17.9
155.0759,380
155.0793,1518.1
155.0871,177
155.147,115
155.2408,332.6
155.2528,310.5
155.2708,16.6
155.2813,129.8
155.2846,116.5
155.2944,809
155.3307,100.2
155.3564,396.5
155.4638,111.6
155.4734,87.4
155.4792,757
155.6306,205.6
155.6467,551.8
155.6506,20.4
155.7572,94.2
155.8015,110.5
155.816,125
155.8846,100.2
155.9345,185.1
155.9456,713.9
155.9881,609.4
156.0308,579.6
156.0423,3657.1
156.0485,99.3
156.0576,86.6
156.077,64595.6
156.0917,403.9
156.1089,405.9
156.241,614.3
156.3262,367.9
156.5846,376.2
156.6285,292.4
156.6397,174
156.6712,144.2
156.7069,185.9
156.7264,134.9
156.7424,406.6
156.745,685.8
156.7633,19.8
156.7784,285.3
156.8445,79.8
156.8837,440
156.9312,378.9
156.9344,783.6
156.9749,25.6
157.0033,592.4
157.0144,85.5
157.0169,503.1
157.0649,568.9
157.0739,159
157.0775,158.5
157.0806,1264.4
157.0975,118.4
157.1242,106.6
157.1527,146.5
157.1829,17.7
157.3246,89.9
157.3621,543.9
157.4052,290.7
157.4233,645.6
157.4488,641
157.4624,125.5
157.5084,366.6
157.5515,169.7
157.6217,117.8
157.6538,290.9
157.7661,17.7
157.7686,382.7
157.7798,78.8
157.8234,155.9
157.8509,178.9
157.8757,18
157.9091,752.1
157.9593,1036.2
157.9844,221.6
158.0128,104.4
158.0198,351.6
158.0274,3398.4
158.0932,189.8
158.1041,72.9
158.1274,158.3
158.165,253.2
158.1749,133.6
158.2089,80.2
158.2702,296.8
158.2922,97.7
158.428,237.3
158.4902,108.4
158.4926,160.3
158.5335,580
158.562,17.6
158.585,21.7
158.7257,226.1
158.7325,165.3
158.8311,335.7
158.9282,1390.3
158.9432,297.7
158.9643,7632.1
158.9967,6176.4
159.0142,550.2
159.0236,207.4
159.0307,92.5
159.0468,17.8
159.0877,313.7
159.092,707.3
159.0991,149.2
159.1151,230.9
159.234,18.2
159.2432,141.4
159.2753,381.5
159.3023,354.5
159.3524,228.6
159.361,112
159.4078,176.9
159.4725,97.4
159.5006,800.7
159.5722,394.5
159.6492,129.8
159.7302,309.2
159.7435,615.3
159.7605,101.7
159.795,451.2
159.8677,134.2
159.8812,152.1
159.901,104.8
159.9125,19.2
159.9385,65.3
159.9779,647
160.0232,48
160.0348,24470.8
160.0607,128243.2
160.0678,18.1
160.0931,166.4
160.127,659.3
160.1677,417.5
160.1706,180.1
160.3006,67.2
160.351,225.3
160.3596,785.4
160.3784,220
160.3827,333.1
160.4282,80.8
160.5074,212.5
160.5101,662.6
160.6417,703.3
160.671,20.7
160.7303,699.2
160.781,312
160.7893,94.5
160.8686,610.6
160.8778,533.1
160.965,20.6
160.9926,66.6
161.0112,21.9
161.0187,356.2
161.0404,20.6
161.054,629.6
161.0641,5703
161.0964,20.9
161.1321,308.1
161.1873,265.5
161.2698,134.8
161.377,256.3
161.455,257.4
161.5243,108.6
161.5442,132.5
161.6829,363.7
161.7305,146.3
161.8869,647.4
161.9926,114.3
162.0017,406.9
162.0058,404.2
162.0434,335.9
162.0504,17616.8
162.0558,77.3
162.0704,939.4
162.0868,672.5
162.1443,67.7
162.1536,218.5
162.2231,221.4
162.2485,669.8
162.2546,330.8
162.3691,314.1
162.3733,16.6
162.4367,263.6
162.4648,192.2
162.4876,141
162.5772,385.9
162.5845,210.4
162.592,84.9
162.6372,20.3
162.6942,148.6
162.7083,593.7
162.7354,73.5
162.7507,242.2
162.7962,263.8
162.8225,230.2
162.8268,190.2
162.8542,123.7
162.8789,335.2
162.956,2794.3
163.0158,4154.2
163.034,328
163.039,23.5
163.044,620.5
163.117,17.2
163.133,467.3
163.2059,92.9
163.2934,18.4
163.4138,368.4
163.4341,238.5
163.4797,108.8
163.4898,710.1
163.5175,336.7
163.5579,101.9
163.6159,313.1
163.6293,130.5
163.6355,694.7
163.6412,190.9
163.6448,116.6
163.6499,344
163.6566,478.1
163.6598,138.8
163.6961,481.6
163.748,298.7
163.8099,19.4
163.8738,134
163.9498,71
163.9635,203.2
163.9982,366.7
164.0082,234.8
164.0126,153.7
164.0227,195.6
164.0297,15378.6
164.1186,821.4
164.2412,529.4
164.4225,19.7
164.4278,224.4
164.4811,227.6
164.5297,356.5
164.576,159.5
164.5908,159.3
164.6573,77.2
164.6948,18.3
164.7063,377.9
164.7204,77
164.7444,227.2
164.7467,102.7
164.7752,811.3
164.9026,202.4
164.9207,6004.5
164.9303,12631.9
164.9353,2173.3
164.9421,205.2
164.9489,96.7
164.9847,28.7
164.9866,283.6
164.9927,1597
165.0001,247.2
165.0138,423.2
165.0345,97.3
165.0913,111.6
165.0973,148.5
165.1134,182.2
165.1574,734.8
165.1696,189.5
165.178,329.8
165.1921,407.1
165.2062,864.8
165.228,19.1
165.3305,19.4
165.3737,112.7
165.4191,302.3
165.4384,19.7
165.4564,123.1
165.5474,120.2
165.6187,248.4
165.6347,168.6
165.8401,151.9
165.8644,320.7
165.9035,321
165.9261,182.2
165.9503,124.4
165.9672,3096.3
165.9725,576
165.979,1912.5
165.988,5553.3
165.9953,666
166.1148,355.4
166.1243,115.2
166.4447,113.6
166.4568,181.6
166.5612,105.2
166.7181,18.3
166.7655,114
166.8289,82.2
166.8594,71
166.9099,191.2
166.9209,16.5
166.951,23578.1
166.9669,18.2
166.9994,31.2
167.022,5042.4
167.1096,227.4
167.1575,294.6
167.1639,182.7
167.2105,305
167.2125,20.1
167.2538,335.8
167.2955,76.3
167.3556,638.3
167.387,146.1
167.4095,123.1
167.4168,366.7
167.4329,127.5
167.5391,290.4
167.6761,162.7
167.6862,97.4
167.7018,259.3
167.8256,374
167.839,189.3
167.9181,109.3
167.9947,3849.7
168.017,174.5
168.025,91.3
168.0257,92.2
168.0836,95.4
168.1592,81.3
168.1942,474.3
168.1974,328.8
168.2304,393.4
168.2793,514.8
168.2871,202.8
168.3007,122.1
168.3107,79.2
168.3318,683.5
168.3468,774.4
168.3851,139.7
168.3896,18.6
168.3917,131.8
168.5973,335.2
168.7077,20.3
168.7156,84.2
168.724,599
168.7382,20.1
168.7459,309.1
168.7728,94.2
168.8275,84.9
168.8493,252.7
168.8554,777.6
168.9224,19.1
168.9253,26.3
168.9416,18.5
168.9491,3513.9
168.9749,138.1
169.0375,74.9
169.0587,56381.9
169.0651,1497.1
169.0852,433.1
169.0952,2925.4
169.0974,291.4
169.1017,87.9
169.1579,20.3
169.1834,212.9
169.287,379.6
169.2974,238.6
169.3205,161.9
169.4414,22.4
169.4839,107
169.5074,248.7
169.533,269.2
169.535,149.2
169.5513,260.5
169.5692,111.7
169.5732,400.3
169.5963,169
169.625,353.4
169.6284,197.6
169.6493,300.2
169.7037,80.9
169.7311,91
169.8536,73.2
169.8581,375.5
169.9554,70
169.9862,1418.1
170.0278,75.4
170.0329,15184
170.0619,1056.1
170.0927,3094
170.2111,166.2
170.2369,120.2
170.2904,387.1
170.3393,16.3
170.3478,160.8
170.3788,66.2
170.4424,102.9
170.5265,136.8
170.5724,664.3
170.5785,98.1
170.6286,466.7
170.6319,110
170.6398,126.6
170.7256,20.4
170.7333,550.9
170.8284,84
170.8548,5724.5
170.8646,16.7
170.898,261.7
170.9144,77.2
170.9295,437.5
170.9888,113.5
171.0172,647.5
171.0282,217.1
171.0536,707.5
171.133,101
171.1439,344.1
171.1725,451.3
171.185,142.1
171.2196,165.9
171.2232,16.7
171.2267,109.8
171.249,675.6
171.2929,436.8
171.392,159.3
171.3987,139.8
171.4031,106.1
171.4053,101.4
171.4595,706.2
171.4832,533.5
171.5057,803.3
171.7353,99.8
171.7494,376.8
171.7949,728.3
171.8229,348.6
171.8288,408.5
171.8318,302.6
171.9467,128.5
171.9641,155.7
172.0283,619.5
172.0616,174.1
172.0669,167.4
172.117,387.2
172.1198,807.2
172.1306,401.7
172.1511,76.9
172.1992,114.9
172.3166,722
172.3449,97
172.358,122.5
172.3894,504.9
172.4139,20.2
172.4197,190.9
172.4759,131.1
172.491,647.1
172.5915,19
172.6829,465.7
172.7047,80
172.7275,66.2
172.746,315.4
172.7773,85.3
172.7992,18.5
172.8493,271.6
172.8516,2403.7
172.9519,22.2
172.9571,112.4
172.9674,603.2
172.9821,730
173.027,347.4
173.03,338.9
173.0684,734.6
173.0961,359.3
173.1212,246.1
173.129,766.7
173.1355,387.9
173.1856,305.5
173.294,533.5
173.3162,282.7
173.3533,105.1
173.4237,162.5
173.4674,70.8
173.4735,479.9
173.5866,20.7
173.6027,356.1
173.6339,383.9
173.7047,99.1
173.8147,67
173.8184,280.1
173.8504,108.2
173.8841,222
173.9146,96.9
174.1078,22.1
174.1231,280.7
174.1406,385.3
174.153,628.3
174.2273,182.7
174.2702,480.7
174.3181,72
174.3697,222.8
174.3928,109.6
174.4835,113.3
174.5003,130.2
174.5777,18.5
174.763,17.5
174.8058,186.2
174.9004,118.4
174.9384,4618.5
174.9599,121.8
174.967,153.2
174.9849,19.1
174.9918,542.8
175.0095,126.7
175.0205,21
175.0345,8515.9
175.0457,2655.1
175.1193,145952.9
175.1268,435
175.1485,100.6
175.2036,17.2
175.2062,261.7
175.2481,209.6
175.3061,216
175.3455,622.2
175.5124,651.1
175.5606,133.9
175.6297,20
175.6577,162.4
175.6922,143.8
175.6943,583.7
175.7355,98
175.7946,80.3
175.8205,24.4
175.9588,76.4
175.9751,380.7
176.0088,13298.8
176.0297,2464.3
176.041,1766.3
176.0662,26039.4
176.0853,304.7
176.1034,3284.9
176.1172,632.7
176.1227,5942.6
176.1432,131.3
176.3126,19.2
176.3255,245.4
176.4034,627.4
176.495,387.7
176.6159,554.1
176.6216,93.3
176.6258,204.3
176.6327,447.9
176.7631,86.5
176.7658,68.6
176.8436,363.8
176.8875,74.5
176.8937,17
176.9539,17.5
176.9675,367.6
176.9867,341.1
176.9927,1073
177.0013,16.9
177.0072,24.1
177.025,6442.7
177.0372,81.5
177.0568,88.9
177.0614,8190.1
177.0878,144.3
177.1215,620.2
177.1319,316.4
177.1454,128.2
177.2109,18.1
177.2685,18.9
177.3624,712.1
177.3668,292.9
177.4396,102.2
177.4544,182.8
177.4656,21.6
177.4861,137.9
177.523,131.1
177.6616,231.4
177.7725,328.4
177.7747,724.1
177.8139,100.2
177.8943,24.2
177.9714,54
178.0002,346.6
178.009,11452
178.0121,303.6
178.0245,9987.5
178.0454,140.9
178.0486,496.4
178.0536,191.1
178.059,6803.1
178.0625,144.3
178.2277,630.9
178.3216,141.9
178.3738,482.4
178.377,615.7
178.3864,422.1
178.4122,487.4
178.4176,204.9
178.4476,369.7
178.4853,103
178.5612,644.7
178.6265,113.8
178.6299,660.6
178.6392,263.8
178.724,18.3
178.7766,17.9
178.922,20.7
178.9492,126.2
179.0048,103.6
179.0499,413.9
179.0547,93
179.1275,382.1
179.1446,108.3
179.2324,529.8
179.2853,352.5
179.2924,127.3
179.349,575.4
179.3844,208.2
179.5663,125.2
179.5809,17.4
179.6287,298.2
179.6459,203.7
179.6642,509.9
179.8281,306.9
179.9373,123.5
179.958,360.3
179.9864,17.3
180.0037,13364.6
180.011,46
180.0603,110.7
180.1024,653.8
180.1677,222.6
180.1704,684.8
180.2413,145.6
180.3787,232.6
180.4135,275.9
180.4691,588.4
180.512,16.9
180.516,165
180.5185,18.6
180.5276,665
180.602,283.1
180.634,105.5
180.6379,105.8
180.649,17
180.7662,104.9
180.8104,141.1
180.8886,123.5
180.8948,3442.9
180.9043,9826.2
180.9575,614
180.9612,270.9
181.0262,454.2
181.0626,211.2
181.0652,11373
181.2091,19.7
181.2391,174.5
181.2898,142.2
181.3475,662
181.3575,76.2
181.4833,210.5
181.5387,552
181.5879,153.4
181.6788,746
181.7325,193.3
181.7531,184.9
181.7623,231.8
181.8203,126.4
181.8524,582.7
181.8637,578
181.8847,346.6
181.8963,20.4
181.9623,367.7
182.0191,614.8
182.0428,41315.3
182.0513,224.5
182.0686,71.8
182.1036,17.5
182.1719,213.1
182.2792,708.7
182.3428,169.9
182.3658,137.6
182.4121,314.5
182.4667,361.9
182.4798,340.2
182.5807,464.9
182.7053,580.6
182.7162,19.9
182.8133,198.7
182.8181,427.5
182.8454,353.2
182.9028,24.2
182.9133,576.8
182.9413,20.1
182.961,123.9
182.9778,17.7
182.9848,141.2
183.0228,17.6
183.0363,467
183.0452,2076.5
183.1279,119.5
183.1757,151.7
183.2167,131.9
183.2258,657.7
183.3823,633.7
183.4581,72.5
183.4728,124.7
183.5235,222.7
183.5457,498.6
183.5626,112.4
183.639,168.4
183.6455,722.8
183.6787,770.8
183.7616,220.6
183.8663,554.9
183.9652,316
183.9901,237
184.0655,156.6
184.0684,670.1
184.0737,3874908.3
184.0938,66.7
184.1097,560.9
184.1605,17.2
184.1702,28.5
184.1826,877.7
184.2011,73.5
184.2064,113.8
184.3331,417.1
184.3453,558.9
184.3643,18
184.3857,146.8
184.4061,592
184.5474,122.9
184.5661,21
184.584,229.7
184.6193,804.3
184.7024,70.4
184.7593,189.2
184.7824,748
184.8047,264.5
184.8222,192.9
184.8267,518.3
184.9087,16.9
184.9634,20.2
184.9763,695.2
185.0001,109.9
185.0133,415.5
185.0327,61780.3
185.0706,9961.7
185.0771,179041.2
185.1253,173
185.1543,390.8
185.1668,148.5
185.251,346.3
185.2544,225.6
185.2884,184
185.4099,76.2
185.4611,126.4
185.4903,477.5
185.5385,181.7
185.5746,222.2
185.6111,570.9
185.7143,86.1
185.7451,94.7
185.8631,19.1
185.8695,292.5
185.9601,1611.2
185.9982,609.3
186.0147,148.5
186.0198,285.8
186.0598,662
186.078,23608.7
186.0923,669.9
186.108,86.3
186.1454,507.9
186.3334,95.7
186.3403,335.4
186.3696,392.5
186.3945,158
186.4753,18.6
186.4776,351.1
186.562,71.9
186.6528,94.2
186.7362,18
186.8604,155.8
186.879,24.6
186.9077,152.2
186.9123,3133.1
186.9295,292.1
187.0308,1339
187.058,8486.7
187.0718,1334.3
187.0825,108.5
187.1081,3913.6
187.1254,650.7
187.1653,18.9
187.2591,109.1
187.2659,404.7
187.2973,371.4
187.3545,108
187.3762,78.6
187.4562,362
187.559,63
187.6261,19.7
187.7582,19.5
187.8775,110.7
187.9933,417.7
188.0351,382.6
188.0708,97
188.1482,224.7
188.1697,18.4
188.2497,248.8
188.3708,111.3
188.3855,78
188.4195,192.4
188.4727,20.7
188.4776,163.9
188.4845,347.2
188.489,629.7
188.5016,83.3
188.589,20.4
188.6952,162.5
188.8103,123
188.8168,151.6
188.8956,128.1
188.947,86.9
188.9696,82.9
189.0252,656.6
189.0614,3270.4
189.0874,8866.4
189.1058,143.1
189.2352,172.9
189.3047,249.1
189.3174,374.4
189.3437,136.5
189.3547,335.9
189.5084,286.6
189.5365,17.1
189.5685,17.3
189.5918,753.2
189.6315,21.3
189.6962,332.2
189.7442,203
189.7842,244.3
189.8744,665.3
189.8817,238.6
189.9308,559.2
189.9428,151.5
189.9846,22
190.0115,443.7
190.0885,151.7
190.0908,120
190.1326,19.3
190.3239,305.4
190.4561,138.2
190.5122,164.1
190.5759,637.8
190.6946,148.5
190.7087,163.9
190.7208,100.1
190.7589,74.5
190.775,154.5
190.8161,146.6
190.8485,80
190.8729,67.3
190.8955,83.3
190.9126,735.5
190.9393,81.5
190.9499,137.8
191.0005,16.4
191.0085,7858.6
191.0243,21.1
191.0297,397.7
191.0407,125438.9
191.0771,28724.7
191.0825,115.1
191.1485,17.2
191.2429,88.7
191.2868,87.6
191.3171,96.2
191.3357,101.4
191.3586,155.2
191.4282,656.7
191.4462,109.2
191.4868,138.2
191.625,169.4
191.6344,308.7
191.6615,291
191.7015,688.4
191.7423,98.2
191.7614,90.9
191.8886,496.7
191.9017,119.2
191.9408,104.3
191.9545,101.7
191.9668,274.4
191.9828,1310.9
192.0037,360.4
192.0149,1391.3
192.0402,16409.4
192.0441,3333.1
192.0604,592.9
192.0715,332.4
192.1863,17.4
192.1938,97
192.2455,240
192.281,640.6
192.3425,146.2
192.3685,474
192.4161,19.5
192.4511,254.6
192.519,242.1
192.6947,18
192.742,148
192.7511,182
192.8589,109.3
192.9112,24.8
192.9657,122.1
192.9805,76.2
192.9991,4669.8
193.0162,86.1
193.0353,4683.5
193.1253,20
193.1391,228.5
193.1421,553.4
193.1465,164.6
193.208,650.2
193.2171,188.9
193.3465,566
193.3784,21.1
193.3891,122.5
193.5223,84.1
193.6191,96.7
193.6346,122.3
193.7197,653.4
193.7248,765.6
193.742,19.5
193.7639,149.9
193.8174,377
193.9396,342.4
193.9984,1486.6
194.0052,1149.1
194.0104,1021.7
194.0333,1112.9
194.0382,409.1
194.0754,545.7
194.1544,104
194.2332,580.5
194.2549,640.4
194.269,103
194.2946,133.2
194.3153,379.9
194.3844,18.9
194.4565,611
194.459,591
194.4932,621.9
194.5899,187.7
194.7365,119.1
194.8536,285.4
194.9152,152.7
195.0589,345.4
195.0877,18.4
195.0943,394.5
195.1026,83.4
195.111,155.5
195.1253,22.6
195.1443,18.6
195.1552,434.8
195.1735,82
195.2128,22.4
195.235,121.1
195.2385,225.4
195.2557,21.3
195.3102,17
195.3313,16
195.375,147.3
195.424,241.9
195.4286,111.7
195.4461,114.9
195.4715,462.2
195.5221,16.9
195.5261,300.9
195.5416,405
195.5708,146.4
195.7205,74.7
195.7386,17.2
195.823,481
195.8431,440.6
195.8592,127.7
195.9053,246.4
195.9478,80.1
195.9576,422
195.9778,453.1
196.0022,432.7
196.0496,18.4
196.0796,293.4
196.0839,377.1
196.1701,293.7
196.4629,170.6
196.4724,226.9
196.5612,93
196.6264,120.4
196.6787,131.1
196.7671,574.9
196.7889,209.9
196.8391,16.4
196.8604,530.7
196.8655,4469.3
196.8687,1105.5
196.8783,1811.8
196.8825,228.2
196.927,372.3
196.9328,93.8
196.9611,372.9
196.9755,77.9
196.9812,254.3
197.0241,659.2
197.068,130.9
197.1014,3861.6
197.1616,18.3
197.1799,181.9
197.3112,576.4
197.3204,339.1
197.4259,95.8
197.48,234.8
197.5809,164.5
197.5856,259.4
197.6063,411.7
197.6975,560.7
197.7,469.7
197.7706,409.1
197.8302,18.1
197.8391,127.3
197.8917,715.2
197.9274,105.4
197.9437,105.6
197.9998,578.8
198.0038,628.8
198.0083,25
198.0531,301.9
198.0544,309.8
198.0854,10611.3
198.0896,656.1
198.1196,129.9
198.1268,100.4
198.1326,167.1
198.1366,228.3
198.1857,6770.8
198.2358,460.6
198.2668,74.6
198.3095,21.4
198.3378,439.2
198.3593,377.1
198.4029,477.8
198.4585,338.7
198.5595,19.3
198.5839,19.4
198.6312,378.5
198.6742,74.2
198.7375,17.7
198.7773,135.5
198.8577,120.4
198.8626,4346
198.8843,16.7
198.9019,192.1
198.915,152
198.9186,156.1
198.9223,212.2
198.9741,39
199.0388,432.1
199.0699,364.8
199.0759,4686.3
199.0808,234.9
199.1891,212.7
199.1948,795.4
199.2295,139.2
199.2433,159.7
199.3353,19.5
199.4669,295.8
199.4968,153.1
199.5073,444.8
199.6213,108.7
199.6533,76.8
199.6865,188.8
199.7151,80.8
199.8095,555
199.8988,375.6
199.9291,573.5
199.9791,541
199.9911,32562.9
199.9996,748.8
200.0291,484.2
200.0318,85.9
200.0411,19609.1
200.0718,848.7
200.0787,657.2
200.0818,375.2
200.1117,160.2
200.1271,1528.6
200.1305,8936.4
200.146,518.3
200.2249,390.3
200.2807,209.1
200.2957,277.7
200.421,76.7
200.4426,601
200.4461,165.5
200.5007,499.1
200.5399,72.2
200.7061,17.9
200.7385,92.8
200.7647,84
200.8272,309.2
200.8595,559.6
200.8947,117.4
200.9174,780.6
200.9422,73.5
201.0235,614.8
201.0551,1302.9
201.0875,158.1
201.1062,120
201.1114,280.4
201.1237,194.6
201.1296,156.4
201.1318,23
201.1843,110.9
201.2986,112.5
201.3579,167.9
201.4331,141.6
201.5155,428.9
201.5904,145.5
201.6956,148.2
201.8364,114.9
201.8651,84
201.9214,638.3
201.9749,280.6
201.9849,117.6
202.0216,375.1
202.0479,488.8
202.0911,21.4
202.2985,95.2
202.319,567.5
202.4799,228
202.5018,14815
202.5341,17.8
202.5648,106.9
202.5867,186.7
202.6313,304.3
202.6431,662
202.7039,168.4
202.755,454.5
202.818,165.2
202.8442,749.8
202.8691,440.2
202.8754,428.8
202.886,975.8
202.894,715.6
202.9276,121.4
202.9784,695.4
202.9954,19
203.0024,177.8
203.0078,430.3
203.032,3459.9
203.0531,1173134.1
203.0643,77.8
203.0772,9729.7
203.1028,195.9
203.1223,485.6
203.151,20
203.2068,130.2
203.2336,250.6
203.3113,316.9
203.3186,317.1
203.3604,580.4
203.4268,566.2
203.4359,157.1
203.4706,507.3
203.492,104.9
203.5726,183
203.6697,467.2
203.6719,80.8
203.6789,66.4
203.685,123.3
203.7136,323.7
203.7882,311.7
203.9263,125.6
203.9461,22.1
204.0248,52393.1
204.0564,59266.6
204.0811,357.6
204.0907,224.4
204.1079,489.6
204.1856,83.1
204.1965,401.9
204.2241,175.7
204.293,120.8
204.3831,162.7
204.4136,412.2
204.4502,113.5
204.464,202.4
204.4816,154.8
204.5213,101.3
204.5521,118.1
204.5614,423
204.5711,226.2
204.6039,686.7
204.7144,76
204.8891,83.5
204.9853,155.3
204.9873,89.2
205.0188,616
205.028,572.2
205.0574,7015.1
205.084,79.2
205.1124,116.8
205.1204,73.7
205.1579,142.2
205.2106,590.1
205.4254,202.2
205.4625,565.6
205.505,616.7
205.5207,237
205.7721,113.1
205.9042,393
205.9112,17.2
205.9443,212.3
206.0073,19.5
206.0108,294.8
206.0294,167.4
206.0479,42.8
206.0665,418.5
206.123,253.3
206.1307,166.8
206.212,524.5
206.2206,443.9
206.3555,323.5
206.3662,617
206.3865,164.1
206.4206,540.4
206.461,385.9
206.4795,640.2
206.4837,257.3
206.494,201.9
206.5944,390.5
206.6848,131.4
206.7066,170.2
206.7591,114.9
206.7722,156.5
206.8944,15220.5
206.9133,153.3
206.9172,176.9
206.924,79.6
206.9528,115.3
206.9824,3904.1
206.9984,51.3
207.0147,83466.8
207.0445,2675.9
207.0511,16789.4
207.0758,126.2
207.0852,253.6
207.1208,154.4
207.1494,387.7
207.2821,20.2
207.4454,583.1
207.5706,145.9
207.6311,576.8
207.6386,440.3
207.6439,19.9
207.7796,20.3
207.8199,163.7
207.8451,275.5
207.8657,176.6
207.9252,537.6
207.9296,131.5
207.9909,130.3
208.0015,103.1
208.0142,2531.5
208.018,2602.1
208.0535,681.6
208.1119,112.7
208.1158,599.3
208.2362,206.4
208.2635,105.4
208.4355,143.3
208.5758,147.8
208.6318,388.7
208.6576,297.8
208.6897,262.4
208.7301,110.6
208.8213,306.5
208.8836,306.3
208.8914,9778
208.9199,249.6
208.9275,88.8
208.9362,406.9
208.9557,48.7
208.9964,108.6
209.0094,511.6
209.0128,4574.4
209.0232,17.2
209.0497,878.8
209.1074,136.3
209.1881,597.8
209.3222,528.7
209.4295,509.4
209.4495,667.7
209.561,341.3
209.5951,102.3
209.7835,19.1
210.1541,16.2
210.6439,222.7
210.7721,534.7
210.7871,122.5
210.791,116.5
210.8098,347.5
210.9357,328.8
210.9483,21.7
211.0468,158.3
211.0569,885.5
211.0694,1899
211.1024,105.6
211.1315,143.7
211.1349,413.8
211.1684,780.7
211.1748,1094.6
211.1838,32174.9
211.187,41088.3
211.1923,22722.1
211.2015,5114.6
211.2095,76.8
211.2165,18.5
211.2339,262
211.238,173.8
211.3686,132.2
211.3981,183
211.523,100
211.5418,135.5
211.5841,663.7
211.5989,207.6
211.6126,654.1
211.9563,816.5
212.0745,105.1
212.0841,194.4
212.0916,247
212.1258,109.3
212.1744,286
212.2751,644.9
212.308,144.1
212.3492,106.6
212.4123,82.3
212.4478,16.5
212.6291,71.4
212.6489,630.3
212.676,99.3
212.722,175.9
212.7555,20
212.7711,260.2
212.8396,2654.5
212.95,283.6
212.9659,25.5
212.9997,374.7
213.0056,199.8
213.0432,108.3
213.0552,1996.4
213.0755,2656.1
213.1253,121.9
213.1301,101.8
213.1739,108
213.1847,170.7
213.2141,319.8
213.2954,21.8
213.3163,131
213.3218,18.8
213.3717,84.3
213.3812,107.3
213.424,409.6
213.4391,132.9
213.567,219.7
213.6985,366.8
213.789,340.9
213.8138,19.2
213.8534,647.6
213.8828,80.9
213.8865,20
213.9625,974.6
213.9851,357.3
214.0182,599.2
214.0503,162.1
214.0593,11483.2
214.0902,1560.2
214.1857,208.8
214.2257,16.2
214.2542,121.7
214.2586,379.8
214.2923,169.2
214.3478,218.5
214.409,19.2
214.486,289.9
214.4953,493.8
214.4969,520.9
214.4979,506.4
214.5255,563.7
214.6309,271
214.6458,675.3
214.6695,150.4
214.7401,74.6
214.8365,1653.6
214.8928,798.7
214.913,690.8
214.918,1312.8
215.0211,199.9
215.0734,574.9
215.0933,41.5
215.2252,72.1
215.2817,96.7
215.4566,101.3
215.5442,130.6
215.6187,103.7
215.6366,78.8
215.6643,766.8
215.6965,392.9
215.7415,226.8
215.7715,327.4
215.7994,18.9
215.8618,81.1
215.9422,15.9
215.9435,17.8
215.9651,358.7
215.9905,568.7
216.0055,106.3
216.0151,14329.4
216.0899,603.8
216.0938,19.6
216.1486,746
216.1582,154.1
216.2887,355.3
216.321,66.9
216.3343,121.9
216.3396,110.2
216.3619,288.4
216.4795,17.3
216.797,708.7
216.87,102.9
216.8773,134.4
216.9232,44551.8
216.9787,773.9
216.9928,502.8
217.0114,28.9
217.0273,158.6
217.0583,119.7
217.0825,165.2
217.1563,464.5
217.2354,17.9
217.3031,108.2
217.31,643.2
217.3403,18.7
217.4184,414.5
217.4337,81.7
217.4382,527.1
217.4453,121.4
217.4549,78.8
217.4826,795.9
217.5773,378.2
217.5965,178.7
217.676,704.7
217.6944,880.7
217.7113,81.5
217.8846,283.8
217.9218,587.7
217.9818,94.4
218.0069,23.9
218.0157,51.2
218.0293,136.2
218.0325,325.9
218.0868,127.7
218.1512,116.4
218.1801,628.2
218.2642,79
218.4921,146.6
218.5172,353.6
218.5568,85
218.5721,394.1
218.6021,113.6
218.666,155.4
218.7115,138.5
218.7242,104.8
218.7933,483.9
218.8231,604
218.8645,24.8
218.8679,66.1
218.9052,48.1
218.9203,13618
218.9386,143.3
219.0184,945.6
219.027,1416726.8
219.05,134.7
219.056,265.8
219.0652,19.2
219.0833,15519.1
219.1525,614.1
219.1818,165.3
219.2387,163.6
219.3379,161.6
219.4238,588.1
219.4573,158.7
219.5603,95.4
219.7778,72.8
219.8006,101.7
219.8077,773
219.8247,220.9
219.8321,365.1
219.8713,664.7
219.879,20.6
219.9673,134.1
220.0304,75991.8
220.0375,1146.7
220.0673,14418.7
220.1687,497
220.4184,346.5
220.5789,193.8
220.6657,380.8
220.8077,159.5
220.953,168.3
221.0252,82649.6
221.0314,11819.6
221.0514,2327.5
221.0855,412.6
221.2555,182.3
221.3333,79.3
221.3825,110.1
221.5071,273.5
221.5787,716.5
221.6085,318.5
221.6714,383.6
221.6869,274.9
221.7025,177.2
221.7256,140.3
221.7392,512.3
221.8026,170.9
221.8248,480.6
221.8303,587.6
221.9568,204.8
221.984,2349.5
222.0219,287.2
222.0282,1598.1
222.0665,465
222.085,18.4
222.0938,86.1
222.1394,207.4
222.145,79.7
222.1507,420.4
222.1781,418.7
222.2047,392.1
222.2359,150.2
222.2539,18.1
222.2628,126.1
222.3039,79.1
222.3207,152.1
222.4386,214
222.6128,531.4
222.6597,178.8
222.6734,204
222.7081,163
222.7652,16.6
222.8062,223.2
222.8683,13549.1
222.8795,683.2
222.8864,528.6
222.8992,142.1
222.9396,521.1
222.9404,511.9
222.9464,20.8
222.9543,311.5
222.9888,10364.5
223.0253,647.2
223.0376,750.9
223.0476,531.6
223.0934,18.3
223.1781,391.9
223.2092,711.5
223.2293,598.9
223.2358,323.1
223.2536,454.8
223.2879,487.7
223.2923,120.8
223.4039,549.5
223.4431,128.8
223.4474,457.3
223.6418,518.3
223.6448,115.5
223.6808,140
223.6868,222.6
223.7068,724.8
223.8973,116.7
223.9535,67.3
224.0053,173.2
224.013,170.9
224.0299,4308.1
224.0447,729.1
224.0637,199.6
224.1325,166.1
224.1346,204.1
224.1357,133.2
224.2792,80.7
224.3552,222.4
224.4676,173
224.6334,135.6
224.6672,366.7
224.8653,8299.9
224.9283,43.7
224.9566,29.5
224.993,518.4
225.0058,26.2
225.0242,22.5
225.0443,22.9
225.0552,35455.8
225.0851,516.3
225.1188,170.4
225.1554,276.6
225.2087,439
225.4575,415.7
225.5605,84.3
225.8601,102.2
225.9523,72.3
225.9623,26.4
225.9919,623.1
226.0024,75.6
226.0068,2076.8
226.0245,9195.1
226.0456,7796.8
226.0905,185.3
226.12,104.7
226.1718,21.7
226.2619,420.2
226.2653,149.5
226.3069,190.2
226.4447,184.1
226.448,387.2
226.4836,185.1
226.6498,185.9
226.7043,91.3
226.7435,472.2
226.748,241.1
226.8106,331.3
226.8853,355.9
226.9208,729.5
226.9306,93.4
226.9521,33754.1
227.0152,112
227.0346,2369.7
227.0652,115.5
227.0801,385.9
227.0869,206.8
227.0962,944.4
227.1205,369.1
227.2324,151.3
227.3751,136.7
227.3851,129.6
227.3905,17.7
227.4906,779.3
227.5212,314.4
227.5573,139.4
227.7883,158.8
227.8805,200.9
227.962,125.3
227.9882,381.2
227.9978,23.5
228.0008,291.8
228.0226,385.7
228.067,819.2
228.0722,254.6
228.104,24
228.1162,17.3
228.1721,363.6
228.2075,635.6
228.3091,126
228.3405,487.9
228.4881,173.6
228.5404,142.7
228.6964,100.3
228.7122,271
228.7351,398.1
228.7395,254.3
228.7545,205
228.7661,327.7
228.8134,333
228.8841,136.5
228.9416,661.7
228.9486,759.2
228.9606,55
228.9645,246.2
228.9888,111.4
228.992,955.5
229.0411,130.5
229.108,124.8
229.1532,21
229.1885,21.3
229.2284,94.7
229.267,901.2
229.3366,117.2
229.3913,97.7
229.4094,121.5
229.4146,112.6
229.428,129.5
229.4497,19.5
229.7633,124.5
229.7977,713.8
229.8896,20.4
229.9575,3013.4
230.034,155.4
230.0768,101.4
230.1045,148.9
230.1143,687.4
230.1463,806.9
230.2853,631.1
230.3176,313.3
230.3755,132.2
230.5624,96.6
230.5786,752.3
230.5904,85.4
230.6341,344
230.7517,138.5
230.7636,232.4
230.8905,234.8
230.9458,17.9
230.9608,153.8
230.9909,31.6
231.0093,117.5
231.0826,77.2
231.108,103.4
231.1389,329.5
231.1637,273.6
231.1937,188.6
231.3306,152.3
231.421,148.8
231.7717,698.9
231.785,154.2
231.8233,187.8
231.8791,142.8
231.9052,634
231.9149,679.1
231.9316,21
231.9531,51.1
231.958,95.6
231.973,99.7
231.9958,216.8
232.1212,135.4
232.1353,167.1
232.2274,107.8
232.2822,180.7
232.3592,200
232.4526,509
232.5235,497.3
232.5417,79.7
232.8972,37801.3
232.9086,347.6
232.9367,141.3
232.9411,17.6
232.9861,5035
233.0011,71.4
233.0515,10236.9
233.0791,142.9
233.1256,107.8
233.1778,461.9
233.3205,379.3
233.3709,168.2
233.5132,334.5
233.5218,159.3
233.556,398.9
233.6041,71.1
233.6553,205.7
233.807,71.5
233.8676,135.8
233.9243,145.3
233.9469,438.2
233.9536,27.3
234.0933,240.6
234.2113,168.3
234.25,20.2
234.3717,605.6
234.5353,175.4
234.5675,20.1
234.5776,415.5
234.6864,128.3
234.7169,128.3
234.8941,7742
234.8999,25.9
234.9054,208.9
234.9453,148.3
234.9819,6451.3
235.0224,447.8
235.0369,296
235.0573,8327.4
235.067,2713.9
235.0931,9574.3
235.2145,528.6
235.2459,146.4
235.2496,147.1
235.2616,708.2
235.2722,133
235.279,173
235.388,118.7
235.4705,16.8
235.4848,416.9
235.5265,238.6
235.5748,271
235.7636,227.4
235.8399,655.3
235.8736,151.4
235.8783,155.6
235.8977,192.2
236.0227,77.2
236.0413,9323.7
236.0668,20.4
236.0721,42232.7
236.1016,640
236.3211,73.8
236.4037,167.6
236.468,389.7
236.5228,240.2
236.5392,681.7
236.5914,635.7
236.6992,115.5
236.8785,56.6
236.9319,101.6
236.9469,20.8
237.0755,3023.3
237.1255,74.1
237.2786,76
237.3489,563.4
237.4056,368.5
237.4111,17.7
237.4663,103.1
237.5802,77
237.5876,78.5
237.7022,463.4
237.806,93.4
237.8221,17.8
237.8273,709.2
237.9147,585.8
237.9999,18.3
238.019,322.5
238.0308,598.9
238.037,18
238.068,569.2
238.0778,45.8
238.1075,99.2
238.1138,155.8
238.1458,365.3
238.2805,108.7
238.3395,73.1
238.377,90.9
238.4099,646.6
238.478,832.8
238.5035,138.1
238.6101,156.6
238.7651,534.1
238.7793,129.7
238.8423,4858.3
238.8488,380.1
238.8536,1115.6
238.8738,506
238.9111,180.6
239.0095,1707.1
239.0506,251.5
239.0643,389.7
239.0684,2105.9
239.1237,836.6
239.1301,19.5
239.4011,146.3
239.4093,367.3
239.4235,616.3
239.4354,558.9
239.4941,269.9
239.5369,138.7
239.5411,18
239.5788,434.4
239.682,126.5
239.7551,164.3
239.7772,89.2
239.8122,374.7
239.8434,379.5
240.0036,1408.6
240.0503,239.3
240.1007,1410.2
240.1091,436.1
240.235,412.6
240.2936,320.3
240.4101,797.1
240.4658,354.2
240.5129,77.4
240.5351,1046.4
240.6237,418.7
240.747,582.9
240.8161,123.5
240.8393,3159.8
240.852,227.8
240.9552,1163.3
240.9735,93.9
241.2074,680
241.3034,520.1
241.3107,383.9
241.3426,203.4
241.3638,140.7
241.3922,210.2
241.5304,277.3
241.5889,92.1
241.6467,293.8
241.7896,106.7
241.8042,183.3
241.8418,474.7
241.9192,430
241.9531,545
241.9785,95.1
241.9983,1949.6
242.0196,3986.3
242.0916,114.7
242.1636,109.1
242.1851,706.3
242.2286,357.3
242.2429,779.5
242.3073,85.8
242.5274,561.8
242.5468,19.5
242.6572,154.1
242.6969,122
242.7343,149.1
242.764,110.7
242.7824,19.5
242.8855,83.2
242.8988,359.3
242.9261,20412.5
242.9701,126.5
243.0069,161
243.0227,393.9
243.033,779.5
243.0536,5018.7
243.0659,11618.2
243.0865,112
243.1122,395.3
243.1244,540.9
243.1424,101.7
243.1738,112.8
243.2632,133.4
243.338,18.5
243.4466,139.6
243.515,91.6
243.6495,318.2
243.7049,20.6
243.7302,213.8
243.7457,108.6
243.7654,161.4
243.7698,807.3
243.8391,406.5
243.9059,20
243.9732,1618.5
243.9994,92.6
244.0123,432.7
244.0223,18.8
244.043,264.2
244.0886,91.3
244.1151,98.6
244.1198,149.9
244.1759,179.2
244.2462,136.8
244.2609,18.2
244.2677,341.6
244.3735,567.8
244.4049,108.8
244.4359,626.1
244.4479,306.1
244.5581,23.2
244.6144,90.2
244.6858,88.5
244.7367,140.5
244.8712,5816.7
244.8854,371.9
244.9242,1145.3
244.9766,112.5
245.165,181.4
245.3204,368.5
245.3804,545.5
245.4108,697.6
245.4461,260.2
245.4505,134.3
245.46,289.4
245.5022,146.1
245.5533,126.3
245.5623,81.1
245.5714,562.7
245.5982,128.9
245.6042,124.4
245.9701,115.6
245.9742,72.5
245.9755,157.8
245.978,159.5
246.0018,139.2
246.011,55.7
246.0289,191.9
246.1651,20.5
246.1756,189.6
246.1969,489.7
246.2275,342
246.2334,89.8
246.2952,156.8
246.32,299.2
246.3352,21.4
246.3959,221.3
246.4048,82.7
246.4291,105.4
246.512,234.6
246.5168,93.7
246.6271,135.2
246.7427,209.1
246.8413,190.1
246.8581,114.5
246.868,956.1
246.9033,621.4
246.9169,68.9
246.9214,20.4
246.9521,567.3
247.0373,1441.8
247.0672,1461.3
247.0931,6457.6
247.2439,355.1
247.3072,505.8
247.3292,358.5
247.499,452.3
247.5197,220.9
247.6077,539.9
247.6863,236.4
247.7025,196.5
247.7066,132.3
247.7711,214.7
247.9237,29.6
247.9681,277.4
247.9838,329.6
248.0203,515.6
248.0795,192.6
248.1247,14042
248.1536,165.4
248.3166,221.5
248.3179,214.2
248.4391,71.5
248.454,415.6
248.766,556.4
248.7846,123.9
248.8711,10228.8
248.882,163
248.9013,39.2
248.9491,27.5
248.96,3484.1
249.0168,1782.5
249.0399,17
249.0617,15267.8
249.0739,104.3
249.0815,451.8
249.0867,419.6
249.1085,330.8
249.1287,572.9
249.2899,97.6
249.6912,440.9
249.8161,83.7
249.9627,17.3
249.9772,900.5
250.0078,130.3
250.0129,21.1
250.0387,263.9
250.0648,1623.7
250.0804,144.5
250.2328,180.3
250.2968,428.1
250.3328,130.3
250.6488,378.3
250.6762,226.2
250.7278,79.8
250.7833,200.1
250.8396,163.4
250.8681,2413.4
250.8961,18.4
250.9207,3173.9
250.9271,19.2
250.9416,135.6
250.9557,1248.3
250.9917,135.6
251.0015,22.1
251.0093,82.1
251.0346,1108.1
251.1185,88.4
251.2276,875.6
251.3171,267.7
251.3705,249.4
251.4135,621.1
251.5001,248.6
251.6295,167
251.6598,368.2
251.6648,716
251.7706,81.7
251.8426,21.4
251.8738,295
251.9435,164.4
251.9485,139.5
251.9811,77.6
252.0128,16.2
252.0372,77.3
252.0462,101562.5
252.1579,19.3
252.1769,124.1
252.2832,452.5
252.4192,798.6
252.5197,324.3
252.6137,402.9
252.9178,1612.4
252.9519,41
253.0388,83.8
253.0453,397.2
253.0495,4823.5
253.1773,141.8
253.2583,18.4
253.4201,219.9
253.5334,319
253.6709,200.8
253.6859,738.2
253.7537,150
253.7708,18.8
254.0438,1712.7
254.0742,100.8
254.146,207.1
254.2219,281.3
254.267,133
254.2846,394.1
254.3749,1002.3
254.4156,18.5
254.5497,145
254.5527,73.4
254.7875,94
254.7999,118.5
254.816,1154.7
254.8244,9266
254.8391,153.8
254.8431,346.1
254.9865,26.4
255.0335,29873.8
255.0472,786
255.0666,333.2
255.1183,370.7
255.1234,141.7
255.1287,217.7
255.2258,135
255.2343,124.5
255.2572,144.8
255.2752,182.6
255.4293,205.2
255.511,313.8
255.514,510.9
255.59,177.7
255.5965,399.7
255.656,203.4
255.7492,18.9
255.8867,438.5
255.9441,18.1
255.9631,594.1
255.9787,742.6
256.0054,604.7
256.0488,799.4
256.059,70.1
256.0672,364.8
256.1036,692.5
256.1366,479
256.3065,356.3
256.3969,358.5
256.4249,376.1
256.4671,308.5
256.6591,161.1
256.7084,71.4
256.8214,9019.5
256.9406,354.1
256.9818,19.1
257.0036,18.8
257.0226,110
257.0491,7302.3
257.0585,377.9
257.0652,727
257.0751,48021.6
257.0954,643.3
257.1058,96.9
257.199,423.8
257.2512,72.7
257.5498,144.6
257.5591,597.5
257.9525,133.9
257.9891,43.3
257.9998,358.5
258.031,179.1
258.0694,145.1
258.0745,158.6
258.0784,735.7
258.0852,19.6
258.1108,22225.3
258.2489,79.5
258.5166,159
258.521,104.9
258.6655,21.4
258.7938,126.2
258.8184,3380.7
258.8621,386.4
258.9001,2756.6
258.9433,585.8
258.949,157.9
259.0142,172
259.0282,679.5
259.1326,202.2
259.1627,402.8
259.299,108
259.4168,492
259.4566,194.9
259.5132,309.8
259.5374,151
259.5634,83.4
259.7711,99
259.7786,197.9
259.8334,511.2
259.8419,85.4
259.9117,199
259.9318,109.9
260.113,434.9
260.1749,278.4
260.2875,75.8
260.4266,148.9
260.5452,84.9
260.5579,600.6
260.6081,271.3
260.6336,76.7
260.6583,22.6
260.6928,651.5
260.7497,110.8
260.8288,84
260.8452,2077.5
260.884,108.9
260.9358,157.9
260.9496,6611.4
261.0462,210.1
261.0583,102.4
261.1329,90.4
261.2344,290.3
261.3248,230.7
261.3564,266.2
261.4354,21.6
261.4504,94
261.6196,85
261.6889,614.5
261.8477,268.9
261.8533,117
261.9502,150
261.9836,565.2
262.0626,624.3
262.0819,1391.5
262.0977,98.1
262.1515,217.3
262.1593,142.9
262.2931,128.7
262.3557,681.8
262.3621,90.7
262.5569,146.5
262.6397,116.9
262.6488,540.2
262.6977,99.5
262.8704,185.4
262.9466,1573.1
262.9656,173.6
262.9944,93.4
263.0143,383.3
263.0857,2032.4
263.1216,370.4
263.126,20.3
263.342,264.1
263.356,88.3
263.5048,25
263.5145,161.6
263.6235,159.4
263.7834,114.2
263.7908,453
264.0554,116.9
264.0601,487.2
264.0952,186.4
264.1916,93
264.2692,200.9
264.3632,192.1
264.415,115.1
264.4706,241.6
264.491,130.4
264.5227,618.5
264.8,85
264.8406,101.5
264.8452,2501.1
264.8532,3987.2
264.9233,340.1
264.9339,4557
264.9447,743.6
264.9548,107.5
264.9732,993.3
264.989,5786.9
265.0116,97.5
265.0169,121.3
265.0356,8433.8
265.048,3652.9
265.1247,86.3
265.2521,113.5
265.2776,123.8
265.2931,141
265.4038,160.5
265.4513,183.1
265.4667,465.6
265.5202,280.2
265.6375,750.9
265.694,316.7
265.7362,176
265.7702,88.6
265.8363,292.6
265.9788,139.2
266.0294,237
266.1097,186.3
266.1663,95.2
266.4363,343.8
266.5646,125.6
266.5723,141.2
266.6174,514
266.6682,141.4
266.729,72.3
266.7499,389.6
266.7798,654.8
266.8502,5003.1
266.8946,1939.6
266.9899,122.6
267.1414,600
267.2562,125.5
267.3429,107.9
267.3485,680.8
267.402,18.7
267.5614,107.3
267.5909,21
267.623,177.8
267.8438,181.2
267.8729,169.1
267.974,25.4
267.9944,345.5
268.0299,244
268.2857,148.5
268.3324,124.4
268.3725,633.4
268.4813,120.8
268.5015,655.7
268.5155,352.3
268.7531,557.3
268.8473,1458.4
268.8924,888.3
268.9828,235.2
269.0123,21.4
269.0283,145.9
269.0345,96.6
269.0455,21022.5
269.0492,46763.2
269.0578,120.5
269.125,430.2
269.1355,688.5
269.211,139.4
269.3258,564.3
269.3908,177.7
269.415,240.7
269.5027,302.9
269.5293,474.8
269.7994,161.8
269.8729,93
269.915,18.5
269.9183,20.3
269.9413,205.1
269.9897,115.4
269.9946,1272.2
270.0253,7656
270.0479,29174.3
270.065,116.5
270.1209,19.1
270.1455,1174.8
270.1637,19
270.2728,551
270.2981,305.1
270.4033,22.8
270.4798,271.2
270.5348,873.5
270.6834,569.8
270.6878,208.6
270.7983,2988.3
270.9056,238.1
270.9537,18.8
270.9785,14359.2
271.0286,608
271.0512,244.6
271.065,91.4
271.0736,118.9
271.0784,769.1
271.0909,768.3
271.1861,118.1
271.2058,345.8
271.2436,685.7
271.283,402.4
271.3381,95.1
271.4212,159.1
271.518,609.9
271.7628,119.9
271.8464,233.1
271.8978,593.5
271.9682,72.1
272.021,232.8
272.0436,90.7
272.0808,190.1
272.1264,159.1
272.1792,777.5
272.2052,121.1
272.2841,543.1
272.3278,351.6
272.5594,141.4
272.7955,4578.5
272.8545,87.5
272.8701,17.5
272.9428,84.8
273.0103,649.1
273.0493,955.7
273.1135,21.3
273.3027,19.2
273.4256,201.5
273.489,166.7
273.5681,108.3
273.6329,167
273.6899,209.5
273.8398,572.1
273.9264,152.9
273.9631,5185
273.9877,83.3
274.0403,19.4
274.0696,156.6
274.0929,2243.3
274.1079,76.9
274.131,236.6
274.2642,166.3
274.2768,470.1
274.6149,122.6
274.7922,2067.2
275.0047,131.1
275.033,147.7
275.0548,852.7
275.0829,181.1
275.1234,17.8
275.1862,510
275.2047,156.8
275.2215,113.4
275.2558,157.2
275.5017,246
275.5233,20.9
275.5299,242.3
275.5484,432
275.7622,566.8
275.7818,155.5
275.8133,84.8
275.9153,477.4
275.9236,186.1
275.941,362.9
275.9535,335
276.0039,199.5
276.0535,165.3
276.0855,33.3
276.1524,184.7
276.2367,399.7
276.2417,109.6
276.3045,72
276.4062,161.1
276.4091,637.1
276.4929,69
276.5425,378.4
276.7674,602
276.7902,21.1
276.8672,568.3
276.9236,7257.5
277.0343,469
277.0431,618.5
277.0988,77.2
277.1381,126.3
277.3149,73.9
277.367,119.2
277.4127,193.5
277.4806,112.2
277.5394,696.5
277.6625,507.1
277.7167,161.5
277.8198,17.7
277.8329,17.8
278.0007,55.3
278.0173,813.4
278.1417,170.5
278.1505,172.5
278.1863,23.9
278.3206,19.7
278.3363,708
278.3548,180.6
278.4681,80.3
278.823,129.1
278.8391,731.2
278.8475,23.1
278.8937,1312.8
278.9213,809.6
278.9878,640
279.0046,121.6
279.0484,141.4
279.0572,42314
279.1867,612.1
279.1984,99.4
279.5982,171.9
279.8271,183
279.8326,135.7
279.8423,136.7
279.867,17.5
279.9784,493.9
280.002,156
280.0162,242.5
280.0603,608.9
280.0929,1578.1
280.1137,19
280.1813,132.7
280.3699,614.3
280.5067,140.9
280.5905,725.6
280.8272,3158.9
280.8389,366.9
280.9453,592.4
280.959,107
281.0099,1692.3
281.0334,311.2
281.0529,171.4
281.1366,71.9
281.4388,758.8
281.6032,105.6
281.6276,754.8
281.7276,185.6
282.0152,151.1
282.0653,691.5
282.1381,19.7
282.2399,431.5
282.2704,705.6
282.356,130.5
282.3627,171.8
282.55,157.3
282.5843,18.6
282.6365,102.9
282.8241,2404
282.8624,474.5
282.8694,477.6
282.9467,329.2
283.0282,1991.2
283.0685,20
283.1649,739.4
283.2635,31
283.3122,103.5
283.3438,163.4
283.444,126.7
283.8135,344.8
283.8477,147.2
283.9324,366.6
283.976,116.3
283.9888,48.7
284.0031,70.2
284.0251,105.9
284.0502,45.9
284.0534,75.7
284.0633,828.8
284.1146,667
284.1551,97.5
284.2767,82.7
284.2956,109.1
284.3328,124.1
284.3668,90.9
284.3959,650.3
284.4314,316.3
284.4475,146.9
284.4838,574.5
284.6239,159.1
284.7452,689.7
284.8212,383.6
284.8962,17.5
284.966,102.2
284.9824,82.5
285.0233,653.9
285.0369,38.4
285.0707,115
285.0965,130.1
285.146,575.3
285.2271,669.1
285.2382,117.8
285.3799,78.5
285.4491,22.9
285.4547,22.9
285.5805,470.4
285.6165,770.1
285.6765,384.5
285.691,149
285.8577,18.1
285.954,19.3
285.9813,408.5
286.0203,2092.2
286.0356,315.9
286.0967,97.4
286.1151,74.5
286.1692,281.6
286.2403,679.1
286.283,225.2
286.3027,633.3
286.3175,371.2
286.3505,512.8
286.439,18.6
286.5736,19.7
286.6759,321
286.6922,317.3
286.7722,1914
286.8492,180.7
286.8816,18.1
286.8926,82.8
286.9286,112.4
286.9525,7459.1
286.9649,784.3
286.9956,83.8
287.0237,172.8
287.0559,41959
287.1097,95.8
287.1282,90.7
287.1349,161.6
287.1513,81.4
287.1949,24.5
287.3373,20.1
287.4099,267.8
287.4569,124.3
287.543,132.6
287.5737,153
287.7415,189.6
287.8178,234.4
287.8272,135.6
287.866,119.8
287.9395,111.5
287.9923,104.2
288.0132,24.7
288.0256,111.5
288.0596,818.1
288.0854,118.3
288.1068,717.1
288.1562,28624.5
288.5963,728.7
288.6228,220.2
288.6592,788.1
288.7254,292.3
288.751,157
288.7695,3243.5
288.7764,262.7
288.8147,318.7
288.8189,121.3
288.8269,784.9
288.8326,1203.8
288.8392,1572.8
288.8442,1528.1
288.849,2091.6
288.8517,2204.1
288.858,5217
288.8609,5419.5
288.8636,5520.7
288.8705,10047
288.8774,9031.2
288.8828,14029.8
288.891,15523.8
288.8949,17715.1
288.9041,18524.6
288.9133,18161.7
288.9194,18036.4
288.9219,18605.1
288.927,19864.1
288.9319,15432.8
288.9356,13196.2
288.9474,8914.9
288.9599,2984.8
288.9645,1671.9
288.9699,2293.6
288.9768,1573.4
288.9922,557.4
289.0084,513.4
289.061,572.8
289.099,79.8
289.1356,319.4
289.1596,1124
289.3121,112
289.4531,596.4
289.5345,112
289.7306,119.6
289.7599,581.2
289.7786,77.5
289.817,18.3
289.8534,20.3
289.9141,746.4
289.9173,564.4
289.9375,223.8
289.9865,87.1
290.1014,47.7
290.208,152.9
290.2302,171.2
290.2765,205.1
290.3852,351.9
290.5778,92.8
290.5851,111.2
290.6538,133.7
290.6696,189.2
290.7077,546.5
290.7764,342.2
290.8621,94.6
290.8939,139.2
290.8978,136.7
290.9088,127.5
290.9223,21.4
290.973,392.8
291.027,7317.4
291.2572,796.8
291.2646,788.7
291.284,88.1
291.4409,82.3
291.4461,662.9
291.5075,155.3
291.5894,494.9
291.5973,238.9
292.0657,79.7
292.0801,87.5
292.3599,86.8
292.3658,715.9
292.447,117.1
292.5416,92.8
292.5428,92.3
292.5709,479.7
292.7256,94.1
292.7334,128.1
292.7437,19.4
292.7587,682.1
292.8748,145.6
292.8975,1342.1
292.9947,96.9
293.0067,1146.8
293.0315,413.4
293.0728,3208.3
293.0988,640084.1
293.1199,119.5
293.2057,281.7
293.312,660.7
293.3134,680.5
293.3155,412.9
293.485,407.5
293.6359,152.5
293.6704,150.9
293.7648,309.1
293.7734,176.1
293.9181,744.1
293.9248,414.7
293.942,443.8
294.0959,667.9
294.1021,56299.3
294.2671,94.2
294.2808,295.6
294.3418,383.5
294.4824,110.1
294.757,137.1
294.9912,246.2
295.0311,1110.2
295.0862,94.7
295.1028,4452.4
295.111,96.5
295.1953,9081.8
295.2916,795.3
295.3324,586.5
295.3972,96.2
295.5647,138.9
295.7336,149.1
295.8699,661.7
295.9013,18.5
295.9224,139.9
295.991,236.6
296.0101,1969.4
296.1048,137.3
296.1984,929.9
296.2324,236.5
296.2946,20.4
296.3395,352
296.353,140.7
296.4386,149.8
296.6103,503.2
296.8228,372.6
296.9882,153.5
297.1742,290
297.2631,98.4
297.3437,125.3
297.4567,118.3
297.5735,188.9
297.5954,84.4
297.7495,491.8
297.8427,159.9
297.8976,525.5
297.9244,333.5
298.0255,1107.9
298.0429,19863.6
298.0584,95.2
298.083,507.2
298.0963,384.8
298.1835,862.1
298.1988,290.2
298.3957,118.9
298.5906,17.3
298.6293,202.2
298.7992,162.4
298.8063,110.7
298.9303,249.8
298.9869,70.4
299.0127,86.7
299.0233,2795.8
299.0462,510.2
299.404,126.4
299.5754,73
299.6611,20.7
299.7646,17.5
299.7969,160
299.827,22.3
299.96,188.5
300.0052,1167.9
300.0359,712.2
300.0492,47.3
300.0759,372.3
300.0958,592.3
300.1045,92.2
300.1453,646.4
300.1546,78.7
300.1594,365.4
300.1977,21.8
300.2353,320.3
300.3523,690.6
300.6362,94.9
300.6863,206.5
300.752,414.5
300.9453,116.8
300.9544,116.5
300.9948,688.8
301.0005,149.5
301.0123,19.9
301.0391,24452.1
301.1419,224.8
301.3728,119.7
301.4093,657.9
301.5006,145.8
301.6003,150.9
301.7515,153.5
301.8178,334.5
301.9076,133.1
301.9945,1980.8
302.0207,412.3
302.0366,26.8
302.0517,124.7
302.0646,4391.2
302.0735,68.4
302.1454,22.6
302.2259,145.6
302.384,447.5
302.5932,766.3
302.6851,498.8
302.693,318
302.7048,632.5
302.7838,86.8
302.83,2658.3
302.9265,1140.7
302.9597,205.8
303.068,406.6
303.0745,605.2
303.1785,176.1
303.1978,174
303.2109,928.4
303.2176,1290.1
303.3832,140.1
303.4364,157.8
303.4823,16.8
303.4949,75.2
303.5537,129.1
303.5677,119.2
303.8686,134.9
303.9709,344.5
303.9807,84.4
303.9825,84.6
303.9865,273.6
304.0369,604.5
304.0606,149
304.0949,190.5
304.2024,139.8
304.2904,201.8
304.3804,185
304.4698,544
304.6506,167.8
304.6554,663.9
304.7088,323.9
304.7174,274
304.761,305.2
304.8268,2116
304.8967,826.3
304.9761,459.3
305.1448,850.7
305.2134,114.1
305.233,860.8
305.3574,105.5
305.5131,448.2
305.5468,549.1
305.766,810.3
305.8985,596.2
305.9841,334.6
306.0159,123.9
306.0968,43.5
306.1388,239.2
306.1742,665.7
306.404,122.2
306.4293,348.6
306.4588,652.9
306.5197,232.9
306.5553,170.4
306.5753,94.1
306.6439,487.2
306.6628,671.6
306.6846,625.4
306.7671,114
306.8377,212.9
306.9132,570.6
306.9586,388.6
306.9779,2258
307.0205,204.6
307.0909,613
307.2799,593.8
307.2862,17.7
307.4148,390.3
307.4507,104.4
307.5031,186.7
307.6384,141.1
307.7022,106.2
307.7053,112.5
307.818,182.2
307.8422,78.7
307.874,589.1
307.9696,112.6
308.1697,89.6
308.2272,391.6
308.6879,702.4
308.8797,3063.5
308.9264,127.9
309.0068,181.2
309.0224,68.8
309.0306,18.7
309.0381,5635.2
309.0651,135.2
309.209,113.2
309.2657,240.8
309.3044,17.6
309.3326,16.4
309.335,17.4
309.5293,425.8
309.6954,322.9
309.8104,19.3
309.9498,324.7
310.0156,622.4
310.032,246.5
310.0404,121.7
310.2208,111.7
310.241,224.9
310.4117,137.1
310.5327,83.8
310.8768,2317.5
310.9636,476.2
311.0038,66.9
311.0325,111
311.1679,61
311.4253,329.1
311.5525,153
311.5869,466.2
311.6166,890.3
311.6444,167.3
311.8073,181.4
311.8688,142.9
311.9992,25.3
312.005,23.4
312.0201,90.2
312.0418,1602.3
312.1061,216.1
312.1285,21.4
312.176,206.1
312.2408,129.9
312.3764,433
312.6886,174.9
312.743,522.8
312.7725,89.5
312.8152,244.1
312.874,376.7
312.9754,743.4
313.0029,32.3
313.0186,52
313.0336,133.3
313.117,181.2
313.2746,34822.1
313.3569,176.9
313.3758,94.5
313.6018,601.7
313.7368,384.8
313.942,94.4
314.0154,2666.1
314.0916,245.5
314.0966,471.5
314.1085,497.3
314.2781,3163.7
314.3576,131.3
314.3753,136.3
314.4138,260.7
314.6925,281.4
314.7801,338.1
314.8031,186.6
314.8376,5187.7
314.9029,664.4
314.9171,203.8
314.9763,422.9
314.9795,294.7
314.9851,122.6
314.9865,128.2
314.9996,6028
315.0189,211.4
315.0439,753
315.0481,1188.9
315.0527,3885.5
315.0559,8451.9
315.0608,5963.2
315.0637,6603.2
315.067,20992.3
315.0701,29344.7
315.0723,18965.3
315.0808,9787622
315.089,22093.2
315.0911,17189.6
315.0984,8595.2
315.1004,6795.5
315.1028,5531.8
315.1069,2460.2
315.1091,2239.1
315.111,1577.8
315.113,1053.6
315.118,1306
315.126,113.3
315.128,120.1
315.1619,6285.4
315.2607,157.4
315.2656,528.5
315.3242,7264.7
315.4073,130
315.4867,341.3
315.5316,163.1
315.6117,72.5
315.6187,467.1
315.7553,342.4
315.7585,354.6
315.7968,285.4
315.9736,164.2
315.992,265.1
316.0114,100.4
316.0364,601.5
316.0557,594.5
316.0691,1444.8
316.0783,52415.6
316.0841,1027978.4
316.4382,606.4
316.6171,159.9
316.6466,116
316.6715,140.6
316.7657,136.3
316.7827,112.6
316.7903,18.6
316.9874,1462.3
317.0166,90.4
317.049,21.2
317.057,892.6
317.0656,1549
317.0846,119193.5
317.1311,237.5
317.226,570
317.3069,19
317.432,99.2
317.4661,80.6
317.576,100.7
317.5978,797.9
317.7397,375
317.7793,119.7
317.808,103.1
317.9862,437.3
317.9988,214.4
318.0599,75.6
318.0882,11448.5
318.1102,70.6
318.245,430.6
318.3714,126.2
318.4407,115.4
318.4521,443.9
318.5214,98.4
318.5889,296.1
318.6028,104.3
318.6662,719.9
318.7931,144.4
318.8041,2644.3
318.8182,148.4
318.8644,20.6
318.9087,453.7
318.9385,381.1
319.0682,91.5
319.1233,181.2
319.1626,143.1
319.1953,37254.8
319.2302,21.9
319.295,703.8
319.4203,144.7
319.4772,329.8
319.5289,111.4
319.6888,122.5
319.947,428.5
320.0342,229.9
320.0461,251.5
320.0751,150
320.1987,2500.1
320.2593,1662.9
320.5174,626.3
320.6437,270.4
320.6779,594
320.7632,374
320.8007,1096.9
320.8209,404.7
320.8499,353.9
320.8829,181.3
321.0244,306.4
321.0959,427
321.1525,213.7
321.2108,16797.6
321.2475,128.5
321.2628,69.2
321.3366,139.9
321.4379,100.6
321.4922,198.2
321.7363,381.2
321.8863,22
321.9583,83.9
322.0095,252.8
322.0925,74.2
322.2145,2223.4
322.2585,217.7
322.5013,177.2
322.7418,526.5
322.7666,587.6
322.811,410.4
322.932,422.5
322.9809,157.7
322.9861,291.1
323.0093,173
323.0211,7844.4
323.2266,1507.3
323.2481,710.8
323.6539,108.8
323.6709,526.8
323.734,118.8
323.841,106.8
323.9393,384.3
323.9788,271.8
324.0024,4134.5
324.0148,220.1
324.1216,242
324.1948,22.6
324.3104,130.1
324.5066,103.2
324.59,667.9
324.6085,4039.7
324.6245,1872
324.7617,220.9
324.8092,863
324.8268,175.3
324.8432,18.6
324.8535,1974.8
325.0026,1312.4
325.0531,159.4
325.0593,168.8
325.104,159.5
325.1729,190.4
325.6099,77.1
325.6451,21.5
325.8808,19
326.0053,91.7
326.1242,18.3
326.3467,457.4
326.5653,540.7
326.5839,335.6
326.6564,193.4
326.7745,133.1
326.838,363.2
326.8504,1296.2
326.8713,146.5
326.9521,556.3
326.9821,1648.7
327.0162,4052.3
327.0524,1074.5
327.1157,350.3
327.1215,557.1
327.1287,664.5
327.1812,644
327.2282,2708.3
327.2793,354.3
327.4513,362.2
327.642,165.5
327.7193,261
327.7887,348.8
327.8627,260.3
327.9632,98.8
327.9739,123.7
328.0735,94.7
328.1746,574.3
328.2756,126.7
328.3209,371
328.4276,135
328.4524,106.2
328.8144,416.5
329.0962,2711.3
329.1161,344.5
329.2806,118.3
329.3994,591.6
329.4546,22.6
329.4612,777.5
329.5042,890.8
329.5437,93.7
329.6579,118.6
329.6656,272.4
329.7153,19.4
329.8773,18.5
330.0596,177.9
330.0714,122.7
330.1206,628
330.2171,762.1
330.2485,102
330.3401,279
330.4289,73.4
330.4448,124.7
330.464,371.7
330.5423,369.5
330.607,287.8
330.6161,110.4
330.6264,285.7
330.6903,612.6
330.7172,252.2
330.8293,819.9
330.8806,23.4
330.9591,128.8
330.9688,92.5
331.0069,612
331.02,2644.3
331.046,139262.2
331.0547,1426422.9
331.1128,148
331.1421,148.2
331.3074,20.8
331.3304,18.8
331.4353,112.6
331.6534,155.8
331.7859,119.1
331.8101,171
332.0252,21.8
332.0487,8562.7
332.0581,130537.6
332.1776,87.4
332.2887,71.5
332.4133,472
332.4446,368
332.4549,17.5
332.538,209.5
332.5492,259.1
332.6366,372.5
332.8405,459.5
332.9859,168.4
333.0529,82439.6
333.0584,15126.9
333.153,158
333.1996,315.5
333.2586,85.8
333.4587,76.4
333.9623,101
333.9908,262.9
334.0563,7780.5
334.0835,491.9
334.0908,40.7
334.7163,119.4
334.8337,136.9
334.9106,634.2
335.0388,583.6
335.168,589.4
335.2106,659.1
335.4012,19.1
335.6167,638
335.7034,91.7
335.7627,366.9
335.849,131.9
335.9925,733
336.1215,540.9
336.2214,491.1
336.2576,214.7
336.4304,146
336.4384,153.3
336.4466,25.5
336.5049,18.7
336.5175,132.2
336.8742,175.9
336.9083,20.3
337.0369,12709.9
337.0503,25924
337.0628,729524.9
337.1162,326.9
337.1837,101.2
337.2495,704
337.2746,10704.4
337.3124,81.7
337.4891,134.6
337.5382,323.7
337.5631,21.4
337.6107,298.5
337.6376,108.8
337.8691,756.4
338.0511,748.7
338.0661,66640.9
338.2866,22
338.3427,43.8
338.5002,137.8
338.7171,388.5
338.7871,439.4
338.8678,96.1
338.8756,115.6
338.9217,1118.5
339.039,2200
339.0479,854
339.0665,6033.9
339.2097,518.1
339.2213,104.7
339.2516,1488.5
339.2902,2394.7
339.3558,149.4
339.3881,810.9
339.6441,136.5
339.7225,327.3
339.7623,106.3
339.8282,134.9
339.9672,212.7
339.9767,763.7
340.0031,90.8
340.0373,388.6
340.0705,114.4
340.1138,820
340.1988,158.4
340.3991,361.2
340.4324,165.5
340.4824,219.7
340.5866,185.3
340.7832,995.1
340.8182,127
340.8577,197.4
340.9869,298.2
341.0189,26.7
341.081,407.6
341.3062,5039
341.4982,510.9
341.5172,112.7
341.5317,138.7
341.5788,140.2
341.5977,352.4
341.6669,141.9
341.9973,249.2
342.0161,1824.3
342.1265,76.6
342.2222,137.7
342.2913,455.2
342.4756,125.9
342.54,21
342.7279,150.1
342.7785,74.5
342.7968,406.8
342.8705,872
342.8888,180.9
342.9501,141.2
342.9903,1427.3
343.1954,13785.5
343.2558,83.1
343.2974,115.7
343.4136,108.1
343.4614,101.7
343.8414,103
343.9884,118.9
344.0707,251.8
344.1984,716.1
344.3478,127.8
344.413,105.7
344.461,239.6
344.7004,17.6
344.8758,293.5
344.9534,460.3
345.0042,18.4
345.0334,363
345.0788,18.1
345.2101,1532.9
345.3427,131.8
345.5175,222.3
345.6553,373.4
345.7402,219.6
345.9141,360.9
345.9846,15226.5
346.0106,143.4
346.0419,127.8
346.1529,177.9
346.3581,108.9
346.4329,184.9
346.54,176.2
346.5859,288.7
346.6515,461.4
346.6634,221.2
346.6748,116.3
346.7711,333.8
346.9882,80.9
347.0181,234.9
347.1171,67.3
347.2446,106.1
347.279,198.8
347.4929,202.6
347.5323,383.7
347.9176,319.2
347.9328,191.4
348.1276,465.6
348.2489,316.1
348.3083,97.9
348.5333,206.7
348.5867,223.7
348.8779,333.6
348.9196,145.2
349.0182,325.9
349.0642,177.9
349.1438,279.7
349.1518,316.5
349.2014,330.1
349.2219,290.3
349.2456,134
349.2494,219.9
349.2622,125.3
349.4092,269.8
349.7855,129.7
349.9274,449.3
349.942,301.8
349.9588,263.6
350.0185,559.3
350.2298,154.3
350.2365,79.2
350.5229,167.7
350.7445,357.7
350.7771,154.7
350.7897,767.4
350.9002,328.7
350.9479,298.9
350.953,270.3
350.987,272.4
350.9979,235.9
351.0887,247.6
351.1458,353.6
351.1494,604.6
351.1793,135.6
351.291,77
351.3104,84.8
351.61,96.6
351.7493,87.4
351.9171,108.1
352.2894,343.6
352.3649,89.1
352.4326,18.3
352.4613,196.4
352.5722,29.4
352.7204,224.8
352.7912,511.7
352.7991,352.4
352.8825,90.7
352.893,116.1
352.8985,858.4
352.9166,167.8
353.0279,165140.3
353.0367,246410.6
353.1422,821
353.2052,278
353.2351,20.9
353.291,138.6
353.3026,129
353.3212,71.2
353.3697,169.3
353.387,108.4
353.5212,19.3
353.7141,514.8
353.8224,124.8
353.8562,95.2
354.0144,432.2
354.031,13677.2
354.0401,24877.5
354.0685,103.1
354.3065,306.8
354.8795,782.3
355.0126,1350.7
355.035,15563.3
355.0694,321.5
355.2462,18.8
355.2945,80.4
355.3972,109.4
355.4337,82.8
355.5528,145.9
355.5652,145.6
355.5844,276.4
355.6109,127.5
355.6329,110.8
355.7652,19.8
355.8234,150.3
356.0394,242
356.0718,22.1
356.0849,367.6
356.2161,682.9
356.2727,151.5
356.4487,293.1
356.7403,536.2
356.958,279.1
356.9772,179.5
357.0094,460.6
357.0205,244.2
357.1799,310.4
357.6647,121
357.7404,635.7
357.9774,168.6
358.1552,77.2
358.1785,201.6
358.244,227.3
358.4473,82.8
358.5069,604.3
358.6926,148.3
358.7759,116.7
358.8196,18.2
358.8518,19.1
359.0082,368.9
359.0322,19144.8
359.0448,431226.3
359.1586,448.3
359.3433,20.4
359.3567,384.4
359.3784,466
359.4424,805.1
359.4489,93.3
359.4628,676.2
359.4719,756.1
359.4912,817.5
359.5047,146.7
359.5216,1063.9
359.529,147.9
359.5459,24.1
359.5543,611
359.5718,554.7
359.5806,83.7
359.5833,115.6
359.5863,115.9
359.6297,672.8
359.6897,371.5
359.775,100.5
360.0009,192.5
360.0186,639.1
360.0314,270
360.0481,38369.3
360.1232,487.3
360.3172,490.6
360.3244,304.1
360.4424,321.1
360.5533,21.6
361.021,4757.1
361.0486,2010.1
361.2749,936
361.3278,23.5
361.3809,19.6
361.6489,121.9
361.7267,177.8
361.8352,700.9
361.9586,3854.2
362.0717,224.4
362.2257,87.6
362.2725,227.8
362.2855,19.7
362.3041,631.3
362.6436,448.9
362.7261,142.1
362.8353,178.5
362.927,1291
363.1657,408.9
363.2155,270.2
363.2968,417.7
363.388,446.4
363.4176,153.5
363.611,197.3
363.6546,21
363.6748,550.2
363.998,127.8
364.0333,77.8
364.1056,103.3
364.1687,787.4
364.7076,347.1
364.7829,602.5
364.8104,272.7
364.8457,169.6
364.8615,18.1
364.8956,166.9
364.916,524
365.0144,106
365.0697,722.4
365.1943,130
365.2068,162.1
365.5076,793.6
365.5414,253.3
365.6756,410
365.9308,138.4
365.9863,53.7
366.0884,297.7
366.1821,177.9
366.2893,257.6
366.3081,683.8
366.3568,240.4
366.4392,108.3
366.4687,572.1
366.4807,148.9
366.531,132.6
366.6061,623.6
366.894,408.4
367.0438,290
367.068,18.4
367.1222,1155.7
367.1448,342.5
367.2073,382
367.3421,87.1
367.4756,98
367.5273,18.8
367.5556,167.6
367.6566,20.1
367.9921,526.7
368.0297,287.6
368.1098,102.2
368.1149,165.5
368.1978,410.2
368.2299,120.8
368.3367,92.9
368.3551,73.8
368.5867,128
368.7052,555.2
368.7997,233.3
368.8686,99.3
368.8827,19.3
368.9847,341.7
368.9926,3980.6
369.0018,21096.8
369.0108,9018.6
369.0327,102.1
369.0659,92.8
369.1057,97.4
369.146,149.2
369.2113,178.6
369.2301,274.3
369.27,37
369.3516,22
369.5111,83.3
369.557,354.5
369.7423,110.5
369.7708,398
370.0046,478.9
370.0504,102.3
370.271,20.9
370.3077,146.9
370.5243,113
370.8008,135.1
370.9488,226.8
370.9822,96.2
370.9886,598.6
371.0004,863.6
371.0099,126.9
371.0697,18.4
371.1418,377.2
371.1657,85.3
371.2956,558.5
371.487,74.9
371.5635,97.7
371.5921,311.9
371.6151,192.4
371.6234,323
371.9048,144.6
371.9293,17.9
372.0647,187.5
372.1009,365.2
372.1408,224.9
372.1881,585.6
372.2252,854.4
372.5085,460
372.5282,193.9
372.5368,146.8
372.7386,410
372.9717,597.3
373.0314,164.5
373.095,119
373.1866,469.5
373.25,375.9
373.3946,101
373.4031,134.6
373.6177,89
374.2201,235.1
374.6425,323.7
374.7361,858.8
374.7653,106
374.8351,375.8
375.0098,150287
375.0187,131272.8
375.1834,19.1
375.2846,241.6
375.3079,255.7
375.3372,143.4
375.5145,654.3
375.6781,570.7
375.8829,657
375.8942,684.9
376.0131,9178.2
376.0221,10601.7
376.2309,136.1
376.39,677.9
376.4092,598.8
376.4203,18.7
376.5188,164
376.6218,317.4
376.776,398.9
376.8328,116.5
376.941,162.3
376.9952,1445.3
377.0035,254.7
377.0171,6119.4
377.0734,222.8
377.2925,220.9
377.3236,132.6
377.382,20.2
377.4275,142.5
377.6396,353.2
377.7364,659.8
377.9693,118.3
378.0243,202.7
378.0913,566.8
378.3345,526
378.6134,563.8
378.6731,743.3
378.7836,195.6
378.9633,284
379.0578,24.9
379.3592,270.2
379.5907,338.7
379.7197,19.6
379.742,903.9
379.8239,100.8
380.0509,202.7
380.2296,127.9
380.322,165.7
380.4516,418.7
380.486,253.8
380.6952,359.7
380.7616,20.5
380.7706,518.4
380.779,115.8
380.9391,530.7
381.0142,29302.6
381.0268,229856.4
381.0669,17.4
381.1537,497.3
381.611,95.9
381.815,117.2
381.8291,124.4
382.0301,20191.5
382.048,723
382.1521,361.2
382.35,379.3
382.5509,115.7
382.6889,74.3
382.6989,384
382.7677,2117.1
382.7996,19.1
382.9778,210.3
383.0045,799.3
383.0116,714.8
383.0179,170
383.1171,171738.7
383.1942,22.1
383.2421,367.3
383.4168,193.6
383.5136,122.2
383.5304,728
383.6452,134.6
383.8406,74.8
383.9402,195
383.9668,390.3
383.9829,275.7
384.0006,96
384.0156,170.3
384.0624,643.7
384.1203,20408.5
384.2232,74.4
384.2455,135.7
384.476,365.5
384.5508,21.8
384.6289,89.3
384.65,144.9
384.7153,238
384.7651,388.9
384.8463,681
384.8894,17.2
384.9782,129.9
385.0223,77.8
385.1206,1358.7
385.5029,20.4
385.6318,134
385.7269,102.6
385.7765,139.3
385.8191,153.9
385.98,1600
386.0589,613.2
386.1957,20.5
386.4251,115.4
386.5748,103.8
386.5863,99.4
386.6409,303.3
386.8313,104.7
386.9648,100.5
386.9754,102.5
387.0038,2366.3
387.1765,177.5
387.2499,101.9
388.1633,333.1
388.3239,332
388.4317,122.6
388.4706,109.6
388.6072,118.4
388.7132,414
388.7222,18
388.7536,118.7
388.8086,337.1
388.8562,79.2
389.0387,233.5
389.2081,372.3
389.2715,165.2
389.5555,105.2
389.6399,659.5
389.7321,190.3
389.7464,640.5
389.8238,473.6
389.8486,194.3
389.9295,135.7
389.9745,15937.4
389.995,34.1
390.21,733
390.3097,345.3
390.4616,18.9
390.5455,17.6
390.565,560.8
390.7459,946.3
390.799,529.1
390.8412,154.5
390.8592,97.5
390.8812,424.7
390.9207,462
390.9284,251.5
390.9409,544.1
390.9748,14161
390.9836,27936.2
390.9927,13966.2
391.0183,634.6
391.2038,246
391.3184,747.1
391.4025,188.2
391.4226,509.1
391.5267,135.6
391.5552,143
391.5957,226.6
391.6412,225
391.7173,642.3
391.802,122.5
391.8094,160
391.941,363.4
391.9516,282.6
391.9881,365.2
392.104,18.3
392.1257,419.4
392.1377,399.1
392.2829,296
392.5133,333
392.5654,103
392.6648,70.6
392.6758,542
392.7727,117.7
392.7965,597.4
392.87,103.6
392.9279,19.5
392.9667,287.8
392.9823,1054.2
392.9912,440.5
393.0087,565
393.2474,19.7
393.3848,230.7
393.5078,287.5
393.6733,87.7
393.701,128.1
393.716,19.5
393.7359,498.3
393.8871,349.2
394.1766,597.8
394.2086,127.6
394.5881,217.8
394.7401,88.4
394.8985,135.4
394.9103,514.6
395.0492,687.5
395.2027,177.7
395.2127,103.5
395.2663,17.7
395.3906,75.1
395.4442,441.9
395.5941,157.3
395.6182,435.1
395.8685,108
395.983,106.8
396.1894,20.3
396.4145,132.2
396.6092,280.9
396.7145,143.1
396.7448,385.5
396.7623,388.9
396.8621,143.3
396.921,137
396.9918,188247.4
397.0006,77428.7
397.4375,221.8
397.4474,97.8
397.5658,137.8
397.6601,540.7
397.7802,583.2
397.9325,21.1
397.995,13636.2
398.0038,4085
398.0372,129.6
398.1326,701.9
398.1588,342.3
398.1757,794.5
398.1863,339.1
398.2075,110.3
398.2425,4717.5
398.5855,107.7
398.6138,181.6
398.6897,113.9
398.7418,1116.2
398.7854,105.6
398.9106,392.1
398.9177,375.5
399,927.5
399.019,156.6
399.0266,321.1
399.122,99.8
399.1828,102.2
399.1889,526.6
399.195,17.9
399.2193,283.4
399.3348,22.5
399.345,196.5
399.3577,124.1
399.3808,218.2
399.5236,18.7
399.7032,623
399.7522,436.4
399.8503,22.7
399.8567,696.3
399.8655,161.5
399.8773,588.2
399.9137,99.8
399.9713,385.3
400.1868,24.2
400.239,195.4
400.3704,18.9
400.6626,190.7
400.7386,678.7
400.7558,137.1
400.8278,396
400.984,481.1
401.1653,355.9
401.3515,96.9
401.4192,19
401.5407,584.8
401.5691,121.5
401.6687,84.7
401.7082,105.8
401.9549,81.8
402.0508,542.3
402.0871,476.1
402.4023,115.6
402.7266,22.9
402.7346,350.6
402.8008,190
402.865,153.1
403.0087,273054.3
403.0799,637.2
403.1119,130.7
403.3257,607.2
403.3543,123.2
403.4397,160.4
403.5442,16.3
403.6167,140.9
403.6578,91.6
403.7472,591.7
404.0119,25362.2
404.5767,20.3
404.6107,94.5
404.6875,460.1
404.8318,122.6
404.9118,583.8
405.0123,993.1
405.292,679.3
405.4859,724.7
405.5903,89.1
405.8812,82.8
405.919,142.7
405.9483,10790.4
406.001,636.8
406.0813,133.9
406.1795,77.7
406.3305,1098.4
406.3731,198.3
406.6834,337.4
406.7732,439.2
406.8351,91.6
406.9441,281.1
406.953,156.5
407.0286,203.5
407.3344,818.5
407.5693,667.5
407.6645,84.1
407.7062,20.6
407.8166,22.4
407.8503,647.7
407.9502,538.3
407.9881,90.8
408.0549,432.1
408.4978,104.8
408.7207,702.4
408.77,2007.2
408.8463,94.4
408.956,70.6
408.9855,1136.4
409.3779,569.1
409.4785,320.6
409.5361,577.1
409.5937,245.8
409.6519,232.5
409.6972,372.3
409.7193,289.9
410.0748,593.3
410.2144,658.9
410.3045,17.7
410.3636,831.9
410.5353,17.5
410.5678,132.5
410.7328,110.3
410.7667,505.7
410.8303,693.2
410.9682,125.6
411.2521,623.7
411.3778,122.7
411.4425,142.1
411.4621,731.4
411.5043,160.4
411.5572,111.7
411.6645,290.2
411.7072,186.3
411.7239,522.8
411.8018,632.9
411.8128,257.9
412.1653,95.2
412.2301,177.1
412.3221,2064.4
412.7182,437.2
412.7656,112.5
412.8674,162.4
412.9358,597
412.9656,38553.3
412.9747,13838.8
413.029,199.4
413.2675,4636.3
413.3259,317.1
413.4021,148.8
413.4614,170.4
413.5481,145.2
413.6096,175.2
413.6368,282.1
413.7034,592.2
413.7956,79.4
413.837,176
413.8936,802.7
413.8978,499
413.9402,21.2
413.9685,499.4
413.9869,294.4
414.1792,180.9
414.2492,470.4
414.2706,252
414.4723,77.7
414.6547,276.3
414.7152,413.2
414.7625,739.6
414.9659,895.4
414.976,120.3
414.9983,1651.7
415.2045,684
415.2221,652.8
415.3321,382.1
415.4124,204.8
415.495,361.7
415.7417,154.8
415.94,97.7
416.1361,9220.4
416.2152,33524.7
416.2627,687.9
416.2833,21.1
416.3821,1016.7
416.5132,126.3
416.752,88
416.7593,231.4
416.8028,557.2
416.8224,288.4
417.1633,91.5
417.2185,4238.6
417.5462,143.2
417.8109,390.8
417.951,679.1
418.3217,151.8
418.3367,318.7
418.3779,375.2
418.788,247.6
418.9419,446.5
418.9827,97775.1
419.0701,237.9
419.1228,77
419.1458,220.1
419.208,339.1
419.2577,719.9
419.3104,20.2
419.3965,23.6
419.456,96.4
419.5042,114.6
419.6815,154.1
419.7545,495.3
419.9862,6115.6
420,21.6
420.053,616
420.1347,646.5
420.2267,318.9
420.2866,212.5
420.3895,138.8
420.6543,144.7
420.9581,660.6
420.9807,2952.9
421.3286,23.2
421.4621,100
421.6693,108.5
421.7163,99.7
421.8338,30.3
421.9222,2217.3
422.2426,711.3
422.3048,45.3
422.5028,493
422.7485,333.7
422.9407,17.8
423.0079,157.3
423.2487,102.8
423.896,826
424.1673,704.5
424.6132,69
424.9226,138.8
424.9483,468.3
425.0376,193.8
425.1242,138.4
425.2385,642.7
425.5096,17.6
425.6631,482.1
426.0767,90.7
426.0871,565.8
426.1957,140.8
426.2562,115.1
426.6031,113
426.8702,18.7
426.9441,20.9
426.9749,265
427.3072,104.7
427.998,189
428.1041,168.1
428.5827,365.1
428.702,538
428.7308,117.4
428.9108,75.8
428.9392,3893.7
428.9486,206.1
428.9606,455.5
428.9663,346
428.9795,681.7
428.9873,960.9
428.9973,399.6
429.069,266.3
429.0898,152.3
429.1306,88.4
429.2618,343.5
429.569,282.1
429.7309,328.9
429.7517,489.4
429.9033,254.6
429.9407,17.3
430.0523,161.7
430.1044,19.3
430.117,372.4
430.2168,311.5
430.3063,466.2
430.3909,95.5
430.4146,18.6
430.4649,129.7
430.6115,164.4
430.6424,527.7
430.8791,254.9
431.2176,1094.5
431.4042,531.4
431.4359,634.1
431.4999,653.5
431.8923,338.9
432.3857,105.3
432.4094,154.8
432.4427,183.9
432.5844,280.9
432.7469,70.1
432.8649,332.4
433.1556,202.4
433.206,367.4
433.2503,29.2
433.2911,128.8
433.484,96.7
433.5273,356.4
433.6035,631.2
433.6202,18.4
433.8437,149.4
434.5227,333.4
434.5942,535.6
434.6105,144.1
434.8536,569.1
434.899,20.7
434.9567,16271.8
434.996,239.6
435.6399,88.3
435.8949,483.4
435.9585,175.6
436.0105,21.4
436.3129,263.1
436.4004,123.1
436.4299,214.6
436.5233,72.1
436.5963,440.1
436.6725,86.8
436.7509,117.3
436.7613,155.1
436.9551,368.9
436.9973,132.4
437.0617,82.2
437.0974,194.5
437.1856,617.9
437.2037,430.6
437.3692,146.4
437.3815,98
437.7053,187.8
437.9077,106.9
437.9636,214.3
438.3692,412.1
438.6476,118.4
438.7506,364.7
438.7892,438.9
438.866,145.2
438.9729,2497.8
438.9855,4507.9
439.0257,337.5
439.3383,102.5
439.3685,124.2
439.379,469.7
439.4009,116.2
439.6474,692.5
439.8381,714.3
439.8997,402
439.9169,98.1
439.9253,20
440.0567,621.8
440.0756,17.2
440.1091,834.8
440.1272,727.3
440.3277,75.9
440.5761,97
440.7269,746.2
440.8074,504.1
440.8163,326
440.8242,427.6
440.9831,648.5
441.1101,19.6
441.1753,749.9
441.2987,202.4
441.7046,76.5
442.0254,450.3
442.1228,74.4
442.2025,602
442.5386,366.8
442.6049,695.3
442.7237,770.8
442.7948,16.9
442.8036,95.1
443.0412,386.2
443.0802,484.4
443.2562,106.3
443.7891,327.5
443.8103,18.1
443.9211,71.4
444.0878,168.9
444.1851,159.1
444.2115,665
444.4207,137.5
444.4821,22.8
444.819,19
444.8996,246.7
444.9402,109.6
444.9505,545.5
444.9596,82.3
445.1687,335.6
445.179,369.5
445.2325,1286.3
445.5012,379
445.5651,129.5
445.7099,103
445.7637,553.7
445.8633,220.4
445.8914,181.5
445.9418,98.6
446.2531,166.1
446.3162,144.7
446.3405,87.9
446.4929,643.6
446.5776,229
446.6709,312.2
446.8484,395
447.1907,177.8
447.3797,22.1
447.4026,139
447.4778,146.3
447.6373,647.6
447.7035,305.4
447.7252,354
447.741,155.8
447.7854,20.2
447.9335,618
448.0558,146.9
448.0882,695.3
448.131,93.5
448.1691,132.2
448.6256,74.2
448.7199,256.2
448.7747,106.6
448.9332,2157.7
448.9762,250.9
449.0008,550.3
449.1551,2210.6
449.2061,351.6
449.6556,22
449.7221,19.7
449.7346,684.7
449.9722,23.2
450.0637,78.9
450.1587,436.5
450.2378,181.9
450.2808,107.3
450.42,115.8
450.5842,17.1
450.8157,904.2
450.9309,2722.2
451.0312,91.9
451.151,162.5
451.2496,196.4
451.5189,491.2
451.5669,148.1
452.0161,161.7
452.1536,23.3
452.4131,344.8
452.4522,577.9
452.6428,209.3
452.7238,698.3
453.1338,19.4
453.1497,152.5
453.5005,18.3
453.5372,471.7
453.8608,220.1
454.1439,112.4
454.2053,626.8
454.3623,534.1
454.4429,119.5
454.5583,85.7
454.7048,381.8
454.86,734.7
454.9506,39281.3
455.222,19.9
455.352,117.9
455.3694,336.4
455.7853,232.9
455.8567,17.6
455.9534,2985.6
456.0078,647.5
456.254,100.5
456.5132,160.2
456.6108,286.3
456.7006,446.7
456.9008,337.7
456.9478,8982.8
457.2338,9542.3
457.2955,112.4
457.4351,114.4
457.5638,18.2
457.6257,77.9
457.798,130.2
457.8171,126.4
458.0182,658.4
458.0297,665.8
458.1438,239.2
458.1875,192.9
458.2114,307
458.2216,247.8
458.3533,182.1
458.3851,189.7
458.4327,601.9
458.8739,365.6
458.962,3160.8
459.0142,162.3
459.0803,545.5
459.2493,339676.8
459.4691,92.8
459.6324,791.8
460.1366,130.6
460.203,622
460.2526,69413.7
460.3851,177.1
460.5066,449.3
460.9673,78587.6
461.0957,344.3
461.1976,119.9
461.2115,261
461.256,5119.3
461.3219,375
461.3342,744.7
461.629,321.3
461.9526,133.6
461.9708,6084.7
462.4122,605.2
462.4466,462
462.5944,117.3
462.9645,22221.3
463.0209,101.7
463.0399,602.9
463.2304,92
463.2824,130.6
463.3641,604.2
463.5168,256
463.5859,320.3
463.9677,2470.1
464.0669,108.1
464.0971,78.3
464.2294,173.5
464.3001,21.7
464.4731,20.2
464.6029,20
464.751,97.1
464.855,19
464.9039,121.2
464.9795,9986.4
465.273,646.3
465.4875,135.3
465.5921,273.5
465.7255,410.2
465.8309,86.6
465.889,375
465.9816,414.6
466.093,137.2
466.1063,300.9
466.2183,843.3
466.5216,164.7
466.7003,103.7
467.0533,335.6
467.1711,169
467.2639,114.4
467.5299,155.3
467.543,125.4
467.7223,18.1
467.9217,409.9
467.9574,516.8
468.2886,17.9
468.3092,2420.3
468.3323,668.6
468.3964,189.3
468.4679,334.5
468.779,183.9
468.8679,178.4
468.9457,340.6
469.1088,20.6
469.1431,437.1
469.1804,243.5
469.1833,226.1
469.2292,588
469.3962,449.2
469.4542,167.8
469.7585,119.5
469.8068,134.3
469.9905,287.1
470.0477,314.9
470.1464,209.8
470.1844,150.1
470.2263,102.5
470.3113,196.4
470.3263,816
470.5977,716.7
470.7937,191.3
470.82,204.6
470.9244,17207.8
470.9557,586
470.9962,3849.4
471.2539,17.6
471.2843,1256.5
471.7798,161.4
471.9182,413.7
472.5838,559.8
472.5947,386.9
472.6333,83.7
472.642,250.5
472.6757,359.7
472.9219,4128.1
472.932,702.1
472.942,377.5
472.9572,606.6
472.9688,1518.3
472.9791,604.6
473.0342,529.9
473.1511,230.5
473.2651,2381.5
473.3769,602.6
473.4824,535.2
473.9979,784.5
474.2722,731.4
474.7973,80.7
474.8125,133.3
474.8703,150.2
475.0622,123.4
475.0834,407.6
475.1086,322.9
475.1281,251.1
475.1846,125.1
475.2233,17654.8
475.5452,371.6
475.7375,18.6
475.8157,581.9
476.1741,89.5
476.2267,3111.7
476.9413,45658.4
476.99,102.7
477.0415,360.1
477.1308,82.4
477.2225,812.5
477.2967,925.1
477.3756,87.7
477.4273,871.7
477.5725,365.1
477.7222,110.5
477.8127,87.3
477.8679,103.3
477.9039,170.2
477.9449,2955.9
478.0242,417.4
478.3303,35792.7
478.3721,909.6
478.4424,121.5
478.4839,132.3
478.571,265.6
478.6407,776.9
478.6588,137.7
478.7445,92.1
478.75,100.3
478.9249,218.5
478.9385,15280.6
478.9919,113.7
479.0024,109.2
479.3337,6706.3
479.4524,197.6
479.7057,321.9
479.8403,24.2
479.9426,404.9
480.0189,563.9
480.0287,265.8
480.3054,756.3
480.3436,273.1
480.4514,665.4
480.7248,110.5
480.7943,312
480.8609,19
480.9368,424.1
480.9529,2297.3
481.0494,165.3
481.084,629.9
481.0924,906.3
481.1382,352
481.2336,796.6
481.3566,18.8
481.4444,105.7
482.0957,147
482.1695,18.3
482.3607,1356.4
482.4222,86.1
482.6819,18.1
482.6921,18.6
482.7305,99.6
483.0881,30.7
483.1485,309.1
483.2493,132193
483.7525,682.4
484.1048,97.7
484.2175,585.2
484.2527,29294.5
484.2901,683.2
484.6794,158.3
484.7155,721.7
484.795,83.8
484.8313,19.4
484.897,69.8
484.9122,133
485.1756,74.3
485.265,86710.3
485.3419,136.9
485.7455,349.8
485.7746,22.7
485.7903,18.4
485.9649,194.9
486.0117,80.4
486.047,180.7
486.1247,105.1
486.2683,19203.1
486.3944,139.4
486.7645,177.7
486.8983,1363
486.9701,1302.6
487.0652,123.8
487.2374,95.9
487.2806,100602.6
487.7151,21.3
487.7907,436.9
487.8136,674.5
487.8322,364.6
487.8817,130.1
488.1419,97.7
488.284,22139.3
488.443,374.6
488.5142,189.2
488.5447,529.3
489.0329,183.1
489.073,192.3
489.0878,30.6
489.1177,23.5
489.1266,332.2
489.1938,285.6
489.2088,370.8
489.2204,155.7
489.2701,25
489.2881,903.4
489.3203,104.7
489.3294,151.8
489.3942,208
489.4237,610.2
489.456,350.6
489.5927,104
489.9317,320.5
490.0921,25
490.1485,138.8
490.254,532.5
490.2913,5235
490.3057,666.8
490.4368,309
490.4653,185.6
491.2416,133
491.2945,529.3
491.3717,4065
491.5623,452.7
491.8591,193.5
492.1997,119.7
492.2363,76.2
492.3327,81.4
492.3434,87.1
492.3765,754.3
492.3972,450.6
492.494,137.2
492.5426,111.3
492.6446,593.9
492.9151,8131
493.0066,307.5
493.3157,147.6
493.4321,415.4
493.708,362.2
493.9599,159.7
494.085,69.1
494.1796,243.5
494.1953,19.1
494.2232,583.9
494.2574,295.9
494.325,6748.7
494.6409,191.2
494.6763,501.5
494.8955,286.1
494.9128,3250.7
495.3428,101.4
495.4833,102.8
495.5196,385.4
495.7711,593.7
495.9067,297.2
496.3243,129.3
496.3409,423546.8
496.507,150.7
496.5409,71.3
496.6575,308.1
496.812,98.3
497.3442,105529.3
497.4007,20.3
497.4467,116.5
497.9465,170.8
498.1913,259.7
498.2479,20.4
498.2901,19
498.3279,148.6
498.347,6569.9
498.5997,172.4
498.6594,425.9
498.8096,671.6
498.9288,939.3
498.9423,398
499.0707,164.5
499.1394,164.8
499.2229,5396.5
499.3674,143.6
499.4312,129.9
499.6044,657.3
499.705,380
499.7505,18.6
499.9643,162.6
499.9866,567.9
500.0784,18.4
500.2256,962.2
500.2428,18.9
500.3102,541.5
500.5447,311.7
500.6777,25.5
500.7697,19.8
500.7927,693.5
500.8246,655.3
500.9378,91.4
500.974,324.1
500.9884,195.5
501.2386,3361.1
501.2592,784.5
501.2956,788.6
501.3807,205.5
501.8225,274.7
501.8743,78.3
502.0901,88.7
502.1884,829.3
502.243,1251.5
502.3301,19751.5
502.7135,551.3
502.8708,107.3
503.1086,27.9
503.2548,7560.4
503.3337,3995.8
503.3932,602.1
503.7461,635.9
503.9945,194.3
504.0182,78.9
504.0874,96.3
504.3081,1427.1
504.3451,9059.8
504.423,135
504.5248,189.1
504.5689,828.3
504.5845,106
504.9187,457.8
504.9856,518.5
505.2408,600.8
505.381,216.5
505.4121,99.5
505.4828,126.9
505.5069,520.8
505.5326,807.2
505.6527,17.7
505.8942,119.3
506.1189,355.6
506.185,321.5
506.2538,78.4
506.361,10483
506.4989,113.9
506.5923,203.6
506.604,250.2
506.6312,386
506.7085,115.3
506.809,159.2
506.8922,2469.9
506.9194,99.1
507.2493,24291.6
507.3253,79.1
507.4998,429.7
507.5784,22.3
507.6471,115.2
507.8577,144
507.9104,522.1
508.0215,391.3
508.0767,84.6
508.0809,82.1
508.1737,133.7
508.2526,5359.5
508.2753,492.8
508.2878,145.6
508.3773,1201.5
508.6697,143.7
508.7534,111.3
508.7802,119.9
508.8883,1335.6
509.0055,4445.2
509.2653,4673.8
509.5414,125.1
509.7739,557.7
509.9327,76
510.2411,654.2
510.2678,800.6
510.3574,2552.4
510.6248,197.5
510.7921,370.4
510.8867,307.2
510.9037,617.9
510.9471,189.9
511.0533,190.3
511.1261,34.1
511.1691,322.3
511.2093,235
511.7886,407.1
511.9847,440.8
512.0968,681.7
512.2628,119
512.35,20.2
512.9095,15108.4
512.9592,943.8
513.0101,146.3
513.0951,136.5
513.3229,378.7
513.355,774.9
513.3718,337.8
513.5966,135
513.6082,104.2
513.7694,168.3
513.8224,144.8
513.908,547.8
514.0058,468.1
514.4557,105.2
514.6447,201.8
514.796,215.3
514.8599,18.4
514.9065,7043.7
515.0198,663.2
515.0992,678.7
515.3034,695
515.4238,216.8
515.4401,20.9
515.4707,281.2
515.5784,450.2
515.9594,898.2
516.0109,138.7
516.1134,189.9
516.2022,433.2
516.2763,811.6
516.3071,14067.8
516.6029,800.4
516.6171,143.6
516.6566,442.3
516.7896,616
516.8512,641.5
516.9029,407.4
516.9211,1869.6
516.9332,181.1
516.9547,696.2
517.0104,574
517.0667,19.8
517.1313,436.7
517.2273,453.6
517.3116,414.7
517.8122,123.9
518.3229,603767.5
518.4271,142.9
518.446,139.6
518.6887,262.6
518.7191,182.2
518.7356,346.5
518.7797,21
518.9261,30689.9
519.0027,224.6
519.1193,18.1
519.1642,142.1
519.2897,77.5
519.3262,148166.1
519.4591,183.5
519.6152,19.2
519.9293,2234.7
520.341,158894.8
520.5115,655.5
520.9231,17291
521.0633,426.2
521.2045,86.9
521.3291,629.1
521.3443,40773.5
521.5987,73
521.7403,440.5
521.9257,501.3
521.9494,637.9
521.9784,113.4
522.2378,397
522.2827,165.4
522.3265,352.8
522.3566,119060.9
522.5112,164.1
522.7567,18
522.8406,164.6
522.921,2476.9
522.9379,5986.4
522.9686,170.6
523.1795,115.6
523.3599,30115
523.4424,403.9
523.5631,165.2
523.867,341.1
523.9094,66.9
523.923,346.9
523.9389,402.4
524.0083,610.6
524.0233,1137.3
524.0459,279.3
524.0745,838.8
524.2495,46.3
524.3132,18.5
524.3723,163866.5
524.6996,688.7
524.7326,332.4
524.7917,459
524.8761,159.4
524.9016,656.1
524.9355,1572.1
524.9804,407.5
525.0567,133.4
525.0758,301
525.1104,848.1
525.2368,134.3
525.3756,44896.7
525.7646,235.5
525.9998,450.9
526.3307,3832.2
526.3408,21.4
526.3784,791.8
526.7886,627.9
526.9498,1694.7
527.2319,244.6
527.3755,115.2
527.5013,155.6
527.8573,112.7
527.9445,93.3
528.0164,567.9
528.039,19.4
528.0629,502.3
528.2428,150.6
528.3206,26.7
528.6623,585.1
528.8835,6738.4
528.9551,2000.3
529.0024,347.4
529.0601,314.3
529.2004,119.2
529.2644,176.3
529.3114,861.2
529.3687,786.3
529.6168,756.5
530.177,309.5
530.2135,244.1
530.2405,801.5
530.3599,1971.2
530.554,630.6
530.6606,141.9
530.7174,18.4
530.8804,4039.6
531.102,699.6
531.2244,828.4
531.2494,1488
531.2616,121.9
531.5916,396.3
531.7266,184.1
532.1387,384.1
532.2813,2054.3
532.3384,7510.9
532.7424,590.9
532.9671,2457.4
533.3427,1339.2
533.3759,268
533.4163,96.3
533.6539,20.3
534.0353,351
534.0584,151.5
534.2968,166268.4
534.3169,1118.2
534.4814,765
534.6083,204.9
534.6272,96.2
534.6672,18
534.9004,16733.6
535.0108,352.4
535.244,17.6
535.2508,16.5
535.3003,36427.1
535.701,417.9
535.8485,152.2
535.9019,565.3
535.9368,19.6
536.2951,9670.2
536.6547,694.2
536.8972,10798.1
537.1642,728.5
537.3862,453.3
537.4475,214.7
537.7833,84.8
537.8717,20.8
537.9009,1087.5
538.2021,335.3
538.3342,294.6
538.3578,335
538.5065,362.3
538.5166,130.3
538.5964,19.6
538.791,86.6
538.8951,1204.8
538.9131,2074.7
538.9369,270.6
538.9825,745
539.1967,19
539.3294,180.7
539.3676,124.2
539.5792,563.8
539.6249,141.5
539.9156,583.2
540.1291,489.8
540.3062,898.8
540.5006,609.3
540.623,366.7
540.7504,362.6
540.8481,520.8
540.915,938.2
541.0502,366.1
541.2686,160.1
541.3585,97
541.3644,105.1
541.3891,892.6
541.4679,126.6
541.573,505
541.6666,262.5
542.2444,80.3
542.2865,17.2
542.323,223472
542.4027,268.1
542.4686,102.7
542.4925,1095.2
542.5136,470.1
542.6004,104.8
542.8479,247
542.8522,240.3
543.3263,59284.3
543.4032,2039.5
543.7109,164.2
543.7752,336.9
544.0146,334.2
544.1456,18.3
544.2742,972.2
544.3386,171617.2
544.7046,92.2
544.8389,165.9
544.8584,393.3
544.9416,566.7
544.9481,593
545.0287,95.1
545.221,141.1
545.2646,160.8
545.3421,42448.2
545.5028,162.6
546.2884,281.7
546.3543,219782.1
546.3814,280.3
546.6124,675.1
546.7781,729
546.8545,472.1
547.0887,528
547.2733,148
547.3576,58422.1
547.4147,97.1
547.4446,149.8
547.5842,96.9
547.6865,161.3
547.8012,248.5
547.9996,151.4
548.0497,307.4
548.2953,81.1
548.3135,765.9
548.3601,5157.8
548.4199,128.5
548.4657,545.3
548.5249,316.7
548.5873,21.6
548.5994,171.6
548.6363,679.2
548.8107,176.5
549.5275,21.1
549.6871,76.3
549.9936,231.5
550.0723,253.6
550.1387,17.2
550.1519,116.3
550.2578,722.8
550.4224,78.8
550.5445,169.7
550.5677,75.5
550.6949,715.2
550.8739,2860.3
550.8997,19.6
551.0164,250.9
551.1116,151.2
551.1255,387.7
551.2173,229.5
551.2314,314.1
551.315,78.5
551.4324,786.8
551.6222,628.2
551.9537,98.6
552.1807,420.6
552.2837,21
552.6138,278.4
552.6791,545.2
552.8709,2651.6
552.968,448.8
553.1081,227.5
553.4182,287
553.4664,137.9
553.6787,303.1
553.8765,409.3
554.2431,571.4
554.4484,163
554.4744,286.3
555.0103,117.3
555.0916,222.1
555.331,917.2
555.4212,501.1
555.4374,427.9
556.01,366.8
556.0177,408.1
556.4205,512.4
556.4671,145
556.9158,724.7
557.2916,190.7
557.8049,470
557.8903,541.4
558.1091,396.3
558.2969,66971.9
558.8542,247.3
559.1968,173.7
559.2358,130.5
559.3002,13367
559.3169,286.9
559.3246,736.1
559.604,171
559.6279,17.4
559.8282,164.4
560.0372,21.9
560.2261,141.1
560.2959,1844.5
560.3126,41445.6
560.8515,439.2
560.8796,664.9
560.9218,821.3
561.2574,249.3
561.316,11135.6
561.4136,3449.8
561.8567,110.3
562.0666,531.4
562.1237,17.7
562.2442,97.3
562.3114,1730.8
562.3282,57089.3
562.4457,366.2
562.6174,112.6
563.2025,80.8
563.3316,14728.2
563.4297,1677.5
563.9832,125.8
564.1919,658.9
564.3061,531.1
564.3277,691.1
564.3352,780.9
564.4319,979.7
564.7732,166.7
564.889,181.1
565.0432,1282.7
565.3817,502.4
565.4566,345.7
565.7517,156.2
565.7817,683.3
566.2352,19.7
566.323,38631.1
566.4816,566.9
566.7828,106.2
566.8407,293.2
566.964,1438.2
567.3264,8881.8
567.5462,747.9
567.5708,565
567.6095,78.5
567.7383,140.4
568.1663,765.1
568.2549,331.7
568.3389,15906.3
569.3409,1286.8
569.6886,166.3
569.7268,67.3
570.0948,234.1
570.354,876.9
570.3769,399.7
570.416,19.9
570.6959,670.7
570.8676,5808.8
570.9214,418.9
571.2992,372
571.4005,206.5
571.4351,853
571.539,191.8
571.9355,648.5
572.8651,5087.8
572.9822,624.4
573.7312,193.6
573.7793,20.4
574.1918,227.2
574.285,1371
574.3923,586.8
574.8245,631
574.8601,872.3
575.1285,480.2
575.1838,91.2
575.2904,19.5
575.505,8012.5
575.559,642.4
575.6373,20.7
576.2824,4082.1
576.5075,951.1
576.6171,608
576.7102,147.9
576.8849,10564.4
577.0802,95.7
577.1237,99.7
577.1785,407
577.5222,539.7
577.605,1032.5
577.8761,387.4
578.1616,149.2
578.4276,84.5
578.5902,530.3
578.6322,20.4
578.7749,127.1
578.882,8965.9
579.4137,577.4
579.5322,168.6
579.5585,583
579.8424,220.5
579.964,19.2
580.101,77.5
580.422,527.7
580.4352,565.3
580.499,119.9
580.8789,3377.1
580.8972,2434.8
580.9231,21.5
581.1977,108.8
581.7543,285.2
582.0274,265.7
582.0441,118.9
582.0637,356.9
582.297,7841.5
582.3231,1124.5
582.3467,248.8
582.3823,110
582.4114,258.5
582.4426,1203.2
582.4776,638.8
582.8946,891
582.9352,298.7
583.0587,108.4
583.2991,571.7
583.5476,242.3
583.9209,261.7
583.9829,66.7
584.2979,275.2
584.3131,3409
584.4189,126.9
584.5862,665
585.1899,92.7
585.3176,159.4
585.484,102.9
585.5402,147.5
585.5619,110.7
585.607,151.6
586.3112,4775.4
586.8041,100.7
586.8423,2602
586.9139,1305.9
586.9251,594
587.2419,772
587.3013,154.4
587.3899,18.5
587.4647,684.7
587.4902,485
587.8643,202.3
587.9178,216.2
588.156,570.8
588.2657,364.7
588.3925,89.1
588.4739,145.8
588.5208,18.2
588.839,3775.5
588.9096,553.3
589.1607,116.1
589.2302,20.1
589.3174,406.7
589.722,142.3
589.752,102.5
589.9009,80.5
589.948,190.8
590.0267,22.4
590.323,4752
590.9258,1100.4
591.3137,289.1
591.3265,341
591.3941,543.1
591.4131,22.8
591.4591,214.4
591.5652,117.5
591.6554,316.3
591.7816,121.4
591.9787,156
592.0268,537.2
592.2333,620
592.2552,508.4
592.2668,123.6
592.3401,1156.8
592.472,795.3
592.8037,73.4
592.8382,186.2
592.8586,7069.5
592.8881,108.8
593.0716,112.7
593.4331,550.7
593.4776,137
593.4902,97.6
594.0586,19.6
594.2651,132
594.4494,126
594.8558,6985.1
594.9615,20.8
595.0758,139.8
595.1107,21.4
595.1382,211.3
595.5162,108.5
595.8046,22.7
596.0351,476.4
596.066,18.3
596.2827,76.9
596.5889,171.8
596.8181,583
596.8528,1698.3
596.8709,1143.3
596.9422,789.1
597.1049,152.4
597.2141,92
597.4144,81.2
597.426,89.2
597.4511,4149
597.4867,10013.1
597.506,382.8
598.223,137.7
598.3477,231.9
598.4554,1155.9
598.5279,160.9
598.7734,148.6
598.8678,620
598.9691,85.3
599.0028,70.5
599.0282,117.5
599.0912,563.7
599.4648,5091.1
599.5067,827.9
599.9311,285.9
599.9967,255.5
600.0613,84.1
600.1004,125.7
600.2809,1209.4
600.3092,253
600.4638,138.8
600.6731,102
600.9514,728.7
600.9916,126.5
601.2652,688.9
601.4495,93.4
601.4794,95.2
601.5713,211.7
602.2969,787.8
602.3551,756.2
602.5544,174.2
602.8325,76.6
603.0147,601.3
603.1488,228.1
603.1881,417.5
603.3807,108.6
603.5368,199
604.3128,642.5
604.8158,1027.2
604.855,127.5
605.1172,195.1
605.2182,75.5
605.3191,110.8
605.3391,661.1
605.3628,21.6
605.3804,208
605.5163,19.5
605.8174,159.9
605.8707,112.9
605.89,123.3
606.2963,441
606.334,83.4
606.7229,237.6
606.8723,130.1
607.0081,795.4
607.1721,5067.2
607.1936,611.5
607.3032,603.9
607.5878,175.2
607.9869,122.5
608.1751,140.1
608.3622,172.4
608.8322,818.3
609.0544,346
609.2167,143
609.2765,480.8
610.3097,1073.6
610.3384,805.6
610.5477,612.2
610.7351,379.3
610.8292,1411.1
610.8816,131.7
612.3715,116.8
612.4513,20.6
612.5097,151.8
612.8267,411.6
612.8927,20
613.2135,210.2
613.3687,420.9
613.4573,191.2
613.5527,803.1
613.6593,681.2
613.7047,21.5
613.7632,376
613.8759,245.8
614.0453,377.8
614.0828,109.3
614.3765,530.4
614.4544,813.5
614.6222,357.6
614.8306,520.6
615.073,18.9
615.3433,124.2
615.4613,6321.5
615.5659,351.5
616.002,194.1
616.3491,501.9
616.3789,474.5
616.4638,709.5
616.5354,698.7
617.1282,351.8
617.3349,604.5
617.4547,167
617.4764,26762
617.4991,765.4
617.6685,166.7
617.917,75.4
618.2006,92.6
618.2303,204.4
618.2689,381.1
618.4799,8045.9
618.5107,76.6
618.7588,20.5
619.2489,341.1
619.2822,465.9
619.4157,20.5
619.4922,24145.4
619.5156,86.8
619.9122,709.4
620.1188,218.2
620.1883,21.3
620.4952,7209.8
620.7347,481.6
620.8067,20.1
620.9096,21.4
620.9603,792.7
621.088,154
621.307,597.7
621.3481,124.4
621.4363,187
621.4519,2079.1
621.4712,444.7
621.4867,3848
621.8504,22.4
621.865,89.9
621.8961,448.7
621.9645,171.6
622.1848,190.7
622.4907,1226.5
622.5885,164.7
622.6501,73.3
623.1373,26054.4
623.4689,698.6
623.4848,733.2
623.5039,1021
623.736,124.9
623.8237,93.2
624.0199,552.9
624.0885,362.8
624.1409,4484.9
624.3186,173
624.7428,145.6
624.9233,974
624.9957,696.5
625.1085,95.6
625.1199,727.5
625.1463,128.9
625.5127,160.9
626.0328,239.7
626.1125,529.5
626.4739,357.4
626.6869,620.3
626.7848,180.8
626.9452,144.6
627.1153,479.9
627.2123,652.7
627.223,724.7
627.2298,382.3
627.3184,199.1
627.4594,645.7
627.5363,443.4
627.5512,107.8
627.8536,255
627.9929,67.2
628.1239,323.8
628.9276,425.2
629.1541,55175.7
629.549,162.5
629.875,17.6
629.9208,238.9
630.0521,97.2
630.1578,11315.1
630.4512,645
630.8785,247.4
630.9381,432.3
631.0745,313.6
631.1593,663.4
631.2509,624.5
631.3729,187.2
631.5313,630.3
631.9336,192.5
632.0167,898.9
632.077,178.9
632.0927,18.5
632.2999,822.9
632.3649,531.1
632.3868,119.3
632.6413,283.9
632.7172,210.2
632.8246,215.5
632.8562,91.8
633.1486,839
633.1986,185.5
633.4498,2029.4
633.692,86.5
633.7627,136.3
633.8314,110.7
633.9112,93.6
634.7742,276.6
634.8444,2765.8
635.0793,429.9
635.1134,18.9
635.4672,1306
635.4945,395.3
636.0172,342.3
636.1692,135.6
636.2771,90.7
636.4673,430.7
636.8402,3651.8
637.3006,65.7
637.8024,272.3
638.1038,382.3
638.2377,174.5
638.7065,26.6
638.8061,432.4
638.8383,1174.3
638.8531,807.1
639.0937,463.4
639.162,21.1
639.3201,906.4
639.9547,119.9
640.3031,407.4
640.4893,609.9
640.663,92.9
640.7052,551.4
640.7911,104.4
641.4619,117
641.5912,605
641.664,156.5
641.7474,547.1
642.0393,223.6
642.3522,76.2
642.9617,147.8
643.5005,153.3
643.5652,810.5
643.6547,414
643.8551,450.4
644.1048,100.3
644.6423,412.6
645.0108,608.1
645.1189,21948.9
645.1591,20.7
645.2483,276.1
645.3214,654.5
645.3759,673.9
645.4432,143.7
645.5003,148.2
645.6359,107.5
645.952,286.5
645.9837,101.1
646.123,3677.9
646.3307,681.4
646.4174,195.1
646.4305,747.3
646.5226,301.1
646.8572,729.5
647.0973,793
647.1255,1023.7
647.1697,131
647.4507,154.7
647.4587,210.3
647.4632,204.7
647.6567,63.4
647.6702,760.4
647.7158,161.9
648.0092,704.4
648.0404,544.6
648.1886,259.4
648.2231,264.2
648.2289,230.1
648.2372,218.8
648.2632,733.4
648.4382,749.4
648.4796,228.6
648.6455,157.5
648.7777,472.9
649.4914,214.4
650.442,2637.9
650.8179,1155.5
650.9461,19.4
650.9821,615.9
651.1361,61792.7
651.3354,300.7
651.5369,200.8
651.7504,125.1
651.9514,531.8
652.0225,672.5
652.0956,72
652.1396,11830.6
652.4093,167.1
652.5752,778
652.7738,203.9
652.8147,3031.8
652.9455,18.7
653.0426,95.5
653.1125,752.7
653.1335,970.8
653.1409,674.7
653.2872,20.7
653.847,20
654.0821,19
654.1438,122.7
654.1606,523.4
654.2477,494
654.4507,726.9
654.5811,145.4
654.6874,727.6
654.8125,970
654.8407,449.8
656.96,94
657.117,686
657.4419,349.8
657.5827,17.9
657.8244,145.5
658.0455,21.1
658.1792,394.9
658.4009,222.3
658.5442,396.2
658.9251,99
659.0483,364.9
659.3465,669.8
659.785,137
659.8164,479.6
660.04,406.4
660.0823,1795
660.5124,158.2
660.9611,438.3
661.084,12727.9
661.1575,433.1
661.9438,871.8
662.0859,900.5
662.1621,548.4
662.4775,169.2
662.6665,128.8
663.0188,1204.5
663.0452,943.4
663.087,208.3
663.1062,469.9
663.3788,162.6
663.4546,304.5
663.4689,142.1
663.6352,347.4
663.9814,381.7
664.2487,110.6
664.272,17.5
664.4697,1167.5
664.715,622.1
665.0971,18.3
665.391,225.1
665.8141,794
665.9008,167.2
665.9401,18.7
666.3808,19.2
666.4842,6244
666.7942,370
666.8487,74.7
667.1007,32150.8
667.2477,66.7
667.4386,772.7
667.4904,840.3
667.9114,167.5
667.9972,1285.3
668.0604,187.5
668.1047,3031.1
668.2536,20.4
668.4064,169.1
668.4646,239.3
668.4881,177.6
668.7618,199
668.877,151.6
669.1082,816.4
669.3266,614.1
669.7402,21
670.14,622.5
670.3812,382.6
670.4712,227.1
670.6899,370.6
670.8508,98.8
671.212,332.9
671.2277,123.2
671.3234,158.8
671.4448,70.7
671.5488,371.5
672.4235,1479.4
672.5176,20.9
672.541,490.2
672.5998,83.8
672.8061,83.8
673.1181,69425.3
673.2743,107.8
673.5318,779.4
673.6829,271.3
674.1216,12502.1
674.7014,733.7
674.7776,263.6
674.9158,342.9
675.06,20.3
675.0957,242.6
675.1235,798.6
675.5453,12461.2
675.6095,555.3
676.0491,2393.4
676.255,355.4
676.5491,992.6
676.6493,78.8
677.0522,103.8
677.4997,136.1
677.6814,63.3
677.723,176.9
678.0721,132.3
678.1074,119.2
678.1576,202.5
679.3095,552.7
679.4895,87.8
679.8592,618.6
680.0695,171.1
680.0953,826.2
681.1269,76.7
681.4405,667.5
681.5907,512.9
681.6937,259.2
682.0392,355.3
682.0657,8529.8
682.1933,529.6
682.3516,154
682.4397,697.2
682.9129,1239.9
682.9721,95.8
683.0655,8882.1
683.1801,80
683.6494,138.4
683.8244,92.5
684.0155,472.5
684.0691,341.9
684.1897,155.2
684.234,702.7
684.5648,116.4
684.8058,289.5
684.8652,162.3
685.071,245.1
685.1838,17.2
685.2599,111.8
685.4374,4645.2
685.5599,18.8
685.625,355.7
685.7828,105.9
685.8922,166.6
686.0206,560.3
686.4384,284.2
686.8865,19.4
686.9304,148.9
686.9394,182.1
686.9463,198.7
687.013,552.8
687.6575,686.1
687.707,612.3
687.8443,225
687.8644,144.1
688.119,158
688.5069,236.2
688.581,366.5
688.653,290.2
688.8183,18.5
689.0823,23565
689.0916,21445.4
689.5611,3026.7
689.897,726.3
690.0965,1993.2
690.5045,152.1
691.0704,139.3
691.0879,462.3
691.9312,301.8
692.0236,809.2
692.087,71.5
692.6507,124.6
692.8034,531.2
693.1678,79.5
693.1853,130
693.4024,77.6
693.4306,22.3
693.4706,164.3
694.0542,65.2
694.2197,85.9
694.4308,577.2
694.4988,286.9
694.5472,578.7
694.6086,91
694.7763,505.8
694.7999,1032
695.1,45142.5
695.4648,700.7
695.5113,1151
695.624,1044.2
696.1039,7369
696.317,149
696.5816,278.2
696.5874,335.1
696.6865,21.8
696.7031,152.7
696.727,222.6
696.7973,436.1
696.9933,211.6
697.0777,112.6
697.1076,284.9
697.1383,279.2
697.2267,247.5
697.4735,765.2
697.5273,14544.5
697.6414,120.3
697.9573,168.6
698.0299,1421.2
698.5316,3704.2
698.5813,166.8
698.6456,18.8
698.7314,217.2
699.0464,466
699.3517,145.8
699.8849,129.1
699.9505,597.8
700.0533,147.1
700.5499,413.7
700.7193,111.7
700.9973,148.4
701.1529,493.1
701.4767,20.6
701.5304,218.8
701.561,29646.5
701.642,141.2
701.7336,298.5
701.9262,197.2
702.2667,490.3
702.3437,3427.9
702.3751,621.5
702.5644,9223.1
702.7909,159.8
703.3475,316.3
703.5768,88866
703.6471,279.4
704.048,5252.7
704.1124,95.6
704.1934,18.5
704.4486,685
704.5254,1136
704.5801,32972.3
704.6762,660.1
704.6958,18.7
704.8186,620
705.0111,122
705.0569,4942.7
705.2395,369.9
705.4555,356.4
705.5836,2501.2
705.6649,558.3
705.7063,108.6
706.0383,292.7
706.0559,244.8
706.0972,104.5
706.2838,286.5
706.443,762
706.5404,1346.4
706.6538,708
707.5154,120.2
708.056,432
708.2027,224.5
708.26,197
708.5855,163.2
708.6847,116.5
708.7749,384.2
708.9952,20.1
709.1344,600.9
709.3421,146.5
709.9856,161.1
710.1812,461.9
710.2289,480.8
710.5542,96.3
710.7736,428.2
710.9755,213.2
711.0644,16217.6
711.0746,16861.3
711.3829,19.6
711.5431,1309.1
711.71,331.5
711.8453,163.8
712.0784,1024.3
712.1851,115.4
712.2477,553.6
712.5478,844.5
712.7703,408.3
713.1527,563.6
713.3935,138.1
713.7667,715.7
714.0415,71
714.2254,226.9
714.5417,628.1
714.5782,212.8
714.607,420.7
714.963,528.9
715.1076,376.8
715.1306,641.4
715.3378,72.2
715.5646,633.9
716.3824,383.5
716.4067,197.1
716.8522,269.7
716.9322,173.1
717.0819,22374.5
717.1174,246.9
717.553,419.7
718.085,1983
718.5322,259.9
718.6182,766.6
718.8105,569.4
718.8647,168.3
718.9202,595.7
719.1745,575.2
719.3597,163.7
719.4545,187.4
719.4903,296.1
719.616,277
719.7573,130.3
720.0221,614.6
720.15,608.7
720.4724,584.9
720.7286,67.8
721.026,282.9
721.4799,45908.1
721.6016,297.1
721.8635,263.4
722.1537,433
722.4833,14972.8
723.0179,662.7
723.4961,7451.7
723.5429,30698.6
723.653,631.9
723.7219,769.1
724.149,143.3
724.5008,999
724.5194,389
724.5468,10640.6
724.8343,21.8
724.9698,18.6
724.9909,154.8
725.2065,1156.3
725.3058,79.2
725.4028,600.7
725.559,72951.6
725.6129,133.9
725.724,169.1
725.7457,98
725.83,160.2
725.8967,21.3
726.0302,1918.3
726.1706,156.9
726.3263,379.8
726.3582,169.7
726.5619,25989.4
726.6165,19.1
726.981,402.2
727.0301,4164.1
727.2478,178.5
727.5651,3231.8
727.7085,177.3
727.8144,410.3
727.8798,203.6
727.9435,624.8
727.9976,153
728.0221,106.5
728.0417,255.7
728.0681,246.5
728.4281,174.9
728.5213,2575.4
728.6403,350
728.7837,193.9
728.9627,144.6
729.0177,157
729.0377,229.8
729.0694,419.8
729.2682,126.9
729.3824,419.8
729.45,395.1
729.5714,90.2
729.5926,10571.2
729.9191,20.2
729.9719,718.1
730.0134,552.7
730.057,20.6
730.1457,21.9
730.5408,8851.7
730.5962,1000.7
731.0003,501.8
731.0288,733.9
731.0595,672.2
731.101,562.8
731.4074,168.4
731.5019,1098
731.5445,814.5
731.6086,7051.8
731.7229,105.4
732.0654,222.5
732.5561,23968.5
732.589,101.7
732.612,1185.1
732.7799,553.9
732.9718,128.2
733.0462,7955.5
733.0567,8923.6
733.2182,1010.9
733.4428,19
733.559,10029.5
734.0654,930.2
734.1719,18.3
734.5723,5190.6
734.8561,17.1
735.4932,210.9
735.516,237.7
735.575,1477.7
735.6169,148.3
735.7896,112.5
735.9863,87.3
736.0679,123.2
736.1952,198
736.2767,576.9
736.3618,25.8
736.4161,190.6
737.0379,113.8
737.0755,78.2
737.2203,130.9
737.454,8939.7
737.7762,390.6
737.8255,167.1
737.9163,193.5
738.1797,134.5
738.5865,20.5
738.9125,584.9
738.9308,27.2
738.9568,473.4
738.9981,1023.4
739.0377,146.5
739.0642,10722.6
739.1806,126.3
739.4522,202.9
739.5175,3304.9
739.7212,238.9
740.0563,200.4
740.5208,817.1
740.6886,129.1
741.0347,501.5
741.1761,529.7
741.5327,7824.3
742.0075,134.4
742.0438,79.8
742.2993,402
742.3897,461.1
742.5337,2130.4
742.5767,13614.6
742.6076,671.7
742.7433,97.2
742.9899,210.1
743.0192,614.9
743.0437,188.7
743.126,692.5
743.2663,261.8
743.3733,19.7
743.5465,455.6
743.5795,3136.2
743.8446,780.6
744.175,490.1
744.2752,788.4
744.5557,3120.6
744.5924,20712.5
745.2719,17.8
745.3966,101.4
745.4798,20831.2
745.5079,345.3
745.5961,5714.5
745.8243,245.6
745.8402,750.6
745.9797,125
746.4835,4837.1
746.572,1086.1
746.609,2232.2
746.7145,229.4
746.8617,148.1
746.9618,196.2
747.3796,377.4
747.4964,3626.3
747.613,198.7
748.0114,859.8
748.2266,21.7
748.3257,122.5
748.4972,1433.6
748.7561,111.3
749.0125,2886.5
749.1442,666.9
749.3763,257.3
749.4526,259.5
749.5114,5960.9
749.9433,189.4
749.9836,139.2
750.1258,1149
750.3385,18.3
750.517,204.6
750.7393,86.8
750.906,790.7
751.0751,761.3
751.1692,584.3
751.5746,5566.8
751.8269,248.1
751.9852,206.4
752.0029,282.8
752.0217,78.4
752.2591,17.3
752.2968,99.7
752.5027,76.3
752.5224,8086.9
752.5808,1291.4
752.7731,515.2
753.5238,1966.6
753.5902,1829.5
753.7613,181
753.9921,405.1
754.2017,393.4
754.3037,107.7
754.5384,20440.2
755.039,5222.2
755.5414,5168.1
755.6379,853.5
755.7631,130.7
756.1809,499
756.2695,81.1
756.5277,180.9
756.5554,44056
756.7347,20.4
756.7789,193.6
757.1051,188.4
757.1903,523.6
757.4469,361
757.5183,138.2
757.5587,18359.5
757.624,1384.5
757.9014,227.7
757.9379,19.1
758.2269,909.6
758.3984,558.5
758.5716,1063990.3
758.7409,377.4
759.135,20.3
759.3436,708.6
759.5751,466467.9
759.6404,847.8
759.7041,453.1
760.2828,242.3
760.5001,20.5
760.543,20.8
760.5887,251272.9
760.7783,431.7
760.8022,109.6
761.0461,5116.9
761.4557,1988.1
761.5912,125839.7
761.913,196.3
762.288,565.3
762.3224,19.4
762.3944,660
762.4549,517.7
762.5937,26258.2
762.6714,102.3
762.7932,315.8
763.0789,714.1
763.1067,277.5
763.128,371.4
763.1344,376.2
763.2538,131.4
763.4355,217.8
763.4696,800.7
763.5211,149
763.5672,359.3
763.5945,341
763.989,350.8
764.2205,685.4
764.2832,363.6
764.4319,763.2
764.5579,3674
764.9171,170.9
764.9789,1658
765.2586,185.4
765.4137,696.7
765.4862,119.5
766.1011,236.1
766.1579,1437.5
766.5032,521.6
766.5397,1929.2
766.576,33474.4
767.1115,153
767.5419,409.5
767.5792,13483.7
767.6695,263.6
767.7816,21.5
767.8459,262.8
768.0108,354.1
768.0805,114.7
768.2324,432
768.3183,92.9
768.3568,173
768.4019,112.2
768.5543,832.7
768.5926,49638.4
769.4797,1331.5
769.596,24485.4
769.8801,163.9
769.9243,386.8
769.9497,560.6
770.0125,517.6
770.3323,81.2
770.4014,207
770.5127,1750.3
770.5732,355.8
770.5837,330.2
770.609,11203.1
770.9933,6635.5
771.05,828.4
771.3989,74.8
771.4183,114.2
771.4978,1374.9
771.6111,3895.1
771.8716,76.1
771.9098,148.9
771.9458,542.1
771.9954,779.5
772.0609,883.4
772.1374,162.4
772.4923,121.5
772.5869,12601.3
772.6261,147.8
772.7286,335.1
772.7524,21.9
772.9381,193.7
773.4942,86.4
773.5129,1226.2
773.5916,2468.3
773.6403,293.9
773.7943,176.6
773.904,145.7
774.0464,146.3
774.0732,203.9
774.1736,514.6
774.5978,165.6
774.6362,72.1
774.7616,137
775.0341,171.8
775.1258,71.7
775.1526,240.7
775.1919,21
775.6083,745.5
775.6807,325.8
776.3979,20.8
776.5217,1302.9
777.0099,5309.7
777.1206,179.9
777.3051,706.7
777.5455,834
777.744,179.2
777.9071,20.6
778.0953,629.6
778.1271,762.4
778.187,152.5
778.5379,25294.7
778.6636,109.5
778.9595,235
779.0337,314
779.3934,655.5
779.5002,309.4
779.5415,11987.7
779.6429,780.1
780.0397,339.5
780.4129,1475
780.5537,625235.8
780.7343,229.9
780.8867,330.1
781.0939,77.9
781.5572,288274.5
781.7623,633.6
781.7857,132.2
781.8147,203.8
782.2147,95.5
782.3969,103.7
782.5168,606.1
782.5715,598965.3
782.6372,130.1
783.0276,4013.7
783.1164,81.8
783.1473,126.7
783.5747,280663.1
783.7512,78.1
783.8077,795.4
784.0287,304.3
784.5422,551.8
784.5881,281236.1
784.6207,342.8
784.913,364.9
785.0147,96.4
785.2409,406.9
785.2942,160.2
785.3346,328.6
785.3984,995.3
785.4358,110.3
785.5911,144934.8
785.6551,6146.4
785.6966,483.4
785.8067,952.1
786.3931,206.3
786.6034,352432.7
786.6573,1057.5
786.9357,433.5
786.9642,1401.9
787.1995,213.8
787.2519,175.9
787.6065,169123.1
787.6712,578.9
787.7986,813.3
787.9912,521.9
788.5588,7636.1
788.6071,29527.9
788.6225,11525.7
788.7337,1612.7
789.0195,90.1
789.1145,566.8
789.2384,571.1
789.5473,1807.9
789.6237,3797.3
789.7797,21.6
790.0469,700.6
790.1669,138
790.3124,357.9
790.3606,168.3
790.5748,24011.1
790.6247,503.5
790.6854,150.3
791.1194,721.8
791.4182,714
791.4399,664.3
791.4896,213.2
791.5783,7302.1
792.0735,21.5
792.2816,79.2
792.5574,271.1
792.5921,17673.6
792.6812,496.6
792.9534,711.8
792.9838,1269.2
793.0964,162.4
793.596,5467.6
794.239,22.4
794.5107,842.4
794.5714,1295.9
794.6081,42039.4
794.6535,428.6
795.1423,187
795.2344,20.2
795.3867,215.5
795.6112,21768.5
795.8513,359.6
796.5275,120096.8
796.5875,2326.5
796.6255,5844.3
796.8583,674.9
797.1722,390.5
797.2716,192.7
797.4624,146.4
797.5309,48619
797.5699,137.3
797.5905,189.9
797.6279,1053.6
797.6612,82
798.0711,110.4
798.3204,479.9
798.3702,274.6
798.4237,580.3
798.545,21745.7
799.002,986.4
799.0383,124.7
799.4224,83.7
799.5475,6135
799.6695,548
799.7337,155
799.8063,653.5
800.2251,505
800.4229,351.7
800.5281,354.9
800.5648,496.9
800.6833,749.1
800.8621,718.7
801.2247,92
801.3993,94.4
801.6862,100.4
801.9524,808.5
802.1177,691
802.2878,222.2
802.3821,570.8
802.5376,19926.3
802.8425,81.6
803.5418,6260.7
804.0733,184.8
804.5538,285607.4
804.6078,126.9
805.0602,872.4
805.1029,945.9
805.2735,660.1
805.5308,388
805.557,138254.2
805.5916,811.5
805.7598,280.8
806.0192,351.4
806.3982,769.7
806.4386,665.1
806.5709,274972.7
806.6323,189.1
807.0009,201.2
807.2971,973.2
807.4664,386.3
807.5349,310.8
807.574,135184.6
807.6368,317.7
807.9124,22.9
808.1017,1161.9
808.3196,20.7
808.4077,796.6
808.5865,227462.2
808.8251,123.4
808.9647,352.9
809.0616,80.1
809.412,343.2
809.4948,666.5
809.5479,356.2
809.5895,117047.7
809.6566,139.6
809.8994,707.5
810.0832,501.2
810.1394,508.1
810.5092,129.1
810.6036,160838.7
810.9796,297.5
811.1257,262.5
811.4266,356.8
811.487,281.8
811.6066,84457.4
811.6711,13233.5
812.1223,386.2
812.6054,5125.4
812.6213,27393.9
812.6742,3896.8
813.5078,140.2
813.6231,15001.7
813.6877,6902
813.7874,20.2
814.0775,461.7
814.2529,396.1
814.3441,360.9
814.3795,88
814.4218,702.6
814.5727,3589.3
814.626,194.2
814.6892,2377.9
814.8348,400.1
814.868,128.6
815.1353,164.7
815.5456,262.7
815.5763,209.1
815.6879,166.2
815.705,228.5
816.4751,824.9
816.5903,17503.3
816.6327,869.3
817.1084,1389
817.2504,326
817.3013,383
817.5938,6575.8
818.1584,806.5
818.5125,1204.9
818.5617,1252.4
818.6075,3130
818.7923,114.3
818.8668,463.6
819.0072,113.6
819.1088,82.7
819.1336,549.2
819.5157,892.7
819.6082,159.9
819.6834,717.4
819.7159,744.9
820.0315,164.5
820.0568,374.1
820.0794,106
820.1346,215.3
820.5275,58456.2
820.5871,123.8
820.6244,1249.2
820.6693,629.2
821.0343,287.2
821.2177,1127.8
821.5312,26355
821.6292,182.9
821.684,771.7
821.7926,121.3
822.4722,303.7
822.544,25899.2
822.6398,1348.3
822.8654,216.3
823.0262,1009.9
823.0692,470.4
823.0909,805.5
823.4697,254.5
823.5468,11956.5
823.5948,19.4
823.7817,91.1
824.053,290.1
824.3085,456.1
824.4515,632.5
824.5598,26043.6
824.6004,298.2
825.5621,11133.4
825.6521,1467.8
825.8178,1571.4
826.0408,456.3
826.342,19.7
826.5378,835.4
826.5747,175.4
826.6375,87.3
826.8308,74
827.3036,470.5
827.4972,675.4
827.5979,98
827.7552,869.1
827.8149,654.6
828.5537,77081.7
828.5845,97.3
828.6823,499.7
828.877,84.3
829.2188,706.1
829.4484,693.3
829.5575,34689.5
829.9518,787.2
830.0754,164.4
830.1972,747.7
830.2541,1268.9
830.3204,227
830.4817,466.5
830.5056,612.2
830.5704,51004
830.8058,208.9
830.9029,267.3
830.9838,566.6
831.0196,983.4
831.0873,167.6
831.1706,311.1
831.4138,778.8
831.505,512.8
831.573,22979.5
831.6787,299.8
831.872,200.2
831.9308,329.5
832.1434,133.6
832.4769,370.5
832.5857,73498.8
833.0951,232.7
833.4645,781.9
833.589,31368.5
833.6575,1916
833.9534,238.4
834.31,271.2
834.5457,748.6
834.6033,27564
834.6547,965
834.8942,380.5
834.9609,104.1
834.9801,402.8
835.2336,187.6
835.3075,257.9
835.3761,626.1
835.6062,15975.9
835.6683,108.5
835.7053,265.3
835.7426,28.6
835.791,90.3
836.068,247.3
836.6206,3074.1
836.6717,135.1
837.327,106.8
837.5235,542.5
837.6225,1812.1
838.3419,141.5
838.5122,3711.8
838.6203,363.4
838.6563,643.4
838.6727,635.1
839.1351,227.2
839.1552,194.6
839.165,182.4
839.5983,27
840.1658,127.6
840.321,17.8
840.3924,19
840.5198,468.4
840.7811,1460.9
840.8122,860.2
840.8356,1334.1
841.0487,685.3
841.7033,73.5
841.9815,232.3
842.4823,130
842.5412,359.6
842.9399,19.9
843.3233,594.9
843.4407,989
843.6042,96.5
843.8229,217.9
844.5281,10647.5
844.5588,786.1
844.6495,239.3
845.1386,680.9
845.5319,2377.3
846.3738,667.1
846.5439,2502.7
846.8113,707.7
846.8694,372.2
847.2109,1098.9
848.1208,97.5
848.4904,85.8
848.5595,7225
848.5849,267.5
848.8786,21.2
848.9539,88.2
849.5576,2305.9
849.6633,117
849.7035,806.9
850.1283,183.9
850.1589,794.9
850.2681,174.8
850.3177,433
850.3889,331.4
850.5465,688.8
850.5789,269
850.6339,283.7
850.6591,67.3
851.1527,136.4
851.2944,441.6
851.3237,20.6
851.3582,116.8
851.3878,303.1
851.422,922.7
851.4896,983
851.5112,562.6
851.5329,786.1
851.5819,254.3
851.737,461.1
851.8641,307.8
851.9476,595.9
852.0239,207.6
852.1277,27.3
852.4755,333.6
852.807,277.5
853.1137,732.2
853.3344,349.2
853.4325,562.9
853.7694,549.8
854.3037,76.4
854.3292,316
854.4385,141.7
854.5433,404.4
854.5696,276.3
854.6649,1647.2
854.7926,1265.4
855.1904,601.1
855.317,141.3
855.7859,1497
856.0859,354
856.5858,8107.5
857.004,98.9
857.4552,313.2
857.5908,106
857.6744,1275.4
857.7296,114.7
857.7723,628.9
858.0912,107.2
858.152,796.2
858.3672,373.6
858.5455,372.3
858.8031,361.2
859.0724,188.4
859.1902,623.4
859.4124,248
859.5445,189.6
859.6949,223.1
859.7646,722.8
860.1423,1367.3
860.5791,126.1
860.7958,303.1
861.2552,479.3
861.5366,176.3
862.2441,102.7
862.4705,198.3
862.5163,981.8
863.9248,562
863.9778,1054
864.855,128.1
864.951,759.4
865.1475,171.1
865.7195,114.7
865.887,117.7
866.3128,624.4
866.5515,247.5
866.6848,656.2
867.1955,137.3
867.2496,91.4
867.8749,112.5
868.079,1025.9
868.745,76.2
869.0898,667
869.5305,1624.8
869.5898,495.9
869.6135,1311.6
869.6473,937.7
869.6746,331.2
869.7167,431.8
869.745,1608.7
869.778,2744.2
869.801,1824.8
869.8294,1009.2
869.8838,1611.2
869.9396,3703.6
869.9454,3726.5
869.9622,4378.6
870.0008,2877.5
870.0582,1588.7
870.0877,916.4
870.1188,1859
870.2929,213.2
871.1279,20.1
871.5612,797.4
871.5846,194.9
871.8911,688.9
872.2961,93.3
872.4409,1736.5
872.5391,908.7
872.8032,638.5
873.325,150.7
874.1773,266.3
874.3281,173.1
874.8939,613.1
875.0643,1668.3
875.4407,472.4
875.7706,804.8
876.1042,25.9
876.2762,19.7
876.3249,840.8
876.5867,1289.9
876.9008,651.8
877.4223,204.8
877.439,553.2
877.4504,527.1
877.9994,423
878.0885,279
878.3553,80.3
878.4788,378.3
879.3973,1174
879.6764,474.1
879.7488,21.4
880.0676,598.5
880.1623,734.1
880.3785,204
880.5334,392.6
880.6989,432.4
880.7558,1550.9
881.1926,800.1
881.3022,616.8
881.3481,884.3
881.8592,170.8
882.2244,105.6
882.405,598.1
882.5105,990.4
882.5722,136.4
882.5877,79.3
883.1205,235.1
883.3806,130.1
883.5182,1109.3
883.5822,622.6
883.8352,82.3
884.0436,225.5
884.2211,220.1
884.5211,297.9
884.6368,180.4
884.7721,104.2
884.8003,414.4
884.9176,395.4
885.0811,234.4
885.0891,243.4
885.1018,192
885.1911,76.4
885.2211,126.4
885.7118,225.8
885.8025,863.4
885.891,700.8
886.0174,135.2
886.1211,160
886.3101,210.1
886.476,977.5
886.6157,244
886.7982,776.3
887.3037,212.7
887.6078,531.7
888.1517,1961.7
888.2026,209.6
888.3615,96.9
888.4624,259.8
888.5454,715.3
888.577,156.9
888.9311,750.8
889.2593,772.1
889.3424,567
889.4648,593.5
889.62,114.1
889.8541,154.4
890.0585,103.9
890.9017,18.9
890.9281,150.9
891.2838,131
891.2957,138.5
891.4585,102.3
891.6042,574.8
891.8319,103.6
892.3602,154.9
893.1257,227.5
893.3537,303.7
893.6554,124.9
893.7507,115.8
893.8655,186
893.8962,100.2
894.2953,275.1
894.4025,105
894.9728,361.6
895.2165,20.2
895.3164,807.6
895.9951,170.7
896.0819,347.9
896.447,615.7
896.5584,251
896.6634,125.8
897.1961,700.3
897.3893,163.5
897.8625,600.5
898.0247,657.7
898.1003,619.5
898.3482,149.7
898.5283,822.4
898.6342,620.7
898.6671,2219.4
899.1237,138.5
899.6916,138.1
899.789,710.7
899.9538,699.8
900.3329,181.1
900.4666,670.2
900.5586,228.5
900.6026,714.3
900.9693,118.4
901.1904,117.3
901.2305,1567.3
901.9547,1181.2
902.1061,182.4
902.1921,417.2
902.7889,169.3
902.8143,255.8
902.9553,345.4
903.4151,316.8
903.5028,546
903.6865,271.5
903.7889,561.2
904.3258,20
904.6649,221.1
904.9352,99.1
905.0118,529.5
905.3147,353
905.411,219.5
905.6341,241.4
906.1897,95.8
906.8881,270.6
906.9167,247.1
907.0466,161.7
907.1894,3270.6
907.2933,683.3
907.3297,250
907.5467,289.8
908.0964,546.8
908.1815,533.4
908.4084,854.1
909.1443,490
909.2438,1264.9
909.495,843.3
909.8641,464.3
909.9316,216.6
910.0009,535
910.5333,791.1
910.5423,781.1
910.6151,285.8
911.0952,390.4
911.2536,88.3
911.5104,91.8
911.6441,1763.5
912.0086,106
912.3983,594.4
912.4263,1008.2
912.5112,286.3
912.7013,1053.1
912.7773,498.3
912.8984,616.1
912.9882,250.3
913.8478,686.6
913.9479,404.3
914.2696,1540.3
914.5869,206.6
915.4166,85.5
915.4813,633.6
915.5133,1135.5
915.6591,1551.5
915.729,21.6
915.7875,2108.7
917.034,598
917.0994,1051.5
917.2417,318.2
917.3811,839.2
917.4142,445
917.6558,1239.7
917.8338,83.3
917.9381,307.8
918.3251,560.8
918.371,971.1
918.4752,129.1
918.6262,1523.8
918.6892,334.7
918.9692,668.5
919.4275,322.6
919.6407,969.4
920.064,90.7
920.396,134.4
920.7854,216.5
920.7915,218.7
920.9129,683.1
921.0855,237.5
921.1361,1675.4
921.6326,1466.7
921.9693,157.2
922.6358,886.3
922.8257,451
923.059,107.6
923.1286,167.1
923.3378,866.1
924.084,241.6
924.6181,673.9
924.9046,609.2
925.4638,517.7
925.5174,170.2
926.1926,769.7
926.4466,84
926.8524,1906.8
927.3257,320.3
928.0576,126.9
928.1074,289.1
928.3925,80.7
928.7587,90.3
928.924,170.6
929.1028,930.3
929.1393,937.1
929.5236,109.5
929.5558,18.9
929.8249,19.8
930.5223,86.8
930.8138,211.1
930.9899,19
931.8444,168.8
932.3679,209.4
933.4781,587.2
933.686,838
933.7664,591.4
933.8174,341.8
934.7574,1630.6
934.8416,101.7
934.883,139.6
935.0821,20.3
935.35,208.4
935.675,327.2
935.8374,180.6
935.913,103.4
936.1653,1084.3
936.3178,606.1
936.3773,214.8
936.7076,752.9
936.7305,546.5
936.7573,410.5
936.828,2199.4
936.9068,96.6
937.2525,2605.9
937.3484,390.4
937.3657,498.9
937.7147,1278.4
937.7758,22.4
938.3169,951.2
938.5098,938.9
938.7516,151.1
938.9306,361.8
939.0257,130
939.1113,597.6
939.3591,291.2
940.0148,236.3
940.0706,192.3
940.1703,598.9
940.9361,146.7
941.1016,695.8
941.8578,764
942.1074,643.4
942.3404,84.7
943.2265,168.1
943.5439,153.5
943.9195,87.6
944.4475,379.1
944.5339,138.4
944.9312,676.5
944.9774,499.9
945.2852,98.5
945.4779,627.9
945.5182,974.1
945.8524,631.7
946.0104,123.9
946.4143,1592.4
946.4654,638.7
946.9949,130.5
947.0805,183.9
947.1066,121
947.2461,82.6
947.3318,2730
947.4203,631.1
947.7918,182.3
947.9418,810.1
948.0878,1518.1
948.117,1323
948.3693,296.1
948.6124,618.1
948.7253,196.5
948.8132,769.4
948.9848,437.9
949.3439,184.3
949.4002,321.2
949.7247,149.7
949.7859,164
949.9027,177.8
949.9863,178.8
950.1385,246.9
950.2126,746.5
950.3646,108.4
951.044,159.2
951.3559,764.8
951.7154,145.4
951.8593,551.5
951.8661,494.5
951.9863,512.1
952.2335,21.1
952.4538,823.9
952.4892,1076.8
952.7007,672.9
953.0608,20.3
953.3542,202.7
953.403,275.9
953.4827,698.8
954.2983,855.6
954.4961,512.5
954.6543,240.5
954.8565,291.5
954.9106,998.5
955.0082,355.6
955.3051,958.8
956.5165,1010
956.8452,1156.2
957.0952,382.8
957.1266,268.5
957.4204,258.7
957.5516,82.8
957.5634,83.1
957.959,258.1
958.1139,793.4
958.1787,1129.9
958.3816,344.2
958.4888,1150.8
958.6911,432.2
958.7753,2120
958.9623,20.6
959.5319,146.2
959.9065,275.2
959.9318,139.9
960.2999,571.6
960.9505,620.6
961.2358,1246.8
961.4764,94.5
961.51,131.7
961.5514,133.9
961.6803,586.8
961.7744,812.9
962.0147,93.9
962.0561,2996.7
962.5487,75.8
962.6754,912.5
963.0464,542.9
963.1838,948.4
963.2045,923.4
963.4976,73.9
963.6805,1002.9
963.7169,771.4
963.7727,212.9
964.015,107.5
964.4103,625.6
964.5043,427.4
964.6176,308.4
964.791,151.1
964.8668,705.7
964.9869,476.3
965.1688,1386.7
965.2147,865.3
965.2487,734.6
965.5021,163.1
965.5432,865.9
965.6211,258
965.6381,275.8
965.6581,291.8
965.76,864.4
966.278,509.7
966.474,786.9
966.6675,99.6
966.8636,489.2
966.9883,295.3
967.3537,1455
968.0695,186.9
968.1151,153.7
968.2129,395.3
968.7393,410.1
968.7684,308
969.2705,24.7
969.4644,280.4
969.4973,844.2
969.5319,266.2
969.6228,359.9
970.1204,1526.2
970.7424,783.9
970.8306,1067.2
970.8619,17.4
971.2612,712.5
971.2907,82.4
971.3818,1365.7
972.0908,534.6
972.4876,831
973.4233,19.5
973.7535,431.1
974.066,1459.4
974.0977,905.9
974.1279,922.6
974.5386,128.4
974.9165,123.6
975.3731,153.5
975.4204,286.4
975.5575,1310.6
975.7682,613.7
975.8686,314.2
976.3084,937.6
976.6187,848.3
976.6564,761.7
977.1162,690.5
977.6024,128
977.9148,612.6
977.9845,381
978.1563,183.7
978.3048,20.2
978.5771,753.4
978.6941,740
979.1662,625.1
979.2783,678.4
979.5261,152
979.602,899.6
979.7611,102.5
980.1653,374.6
980.5787,255.3
980.739,329.5
981.1825,170.7
981.2258,188.3
982.1839,136.3
982.4342,20.3
982.7791,122.3
983.0446,809.3
983.1374,1242.6
983.3333,700.7
983.5007,641.7
983.8171,621.6
984.3656,200.3
984.5033,403.9
984.615,1361.2
984.996,192.5
985.0549,79
985.3102,850.1
986.088,177.7
986.2017,850.4
986.4464,739.7
986.6301,96
986.726,1093.4
986.7652,762.6
986.9101,1493.8
987.1861,159.2
987.6455,111.5
988.0835,999.1
988.2692,510.1
988.5076,23.5
988.5491,19.3
988.7589,818.2
988.8332,153.4
988.9172,885.4
989.1941,1875.6
989.3266,436.5
989.4395,1167.7
989.4598,128.5
989.6162,915.2
990.1905,98
990.2851,197.6
990.6626,273.5
990.702,833.9
991.0244,188.1
991.0906,523.3
991.3032,232.4
991.4658,117.6
991.533,1128
991.6748,275.2
991.7872,739.4
992.224,869.2
992.6852,139.5
992.8139,243.3
992.925,104.6
993.3173,868.6
993.5312,24.7
993.7249,94
994.044,790.3
994.8286,894.6
995.0692,382.4
995.3713,542
995.5093,19.3
995.9073,223.6
996.0071,1013
996.077,22
996.4391,301.1
996.8109,755.4
996.9419,861.6
997.349,20.7
997.6811,567.9
997.7116,567.8
997.7833,1236.2
998.2191,162.5
998.2845,1851.1
998.3423,751.2
998.7233,20.8
999.0442,781.8
999.2314,313.1
999.371,809.2
999.5662,1064
999.7003,589.6
999.8227,105.6
999.8511,188.1
