SPECTRUM - MS,
1420.RAW,
FTMS + p ESI Full ms [50.00-1000.00],
Scan #: 1-40,
RT: 0.01-1.97,
AV: 40,
m/z,Intensity

50.0231,249
50.0291,700.6
50.0324,82
50.0361,323.1
50.0433,640.3
50.046,330.2
50.0488,85.9
50.0526,69.8
50.0568,119.4
50.0646,140.9
50.0748,665.5
50.094,211.2
50.1008,312.6
50.1155,285.7
50.1273,129.8
50.1422,131.5
50.1437,366.5
50.1474,17.5
50.175,142.9
50.1752,547.5
50.1884,178.4
50.2085,801
50.2242,364.8
50.2279,207.1
50.2311,136.9
50.2428,480.3
50.2477,123.6
50.2481,272.3
50.2616,311.2
50.2635,145.3
50.3038,649.5
50.3163,126.6
50.3235,75
50.3259,477.1
50.3432,528.2
50.3798,119.1
50.3937,15.8
50.4048,92.2
50.4123,21.9
50.4181,333.3
50.4336,418.9
50.4367,256.3
50.4403,131.2
50.4482,121.3
50.4558,288.4
50.4636,197.3
50.4879,77.4
50.4981,104.8
50.5167,167.2
50.521,144.9
50.5222,122.4
50.5776,123.6
50.5801,192.5
50.5902,95
50.6093,467
50.6166,402.8
50.6213,288.8
50.6633,158.9
50.6669,324.5
50.6682,498
50.675,165.8
50.6867,16.2
50.7041,159.6
50.7105,136.7
50.7139,356
50.7148,543
50.7172,73.4
50.7224,95.1
50.7431,97.3
50.7472,242.8
50.757,225.1
50.7581,15.9
50.7604,78.8
50.7932,83.8
50.7965,534.8
50.7977,78
50.8016,125.7
50.8034,672.3
50.8123,388.8
50.8348,628.7
50.8471,398.5
50.8898,65.1
50.8946,15.7
50.8974,128.8
50.8991,522.4
50.906,18.3
50.9384,343.7
50.9425,178.3
50.9646,590.4
50.9649,624
50.9822,435.4
50.989,16.4
51.0039,269.2
51.0063,17.4
51.0145,89.9
51.021,321.5
51.0473,514.4
51.0579,16.3
51.0669,181.4
51.0752,284.6
51.0881,289.7
51.1003,481.3
51.1095,104.3
51.1174,318.8
51.1236,16.7
51.1403,98
51.1856,112
51.1927,16.4
51.2016,16
51.2038,80.4
51.2068,81.7
51.2078,776.6
51.2087,74.3
51.221,131
51.2285,84.8
51.2343,363.5
51.2458,17.1
51.26,339.1
51.2746,74.6
51.2793,198.5
51.3213,213.4
51.3217,457.4
51.3615,332.5
51.3794,610.1
51.3833,140.7
51.3852,643.1
51.4045,127.4
51.4058,234.2
51.4142,621.3
51.4212,86.3
51.4276,119.8
51.4521,102.1
51.4735,535.3
51.4785,168.9
51.4792,238.2
51.4953,270.1
51.4989,267.3
51.5023,86.5
51.5329,208.8
51.5435,357.6
51.5462,359.8
51.5573,80.3
51.5707,112
51.5768,18.9
51.5801,80.4
51.6141,544.8
51.6148,72.2
51.6405,108.2
51.6454,688.6
51.6594,140.5
51.67,18.6
51.6832,118.6
51.6881,288.6
51.6986,480.3
51.7108,451.7
51.7136,283.3
51.719,111.9
51.7248,238.3
51.7341,94.9
51.7607,92.7
51.7862,24.1
51.8048,82.4
51.8123,107.1
51.8247,296.1
51.8401,827.9
51.8487,97.8
51.8507,90.7
51.8544,146.3
51.9153,74.7
51.9216,342.6
51.9282,82.7
51.9333,140.9
51.9384,67.4
51.9403,174.1
51.9555,143.5
51.9573,21.6
51.9631,141.5
51.9697,307.9
51.9759,219.2
51.9771,288.7
51.9902,17.7
52.0027,758
52.0109,18.1
52.0269,394.3
52.0298,222.1
52.0344,310.8
52.044,180.3
52.0486,16.5
52.0546,105.9
52.0571,129.5
52.0587,157
52.0705,473.1
52.0883,99.7
52.0951,110.8
52.1026,269.5
52.1065,125.7
52.115,315.5
52.1216,84.7
52.1439,106.6
52.1516,72.7
52.1557,178.2
52.1608,457.5
52.1646,159.7
52.1652,86.3
52.1754,101.9
52.1809,639.4
52.1861,76
52.2049,70
52.2056,355.8
52.2152,174.7
52.2318,102.2
52.2425,126.8
52.2452,200.7
52.2462,462.8
52.2657,548.5
52.2665,160.9
52.2732,595.3
52.2804,319.6
52.2861,17.9
52.287,17.3
52.2954,452.6
52.3204,456.5
52.3224,205.6
52.3383,94.8
52.3437,362
52.3509,110.1
52.3618,17.2
52.3655,121.2
52.3677,93.1
52.3698,272.4
52.3723,371.5
52.3806,98.2
52.4007,87.3
52.4148,17.6
52.4266,15.9
52.4272,263.1
52.4546,295.5
52.4555,328.6
52.4565,474.7
52.4686,674.6
52.4778,351.9
52.4799,623.6
52.4911,626.7
52.5167,209.2
52.5233,184
52.5444,144.3
52.5496,79.1
52.554,133.8
52.555,198.7
52.5553,189.9
52.5688,227.1
52.5846,274.4
52.588,76.9
52.589,16.8
52.5949,237.7
52.6025,283.1
52.6057,263
52.6158,621.3
52.6305,20.5
52.6421,582.8
52.6444,122.5
52.6572,88.2
52.6898,85
52.6902,133
52.6914,132
52.6993,336.9
52.7099,145
52.7112,166.6
52.7146,752.3
52.7277,763.3
52.7369,367.8
52.7447,233.4
52.773,114.7
52.7936,130.8
52.7939,220
52.7947,1725.5
52.795,1675
52.7954,1485.1
52.7965,1008.4
52.7973,548
52.7977,825
52.7981,1449.6
52.799,2204.1
52.7994,386.5
52.8001,458.8
52.8012,301.3
52.8015,436.3
52.8087,122.4
52.8242,340.1
52.8311,479.7
52.8343,80.6
52.8347,150.8
52.8647,18
52.8689,17.6
52.8695,501.8
52.8833,16.8
52.8935,92.1
52.9041,88.3
52.9547,164.2
52.9567,77.2
52.9729,87.7
52.9738,180.4
52.9757,536.4
52.9812,77.2
52.9844,139.1
52.9882,112
52.9924,18.6
53.0031,766.7
53.0156,114.4
53.0186,82.9
53.0366,448.2
53.0447,554.4
53.0492,258.1
53.0599,299.5
53.063,80
53.0662,752.2
53.069,429.8
53.0757,303.8
53.1097,87.5
53.1127,170
53.1167,312.3
53.1238,71.4
53.1272,16.1
53.1295,83.5
53.1426,559.8
53.1511,694.7
53.1567,237.5
53.1598,121.9
53.1622,17.7
53.173,17.9
53.1734,212
53.1761,384.6
53.1836,91.8
53.2002,651.2
53.2195,91.5
53.228,90
53.23,79.2
53.2641,397.5
53.2788,93
53.2932,481.4
53.3048,448.2
53.3117,65.3
53.3364,108.4
53.338,516.1
53.3469,77
53.3732,366.4
53.3848,111.3
53.4012,568.4
53.4024,386.6
53.4084,18.4
53.4137,361.2
53.4304,405.5
53.4501,17.5
53.4584,322.7
53.4768,349.5
53.4932,530.9
53.5045,148.5
53.5159,105.8
53.5504,15.3
53.5584,83.2
53.581,432.9
53.588,164.5
53.5958,295.8
53.6056,169.2
53.6127,491.7
53.6398,129
53.6522,138.8
53.6634,157.1
53.6802,364
53.6916,87.7
53.6931,320.6
53.6996,144.7
53.7144,101
53.7156,204.2
53.723,16.4
53.7506,293.1
53.7523,79.6
53.764,273
53.7732,312.3
53.7733,436.8
53.7755,69.2
53.7902,84.4
53.794,137.9
53.8052,122.4
53.8085,117.8
53.8124,316.6
53.8182,181.8
53.8193,17
53.8205,262.8
53.8352,282.7
53.8496,129.1
53.852,95.3
53.8557,615.3
53.8617,129.5
53.8679,68.4
53.9027,299.3
53.904,21
53.912,643.2
53.9258,15.4
53.9282,142.5
53.9883,17.4
53.9963,126.2
53.9984,609.6
54.0042,113.9
54.0069,152.7
54.0101,129.3
54.0229,62.5
54.0338,177
54.0556,209.4
54.056,140.1
54.0573,281.4
54.0654,280.7
54.068,82.2
54.0771,14.3
54.0778,127
54.0833,375.5
54.0893,286.3
54.0976,90.5
54.1069,83.5
54.1119,231.2
54.1443,121.4
54.1476,76.1
54.1624,134
54.1784,171.5
54.1988,65.4
54.2052,320.6
54.206,124.7
54.2355,465.7
54.2408,83.6
54.2453,111.3
54.2497,307.4
54.263,89.5
54.2792,75.9
54.2838,150.5
54.3031,75.2
54.307,124
54.308,165.3
54.3157,161.2
54.3238,318
54.3402,141.1
54.3451,17.4
54.3461,165.3
54.364,390.1
54.3644,673.5
54.3908,199.1
54.3932,16.1
54.414,591.4
54.4221,759.2
54.4259,18
54.4378,139.6
54.448,475
54.4689,372.1
54.478,76
54.4925,61.1
54.4978,273.4
54.5132,78.6
54.5216,69.8
54.5538,82.3
54.5601,87
54.5668,18.4
54.5745,168.8
54.5757,75.2
54.5806,16
54.5834,435.6
54.5857,121
54.6027,16.6
54.6047,85.1
54.6296,93.8
54.6461,74.3
54.6587,384
54.6654,80.9
54.6727,519.8
54.6761,16.2
54.6775,147
54.6829,604.9
54.6852,214.8
54.6863,578.7
54.6874,642.9
54.6962,252.3
54.7059,97.2
54.7229,308.9
54.7409,17.4
54.7547,125.6
54.7635,119.7
54.7755,292.9
54.7876,18.1
54.8182,242.3
54.8217,172
54.8667,535.3
54.9219,544.6
54.944,80.5
54.9535,297
54.9615,94.4
54.9645,122.8
54.9665,616.2
54.9709,80.6
54.9721,661.2
54.9797,81.8
54.9837,208.6
54.994,92.7
55.0027,690.2
55.0051,376.6
55.0365,150.7
55.0427,70.6
55.0637,78.9
55.0816,136.4
55.0987,16.1
55.0995,587.5
55.1098,72.3
55.1285,70.8
55.136,20.2
55.1406,434.8
55.1465,475.9
55.1591,141.2
55.184,20.4
55.1856,338
55.1936,17.8
55.1992,104.1
55.2071,121.1
55.2083,105.7
55.2102,342.5
55.233,342
55.2357,141.2
55.2362,553.3
55.2857,75.3
55.2862,16.8
55.2992,147.8
55.317,79.7
55.329,584.2
55.3349,204.2
55.3424,126.3
55.3428,243.8
55.3731,89.1
55.3785,683.9
55.3889,112.3
55.3952,22.6
55.4208,204
55.4443,18.4
55.4617,160.7
55.4649,16.8
55.471,122.1
55.4867,348.3
55.4871,100.2
55.4898,266.8
55.4993,17.7
55.5144,78
55.5267,351.5
55.5412,89.6
55.5449,193
55.5489,469.5
55.5583,108.6
55.5589,16.6
55.563,464.1
55.5837,80.8
55.5967,287.4
55.5985,107.4
55.614,166.4
55.6197,96.4
55.6243,16.6
55.636,68.7
55.6578,192.4
55.6684,107.4
55.6713,143.6
55.6803,310.5
55.6845,74.3
55.6881,458.5
55.727,169.3
55.7355,281.8
55.7415,66.5
55.7448,84.1
55.7524,397.1
55.7562,336
55.7812,176.5
55.7966,144.2
55.803,446.1
55.81,105.8
55.8197,218.1
55.8273,87.2
55.8408,19.4
55.8476,167.6
55.8545,552.9
55.8616,90.3
55.8694,687.5
55.8739,140.1
55.9117,121.8
55.9132,97.1
55.9384,538.1
55.9406,317.6
55.9478,551.7
55.9522,18.3
55.958,120.4
55.9589,88.5
55.9707,248.3
55.9718,18.8
55.9728,345.7
55.9779,127.3
55.9903,504.5
55.9931,16.9
56.0073,264.9
56.0266,283.2
56.0487,105.6
56.0494,650.8
56.0636,289.5
56.0828,168.5
56.0906,108.3
56.0926,79.9
56.0937,255.2
56.102,19
56.1074,16.3
56.111,340.9
56.1176,316.4
56.126,89.8
56.1439,108.4
56.16,15.7
56.1768,715.9
56.2052,629.2
56.2069,320.4
56.2211,130.3
56.2531,15.9
56.2608,135.1
56.2702,197
56.2753,115.8
56.2786,70.1
56.3037,130.4
56.3064,134
56.31,81
56.3237,130.9
56.3278,96.6
56.344,76.3
56.3646,681.2
56.3828,73.6
56.4196,127.2
56.4254,72.8
56.4328,92.3
56.4399,458.5
56.4426,98.1
56.4441,125.5
56.4451,425.4
56.4654,102
56.4789,109.2
56.4802,695.8
56.4807,174
56.4866,164.6
56.5412,374.7
56.576,78.4
56.5981,16.3
56.6038,139.6
56.6073,120.8
56.6097,84.3
56.6196,107.9
56.6274,106.4
56.6318,264.6
56.6396,252.6
56.6765,81.1
56.6877,89.7
56.6884,253.9
56.6915,296.9
56.7073,295.8
56.7092,95.7
56.7111,17.6
56.7271,90.2
56.7298,640.2
56.7466,628.2
56.7503,182.6
56.7561,328.8
56.7633,180
56.7695,115.1
56.7878,771.9
56.794,448.7
56.8468,92.7
56.8493,330.9
56.8847,117.3
56.8999,328.5
56.9043,460.9
56.9361,274.3
56.9471,339.8
56.9558,16.3
56.961,318
56.9618,133.3
56.9728,80.9
56.9839,407.8
56.9935,96.8
57.011,698.2
57.0209,156.6
57.0238,128.2
57.0279,17.7
57.0619,795.1
57.0648,135
57.0674,99.1
57.0925,326.9
57.0988,96.9
57.1147,525.2
57.1239,126
57.1643,105.6
57.2037,16.6
57.2104,667.4
57.2178,314.4
57.222,192.5
57.2318,606.3
57.2346,272.8
57.2352,16.6
57.2432,535.3
57.2451,100.7
57.2601,160.5
57.267,109.9
57.2841,115.9
57.2945,174.9
57.3614,19.9
57.3638,150.5
57.3815,346.9
57.4126,299.5
57.4134,67.3
57.4158,314.1
57.4228,374.6
57.4651,297.2
57.5034,70.2
57.5264,720.4
57.5405,120.6
57.5519,17.6
57.5597,273
57.5748,516.5
57.5893,364
57.6172,316
57.6204,492
57.6516,594.1
57.6736,374.6
57.6756,98.8
57.6806,272
57.6869,215.5
57.6889,174.9
57.6901,227.8
57.7203,312.1
57.7226,145.3
57.73,164.1
57.7307,407.4
57.7369,409.3
57.741,349.4
57.7825,16
57.7907,93.6
57.7926,15.7
57.8001,333.3
57.8113,114.6
57.813,72.9
57.8366,74.7
57.8449,19.8
57.857,88.7
57.8582,177.1
57.8692,17.8
57.9009,403.1
57.9024,66
57.9057,23.1
57.9169,290.9
57.9353,168.8
57.9406,269.2
57.945,93.3
57.9606,413.9
57.9683,138.8
57.9759,156.7
57.9791,152.4
58.0025,657.9
58.0255,134.3
58.0376,136.5
58.046,17.5
58.0471,292.6
58.048,95.2
58.0487,95.7
58.0641,442.3
58.1028,142.7
58.1221,348
58.1327,126
58.1428,223.7
58.1494,295.7
58.1895,16.1
58.1919,340.3
58.2139,83.9
58.2167,444.9
58.2219,535.8
58.2261,332.1
58.2325,342.3
58.2366,390
58.2509,85.6
58.284,97
58.3064,149.3
58.3099,486.3
58.3206,130.4
58.3254,351.8
58.33,593.6
58.3435,276.7
58.3547,16.7
58.3827,15.5
58.389,348.1
58.4247,216.5
58.4296,144.9
58.4303,108.2
58.4408,67.9
58.4415,96.3
58.4587,89.4
58.4735,103.7
58.4861,113.4
58.4881,697.7
58.4974,325.4
58.523,129.9
58.5271,211.2
58.5286,412.8
58.5475,173.1
58.5523,215.6
58.5592,349.7
58.5602,89.1
58.6085,136
58.6144,74.4
58.6206,113.3
58.6534,20.4
58.6544,99.7
58.6572,19.4
58.6593,78.3
58.6733,137.1
58.6903,88.3
58.7097,582.8
58.7188,333.9
58.7274,17
58.7287,518.1
58.735,83.4
58.7417,150.7
58.7443,166.6
58.7454,229.3
58.7633,325.8
58.7638,515.7
58.7854,97.6
58.7864,101.2
58.8083,177.1
58.8104,139.4
58.829,341.4
58.8411,155.9
58.8496,100.2
58.857,93.2
58.8607,18.5
58.8771,226.4
58.8804,374.8
58.8839,604.5
58.8947,515
58.8957,101.1
58.8966,68.5
58.9117,118
58.9227,75.7
58.9264,208.8
58.9281,17.3
58.9458,266.2
58.9465,355.9
58.9544,308.4
58.9587,126.9
58.9712,71.8
58.9753,504.8
58.9812,298.1
58.9863,629.2
59.0009,110.3
59.0022,127.1
59.0051,446.5
59.0149,677.6
59.0305,219.7
59.0367,20.9
59.0456,88.4
59.0524,890.9
59.0536,436
59.0543,148.1
59.0937,184.8
59.095,182.2
59.1067,86.7
59.1171,89.9
59.125,82.5
59.1357,101.2
59.1384,688.1
59.1402,83.9
59.142,79.1
59.1545,556.7
59.2062,570.2
59.2074,114
59.2167,183.1
59.2184,243.2
59.2467,264.6
59.2592,329.1
59.2716,179.9
59.2934,82.3
59.2961,122.5
59.3017,18.4
59.3038,520.4
59.3174,416.2
59.3235,18.1
59.3487,156.5
59.3509,85.8
59.3748,162.1
59.3818,97.4
59.3839,133.5
59.3845,351.3
59.3908,193
59.3953,92.8
59.4197,86
59.4291,334.6
59.4433,713.5
59.4474,191.3
59.4497,83.6
59.4649,314.4
59.4843,433.4
59.4857,241.5
59.4897,414.4
59.5227,315.4
59.5357,17.1
59.5605,84.3
59.6214,323.6
59.6221,132.3
59.6319,598.1
59.6419,109.9
59.6615,69.3
59.6662,100.7
59.6733,342.1
59.6766,66
59.6798,727.4
59.6864,626.2
59.703,377.7
59.7167,122.9
59.7337,90.2
59.747,328.3
59.7654,465.1
59.7667,345.8
59.7727,72.6
59.7762,352.6
59.7855,303.1
59.7966,76.6
59.8036,104.3
59.8366,416.5
59.84,16.2
59.8482,560.2
59.8564,264
59.8587,260.5
59.8749,525.5
59.8905,120.3
59.8931,329.8
59.8952,81.4
59.8958,18.3
59.8975,16.7
59.9128,17.6
59.9294,814
59.9536,322.7
59.9683,20.3
59.9734,88.4
59.9746,138.2
59.9753,95.5
59.977,122.3
60.021,76.3
60.0494,330.2
60.0555,487.4
60.064,634.1
60.0686,402.2
60.0819,615.8
60.1007,106.3
60.1139,724.7
60.1303,408.2
60.1427,103.1
60.1499,637.6
60.1508,132.8
60.1688,90.3
60.1984,628
60.2024,116.5
60.2065,94.1
60.253,133.8
60.2542,345.3
60.2558,87.9
60.2631,357.3
60.2745,104
60.2991,151.5
60.3068,364.5
60.3197,413.2
60.3239,394.7
60.3317,682.2
60.3707,76.6
60.3928,313.6
60.4151,168.8
60.4201,551.7
60.4317,114.3
60.4383,128.4
60.4489,563.9
60.4572,351.5
60.4573,312.2
60.4615,86
60.4658,276.9
60.469,175.3
60.5167,158.5
60.52,102.2
60.5477,276.6
60.5521,118.5
60.5577,245.4
60.56,475.8
60.5658,325.8
60.5802,192.1
60.6007,365.3
60.6018,428.4
60.6033,79.1
60.6061,215.8
60.6138,212.6
60.6154,134.4
60.6273,164.4
60.6308,16.6
60.639,812.1
60.6449,122.7
60.6606,535.6
60.6787,342.6
60.686,108.1
60.7119,420
60.7167,369.8
60.7354,118.1
60.75,153.2
60.7664,233.4
60.7697,104.9
60.777,66.8
60.7818,16.7
60.7885,424.7
60.7932,235.8
60.829,175.3
60.8302,1032.6
60.8334,295.6
60.8506,334
60.8609,21.9
60.8669,654.4
60.8747,158.6
60.8846,754.7
60.8923,264.2
60.9007,105.6
60.9028,466.5
60.9106,526.7
60.9343,238.3
60.9479,107.5
60.9778,337.5
60.9971,256.6
60.9974,248.6
61.0006,110.4
61.0047,96.8
61.0578,430.4
61.0612,99.7
61.0643,203.9
61.0716,17.4
61.0741,159.7
61.0913,92.8
61.0948,111
61.0954,171.5
61.1061,263.7
61.131,84.8
61.133,218.8
61.1414,202.9
61.1436,247.1
61.1741,531.8
61.2019,19
61.254,219.2
61.273,545.3
61.2928,131.2
61.316,76.9
61.3219,303.7
61.3275,127.3
61.3308,103.2
61.3418,121.2
61.3639,118.2
61.3703,566.2
61.3809,297.4
61.3955,100.2
61.4138,263.9
61.4492,120.7
61.4548,169.2
61.4681,121.1
61.47,83.8
61.5194,232.9
61.5206,91.5
61.5215,115.1
61.5436,138
61.5475,428
61.5773,114.2
61.5784,269.9
61.5841,76.7
61.591,112
61.6029,230.6
61.6091,334.9
61.6264,433.1
61.6484,637.4
61.662,124.2
61.6654,18
61.6792,518.3
61.6921,269
61.6932,68.7
61.6939,250
61.6983,366.6
61.6989,18.3
61.7018,523.8
61.7088,613.4
61.7282,267.4
61.7392,86
61.7436,358.4
61.7489,79.8
61.7712,462.9
61.7909,89.4
61.7962,596.7
61.7989,20
61.8063,329.6
61.83,485.9
61.836,126
61.8415,514
61.8563,92.3
61.861,175.2
61.8655,368.5
61.9144,249.1
61.9319,115.6
61.9438,16.5
61.9493,99.3
61.9508,162.1
61.966,351.6
61.9921,499.6
62.0124,90.2
62.0237,378.9
62.025,80.4
62.0479,349.3
62.0774,153.7
62.0896,180.8
62.0907,237.9
62.1056,98.8
62.1183,122.9
62.1204,78.8
62.1431,128
62.1634,271.7
62.1721,99.3
62.177,340.5
62.1815,653.5
62.1832,242
62.1957,77.6
62.1994,305.8
62.201,66.6
62.2251,115
62.2489,94.9
62.2548,223.5
62.264,279.7
62.267,15.9
62.2773,90.6
62.2783,213.1
62.2886,106.2
62.2999,80.9
62.3224,612.3
62.3376,17.3
62.3397,18.2
62.3548,668.2
62.3598,167.8
62.3634,634.3
62.393,285.2
62.465,135.6
62.4726,131
62.505,95.2
62.5162,430.9
62.5249,250.3
62.5316,561
62.5386,16.5
62.5397,15.6
62.5566,318.2
62.5751,639.6
62.5757,80
62.6023,459.6
62.6387,492.3
62.6448,68.6
62.6538,738.1
62.6608,151.5
62.6932,457.3
62.6999,748
62.7189,64.9
62.7233,246.1
62.7244,113
62.7335,117.3
62.7609,138.6
62.7616,17.2
62.772,92.3
62.7886,207.1
62.8117,482.7
62.8212,346.4
62.8242,524.2
62.848,221.7
62.8513,682.6
62.8703,73.7
62.8719,294.1
62.8729,179.2
62.886,128.6
62.9003,505.9
62.9032,15.7
62.9056,112.1
62.9158,88
62.9297,106.3
62.9547,136.3
62.9726,132.7
62.9811,152.8
62.992,205.9
63.0292,305.7
63.0516,715
63.0614,349.8
63.0699,17.3
63.0864,114.8
63.1001,128
63.1068,153.5
63.1225,109.1
63.1245,230.3
63.1404,381.9
63.141,108.4
63.1566,588.9
63.1631,275.5
63.1795,330.3
63.1812,403.1
63.1984,19.6
63.2251,340
63.2314,104.3
63.2412,119.4
63.2435,163.3
63.2496,160.6
63.282,645.3
63.2947,69.2
63.2959,18.1
63.2984,82.8
63.3122,98
63.3161,368.1
63.3452,128.1
63.3467,285.4
63.3565,515.3
63.3598,294.5
63.404,97.4
63.4127,468.3
63.4306,475.3
63.4434,343.7
63.4577,529.8
63.4602,90.5
63.4712,95.8
63.473,421.3
63.4793,100.9
63.4838,168.1
63.4917,96.6
63.4992,478.5
63.5317,95.4
63.536,391.7
63.5481,149.8
63.5526,179.2
63.5592,23.2
63.5664,92.3
63.5951,177
63.6061,673.8
63.6091,91.8
63.6095,290.4
63.6105,689.6
63.6154,423.9
63.6271,305.5
63.6454,410.1
63.6482,73.9
63.6702,191.4
63.6781,718.5
63.6882,461.5
63.6963,97
63.6994,90.2
63.7197,81.3
63.7265,232.1
63.7324,86.7
63.7353,421.5
63.7487,500.7
63.7793,15.2
63.8254,523.2
63.8275,547.7
63.8289,90
63.8409,98.3
63.8525,102.6
63.8818,136.9
63.8875,112.9
63.9045,104
63.922,607.4
63.9462,196.3
63.9653,24.5
63.9707,17
63.993,72.8
63.9949,414.5
64.0144,595.8
64.0153,70.9
64.0274,16.6
64.0496,267.7
64.071,68
64.0738,453.3
64.0967,17.3
64.1587,19
64.1661,522.6
64.1679,97.6
64.1714,101.5
64.1854,16.2
64.1933,730.5
64.1956,78.1
64.2063,159.6
64.2103,640.5
64.2166,208.3
64.2273,535.1
64.241,181.9
64.243,586.9
64.2488,122.8
64.2574,186.1
64.2577,492.5
64.2627,94.4
64.2976,266
64.3075,95.6
64.3106,258.3
64.32,139.8
64.3363,128.8
64.337,189.9
64.3498,500.9
64.3503,101.1
64.355,643.5
64.3803,98.7
64.3825,77.3
64.3872,154.1
64.4142,476.1
64.4175,175
64.4811,672.1
64.4857,200.4
64.4899,137.6
64.5089,206.2
64.5144,174.3
64.5304,18.9
64.5439,116.8
64.5548,19.9
64.5619,127.2
64.5704,226
64.5729,115.1
64.5737,375.2
64.5764,121
64.5832,264.6
64.5835,266
64.5836,284.6
64.6351,321.2
64.6554,111.8
64.6729,304.9
64.6859,724.4
64.6876,540.3
64.6994,88.6
64.7123,538.3
64.7198,17.8
64.7262,614.6
64.7422,88.1
64.7457,275.8
64.7476,84.4
64.7723,15.8
64.791,19.5
64.7995,346.4
64.8101,559.7
64.8175,77.8
64.8335,284.9
64.836,143.9
64.8512,606.4
64.8781,66.7
64.8891,333.6
64.8911,745.9
64.8964,150.4
64.9097,81.6
64.9251,142.5
64.9382,777.3
64.9469,334.1
64.9584,187.5
64.9693,644.1
64.9833,127.9
64.993,396.8
64.9938,189.2
64.9988,75.3
65.0003,140.3
65.0013,370.9
65.0412,426.3
65.0418,104.4
65.0541,499.8
65.0718,95.4
65.0788,80.5
65.0835,671
65.084,451
65.093,67.4
65.1122,83.8
65.1144,103.2
65.1216,541.2
65.1405,20.3
65.1438,101.4
65.1617,19.5
65.1851,133
65.1962,137
65.1981,121.6
65.2073,331.6
65.2283,102.1
65.2469,213
65.2544,165.2
65.2635,364.9
65.2844,173.2
65.3104,136.6
65.3128,195.7
65.3199,17.9
65.3384,81.5
65.3534,87.9
65.3552,494.6
65.3632,16.6
65.3826,506.6
65.3866,197.1
65.3897,16.1
65.3899,15.3
65.3983,18
65.4035,86.3
65.4084,336.6
65.4273,183.3
65.4303,199.9
65.4346,79.9
65.4484,201.7
65.4487,213.9
65.4721,19.7
65.4794,237.1
65.4811,146.4
65.4853,194.4
65.4892,396.1
65.4947,234.8
65.502,265.8
65.5069,124.7
65.5284,323
65.5297,397.4
65.5314,129.2
65.5367,666.9
65.5522,17.7
65.5832,373.7
65.6011,270.7
65.6066,162.8
65.61,173.2
65.611,733.7
65.6143,85.4
65.6286,334
65.6577,430.8
65.6618,155.6
65.6629,277.2
65.6655,648.9
65.6887,329.7
65.6906,108.3
65.7068,182.7
65.7164,451.6
65.7196,738.4
65.7417,607.7
65.7655,96.9
65.785,451.5
65.7936,157.3
65.8032,209.7
65.8138,111.2
65.8221,363.8
65.8253,414.9
65.8283,154.7
65.8417,163.1
65.8567,125
65.8772,362.6
65.8802,138.7
65.882,272.2
65.8874,291.4
65.9069,100
65.9225,72.1
65.9392,319.4
65.9577,452.5
65.9594,486.4
65.9782,158.3
65.9829,184.8
65.9833,400.2
65.9927,841.2
65.9958,288.4
65.9972,83
66.0764,509.9
66.0829,69.3
66.0862,18.6
66.0959,341.1
66.1097,334.2
66.1415,21
66.1493,112.2
66.1614,18.4
66.1665,75.9
66.1758,180.2
66.1895,189.3
66.1912,344.5
66.1921,159.2
66.1956,248.8
66.2102,99.9
66.2156,18.5
66.2241,589.6
66.2515,268.9
66.2666,336.4
66.287,85.3
66.3164,265.6
66.3465,212.7
66.3527,121.2
66.36,215.5
66.3613,414.8
66.3648,302.8
66.3673,575.6
66.3732,151.3
66.3769,81.6
66.4192,307.1
66.4523,100.8
66.4729,427.8
66.5039,288.4
66.5264,144.7
66.5831,376.6
66.5894,631.6
66.5989,535.8
66.6254,411.6
66.645,76.5
66.6778,149.6
66.6864,122.8
66.7113,642.6
66.7148,495.8
66.7428,459.8
66.7608,273.3
66.7842,143.9
66.7932,93.5
66.8065,685.3
66.8129,451.1
66.8186,96.5
66.8216,215.6
66.8254,90.2
66.8271,212.3
66.8273,249.5
66.8275,195.7
66.8353,90.8
66.8487,83.7
66.8894,79.1
66.9118,134.7
66.9124,260.8
66.9336,86.3
66.9946,459.9
67.054,174.2
67.0709,311.1
67.0793,334.1
67.0936,160.9
67.099,204
67.1074,154.9
67.2033,97.8
67.2362,19.4
67.2388,146.5
67.2397,319.4
67.2411,613.4
67.2552,87.5
67.2848,216.6
67.3058,182.6
67.3119,122.7
67.3187,365
67.3325,101.7
67.3489,86.3
67.3628,67.7
67.3651,84
67.3768,125.9
67.3817,130.4
67.3905,99.7
67.3933,84.5
67.4163,18.7
67.4186,96.6
67.425,69.1
67.4485,139.6
67.4559,97.7
67.4657,280.4
67.4918,108.5
67.536,89.1
67.5497,120.3
67.5602,640
67.5628,300
67.5928,387.5
67.6082,18.9
67.6099,175.1
67.6716,96.9
67.6763,177.3
67.677,94.4
67.6804,110.5
67.6865,96.1
67.6893,107.9
67.6922,227.2
67.7358,173.5
67.7478,208.3
67.752,16
67.7632,81.3
67.7773,143.9
67.7873,631.3
67.7874,622.4
67.8054,503.1
67.8269,504.5
67.8313,80.3
67.8419,132.9
67.8701,69.3
67.8707,402.1
67.8855,152.8
67.9144,17.5
67.9468,361.2
67.9795,176
67.9813,690.6
67.9869,208.9
68.0136,535.9
68.04,19.7
68.069,344.6
68.0788,551.7
68.0811,216
68.0903,164.7
68.138,81.2
68.1828,215.2
68.1862,655.4
68.1944,20.8
68.2004,622.1
68.2146,83.8
68.2182,97.8
68.2184,82
68.2187,91.4
68.2252,102
68.2375,244.5
68.263,635.2
68.2777,420.9
68.3025,270.1
68.3473,71.8
68.3938,328.2
68.402,111.1
68.4126,154.7
68.4248,102.1
68.4331,175.5
68.4769,449.1
68.5293,69.6
68.5339,85.3
68.5383,160.5
68.551,288.7
68.5582,19.2
68.5996,174.2
68.6152,204.3
68.6467,342.8
68.6776,593.6
68.6791,91.3
68.6921,418.3
68.7166,641.7
68.7197,182.7
68.7247,476.6
68.7292,292.3
68.7467,108.6
68.748,419.4
68.7669,154.6
68.7677,124.5
68.8193,142
68.8201,270.5
68.918,479.1
68.9444,229.1
68.9699,320.3
68.993,157.4
69.0047,131
69.0114,196.6
69.0166,488.1
69.0221,106.3
69.024,104.2
69.0264,110
69.0424,97.1
69.0449,735.1
69.0632,173.8
69.0818,16.8
69.0967,141.1
69.0976,444.6
69.0982,83.3
69.1007,113.3
69.1246,652.6
69.1322,65.2
69.134,207.2
69.1416,18.9
69.1444,124.2
69.1568,276
69.1627,87.3
69.1825,304.5
69.2141,71.6
69.2442,142
69.2514,85.6
69.2547,105.1
69.2766,437
69.2808,689.6
69.285,357
69.3034,18.5
69.3203,134.1
69.3301,203.9
69.3657,177.5
69.3776,596.7
69.3835,200.4
69.3935,107.9
69.4598,158.9
69.4666,408.6
69.4779,462.8
69.4812,21.3
69.4896,95.8
69.5126,217.7
69.5187,17.9
69.529,277.4
69.5297,112.7
69.5424,77.8
69.5675,715.4
69.5848,582
69.5941,619.8
69.6076,216.8
69.619,80
69.6244,169.2
69.6321,469.5
69.6579,167.3
69.6746,16
69.6779,513.8
69.6786,220
69.6943,479.2
69.6963,320
69.7293,537.2
69.7407,117.3
69.7878,85
69.8022,89.6
69.8243,661.1
69.8246,713.8
69.8247,654.9
69.8273,96.1
69.8308,327.7
69.8583,418.5
69.8683,202.2
69.91,305.6
69.9123,20.7
69.9255,96.5
69.9456,136.6
69.9623,97.1
69.9645,18.7
69.9673,121.8
69.9726,99.8
69.9973,440.1
70.0073,198.4
70.0088,302.7
70.0261,126.2
70.0332,285.8
70.0391,65.6
70.0445,430.3
70.0624,249.3
70.065,1726.2
70.0733,99.3
70.0852,591.9
70.0956,117.4
70.1448,119.5
70.1612,120.2
70.1801,199.4
70.1857,131.3
70.1885,402.3
70.2018,19.3
70.2194,429.7
70.2391,129.1
70.271,67.8
70.2757,855.5
70.299,253.5
70.3135,17.4
70.3344,545.1
70.3457,167.6
70.3519,19.5
70.3696,339.8
70.3809,17.3
70.3991,115.6
70.4038,564.5
70.4077,125.6
70.4277,162.7
70.4479,17.5
70.4492,83
70.4499,107.7
70.4598,203.9
70.4833,137.9
70.485,119.9
70.4935,251.6
70.5224,95.8
70.5245,370.9
70.5288,85.6
70.5446,180.1
70.5636,103.8
70.5676,215.2
70.5736,395.8
70.5844,162
70.5914,347.8
70.5933,112.7
70.6004,93.3
70.6027,363.2
70.6059,89.4
70.6087,127.2
70.6098,523.3
70.6155,263.1
70.6265,133.7
70.6279,17
70.6318,69.9
70.6492,137.6
70.673,18.1
70.6752,16.9
70.679,324.9
70.6819,111.6
70.7188,90.5
70.7468,171.5
70.7529,83.5
70.7654,129.8
70.7852,524.7
70.8077,235.4
70.8264,354.3
70.8504,603.4
70.851,214
70.8529,71.7
70.8553,105.9
70.8585,126
70.904,225.2
70.905,344.3
70.9069,130
70.9098,95.5
70.9126,158
70.9162,158.6
70.9319,83.8
70.9418,103.4
70.99,119.6
70.9944,94
71.0138,302.4
71.0184,113.7
71.0704,210.6
71.0749,213.4
71.0868,21.4
71.127,620.2
71.1369,19.2
71.1389,281.9
71.1445,123.6
71.1457,125.1
71.1569,194.5
71.1657,85.1
71.18,87.2
71.212,577.7
71.2213,91.3
71.2215,95.6
71.2217,84.7
71.2347,244.9
71.2534,123.6
71.2548,253.4
71.2635,124.4
71.2736,94.7
71.2868,371.6
71.2889,255.7
71.3043,91
71.3082,351.3
71.3091,93.8
71.3096,319.5
71.3236,97.1
71.3393,91.2
71.3398,17.5
71.344,92.1
71.348,358.2
71.3613,297.6
71.4116,614.1
71.4243,536.2
71.4508,68.1
71.4539,197.2
71.4757,81.6
71.4787,98.1
71.5129,97
71.5233,473.3
71.5465,330.5
71.5497,358.8
71.5557,304.9
71.5747,383.9
71.5919,72.7
71.5934,152.2
71.5968,340.4
71.6215,74.5
71.6347,482.9
71.645,199.4
71.6697,637.7
71.6984,95.9
71.6992,273.3
71.7202,84.2
71.722,77.3
71.7295,82.1
71.7436,259.3
71.782,122.4
71.8057,323.9
71.8603,342.1
71.8698,631.4
71.871,85.4
71.8765,87.6
71.8886,385.7
71.9,112.2
71.913,354.5
71.9304,20.4
71.9377,123
71.9423,649.2
71.9556,16.9
71.9722,522.9
71.9799,77.6
71.9992,598.2
72.0152,103.3
72.061,385
72.0645,294.9
72.0806,756.2
72.0866,113.9
72.0877,19.7
72.0894,101.2
72.0974,195.2
72.11,336
72.1108,386
72.1245,18.2
72.1312,186.3
72.1346,105.5
72.1596,135.5
72.1767,105.5
72.1824,507.2
72.1909,121.8
72.1976,73.7
72.2139,413.2
72.2168,370.5
72.2189,875.3
72.2197,890.1
72.2208,1095.7
72.2226,1630
72.2242,1715
72.2252,2118
72.2264,1513.8
72.227,2534.6
72.2278,1123.2
72.2284,1793.7
72.2293,2769.7
72.2307,3047.4
72.2314,2619.8
72.2325,2334.3
72.234,1906.7
72.2351,290.7
72.2358,2335.8
72.2368,1392.1
72.237,1338.7
72.2379,2021.6
72.2386,1318.9
72.2402,2133.7
72.241,1169.1
72.242,934.5
72.2434,627.8
72.244,406.4
72.2446,263.7
72.2453,152.3
72.2458,252.2
72.2467,819.1
72.2479,590.1
72.2488,1106.3
72.2496,889.7
72.2501,667.3
72.252,148.5
72.2586,357
72.2635,292
72.2808,142.8
72.2935,99.4
72.3212,449.4
72.3735,105.3
72.3769,125.5
72.3833,316.5
72.3857,211.9
72.3964,82.8
72.4187,75.1
72.4263,106.2
72.4832,156.9
72.5309,97.2
72.5368,301
72.551,69.8
72.5526,214.9
72.5932,437.8
72.5975,18.1
72.6037,220.6
72.6073,527.1
72.64,75.8
72.6502,129.3
72.6529,79.5
72.6644,15.9
72.692,494.9
72.6976,96.1
72.7221,349.4
72.7375,92.5
72.7483,161.5
72.7735,172.3
72.7812,181.2
72.7857,99
72.8223,182.4
72.8526,163.1
72.877,93.2
72.8936,296
72.9208,981.9
72.9232,384.6
72.927,295.4
72.9641,92.2
72.9694,93
73.0308,95.9
73.0513,556
73.0608,106.3
73.1004,398.1
73.1174,244.9
73.1201,94.9
73.1603,70.3
73.1672,97.3
73.1806,573.4
73.181,485
73.216,215.3
73.2267,224.3
73.237,895.5
73.2459,303.4
73.2514,288.8
73.2544,17.5
73.265,169.1
73.2702,679.4
73.2798,496.3
73.285,248.1
73.3002,121.9
73.3072,370.2
73.3326,19.3
73.3813,851.6
73.3956,619.1
73.4041,19.3
73.4065,442.2
73.4073,17.4
73.4159,79.8
73.4167,256.1
73.4422,208.9
73.4659,257.9
73.4667,134.2
73.4865,144.6
73.488,253.9
73.4959,18.3
73.5016,361.2
73.5069,252.1
73.5643,135.1
73.5671,93.6
73.5845,125.8
73.6,105.7
73.6123,108.6
73.6355,96.7
73.6502,96.7
73.6561,120.7
73.6568,380
73.6597,617.7
73.6759,90.6
73.6768,93.1
73.6969,145.7
73.6987,144.9
73.7106,142.2
73.711,131.6
73.7151,86.5
73.7165,127
73.7216,98.9
73.7279,130
73.7498,179.3
73.7567,94.7
73.7629,557.8
73.7807,218.2
73.7853,88.8
73.7946,17
73.8038,192.9
73.8153,82
73.8217,500.7
73.8471,17.1
73.8575,119.2
73.8647,168.1
73.8678,109
73.8937,229.1
73.9099,278.4
73.9244,637.8
73.9349,182.5
73.9473,93.6
73.9488,17.7
73.9829,161.7
74.0072,797.5
74.0107,347
74.0176,147.6
74.0189,711.7
74.0266,73
74.0346,19.6
74.0471,83.6
74.0535,109.2
74.0599,4281.8
74.0612,98.4
74.0654,295.7
74.0757,84.8
74.0907,100.2
74.1026,92.9
74.1259,209.3
74.1294,99.4
74.1617,369.7
74.1786,277.2
74.1795,281.3
74.1833,149.8
74.1862,337.8
74.1958,659.4
74.2068,319.6
74.217,332.7
74.2183,20.7
74.2355,84.5
74.2429,80.8
74.2486,114.8
74.2505,86.7
74.2674,84.7
74.2694,92.3
74.2752,93.9
74.2991,20
74.3098,148.5
74.3281,125.2
74.3514,474.6
74.3546,164
74.359,69
74.3706,592.7
74.3846,192
74.4043,239.3
74.4114,409.6
74.4275,76.9
74.4482,249.7
74.451,16.4
74.4649,92.4
74.476,153.7
74.4967,83.1
74.5039,73.2
74.5074,196.1
74.5135,116.4
74.521,579.1
74.528,346.2
74.5312,142.3
74.5442,15.3
74.5595,75.9
74.5923,363.7
74.5933,102.2
74.6159,590.2
74.6258,97.4
74.6378,273.4
74.6542,824.3
74.6659,236.6
74.6912,746.3
74.6996,176.9
74.7223,173.8
74.7561,123
74.7818,228.1
74.7962,80
74.8346,91.5
74.8364,490
74.8376,594
74.8399,113.1
74.8471,655.4
74.8653,97.9
74.8738,674.4
74.8812,761.7
74.8823,22.6
74.8885,286.6
74.9107,16
74.9444,369.3
74.9541,326.3
74.9677,252.1
74.9777,110.8
74.9922,113.8
74.9946,497
74.9956,97.1
74.9965,184.9
75.0116,132.6
75.036,289.5
75.039,685.6
75.0399,168
75.0611,327.6
75.0681,171.5
75.0698,18.6
75.0904,112.6
75.1,111.6
75.1091,485.6
75.1192,499.8
75.1232,267.2
75.1536,81.6
75.1557,439.2
75.1564,89.5
75.1663,127.8
75.1672,83
75.1679,88.3
75.1719,100.2
75.1772,715.9
75.2134,164.3
75.2165,22.2
75.2228,265.4
75.2675,210
75.2716,349.9
75.2763,16.4
75.3203,165.2
75.3312,205.1
75.3422,611.3
75.3763,514.6
75.4016,219.6
75.414,84.8
75.42,181.8
75.43,79.9
75.4533,420.3
75.4614,166.7
75.4735,84.5
75.4745,94.4
75.4923,102.1
75.52,568.3
75.5252,20
75.5367,373.3
75.5604,149.2
75.5612,78.8
75.5724,91.7
75.5857,116
75.5962,83.5
75.6225,101.5
75.6332,95.7
75.6348,476
75.6514,469.5
75.6684,159
75.6718,125.6
75.7222,258.6
75.7273,554
75.7406,113.5
75.7429,152.3
75.8033,166.7
75.808,18.5
75.8512,201.4
75.8722,88.1
75.8831,105.3
75.9498,667.9
75.9574,556.3
76.0123,152.7
76.0152,435.8
76.0357,251.9
76.0479,77.5
76.0508,102.8
76.0515,487.4
76.0567,159
76.0587,342.6
76.068,331.1
76.0929,80.6
76.1114,569.5
76.1189,142.2
76.124,21.2
76.129,169.5
76.1396,205.8
76.1567,93.4
76.1692,119.4
76.1697,259.9
76.1722,133.9
76.1802,161.4
76.1862,593.6
76.1868,89.8
76.1882,138.1
76.1996,101.9
76.2104,331.2
76.2382,360.1
76.2897,538.5
76.3043,99.4
76.3124,15.5
76.3163,661.3
76.3304,610.5
76.3472,104.3
76.3784,161.1
76.386,104.7
76.3949,221.7
76.3955,166.9
76.4122,150.4
76.4445,93.1
76.4529,235.1
76.4651,82.1
76.469,16.4
76.4728,211.3
76.4803,122.2
76.4873,117.5
76.4882,87.2
76.5139,319.1
76.5319,453.5
76.5599,473.8
76.5606,331.3
76.579,162.2
76.605,18.6
76.6222,131
76.6302,691.2
76.6378,21.5
76.644,82.4
76.6559,137.5
76.6575,103.3
76.6659,81.2
76.6871,97.9
76.7181,74.1
76.7565,81.2
76.761,68.6
76.7687,1114.7
76.7694,137.4
76.7805,131.7
76.808,311.7
76.8347,388.9
76.844,15.7
76.8699,321.3
76.8829,17
76.8892,501
76.9132,133.4
76.9306,18.7
76.9591,204.1
76.999,328.2
77.0026,132.8
77.0126,366.3
77.019,68.7
77.0229,19.9
77.0289,189.9
77.0353,791.5
77.0359,753.1
77.0385,136350.6
77.0406,166.5
77.0484,15.6
77.1499,498.7
77.185,81
77.2027,17.6
77.2167,135.9
77.2692,624.3
77.2711,646.6
77.3072,327.3
77.3168,164.7
77.3329,523.9
77.3363,110.3
77.3383,592.4
77.3405,20.2
77.3436,207.4
77.3657,296.4
77.3883,316.6
77.4436,123.3
77.4628,163.7
77.4656,96.8
77.47,105.7
77.4712,16.2
77.4819,16.9
77.5178,69.3
77.5195,385.4
77.5214,203.7
77.544,74
77.5785,198.7
77.5855,136.7
77.5888,341.8
77.5994,149.7
77.6273,161.1
77.6574,158.8
77.6629,87.8
77.6713,652.6
77.6817,77.7
77.6888,276.8
77.7012,565.1
77.7176,322.4
77.7206,216
77.736,282.3
77.7628,19.7
77.7671,308.7
77.7682,188.3
77.7799,23.6
77.7812,496.3
77.7847,296.6
77.8226,112.2
77.8311,487.2
77.8421,610.9
77.8485,213.9
77.8755,16.8
77.8873,111.4
77.9139,117.7
77.9196,18.6
77.9518,91.8
77.9621,88.5
78.0065,20.2
78.0289,76.8
78.0387,16.7
78.0405,157.6
78.0418,4079.1
78.0464,430.6
78.0518,172.4
78.0727,176.9
78.0822,184.9
78.0891,593.3
78.0925,270.8
78.0968,281.9
78.0998,133.1
78.1014,18.6
78.1117,247.2
78.1301,292
78.1332,16.3
78.1369,124.4
78.1535,72.8
78.1621,192.1
78.1692,17.5
78.1873,95.9
78.1997,205.8
78.2095,108.8
78.2134,66.6
78.2162,667.4
78.2183,92.7
78.2619,186.7
78.2856,17.6
78.3087,18.6
78.3259,88.6
78.338,381.4
78.3387,526.1
78.3698,78.6
78.408,154.8
78.4113,662.3
78.4151,359.1
78.4262,216.1
78.4402,163.9
78.5209,412.8
78.5256,16.4
78.5296,159.8
78.5341,20.5
78.5424,103.2
78.5577,379.7
78.6009,124.6
78.619,158.5
78.6198,79.7
78.6397,83.8
78.6593,70.5
78.6636,382.4
78.6854,186.8
78.6904,87.2
78.7036,414.2
78.7125,546.3
78.7344,94.7
78.7388,141.6
78.7722,20.4
78.7781,91.3
78.7809,92.2
78.7954,127.3
78.8265,114.8
78.8282,80.8
78.8307,84.2
78.8449,564.5
78.8491,16
78.8513,113.3
78.8877,162.3
78.9103,115.4
78.9365,766.4
78.9497,117.5
78.9572,250.6
78.968,17.8
78.9735,704
78.9753,83.4
78.9759,201.3
78.9799,167.3
78.9812,135.8
78.9869,92.4
78.9968,360.9
79.0126,668.1
79.0144,214.3
79.037,87.7
79.0541,2592.9
79.0597,174.9
79.0609,184.1
79.077,206.8
79.1041,794.6
79.1053,89.8
79.1327,143
79.1497,159.9
79.1552,586.6
79.1813,157.2
79.1875,652.9
79.1944,136.3
79.2338,120.1
79.2421,380.2
79.253,692.1
79.2864,17.9
79.2889,81.8
79.292,138.2
79.2951,232
79.3008,168.3
79.3125,138.9
79.3529,107.2
79.3752,173.9
79.3858,331.1
79.403,81.8
79.4206,18.4
79.4212,16.9
79.426,255.1
79.4389,112.6
79.4539,73
79.4608,174.7
79.4698,99.4
79.4749,79.4
79.4815,221.9
79.5042,227
79.5318,660
79.5872,440.3
79.5886,384.4
79.5915,588.8
79.5967,17.5
79.6326,668.1
79.6397,83.6
79.6569,109.8
79.6607,274.6
79.6719,280.9
79.6848,81
79.701,163.5
79.7146,663.7
79.7169,344.1
79.7278,180.9
79.7344,78.9
79.7436,548.3
79.7503,505.7
79.7876,493
79.8137,499.3
79.8467,165.9
79.8511,99.2
79.8742,568.2
79.8806,345.6
79.8839,354.5
79.8866,170.9
79.8959,149
79.8971,273.9
79.907,608.4
79.9177,72.2
79.928,256.8
79.956,95.4
79.9666,23.4
79.9714,89.9
79.9799,248.1
79.9882,436
79.9888,146.1
80.009,15.6
80.0143,18
80.0227,329.7
80.0314,101.8
80.0425,340.8
80.046,294.8
80.0573,25.2
80.072,124.5
80.0951,527
80.1527,113.2
80.1711,432.2
80.1719,101.1
80.1769,71.9
80.1954,676.2
80.2382,98.5
80.2649,143.7
80.2676,69.4
80.2932,119.2
80.2946,69.8
80.3056,72.8
80.355,486.6
80.379,90.8
80.3937,91
80.4098,135.3
80.4283,18
80.4327,141.4
80.4528,84.3
80.5006,147.2
80.523,145.4
80.5553,150.1
80.5704,609.3
80.5743,201.2
80.5758,643.8
80.5847,85.1
80.5911,715.5
80.5915,857.2
80.6057,261.2
80.61,109.6
80.6203,292.4
80.6396,18.9
80.6477,147.7
80.6719,93.2
80.6782,683.3
80.6876,16.5
80.6901,517.4
80.7348,93
80.7423,271.4
80.7485,109.1
80.7567,101.1
80.7654,504.3
80.7884,80.2
80.7924,121.2
80.8327,350.4
80.8729,357.5
80.8918,128.2
80.9099,328
80.9175,395.5
80.9477,62005.3
80.9669,348.8
80.9701,129.4
80.9875,410.9
81.0064,91.4
81.0072,663.7
81.0436,436.7
81.0636,133.9
81.0698,1394.7
81.0754,261.2
81.0761,153.8
81.0807,446
81.0935,422.2
81.1138,205.9
81.1426,340.4
81.1444,258.5
81.1451,20.4
81.1475,1170
81.1492,231.5
81.1509,486.9
81.1519,269
81.1531,129.6
81.1549,83.1
81.156,93.3
81.1572,74.9
81.1625,138.8
81.1908,142
81.1919,83.1
81.1974,353.2
81.2065,359.9
81.2157,166.2
81.2183,166.3
81.2231,17.7
81.232,107.1
81.3208,106.2
81.3427,17.7
81.3534,137.4
81.4216,100.7
81.4315,409.5
81.4375,95.2
81.4521,532.4
81.458,81.1
81.4592,20.6
81.4649,246.8
81.4685,355.9
81.485,21.8
81.4977,623.1
81.5647,143
81.5656,160.2
81.5955,454.6
81.6031,141.6
81.6398,85
81.6861,82.7
81.7054,342
81.7059,347.3
81.7197,389.9
81.7406,18.5
81.7558,818.4
81.7947,278.3
81.7965,98
81.8018,151.6
81.8124,96.4
81.8299,153.2
81.843,593.2
81.8456,110.9
81.8516,325.9
81.8697,115.1
81.8851,319.3
81.8871,321.6
81.8987,132.5
81.9461,229
81.9527,103.4
81.9643,260.1
82.0065,16.5
82.0119,24.3
82.0173,94.4
82.0244,165.9
82.037,19
82.0747,795.2
82.0919,593.4
82.1064,78.5
82.1141,108.2
82.1231,16.2
82.126,486.1
82.1276,112.5
82.2072,313.5
82.2268,388.8
82.2396,122
82.254,88.7
82.2781,76
82.2861,220.2
82.302,85.6
82.3089,97
82.335,15.5
82.3414,109
82.3532,16.2
82.356,372.9
82.3568,194.5
82.358,18
82.3606,93.8
82.4201,343.2
82.428,304.2
82.441,92.8
82.4521,130.2
82.4579,590.2
82.4636,19.7
82.4721,482.7
82.5362,17
82.5672,408.3
82.5841,530.6
82.5997,71.8
82.6014,449.7
82.6303,18.7
82.6313,466
82.6316,421.9
82.6427,471
82.6554,166.4
82.6839,225.9
82.7513,15.4
82.7515,15.2
82.7566,109.3
82.7979,81.1
82.8002,346.4
82.8026,601.7
82.8098,309.8
82.8185,17.6
82.8279,278.4
82.8282,266.6
82.8392,18.3
82.857,19
82.8594,18.3
82.8706,179.2
82.9291,116.9
82.9362,681.4
82.94,262.9
82.9427,755.2
82.9448,17511.7
82.946,733.1
82.9529,134.4
82.9672,78.5
82.9929,71.5
82.9939,98.9
83.0403,78.5
83.0703,165.2
83.0854,38
83.111,96
83.1295,17
83.1571,197.4
83.167,480.1
83.1701,248
83.1726,226.7
83.1844,364
83.1883,166.4
83.1938,136.5
83.2006,138.2
83.2024,234.4
83.2261,637.2
83.2274,285.3
83.2398,549.4
83.2458,253.3
83.2469,437.2
83.2525,101.8
83.2793,88.1
83.3371,196.6
83.3409,78.5
83.3686,115.7
83.3858,334.9
83.3966,84.1
83.4176,710.1
83.4197,80.1
83.4248,75.7
83.4485,325
83.4535,98.2
83.4629,962.1
83.4755,358.6
83.4784,23.5
83.4962,805.6
83.5153,95.9
83.5264,102.4
83.5569,796.1
83.5978,605.7
83.6291,115
83.6543,18.5
83.663,132
83.6744,144.1
83.7187,361.4
83.7394,86.4
83.7527,709.3
83.7729,576.6
83.8102,336.1
83.8142,425.2
83.8229,164.1
83.8267,326.7
83.8521,306.7
83.8528,284.6
83.8541,198.7
83.8549,400.5
83.8593,135.6
83.8642,456.3
83.8805,549.4
83.8927,94.4
83.9379,150.8
83.9784,83.3
83.9838,89.8
84.0023,193.5
84.0443,1314.3
84.0477,84
84.0507,78.2
84.0592,281.6
84.0661,149.9
84.0807,146
84.109,66.4
84.1196,83.7
84.1212,375.5
84.1346,16.4
84.1477,140.7
84.1489,170.4
84.1498,545.2
84.1565,482.9
84.1842,160.3
84.2058,377.3
84.2095,137.5
84.2374,660
84.2924,81.4
84.2983,116.1
84.3155,544.7
84.3257,583.5
84.3274,194.9
84.3361,67.9
84.338,195.9
84.3395,712.1
84.3659,80
84.406,353.8
84.4175,132.8
84.4856,441
84.4933,161.1
84.5796,141.7
84.6,408
84.6345,301.4
84.6572,243.1
84.6816,245.9
84.6842,150.9
84.7227,188.8
84.7378,170.5
84.762,97.5
84.7678,394.8
84.7842,340.3
84.8007,147.5
84.902,181.3
84.9232,127.4
84.9309,135.6
84.9319,94.8
84.9378,211.9
84.9596,26108.2
84.9663,767.6
85.0014,672.2
85.0658,159.5
85.0777,120.3
85.1026,512
85.1121,770.6
85.1262,76.7
85.1554,484.5
85.1971,117.6
85.2291,253.9
85.2441,685.6
85.2809,569.3
85.2821,184.2
85.3127,87.8
85.3279,402.7
85.3327,181.9
85.3335,146.9
85.386,90.1
85.4385,17.5
85.4697,83.5
85.4729,119.6
85.5244,146.7
85.5461,171.3
85.6435,79.5
85.6691,22.4
85.6862,84.4
85.6874,17.6
85.7139,424
85.7355,628.7
85.7678,84.2
85.7767,174.7
85.8084,496.6
85.8165,157.4
85.8294,92.6
85.8404,852.8
85.8471,673.8
85.8546,281
85.901,103.3
85.9078,109.5
85.9176,300
85.9194,19.9
85.9311,421.6
86.0235,73.2
86.0499,137.3
86.0544,344.6
86.06,43430.5
86.0784,140.5
86.093,146.5
86.0964,94414.1
86.1235,20.6
86.1548,89.4
86.1924,160.9
86.1982,18.5
86.2097,146.7
86.2153,708.5
86.223,83.4
86.2339,189.5
86.2717,132.5
86.2964,109.7
86.3021,17.1
86.3393,570.4
86.344,498.8
86.3489,107
86.3716,626.1
86.3729,112.3
86.3748,19
86.3761,100.4
86.3793,124.2
86.3826,172.1
86.3851,345.4
86.4018,17.8
86.45,236.2
86.4508,101.1
86.4653,287.1
86.4862,761
86.5115,123
86.5476,351.4
86.5602,222.9
86.574,121.6
86.6342,91.3
86.6611,21.1
86.6846,474.3
86.6875,535
86.7108,492.8
86.751,69.6
86.7581,17.1
86.7728,91.7
86.788,119.4
86.8228,353.5
86.8406,509.7
86.8555,199.5
86.8723,525.9
86.8898,345.3
86.9113,658.3
86.9146,125.7
86.9436,82.3
86.9697,197.6
87.0042,115.4
87.0098,164.3
87.0601,198.6
87.0707,17.5
87.0714,21.2
87.0777,631.4
87.0792,266.4
87.0884,286.5
87.1408,460.6
87.1626,238.1
87.182,90.2
87.1886,420.2
87.2075,285.6
87.2122,510
87.256,20.3
87.2675,345.5
87.2808,329.5
87.2816,101.7
87.3061,182.5
87.3161,405.3
87.3288,92.3
87.3323,172.4
87.3522,87.4
87.3755,95.9
87.4131,117.1
87.4184,331.8
87.4602,18.3
87.4666,79.1
87.4772,123.2
87.4951,288.6
87.5007,77.3
87.5361,17.5
87.5496,722.2
87.5574,138.9
87.5663,280.8
87.578,19.1
87.5954,91.4
87.6203,529.3
87.6419,121.6
87.6562,136.1
87.6583,413
87.6772,105.9
87.6785,256.6
87.6793,431.7
87.6801,503.3
87.6879,780.1
87.7077,105.4
87.7097,75.5
87.7288,475.7
87.7372,138.8
87.7904,482.6
87.7999,816.1
87.8721,242.8
87.9028,500.4
87.9192,104.1
87.9249,401.1
87.9321,75.5
87.9592,486.5
88.0102,405.1
88.0197,87.1
88.035,84.3
88.0393,10166.8
88.0546,339
88.1304,151.5
88.152,91.7
88.1546,652
88.1791,176.8
88.1971,193.9
88.3472,270.5
88.3675,19.6
88.3709,77.5
88.3852,201.5
88.3892,98
88.4356,85.4
88.4567,119.4
88.4729,16.5
88.4958,127
88.516,363.3
88.5297,273.4
88.5502,189.3
88.559,402.1
88.5749,178.7
88.6039,76.9
88.6234,146.1
88.6486,421.8
88.6593,441.1
88.6603,508.3
88.6627,456.2
88.6764,111.2
88.693,169.2
88.7039,536.1
88.7088,499.1
88.7479,480.7
88.7514,319.4
88.757,343
88.7664,181.4
88.7782,415.7
88.7844,161.8
88.807,370.3
88.8259,490.4
88.8646,96.5
88.876,650.9
88.8867,172
88.9035,86.2
88.9201,147.5
88.9218,216.1
88.9384,18.3
89.0014,255.8
89.0305,353
89.0597,20.1
89.0646,115.5
89.0784,521.2
89.0891,375.5
89.1025,401.7
89.1073,338.8
89.1099,502.5
89.1201,307.8
89.1253,444.2
89.2261,405.8
89.2343,78.3
89.2452,271.2
89.2464,199
89.2511,102
89.2787,93.6
89.3174,740
89.3779,285.6
89.3796,107.5
89.3922,17.5
89.4007,462
89.4079,121.5
89.436,138.6
89.4964,320.2
89.5503,84.4
89.5856,162
89.5864,103
89.5919,91.5
89.5929,19.9
89.5956,398.5
89.6055,188.1
89.6104,188.9
89.6241,154.3
89.6313,83.2
89.639,294.4
89.6532,169.6
89.7728,141.1
89.7974,446.7
89.831,22.1
89.8386,16.6
89.855,402.6
89.8582,96.5
89.8612,634.7
89.8621,204
89.8772,344.7
89.882,366.5
89.8858,120.7
89.9017,18.2
89.9211,412.7
89.9273,537.1
89.9403,561.8
89.9815,553.6
90.0044,456
90.0416,619.6
90.0571,350.9
90.0595,162.3
90.079,651.4
90.09,291
90.1647,115.3
90.1707,100.6
90.1819,634.2
90.2267,138.6
90.2297,123.5
90.2452,284.6
90.2475,23.4
90.2676,97.1
90.2921,400
90.2953,18.1
90.3097,103.2
90.3137,170
90.4459,369.6
90.4674,333.4
90.5263,228.6
90.5656,16.9
90.5799,408.6
90.5859,17.1
90.6101,92.6
90.627,94.3
90.6301,618.6
90.6415,741.3
90.6525,378.5
90.66,213.1
90.6631,170.1
90.6842,181.2
90.7048,138.4
90.7262,277.8
90.7437,543.1
90.7785,371.2
90.8014,18
90.8091,18.1
90.8101,82.3
90.8168,400.9
90.8296,150.9
90.871,428
90.881,343
90.8839,190.1
90.8901,98.5
90.9163,86.5
90.9478,40.8
90.9619,344.9
90.9766,9390.7
90.9782,218.9
90.9952,350.8
91.02,86.2
91.0265,110.3
91.0542,3292.6
91.0701,224
91.0964,611.5
91.0994,309.3
91.1003,259.3
91.1163,117.9
91.1376,74.5
91.2017,85.4
91.2359,108
91.265,182.5
91.2971,588
91.3185,80.2
91.3413,217.1
91.3443,187.6
91.3512,611.2
91.3962,85.4
91.4488,436.6
91.4505,460.7
91.4573,225.5
91.5133,186.9
91.5156,211.1
91.5426,19.5
91.5613,80.3
91.6049,98.8
91.6155,671.3
91.6408,116.6
91.6489,272.9
91.6793,284.9
91.7215,125.7
91.7827,134.9
91.8096,82.5
91.83,143.1
91.8719,88.2
91.8822,536.7
91.8972,114.8
91.9361,19.4
91.9548,94.1
91.958,224.3
92.0431,181.5
92.0447,209
92.0494,22.2
92.0848,239
92.0993,18
92.1028,91.4
92.1059,405.8
92.1131,123.3
92.2289,163.3
92.2358,151.1
92.2651,328
92.3171,18.2
92.3253,173.1
92.3398,152.6
92.3992,309.3
92.4148,162.1
92.44,21.8
92.4525,552.2
92.4549,683.5
92.4602,187.7
92.4883,349.8
92.4961,560.5
92.5615,96.2
92.5687,18.9
92.5775,648.4
92.5854,305.6
92.5988,120.5
92.6408,150.7
92.6595,168.1
92.6692,382.6
92.6734,314.8
92.6993,93.9
92.725,101.1
92.7259,120.8
92.7415,664.7
92.7608,405.1
92.7785,84.9
92.7874,79.4
92.8119,141.6
92.8277,263.2
92.8771,114
92.9075,16.2
92.9453,275.8
92.9475,348.5
92.9634,436.5
92.9845,759.9
92.9896,109.9
92.9948,98.6
93.0082,123
93.0127,602.1
93.0261,203.1
93.0336,52.4
93.0699,28.4
93.0783,106.4
93.1306,249.7
93.1997,227
93.2235,684.8
93.2248,476
93.252,15.7
93.259,140.7
93.2685,684.1
93.2807,150.7
93.2867,158.7
93.2982,830
93.356,199.3
93.3584,535.9
93.3615,396.1
93.3718,143.7
93.3804,89.2
93.3913,128.3
93.3983,183.4
93.4003,93.1
93.4197,186.3
93.4264,84.6
93.4395,90.3
93.4486,506.3
93.4578,210.7
93.4909,221.7
93.5199,152.6
93.5564,316.7
93.6044,400.3
93.6374,460.6
93.6502,149.1
93.656,350.4
93.6783,450.7
93.7164,588.2
93.7301,20.2
93.7332,19
93.7593,126
93.768,333.4
93.7773,167.8
93.7852,108.4
93.8331,115.7
93.8754,354.7
93.8869,136.6
93.8928,344.6
93.9428,622.3
93.9562,208.5
93.9723,598.9
93.9869,109.5
94.039,80.5
94.0413,71854.8
94.0557,144.5
94.0651,25.9
94.0721,316.6
94.0819,262.1
94.0898,147.4
94.1102,355.6
94.144,191
94.1468,19.9
94.1603,699.4
94.1654,189.2
94.2126,408.8
94.2346,637.5
94.2413,106
94.2852,21.7
94.2912,112.2
94.315,385.1
94.3162,210.2
94.3371,471.1
94.3416,133.9
94.3504,228.1
94.3548,107.8
94.3605,337
94.3722,351.4
94.3926,73.7
94.3992,467.9
94.4016,158.9
94.4191,80.4
94.4611,116.7
94.4617,380.3
94.4756,517.1
94.4766,171.5
94.4865,263.3
94.4975,125.9
94.5261,234.9
94.5387,364.7
94.602,466.8
94.631,493.9
94.6529,451.3
94.7093,409
94.7157,321
94.754,92.7
94.7646,107.5
94.8654,317.7
94.8869,154.7
94.913,371.1
94.9432,185.8
94.9807,101.4
94.9883,395.7
94.9941,93.2
95.0036,155
95.0088,46.4
95.0164,327.4
95.0261,131.6
95.0272,85.4
95.0357,40.4
95.0447,1624.3
95.0464,167.2
95.0472,76
95.0492,473697.2
95.0508,183.3
95.0522,51.3
95.0696,210.3
95.0755,318.7
95.0827,294.2
95.0855,1116.5
95.0893,18.4
95.1102,98.7
95.135,152.2
95.1478,16.5
95.1504,85.6
95.1802,133.1
95.2035,120.7
95.2125,326.2
95.334,86.3
95.3744,514.2
95.3829,157.5
95.4127,110.5
95.415,99.4
95.4181,80.8
95.4556,235.8
95.519,148.5
95.6028,472.6
95.6365,195.4
95.6502,17.2
95.6574,713.9
95.6891,459.3
95.6945,69.9
95.7235,90.2
95.7434,92.1
95.7673,228.9
95.7791,23.3
95.8696,137.4
95.8698,135.8
95.8794,173.3
95.9311,89.2
95.94,99.7
95.9539,194.7
95.9609,83.5
95.9849,255.6
96.0253,148.6
96.0319,175.3
96.0479,164
96.0525,22916.3
96.0553,29.5
96.0572,481
96.0685,433.5
96.11,102.3
96.1125,791.8
96.1643,74.4
96.1972,87.3
96.2116,76.5
96.237,90.5
96.2488,71.6
96.255,939.4
96.2844,609.4
96.2912,81.1
96.413,264.2
96.426,350.3
96.4339,566.1
96.4653,129.9
96.4672,354
96.4736,111.1
96.4815,96.3
96.484,263.5
96.4918,100.8
96.543,234.3
96.5676,98.3
96.5723,388.1
96.5733,150
96.5983,173.8
96.6458,142.2
96.6684,108.5
96.6758,185.8
96.6777,129.8
96.737,208.8
96.7648,96.6
96.7795,91.2
96.8008,100.8
96.8316,87.1
96.8858,112.7
96.8979,436
96.9218,149433.6
96.9339,92.9
96.9368,112
96.946,226.4
96.9795,212.7
97.0036,135.1
97.0067,91.6
97.0076,122.7
97.0125,674.5
97.0346,125.9
97.0534,85.6
97.0559,81.9
97.0639,88.2
97.0648,18.9
97.07,451.3
97.0747,632.5
97.1013,46
97.1025,98.8
97.1162,289
97.1519,361.9
97.1627,425
97.1663,121.8
97.1985,708.4
97.2304,658.5
97.2449,384.8
97.265,143.1
97.3195,488.6
97.3237,271.5
97.3492,352.2
97.356,77.7
97.3697,452.3
97.3718,222.4
97.416,75.6
97.4187,156.6
97.44,648
97.5067,731.8
97.5273,138.9
97.5387,120.8
97.5479,130
97.5702,325.7
97.5706,524.5
97.571,512.4
97.5713,516
97.5942,92.1
97.6111,212.6
97.6381,331
97.6616,124.9
97.6769,155.8
97.6975,90.3
97.7096,149.7
97.7267,111.2
97.7456,615.7
97.8222,90.2
97.8472,122.4
97.9088,454.1
97.9141,20.4
97.9212,403.3
97.9311,18.8
98.0018,634.6
98.043,83.8
98.0764,466.7
98.1062,665.7
98.1072,363.1
98.1487,233.2
98.1537,365.1
98.1986,86.9
98.2758,757.3
98.3042,327.6
98.3097,639.8
98.3132,89.2
98.3316,150.9
98.3594,76.8
98.4394,300.7
98.5297,116.3
98.5345,617.4
98.5384,82.6
98.5509,114.8
98.5539,19.8
98.5656,147.8
98.5837,98.5
98.6132,469.7
98.633,182.3
98.6815,682.9
98.7424,110.6
98.7599,504
98.7637,83.4
98.7872,646.1
98.8011,339.8
98.8302,358.1
98.897,438.7
98.9177,213.4
98.9188,44867.3
98.9199,6529.3
98.9447,598.7
98.9481,335.7
98.9677,124.5
98.9754,22738
98.9828,481.8
98.9843,51.6
98.9883,111.4
99.0262,157.6
99.0787,351.7
99.0894,201.7
99.0918,23.9
99.0929,258
99.1229,641
99.1437,17.1
99.1578,79
99.2136,97.1
99.2196,21.5
99.2214,486.4
99.2369,452.5
99.2636,123.5
99.2667,223.6
99.2884,140.1
99.3487,131.8
99.3518,17.1
99.3611,515.5
99.4893,287
99.4984,730.8
99.5353,221.4
99.5372,151.5
99.5459,470.1
99.5516,143.7
99.5756,16.5
99.6735,76.3
99.6767,87.4
99.6857,549.6
99.6892,85.2
99.7052,95.7
99.7404,238.1
99.788,101.9
99.7953,88.5
99.8264,129.7
99.8436,153.3
99.8864,135.9
99.9344,108.5
99.9803,132
99.9887,719.8
99.9966,105.9
100.0182,132.8
100.0375,615.9
100.0758,17.5
100.0868,80.2
100.096,84.9
100.1254,436.4
100.1337,672.9
100.142,533.8
100.1614,590.4
100.2508,22.7
100.2917,650.6
100.32,94.8
100.3413,258
100.3427,128.5
100.3517,330.7
100.3556,135
100.4591,493
100.478,102.1
100.4791,516.8
100.4839,129
100.5103,363.9
100.5119,656.5
100.5277,205.1
100.5759,115.7
100.5992,166.7
100.6029,765.9
100.6101,98.8
100.657,238
100.6967,209.5
100.7261,97.9
100.7685,325.9
100.794,20.7
100.8355,272.4
100.8652,17.2
100.917,1130.2
100.9528,156.2
100.9599,303.9
100.9651,159.9
100.992,111.4
101.0084,723.9
101.0216,435.9
101.03,278.9
101.045,397.7
101.0472,3161.5
101.0565,93.8
101.0709,1548.3
101.0848,104.4
101.0913,103.1
101.1075,368
101.1176,131.2
101.1397,406
101.1419,90.7
101.1609,301.9
101.1681,332.3
101.2317,252.4
101.2441,227.5
101.2464,20.1
101.2637,514
101.2778,77.8
101.2942,137.5
101.339,178.4
101.3556,385.6
101.3633,88.8
101.3853,121.2
101.4071,389.1
101.42,141.5
101.4303,259.4
101.4793,277.8
101.491,391.5
101.5067,104.9
101.5569,103.2
101.5757,94.1
101.6277,451.7
101.7472,98.2
101.7782,648.2
101.7802,19.3
101.8395,17.3
101.8896,19.8
101.9101,106.5
101.9809,252.7
102.0087,226.6
102.0312,460.6
102.055,5378.2
102.1124,511.2
102.1169,473.6
102.126,370
102.1294,150.4
102.186,88.3
102.2079,19.2
102.2488,75.2
102.2664,641.5
102.2729,225.3
102.3279,99.2
102.3394,81.4
102.3885,730.7
102.404,121.6
102.42,492.4
102.4255,455.6
102.4274,102.3
102.4797,415.6
102.5136,383.2
102.5592,106.5
102.5807,164.5
102.5872,444.9
102.6523,265.6
102.6625,78.4
102.6976,675.5
102.7011,225.9
102.7109,679.3
102.7489,107.7
102.7603,21.3
102.7894,531.8
102.8019,107.8
102.8224,186.7
102.8421,80.4
102.938,335.8
102.9395,700
102.9703,624.5
102.9842,365.2
103.0018,102.6
103.0539,159.8
103.0829,144.8
103.0846,203.1
103.0981,87.4
103.1064,164.6
103.1173,296
103.1526,107.5
103.1553,328.6
103.173,404.7
103.1909,80.1
103.2028,157.8
103.2052,364
103.2063,95.2
103.2381,98.3
103.2753,617.1
103.3234,358.2
103.3332,109.6
103.3422,101.2
103.3425,123.2
103.343,95.9
103.3522,154
103.3633,22.8
103.4093,129.5
103.4191,511.1
103.4576,353.8
103.4816,273
103.4947,141.3
103.5322,19
103.5824,20.4
103.6344,87.1
103.7236,341.9
103.73,19.4
103.7556,109.9
103.8291,314.4
103.8325,97.8
103.8502,83.5
103.8819,172.4
103.9078,81.7
103.9095,87.6
103.9346,451.1
103.9425,229.3
103.958,17.6
103.9766,141.1
104.0001,155.5
104.0252,149.9
104.107,386880.5
104.1248,127.8
104.1409,626.8
104.1466,318.7
104.1527,359
104.1853,81.9
104.1932,135.7
104.2368,402.9
104.2637,104.4
104.3371,412.9
104.3582,302.8
104.3631,97.1
104.3777,297.6
104.3889,127.3
104.3976,89.2
104.4221,327.6
104.4489,93.8
104.5028,21.4
104.5237,662.5
104.5546,506.2
104.57,418.1
104.5738,21.8
104.5774,132.3
104.5981,98
104.6048,344.6
104.6631,539.7
104.6646,110.6
104.6925,17.7
104.7124,17.7
104.7779,121.6
104.7978,374.2
104.8066,17
104.8078,746.1
104.8475,20.3
104.8792,238.1
104.9518,163.2
104.9634,99.8
104.9923,4624.6
105.0425,373.3
105.0448,43906.7
105.0635,203.9
105.0704,172.6
105.0814,197.6
105.0885,316.8
105.0906,216.2
105.1035,17.4
105.1104,13743.6
105.1134,18
105.1169,143.5
105.16,71.2
105.204,141.5
105.2478,83.9
105.2529,270.9
105.2548,382.5
105.2757,93.7
105.281,172.5
105.2813,174.8
105.2929,703.4
105.3165,358
105.3306,133.8
105.3535,114.3
105.3699,17.2
105.3833,419.5
105.4226,84.1
105.4681,347.5
105.5002,198.3
105.5221,106.6
105.5386,187.8
105.5691,218
105.6181,94.8
105.6225,124.2
105.6387,297.5
105.6803,185.3
105.6817,267.8
105.6881,21.5
105.7089,95.3
105.793,93.8
105.8245,95.5
105.8396,86.1
105.8415,112.2
105.849,244.7
105.9403,17.3
105.9888,363.2
106.0073,113.7
106.013,305.4
106.0482,1041.7
106.0651,23.2
106.1082,120
106.1247,613.6
106.1381,482.9
106.1449,85.3
106.1916,117.5
106.2091,129.2
106.2159,457.3
106.2232,18.3
106.2747,20.9
106.2796,278.7
106.2968,78.9
106.3115,237.9
106.3951,576.8
106.403,385
106.4217,379.5
106.477,391.7
106.5368,85.6
106.5459,87.8
106.5669,100.3
106.5684,201.6
106.5869,388.3
106.6325,91.7
106.6398,153
106.6953,231.2
106.7082,19.3
106.7273,135.2
106.7795,172.4
106.7871,97.8
106.8048,109.9
106.893,93.4
106.8958,82.5
106.8984,105.8
106.9026,123.3
106.9062,202.5
106.9461,81.9
106.9507,3201.4
106.9868,469.1
106.9922,29.1
107.0094,129.3
107.0148,655.3
107.0284,100.2
107.0286,95.9
107.0291,89.5
107.0391,696.1
107.0416,364.3
107.0492,760.1
107.077,423
107.1166,310.4
107.1248,83.4
107.2036,277.7
107.2677,147.9
107.3154,200.3
107.3236,134.3
107.3274,103.3
107.3357,251
107.3638,102
107.382,79.1
107.3834,719.6
107.3933,310.1
107.4205,171.9
107.4566,272.6
107.485,74.7
107.4982,625.4
107.5239,502.5
107.5302,477.8
107.5414,200.7
107.5884,158.4
107.6459,145.9
107.6643,764.8
107.6676,269.6
107.6805,90.6
107.7083,359.9
107.738,175.9
107.7434,261.5
107.822,191.3
107.8402,306.3
107.8491,19.2
107.8837,563.4
107.9001,197.3
107.9181,313.3
107.9227,169.4
107.9314,419.1
107.9383,283
107.9671,100.1
107.9735,17
108.0271,366.6
108.091,649.4
108.1052,169.5
108.1356,241.4
108.1436,336.3
108.1534,97.7
108.1573,134
108.1731,87.3
108.1914,196
108.2365,586.2
108.2391,239.6
108.2754,118.6
108.2822,642.7
108.289,182.8
108.2964,446.5
108.3066,153.3
108.324,460.7
108.3846,575.2
108.3859,386.2
108.4015,181
108.42,19.6
108.4243,193.5
108.4458,170.8
108.4823,145.7
108.4916,121.3
108.5124,307.2
108.5216,229
108.55,17.7
108.5589,140.4
108.5683,144
108.613,16.2
108.6224,721.7
108.6478,480
108.6627,337.9
108.668,155.7
108.6754,93.6
108.6992,16.8
108.7067,17.1
108.7144,76.4
108.7633,700.9
108.7771,154
108.7969,79.9
108.8375,90.4
108.8609,535.6
108.8707,259.6
108.884,108.9
108.9034,193.1
108.921,439.3
108.9352,84.5
108.9486,755.1
108.9546,493
108.9596,463.5
108.9613,192.4
108.9665,285.5
108.9877,124.5
108.9934,153.4
109.0107,21.5
109.0398,307
109.0649,77389.1
109.0663,57.8
109.0686,22.6
109.0964,199.6
109.1013,108.2
109.1655,107.4
109.19,269.6
109.1926,317.1
109.21,72.3
109.2131,272.4
109.2275,216.9
109.2495,265.1
109.2577,511.9
109.2695,323.2
109.2736,83.5
109.2873,291.4
109.3018,317.9
109.3058,105.4
109.3196,94.5
109.3345,17
109.3781,98.9
109.4196,168.5
109.4673,127.6
109.4955,114.6
109.515,241.3
109.5878,18.2
109.6048,144.4
109.6307,20.8
109.6341,124.7
109.6567,85.2
109.7436,74.3
109.7542,85.8
109.7719,174.8
109.7865,96.1
109.8238,99.7
109.8358,103
109.8501,175.7
109.8522,70.6
109.8818,96.9
109.9117,110.4
109.9147,342.5
109.9267,524.3
109.9496,82.7
109.9694,350
109.977,181.7
109.9929,188.7
110.0682,2598.4
110.0713,897.4
110.0926,661.4
110.0968,18.4
110.099,308.8
110.116,272
110.1192,72.1
110.1586,331.8
110.1794,344.3
110.2221,116.9
110.2314,141.3
110.2564,153.2
110.3015,94.9
110.3242,93
110.3269,405.1
110.3426,376.3
110.3667,466.7
110.3681,213.2
110.4048,484.6
110.4554,453.7
110.4644,216.6
110.476,15.5
110.4925,530.4
110.5199,573.4
110.6141,333.9
110.6472,118.2
110.6583,564.6
110.7001,104.2
110.72,19.9
110.778,199.9
110.8032,106.5
110.8892,22.4
110.8958,20.9
110.9034,920.4
110.9211,103.8
110.9409,341.8
110.9623,702.2
110.9826,109.9
110.9884,330.5
111.0233,339.4
111.0302,730.9
111.0441,237.2
111.0513,604.4
111.0539,83.6
111.0609,138.6
111.2234,311.8
111.2363,90.7
111.2383,649.1
111.3,209
111.3031,411.2
111.3235,17
111.3392,144
111.3612,17.8
111.4053,21.3
111.4158,275.8
111.4554,682.5
111.4689,329.8
111.4716,438
111.4804,102
111.5017,364.6
111.5096,95.6
111.5445,256.8
111.5672,16.8
111.6249,395.5
111.6956,150.5
111.707,478.3
111.8107,19.1
111.8427,174.2
111.8508,117.5
111.876,404.7
111.8814,300.9
111.897,275.4
111.914,351.7
111.9428,107.2
111.9703,102.9
111.9733,574
112.0731,168
112.0787,277.4
112.0903,358.1
112.0928,77.4
112.105,675.9
112.1063,17.2
112.1184,270.8
112.1707,136.8
112.2267,147
112.2429,389.9
112.4029,335.7
112.4716,658.4
112.4826,705.7
112.4937,144.8
112.4982,97
112.5138,92.7
112.5167,70.9
112.537,115.9
112.547,176.8
112.5699,633.4
112.6173,17.4
112.6208,210.3
112.6233,18.6
112.6446,317.5
112.6849,344.8
112.7334,135.7
112.7444,223.8
112.7484,253.3
112.7528,249.4
112.7932,329.3
112.7938,546.1
112.7943,547.6
112.7949,695
112.8347,259.6
112.8488,152.3
112.8869,75.1
112.8958,350312.6
112.9064,246.8
112.9261,651.4
112.9561,271.7
113.0057,125.7
113.0382,368.8
113.0553,173.2
113.0615,112.1
113.166,502.4
113.1846,94
113.1922,331.2
113.2014,18.2
113.2413,482.3
113.3798,22
113.3861,237.9
113.4039,123
113.4876,17.8
113.492,16.8
113.5274,87.1
113.5452,135.6
113.5994,148.2
113.6357,19.5
113.6621,641.8
113.6756,115.9
113.7559,325
113.765,373.9
113.8077,469.6
113.8264,100.6
113.9024,90.2
114.0372,162.6
114.0414,90.9
114.0551,62245.5
114.0662,1010.8
114.0911,16.1
114.1137,102.6
114.1268,168.1
114.1303,89.4
114.1477,250.3
114.1529,391.8
114.1606,129.4
114.2093,165.2
114.2209,170.6
114.2401,639.7
114.2557,345.8
114.2895,281.2
114.2985,125.1
114.3248,206.3
114.3434,97.9
114.3684,436.3
114.4193,313.9
114.4249,336.8
114.4567,116.5
114.4585,19.5
114.4678,504.1
114.5193,18.3
114.5262,203.2
114.5351,94.6
114.5682,81.5
114.5699,213.7
114.5738,95.8
114.6208,511.6
114.6349,608.8
114.6405,488.5
114.6725,165.3
114.8175,189.7
114.8515,374.5
114.8929,110114.8
114.9249,298.3
114.9826,141.6
115.0585,1326.2
115.0867,104
115.1601,81.1
115.1644,756
115.179,582.5
115.1905,254.4
115.2188,20.2
115.3252,89.6
115.3325,93.4
115.3701,615
115.3905,133.8
115.4181,333.7
115.4204,191.8
115.4362,473.5
115.4451,469.9
115.5193,340.5
115.5965,18.3
115.6094,200.3
115.705,118.7
115.7135,146.6
115.715,580.9
115.7345,91.7
115.7581,192.8
115.8163,163.4
115.8342,97.2
115.8571,642.6
115.8581,77.8
115.9097,190.3
115.9373,344
115.9807,106.9
116.0134,108.7
116.0163,18.4
116.0173,128.3
116.0288,715.8
116.0707,4777
116.1471,172.6
116.1844,95.4
116.2252,250.2
116.2929,18
116.318,487.9
116.3635,105
116.365,97.3
116.374,236.3
116.3783,18
116.4384,119
116.5062,112.1
116.5533,123.3
116.6323,334.7
116.6496,142.6
116.6599,120.2
116.6788,381.9
116.6819,365.2
116.7019,249.2
116.7413,17.6
116.7544,276.8
116.8116,271.2
116.891,14330.5
116.9009,300.7
116.9418,259.2
116.9859,2663.8
117.0577,85.7
117.0632,108.4
117.0689,80.7
117.07,26.6
117.0794,224.1
117.0935,715.5
117.1228,76.9
117.155,151.6
117.1642,146.2
117.2231,175.3
117.2406,81.9
117.2423,90.4
117.2495,108.5
117.2575,349.5
117.3138,730.8
117.3305,170.2
117.3443,330
117.3705,127.3
117.3726,647.9
117.404,549.6
117.4105,108.2
117.4165,84.1
117.4274,365.3
117.4343,90.2
117.446,365.6
117.5085,209.8
117.5567,258
117.5744,148.7
117.5841,16.7
117.6028,421.2
117.6314,329.4
117.6387,480.4
117.6673,740.6
117.687,123.6
117.6952,351.1
117.7043,114.4
117.7126,345.6
117.8005,356.4
117.8683,678.5
117.8766,611.6
117.8919,138.6
117.8961,106.6
117.9916,485
118.0164,361.5
118.0432,88.9
118.2066,168.9
118.2197,77
118.2214,15.9
118.2459,187.7
118.2567,145.8
118.2656,530
118.2888,750.9
118.3003,439.4
118.3416,417.9
118.3432,115.8
118.5065,318.6
118.5152,184.4
118.5391,733.3
118.597,151
118.616,618.5
118.6206,663.9
118.7192,326.9
118.7885,176
118.8042,75.7
118.8236,589.4
118.8538,99
118.9059,415.8
118.9664,19.1
118.9718,83.6
118.9792,20.6
118.9864,137.7
119.0147,125.3
119.019,34.6
119.0468,156
119.05,75.3
119.1043,373.5
119.1216,379.3
119.1853,113.9
119.2145,613.6
119.2603,379.8
119.2734,451.3
119.2931,131.4
119.3007,87
119.325,312.1
119.3439,840.8
119.3628,213.4
119.3821,305.4
119.3872,81.9
119.4222,366.8
119.4609,100.7
119.4882,219
119.4949,483.3
119.5089,102.9
119.5157,775.7
119.5294,511.2
119.5425,629
119.561,133.6
119.5653,91.5
119.5801,163.6
119.62,92
119.6759,18
119.6954,75.8
119.7721,135.1
119.7837,532.7
119.7868,368.1
119.7966,350.4
119.8198,103.6
119.9195,196.3
119.9467,20.2
120.0033,4533.8
120.0156,764.3
120.0192,18.4
120.0289,207.9
120.0558,220.6
120.0753,80.6
120.0809,12439.9
120.1093,502
120.1181,438.4
120.1232,254.4
120.1413,357.3
120.1634,133.9
120.1718,90.2
120.1808,298.1
120.2425,440.8
120.2958,267.5
120.2973,460.2
120.3379,181.8
120.3498,154.5
120.3519,338.8
120.3561,92.3
120.3682,18.1
120.4191,386.2
120.4639,119
120.5402,488.4
120.6006,90.5
120.6024,18.5
120.6126,358.8
120.6581,602.9
120.6783,728.2
120.6864,147.3
120.8603,18.6
120.9278,228.1
120.9544,167.2
120.9687,368.8
120.9718,210.4
120.981,193.1
121.0078,459.9
121.0243,322.4
121.0285,328.1
121.04,59.1
121.0628,139.8
121.1012,117.9
121.123,18.5
121.1286,152.5
121.1363,490.1
121.1378,83.9
121.1464,17.3
121.1882,667.5
121.2753,100.1
121.2961,111.2
121.4112,594
121.4832,422.4
121.4986,158.1
121.5337,85.4
121.5372,380.9
121.5409,96.4
121.5526,277.9
121.5598,268.3
121.5754,94.6
121.5818,381.8
121.5855,202.8
121.6519,278.1
121.7017,399.1
121.7104,548.6
121.7154,433.2
121.7172,432.8
121.732,351.2
121.7672,110.7
121.7803,92.3
121.8258,84.5
121.8496,18.5
121.8595,131.2
121.8671,103
121.9886,247.8
122.0044,105.6
122.0187,590.5
122.0298,95.6
122.0485,109.5
122.0719,110.3
122.1086,335.6
122.1356,207.7
122.155,22.3
122.19,598.1
122.2011,481.2
122.2238,101.4
122.2258,126.3
122.2368,253.1
122.2523,369.3
122.3011,329.9
122.3531,329.3
122.3857,188
122.395,671
122.4103,17.3
122.4118,101.8
122.4353,617.9
122.4699,341.5
122.4755,149.4
122.5059,704.9
122.6272,483.1
122.6712,703.6
122.6851,128.2
122.7259,122.4
122.7301,393
122.803,170.8
122.8322,442.1
122.8416,91
122.8443,76.3
122.8642,124
122.9146,319.2
122.9182,160.2
122.9247,13946.2
123.0334,109.8
123.0808,81.9
123.0851,240.2
123.0877,76.5
123.0902,388.3
123.0915,164.1
123.1006,104.8
123.1138,95.6
123.117,20.5
123.1183,124
123.121,18
123.1429,172.6
123.1578,327.5
123.1845,21
123.2132,419.4
123.2171,395
123.2265,330.6
123.2285,115.2
123.2508,210.2
123.2625,218.2
123.2642,751
123.2811,474.8
123.2844,292.3
123.2918,163
123.3257,17.8
123.3335,83.1
123.3474,168.2
123.3535,121.3
123.421,109.2
123.462,336.7
123.5017,141.1
123.5547,196
123.5938,89
123.6655,644.1
123.6698,308.5
123.6771,83.3
123.6792,201.7
123.6887,552.4
123.7172,200.9
123.7663,341.4
123.8072,362.1
123.8329,533.9
123.845,809.5
123.8638,18.8
123.8822,838.5
123.8957,635.4
123.9114,751.3
123.9528,186.8
123.9718,113.7
124.0251,241.9
124.0373,101.5
124.0915,463.6
124.1202,81.5
124.1332,394.2
124.1771,110.8
124.2033,18.8
124.2134,200.8
124.2235,203.8
124.3813,139.3
124.4322,108.2
124.443,459
124.4458,419.6
124.4665,18.1
124.5463,497.1
124.5504,84.1
124.6148,243
124.6295,92
124.6494,579.8
124.6967,17.3
124.7094,276.8
124.7984,166.9
124.8311,371.9
124.8981,360.8
124.8993,758.2
124.9098,119.6
124.9861,235.2
124.9874,334.9
125,3622.5
125.0024,22.6
125.0058,256.6
125.0321,253.7
125.0391,193.8
125.06,37.6
125.066,385.4
125.1099,615.7
125.131,113.8
125.1805,645.3
125.1865,343.7
125.2278,18.9
125.2398,162.3
125.2537,258
125.2924,18.4
125.3008,534.9
125.3257,396.9
125.3637,94.8
125.4182,332.5
125.4573,325
125.4688,145.7
125.4844,108.5
125.4896,139.2
125.5312,140.1
125.5855,677.7
125.6227,134.5
125.6836,132.5
125.6875,87
125.7041,231.8
125.7833,556.4
125.8021,17.4
125.8105,271.3
125.8181,358.1
125.8205,18.4
125.8321,396.4
125.8445,18.1
125.8652,20
125.9215,99.2
125.9258,19.9
126.0092,18.9
126.015,752.8
126.0231,562.8
126.0425,127.4
126.0617,614.4
126.0887,17.2
126.0964,141.1
126.0999,117.2
126.1147,158.3
126.1631,135.2
126.1668,126.4
126.1795,18.5
126.1989,151.2
126.2368,352.4
126.2397,120.3
126.2981,132.4
126.3011,76.4
126.3259,173.2
126.3515,89.1
126.3972,18.7
126.4054,173.7
126.4163,237.1
126.4465,258.1
126.4686,409.4
126.6178,212.5
126.6369,119.4
126.6428,346
126.6957,136.9
126.6987,454.9
126.7512,166.5
126.7704,158
126.7959,99.5
126.8035,685.2
126.8107,79.5
126.8566,98.2
126.9369,22.4
126.9659,17.3
126.9774,452.1
127.0433,116.9
127.048,130.3
127.0868,113.4
127.0931,129.1
127.1563,357.1
127.1766,503
127.1818,378.2
127.2015,88.9
127.2628,299.4
127.2646,483.6
127.3333,103.7
127.414,109.7
127.4508,267.1
127.4906,216.9
127.5131,112.6
127.5174,703.4
127.5185,337.4
127.6012,80
127.6235,19.2
127.6357,189.1
127.6817,453.9
127.7233,16.7
127.7938,105.4
127.8094,94.9
127.8225,16.4
127.8366,647.3
127.8618,165.6
127.8744,176.8
127.8883,155
127.9574,185.1
127.9611,121.3
127.9749,79.8
128.002,144
128.013,80.8
128.0561,87.2
128.0876,131.3
128.0891,78.4
128.1005,123.9
128.1375,179.9
128.1802,78.3
128.2132,22.4
128.2145,815
128.25,505.9
128.2827,19.8
128.2942,83.1
128.3305,16.1
128.3593,93.3
128.3755,316.1
128.3884,225.4
128.4242,486.3
128.4596,617.6
128.4822,96.8
128.5368,94.7
128.5406,183.4
128.5618,720.1
128.5925,631.9
128.6657,325.8
128.6696,268.4
128.7807,18.5
128.8368,20.2
128.895,97
128.94,137.5
128.9415,160
128.9512,96.8
128.9609,332.9
128.986,1010.3
128.9903,89.8
129.0035,1060.3
129.0762,121.7
129.0826,112.3
129.0985,201.4
129.1024,1414
129.1596,196.3
129.2709,256.2
129.283,198.5
129.2931,678.5
129.3036,170.6
129.3126,370.9
129.4266,141.6
129.4283,596.4
129.4447,322
129.4575,484.1
129.487,68.3
129.5008,423.3
129.5165,121.2
129.5474,170.3
129.6021,161.1
129.6324,95
129.6506,359.1
129.6613,189.5
129.6909,86.9
129.7348,723.4
129.8916,326.8
130.0038,506.5
130.0332,135.2
130.05,7329.1
130.1523,171.4
130.1681,489.5
130.2007,653
130.2093,79.2
130.3129,89.6
130.3285,173.6
130.3536,110.6
130.3699,101.6
130.3735,144.6
130.4031,146.7
130.5315,401.7
130.6052,372.4
130.6667,93
130.675,19.4
130.6891,186.1
130.6956,846.5
130.7142,111.1
130.7414,120.7
130.7711,100.2
130.7823,120.1
130.8122,635.9
130.8305,228.9
130.8425,102
130.8707,97.3
130.8808,142
130.9243,206.5
130.9317,638.3
130.9647,148.7
130.9669,241.1
130.9933,289
131.0095,418.3
131.1088,375
131.1366,458.8
131.1409,783.1
131.1646,514.3
131.1717,125
131.1755,81
131.2222,141.3
131.2251,203.7
131.232,532.8
131.3603,153.4
131.3677,18.9
131.3832,18.7
131.3847,297.7
131.4152,113.5
131.4184,224.6
131.454,83.2
131.6112,513.3
131.6775,118.2
131.7236,155.9
131.871,214.8
131.8943,171.1
131.9465,125.7
131.9554,109.4
132.0034,30237.1
132.0219,80.6
132.055,467.5
132.0615,512.2
132.0657,106910.2
132.088,472.5
132.1545,580.8
132.1988,528.4
132.2995,414
132.3774,205
132.4414,22.5
132.4551,116.4
132.4695,293.3
132.5464,298.9
132.5919,272.6
132.6303,169.7
132.634,638.9
132.6372,399.5
132.6444,211.7
132.6461,210.3
132.679,689.8
132.7403,247.6
132.9029,21.3
132.9241,85.5
132.9582,25.5
132.9734,574.6
132.9874,5572.1
133.004,69.9
133.0167,632.3
133.048,70.8
133.0651,18.8
133.0691,3049.6
133.0846,309.2
133.0862,59.9
133.0973,21897
133.1139,97.9
133.1426,501.3
133.1747,82
133.2023,198.5
133.2754,411.8
133.2769,83.1
133.2942,265.5
133.2995,18.8
133.3191,426.3
133.3884,294.9
133.4935,109
133.5053,1057.8
133.5349,221.4
133.557,495.7
133.5591,107
133.579,248.8
133.7004,572.9
133.7341,126
133.7366,216.8
133.7705,628.7
133.8061,274.8
133.853,373.9
133.8958,324.1
133.9268,423.9
133.9668,330.8
133.9896,387.9
134.019,18172.1
134.0291,465
134.0534,70.8
134.0768,82.5
134.1105,144.8
134.1203,301
134.1827,125.7
134.2738,185.8
134.2945,470.5
134.3391,18.3
134.3703,498.4
134.3789,947.8
134.4317,212.6
134.4554,19.1
134.4898,491.9
134.5009,20.3
134.513,598.5
134.5237,596.9
134.5571,213.3
134.6273,846.1
134.6338,362.1
134.7069,155.7
134.7399,510.6
134.7604,88.2
134.8842,115.9
134.9405,624.6
134.9542,286.5
134.9968,46.2
135.0031,130677.8
135.0235,28.1
135.0475,20.9
135.0551,199.9
135.1171,26.9
135.2079,245
135.2382,703.6
135.2467,118.3
135.2906,104
135.3018,140.2
135.3306,221.5
135.3446,75.2
135.3547,127.2
135.3652,780.9
135.379,273.6
135.5373,258.6
135.5497,506.6
135.5719,185
135.5835,159.1
135.627,249.8
135.6508,536.7
135.6659,822.7
135.6769,109.4
135.7268,382.7
135.7946,122.4
135.8114,675.7
135.8356,239.2
135.8371,90.3
135.8494,393.6
135.8833,192.3
135.906,204.4
135.9126,84.1
135.9354,315.6
135.9533,100.3
135.9773,2218.7
136.0064,1602.6
136.0366,183.3
136.0484,7757.5
136.0759,12841.9
136.2172,295.5
136.2231,131.1
136.4582,254.3
136.5543,21.3
136.628,143.7
136.7416,90.8
136.7852,714.2
136.8139,331.3
136.8323,18.9
136.8366,338.6
136.8407,415.4
136.8547,17.9
136.8825,83.1
136.9314,886.4
136.9666,133.9
136.9808,19.2
137.0042,363.8
137.0232,97.6
137.032,742.7
137.0366,18.7
137.0559,574.2
137.0583,509.3
137.0599,140.1
137.0792,392.8
137.1444,18.2
137.2236,99.5
137.3361,87.8
137.3542,126
137.3761,338.7
137.3831,711.1
137.3852,344.9
137.4041,85.8
137.4405,103.8
137.451,295.9
137.4691,159.1
137.5075,158.8
137.5103,217.3
137.5234,103.8
137.5842,18.1
137.6343,177
137.6539,181.4
137.7215,580.7
137.7391,699.2
137.7786,252.7
137.7899,113.7
137.8074,759.9
137.8141,371.1
137.8861,101.7
137.8958,96
137.9195,158.8
137.925,458.1
137.9348,340.5
137.9632,119.5
137.9664,674.5
137.9809,129.5
137.9964,82.3
138.0437,350.7
138.0528,12649.7
138.0657,96.8
138.0978,19.3
138.1034,90.8
138.1053,21.8
138.1348,330.6
138.1382,263.2
138.1421,144.3
138.154,202.8
138.1568,301.8
138.1817,704.1
138.1864,133.1
138.189,179.3
138.1911,486.8
138.206,721
138.2314,466.5
138.2359,152.4
138.2814,345.7
138.2928,550.6
138.3878,164.2
138.4176,206.2
138.422,19.7
138.4327,18.6
138.4688,98.1
138.495,341.2
138.5595,166
138.5803,19.8
138.596,20.4
138.6214,324.7
138.6377,190
138.7401,515.4
138.7802,123.1
138.8144,164.9
138.8305,130.3
138.8404,174.4
138.9067,3692.1
138.9746,381.5
138.9751,398.7
138.9758,363.7
139.0672,148.6
139.1119,23.1
139.1845,136.2
139.2062,188.2
139.3043,144.5
139.4126,103.3
139.5632,240.8
139.6307,107.4
139.6841,18.1
139.687,133.1
139.6878,131.4
139.6997,427.3
139.7094,184.7
139.7169,193.9
139.7437,191.7
139.7674,267.4
139.7858,693.6
139.7889,259
139.7905,684.9
139.8223,105.7
139.8382,176.1
139.8849,79
139.8905,166.8
139.9528,504.4
140.0167,1035
140.0376,130.1
140.0392,174.4
140.0684,5194.4
140.0733,81.7
140.1536,237.3
140.1911,74.2
140.2036,18.9
140.2397,77.8
140.389,149.7
140.4094,20
140.4143,159.3
140.444,139.8
140.5348,851.7
140.5818,267.3
140.6993,203.6
140.7205,135
140.7792,364.5
140.7857,238.7
140.8024,335.8
140.8148,108.4
140.817,19.7
140.821,78.3
140.8557,424.5
140.875,104.8
140.9037,1644.9
140.9067,419.1
140.9635,20.6
141.0007,19916.6
141.0212,426.1
141.0286,247.4
141.0322,429.7
141.0475,735.1
141.0531,95.6
141.066,381.8
141.0681,19.8
141.1022,158.1
141.1441,18
141.166,238.5
141.1904,378.7
141.2451,449
141.257,384.6
141.2603,453.2
141.3038,220.5
141.3254,777.8
141.3314,388
141.3438,786.4
141.3573,527
141.4153,120.5
141.429,166.5
141.4449,93.9
141.4574,17.3
141.4603,146.1
141.5059,220.7
141.576,108.2
141.617,130.7
141.682,130
141.6963,96.7
141.7243,172.2
141.7447,133
141.7876,20.7
141.8181,687.4
141.8565,131.9
141.9285,109.7
142,88.8
142.0041,454.7
142.015,218.7
142.0457,133.1
142.0477,1370.2
142.0716,170.8
142.0738,65.3
142.0939,736
142.1418,21.9
142.1551,262.8
142.1563,496
142.2428,391.8
142.3233,96.2
142.3351,166.8
142.3356,137.6
142.3364,145.8
142.3566,97.4
142.3628,327.4
142.3831,251.2
142.4483,193.1
142.4783,110.4
142.4908,359.9
142.5037,205.9
142.5662,595.6
142.5971,18.7
142.6085,206.5
142.6241,709.4
142.6581,83.4
142.6762,244
142.6919,137.3
142.6932,87.2
142.7349,141.4
142.738,135.2
142.7401,288.1
142.8216,116.5
142.9189,397
142.9221,578.2
142.9238,75.5
142.9479,389.8
142.9511,809
142.9584,291.9
142.9643,414.1
142.9695,19.7
142.9756,250.6
142.9965,266.3
142.9983,473.7
143.0191,1397
143.0345,238.8
143.0647,190.3
143.0737,320.4
143.0778,170.2
143.0818,520.5
143.1044,19.2
143.1301,368.9
143.1923,776.8
143.2249,19.4
143.268,87.4
143.2702,232.2
143.2792,666.6
143.3058,136.2
143.3195,334.5
143.4256,124.8
143.4679,320.9
143.5329,725.9
143.6533,128.5
143.7258,18.3
143.748,193
143.7582,19.1
143.7595,233.2
143.7631,501.3
143.8017,124.1
143.8333,119.6
143.8712,228.1
143.9279,19.1
143.9323,476.6
143.9373,17.5
143.984,537.9
144.0109,19.2
144.0334,131.6
144.0498,153.2
144.0789,166.3
144.0808,238.6
144.0867,18.8
144.0935,239.5
144.116,114.5
144.1432,272.5
144.1773,19.4
144.3053,92.8
144.3323,488.3
144.3621,131.4
144.4021,110.7
144.4103,163
144.4191,326.9
144.45,248.2
144.4623,438.4
144.4659,165
144.4689,98.4
144.4729,779.8
144.5129,265.4
144.5247,218.9
144.6562,145
144.6839,99.6
144.6856,80.8
144.7494,122.4
144.8198,79.1
144.8339,186.4
144.8744,634.7
144.8771,170.2
144.8803,617
144.981,6912.4
145.0079,20.5
145.0864,98.5
145.1184,459.2
145.1474,182.5
145.2409,180.1
145.2634,20.8
145.2724,84.2
145.2796,16.4
145.2899,566.6
145.3113,91.9
145.3444,235.6
145.3543,205.1
145.3825,516
145.493,162.9
145.511,218.1
145.5885,113
145.632,525.6
145.6359,72.7
145.6524,673.9
145.6583,107.2
145.7037,77.1
145.7846,693.5
145.8306,94.4
145.9092,101.6
145.9131,119
145.9662,82.7
145.9675,392.8
145.9741,75.6
145.9787,144.2
146.0127,4671.9
146.0191,18830
146.0427,169.6
146.045,19.3
146.0682,85.4
146.1138,78.5
146.1168,363.7
146.1294,115.6
146.1641,85.2
146.2993,228.8
146.3616,181.5
146.3766,101.2
146.3946,86.9
146.4254,106.7
146.4364,185.9
146.5008,776.5
146.5499,237.5
146.573,879.7
146.5776,432.7
146.6344,132.4
146.6398,20.8
146.6495,123.3
146.665,822.7
146.7406,135.7
146.8213,135
146.822,208.4
146.8226,171.2
146.8285,327.6
146.8437,378.7
146.8936,22.1
146.9595,121.1
146.982,96274.8
147.0112,602
147.0767,49774.4
147.081,17.3
147.0948,381.5
147.1016,23
147.1131,36407
147.1171,103.7
147.1261,19.3
147.1972,234
147.211,115.1
147.2159,87.4
147.3727,17.9
147.4573,81.9
147.4583,82.2
147.5392,104.2
147.5513,480.5
147.6203,351.9
147.6259,433.2
147.6295,17.7
147.6331,409.1
147.6722,106.5
147.7047,455.5
147.7217,124.5
147.7387,83.7
147.7722,199.8
147.7745,401.4
147.8533,84.2
147.8625,193.7
147.8777,83.2
147.9194,664.4
147.9224,408.4
147.9599,112.8
147.9899,119.4
148.0125,400.9
148.0801,301.3
148.1549,85.1
148.1582,652.7
148.1921,180.2
148.1932,173.4
148.2486,614.5
148.2787,807.3
148.3103,373.1
148.3137,508.3
148.3409,293.2
148.3955,146.1
148.4706,281.2
148.4886,101.9
148.498,110
148.523,113.9
148.5324,1540.1
148.5489,239.3
148.5602,83.2
148.6053,850
148.6512,171.8
148.7118,224.9
148.7518,472.3
148.7649,146
148.769,180
148.8282,155.5
148.8499,110.3
148.8711,17.4
148.8763,140.7
148.8959,342.8
148.9614,2921.8
149.0027,80.8
149.0085,107.9
149.0188,4908.8
149.0212,228.3
149.0236,5189.5
149.039,123.7
149.0452,23.7
149.0538,123.5
149.1208,109.3
149.182,105.1
149.2089,271
149.2133,92.5
149.223,95.9
149.2327,643.3
149.2985,343.2
149.3016,148.9
149.3364,74.4
149.3424,247
149.347,576.4
149.4015,104.6
149.4648,353.4
149.5402,740.3
149.5787,21
149.63,698.3
149.6887,139.3
149.7167,330.1
149.7566,231.5
149.7623,170.1
149.7689,89.9
149.8102,83.3
149.8611,214.9
149.8618,283.5
149.8626,252.7
149.8802,90.7
149.8836,862.7
149.9789,228.6
149.9931,10657.2
150.014,5638.5
150.0269,104.2
150.0569,20.3
150.0674,111.2
150.0682,150.4
150.0687,144.5
150.1094,631.5
150.1167,339.9
150.1895,385.8
150.2123,137.4
150.2603,255.3
150.298,90.1
150.302,615.2
150.3389,21.6
150.4142,549.8
150.4442,737.5
150.4465,135.7
150.4737,183.9
150.4775,235.8
150.4966,650
150.558,90
150.6534,115.9
150.6727,417.4
150.6914,623.5
150.6935,17.9
150.7092,481.9
150.7232,190.3
150.7254,20.5
150.757,159.7
150.7909,137.3
150.814,482.9
150.826,87.5
150.8519,92.8
150.8617,133.7
150.8948,177.2
150.9709,733.6
150.9771,66387.6
150.9844,172.6
151.003,103.8
151.0343,19.5
151.048,3304.1
151.0739,18.7
151.0865,232.1
151.2041,260
151.2328,19.2
151.245,232
151.2704,307.5
151.3003,17.8
151.3981,451.5
151.4245,101.6
151.4391,336
151.4501,17.1
151.4765,345
151.4817,212.2
151.5273,96.1
151.579,181.6
151.585,18.6
151.5901,201.8
151.735,559.1
151.7924,18.4
151.8235,111.6
151.8415,17.9
151.8846,201.2
151.9458,112.3
151.9567,402.6
151.9804,726.3
152.0029,641.1
152.0224,9391.1
152.0321,3665.4
152.06,91.7
152.1983,237
152.2051,676.5
152.2678,453
152.3175,82.2
152.3274,165.1
152.3518,84.9
152.3832,242.9
152.39,118.7
152.4133,554.8
152.4594,147.8
152.5129,94.6
152.5148,129
152.523,744.5
152.6403,360.5
152.68,452.4
152.732,158.1
152.7512,564.9
152.782,95.8
152.8117,79
152.8625,210.9
152.9661,322.1
152.9702,728.8
152.9752,4065
152.9883,397.6
153.0739,90.6
153.1282,656.1
153.1519,85.7
153.1593,585.8
153.1703,172
153.2531,394.9
153.2733,218.4
153.2844,313.5
153.5384,123
153.6389,265.2
153.6417,371.2
153.6661,18
153.6935,395.7
153.7559,120.8
153.8515,563.8
153.8575,99.6
153.896,19.1
153.9096,397.9
153.9134,147
153.9213,542.5
153.9262,639.2
153.9953,291.2
154.0042,352
154.0114,844
154.0267,1846.5
154.0439,129.8
154.0589,2316.7
154.0834,108.6
154.1241,370.2
154.2399,165.9
154.2784,443.4
154.2809,426.8
154.2884,17.4
154.2958,786
154.3561,679.5
154.3681,124.5
154.394,157
154.4199,213.5
154.4282,698.4
154.434,250.3
154.4365,525.6
154.4397,159.1
154.4418,139.9
154.4622,338.8
154.5118,99
154.5265,322.6
154.5625,796.9
154.5659,220.3
154.5743,139.4
154.5943,320.5
154.6019,462.6
154.6574,74.2
154.7946,284.4
154.8304,143.8
154.8805,411.1
154.9024,270.3
154.9077,81.6
154.9156,19.7
154.9414,122.9
154.9593,353.8
154.9694,382.8
155.016,88.3
155.0189,291.6
155.0242,375
155.0431,2305.2
155.0496,274.7
155.0543,4223.9
155.0792,2084.6
155.0864,89.5
155.0967,84.8
155.1109,245
155.1375,77.7
155.153,354.9
155.1787,274.9
155.1896,130.4
155.2125,372.6
155.2941,155.9
155.316,193.3
155.3391,198
155.3803,739.5
155.4212,21.2
155.476,152.7
155.5165,164.8
155.5781,112.3
155.592,16.9
155.7979,111.9
155.823,178.5
155.8456,339.3
155.9005,97.4
155.9095,129.5
156.0247,217.9
156.0294,92.8
156.0303,90.5
156.0333,104.3
156.0424,5306.3
156.0493,703.3
156.0771,46262.7
156.0941,20.6
156.1085,98.1
156.154,138.8
156.1645,525.9
156.1682,119.6
156.1833,218.8
156.1866,119.5
156.255,18.6
156.3155,134.5
156.3333,74.8
156.4037,600.8
156.4081,223.8
156.4569,87.8
156.5238,334.1
156.581,519.3
156.6958,170.2
156.7205,402.1
156.7893,100.9
156.8032,376.7
156.9343,1809.2
156.9539,100.2
156.9747,20.8
156.9834,155
157.0808,173.8
157.0975,232.2
157.1048,93.2
157.1456,201
157.1514,726.2
157.2817,18.3
157.3452,733.5
157.3471,144.2
157.3691,19.2
157.3856,17.6
157.4067,71.3
157.4081,107.3
157.4233,18.5
157.5175,20
157.5898,677.5
157.6021,409.8
157.6059,403.3
157.6225,123.3
157.6334,19.4
157.6647,399.8
157.7563,128.7
157.9848,95.3
158.013,95.1
158.0274,4450.9
158.0385,148
158.0556,294.5
158.0633,117.6
158.0959,277.7
158.1091,116.5
158.1622,99
158.2295,523
158.2991,112.8
158.3089,212.8
158.3436,150.4
158.4149,219.8
158.4297,17.7
158.4636,148.7
158.4862,99
158.5062,434.3
158.525,183.9
158.5594,99.5
158.6548,358.3
158.7111,112.5
158.7193,265.4
158.7332,623.8
158.7434,125.4
158.8448,94.1
158.928,2748.5
158.9582,182.8
158.9644,10100.8
158.9968,15143.7
159.0112,275.2
159.0221,122.1
159.0281,363.6
159.0307,153.9
159.055,72
159.0576,111.3
159.0919,133.4
159.1172,25.1
159.3004,363.4
159.3075,82.8
159.3226,156.7
159.3763,109.9
159.3969,505.1
159.6706,418.3
159.7067,158.7
159.7127,18.9
159.7144,112.5
159.7326,135.5
159.7585,178.4
159.8667,124
159.9673,18.6
160.0232,106.7
160.0285,125.5
160.0348,26299.5
160.0433,507.5
160.0608,105493.1
160.0813,17.8
160.1227,131.6
160.2335,321.4
160.3217,157.1
160.3958,403
160.427,260.6
160.4386,286.8
160.4758,19.4
160.5111,101.3
160.5365,106
160.6194,143.2
160.6514,177.1
160.6898,900.5
160.6991,684.9
160.7847,685.9
160.7983,563.9
160.8116,546.6
160.8138,106.2
160.8201,687.7
160.8599,115.9
160.8933,624
160.897,320.5
160.9636,104.9
160.9772,138.7
161.0187,453.3
161.0642,4377.7
161.0964,34.3
161.1289,352.9
161.1318,399.5
161.1903,218.7
161.2363,193.2
161.4168,348.6
161.4851,187
161.4883,264
161.5072,245.2
161.5323,372.8
161.5783,21.3
161.5928,125.5
161.6042,229.4
161.6754,189.9
161.7306,108.5
161.7928,134.7
161.838,117
161.9878,223.5
162.0445,84.2
162.0505,23608.8
162.0691,17.7
162.1116,93.9
162.1388,19.9
162.1546,473
162.2555,163.6
162.2602,483.3
162.3373,72.5
162.3445,508.3
162.3621,226.6
162.4014,792
162.4077,146.7
162.4334,126.7
162.4456,377.1
162.6086,269.4
162.64,209.1
162.7081,127.4
162.7443,423.7
162.8017,276.2
162.8291,357.3
162.9324,18.8
162.956,1256.9
163.0108,325.9
163.0157,3199.8
163.0345,7473.9
163.0395,19.9
163.0539,894.5
163.0612,24.7
163.0648,129.6
163.0679,79
163.113,178.2
163.1346,101.3
163.2062,162.1
163.2214,21.9
163.3088,312.7
163.4125,256.5
163.435,102.9
163.4521,371
163.4795,92.8
163.4819,90.4
163.4899,132.1
163.5285,118.3
163.5668,100.3
163.6151,349.4
163.6369,116.6
163.6464,739.7
163.6493,194
163.653,177.8
163.6561,231.1
163.6593,156.3
163.6711,152.6
163.7077,634.8
163.7301,329.6
163.7714,240.1
163.8184,171.3
163.8374,22.3
163.8405,259.6
163.8871,218.4
163.9479,335.8
164.0298,17833
164.0403,114.6
164.1735,530.3
164.1777,241.7
164.2207,688.8
164.3578,342.8
164.3686,228.1
164.4759,105.2
164.5364,175
164.5443,183.5
164.5736,182.6
164.6276,110.1
164.6299,396
164.672,221.3
164.687,143
164.7212,110.9
164.7402,362.8
164.7603,413
164.8047,120.9
164.8775,139.6
164.9209,6370.7
164.9303,14647
164.9354,2632.9
164.956,148.7
164.9607,390.4
164.9767,575.6
164.9928,1889.5
165.0062,126.4
165.0146,86.1
165.0482,500.5
165.0585,418.2
165.0802,99.4
165.0913,439.9
165.1913,95.7
165.1974,162.7
165.2164,514.8
165.245,112.8
165.2844,108.3
165.2868,249.7
165.3135,114
165.3448,506.9
165.3484,245.2
165.4358,23.6
165.4444,301.9
165.4472,89
165.4736,96.8
165.4822,180.7
165.5373,17.6
165.546,119.5
165.5584,15.8
165.6202,166
165.641,661.1
165.6571,231.1
165.7011,17.3
165.7707,126.4
165.774,115.9
165.7967,500.3
165.8006,602.1
165.8121,95.9
165.8906,308.8
165.9186,452.7
165.961,349.6
165.9671,1964
165.9791,1389
165.988,3417.5
166.0133,202.2
166.0453,166.9
166.0541,734.5
166.069,81.7
166.12,79.6
166.148,721.1
166.191,363.4
166.2853,102.8
166.3707,336.8
166.3852,96.9
166.4395,99.4
166.496,484.5
166.5247,556.5
166.5326,193.6
166.5572,118.6
166.5879,84.9
166.6951,139.9
166.721,817.3
166.724,106.5
166.7325,115.7
166.7812,17.7
166.8188,662.8
166.9286,339.5
166.9366,248.8
166.9511,23027.7
166.9632,1549.2
166.9694,185.9
166.9837,104
167.0221,4695.3
167.0668,98.8
167.0782,184.5
167.0966,211.5
167.1864,17.4
167.2034,311.2
167.2599,145.9
167.3042,222.4
167.322,667.6
167.3229,629.2
167.3398,637
167.3819,94.8
167.3889,135.5
167.4049,172.1
167.4368,17.1
167.5086,358.4
167.5194,97
167.6537,129.1
167.6843,351.3
167.8136,381.5
167.8333,380.8
167.8494,78.9
167.9484,480.5
167.9639,85.7
167.9948,3569.5
168.0046,225.6
168.0928,222.2
168.1517,151.2
168.1852,156.1
168.2145,329.6
168.2416,95.2
168.2544,146.4
168.3643,458.4
168.4892,100.2
168.5143,193.9
168.518,332.9
168.5452,451.5
168.5638,361
168.5703,283.2
168.7289,287.6
168.8018,770.8
168.8133,87.8
168.8757,124.6
168.9003,597.1
168.9492,2350.7
169.0426,80.9
169.0557,235.7
169.0587,58277.1
169.065,996.4
169.0815,132.1
169.0951,7864.9
169.1251,690.8
169.1424,323.2
169.1523,117.9
169.1671,290.4
169.1834,18.5
169.1923,18.2
169.2036,75.4
169.2162,420.1
169.2377,304
169.3013,419
169.3214,617.2
169.3518,145.5
169.3577,79.2
169.4421,774.1
169.5547,148.6
169.5782,116.9
169.7259,171.8
169.7514,17.4
169.8707,176.3
169.9115,73.1
169.9235,103.3
169.9413,115.9
170.033,1580.8
170.0531,420.3
170.062,1482.8
170.0902,239.9
170.0928,23455.1
170.1296,119
170.2001,347
170.2784,166.2
170.3453,162.5
170.3541,294.4
170.4011,432
170.4891,189.6
170.5015,574.7
170.5725,182.4
170.6061,86
170.6257,240.8
170.6686,436
170.6848,133.7
170.6879,17.5
170.7559,200
170.7658,354
170.8459,637.7
170.8547,3220.9
170.8915,259.3
170.8939,92.3
171.0169,766.1
171.0215,94.5
171.0283,396.3
171.0448,587.7
171.0618,95.4
171.0772,97.9
171.0964,115.5
171.1457,82
171.1584,149.2
171.1631,88.2
171.1681,480.2
171.2004,144.6
171.2916,428.6
171.2998,102.4
171.4049,93.8
171.4134,128.5
171.4562,257.1
171.4649,71.7
171.4726,20.9
171.5387,93
171.6027,340.6
171.7224,310.9
171.7418,75.1
171.7492,90.7
171.8227,98.2
171.8318,93.9
171.9131,82.7
171.9442,497.6
171.9615,158.6
171.9979,360.1
172.0082,497.6
172.0286,1732.8
172.0369,570.6
172.1456,311.3
172.1843,277.9
172.2892,107
172.2908,113.7
172.4603,118.9
172.4764,20.7
172.5003,167.9
172.6022,608.3
172.682,18.5
172.694,97.9
172.7629,735.2
172.8141,425.4
172.8517,2050.4
172.8618,160.4
172.8829,75.7
172.8991,18
172.927,155.4
172.943,181.7
172.9484,87.7
172.9649,379.3
173.0021,518.8
173.0066,85.7
173.0272,293.9
173.0964,238.6
173.1324,577.8
173.166,118
173.2203,18.8
173.2768,166.5
173.3863,189.9
173.4772,84.5
173.4926,17
173.5143,91.7
173.6381,250.6
173.7238,111.6
173.8939,95
173.9016,194.5
173.9194,135
173.9733,260.2
174.0142,343
174.0592,355.3
174.1043,690.8
174.1264,97.8
174.13,138.4
174.1591,108.7
174.2348,150.2
174.2564,102.5
174.2703,111.5
174.2799,117.3
174.3097,161.8
174.3455,342.6
174.3854,492.6
174.499,114.3
174.5364,94
174.5393,131.1
174.5524,188.3
174.5546,415.9
174.598,351.2
174.6343,101.7
174.6683,365
174.7425,19.4
174.7463,19.1
174.8812,164
174.9383,4064.9
174.9726,100.4
174.984,339.2
174.9901,679.6
174.9987,90.1
175.0346,10374
175.0458,4669.4
175.058,544.6
175.0692,19.3
175.1194,91103.3
175.1599,351.7
175.1769,679.6
175.1831,284
175.2643,18.7
175.2724,382.2
175.2973,120.4
175.4047,502.6
175.4399,127.8
175.4442,178.8
175.4813,722.1
175.561,451.5
175.5636,142.3
175.6182,192.4
175.7408,201.4
175.7663,19.4
175.793,346.2
175.8134,146.3
175.9403,682.9
175.9584,274.2
176.0088,12991.7
176.0662,39319.4
176.0871,180.1
176.1037,720.1
176.1227,1548.6
176.2043,188.1
176.2235,406.6
176.2936,908.5
176.3658,365.2
176.5707,320.4
176.5903,662.4
176.6112,406.1
176.6532,202.2
176.6739,196.2
176.7131,159.8
176.7299,160.9
176.7409,119.1
176.8227,245.1
176.8348,93.1
176.8776,95.4
176.8863,19.9
176.9106,73.1
176.9158,464.8
176.9927,521.9
177.0076,24.2
177.0251,5514.5
177.0615,11726.5
177.0694,553.4
177.0874,844.2
177.1931,149.6
177.1993,208.5
177.2033,363.3
177.2737,95.8
177.2815,276.2
177.3007,143
177.502,98.2
177.5663,24.2
177.6166,98.6
177.7162,16.8
177.8254,161.3
177.8855,257.3
177.9177,192.4
178.0092,12563.9
178.0185,208.4
178.0245,12429.9
178.0425,360
178.0591,3877
178.0867,325.8
178.0906,117.4
178.1163,413.6
178.1303,361.9
178.1564,285.3
178.2045,666.9
178.2115,494.1
178.2775,498
178.3446,18
178.3753,18.8
178.4761,355.7
178.5739,101.3
178.5991,680
178.7109,366.2
178.7534,170.2
178.7757,415.4
178.7788,87.7
178.7849,105.4
178.7936,110
178.8259,77.5
178.8706,126.9
178.927,18.3
178.9985,88.2
179.0086,3287.6
179.0424,19
179.0464,734.3
179.0499,240.6
179.0626,296.5
179.0856,24.2
179.1291,157.6
179.2624,501.9
179.467,651.3
179.5287,17.8
179.5425,280.3
179.5508,103.8
179.5983,17.6
179.6555,747.6
179.8557,440.3
179.8609,313.7
179.8717,416.3
179.9834,436.2
179.9886,374.5
180.0037,11585.6
180.0102,115.3
180.1423,702.3
180.1508,262.1
180.175,21.6
180.2145,208.4
180.2435,79.5
180.2468,365
180.3762,204.5
180.452,260.2
180.4599,437.9
180.4654,688.8
180.5459,272.7
180.5541,74.1
180.5808,23.4
180.589,469
180.6031,112.1
180.618,587.4
180.6346,73.6
180.6799,533.4
180.7163,235.2
180.7389,181.7
180.8303,426.7
180.8821,258.9
180.895,3342.2
180.9044,6696.5
180.9579,1828.2
180.9784,434.6
181.0223,99.5
181.0264,440.4
181.0545,163
181.0653,9996.8
181.0996,27.2
181.1565,86
181.1904,280.4
181.2158,148
181.3474,156.8
181.4913,118.3
181.5167,513.7
181.5275,303.3
181.5943,340.2
181.6185,467.7
181.6249,94.2
181.6272,18.5
181.6409,18.9
182.0079,332
182.0429,40122.5
182.0794,117.3
182.1574,168.1
182.2602,167.9
182.2817,397
182.4838,17
182.5058,88.6
182.5593,135.9
182.6519,160.6
182.6712,113.4
182.7008,469.2
182.7506,19.5
182.7807,342.3
182.8023,117.8
182.8096,292.4
182.849,448.3
182.854,113.5
182.8837,23.1
182.9016,307.9
183.0449,2570.2
183.0625,135.7
183.0985,107.4
183.1546,99.3
183.2593,103
183.2745,204.1
183.2897,326.8
183.4643,124.7
183.61,100.2
183.6134,402.5
183.6997,87.8
183.7161,427.4
183.7457,96.1
183.759,106.8
183.8694,350.5
183.9415,348.4
183.9623,143.6
183.9795,181.5
184.0374,508.1
184.0702,2246.3
184.0738,3507079
184.0808,326.3
184.1101,467
184.1758,749.2
184.1826,258.7
184.2918,555.2
184.3557,122.9
184.3626,399.7
184.3933,17.7
184.3973,119
184.4331,719.5
184.6392,152.2
184.6622,79.4
184.7129,196.9
184.7657,320.8
184.8105,166.8
184.828,18.9
184.8777,18
184.8816,21.4
184.8878,18.8
184.9197,81.8
184.9464,222.1
184.9914,332.6
185.0328,50476.4
185.0603,198.1
185.0706,7493.6
185.0771,164737.2
185.1069,70.9
185.2345,18.5
185.3815,292.1
185.4139,94.2
185.4309,266.9
185.4665,194.2
185.4908,392
185.5593,240.8
185.5853,104.4
185.5964,84.6
185.6262,409.1
185.7428,171.2
185.8069,794.5
185.8611,307.3
185.8778,262.8
185.9129,427.7
185.9469,125.1
185.9786,852
185.9898,19.9
186.006,87.4
186.0553,503.6
186.078,21631.3
186.151,213.2
186.3932,262.2
186.5057,125.9
186.5328,158
186.5571,73.1
186.5808,130
186.6327,78.1
186.6467,18.6
186.668,174.8
186.6706,113.1
186.6813,93.7
186.7045,75.9
186.7416,333.7
186.7994,92.6
186.8177,560.9
186.9124,1677.6
186.9392,17.7
186.9571,190.4
186.962,101
187.0309,1809
187.0581,5311.8
187.0719,1522.4
187.0809,339.7
187.0958,520.3
187.108,2316.9
187.1557,88.3
187.16,128.3
187.1974,151.8
187.238,348.2
187.2998,350.9
187.327,152.9
187.3772,150.2
187.4026,118
187.4528,177
187.4737,657.2
187.6266,797.6
187.6405,119.2
187.7813,134
187.7842,387.1
187.8356,717.9
187.8533,432.3
187.8679,187.1
187.923,109
187.9706,141.2
188.06,177.4
188.1007,649.5
188.1528,183.1
188.1701,89.5
188.214,112.2
188.2215,610.8
188.2654,111.7
188.5154,153
188.5446,18.3
188.6571,387.3
188.7952,472.8
188.8367,496.2
188.8813,148.2
188.9077,306.6
188.9176,19.8
188.9609,639.3
189.025,530.8
189.0616,2039.3
189.0875,9454.2
189.2062,105.5
189.2229,117.9
189.249,331.8
189.3556,271.6
189.3676,106.4
189.4051,204.7
189.4121,123.4
189.4348,163.6
189.5311,136.2
189.6168,671.1
189.6206,330.8
189.6747,263.5
189.6868,248.7
189.8309,757.8
190.0321,89.2
190.0509,398.8
190.0647,869.6
190.0707,20.1
190.0804,428.8
190.1776,395.7
190.2148,144.8
190.2575,170.9
190.3669,762.3
190.4352,339.9
190.4398,698.6
190.4583,293.9
190.6284,197
190.6699,357.6
190.7034,103.5
190.7738,172.4
190.8035,89.5
190.8728,27.1
190.8789,471.1
190.9007,164.1
190.9088,140.7
190.9123,700.2
190.9448,105.4
191.0086,9097.2
191.0408,128350.3
191.0772,34303.6
191.0982,18.3
191.1809,275.5
191.2568,143.1
191.3058,255
191.3208,84.4
191.4473,301.9
191.5118,103.2
191.5905,20.1
191.5942,110
191.612,163.4
191.7042,19.1
191.7663,194.9
191.7885,113.4
191.8169,357
191.9148,143.8
191.9317,96.3
191.973,105.4
191.9828,948.4
192.0247,369
192.0402,16023.8
192.0442,4708.8
192.1005,209
192.1398,19.8
192.1725,76.4
192.1836,89.5
192.213,384
192.2217,580.5
192.2681,564.2
192.3392,148.7
192.5114,617.3
192.5166,192.6
192.6061,727.3
192.7132,649.9
192.7361,345.8
192.7391,97.6
192.8584,21.7
192.8825,129.1
192.8888,612.5
192.962,577.7
192.9736,110.9
192.9746,124.1
192.999,3358.2
193.0355,4597.3
193.0437,392.6
193.0964,574.6
193.2103,20.9
193.2226,373.6
193.247,74.3
193.316,328.8
193.3369,17.5
193.3757,113.1
193.3948,453.8
193.3972,521.3
193.4136,354.8
193.4317,608.5
193.4656,19.5
193.7033,642
193.7293,73.7
193.7351,102.8
193.8087,594.6
193.9985,2504.7
194.0021,17.3
194.0053,1695.4
194.0105,225.4
194.0331,1399.1
194.1546,160.9
194.1581,22.9
194.3073,505
194.3504,146.4
194.5132,171
194.5347,737.5
194.6366,21
194.6847,409
194.6935,258.6
194.8152,277.4
194.8471,137.3
194.8502,91.4
194.9165,358.5
194.9617,933.9
194.9734,18.6
194.9824,746.4
195.0357,131.6
195.0444,156.5
195.0525,682.5
195.1183,254.6
195.1836,98.9
195.2178,234.3
195.2804,216.3
195.3063,126.5
195.6324,103.9
195.8064,91.8
195.823,295.4
195.8448,105.2
195.9657,119.2
195.9794,119.6
195.9825,90.1
195.9938,422.5
196.0325,307.9
196.0797,151.3
196.0861,95.6
196.1187,78.1
196.1701,247.4
196.2018,19.3
196.2711,161.1
196.331,534
196.3679,93.8
196.4503,94.7
196.4759,472.2
196.5149,674.2
196.6345,92.2
196.6592,669
196.67,124.6
196.7389,71.3
196.8656,6292.1
196.8687,442.3
196.8785,438.5
196.9748,332.1
196.9771,92.2
197.1014,591.9
197.1314,111.8
197.2022,736.9
197.2206,216.1
197.3477,18.8
197.3661,71.2
197.4327,91.6
197.5097,281.3
197.7209,213.3
197.8126,433.4
197.8518,347.3
197.9648,734.5
197.9724,144.2
197.9756,170.8
198.0854,9777.8
198.1071,301.1
198.1464,16.8
198.1591,541.9
198.1858,8291.7
198.3241,392.2
198.3387,142.4
198.3492,402.2
198.449,260.1
198.4626,146.1
198.5393,108.5
198.5845,91.6
198.6183,136.1
198.6936,696.2
198.7255,545.4
198.7386,65.1
198.8627,9002.9
198.9186,706.6
198.9508,244.5
198.974,42.5
199.0694,823.9
199.076,2209.5
199.0807,102.7
199.1893,411.5
199.202,152.8
199.2758,396.7
199.3235,207
199.4177,381.6
199.434,365.1
199.4576,420.4
199.4894,442.1
199.5266,436.3
199.5538,444.6
199.6047,107.1
199.6188,601.2
199.6233,17.1
199.6446,217
199.6725,191.6
199.7046,415.9
199.911,129.7
199.9525,193.9
199.9783,635.8
199.9912,36060
200.0242,73.8
200.0412,15019.7
200.0448,102.5
200.0511,377.6
200.0534,17.8
200.0765,299.5
200.0898,122.1
200.1233,10884.2
200.1539,196.8
200.1568,552.7
200.1598,341.6
200.1774,98.3
200.2003,325.7
200.209,124.8
200.2459,562.2
200.2705,643.8
200.2752,210.4
200.3611,131.8
200.5145,265.2
200.5347,502.3
200.554,206.1
200.5728,334.7
200.6012,196.1
200.6088,143.7
200.6131,110.6
200.8116,21.5
200.8202,105.4
200.8596,2509.1
200.8633,156.7
200.9033,254.3
200.9143,554.2
200.9789,103.8
201.0469,419.4
201.0554,444.5
201.0677,377.5
201.073,179.9
201.0876,388.7
201.0928,879.6
201.1004,353.4
201.1744,84.7
201.1828,209.1
201.344,89.3
201.3935,134.6
201.4307,371.7
201.4399,96.7
201.455,497.9
201.5563,607.7
201.598,83.5
201.6023,224.2
201.6157,228.9
201.7181,181.4
201.7591,351.8
201.8485,186.8
201.8589,18.7
201.8653,22.4
201.8748,295
201.9716,122.5
201.9893,377.4
202.0475,301.8
202.091,23.6
202.1347,20.4
202.1867,131
202.2057,141.6
202.2513,18
202.2789,457.1
202.3183,762.7
202.3371,224.3
202.4138,205.3
202.4531,280.6
202.4938,17313
202.5433,701
202.5456,92.6
202.5857,138.4
202.6754,98
202.7789,336.2
202.795,122
202.8605,93.5
202.9175,372
202.9779,879.9
202.9961,34.4
203.0324,1659.7
203.0532,1962809.5
203.069,296.7
203.0773,11636.3
203.1699,138.5
203.1791,544.4
203.2388,257
203.2739,20.4
203.331,145.8
203.4089,18.3
203.4229,122.9
203.4896,319.2
203.5517,222.2
203.6404,283.8
203.7439,157.9
203.8058,132.9
203.8086,97.9
203.9278,242.3
203.9377,319
203.9461,42.3
203.973,117.5
204.0096,586.1
204.0249,54045.1
204.034,291.9
204.0565,105528.5
204.0871,1323.3
204.2482,134.2
204.3021,659.7
204.3376,395.2
204.3922,338.4
204.4082,201.5
204.4138,216.3
204.431,294.3
204.4354,252.7
204.4513,101.3
204.4617,123.3
204.4914,18.9
204.5447,18.4
204.5479,18.1
204.5584,162.5
204.5744,151.3
204.6391,20.9
204.648,92
204.6628,78.9
204.7265,124.9
204.7442,17.8
204.8081,157.2
204.8895,683.8
204.9952,23.7
205.0252,97.8
205.0284,226.8
205.0449,225.2
205.0574,15227.4
205.0777,103.3
205.0808,86.8
205.0841,124.7
205.0925,314.2
205.0953,110.3
205.1232,130.8
205.1674,558.8
205.41,209.6
205.4365,540.9
205.5408,636.2
205.6533,84.5
205.6673,242.5
205.9011,391.7
205.9308,73.4
205.9861,90.6
206.0559,2821.1
206.1124,130.6
206.1175,170.3
206.1721,536
206.2966,520.5
206.3126,419.8
206.4312,411.6
206.4382,677.7
206.5272,380.1
206.5577,316.5
206.5694,20.8
206.7198,285.5
206.7942,129.2
206.8415,18.9
206.8823,17.7
206.8945,20639.7
206.9356,142.3
206.9763,366.8
206.9826,3063.7
207.0148,65761.9
207.0446,2470.3
207.0512,14489.1
207.0583,147.2
207.1315,313.1
207.4303,310.1
207.4971,232.3
207.5199,292.8
207.5802,180.5
207.7812,247.4
207.8062,102.4
207.8639,472.2
207.877,108.2
207.9658,111.5
208.0141,3333.9
208.0182,1123
208.0551,770.8
208.1626,172.7
208.2101,87.6
208.2685,247.5
208.2748,19.1
208.3406,708.7
208.3826,342.8
208.4449,262
208.4776,132.8
208.5075,18.6
208.5539,21.5
208.6028,111.2
208.6224,165.8
208.7622,18.9
208.8334,219.7
208.855,143.8
208.8836,122.9
208.8915,12077.8
208.9359,971.9
208.94,202.6
208.9554,21.6
209.0128,3292.5
209.0157,102.4
209.1356,265.9
209.1738,142
209.2745,107.3
209.2978,187.2
209.3036,244.4
209.3619,166.9
209.3945,103.5
209.4631,156.2
210.6718,377.6
210.6791,255.3
210.7473,123.8
210.7549,75.2
210.8837,515.9
210.889,582.3
210.9067,470.5
210.9329,384.1
211.057,603.3
211.0696,1004.2
211.1769,13172.1
211.1851,22727.2
211.1909,14534
211.1947,16933.5
211.2046,4272.3
211.2075,3678.3
211.2104,2307.7
211.247,365.2
211.2855,92.5
211.4079,168.5
211.4115,284
211.5729,288.4
211.6109,780.9
211.6569,448.1
211.6926,295.5
211.7235,166.2
211.9117,118.1
211.9242,799.4
211.9593,498.2
211.9826,95.7
212.0083,506.3
212.0745,89.4
212.1896,82.6
212.2416,127.5
212.286,162.1
212.3433,150.4
212.3592,86.8
212.4776,89.3
212.5791,141.4
212.5946,388.4
212.6131,16.9
212.7427,621.5
212.8207,530.5
212.8395,2659.7
212.8467,276.6
212.8896,133.9
212.8964,168.4
212.9791,448.6
213.0002,305.4
213.0096,188.3
213.0175,105.9
213.0552,870.8
213.0754,1499.9
213.116,99
213.1312,222.7
213.2346,324.1
213.2669,416
213.3773,241.5
213.6411,447.5
213.6624,121.7
213.6941,184.9
213.7518,415.2
213.8228,19.1
213.8754,563
213.939,129.6
213.9451,388.9
213.962,33.9
213.9694,386.5
213.9851,1127.7
214.0024,134.7
214.0069,2867.1
214.0594,11550.4
214.0903,924.3
214.2029,238.2
214.2502,516.2
214.5575,124.3
214.5736,374.9
214.6576,376.2
214.8367,3003.1
214.8815,229.6
214.8868,248.7
214.9178,614.3
214.9654,657.3
214.9699,100.2
214.9781,353.5
215.0322,135.7
215.0937,65.4
215.1465,161.2
215.2187,100.5
215.2278,261.2
215.2556,77.6
215.3438,150.7
215.4348,109.6
215.4901,235.7
215.5212,472.3
215.5976,322.8
215.6104,17.6
215.6602,485.6
215.6958,18.9
215.7045,258.5
215.7215,83.7
215.764,491.3
215.8085,435.4
216.0151,7865.4
216.0182,2502.7
216.0486,168.8
216.0861,30.9
216.1246,17.9
216.1382,202.5
216.1443,89.7
216.1727,358.8
216.1795,455.3
216.2593,95
216.3723,126.5
216.3976,137.7
216.4076,355.8
216.4699,81.9
216.5074,233.6
216.5171,132.1
216.5299,323.5
216.6797,532.2
216.7227,437.7
216.7634,140
216.8085,211.4
216.8723,484.4
216.9233,53880.2
216.985,88.9
216.9918,116.8
217.0383,519.4
217.0451,89
217.0569,165.9
217.0716,649.9
217.082,413.6
217.2851,164.6
217.2935,335.1
217.4453,118.4
217.5906,370
217.6064,546.1
217.7042,147
217.7298,156.5
217.7444,229.8
217.8041,337.8
217.879,358.4
217.9151,352.7
217.9268,556
217.934,221.2
217.9406,19.8
217.9496,94.7
217.9652,19.5
218.0157,30.5
218.0855,172.2
218.1378,103.4
218.1521,62.7
218.1554,18
218.2166,19.8
218.2442,745.4
218.4331,255.1
218.5634,137.9
218.604,111.1
218.6429,712.4
218.6471,113.5
218.7046,557.6
218.7181,407.9
218.7423,419.4
218.9204,16087.2
219.0183,1484.4
219.0271,1699981.8
219.0309,2199
219.0323,1322.5
219.0834,12658.3
219.1522,129.8
219.168,408.8
219.2599,154.5
219.3383,18.5
219.4582,282.2
219.4681,82.8
219.6142,355.3
219.6286,177.3
219.6753,287.7
219.6858,102.4
219.8418,271.6
219.8944,501.7
219.9312,163.6
219.999,529.8
220.0305,88247.4
220.0378,811.4
220.0674,9426.9
220.0993,975.8
220.1679,371.9
220.1752,608.8
220.2986,740.1
220.3522,130
220.3733,81.2
220.4007,105.1
220.5379,127
220.6268,563.3
220.769,480.7
220.8647,165.2
220.9105,434.5
220.9166,831.2
220.9355,21.9
220.9769,284.7
221.0008,103.7
221.0253,101356
221.0314,16547.5
221.0515,1889.9
221.0851,80.8
221.0881,311.4
221.1173,103.3
221.1289,636.8
221.1605,218.2
221.1714,26.9
221.2814,372.6
221.3614,144.4
221.3768,81.3
221.4117,244.7
221.6104,20
221.6877,243.3
221.7685,431.9
221.7817,94.1
221.8699,141.7
221.9569,217.5
221.9776,144.7
221.984,1718
222.0286,1884.1
222.1703,684.7
222.2698,818.6
222.2974,638.2
222.4197,150.9
222.4648,619.3
222.5166,21
222.5704,655.5
222.5747,154.7
222.5971,183.6
222.6974,257.1
222.7579,80.7
222.7822,17.5
222.8684,15169.2
222.8798,1328.1
222.8892,1018.8
222.8993,58.9
222.9522,97.8
222.9888,6976.6
223.038,1217.7
223.0424,281.8
223.104,126.3
223.1828,232.6
223.2897,100.4
223.3209,718
223.3517,307.4
223.4115,288
223.4604,197.2
223.5228,379.9
223.5489,86
223.7494,94.6
223.8324,287
223.8643,148.1
223.8828,222.8
223.8934,340.9
223.9218,77.8
223.9539,34.3
223.9828,316.2
224.0167,105.7
224.0301,3539.3
224.0825,274.6
224.0938,163
224.1205,181
224.1783,345.8
224.3034,414.7
224.3793,96.8
224.3933,142.9
224.4003,199.8
224.4054,400.1
224.5711,99.1
224.5887,80.4
224.6422,88.9
224.6506,220.4
224.6766,84.1
224.6886,698.4
224.7733,145.7
224.8573,120.4
224.8655,10121.1
224.8861,332
224.904,87.3
224.921,21.3
224.9445,103.2
224.9477,100.3
224.9536,297.8
224.9781,206.1
225.035,816.4
225.0553,32170.4
225.0853,597.2
225.0952,249.4
225.3133,358.5
225.3918,218.2
225.4266,39
225.4326,349
225.4609,298.6
225.562,199.5
225.7155,222.7
225.7861,912.2
225.797,508.9
225.8051,102.8
225.8231,124.9
225.8318,802.7
225.9526,31.8
225.9921,408.4
226.0027,161.9
226.007,2120.6
226.0247,7489
226.0456,9445.7
226.0591,157
226.1034,19
226.2048,561.6
226.2833,234
226.3405,93.8
226.4138,154.1
226.614,221.6
226.7158,285.4
226.8214,20.8
226.9086,115.7
226.9521,39188.1
226.9653,557
226.972,560.6
226.9755,224.4
227.0349,2007.3
227.0686,219.9
227.0796,2263.2
227.0873,209.7
227.138,136.7
227.1988,121.5
227.2019,23.4
227.2556,97.9
227.2606,192.8
227.3534,108.4
227.434,17.3
227.6214,633.7
227.894,734.8
227.9266,258.9
228.0006,1633.9
228.0208,169.6
228.0462,500.6
228.0628,194.2
228.077,345.4
228.0871,111.8
228.091,82.1
228.1239,409.1
228.1352,89.4
228.205,174
228.2544,658.9
228.2812,734.4
228.3077,74.2
228.4707,112.9
228.5445,77.5
228.5575,666.8
228.5717,231.1
228.6854,95.6
228.7037,16.4
228.7094,645
228.8988,106.7
228.9161,130.3
228.9587,460.4
228.9915,598.6
229.0229,182.1
229.1227,20.3
229.2654,651.2
229.3639,696.3
229.4244,209
229.4605,421.8
229.4927,518.7
229.53,127.2
229.5352,446.3
229.5393,90.1
229.6769,144.2
229.7154,672.9
229.7681,302.5
229.7742,166.5
229.7909,170.6
229.8323,727.3
229.8439,185
229.9576,177.9
229.9747,476.1
230.0336,966.8
230.1367,875.6
230.1846,114.6
230.2687,82.2
230.2831,132.1
230.3358,150.8
230.5004,585.3
230.515,221
230.552,105.6
230.6081,731.2
230.7241,594.7
230.7708,90.7
230.7842,143.9
230.8087,454.8
230.8252,74.7
230.836,80.8
230.8546,114
230.939,493.5
230.9835,167.8
230.991,87.8
231.0562,253.3
231.0808,157
231.0847,530.3
231.1671,83.4
231.2278,161
231.2729,664.3
231.3145,153.3
231.4553,17.8
231.5067,296.7
231.6013,100.9
231.638,83.2
231.7417,642.4
231.9234,18.5
231.9321,221.4
231.9959,266.2
232.0118,75.1
232.216,101.2
232.2842,346.9
232.3055,140
232.7056,23.1
232.8289,78
232.8973,41927.4
232.9211,758.5
232.9588,110.6
232.9863,1633.8
233.0516,10659.2
233.0724,99.4
233.1189,84.9
233.1483,130.2
233.1924,194.2
233.2937,22
233.4371,363.2
233.8379,125
233.9373,552.8
233.9418,300.3
233.9667,512.3
233.9922,19.4
234.0552,200.9
234.1548,215.4
234.1695,738.5
234.2073,357.4
234.2736,117.8
234.2804,188.1
234.298,159.7
234.4645,19.7
234.5007,320.5
234.5237,92.7
234.5996,103.1
234.8942,9059.8
234.9149,436.6
234.9235,79.1
234.9822,8049.3
235.005,133.2
235.0418,86.8
235.0575,4836.2
235.0673,2919.8
235.0932,14942.5
235.1317,160.9
235.2999,102.2
235.3143,107.2
235.4515,744.2
235.4684,24.3
235.5693,166.8
235.5908,414.6
235.6402,130.8
235.6991,83.4
235.8848,194.8
235.9063,126.1
236.0415,3833.3
236.0723,45729.2
236.0964,216.8
236.1324,205.8
236.1577,88.3
236.1793,138.1
236.3653,20.3
236.4053,80.7
236.4264,111.9
236.7191,231
236.7293,805.1
236.77,98.6
236.7772,323.4
236.8083,144.6
236.8383,149.4
236.8809,425.4
236.9354,138.9
237.0327,788.4
237.0531,117.5
237.0753,1725.4
237.149,296.2
237.345,511.5
237.4609,85.1
237.5906,532.8
237.6569,165.5
237.6731,142.8
237.765,112.8
237.7675,96.5
237.8889,556.6
237.9994,103.1
238.0265,211.6
238.0681,472.3
238.1196,457.2
238.1265,540.2
238.159,523.6
238.3034,187.1
238.4441,681.9
238.5383,20.7
238.5809,121.4
238.6622,611.2
238.6714,19.9
238.7321,606.4
238.7427,350.2
238.8251,295.9
238.8424,3545.5
238.8538,557.5
238.8782,146.7
238.8984,888.6
238.9589,477.2
238.9832,917.6
239.0042,24.1
239.0447,85.2
239.0513,202.8
239.0643,430.4
239.0686,1629.9
239.0721,232.5
239.1288,21.9
239.1319,123.3
239.2019,261.1
239.2908,351.8
239.3724,196.2
239.5216,837.6
239.6911,149.2
239.8,526.4
239.9042,19.3
239.9267,166.3
239.9696,20.4
240.0039,1822.5
240.0196,655.7
240.0262,191.5
240.0312,476.4
240.0998,734.5
240.1487,822.2
240.3744,608.1
240.392,103.9
240.3943,99.5
240.4262,105.3
240.6066,515.7
240.7716,72.9
240.8325,109.6
240.8392,2115.1
240.8793,184.9
240.947,21.1
240.9552,2262.5
240.9677,1975.6
241.0316,580
241.0852,160.8
241.0988,100
241.2195,394.1
241.2452,106.5
241.2831,124.2
241.297,984.5
241.424,234.9
241.4413,84.7
241.4747,447.6
241.6403,696.6
241.6979,152.1
241.7763,392.8
241.7836,101.7
241.8165,121.5
241.8816,349.3
241.9804,355.3
241.9988,1114.7
242.0197,1139.4
242.0649,344.2
242.077,149.9
242.1389,140
242.3662,116.9
242.5694,615
242.6073,117.3
242.7312,17.5
242.7553,225
242.8762,91.1
242.9098,80.2
242.9261,19541.6
243.0078,19.1
243.0182,129.1
243.0264,462.7
243.0376,304.6
243.0538,5826.5
243.0659,11953.8
243.0993,184
243.195,19
243.2016,327.3
243.2316,167.7
243.2635,113.6
243.2856,87.7
243.3342,397.3
243.4346,627.7
243.5107,565
243.5164,76.3
243.5554,135.9
243.6524,126.1
243.6709,131.9
243.6874,379.9
243.8367,105.9
243.8769,417.5
243.8955,20.2
243.9251,150.6
243.9734,116.4
243.9831,252.7
244.0132,273.7
244.0325,848.4
244.0503,22.7
244.0959,394.3
244.1074,213.8
244.1252,410.8
244.2124,377.5
244.2939,566.8
244.3178,364.4
244.5667,99.1
244.6288,122.4
244.7557,238.5
244.8711,5377.6
244.9622,179.8
245.0173,20
245.0211,553.3
245.0266,20.4
245.0304,20.6
245.1091,89.7
245.2964,401.4
245.308,195.7
245.3284,370.7
245.3593,344.9
245.4408,347.6
245.4462,84.4
245.6021,135
245.6225,294.1
245.6696,27.9
245.8596,740.6
245.9539,212.5
246.0019,170
246.0115,35.7
246.0972,667.2
246.1477,414
246.2113,181.5
246.3091,79.2
246.3633,89.9
246.4308,220.4
246.5802,362.3
246.6174,146.8
246.7076,22
246.7542,94.7
246.8682,785.4
246.8837,480.7
246.903,198.3
246.9604,362.9
246.9666,134.1
247.0369,519.4
247.0502,310
247.0673,2410.6
247.0732,97.6
247.0931,6973
247.121,177.8
247.2684,403.5
247.5136,369.1
247.6561,121.8
247.6877,128.3
247.7425,19.8
247.7807,137.9
247.8174,155.4
247.9712,366.6
248.0276,576.7
248.0881,107.2
248.0965,29.2
248.1247,13724.4
248.1891,115.3
248.2203,340.5
248.3457,100.9
248.4234,341.7
248.4322,732.3
248.5329,81.5
248.7188,373.4
248.7408,386.5
248.8063,715.7
248.8712,8351.5
248.9181,18.1
248.9602,1585.6
248.9997,1272.7
249.0167,1768.4
249.0359,358.8
249.0618,19460
249.2481,311
249.3606,267.4
249.4578,16.3
249.6386,139.2
249.7261,677.4
249.7522,87.4
249.8312,364.5
249.9362,325.6
249.9477,418
249.9961,264.6
250.0166,412.7
250.0649,1043
250.1505,172.5
250.1944,277.8
250.2156,188.9
250.2642,80.5
250.3313,482.7
250.4753,133
250.4807,851.6
250.5448,190
250.5646,549.1
250.6199,97.5
250.7709,82
250.868,1893.2
250.9209,3168.6
250.9561,1330.2
251.0013,71.8
251.0222,104.7
251.0344,1305.6
251.0815,85.2
251.2411,175.6
251.3824,523.4
251.4812,22.8
251.5295,293.8
251.6011,120.6
251.6282,78.7
251.7956,230.4
251.8573,625.9
251.8717,82.7
251.9623,337.8
252.037,184.4
252.0462,94763.6
252.1103,363.6
252.252,466.8
252.4262,714.9
252.4371,124.6
252.5818,582.1
252.72,226.6
252.7284,634.7
252.7627,761.2
252.8051,342.2
252.9179,1814.4
252.9239,317.6
252.9865,228.2
252.9982,86
253.0372,120.5
253.0496,5870.8
253.0957,762.4
253.3065,306.2
253.3791,135.9
253.4309,106.7
253.4361,318.4
253.4383,344.6
253.5558,109.9
253.5912,478.6
253.627,846.1
253.6395,130.3
253.6906,255.6
253.7074,332.9
253.7663,21.5
253.7899,204
253.8266,115
253.856,95.4
253.9099,363
253.9541,224
253.9583,579.3
254.0441,3870.9
254.1167,362.5
254.1684,104.6
254.3287,160.8
254.4776,88.3
254.4849,343.3
254.5263,151.1
254.6663,20.3
254.6749,85.7
254.6928,370.8
254.7093,255
254.7914,135.1
254.7952,22.8
254.8105,96.8
254.8164,960.1
254.8245,10157.7
254.8798,127.7
254.937,97.2
254.9792,16.3
254.9975,25.5
255.0336,29709
255.0386,981.5
255.0473,950.3
255.1718,514.8
255.2,159.3
255.2258,268.9
255.3036,96.6
255.3307,354.1
255.3391,132.1
255.3739,154.5
255.3985,367.9
255.4132,18.6
255.6088,661.9
255.6354,550.6
255.6835,159.7
255.7047,530.7
255.7943,136.9
255.9788,866.8
255.9944,21.3
256.0191,415.4
256.0592,91.9
256.0674,189.6
256.1971,83.3
256.3179,262.8
256.7029,92.2
256.7478,26.3
256.8216,12306.7
256.8292,214
256.8869,494
256.9204,409.2
256.9303,401.9
256.9417,1377.9
257.0491,8392.9
257.0656,675.6
257.0752,61518.1
257.0989,78.5
257.1403,186.8
257.1769,404.2
257.2916,183.9
257.365,200.8
257.4268,310.1
257.4694,404.9
257.556,151.9
257.6007,76.1
257.7111,199.8
257.8514,584.3
257.8598,839.2
258.0523,193.7
258.0656,208.9
258.0785,3140
258.1109,12948.1
258.2028,105.6
258.2122,102.1
258.2248,203.2
258.2453,324
258.2568,114.1
258.2648,429.6
258.3861,166
258.5573,114.1
258.6463,102.2
258.6969,142.8
258.7615,137.6
258.7683,134.4
258.8186,5510.6
258.8418,220.9
258.9002,1957.4
259.0283,1032
259.032,327.6
259.11,76.6
259.2284,142.8
259.2819,661.9
259.3204,19
259.4443,138.5
259.4971,112.4
259.5018,145.4
259.5175,95.8
259.6039,111.4
259.6118,630.4
259.6699,92.6
259.8019,597.3
259.861,336.2
259.9278,144.1
259.9412,110.7
259.9656,988.8
259.9779,148.8
259.9946,442.1
259.9991,19.7
260.0173,38.1
260.0863,374
260.4536,164.1
260.4645,99.2
260.5357,20.8
260.5952,359
260.6828,96
260.7503,629.1
260.8159,1104.7
260.8451,1520
260.868,617.7
260.9327,469.2
260.9497,9354.9
261.0272,18.9
261.0466,878.6
261.3866,102.2
261.4256,325.2
261.45,461.6
261.6541,159.5
261.6894,501.3
261.8038,150.3
261.8616,101.3
261.9532,199.2
261.9977,18.3
262.0086,352
262.2381,118.4
262.3087,421.9
262.3262,87.3
262.5683,730.3
262.7279,100.4
262.7329,199.5
262.8009,556.9
262.8141,649.2
262.8289,383.3
262.9265,88
262.9467,3700.2
263.0176,316.4
263.0226,833.8
263.0257,391
263.0857,4680.3
263.1134,569.8
263.1302,712.5
263.1754,147.9
263.1864,86.7
263.1974,146.9
263.3395,110.8
263.3517,104.2
263.369,468.4
263.4365,20.7
263.4424,110.3
263.5981,20.1
263.6265,607.9
263.7642,368.2
263.7691,132.4
263.7786,149.5
263.8838,436
263.9234,140.2
263.9631,116.3
263.9889,113.3
264.0361,571.6
264.0659,356.2
264.374,723.2
264.501,85.3
264.5395,87
264.8534,7311
264.934,2633.9
264.9891,401.7
265.017,276.5
265.0239,1596.5
265.0358,9912.9
265.048,5229.1
265.0657,166.4
265.1966,155.6
265.3483,176.7
265.4914,592.9
265.577,19.5
265.6326,869.3
265.7617,145.6
265.9104,482.9
266.1959,109.2
266.4209,335.6
266.4248,83.9
266.7391,373.8
266.7996,257.7
266.8504,6692.2
266.8948,2829.6
266.9423,373.4
267.014,151.2
267.3807,127.8
267.4553,429.7
267.6239,756.8
267.699,157.1
267.7643,512.4
267.9219,109.7
267.9281,103.7
268.0319,171.8
268.3559,213
268.576,779.3
268.6209,17.8
268.7659,393.4
268.8472,554.7
268.8918,2092.6
268.9739,268.4
269.0126,129.4
269.0323,601.1
269.0362,187.5
269.0455,21014.9
269.0493,45071.4
269.0855,92
269.2032,386.7
269.2531,241.2
269.3089,166.5
269.3935,402.6
269.4194,999.8
269.4586,96.4
269.4791,96.1
269.6382,463.3
269.7911,399
269.8078,125.6
269.9947,3034.7
270.0255,539.4
270.0332,183.6
270.038,203.2
270.048,33664.3
270.0781,90.7
270.1455,774.5
270.2761,409.4
270.4211,665.2
270.4506,726
270.4669,90.2
270.5373,280.1
270.6139,356.3
270.7552,82.8
270.7758,295.9
270.7986,4732.2
270.8504,120.8
270.9786,23134.1
270.9976,576.6
271.0514,406.7
271.0783,896.7
271.0908,2580.8
271.419,240.1
271.4413,234.2
271.6134,103.9
271.7413,152
271.8326,482.3
271.88,233.3
271.966,1300.1
272.0437,91.4
272.0483,120.5
272.081,322.8
272.1204,532.9
272.1715,311.1
272.2436,353.6
272.3537,85.8
272.3861,23.9
272.578,73.4
272.6179,100.7
272.7583,689.6
272.7821,347.3
272.7955,5931.3
272.8526,125.4
273.0248,184.6
273.0495,3384.4
273.2625,87.6
273.3179,713.3
273.3211,136.4
273.3366,105.2
273.3691,269.6
273.393,105.5
273.4465,235.1
273.5474,294.4
273.5493,294.8
273.5552,158.5
273.638,234.2
273.6605,104.1
273.7102,198.7
273.7132,199.8
273.7346,564.4
273.7792,169.2
273.9314,383.2
273.9627,117.8
274.041,22.9
274.0536,165
274.0698,177.7
274.093,1181.3
274.1592,399
274.3062,462.3
274.3646,107.3
274.5446,312.6
274.5719,19.7
274.7925,1879.7
274.9148,705.1
275.0457,118.9
275.0806,77.4
275.1271,343.6
275.1859,123.1
275.2142,505.5
275.2345,23.7
275.2632,496.4
275.3391,120.4
275.6221,130.1
275.8038,208.9
275.8169,98.6
275.8255,122
275.8342,462.5
275.8713,301
275.9072,292.6
275.9284,115.2
275.9397,400.6
275.9959,223.5
276.0041,122.2
276.0856,80.2
276.1013,220.1
276.2257,111.4
276.2312,139.8
276.2423,466.9
276.3551,108.9
276.46,89.6
276.5057,22.3
276.5114,277.6
276.5624,330.8
276.6425,397.8
276.6882,120.7
276.7421,162.4
276.7854,367.7
276.8787,466.2
276.9237,8879.7
276.9677,22
276.9858,422.3
277.144,222.5
277.3272,163
277.4977,182.7
277.571,388
277.6262,280.6
277.7121,92.2
277.7543,139.4
277.8567,192.8
277.8703,80.9
277.922,771.5
277.943,491.1
278.0007,52.9
278.0196,694.7
278.0498,164.7
278.0925,73.3
278.156,780
278.1826,315.8
278.4382,404.3
278.4722,333.8
278.6132,174.3
278.6897,737.8
278.7704,147.3
278.8942,2439.7
278.9022,145.1
278.9091,107.2
278.9206,1533.3
278.9421,206.5
278.9876,447.7
279.0573,47587.2
279.0951,373.5
279.3124,189.7
279.5288,557.2
279.5432,105.1
279.6084,431.9
279.8188,195.8
279.8299,816.6
279.8435,593.6
279.8557,319.1
279.9231,218.5
280.0166,256.7
280.0607,746.2
280.0936,587.7
280.4151,230.1
280.5074,838.9
280.6557,201
280.7107,425.2
280.8203,319.2
280.8273,1797.8
280.963,1124.8
280.9694,18.4
280.9999,278.8
281.0101,989
281.0335,115.9
281.0518,113.9
281.0609,85.1
281.0699,149.5
281.096,18.2
281.1251,306.9
281.2706,351.1
281.3451,376.4
281.3799,175.4
281.4467,583.8
281.6127,19.1
281.7421,364
281.7883,304.6
281.8232,287.5
281.9683,20.5
282.0064,130.9
282.0154,197.5
282.0228,165.9
282.0654,479.7
282.1257,348.1
282.2979,229.3
282.3162,1083.7
282.361,254.2
282.473,584.6
282.5921,198.7
282.6421,799.4
282.6713,521
282.8245,700.5
282.8688,318
282.9063,25.3
282.9137,440.4
282.9659,517.7
283.0283,952.4
283.0658,27.9
283.2642,30.8
283.2748,911.2
283.3648,134.2
283.4398,116.7
283.4933,19.6
283.5157,345.2
283.6429,18.6
283.7622,446.8
283.9108,187.5
284.0327,99.9
284.0517,42.8
284.0637,218.2
284.1823,103.2
284.4602,99.1
284.5162,603.8
284.6629,465.2
284.6834,584.9
284.7669,543.6
284.8221,364
284.9452,146.7
284.9495,24.6
284.9939,914.3
285.0344,493.3
285.0896,197.4
285.132,112.3
285.3171,129.7
285.3804,88.9
285.4173,177.6
285.4493,331.8
285.5549,414.8
285.573,171
285.6499,164
285.7298,77.9
285.7597,174.8
285.8524,721.5
285.9454,610.4
285.9683,1245.2
285.9809,19.2
285.9892,771.7
286.0055,249.7
286.0126,656.7
286.0204,221.5
286.0654,17.1
286.0965,66.1
286.2429,339.8
286.28,141.6
286.3078,748.9
286.5292,196.3
286.6958,18.9
286.7183,105.1
286.7549,146.3
286.7632,300.9
286.7725,2479.2
286.9063,366
286.9526,8348
286.9935,208.4
286.999,58.9
287.046,142.7
287.056,45105.5
287.1362,87
287.1561,75.5
287.2755,81.9
287.6117,699.6
287.6337,146.3
287.7589,18.2
287.8427,206.7
287.8659,100.5
287.884,90.1
287.97,534.3
287.9972,431.1
288.003,17.1
288.0142,54.5
288.0593,1961.4
288.0854,107.4
288.0932,610.5
288.1562,21035.5
288.3091,250.8
288.4122,102.1
288.6002,226.5
288.6596,145.1
288.6993,85.3
288.7404,97.1
288.7523,85.3
288.7695,3320
288.8363,253.8
288.8504,174.7
288.8561,389.3
288.8583,745.1
288.8654,1630.2
288.8707,3514.6
288.8735,3359.9
288.8786,5296
288.8832,7439.5
288.8879,7150.4
288.8936,8643.2
288.8984,6710.3
288.903,10795.8
288.9126,13829.9
288.9165,12550.8
288.9227,16172.3
288.9274,15771.4
288.9298,14902.7
288.9335,16561
288.9465,14082.9
288.9514,13918
288.9667,9036.2
288.9756,8569.7
288.9833,5337.9
288.9878,3536.1
288.9934,6607.9
289.0008,3159.6
289.0174,149.3
289.0256,120.2
289.0626,175.5
289.1407,613.9
289.1596,582.2
289.1709,122.2
289.1761,237.5
289.3029,159.8
289.3303,688.9
289.4507,308.7
289.4952,105.9
289.5031,674.6
289.511,436.4
289.5842,16.3
289.6783,487.4
289.7517,310.4
289.7887,96.3
289.8319,420.2
289.8366,189.7
289.9911,133
290.0006,370.9
290.0347,123.2
290.1011,105.3
290.1936,364.9
290.2263,144.2
290.2285,509.4
290.2303,486.7
290.2769,102.2
290.2872,737.9
290.3743,84.8
290.4326,154.6
290.5076,377.6
290.6086,309.4
290.6714,166.8
290.6882,609.2
290.7662,531.2
290.8669,134.1
291.0274,4792.3
291.0438,554.4
291.0503,119.8
291.2725,474.6
291.5637,222.6
291.6306,491.3
291.8613,121
291.9728,223.8
291.9842,428.5
292.0803,147.3
292.1035,976
292.3933,376.5
292.4592,102.7
292.6364,76.7
292.898,2187.1
293.0076,419
293.073,4675.5
293.0883,225.1
293.0989,356515.8
293.1799,1115.5
293.1866,435.5
293.2091,20.6
293.4107,264.7
293.6006,347.2
293.9009,18.3
294.0149,27.3
294.0893,86.9
294.0964,126.3
294.1023,30670.3
294.1269,527.2
294.3361,118.3
294.3701,177.3
294.3994,114.9
294.4792,93.8
294.5349,141.6
294.6486,18.6
294.8576,472.9
294.9121,388.5
294.9788,375.6
294.9914,502.8
295.0316,1583.7
295.0603,170.7
295.1031,1313.4
295.1106,89.3
295.1278,161.9
295.1789,607.9
295.1954,17498.6
295.385,368.1
295.3924,117.1
295.4246,133.5
295.4671,88.6
295.5104,651.8
295.5422,293
295.5691,510.5
295.6353,351.9
295.6367,341
295.6622,19.4
295.7072,608.6
295.742,477.2
295.8456,130.1
295.9783,367.5
296.0103,955.7
296.0429,80
296.2002,120.3
296.295,25.3
296.5052,223.2
296.6813,84.9
296.7981,152.7
296.8217,399.8
296.9374,386.1
296.9881,277.4
297.043,466.3
297.1039,84.5
297.1533,447
297.3852,354.3
297.4025,198.1
297.4712,116
297.4882,20.2
297.5861,149.9
297.6325,212.1
297.6981,398.3
297.7749,190.7
297.8083,324.2
298.0256,1080.1
298.043,21220.4
298.1389,296.5
298.1612,317.3
298.2135,21.4
298.2996,159
298.4366,74.7
298.5451,97.2
298.5575,21
298.5718,310.1
298.5879,150.1
298.6162,380.5
298.7092,192.5
298.7854,352.4
298.7987,458
298.8097,476.4
298.8283,18.1
298.8556,109.3
298.9871,183.4
299.0237,3361.5
299.0464,609.9
299.0696,20.7
299.1214,127.4
299.1398,1242.1
299.1932,151.1
299.2235,405.3
299.3998,252.8
299.4674,351.3
299.5299,311.6
299.6776,164.8
299.7207,255.1
299.9483,105.4
300.0052,1598.3
300.0389,262.4
300.0493,81.9
300.0553,167.6
300.0622,241.7
300.0761,546.6
300.1096,141.5
300.1966,25.4
300.284,337
300.4909,76.6
300.4931,70.6
300.5277,209.5
300.5902,467.8
300.6886,382.5
300.7217,78.4
300.7612,85.3
300.838,17.7
300.8472,150.7
300.9009,288.1
301.0393,28189.1
301.0599,90.8
301.0765,25.3
301.1003,207.3
301.1019,186.2
301.142,204.7
301.1846,352.8
301.1902,192.1
301.2031,137
301.2121,972.6
301.3352,254
301.6804,81.5
301.8029,253.4
301.8249,767.9
301.8803,331.4
301.9552,627.4
302.0127,636.2
302.0205,26.6
302.0359,72.9
302.0647,5113.4
302.2172,71.7
302.2323,299.8
302.3481,570.5
302.4386,97
302.4907,445.2
302.503,19.5
302.6747,118
302.6824,572.5
302.6873,138.3
302.6951,79.3
302.7136,170.8
302.7466,333.3
302.8301,1495.5
302.9013,255.6
302.9068,75.2
302.9848,146.7
303.0681,484.3
303.102,491.9
303.2172,512
303.2876,564.1
303.3826,512.3
303.6636,145.7
303.7378,274.7
303.7988,633.9
303.8037,18.8
303.8321,129.6
303.9219,390.1
304.0606,214.9
304.0915,78
304.1689,195.8
304.2069,157.2
304.2278,615
304.4684,94.9
304.5611,207.8
304.5794,98.5
304.6102,540.4
304.6785,142.9
304.6883,103.2
304.7087,411.8
304.7453,103.1
304.8272,1806.8
304.8702,161.2
304.9763,1591.3
305.04,121.6
305.0517,227.5
305.1044,331.2
305.2622,379.5
305.287,106.7
305.3797,502.1
305.4051,127.1
305.4873,93.6
305.4995,127.5
305.6521,220.3
305.76,440.6
305.7735,384.8
305.8569,552.5
305.8698,97.4
305.9245,110.1
305.934,250.4
306.024,44.3
306.0292,74.3
306.0651,234.2
306.0778,101.8
306.096,81.5
306.134,385.7
306.1974,101.1
306.2107,204
306.2944,512.8
306.2995,163.1
306.3875,119.4
306.4871,99.4
306.6583,391.2
306.8544,346
306.8672,162.9
306.9295,359.4
306.9584,1201.7
306.9673,354.4
306.9777,2079.7
307.0544,432.3
307.0949,160.9
307.1024,20.2
307.147,301
307.3228,96.2
307.4206,92.8
307.5796,191.5
307.6363,562.9
308.1437,576.4
308.1698,173.9
308.2658,146.1
308.2848,317.2
308.4794,87.7
308.6499,474
308.7983,102.2
308.8796,3717.4
308.9554,411.7
309.0071,417.8
309.0382,6422.7
309.0832,1413.6
309.1189,96.5
309.249,81.3
309.3079,78.9
309.4507,434.2
309.5121,113.3
309.6127,320.8
309.9384,345.8
309.9496,143.1
310.0188,141.1
310.1632,106.5
310.175,302.1
310.3648,142.5
310.4233,158.8
310.4507,261.9
310.5353,21.4
310.6741,777.7
310.7828,354.8
310.8767,4496.1
310.9128,426.7
310.9615,192.5
310.9701,709.5
311.0039,171.4
311.0336,152.7
311.0592,684.1
311.0802,193.9
311.2895,107
311.4727,20.6
311.5487,20.8
311.7239,389
311.8013,19.1
311.976,17.9
312.0415,2840.6
312.1267,247
312.1592,192.2
312.2259,351.9
312.3284,17.7
312.3581,361.7
312.422,194.3
312.4237,245
312.4333,334.7
312.4401,315
312.554,309.8
312.7079,248.6
312.8583,466.3
312.8738,1026.4
312.9876,741.9
313.0028,121.2
313.0088,126.9
313.0399,20.3
313.2747,32159.4
313.5909,487.9
313.68,213.4
313.7275,544.6
313.7978,116.8
313.9523,128.6
313.9773,20.2
314.0155,183.9
314.0917,151.4
314.1853,341.1
314.2782,2583.9
314.2882,334.5
314.3084,97.6
314.3786,303.2
314.4185,791.4
314.5311,129.1
314.5527,179.1
314.6095,148.8
314.6399,17.5
314.6758,171.3
314.7401,25.7
314.7803,457.4
314.8376,5348.7
314.9019,320.1
314.9878,376.5
314.9998,6903.1
315.0047,2726.6
315.0101,145.5
315.0117,159.1
315.018,119.9
315.0293,212.3
315.0334,492.5
315.0374,344.9
315.0459,518.4
315.056,10546
315.0612,4135.4
315.0632,6510.3
315.0672,23416.1
315.0702,31894.9
315.0809,8501280
315.0889,21818.1
315.0913,14427.3
315.0933,12397.5
315.0955,7730.3
315.0975,7319.9
315.101,5603.3
315.1054,3852.1
315.1093,2683.8
315.1112,2275.5
315.1134,2266.6
315.1179,841.7
315.12,1081.1
315.162,7181.1
315.288,235
315.2957,357.2
315.3003,810
315.3244,5651.5
315.455,421.2
315.4872,723.5
315.5755,204
315.5858,123.2
315.6107,22
315.6196,107.3
315.6322,629.1
315.7056,248.2
315.8457,165.6
315.9408,23.1
316.0515,149.9
316.0693,1708.5
316.0784,49335.8
316.0842,889628.9
316.1127,927.7
316.1395,17.2
316.4405,620.5
316.481,157.2
316.5138,98.6
316.526,590
316.5754,90.7
316.6203,96.2
316.6406,25.6
316.6698,589.8
316.6821,201.5
316.7095,165.1
316.952,410.5
316.966,574.9
316.9872,2512.4
317.0045,1298.2
317.0482,161.5
317.0568,873.7
317.0658,2535.7
317.0848,102414.4
317.1085,26.8
317.1703,329.4
317.223,230.4
317.2837,139.8
317.3042,78.2
317.3481,109
317.5026,146.3
317.6272,377.6
317.6816,177
317.8072,115.8
317.8799,17.2
317.9186,547.9
317.9513,172.4
317.9872,649.4
318.0448,90.4
318.0883,10979.6
318.2615,131.9
318.3137,542
318.3789,542.7
318.4789,358.7
318.5626,84.9
318.6151,81.2
318.7001,95.3
318.7167,17.1
318.793,118.9
318.804,1820.7
318.8146,744.7
318.8455,84.1
318.9075,431.6
318.9614,536.8
318.9831,102.4
319.0109,669.5
319.0419,102.6
319.0636,71.9
319.1696,277.8
319.1954,30543.3
319.3191,770.8
319.3203,759.9
319.4675,249.7
319.4744,375.5
319.5161,441.7
319.582,161.1
319.6921,239.5
319.7565,20.2
319.859,106.1
319.9843,488.6
320.0601,522.3
320.0753,178.1
320.1363,623.5
320.1989,3668.2
320.2344,469.6
320.254,827.4
320.2594,1755.9
320.315,302.1
320.385,209.2
320.5484,153.7
320.5696,138.2
320.5863,84.8
320.7426,254.1
320.7664,94.2
320.8008,956.8
320.861,17.9
321.0392,75.7
321.0592,192.1
321.1007,99.1
321.1212,141
321.2008,758.6
321.2111,30726.2
321.2628,187.4
321.315,216
321.464,18.5
321.7653,416.3
322.0096,268.6
322.031,154.3
322.1183,18.1
322.2146,4415.3
322.2893,737
322.5049,297.8
322.5266,404.7
322.66,201
322.812,941
322.8619,119.6
322.8678,377.1
322.9325,428.3
322.9515,564.3
322.9698,338.1
322.9866,198.2
323.0034,764.2
323.0213,9890.9
323.0585,169.6
323.2266,958.7
323.2652,81.8
323.4269,291.6
323.4366,735.2
323.7143,132.5
323.8132,321.2
323.8976,775.1
324.0067,50.9
324.0757,179.3
324.4425,227.5
324.5775,2485
324.5901,7703.2
324.6009,1518.5
324.6085,1039.2
324.6166,475
324.6186,446.7
324.7946,607.3
324.8034,159.4
324.8092,1864
324.8188,797.7
324.8536,2215.6
324.9211,175.5
324.9293,486.5
324.998,91.4
325.0035,846.3
325.0548,22.4
325.1666,527
325.1921,84.6
325.2133,3081.1
325.4649,694.4
325.529,231.7
325.7564,118.2
326.0055,39.7
326.0405,475.3
326.2865,313.7
326.3789,231
326.6103,354.5
326.8061,489.7
326.8508,3390.3
326.8738,97.4
327.0164,4893.6
327.0524,1226.9
327.1301,753.6
327.2044,18.8
327.2183,575.7
327.2283,5612.7
327.2969,22.6
327.4491,154.4
327.4542,86.1
327.6025,168.2
327.7315,140.2
327.9273,276.3
328.0157,1715.1
328.3302,142.4
328.3675,232.4
328.4235,424.9
328.4354,95.7
328.4447,175.1
328.4507,22.6
328.6204,18.1
328.7716,129.9
328.8033,202.8
328.8479,1087.4
329.0128,780
329.0968,3210.6
329.319,124.4
329.6182,18.3
329.6541,17.2
329.7133,19.8
330.0026,105.8
330.0595,228.5
330.3356,353.6
330.3593,174
330.4923,137.1
330.5287,106.2
330.6522,276
330.8205,218.6
330.8646,18.7
330.8788,751.7
330.9889,24.1
331.0203,1285.5
331.0461,143646.6
331.0549,1094400.1
331.1298,565.8
331.1428,260.8
331.3673,255.5
331.6275,99.2
331.8691,261.4
331.9424,517.1
332.0489,10255.9
332.0583,100223.3
332.1868,247.8
332.2377,178.1
332.2624,20.5
332.4681,92.2
332.6103,250
332.6876,97.3
332.8409,440.8
332.93,141.1
332.9478,648.2
332.9636,754.6
332.9854,195.4
333.0057,19.4
333.0426,87.4
333.053,63886.7
333.0585,10859.3
333.1145,635.3
333.2035,138.7
333.2189,101.7
333.2287,229.5
333.3141,551.9
333.3354,84.8
333.3708,610.7
333.4475,143.6
333.4574,360.2
333.7333,264.5
333.887,626.5
334.0163,141.4
334.0564,3784.8
334.0911,78.6
334.0998,173.1
334.2451,109.9
334.5874,293.6
334.6022,148.5
334.8108,448
334.9452,747.2
334.9759,22
335.0388,738.7
335.0474,193.7
335.0577,114.3
335.3548,418.1
335.4347,239.7
335.5238,19.3
335.796,92.9
335.9493,19.5
336.1516,186.1
336.1713,373.2
336.2364,681
336.2486,731.1
336.2607,642.6
336.3049,94.8
336.5418,449.8
336.6312,193.9
336.6676,875.2
336.684,19.4
336.7761,242.4
336.8239,218.4
336.8347,334.3
337.0371,13825.7
337.0505,26585.5
337.0629,803111.1
337.1638,365.5
337.2749,7513.5
337.4137,188
337.6706,223.7
337.7816,128.5
337.9236,304
337.9314,333.2
337.9596,138.2
338.051,560.9
338.0663,72547.8
338.1642,100.1
338.3658,632.8
338.435,364.7
338.4777,167.8
338.498,208.4
338.6204,73.6
338.744,123.2
338.9218,505.1
339.0193,409.5
339.0391,3345.2
339.0479,1341.9
339.0668,7204.8
339.089,724.1
339.1712,155.5
339.2326,91.7
339.2731,103.2
339.2903,4972.6
339.3449,18.6
339.3505,487.8
339.4699,180.7
339.5821,22.9
339.5893,140.5
339.6096,134.3
339.8425,465
339.8567,19.2
339.9216,113.3
340.1848,110.7
340.2939,811.1
340.4054,649.3
340.5104,18
340.6306,106
340.6863,364
340.705,81.2
340.7593,23.1
340.7832,1059.9
340.988,375
341.1795,1214.7
341.3064,2422.3
341.3198,88.4
341.3399,121.2
341.5584,99.9
341.5846,96.9
341.6381,656.1
341.7217,670.9
341.7255,655.1
341.9282,19.5
342.0919,151.5
342.2003,21.4
342.3296,97.2
342.3896,94.5
342.4565,353.9
342.5267,351.7
342.7006,254
342.7186,101.8
342.7715,110.2
342.7818,18.1
342.9173,570.9
342.926,113.5
342.962,603.5
342.9775,168.4
342.99,708.1
343.0269,623.2
343.1955,15505.6
343.229,358.9
343.3465,516.6
343.3638,21.9
343.4325,367.3
343.5228,168.2
343.5923,244
343.6827,86.7
343.7019,94.6
343.7611,138.6
344.0872,100.7
344.1857,117.7
344.1987,738.6
344.2125,79.9
344.3853,315.3
344.4663,99.5
344.5201,281.8
344.662,556.4
344.9455,558.5
345.035,546.8
345.1717,19.6
345.2112,1754.9
345.2585,108.8
345.3142,240.4
345.4132,127.2
345.5696,133.8
345.5756,83.8
345.607,91.2
345.7019,109.9
345.8765,498.2
345.9845,3703.1
346.0108,22.8
346.0202,385.4
346.0403,1302.7
346.0852,145.7
346.1309,199
346.4529,20.2
346.5981,81.6
346.742,96.1
346.7608,490.6
346.8495,84.7
346.8808,83.3
346.9507,18.7
347.0733,837.7
347.0884,88.7
347.097,21.5
347.1301,138.4
347.1805,193.5
347.277,328.6
347.3243,98.7
347.4834,318.8
347.6714,133.6
347.8113,98.7
348.1807,106
348.2895,198.3
348.2953,207
348.3845,772.2
348.4233,346.7
348.4969,125
348.5808,22.1
348.8093,1073.7
348.9098,183.2
348.9849,96.2
349.0283,221.9
349.0642,26.8
349.1758,195.4
349.3636,744.2
349.5622,355.3
349.6914,17.2
349.8685,83.6
349.9251,469.6
349.9768,92.1
350.0163,112.7
350.0982,675.9
350.114,397.2
350.2354,83.3
350.4032,692
350.479,105.9
350.5764,19.3
350.707,668.6
350.7671,348.3
350.8118,388.3
350.8778,886.5
350.8997,1775.9
351.0723,92.2
351.1232,117.8
351.2537,94.8
351.2765,104.6
351.2932,91.1
351.3657,664.9
351.4887,231.3
351.7915,188.2
351.9537,1462.2
352.002,17.9
352.1477,83.3
352.1965,686.9
352.5261,140.6
352.72,438.4
352.8308,269.2
352.8499,636.5
352.9689,152.4
353.028,164519.2
353.0369,223762.9
353.0568,21.9
353.0693,208.5
353.1132,160.5
353.1241,511.4
353.1446,242.8
353.3688,111.8
353.4811,244.9
353.502,155.2
353.7598,133.6
353.7791,410.4
354.0312,13621.5
354.0403,19575.7
354.2333,78.3
354.2487,247.3
354.707,92.4
354.7603,345.4
354.896,1621.7
354.9129,144.7
354.9955,559.2
355.0124,2276.7
355.0228,354.3
355.0352,12717.9
355.059,845.2
355.0712,261.8
355.2447,147.8
355.4174,174.1
355.4275,364.5
355.6689,180.1
355.7059,334.2
355.7763,225.6
355.8109,17.3
355.9397,254.8
356.016,135
356.068,788.7
356.0771,20.1
356.119,237.8
356.1799,115.8
356.3092,596.9
356.3627,115.6
356.3765,817
356.4219,287.7
356.5096,174.6
356.7063,214.7
356.7217,426.3
356.8857,425.8
356.9929,115.1
357.0097,970.7
357.0203,213.4
357.2653,733.7
357.283,486.2
357.3198,81.6
357.3851,513.5
357.4142,430.8
357.5704,358.2
357.5956,116.3
357.606,746.6
357.6161,548
357.6241,96.2
357.6318,814.3
357.6752,422
357.9512,130.5
357.978,20.7
358.0099,23.1
358.0132,23.4
358.0383,78.3
358.0505,309.8
358.1314,622.6
358.1826,128.5
358.5657,387.3
358.5831,83.1
358.6094,87.3
358.8568,108.5
358.8827,19.4
358.9949,103.2
359.0067,642.3
359.0324,18349.8
359.045,488653.6
359.2415,281.5
359.2697,23.1
359.3477,330.4
359.3563,23.1
359.4094,321.3
359.417,502.6
359.4287,710.1
359.46,913.2
359.4738,512.1
359.4912,1046.4
359.5044,852.2
359.5118,530.1
359.5248,260
359.5295,250.6
359.5363,169
359.9566,17.5
360.0313,154.1
360.0368,343.3
360.0483,41118.7
360.0601,265.3
360.0862,310.3
360.1532,235.4
360.2075,267.1
360.3247,251.3
360.5021,216.6
360.573,137.2
360.6671,19.1
360.7889,442.4
360.8817,624.6
360.9595,317.8
361.014,467.1
361.0211,6823.2
361.0298,516.6
361.0489,3025.2
361.1147,97.2
361.1967,677.1
361.215,188.1
361.2324,238.6
361.2745,714.8
361.7754,750.8
361.7933,21.6
361.8662,409.7
361.9589,533.8
362.003,183.1
362.1282,492.1
362.2192,684.8
362.2847,16.8
362.3935,96.7
362.3984,421.7
362.4472,1031.8
362.8009,709.5
362.9278,967.7
363.0027,81.8
363.2104,183.2
363.3046,21.5
363.4156,100.9
363.4588,101.5
363.5536,352.7
363.5676,556.3
363.6134,619.1
363.6706,798.6
363.6872,250
363.7085,22
363.7915,28.5
363.9148,538.3
363.9981,25.5
364.017,20.3
364.0799,860.9
364.1095,21.4
364.6923,113
364.7235,332.5
364.8365,83.4
364.9372,847
364.9735,725.8
364.981,205.8
365.4175,80.4
365.5696,657.6
365.5824,363.7
365.7016,364.6
365.9051,97.6
365.9181,442.7
366.1408,561.2
366.1745,90.7
366.1812,264.6
366.2653,21
366.2798,100
366.4469,153.3
366.5353,225.3
366.5433,206
366.5663,158.1
366.6366,198.5
366.6503,340.9
366.6857,298.5
366.7108,133.3
366.7726,134.5
366.8742,451.1
367.0251,73.4
367.0361,129.5
367.0611,240.7
367.1228,1087.8
367.1421,140.5
367.1955,6567.7
367.4596,164.1
367.6435,396.6
367.9204,141.7
367.9642,403.1
368.0152,252.3
368.1147,104.7
368.1987,793.6
368.2327,365.3
368.2445,157.5
368.2625,193
368.3129,77.2
368.4026,159.8
368.4432,19.4
368.5127,19.6
368.5552,151.3
368.581,142.7
368.8722,1059.8
368.9457,375.3
368.9602,125.2
368.9929,2688.2
369.0019,17558.7
369.011,6897
369.1643,226
369.2299,213.2
369.2506,17.9
369.3531,57.4
369.5365,283.8
369.5425,81.8
369.7591,120.2
369.8377,94.1
369.911,102.1
370.0053,149.3
370.0135,107.5
370.0781,128.8
370.1504,361.4
370.1864,72.8
370.2125,365.3
370.2742,508.6
370.3802,283
370.4802,759.8
370.4946,87.5
370.5058,142.7
370.5167,107.5
370.742,384
370.9173,127.8
371.1009,194.2
371.2408,81.5
371.3872,414.2
371.5481,148.5
371.5853,83.2
372.0323,365.2
372.1022,698.2
372.3836,578.6
372.3929,160.7
372.5028,651.5
372.6143,512.6
372.9814,360
373.0639,468
373.066,499.6
373.0706,237.7
373.5338,79
373.5999,197.9
373.7164,96.4
373.8806,108.5
373.8939,203.1
374.3026,17.9
374.376,158.2
374.5723,238.4
374.6091,169.8
374.6228,301.4
374.7351,420.5
374.8394,181.6
375.01,158933.8
375.0189,123982.1
375.1489,130.6
375.5396,106
375.697,100.5
375.8406,520.4
375.906,89.5
376.0132,12943.8
376.0223,10983.7
376.0676,599.4
376.0808,159.3
376.1255,542.4
376.1372,224.7
376.2378,399.7
376.2997,19.9
376.3579,693.9
376.3644,220
376.3872,22
376.7861,409
376.9948,1730.8
377.0078,198.8
377.0174,6385.7
377.1199,509.8
378.035,298.8
378.1886,128
378.2079,156.1
378.2663,112.9
378.3358,307.1
378.5182,438.9
378.5712,101.9
378.7419,88
378.9164,18.4
378.9917,90.4
379.0035,162.4
379.1266,19.9
379.1838,100.1
379.1946,1165.6
379.3379,22
379.9282,20.8
380.0606,134.9
380.0773,196.6
380.3277,549.9
380.4404,429.2
380.5338,425.8
380.7637,119.3
380.7712,467.1
380.8299,162.5
380.862,21
380.9002,132.3
380.9917,39.3
381.0051,137.8
381.0144,25695.9
381.0269,255310.3
381.112,18.8
381.3706,209.8
381.5569,99.6
382.0186,140.7
382.0303,23909.7
382.0726,134.2
382.2868,111.2
382.3235,403.2
382.429,287.8
382.5183,97.2
382.6847,101.5
382.7201,173.4
382.7677,1938.8
382.8872,400.3
382.9581,386.1
383.0028,101.3
383.032,652.3
383.0671,147.7
383.0928,815.3
383.1172,317515.3
383.3466,398.8
383.4296,385.6
383.6448,18.3
383.8197,20.8
383.8593,176.9
383.8932,229
383.9291,320.1
384.1204,37434.3
384.1691,87.7
384.2976,128.4
384.3063,442.6
384.4632,672.1
384.5977,100.9
384.7646,1164.2
384.878,18.2
384.9008,131
384.9617,123.4
385.0278,462.7
385.0914,415.4
385.1216,1602.5
385.2743,170.5
385.3264,100
385.4471,281.1
385.6057,449.9
385.7566,522
385.9117,89.3
385.9638,635.3
386.0542,109
386.4197,93.5
386.4626,267.1
386.4945,105.9
386.5086,135.8
386.5185,98.2
386.6674,176.6
386.6938,476.3
386.7175,439.3
386.8819,752
386.9247,111.6
386.9369,22.1
386.9815,374.6
387.0037,2409.9
387.0195,89.8
387.0747,556.3
387.1402,88.2
387.2885,20.4
387.5367,18.1
387.5468,232.7
387.649,260.3
387.6705,101.1
388.0297,323.9
388.0699,151.2
388.2778,487.1
388.2981,98.9
388.6076,142.9
388.7135,414.1
388.7837,18.6
388.8218,121.4
388.9328,128
389.0158,392.8
389.037,882.4
389.19,728.3
389.2383,171.7
389.4479,304.8
389.467,378
389.5405,98.5
389.869,77.1
389.9073,788.1
389.9749,3225.3
390.0185,321.5
390.2831,20.8
390.3786,22.2
390.5063,320.5
390.6825,117.2
390.7099,724.4
390.7321,361.6
390.7997,1721.6
390.8403,634.2
390.8662,153.5
390.8756,332.9
390.8853,770.5
390.975,13930.1
390.984,22958.8
390.993,11529.7
391.2624,373.8
391.5287,590.9
391.6965,98.6
391.7516,124.1
391.758,177.9
391.991,18.2
392.1514,604.5
392.3616,77.3
392.4319,19.9
392.5192,607.1
392.654,20.7
392.6758,754.5
392.7064,484.6
392.7704,137.4
392.7968,3701.4
392.868,18.6
392.9349,655.9
392.9573,133.3
392.9681,90.6
392.99,88.2
393.1469,80.1
393.2816,846.8
393.2983,24.7
393.3442,93.3
393.3953,135.1
393.4324,106.3
393.538,465.8
393.6543,558.8
393.8001,79.1
393.8502,158.5
393.9963,192.8
394.0111,21.6
394.1558,561.3
394.3026,24
394.3094,295.3
394.3421,406.2
394.5132,105.6
394.5958,651.8
394.6119,92.4
394.7355,17.3
394.7934,1147.1
394.8456,99.6
394.8965,78.8
394.9046,151.4
394.9558,23.7
395.0671,19.1
395.247,95.5
395.2823,413.4
395.5227,306.8
395.5481,95.4
395.579,241.2
395.6463,18.1
395.6698,111.4
395.6833,200.8
395.7992,303.2
395.963,600.8
396.0913,577.8
396.2583,278.7
396.3785,209.3
396.4942,99.3
396.7196,340.8
396.7448,798.4
396.8775,367.9
396.9233,100.3
396.9455,659.7
396.9919,200480.9
397.0008,73051.8
397.01,511.3
397.0828,257.3
397.1356,19.9
397.1914,163.4
397.2765,196
397.35,101.1
397.4439,259.5
397.5578,171.5
397.6394,107
397.9952,16060.5
398.0042,2987
398.1888,435.7
398.2039,776.5
398.2426,16844.2
398.3285,215
398.4997,21.6
398.5735,686.8
398.7419,3106.1
398.7813,108.6
398.8685,18.8
398.9768,64.1
399.0001,1614.3
399.1788,2229.5
399.2459,1630.7
399.6328,921.9
399.7057,17.5
399.8234,79.4
399.8525,147.9
399.8915,587.1
400.2436,153
400.2495,353
400.2633,534
400.2893,150.1
400.4917,471.9
400.7386,1636.5
400.775,103.4
400.9846,1354.7
401.0187,95.7
401.0589,189.3
401.2923,138.6
401.3128,101
401.4433,180.9
401.7663,290.1
401.8451,135.7
401.9033,92.2
401.9169,196
402.0359,146
402.1159,180.5
402.229,140.3
402.2529,187.5
402.491,679.2
402.5101,376.6
402.5853,322.2
402.732,310.3
402.825,525.4
402.8444,92.4
402.8554,182.7
402.9494,134.7
402.9723,21.1
403.0089,271771.1
403.0562,318.8
403.2364,19.6
403.4085,102.2
403.4886,208.4
403.7736,517.8
403.9233,375.6
403.9846,155.9
404.0122,25432
404.082,487
404.16,98.3
404.2575,220.9
404.5745,422.4
404.7183,116
404.7414,142.9
405.0026,19.9
405.0127,1019.9
405.2208,315.3
405.3879,587.8
405.5549,167.5
405.6334,171
405.6997,123
405.7511,103.9
405.8149,210.5
405.8668,777
405.8797,100.3
405.9038,95.5
405.948,386.3
405.9569,85.2
406.0687,818.2
406.1849,563.2
406.2596,448.4
406.2755,148.8
406.3305,1170.4
406.4165,139.7
406.4958,21.7
406.7491,98
406.7735,1507.6
406.9488,378.4
406.9566,147.6
407.1656,143
407.3338,230.5
407.6464,158.6
407.7227,88.1
407.8684,689
407.9252,434.3
408.0796,23.4
408.2326,114.1
408.3362,21.5
408.4373,260.4
408.4964,472.8
408.5345,157.7
408.5988,183.4
408.6694,616.4
408.7709,1580.9
408.986,4511.1
409.0575,42
409.1633,526.1
409.232,364.9
409.263,93.9
409.3793,196.7
410.0835,420.2
410.0984,826.8
410.3544,182.4
410.3643,163.8
410.4305,172.5
410.7673,497.5
410.8568,885.8
410.8825,397
410.9705,48
411.1649,419.8
411.2689,231.5
411.5689,81.8
411.6065,240.4
411.6207,665.1
411.6699,113
411.708,811
411.8712,26.8
412.0816,234.4
412.1805,137.2
412.2198,114.5
412.3224,2037.7
412.7283,145.8
412.9659,33426.1
412.9749,10130.5
413.0049,303.6
413.0165,124.9
413.0453,92.1
413.0847,306
413.1739,252.8
413.2147,456
413.2675,3713.3
413.326,184
413.5923,81.6
413.6225,123.6
413.6354,280.2
413.7232,134.9
413.7587,72.7
413.9699,1119.1
413.9784,161.5
414.2173,412.3
414.2709,294.4
414.5601,303.4
414.6376,90.8
414.7067,695.3
414.715,502.9
414.7827,83.7
414.8591,468.4
414.9417,46.9
414.9654,21
414.974,80
414.9982,3356.9
415.1529,2726.7
415.2397,172.5
415.283,306.6
415.4809,211.9
415.5179,643.7
415.5652,229.5
415.6249,164.5
415.6442,100.3
416.0055,799.5
416.0989,87.3
416.1253,96.9
416.1362,16022.2
416.1486,208.5
416.1878,75.1
416.2152,28622.7
416.2947,196.5
416.405,134.8
416.6621,134.6
416.713,589.3
416.8021,995.6
416.9219,714.4
417.0247,401.7
417.0379,303.1
417.0845,88.5
417.1393,524
417.1663,201.4
417.2178,1659.9
417.2599,106.5
417.5194,133.3
417.545,167.5
417.9513,191.4
418.0162,109.1
418.04,76.4
418.482,19.8
418.5571,20.4
418.709,277.9
418.8005,534.3
418.8489,130.5
418.9137,79.6
418.9828,86085.7
419.0413,148.3
419.2561,844.7
419.2649,506.9
419.3226,519.9
419.3424,17.4
419.3703,151.9
419.3939,106.4
419.484,88.8
419.5916,943.7
419.9195,147.9
419.9302,185.3
419.9858,5827.3
420.1412,166.5
420.3109,87.6
420.4752,385.3
420.6067,587.5
420.6756,101.6
420.9244,485.8
420.9588,746
420.9814,3515.2
421.1948,298.2
421.4767,19.1
421.5335,376.2
421.6707,103.7
421.9597,335.1
421.9913,368.8
422.3041,22.4
422.3269,630.2
422.6244,19.1
422.719,434.7
422.9191,428.9
422.9552,518.6
423.1844,188.4
423.2482,362.4
423.2576,380.7
423.4682,110.3
423.7955,541.1
423.8714,445.6
423.9018,198.3
423.9094,122.8
423.9896,133.8
424.1671,568.7
424.3208,75.6
424.376,107.9
424.6674,127
424.7448,790
424.8311,387.3
424.8912,268.7
424.9141,94.5
424.9731,17.2
425.1915,142.9
425.36,95.6
425.7443,702.3
425.897,143.3
425.984,101.4
426.2599,88.2
426.277,84.4
426.2851,90.4
426.3059,224.8
426.7295,763.5
426.7939,388.2
426.8117,123.5
427.0383,551.9
427.2161,433
427.3433,19.6
427.3616,144.9
427.423,456.5
427.7573,19.9
427.9488,227.3
428.0678,140.5
428.1872,257.8
428.3578,285.2
428.475,89.3
428.7175,508.3
428.8151,531.8
428.8595,492.7
428.865,553.6
428.8759,159.4
428.9133,212.3
428.9399,1455.3
428.9528,113.2
428.9656,601.1
428.9803,871.8
428.9932,882.9
429.0372,19.9
429.0744,520.7
429.09,117.2
429.3347,304.8
429.4666,138.8
429.5375,182.4
429.5846,386
429.6205,543
429.7436,133.5
429.912,192.7
429.9943,257.9
430.1093,457.8
430.1929,111.1
430.2362,194.4
430.3217,225.2
430.4246,218.9
430.5696,234.6
430.6981,410.6
430.9148,724.3
431.0123,279.2
431.1692,560.7
431.2183,1767
431.4603,190.6
431.6851,18.5
431.7593,91.2
431.9456,737.3
431.983,119.3
432.1797,251
432.2302,134.5
432.2818,112.8
432.3291,87.1
432.3907,87.6
432.7198,605.9
432.9261,210.6
433.0007,369.9
433.1244,168
433.1806,20.6
433.1929,100.7
433.4829,216.2
433.5087,20.9
433.9652,371.4
433.9785,823.5
434.0503,373.7
434.6841,20.8
434.7135,151.7
434.7704,122.6
434.9569,13493.4
435.1535,137.8
435.2309,99.7
435.8838,248.2
435.9152,324.4
436.0341,684.7
436.1831,136.3
436.794,388.9
436.8236,392.6
437.0602,144.8
437.302,207.3
437.3224,198.7
437.393,279.8
437.5624,171.2
437.8739,147.3
438.1187,79.4
438.1342,376
438.1973,834.8
438.2148,93
438.2475,323.1
438.3734,298.3
438.4465,20
438.7077,382.6
438.8066,508.3
438.916,211
438.9732,4142.1
438.9855,7041.8
439.0002,315.1
439.0196,540.9
439.0307,570.8
439.2048,720.7
439.3918,371.5
439.5423,497.2
439.6386,359.7
439.7035,496.1
439.7148,688.6
439.8355,552.9
439.973,408.9
440.2179,136.7
440.2767,412.2
440.5121,89.6
440.5421,112.8
440.6186,245.9
440.6902,334.4
440.7473,332.1
440.8047,165.8
440.9702,1099.4
440.9837,867.1
441.0543,202.8
441.0987,136.1
441.2382,1400.5
441.2848,113.1
441.2986,215.8
441.317,145.5
441.55,634.7
441.6868,461.5
442.1082,163.1
442.3023,25.1
442.3536,100.4
442.4207,23
442.442,113.7
442.5144,118
442.5537,153.3
442.5678,208.8
442.6194,129.2
442.6458,296.7
442.7233,405.7
442.9988,126.8
443.1051,97.7
443.2542,539.3
443.3197,188.6
443.3335,19.2
443.4213,341.8
443.8715,309.5
443.8805,98.7
443.9458,216.6
444.057,105.9
444.4226,19.7
444.5812,377.9
444.7395,162.5
445.1204,189.9
445.3531,18.1
445.4126,88.1
445.6789,112.1
445.7806,98.8
445.8225,557.7
446.0909,434.4
446.1768,141.2
446.5083,258.9
446.5379,378.3
446.6733,309.2
446.7041,349.4
446.921,416
447.0656,155.6
447.1777,109.9
447.2182,435.9
447.2766,489.8
447.3636,79.5
447.3835,194.3
447.5872,683.8
447.6678,172.9
447.8235,186.3
448.0373,520.8
448.0457,347.1
448.0537,182
448.2497,72.2
448.2763,92.3
448.4086,148.6
448.905,755.9
448.9335,4453.2
449.0019,842.2
449.048,613.7
449.0686,605.1
449.1552,1683.6
449.4353,744.6
449.4509,221
449.6578,123.1
449.8485,690.3
449.9027,502.5
449.9857,495.9
450.1588,328.8
450.2594,262.2
450.6674,89.5
450.7572,460.7
450.8033,277.7
450.943,283.4
451.0023,189
451.0417,170.4
451.1515,146.3
451.5851,185
451.6444,101.3
451.773,368.9
452.0461,372.9
452.252,207.9
452.3612,344.5
452.3791,195.2
452.6559,18.6
452.6988,440
452.7519,523.2
452.8796,142.1
453.0063,100.8
453.0461,135.8
453.09,254.4
453.1487,178.6
453.194,158.8
453.3876,78.3
453.4441,524.2
453.9335,127.4
453.9384,126.5
454.2042,597.1
454.7741,147.1
454.9508,46015.5
455.0289,89.8
455.152,124.7
455.2264,139
455.2458,526
455.3373,430.8
455.4656,268.7
455.9543,2753.6
456.1156,21
456.7514,356.3
456.841,205.8
456.9478,13606.2
457.0048,133.1
457.2203,145
457.2339,8996.7
457.9648,351.9
458.1886,262.3
458.2376,835
458.2586,223.8
458.5134,162.1
458.6441,435.8
458.6802,19
458.6985,620.9
458.9623,3679.4
459.1697,658.6
459.2494,327684.2
459.3467,162.9
459.4063,140
459.4477,533.5
459.6112,348.9
459.9612,432.7
460.2527,65961.3
460.3614,189.3
460.9675,81162.5
461.0365,551.1
461.0899,192
461.224,131.5
461.2559,4709.6
461.3204,262.8
461.6263,292.9
461.7588,102.5
461.9044,140.7
461.9707,5750.1
462.0254,87.3
462.7387,20.1
462.9646,21060.3
463.1755,174
463.1918,102.1
463.2451,100.4
463.2714,111
463.6844,101.3
463.7593,92.8
463.8166,295.9
463.9065,323.8
463.9681,1197.3
464.0843,392.5
464.1026,177.6
464.4143,106.4
464.4958,75.4
464.6131,276.6
464.6721,341.9
464.863,607.2
464.961,129.5
464.9795,11586.3
465.062,134
465.3154,678.4
465.5128,101.9
465.5824,132.1
465.9821,377.8
466.024,20.6
466.1632,167.5
467.0758,111.1
467.2482,399.2
467.2604,472.7
467.39,569.1
467.4266,148.3
467.4602,153.1
467.5296,21.7
467.626,126.9
467.6439,89.7
467.9081,112.3
467.931,189.6
468.412,849.4
468.5569,554.1
468.626,428.6
468.7595,125.3
468.8185,162.7
468.9535,696.5
468.9815,220.4
469.1106,817.6
469.1426,30.3
469.3297,32.6
469.6138,126.2
469.7332,462.5
469.8235,20.2
470.1631,514.9
470.2687,335.8
470.7223,316.7
470.8407,297.5
470.8853,98.3
470.9246,13228.3
470.9963,4444.6
471.0439,162
471.1979,1952
471.2854,539.5
471.5889,161.4
471.9257,956.6
471.9359,171.2
472.269,154.1
472.3501,321.9
472.3608,529.4
472.4247,100
472.4345,372.7
472.4475,206.3
472.644,479.2
472.6818,354.3
472.6992,117.1
472.7621,230
472.8721,97.4
472.9031,74.6
472.9217,2295.5
472.9315,864.1
472.9484,186
472.9539,171.3
472.9601,164.9
472.9788,431.2
473.0026,99.5
473.1452,105.5
473.8946,93
474.1272,731
474.378,397
474.6537,340.6
474.8195,384.6
474.8295,182.6
474.865,671.5
474.9889,392.8
475.1515,340.4
475.2235,16259.4
475.4453,338.3
475.6013,179
475.7411,149.4
475.7651,337.9
475.8022,20.6
475.8364,112.7
476.1226,198.9
476.2274,1665.5
476.2595,528.3
476.2828,157.3
476.5572,93.6
476.6463,103.6
476.8501,21.4
476.9416,37703.8
477.3942,429.6
477.4457,85.4
477.5327,118.4
477.8779,298.9
477.9448,2240.5
477.9633,143.3
478.1024,226.1
478.1803,397.9
478.2942,512.7
478.3304,42174
478.3928,145.3
478.5242,18.5
478.5448,405.6
478.8118,506.9
478.8261,149.2
478.9226,703.4
478.9388,11588.5
478.9986,489.8
479.3339,5268.6
479.6939,150
479.9411,324.7
480.1013,19.1
480.216,106.6
480.3478,847
480.3557,267.3
480.4188,138.8
480.4364,143.3
480.564,20.7
480.5818,92.2
480.6432,197.8
480.6897,298.7
480.7112,125.7
480.7746,77.5
480.8026,73.4
480.872,20.5
480.9525,1949.5
481.0314,19.8
481.0928,63.6
481.2329,492.7
481.8237,477.7
482.1615,330.6
482.4696,102.8
482.5229,775.8
482.5561,230.2
482.738,83.8
483.0499,117.9
483.2495,90459.9
483.3082,287.5
483.6326,19
483.7371,107.4
483.7665,347.1
483.8738,102.6
484.1204,321.2
484.1896,23
484.2279,115.7
484.2527,20843.9
484.3154,373.8
484.4321,424.6
484.9219,18.1
484.9662,460.9
485.2652,82183.3
485.319,96.8
485.4748,299.5
485.7787,82.8
485.8382,210.4
485.92,18.6
485.9831,283.7
486.0226,640.8
486.0322,385.8
486.1614,174.6
486.1794,132
486.2685,15321.6
486.3076,518.4
486.3834,552.2
486.4354,323.9
486.4871,362.6
486.5741,20.3
486.796,153.3
486.8085,370
486.8978,357.8
486.9707,427.2
487.152,20
487.2414,173.9
487.2808,64880.3
487.3156,682.3
487.428,331.4
487.5408,108
487.6795,136.8
487.702,198.8
488.2681,483.9
488.284,12966.3
488.4568,158.5
488.619,161.1
488.7978,162.9
488.8722,213
488.896,481.8
489.0669,97.8
489.0857,557.9
489.1435,100.2
489.1921,156.5
489.2429,18.2
489.2515,1025
489.2652,405.1
489.2866,684.9
489.3145,211.3
489.326,84.1
489.5435,77.2
490.1574,189.7
490.1801,167.7
490.1971,974
490.2914,3279.8
490.3408,626.1
490.7436,400.5
490.8064,96.5
491.0677,16.9
491.2961,533.6
491.4779,153.3
491.4928,126.7
491.6267,362.8
491.733,163
491.7803,110.2
492.0702,155.7
492.0999,147.5
492.192,758.6
492.3187,112.6
492.3438,183.3
492.3576,94.4
492.6838,78.3
492.7998,265.7
492.9156,5125.9
492.9665,101.3
492.9699,101.2
493.0355,231.5
493.0666,127.2
493.0824,46
493.0894,219.2
493.4467,208.6
493.5258,203.5
493.7245,20.8
493.9187,442
493.9311,423
494.1166,92.4
494.1655,23.9
494.2008,560.7
494.2383,299.2
494.3263,4617.5
494.3591,332.5
494.4106,138.1
494.8934,233.3
494.9126,2374.8
494.9919,270.6
495.148,24.5
495.3062,234
495.4352,180.4
495.6284,20.8
495.7066,184.9
495.8549,177
496.1129,492.2
496.2281,84.4
496.2498,416.1
496.3411,341908.3
496.3618,89.2
496.5288,185.4
496.9075,25.2
496.9321,2819.1
497.3444,84195.7
497.7187,195.9
497.9648,373.5
498.0708,89
498.2042,20.2
498.2356,338.3
498.3477,4301.7
498.3741,211.2
498.3939,231.5
498.448,294.7
498.7014,406.9
498.7381,259.9
498.8405,17
498.876,432.5
498.9299,496.6
498.9396,303.6
499.0067,123.5
499.1958,227.6
499.2233,3166.3
499.6377,183.3
499.7078,150.8
499.8871,413.7
500.0441,124.1
500.3123,914.4
500.3337,245
500.3657,94
500.3955,351.2
500.415,723.9
500.5001,468.1
500.5788,93.8
500.6678,89.7
500.8567,414.2
500.9031,124.3
500.9557,344.6
500.9877,356.4
501.0656,136.5
501.239,3322.2
501.2607,752.7
501.3197,19.5
501.4069,93.9
502.0269,113.3
502.3093,264.3
502.3301,10570.3
502.6041,731.7
502.7241,430.5
503.0073,96.8
503.0805,512.2
503.1081,47.7
503.1516,285.2
503.2551,1498.8
503.6226,341.1
503.6395,371.6
503.7859,104.7
504.3465,5451.9
504.3964,483.3
504.4305,208.5
504.6843,216.5
505.1327,94.3
505.2035,102.5
505.2338,4155.7
505.3105,604.3
505.3219,147.9
505.3489,454.8
505.3755,125.9
505.4145,81.6
505.7514,155.6
505.8134,92.4
506.0659,311
506.0936,255.7
506.1411,152.1
506.237,927.3
506.2669,801.2
506.3614,6070.8
506.4545,420.6
506.7216,102.9
506.8925,3748.9
507.049,164.4
507.0801,105.6
507.2494,27071.5
507.3654,657.7
507.5723,159.4
507.6134,764.7
507.8957,697.9
508.0218,378.5
508.1097,18.3
508.2531,5439.7
508.2811,21.5
508.376,942.6
508.5851,18.4
508.713,305.7
508.7743,407.9
508.8059,374
508.8267,231.6
508.8889,1727.6
508.9364,140.4
508.9599,150.1
509.0058,5140.2
509.102,270.8
509.2653,7515.8
509.3123,211.2
509.4386,172.4
509.5608,178.3
509.7042,138.2
509.7352,838.6
509.9503,20.6
510.0087,364.4
510.1552,143.1
510.3565,747
510.4738,200.7
510.538,103.6
510.9046,851.3
510.97,213.2
511.1257,61.4
511.5392,339.1
511.6564,18.2
511.9274,130.2
511.9372,282.4
511.9692,137.2
512.0439,127.8
512.4833,547.3
512.5695,591.1
512.9095,19252
513.1525,192.1
513.2364,513.4
513.3173,88.5
514.4767,133.7
514.6883,112.1
514.8359,124.7
514.9065,11240.7
514.9544,205.4
514.9602,210
515.022,1826.1
515.5521,316
515.7823,144.1
515.8296,126.3
515.8755,136
516.0244,428.1
516.1823,22.5
516.3076,11147
516.3534,142.1
516.6541,536.6
516.9217,1957.1
516.959,248.2
517.0706,332.1
517.0827,127.8
517.213,20.2
517.2624,416.3
517.3104,1238.7
517.3745,104.4
517.8094,437.3
517.8847,309.7
517.9027,308.9
518.0253,145.8
518.0485,288.7
518.201,723.9
518.2698,80.2
518.3231,544226.1
518.4351,468.4
518.5083,17.5
518.7424,486.9
518.9262,30485.8
518.951,149.9
519.1599,141.5
519.3264,132042.2
519.6641,173.7
519.7236,83.8
519.93,1808.6
519.9796,495.6
520.1126,129
520.3411,87710.8
520.8553,96.9
520.8825,385.8
520.9234,19402.2
520.9394,21.7
521.0685,382
521.0843,456.9
521.1055,408.2
521.1957,770.2
521.209,511.8
521.2335,795.6
521.3445,19348.8
521.3604,119.1
521.8174,21.1
521.9257,847.3
522.1006,164.8
522.2512,365.7
522.3149,18.4
522.3568,90784.1
522.5398,142.8
522.5745,90.2
522.5945,431.1
522.7704,377.6
522.8127,145.8
522.8346,854.3
522.9206,1924.3
522.938,5415.9
522.9693,321.3
522.9827,738.2
523.0706,192.5
523.1118,18.3
523.2241,835.7
523.2805,22.9
523.3168,96.1
523.3602,21456.1
523.4255,141.6
523.463,129
523.5842,90
523.6751,345.1
523.8423,266.9
523.9204,363.3
523.9409,342.1
524.0336,682.8
524.0617,679.3
524.1597,347.1
524.3113,724.3
524.3724,89026.2
524.6534,382.8
524.7962,373.7
524.9359,1840.5
524.9668,207.3
524.978,801.9
525.3436,615.8
525.3758,21444.9
525.4782,117
525.6119,109.1
525.912,24.8
525.9351,471.4
526.1017,339.4
526.2634,386.2
526.3312,2957.1
526.379,478.3
526.4906,19.8
526.7805,247.3
526.8564,455.7
526.9513,510.8
526.9842,685.9
526.996,323.1
527.2614,105.2
527.416,119.1
527.8917,150
528.0118,182.7
528.047,129.7
528.3458,91.6
528.3564,304.6
528.8831,7091.1
528.9544,2939.3
529.0703,223.4
529.118,506.8
529.2639,473.5
529.2835,692.7
529.414,70.7
529.7698,628.7
529.8534,224.3
530.0706,357.5
530.1101,459.3
530.281,115.9
530.3233,597.8
530.3423,418.2
530.36,662.4
530.5143,385.3
530.7124,108.6
530.8594,88.9
530.8809,3920.1
531.0125,76.3
531.2215,1786.1
531.2495,10673
531.4078,289.2
531.7308,282.3
532.2536,1084.1
532.2807,591
532.3386,5047.2
532.63,312
532.7728,501.9
532.7975,206.1
532.8148,84.4
532.8777,519
532.9343,19
532.9673,3337.2
533.1415,77.5
533.1573,126.6
533.3411,896.9
533.4087,500.6
533.8769,399.7
534.1448,89.5
534.2971,121680.6
534.3593,199.2
534.6837,119.9
534.7347,334.3
534.8093,131.9
534.8404,100.5
534.9001,17689
534.9642,161.1
535.1063,144.1
535.3005,25733
535.7548,93.3
535.9041,372.3
536.1193,255
536.1785,339.5
536.2955,6599.2
536.3324,498.5
536.7187,130
536.8975,10185.8
536.9869,135.8
537.1379,144.7
537.2972,509.7
537.3435,547.4
537.3882,294.9
537.4314,144.5
537.6238,89.7
537.6469,145.5
538.016,676.1
538.0277,185.2
538.1227,160.1
538.2171,496.8
538.233,447.4
538.5039,598.3
538.6089,337.7
538.8376,127.3
538.895,1231.6
538.9123,1591
538.9336,827.9
539.0812,193
539.1233,85.9
539.1453,697.9
539.2404,23.2
539.3128,90.2
539.379,558.6
539.8153,106.4
540.0542,359.4
540.1289,468.7
540.7055,24.3
540.9094,688.2
541.1116,19.7
541.3136,162.5
541.9902,96.7
542.0043,335.3
542.2713,18.9
542.3231,137861.2
542.3643,347.6
542.4575,185.3
542.5318,25.1
542.5712,80.9
542.5856,223.3
542.9058,366.9
543.158,127.4
543.3266,34428.1
543.4175,104.7
543.4629,398.6
543.7267,358.7
543.9184,24.1
543.9656,99.8
544.0354,18.6
544.2724,388.2
544.2883,110.2
544.3389,152374
544.5936,348.9
544.633,453.2
544.7511,94.3
544.8166,468.6
544.9293,545.1
544.9499,1163.1
545.3424,37864.2
545.5175,540.3
545.6202,194.7
545.8177,122.9
545.9143,371.7
546.167,175.2
546.1859,224.5
546.2597,1115.8
546.3259,228.6
546.3545,134817.9
546.5017,509.2
546.5601,106.1
546.7137,219.1
546.7996,204.3
546.8702,408.7
547.2325,565.5
547.2485,92.2
547.3579,34347.5
547.4928,454.9
547.9009,347.2
548.3611,4284.9
548.4515,127.7
548.51,126.4
548.6231,73.4
548.7111,113.3
548.8227,390.3
549.2304,662.4
549.4168,111.3
549.4301,249.4
549.5812,81
549.6713,737.8
549.803,202.5
549.8375,108.6
550.1188,101.8
550.2532,234.9
550.332,572.6
550.3574,107.6
550.3867,536
550.4216,123.4
550.5698,96.8
550.6412,581.1
550.8317,213.4
550.8736,3310.6
550.9214,830
550.9723,20.4
550.9994,532.9
551.0642,215.9
551.3903,23
551.4682,902.7
551.9294,93.9
552.6107,145.7
552.6529,104.4
552.76,102.2
552.8705,1251.4
552.9157,18
553.126,193.4
553.1649,316.9
553.4018,84.8
554.042,105.5
554.0551,209.6
554.241,346.1
554.8358,116.1
554.9495,202.5
555.0571,348.4
555.097,118.7
555.1234,481.4
555.3322,365
555.5305,112.5
555.687,222.8
555.8644,19.3
556.2733,411.6
556.8876,499.3
556.93,857
556.9433,203.1
556.9748,239.4
557.1206,17.9
557.1433,150.3
557.181,380.9
557.3992,597
557.4369,356.2
557.5067,749
558.2971,30828
558.3735,98.2
558.5944,351.3
558.8337,531.9
559.3003,5485.5
559.4478,337.3
559.6777,258
559.9231,160.8
560.0877,536
560.3129,29204.9
560.3518,245.5
560.5287,438.1
560.5432,179
560.752,192
560.8621,218.6
560.9438,526.9
560.9752,16.6
561.0893,333.4
561.2565,475.9
561.316,4146.8
561.4499,518.4
561.6756,374.5
561.7542,465.8
562.3285,22461.1
562.5899,89
562.7021,446.4
562.933,277.2
562.9829,128.5
563.2443,95.5
563.3315,5873.6
563.4413,22.3
563.4978,19.8
563.5153,466.4
563.548,360.4
563.6921,179.2
563.7535,134
563.8077,19.9
563.8181,17.8
563.843,83.2
563.9782,580.2
564.3074,3482.3
564.3267,1628.4
564.4263,397.7
564.8515,616.2
565.0209,711.2
565.1348,88.8
565.1478,99.5
565.2923,565
565.4109,165.6
565.5,20.8
565.5456,491.9
565.6333,388.9
565.7502,501.9
566.0187,129.6
566.2331,20
566.3232,41366.9
566.4258,19.3
566.6784,81.9
566.7943,413.4
566.8476,917.2
566.9646,2253.9
567.2875,135.8
567.3268,9369.4
567.3544,329.2
567.507,498.7
567.6679,103.4
568.0257,254.5
568.2701,1085.7
568.3398,18087.6
568.5037,251.5
568.5319,395.9
568.9973,387.4
569.3414,3234.2
569.3598,115.4
569.4517,755.1
569.5413,111.4
569.5495,102.3
569.6204,428.7
569.638,114.2
569.6468,18.4
569.9134,302.6
570.0846,18.9
570.2618,283.9
570.7038,370.2
570.8683,4566.8
571.645,248.1
571.8121,322.8
571.9074,242.8
572.1721,644.4
572.1974,353
572.491,104.8
572.6051,154.6
572.8181,423.5
572.8649,6425.8
572.8988,21.9
572.9823,780.6
573.1363,133.3
573.375,587.8
574.285,1549.5
574.4032,154.4
574.4858,430.8
574.8621,1064.2
575.1583,25.3
575.2962,766.8
575.5049,5673.7
575.6293,231
575.8255,351.6
576.282,6347.1
576.509,251.2
576.5654,18.7
576.7365,17.2
576.8852,9429.5
577.2576,111.3
577.2864,659.3
577.3386,116.4
577.5211,557.9
577.8889,1177
577.9551,100.1
578.1408,694.2
578.2114,180.1
578.2789,657.9
578.5688,196.7
578.6787,110.1
578.79,181.7
578.8157,372.3
578.8821,9592
579.0185,589.5
579.2016,599.2
579.313,623
579.582,98.4
580.012,400.7
580.054,412.8
580.1585,151.2
580.1747,190.2
580.2677,115.4
580.4871,267.4
580.7368,517.9
580.8788,3232.3
580.8973,2568.2
580.9678,147.8
580.9813,20
582.0212,684.7
582.0907,941.2
582.1857,741.7
582.2408,391.7
582.2635,701.7
582.2686,725.8
582.297,6743
582.3245,594.5
582.381,271
582.5335,306.1
582.5912,149.1
582.8943,1846.2
582.9611,358.7
583.2533,197.2
583.3005,922.2
583.383,20
583.4719,672.9
583.5204,244
583.8674,403.2
583.8716,425.6
583.8928,669.3
584.2625,825.6
584.3127,1318.7
584.3586,132.2
584.6365,17
584.6874,366.1
584.8115,256.1
585.1393,118.9
585.2725,927.4
585.2973,20.3
585.567,91.5
585.5969,412
585.7026,625.4
585.9412,94.1
586.3111,4727
586.581,118
586.622,773.9
586.6448,92.8
586.8417,1926.8
586.9127,678.7
587.0025,534
587.2445,136.5
587.4149,21.4
587.5583,132.7
587.5793,645.5
587.7413,384.8
587.9766,87.3
588.1361,115.4
588.4105,363.4
588.6668,96.4
588.8173,665.7
588.8398,3095.3
589.1308,95.5
589.147,106.6
589.4538,154.7
589.6471,208.3
589.6756,191.8
589.81,337.7
590.0098,380.6
590.2095,505.2
590.3237,12583.7
590.5372,812.4
590.6545,565.6
590.686,234.6
590.8163,113
590.8355,363
590.8672,385.8
590.9268,1662.8
591.0572,697.8
591.074,100.6
591.3269,3085.3
591.9424,181.5
592.1408,445.9
592.315,337
592.3391,2890.1
592.6395,608.1
592.8586,6016.7
592.9204,626.3
593.1123,785.2
593.1278,534.1
593.1644,559.2
593.2404,20.5
593.2723,106.9
593.4518,133
593.4715,97.8
593.7367,147
594.0913,106.7
594.1528,139.8
594.2569,380.7
594.2615,434.6
594.2671,326.8
594.3821,142.9
594.4096,19.4
594.4877,116
594.5109,362.7
594.5627,105.4
594.664,410
594.8559,5756.7
594.8763,586.3
595.365,554.9
595.5881,100.5
595.9946,358.4
596.0943,222.1
596.4722,93
596.7997,18.7
596.8537,2195.4
596.8719,471
597.0061,204.1
597.192,101.2
597.2928,145.3
597.4481,2503.3
597.4608,1510.2
597.4873,6858.2
597.9828,85.7
598.1138,559.2
598.462,411.1
598.4746,117.6
598.4899,2230.6
598.6286,564.3
599.0112,267.2
599.4678,1075.9
599.4798,1060.3
599.505,3251.9
599.7676,531.5
599.877,312.7
600.2899,97
600.2948,106
600.301,86.6
600.5086,904.2
600.6441,141.8
601.0236,174.1
601.5686,141.2
601.6444,163.7
602.3835,19.8
602.571,548.3
603.082,569.1
603.1945,481.6
603.2978,455.8
603.5393,159.4
603.6473,160.1
603.8798,337.5
604.3138,581.7
604.7018,388.3
604.8138,335.2
604.8457,101.7
604.9527,172.1
605.4181,154.8
606.2976,1890.1
606.3474,260.5
606.4714,18.8
606.6885,385.8
606.728,95.4
606.7485,387.4
606.9077,318.8
607.0256,97.1
607.1292,166.8
607.1722,5211
607.2603,163.2
607.3074,564.7
607.403,92.5
607.5806,162.7
608.026,339.1
608.1655,225.4
608.17,223.8
608.1755,234.9
608.3575,386.4
608.3685,89.9
608.8934,85.8
609.22,150.1
609.6413,256.5
610.0344,389.8
610.0889,686.7
610.4639,528.5
610.6359,895.1
610.6463,171.3
610.8318,518.2
611.0059,212.8
611.0555,688.3
611.26,191.2
611.5835,714.1
612.3272,602.1
612.5026,204.5
612.555,144.9
612.6407,529.3
612.8283,469.5
612.9277,126.8
613.2451,287.3
613.3489,888
613.3635,156.8
613.604,522.8
613.6161,129.6
613.7353,137.1
613.8156,677
613.9132,104.8
614.0364,155
614.0547,355.1
614.0714,653.2
614.457,198.6
614.9202,103.8
614.9589,21
615.0462,98.4
615.0937,439.4
615.1733,396
615.239,125
615.255,23.2
615.6903,182
615.7065,268.5
615.7693,503.6
615.7789,528.8
616.0099,18.7
616.0686,104.7
616.3603,819.1
616.4925,200.9
616.5765,144.1
617.0396,110.2
617.3685,180.7
617.39,693.2
617.4759,1008.2
617.5724,131.3
617.6272,20.1
617.6512,283.1
618.3089,25.8
618.6574,228
619.1262,1128
619.4282,588.4
619.4479,110.5
619.4923,4602.7
619.6175,224.2
619.9469,779
620.0659,160.7
620.4243,784.9
620.8655,18
620.9475,751.2
621.0847,529.9
621.4034,253.2
621.4592,1854.5
621.4875,3921.8
621.7793,457.9
621.8451,314.9
621.8812,109.4
621.994,489.1
622.0876,133.7
622.1557,436.8
622.3225,100
622.4477,199.6
622.4653,206
622.9556,155.2
623.1376,27532.3
623.1685,98.2
623.3745,117.7
623.4496,94.9
623.4755,642.2
623.505,2006.5
623.5528,975.6
623.741,175.1
623.889,138.1
624.1414,4399.4
624.4296,91.5
624.4489,147.5
624.5094,151.9
624.5314,661
624.5862,629.6
624.8923,572.6
624.923,881.1
625.0435,310.8
625.1359,515.1
625.1796,130.7
625.4973,419.6
625.5246,222.3
625.7034,232.6
626.4823,564.5
626.7734,313.4
626.8259,662.7
626.9231,465.7
626.9365,195.7
626.9425,201.6
626.9574,125.1
627.3077,581.8
627.4027,106
627.5367,526.7
627.7726,141.3
627.8531,202.2
628.5737,102.8
628.7268,247.1
629.0322,441.8
629.1545,62852.1
629.2428,96
629.4871,138.5
629.5532,21.1
629.6572,118.5
629.6866,85.8
629.7975,20.8
630.0218,146.2
630.0265,160.2
630.0334,100.1
630.0682,249.5
630.158,10788
630.2469,122.6
630.288,769.1
630.8248,432.1
630.8702,329.6
630.9659,584.2
631.0947,123.3
631.1303,465.3
631.1581,878.4
631.2351,1106.8
631.948,213.7
631.9816,18.5
632.09,264.8
632.8723,141.2
633.1405,139.8
633.1844,95
633.5992,18.1
634.1036,88.3
634.321,158.3
634.4583,228.1
634.6946,195.2
634.7168,403.6
634.8441,4231.9
634.8864,21.4
635.2674,783.3
635.5155,104.1
636.0787,167.4
636.2908,417
636.3061,665.9
636.322,20.4
636.3724,105.1
636.4035,460.7
636.5356,492.8
636.7035,108.8
636.753,387.6
636.8404,3646
637.0718,144.1
637.4288,307.5
637.9366,253
638.058,292.7
638.3531,115.6
638.4539,1280.7
638.6155,168.6
638.7312,457.9
638.8413,1526.2
639.3834,402.5
639.8389,399.3
639.9329,475.3
640.0494,661.2
640.1557,115.3
640.2874,134.9
640.3619,150.9
640.5736,131.4
640.6305,259.4
641.1432,234.9
641.204,571.7
641.4162,103.6
642.0017,19.3
642.6015,331.5
642.8472,473.6
642.8745,152.5
643.0966,20.8
643.6295,114.1
644.4566,225.5
644.5235,101.5
644.6051,315.6
644.7421,661.2
644.8467,138.2
645.1193,22022.9
645.322,803.4
645.3934,672.8
645.4101,161.6
645.457,742.7
645.4644,444.8
645.4866,1308.2
645.5883,155.9
645.6797,199.5
645.7166,18.7
645.8783,137.3
646.0514,425.2
646.1227,4043.6
646.3924,79.3
646.457,496.7
646.4741,292.7
646.8836,888.8
647.0355,218.3
647.0951,750.1
647.1235,149.4
647.1526,111.2
647.3269,100.4
647.3589,329.1
647.464,525.9
647.5477,693.6
647.9619,104.4
648.1866,98.9
648.2394,97.4
648.3453,19.1
648.3862,394.9
648.5565,138.3
648.6132,146
648.6824,537.8
649.507,372.3
650.0231,90.8
650.1383,305.2
650.4405,3966.2
650.5234,20.4
650.8179,1741.6
651.0315,117.5
651.1365,71155.3
651.1677,181.4
651.8065,537.7
651.8523,642.4
652.1401,13931.2
652.2543,210.2
652.8157,2894.6
652.9102,87.4
652.9422,187.2
652.9952,20.6
653.1124,1451.9
653.1409,1232.5
653.3305,281.7
653.3737,722.4
653.7813,611.9
654.0193,84.1
654.1169,19.1
654.1937,23.5
654.3532,17.6
654.3961,428.8
654.4125,432.9
654.5817,623.4
654.6301,400
654.8122,1732.1
654.9617,406
655.0908,404.7
655.1323,76.3
655.8309,20.5
656.1843,209.9
656.3359,125.2
656.8285,107.2
657.1591,162
657.3874,104.8
657.5385,88.6
657.5858,355.1
657.6371,186.8
657.6836,230.4
657.8647,363
657.92,184.8
658.3064,206.9
658.9052,110.8
659.056,176.1
659.0779,261.9
659.3148,527.1
659.3697,112.6
659.6223,126
660.4227,90.8
660.6729,126.7
660.8162,22.2
660.9426,445.6
660.9893,383
661.0843,11354.8
661.1246,105.9
661.1694,487.2
661.2232,81.5
661.2394,180.6
661.4692,1108.5
661.9207,636.8
662.0874,336.3
662.3678,528.5
662.5433,152.1
662.6383,20.3
662.9023,131.1
663.4564,734.4
663.4864,112.1
663.5425,268.4
663.968,101.9
663.9912,396.4
664.4352,366.4
664.4559,466.9
664.5802,463.4
664.6084,245.7
664.867,130.6
664.9022,772.5
665.0748,459.7
665.2388,138.3
665.6471,179.3
665.7863,407
665.8526,122.8
665.9951,129.6
666.3355,205.2
666.4846,6526.7
666.6413,418.4
667.101,34657.9
667.3112,81.7
667.4188,112.7
667.4719,147.8
667.4885,694.3
667.5071,135.8
667.8476,393.3
668.1051,4408.7
668.6349,371.9
668.945,136.6
669.0234,365.1
669.0866,189.2
669.1067,565
669.2382,20.7
669.3735,134.1
670.4529,738.5
670.5917,183.2
671.1298,110.6
671.315,21.7
671.4287,205.7
671.6612,404.6
671.9302,126.4
672.4234,4322.3
673.1185,79964.8
673.2028,625.1
673.4269,405.1
674.0824,412.4
674.1222,15532.8
674.143,20.2
674.6141,173.4
674.9333,94.7
675.0133,112.4
675.0872,401.8
675.0918,390.9
675.1235,1785.2
675.1636,216.4
675.1958,197
675.5239,78.4
675.5456,7100.1
675.7943,188.8
675.9881,101.8
676.0077,115.9
676.1136,225.3
676.4574,1117.5
676.5493,953.6
677.3399,420.2
677.5309,201.8
677.634,374.9
678.2186,20.9
678.2605,154.3
678.5632,488.6
678.7152,427.3
678.8722,19.7
678.9033,834.5
678.9345,16.5
678.9551,196.1
679.2876,709.7
679.4406,123.7
679.5962,126.3
679.6489,222.6
679.6786,131.4
680.0266,423.3
680.7967,320.2
681.226,365.3
681.5128,99.8
681.5909,134.8
681.6764,154.3
681.7026,820.8
682.0657,673.7
682.2106,674
682.3007,463.2
682.5501,102.7
682.6843,102.9
682.7221,357
682.8786,93.7
683.0279,22.4
683.0659,6719.2
683.3122,20.2
683.4531,782.4
683.7021,182.3
683.9323,167.9
684.1749,121.9
684.2702,209.6
684.2878,85.6
684.6686,235.7
684.7289,260.9
684.8551,727.8
684.9333,823.3
685.0722,130.6
685.1382,18.9
685.1501,18
685.4378,7918.6
685.7374,700
685.9088,137.2
686.2831,817.4
686.4416,472.4
686.891,605.4
687.0368,149.4
687.0785,21.8
687.2242,130.2
687.5546,16.9
687.6015,240.9
687.6855,26
687.7108,104
687.7527,191.8
687.8889,138.8
688.1059,262.4
688.4197,810.8
688.8438,99.9
689.0825,27729.1
689.5019,314.3
689.5594,858.9
689.8478,89.4
690.0875,3360
690.0957,3350.4
690.2546,183.7
690.4327,1360.5
690.5549,378.7
690.8917,145.4
690.9534,107.8
691.0684,480.1
691.0873,946.3
691.3831,356.1
691.613,88.2
691.6505,92.2
691.9114,134.9
692.2217,245.1
692.4683,537.6
692.6637,366.4
692.7389,564.6
693.04,117.4
693.5047,377.4
693.9087,340.3
693.9749,411.9
694.0166,185.9
694.4074,367
694.5766,203.6
694.7996,860.9
694.9071,401.3
695.1005,56186.5
695.3339,21.8
695.3705,721.9
695.4554,793.3
695.7124,452.8
695.7664,1089.1
695.8696,134.9
696.0028,93.4
696.104,10549.6
696.1932,77
696.3418,162.6
696.467,190.7
696.7979,380.3
697.0786,159.2
697.1061,161
697.1623,177.2
697.3012,285.8
697.3662,377.7
697.3873,304.9
697.5277,10345.9
697.8499,520.3
697.9132,630.6
698.0585,87.9
698.2015,274.3
698.5312,2683.9
698.6314,302.7
700.4089,536.7
700.4576,386.2
700.8146,252.9
701.0779,21.5
701.1025,385.3
701.3817,337.8
701.4556,809.9
701.5365,87.8
701.5612,19558.1
701.6158,508.2
701.6691,85.5
701.8676,185.5
702.0644,408
702.134,18.3
702.3433,2976.4
702.5005,17.5
702.565,5302.8
702.6115,190
702.7735,318.6
702.8056,110.1
703.3482,119.8
703.4919,136.6
703.577,63974.3
703.6187,131.6
703.6826,130
703.7251,101.1
703.8298,143.4
703.8753,183.4
704.048,402.1
704.154,133.6
704.4494,4813.6
704.5803,25694.8
704.838,369.8
704.9707,190.1
705.0575,5209.5
705.3718,469.4
705.5837,1615.2
705.8796,140.1
706.0952,234.5
706.2021,399.6
706.5419,497.6
706.5796,185.4
706.7198,129.1
706.8775,440.2
707.3602,495.8
707.4054,130.2
707.4796,234.7
710.4729,160
710.5545,472.5
710.7712,462.4
710.8534,223.9
710.8722,282.9
711.0141,356.5
711.0643,18161.2
711.075,17912.1
711.0972,413.6
711.1402,100.1
711.544,1974.9
711.6121,268.2
711.8696,835.9
712.0445,530
712.0698,1558
712.2901,444.4
712.4874,140.9
712.5313,22.8
712.9325,100.8
713.0712,104.6
713.1745,135.6
713.2958,107.5
713.4305,261.1
713.5246,119.2
713.6818,454.1
713.7096,193.3
713.9263,240.6
714.0051,19.6
714.1567,283
714.1963,671.8
714.3166,111
714.3457,284.5
714.7377,275.9
715.0581,135.2
715.0663,221.5
715.0714,200.2
715.1506,174.3
715.3269,100.2
715.4489,136.7
715.6586,23.3
715.9433,189.3
716.4071,129.7
716.7876,830
716.9088,309.4
716.9352,780.2
716.9832,200.9
717.0824,28109.9
717.2227,311
717.2931,605.7
717.7366,154.3
718.0864,5593.7
718.418,592.8
719.054,108.8
719.0856,161.2
719.8242,842.1
720.0091,132.6
720.6762,154.1
721.2065,103.7
721.4801,44668.3
721.5411,28.5
721.7745,83.3
722.0082,110.6
722.3458,141.2
722.4834,12855.4
722.566,163.1
722.8996,541.9
723.496,10920.1
723.5429,21246.5
723.7889,281.2
724.0165,741.7
724.4988,1801
724.547,8086.9
724.7352,20.8
724.8655,295.4
724.9802,127.9
725.1447,187.5
725.3933,627.4
725.559,68061.9
725.6494,602.4
725.6689,198.9
725.8807,399.7
726.0327,581.5
726.1174,121
726.1306,142
726.335,20.8
726.5624,22998.8
726.6826,463
726.9358,937.6
727.0379,2904.6
727.1827,570.1
727.2165,129.2
727.2907,226.5
727.4385,257.4
727.5651,3341.1
727.6827,99.2
727.8921,635.5
728.0528,99.7
728.0723,349.4
728.1237,256.3
728.1553,116.3
728.4504,1246.8
728.5231,1519.7
728.5747,103.9
728.8975,168.3
729.0234,93.5
729.1682,370.3
729.5928,5825.6
729.6569,226.2
729.7347,302.3
730.0271,288.5
730.191,110.8
730.3433,679.9
730.3834,434.1
730.5142,247.3
730.5409,4579.2
730.5726,181.8
730.5941,1322.8
730.6798,177.2
730.7984,598.6
731.1878,211
731.4261,245.9
731.4594,742.4
731.5423,96.8
731.6087,4805.4
731.904,175
732.0046,95.5
732.3012,106.1
732.4372,384.7
732.47,516.7
732.4853,800.5
732.534,332.7
732.5559,36057.7
732.6064,629.9
732.9141,500.4
733.0456,8864.2
733.0581,10053.1
733.3195,18.5
733.4148,17.8
733.4206,18
733.5594,11536.2
733.6913,161
734.0494,765.1
734.4052,270.1
734.4722,138.6
734.4869,108
734.52,246.7
734.5718,4121.1
734.6909,483.8
734.7242,91.8
735.0274,597.7
735.3791,164.5
735.574,1850.7
735.7316,741.3
736.0579,315.4
736.3554,95
736.5056,95.4
736.6689,106.8
736.7898,198.8
736.8229,539
736.8686,380.5
737.1596,159.2
737.2535,124.3
737.454,6594.9
737.8653,1181.7
738.132,153.3
738.2668,596.3
738.3256,260
738.5672,559.2
738.9542,696.3
738.9903,1050.6
739.0647,16597.5
739.4334,311.1
739.4584,352.9
739.4929,123.2
739.5196,1506.8
739.906,413.8
740.0688,352.7
740.1884,19.7
740.2219,658.5
740.2954,374.7
740.3324,210.4
740.5687,396.6
740.8996,103.1
741.5337,6369.6
741.6357,307.9
741.7036,385.3
741.7459,217.5
742.0131,116.8
742.3776,350.2
742.4471,450.4
742.4784,134.4
742.5763,1198.2
742.7314,433.4
742.7522,109.2
743.3195,517.4
743.4637,2518.2
743.5797,520.8
743.8604,301.4
744.4662,260.4
744.5554,1846.7
744.592,1788.9
744.7542,185.6
744.8419,358.4
744.9566,132.5
745.48,25611.9
745.5587,503.4
745.6002,182.1
745.7094,104.9
745.7195,101.5
746.1949,193.5
746.4827,8502.3
746.5725,6017.5
746.6087,2720.2
746.7902,456.9
747.4959,5902.4
747.5754,143.5
747.6133,117.8
748.1036,95.2
748.3546,179.5
748.4459,152.7
748.4774,274.9
748.5006,1631.7
748.5751,510.7
748.6865,106.7
748.7534,643.9
749.0144,2579.1
749.1859,292.9
749.5117,3910.7
749.6858,96.8
749.7015,730.6
750.1101,227.9
750.176,258.7
750.4348,90.8
750.5366,99.4
751.1204,220.5
751.1767,392.4
751.36,524.1
751.5223,108.4
751.5751,8722.8
751.6163,20.7
752.5224,7712.1
752.576,933.2
752.6341,344.9
753.1054,77.3
753.1175,72
753.2883,98.2
753.5906,2877.9
754.2608,742.3
754.5383,29585.7
755.0265,5185.7
755.0406,4644
755.1769,144
755.3546,764.9
755.4923,21
755.5416,10629.3
755.9184,19.6
756.0711,188.6
756.556,31354.8
756.6027,102.4
757.5597,10005
757.6247,869
758.161,153.7
758.2273,23.4
758.2671,295.7
758.5718,774200.9
758.627,326.2
758.7287,106
758.8948,20.8
759.1206,359.5
759.1823,101.9
759.2894,18.1
759.5753,346722.7
759.6411,1322.3
760.0237,80
760.3694,93.8
760.5884,351060.6
760.6391,340.4
760.7842,160.4
760.8247,18.6
760.9152,475.7
761.0467,5385.7
761.3894,99
761.4521,1593.4
761.5912,163924.7
761.8226,173
762.1311,840
762.3162,326.5
762.3967,411.7
762.5939,37550.9
762.7417,147.4
762.9384,160.3
763.3372,90.7
763.5954,3890.4
764.0414,372.1
764.14,104.6
764.1784,104.6
764.2805,83.6
764.3789,130.5
764.5623,1675.6
764.624,130.6
764.7605,421.7
764.9774,737.5
765.5689,108.6
765.9727,651.8
766.5381,2491.8
766.577,19979.7
766.6298,143.6
766.7389,180
766.8742,108.1
766.9175,569
766.9478,553.6
767.4405,186.1
767.5373,18.1
767.5799,5753.4
768.0115,375.1
768.1129,146.9
768.3371,247.2
768.5545,3157.5
768.5929,24937.3
768.7322,375.8
769.327,21.3
769.3826,409.3
769.4799,11576.9
769.5962,7667.3
769.7218,194.4
770.2798,147.1
770.4838,2816.3
770.5133,2015.3
770.6096,475.5
770.7046,468.5
770.9938,5727
771.386,330.9
771.4949,1068.3
771.5753,452.3
771.6135,448.5
771.6363,150.4
771.7124,757.5
771.8291,662
772.0256,313.9
772.1549,177.9
772.1759,215.8
772.3618,309.6
772.5875,8234.3
772.6258,225.4
773.2113,520.3
773.5101,1964.6
773.5901,2143
774.0593,92.5
774.193,94.3
774.5101,113.6
774.6048,2084.5
774.7477,79.4
774.7992,202
774.9373,144.4
775.1455,905.7
775.6013,337.3
775.7199,113.4
775.8467,533.9
776.4678,17.5
776.5231,1629.7
776.6954,172.4
776.7391,98.5
776.7767,153
776.8896,230.3
777.0112,8257.2
777.1912,286.9
777.7373,351.6
777.9303,535.1
778.4149,204.3
778.5385,21540.1
778.6207,629.1
778.6785,126.9
779.0912,21.6
779.1794,20.5
779.4949,476.9
779.542,6963.7
780.5541,592494.1
780.5977,534.7
780.8285,90.8
780.9046,96.5
781.0261,298.2
781.5575,255775.2
781.6156,320.9
782.1042,77.8
782.277,359.1
782.3326,364.3
782.4402,432.6
782.5176,373.8
782.5715,622564.7
782.7221,151.8
782.9376,112.6
783.0289,7704.6
783.3801,246
783.4779,770.8
783.5747,294940.2
783.7053,390.9
783.8541,290.3
784.3227,100.8
784.4676,428.7
784.5885,233915.2
784.8446,141.4
785.0148,241.9
785.0978,111.9
785.2381,91.7
785.4647,562.1
785.5913,117139.9
785.656,5457.2
785.9884,243.8
786.6037,216019.9
786.6579,1602.4
787.0046,372.5
787.17,395
787.6069,105892.1
787.6716,2480.7
787.823,371.9
787.9685,369.4
788.46,308.8
788.5386,337.3
788.5598,7050.1
788.6063,12184.4
788.6213,17703.7
788.676,285.1
788.9681,222
789.0677,202.5
789.2856,97
789.3146,676.5
789.4843,100.5
789.5613,1703.5
789.5913,376.5
789.623,9812.6
789.7245,146.1
789.7813,155.4
789.907,458.4
790.2058,611.9
790.3613,19.2
790.5508,651
790.5753,13672.4
790.6276,118.3
790.9299,184
791.1135,609.5
791.1679,143.1
791.2143,92.5
791.5087,98.6
791.5782,4280.5
792.1142,94
792.3266,380.6
792.4605,494.4
792.5929,9668.9
792.9822,836.3
793.3025,209.4
793.5513,458.9
793.5962,1550.1
793.9063,165.4
794.5709,2712.2
794.6082,27209.1
795.3728,107.7
795.574,694.9
795.6116,10721.4
796.5277,87029.2
796.5882,4762.9
796.6253,2309.2
796.7153,139.7
796.8529,688.9
797.1529,89.7
797.5309,34091.3
797.57,476.7
797.5891,963.6
797.627,695.9
797.769,635.4
797.904,171.4
798.1855,778.1
798.2165,554.7
798.4196,955.1
798.544,30727.8
798.7676,285.6
798.885,91
799.0034,1237.4
799.0358,190.1
799.317,522
799.5473,10838.7
799.672,1042.4
800.1306,207
800.1701,422.8
800.3033,176.9
800.3457,397.2
800.4969,277.3
800.5203,753.2
800.6495,379.6
800.9237,141.9
801.2612,755.1
801.6361,273.3
801.9723,19.3
802.2599,117.7
802.4374,19.5
802.5383,62855.3
802.692,95.5
802.7537,166.3
803.0817,84.8
803.5416,26049.7
803.7004,802.4
803.8769,309.2
804.2683,255.6
804.3081,92
804.5541,304623.2
804.8887,370
805.1345,299.1
805.4431,245
805.51,472.6
805.5574,144503.3
805.7774,281.1
805.8759,97.1
806.0753,370.7
806.4976,219.1
806.5715,360975.2
806.6161,674.8
806.6493,136.2
807.5748,177142.9
807.6395,388.4
807.7244,80.8
808.1203,215.7
808.1998,605.9
808.2616,104.6
808.5875,191931
808.6326,166.7
808.8007,681.6
808.9284,668.1
809.5903,94277.7
809.6342,178.2
809.6648,206.6
809.827,98.1
809.978,492.2
810.148,214.8
810.6039,132192.9
811.2114,773.7
811.6068,68229.9
811.6712,8708.8
812.4828,291.2
812.621,27823.2
812.6743,2133.1
812.7166,604.2
812.7349,397.6
812.946,153.4
813.0044,154.7
813.4158,866.5
813.5057,547.7
813.5443,121.8
813.5697,149.9
813.6235,13841.1
813.6877,11322.9
813.9107,335.2
814.2794,92.7
814.5787,487.9
814.6249,1119.7
814.6549,146.6
814.6906,2775.6
815.3429,138.7
815.5787,934.4
815.6233,154
816.2832,104.9
816.591,9778.9
816.7994,111.7
816.8557,224.1
817.0646,517.3
817.3692,501.7
817.5946,2007.6
817.7961,526.4
817.8667,101.6
818.0445,969.2
818.4481,103
818.5116,5524.4
818.5491,1005.7
818.5736,826.8
818.6081,2476
818.6929,77.9
818.7669,80.8
819.073,321.1
819.2331,902.9
819.4976,139.6
819.5173,1930.8
819.6103,638.2
819.8702,515.4
819.9208,147.8
820.0594,759.5
820.1212,78
820.1995,140.7
820.3148,144.6
820.5282,47962.5
820.5886,872.6
820.6247,589.9
821.149,454.7
821.1803,157.6
821.3346,21.9
821.3574,614.6
821.5311,21444.2
821.5893,202.3
822.5445,20083.9
822.5855,334.5
822.832,230.3
822.9005,698.6
823.3774,379.6
823.5482,8475.5
823.9918,16.9
824.5302,353.4
824.5596,15260.2
825.0323,236.6
825.5602,729.6
825.7493,262.7
825.7941,145.1
825.9958,20
826.5388,1368
826.8386,397.4
827.1986,199.6
827.3363,21.6
827.4461,117
827.5851,795.2
827.7325,743
827.8695,197.7
828.0304,105
828.2658,877.1
828.3533,440.2
828.5541,153597.1
829.5574,76179.2
829.7003,607.6
829.8101,195.5
829.9115,172.6
829.9486,983
830.283,163.1
830.5712,59723.7
830.6181,132.7
830.7342,144
831.0139,218
831.1467,405.4
831.5734,28209.8
832.4389,841.1
832.5863,64858.2
832.8915,1069.4
833.0197,97.7
833.0709,440
833.5895,34431.2
833.6542,1023.9
833.8145,469.5
834.2308,929.9
834.6035,57115.5
835.1037,163.3
835.4568,348.3
835.4897,240.1
835.5484,562
835.6067,30323
835.6687,321.4
835.7125,133.9
835.751,474.8
836.0707,328.4
836.3119,111.7
836.6216,5624.5
836.8999,355.2
837.1153,306.8
837.1699,598.3
837.2964,1081.1
837.3348,76.3
837.4581,308.7
837.6233,2078.8
838.5164,767
838.6233,169.5
838.989,73.7
839.3048,445.8
839.6004,159.2
840.0306,19.8
840.785,23.1
840.8344,294.2
840.8908,19.4
841.3937,399.3
841.9296,832.6
841.9887,1012.2
842.0855,819.6
842.1824,22.7
842.2199,449
842.2895,18.2
842.6299,124.7
842.8185,686.7
842.9724,198.2
843.4981,366.6
843.8878,361.8
843.9118,385
844.429,833.1
844.528,22593
844.7289,467.7
845.301,125
845.4527,101.7
845.5312,10751.1
845.6138,431.5
845.8333,587.3
845.8573,116.5
846.2159,105.8
846.5449,5229.7
846.8909,82.7
847.0242,449.4
847.1851,101.9
847.2826,567.9
847.5452,307.9
848.2082,91.7
848.4384,19.3
848.466,431.8
848.5589,7690.5
848.9654,221.7
849.2165,102.8
849.2687,180.2
849.3593,550.7
849.5599,2339.9
850.2425,127.4
850.4359,134
850.5561,401.9
850.6446,642.8
850.6595,707.4
850.795,91.7
850.8366,211.2
851.0471,293.2
851.0912,89.8
851.2544,634.3
851.2836,410.7
851.4801,89.7
851.5232,121.2
852.0889,266.1
852.1049,223.8
852.1525,105
852.3521,830.5
852.452,88
852.7376,556.7
853.0266,549.6
853.258,745.9
853.6304,631.3
854.309,399.7
854.4017,160.1
854.5723,2820.7
855.2021,497.1
855.5051,101.6
855.5696,481.6
856.231,218.5
856.5859,18438.5
856.6333,415.7
856.7007,172.1
857.5895,5433.8
858.2816,161.3
858.3191,142.2
858.4757,208.1
858.6019,1571.9
858.6739,718.1
858.9153,264.4
859.5921,267.8
859.7022,104.4
860.6035,154
860.6749,181.9
861.2153,209.1
862.3706,107.2
862.5114,416.2
863.2837,498.9
863.5371,135.7
863.8961,19.3
864.0644,150.1
864.2094,109.9
864.5825,149.6
866.0188,18.7
866.0574,75.8
866.1732,312
866.6211,300.1
866.6565,457.2
866.6858,1006.9
867.0188,154.8
867.8324,200
867.9214,174.4
868.0921,104.4
868.1266,848.9
868.1806,25.1
868.2628,418.1
869.102,441
869.2719,17.9
869.4115,1329.8
869.5235,369.5
869.544,419.1
869.5904,528.2
869.6282,1000.5
869.6759,2595.7
869.7197,1660.2
869.7854,2650.4
869.8128,2400.1
869.8425,2020.2
869.8711,2917.1
869.9044,2924.7
869.9485,1716.4
870.0112,942
870.0858,333.4
870.1533,80.1
870.1865,19
870.3628,520.7
870.4584,222.9
870.5125,559.6
870.5586,103
871.0215,625.2
872.1912,384.5
872.2047,362
872.2996,161.5
872.3527,540.1
872.4107,510.5
872.4394,754.8
872.5462,1334.7
872.9555,157.3
873.3784,253.9
873.9777,1028.1
874.1616,489.2
874.42,898.6
874.5076,89.3
874.7683,587.4
875.3307,503.1
875.3633,110.5
875.4448,17.7
875.5635,827.4
875.9818,106.8
876.0551,1633.9
876.6358,424.5
877.1072,128
877.2025,618.1
877.3213,168.1
877.5577,545.2
877.7129,179.5
878.1813,99.8
878.7746,18.7
878.8015,135.8
879.511,393
879.5386,460.9
879.5715,449.3
880.2074,594.4
880.5404,113.9
880.8396,616.1
880.8909,92.1
881.2552,693.7
881.8032,105.9
881.875,1193.7
882.0156,615.2
882.235,131.6
882.4225,553.1
882.5082,848.1
883.1452,451.3
883.582,105.7
884.7544,106.9
885.0265,582.8
885.1637,895.7
885.2208,87.3
885.2927,183.8
885.5538,555.5
885.6146,19.7
886.2794,127.2
886.4396,1013.2
886.6696,139.1
886.8499,798.8
887.2584,424.1
887.5768,116.2
887.7489,512
887.806,737.1
888.1637,1391.2
889.5126,101
889.9801,237.8
890.0267,768.4
890.0928,1086.6
890.1388,169.3
890.169,115
890.6475,104.8
890.7162,76.1
890.7683,378.9
891.2998,403.1
891.7419,1209.8
892.2773,131
892.3102,479.1
892.375,92.3
892.4267,103.4
892.6522,254.4
892.9488,100.2
893.171,344.2
893.6456,352.7
893.8296,218.8
894.0379,336.4
894.105,697.6
894.4091,103
894.9092,105.4
895.0098,326.3
895.0421,776.8
895.4101,254.1
895.8177,488
896.0525,21.2
896.1679,217.9
896.3416,539.2
896.4406,137.7
896.8123,999.7
897.0353,181.1
897.1007,21.5
897.2061,287.6
898.1252,362.6
898.3494,97.3
898.7724,1125.6
899.0832,90.5
899.4058,558
899.7838,89.8
899.9385,20.1
900.4424,175.1
900.5559,117.8
900.9952,83.5
901.5341,250.3
901.7678,871.2
901.8411,406.2
901.9827,23.8
902.0747,22.1
902.3918,165.7
902.6664,397.5
902.8928,86.4
904.7065,103
906.4,404.2
906.4227,132.6
906.7983,294.7
906.8344,191.3
907.0422,563.9
907.7681,797.4
907.8098,177.3
907.9185,386.5
908.3175,122.1
908.5208,800.3
909.0135,102.8
909.2356,18.6
909.6459,92.7
910.0655,431.7
910.4579,104.9
910.6997,690.8
911.1156,466.8
911.5108,1057.8
911.7216,87.1
912.0119,465.3
912.1384,102.3
912.5927,19.9
913.3319,142.3
913.874,846.5
914.0438,179.4
914.105,465.8
914.316,377.2
914.4635,21.8
914.9916,87.8
915.3289,345.2
915.6887,637.9
915.7856,465.7
915.9916,594.7
916.6378,402
916.7157,739.6
916.8157,124.5
917.0293,498.2
917.1281,132.4
917.4082,1079.9
917.6011,89.9
918.3086,23.2
918.3405,142.1
918.517,21.8
918.55,468.8
918.6176,152.6
918.757,93.1
918.9767,382.3
919.0303,585.9
919.0744,174.9
919.2151,111.8
919.4485,152.4
919.6567,136.1
921.6049,588.4
921.7409,870
922.1124,109.7
922.6522,370.6
922.6941,316.2
922.8017,108.6
923.1509,136.5
923.3031,131.5
923.3248,142.3
923.5304,242.5
924.3156,1095.1
924.7243,371.2
925.8474,121.9
926.4594,1387.3
926.5579,128.3
926.585,564.5
926.9853,247
927.1919,124.3
927.4956,309.7
927.5298,605.3
928.1145,22.5
928.9668,463.2
929.3612,22.3
929.5496,935.9
929.6455,489.4
930.6461,352.1
930.9913,348.9
931.5155,74.7
932.0428,167.8
932.6399,526.5
932.6997,340.8
932.8473,138.5
933.0946,113
933.2897,112.1
933.8793,737.5
934.0986,382.2
934.6795,165
934.8302,221
935.0097,536
935.1804,120.7
935.7474,160.6
935.7739,195.7
935.961,1321.1
936.2788,1092.1
936.8525,338
937.1023,86.8
937.1302,630
937.2092,102.8
937.3078,222.4
937.7617,1846.9
939.2695,264.4
939.8175,95.1
939.865,121.3
940.3614,18.8
940.4418,356.8
940.7637,140.6
941.5899,200.4
941.857,945
942.0847,114.9
942.1568,466.1
942.4865,139.9
942.6002,104.4
942.6424,23.3
942.7931,935.2
942.9359,256.8
942.962,134.6
943.2291,420.9
943.3892,687
943.5061,104.5
943.9746,17.7
944.5584,425.6
944.9154,196.5
946.3893,235.4
946.4437,436.2
946.4839,151.5
946.7689,179.8
947.4638,185.9
947.5068,167.7
947.7656,100.2
948.2963,85.3
948.454,221.7
948.8042,79.6
949.1955,20.6
950.1481,266.2
950.1731,291.5
950.3215,87.9
950.4044,107.6
950.7819,76
951.3531,742.6
951.4386,403.9
951.5789,147.7
952.0328,344.6
952.4015,261.2
952.9438,435.8
954.4501,631.7
954.8574,506.9
955.4235,20.9
955.7436,94.7
955.8253,624.2
956.1283,107.6
956.8617,491.9
956.9711,109.3
957.0636,908.4
957.0897,91.3
957.748,597.1
958.0436,19.5
958.1638,784.1
958.258,485.4
959.6494,469.7
960.5824,442.4
960.6297,2162.2
960.76,517.5
960.8085,379.9
961.139,175.4
961.5891,161.1
961.7868,84.4
962.153,452
962.426,905.5
962.7283,107.9
962.853,793.3
963.4736,239.2
963.676,487.5
963.7514,87.3
963.8413,159.8
963.943,191.4
964.2876,21.7
964.4687,216.6
964.5019,713.9
965.1514,1286.8
965.2097,2218.2
965.3115,243.3
965.4941,1078.2
965.7861,631.1
966.2069,868.6
966.4048,1425.2
966.5116,131.9
966.7531,95.6
967.0178,1236.7
967.1611,865.4
967.558,644.5
968.2182,200
968.4392,100.6
968.5126,1909.9
968.5634,360.8
968.7164,797.4
968.7867,297
969.5952,93.8
969.6576,398.9
969.7109,760.3
969.8268,19.5
969.8975,182.8
969.9671,103.6
970.1982,1409.1
970.8633,108.2
970.901,133.9
971.0147,1155.6
971.5255,218.2
972.0611,826
972.158,257.5
973.0336,313.9
973.3113,729.5
973.3737,146.9
973.4832,24.2
973.6621,1202.9
973.717,688.1
974.0951,1336
974.2648,128.3
974.4251,410.5
974.4717,198.9
975.0223,201.5
975.3152,201
975.8301,632.9
975.8627,527.2
976.0893,101
976.2798,408.7
977.2297,806.9
977.2727,95.4
977.5189,20.3
977.7553,233.4
978.0428,702.7
978.0707,150.5
978.103,134.2
978.3765,391.5
978.5016,20.4
978.9233,254.2
979.4013,16.8
979.4969,147.7
980.1177,428.4
980.1617,277.7
980.2774,1149.4
980.5049,178.6
980.5884,79.7
980.718,314.7
980.8076,402.8
980.91,764.8
980.9369,121
981.5567,664.1
981.6094,655.2
981.6682,1170.2
981.7756,119.9
982.5845,1240
982.6234,1446.4
982.8122,116.8
983.0564,88.4
983.4309,563.4
983.4987,305.6
983.7059,992.3
983.8723,803.7
983.9469,468
984.3907,558.1
985.0906,1232.3
985.2741,956.4
985.8316,150.3
986.2592,276.4
986.4003,410.8
986.4957,761.7
986.6285,501.4
987.0922,190.8
987.32,179.3
987.4947,111.9
987.6573,21.2
988.0803,149.2
988.3244,917.4
988.474,134.5
989.2947,674.6
989.6199,1269.5
989.7059,312.5
990.175,1695.5
990.9845,500.9
991.0085,406.2
991.0462,743.4
991.3987,263.1
991.4911,1657.8
991.7066,779.7
992.2013,76.9
992.524,1209.5
993.2313,102
993.3118,335.6
993.4806,327
993.6468,101.9
993.6765,916.4
993.8749,94.5
993.9181,201.8
994.0251,295.5
994.1981,18.4
994.4988,410.6
994.7132,165.2
995.0346,767.5
995.4893,115.2
995.8923,19.4
996.2929,96.9
996.4255,23
996.6023,21.2
996.7426,932.7
996.8037,302
997.1085,751.4
997.1687,418
997.4926,1274.9
997.9604,20.4
998.094,121.5
998.1238,729.7
998.5629,151.5
999.9698,644.5
