SPECTRUM - MS,
1436.RAW,
FTMS + p ESI Full ms [50.00-1000.00],
Scan #: 1-40,
RT: 0.01-1.96,
AV: 40,
m/z,Intensity

50.0239,222.8
50.0283,525
50.0424,574
50.0806,561.2
50.0914,349.7
50.0954,275.5
50.0963,116.6
50.0987,350.1
50.1065,165.8
50.1196,309.8
50.1314,867.6
50.1595,66.6
50.1629,141.3
50.164,18.1
50.1993,119
50.2036,298
50.2104,114
50.2111,361.3
50.2116,656.5
50.2208,79.9
50.225,425.4
50.2458,499.9
50.2544,106.6
50.2611,269.2
50.265,168.7
50.2735,17
50.2744,17
50.276,65.5
50.2766,708.2
50.2791,529.5
50.2835,356.3
50.3051,148.3
50.3212,351.8
50.3548,88.2
50.364,808.6
50.3658,158
50.3829,388.6
50.3856,20.5
50.3866,127.5
50.3935,239.9
50.4025,97
50.4101,364.6
50.42,818.7
50.4305,308.2
50.4407,281.5
50.4476,17.1
50.4521,426.9
50.4676,127.9
50.4929,376.5
50.5006,78.6
50.5055,108.9
50.5156,84.6
50.5183,94.3
50.5194,487.7
50.5232,112.6
50.538,76.3
50.5546,648.1
50.5556,326.2
50.5561,896.6
50.5579,559
50.5714,719.1
50.5812,74.7
50.5848,17.4
50.5863,102.8
50.5945,152.6
50.5995,117.6
50.5996,121.6
50.6074,86.6
50.6159,95.1
50.6235,228.4
50.6244,396
50.6433,330.7
50.6571,640.4
50.6701,357.3
50.6715,292
50.6752,77.4
50.6857,598.5
50.7127,136.1
50.7162,379.9
50.7199,18.7
50.7209,380.6
50.7347,547.4
50.748,912.8
50.7514,321.3
50.7562,206.1
50.7717,243.5
50.7812,17
50.7863,99
50.7898,18.5
50.7919,338.8
50.7952,118.3
50.796,98.7
50.7997,157.5
50.8159,81.4
50.8408,67.8
50.843,17.1
50.8513,95.2
50.855,993.3
50.8671,134.2
50.8699,148
50.884,147.2
50.8933,171.9
50.8975,101.9
50.8993,138.2
50.9162,96.4
50.9268,73.3
50.9272,177.1
50.9283,371.6
50.9363,608.4
50.9494,627.4
50.9557,148.9
50.9602,737.5
50.9848,890.5
50.9996,84.3
51.002,381.9
51.0105,166.6
51.0118,845
51.016,89.5
51.03,66.9
51.0777,90.6
51.0815,228.3
51.0819,675.3
51.084,250.1
51.089,603.1
51.108,16.1
51.1198,289.5
51.1246,240.3
51.1276,928.2
51.1592,196.5
51.1691,17.5
51.1742,386.1
51.1747,191.3
51.1849,148.8
51.2049,173.8
51.2194,106.3
51.2344,107.5
51.2413,731.1
51.2578,597.2
51.2618,121.7
51.2665,315.1
51.2712,282.1
51.2842,18.2
51.2936,360.6
51.2998,136.5
51.3079,127.2
51.3124,172
51.3126,171.8
51.3381,313.5
51.3385,616.5
51.3387,267.1
51.3801,625.4
51.3976,275.3
51.4131,311
51.4147,81.5
51.4239,124.2
51.4275,570.4
51.4306,84.4
51.436,193.1
51.4483,420
51.4517,119.3
51.469,174.7
51.4719,585.4
51.4729,65.8
51.4759,64.4
51.48,104
51.4825,102.1
51.4874,109.8
51.489,126.4
51.4937,818.5
51.4961,124.3
51.5015,163.1
51.5248,18.7
51.5316,104.1
51.5434,312.2
51.552,161.5
51.5531,726.9
51.5822,225
51.5855,315.9
51.5905,185.8
51.5969,576.1
51.6068,123.2
51.6109,150.9
51.6214,188.2
51.63,253.2
51.6381,147.3
51.6443,582.3
51.6525,789.1
51.6622,187.7
51.6677,100.6
51.6709,124.8
51.6743,371.5
51.6862,581.6
51.6959,590.2
51.7229,153.5
51.7247,1278.5
51.7263,80.6
51.7359,423.3
51.7461,992.1
51.7563,14.9
51.7566,624.3
51.7648,21.4
51.7656,918.1
51.7697,18.8
51.7722,593.1
51.7823,126.9
51.7872,778.1
51.8123,227.9
51.8221,167.7
51.825,375.8
51.8324,527.6
51.8333,148.1
51.8449,711.4
51.8477,216.4
51.8705,146.2
51.8765,139.1
51.8852,764.2
51.8866,140.5
51.8924,651.7
51.896,145.9
51.9085,99
51.9167,650.4
51.9263,740.6
51.933,89
51.9511,16
51.9678,103.3
51.9781,629.6
51.986,568.2
51.9894,152.7
51.9943,955.9
52.0015,158.9
52.0041,16.8
52.0052,253.4
52.0221,95.2
52.0308,281.9
52.0407,72.3
52.0454,17.8
52.0466,547.7
52.0492,189.3
52.0526,73.4
52.0557,346.6
52.0569,656.5
52.0653,322
52.0682,389
52.0701,478.2
52.0765,104.7
52.0844,182.5
52.0884,15.3
52.0898,372.6
52.0928,236.1
52.1333,114
52.1545,221.1
52.1557,106.3
52.1563,78.5
52.1639,70.4
52.1648,252.8
52.1876,115.9
52.2307,310.2
52.2321,115.5
52.2394,253.4
52.2459,412.3
52.2521,728.9
52.2601,325.4
52.2768,630.6
52.2854,105.9
52.3063,249.5
52.3174,126.7
52.326,82.2
52.3311,218.8
52.336,235.1
52.3536,65.9
52.3562,154.8
52.3791,187.6
52.3815,223.8
52.3861,133.7
52.4138,17.1
52.4147,16
52.4258,18.9
52.446,18.8
52.4551,1030
52.492,90.6
52.5096,116.6
52.5375,392.1
52.539,194.7
52.5439,96.6
52.5442,18.3
52.5564,213.9
52.5606,598
52.5635,369.5
52.5678,87.2
52.5844,707.7
52.5847,228
52.5946,169.8
52.6031,658.5
52.6035,201.4
52.6071,400.9
52.6275,961.6
52.6298,399.5
52.6306,259.7
52.6378,892.1
52.6687,147.2
52.6753,15.5
52.6787,149.9
52.6884,86.8
52.7052,717
52.7059,80.5
52.7114,294.4
52.7285,771.8
52.7926,18.3
52.7952,792.1
52.7955,1949.4
52.7959,1609.4
52.7975,1015.9
52.798,1713.1
52.7988,1517.3
52.7993,174
52.7998,248.8
52.8,355.5
52.801,598
52.8012,497.6
52.8107,108.2
52.8164,189.4
52.8185,201.2
52.8487,1065.5
52.8521,621.1
52.8531,238.1
52.8605,63.1
52.8641,109.5
52.8657,585.2
52.8702,688.7
52.8762,321.4
52.8782,139.9
52.8846,64.5
52.9035,266.9
52.9121,267.7
52.9372,276.9
52.9399,393.6
52.9406,580.9
52.9499,234.7
52.9509,18
52.9579,730.2
52.96,341.4
52.9611,107.4
52.9616,334.1
52.9676,313.2
52.9922,18
53.0328,575.8
53.0556,605.7
53.0715,76.3
53.0831,346
53.13,399.1
53.1414,176.7
53.1632,636.7
53.1655,268.6
53.2001,639.1
53.2036,90.8
53.2349,582.4
53.2398,137.7
53.2459,886.2
53.2486,456.9
53.2788,579.3
53.3178,273.2
53.3354,156
53.3361,329.6
53.342,326
53.3842,108.2
53.3938,181.5
53.3957,99.5
53.3979,570.1
53.4082,154.2
53.4163,294.8
53.4494,157.2
53.46,151.1
53.4676,118.8
53.4785,116.3
53.4996,81.2
53.5031,301
53.5059,202.2
53.5141,598.4
53.5335,164
53.5402,728
53.5455,322.3
53.5479,129.5
53.5661,329.4
53.5717,201
53.5793,436.2
53.58,652.4
53.5846,74.2
53.5968,138.1
53.6116,797.9
53.63,22.3
53.6393,123.1
53.6416,145.1
53.6696,353.6
53.6787,671.9
53.6802,370.5
53.7156,406.5
53.7214,104.9
53.7292,792.7
53.7346,226.2
53.7406,429.7
53.7553,121
53.7609,372.3
53.7639,433.3
53.7673,566.1
53.7893,396.8
53.802,15.4
53.806,92.4
53.8096,204.8
53.8166,1137.7
53.8279,416.4
53.8372,325.3
53.8415,213.8
53.8488,19.7
53.8506,142.2
53.8588,68.2
53.871,130.7
53.8739,145.9
53.8755,128.6
53.8841,85.7
53.8944,701.1
53.9083,310.2
53.9175,144.6
53.9239,195.1
53.9258,82
53.9276,192.7
53.9353,673.7
53.9538,739.1
53.9647,155.7
53.9712,683.3
53.9807,101.4
53.9971,18.8
53.9987,167
54.0128,19.2
54.0137,70.6
54.0315,96.4
54.0421,115.5
54.0527,319.1
54.0538,668.9
54.0636,220.9
54.0715,99.4
54.0835,581.4
54.087,248.3
54.0928,199.4
54.1047,725.6
54.1064,414.6
54.1105,18.8
54.1136,106.8
54.116,140.5
54.1175,104.8
54.1223,73.1
54.1316,136
54.1574,297.1
54.1643,630.3
54.1733,607.8
54.1883,92.4
54.1888,17.7
54.2046,709
54.2169,18
54.2176,102.3
54.2215,115.7
54.2227,18.8
54.2403,106.3
54.2494,300.7
54.2775,111
54.2835,16.4
54.2873,604
54.291,612.1
54.2916,102.9
54.3122,206.7
54.3208,585.7
54.3252,439.5
54.334,186.2
54.344,146
54.3478,145
54.3551,18.5
54.3589,164.1
54.3721,150.2
54.3857,622
54.4219,364.3
54.4234,351.9
54.4573,255.3
54.4579,104.3
54.4597,409.7
54.4728,144.8
54.4844,16.4
54.5103,563.4
54.5124,169.3
54.5148,75.8
54.5158,713.6
54.5318,954.1
54.552,403.7
54.5634,87.1
54.5664,88.7
54.5792,114.3
54.5819,585.4
54.5859,126.4
54.586,124.1
54.6007,206.6
54.6083,208.1
54.6276,319.3
54.628,89.2
54.6392,591.7
54.6428,112.3
54.6537,193.1
54.6732,239.7
54.678,174.2
54.6854,274
54.6907,153.5
54.6921,676.8
54.696,97
54.6978,16.1
54.7021,90.4
54.713,164.2
54.7217,1311.4
54.7343,620.6
54.7365,16.8
54.7414,99.8
54.7438,145.6
54.7624,728.7
54.7754,70.2
54.7801,161.6
54.783,1027.3
54.785,128
54.7871,17.7
54.8001,109.5
54.8025,100.9
54.8862,623.6
54.8873,591
54.8912,69.7
54.8949,661.3
54.9051,903.4
54.9107,819.4
54.917,146.2
54.9204,65.3
54.9248,241.4
54.9362,524.4
54.9384,682.4
54.9392,67.1
54.9444,353.2
54.948,92.7
54.9509,519.5
54.954,344.8
54.9636,183.3
54.9749,105.8
54.9966,436.3
54.9986,71.8
55.0072,125.3
55.0151,660
55.0217,93.3
55.051,126.8
55.0518,121.2
55.0721,320.1
55.0778,90.3
55.0808,303.1
55.0889,159.8
55.0918,124
55.1083,438.7
55.1263,125.3
55.1462,103.9
55.1544,558.8
55.1584,201.9
55.1858,159
55.1885,923.2
55.1979,278
55.2028,16.5
55.2068,216.6
55.2077,98.6
55.2157,16.6
55.2277,76.2
55.2368,555
55.2513,90.5
55.2518,232.6
55.2651,205.4
55.2746,105.2
55.2781,574.2
55.2974,220.4
55.3448,138.5
55.3786,79.9
55.3821,16.2
55.3868,934
55.3969,114.2
55.4082,184.4
55.4148,368.4
55.4195,719.6
55.4276,139.8
55.4693,366.5
55.475,446.3
55.4813,167.3
55.5015,290.7
55.5176,344.9
55.5243,255
55.5276,225.5
55.5319,116.6
55.5365,107.9
55.5645,117.4
55.5724,564.3
55.5774,109.4
55.5832,65.8
55.6005,258.9
55.6044,549.9
55.6151,221.5
55.6214,140.1
55.6382,304.6
55.6452,255.1
55.6551,388.6
55.6603,399.5
55.6687,15.6
55.6755,398.2
55.7079,289.8
55.7108,139.4
55.7147,325
55.7242,351.4
55.7427,83.5
55.754,716.2
55.7585,78.7
55.7622,345.3
55.7647,83.8
55.7697,242.5
55.7988,209.8
55.8078,194.5
55.8185,102.9
55.8345,19.2
55.835,120.6
55.8705,91
55.8817,82.8
55.8922,98.1
55.8941,348.8
55.8958,142.7
55.8996,610.4
55.9012,193.2
55.9123,276.5
55.919,85.1
55.9404,16.6
55.9475,16.6
55.9486,140.7
55.9505,18.1
55.9673,123.1
55.9935,98.5
55.9949,17.2
56.0235,16.3
56.0346,251
56.0492,119.3
56.0622,385.7
56.0638,97.8
56.0678,246.1
56.0712,340.6
56.0762,119.5
56.0768,222.6
56.0817,395.5
56.0994,533.8
56.109,112
56.1189,535.2
56.1501,84.9
56.1525,712.5
56.1616,115.1
56.1764,355.2
56.1892,358.2
56.1902,366.6
56.1951,609.5
56.1996,158.6
56.2124,208.2
56.2247,531
56.2352,65.3
56.237,674.9
56.2378,290.2
56.2391,83.4
56.2739,319.8
56.2794,605.4
56.2869,169.8
56.3034,145.7
56.3182,131.2
56.337,607.9
56.3648,196.8
56.3674,317.3
56.3757,393.5
56.3826,494.5
56.3908,576.8
56.3922,665.5
56.3976,208.7
56.4022,860.3
56.4094,696
56.4307,98.7
56.4406,106
56.4522,936
56.4597,313.3
56.4652,563.9
56.4743,290.5
56.4782,626
56.4954,685.5
56.504,67.5
56.5206,333.7
56.5727,158.4
56.5932,335.5
56.5937,168.3
56.5944,364.4
56.5971,367.7
56.611,719.5
56.6294,231.6
56.6336,357.7
56.6588,870.8
56.6658,92.2
56.6867,355.9
56.7039,466.3
56.7093,191.1
56.7347,397.8
56.7415,312.9
56.7439,299.2
56.7494,96.1
56.7649,99.3
56.7675,202.1
56.775,335.8
56.7819,19.5
56.7951,812.1
56.8004,327.8
56.8125,111.3
56.8171,831.8
56.8363,155.4
56.8443,19.5
56.853,950
56.8585,91.2
56.8601,620.9
56.8647,103.8
56.9041,348.8
56.9092,182.1
56.9099,187.6
56.914,115.3
56.9262,121.4
56.9378,210.4
56.9551,802.5
56.9568,192.2
56.9728,247.8
56.9898,305.9
57.0028,19.6
57.0108,623
57.0332,128.2
57.0361,14.4
57.043,181.8
57.0461,75.5
57.0576,16.7
57.0723,131.2
57.0772,140.1
57.1067,422.3
57.1111,76
57.1123,18
57.1137,76.8
57.1267,399.1
57.1329,721.3
57.1416,687.7
57.1441,693
57.165,79.3
57.1691,897.6
57.1788,821.4
57.1865,444.8
57.1981,110.8
57.2017,124.3
57.2086,325.4
57.2219,107.4
57.2248,98.3
57.228,76.8
57.2319,852.3
57.2399,96.7
57.2436,703.4
57.2568,17.8
57.2684,17.1
57.2988,99.5
57.3284,287.5
57.3291,182.7
57.3295,343.6
57.3634,608.9
57.3664,151.2
57.3718,834.2
57.3956,157.1
57.4062,96.8
57.4085,123.5
57.4092,17.1
57.4259,331.3
57.4282,692.2
57.4319,126.3
57.4341,408.4
57.4419,793.5
57.4473,156
57.4495,269.8
57.4555,601
57.4779,17.9
57.5096,733.4
57.5337,257.9
57.5507,17
57.554,17.3
57.5567,147.2
57.5596,140.3
57.5839,171.3
57.6017,403.1
57.6292,581.2
57.6318,661.4
57.645,968.7
57.6459,961.8
57.6481,304.4
57.6506,161.8
57.6571,82.2
57.6615,654.1
57.6704,362
57.6896,452.2
57.7024,73.3
57.7053,926.8
57.729,193.4
57.7406,122.9
57.744,161.3
57.7527,357.3
57.7564,325
57.7667,16
57.7746,17
57.7812,111
57.7815,126.1
57.7819,480
57.798,168.5
57.7999,469.2
57.8101,756.2
57.8179,78.2
57.82,141.5
57.8356,233.1
57.8565,246.4
57.871,115.4
57.8893,172.1
57.8967,362.5
57.9061,575.6
57.9156,91.4
57.9571,123.3
57.9636,344.4
57.989,735.9
58.0047,351.9
58.0068,17
58.0203,132.7
58.0256,179.6
58.0434,564.3
58.0457,80
58.0631,312.8
58.0736,285.1
58.0977,203.6
58.1113,339.5
58.1153,106.9
58.1159,488
58.1216,785.1
58.1416,427
58.145,142.3
58.1484,553.9
58.1494,137.1
58.161,568.4
58.1681,126.4
58.1775,64.3
58.1941,82.5
58.2016,82.1
58.204,581.2
58.2185,212.6
58.2256,248.1
58.228,341.3
58.2323,747
58.2392,19
58.2481,101.2
58.2558,341
58.2868,211
58.3052,90.2
58.3125,102.3
58.3156,104.1
58.3266,190.1
58.3303,210.7
58.334,153.8
58.338,132.5
58.3528,208.5
58.3566,107.4
58.3624,133.8
58.3653,16.9
58.3657,842.8
58.3957,547
58.4121,167.6
58.4219,120
58.4328,608.8
58.4447,407.6
58.4772,185.1
58.4853,130.9
58.4876,300.1
58.526,359.6
58.5383,160.4
58.5493,107.5
58.5563,606.7
58.5577,128.5
58.5584,96.3
58.5628,155.2
58.5916,104
58.6107,88.6
58.6194,313
58.6217,598.7
58.6225,229.9
58.6231,129.3
58.6503,753.8
58.66,613.1
58.6656,17.7
58.6743,253.9
58.6883,150.5
58.6896,153.8
58.7271,214
58.7409,912.3
58.7448,130.9
58.7694,224.4
58.7752,89.7
58.7852,328.3
58.7892,85.2
58.7938,153.8
58.8093,614.3
58.8231,599.1
58.8248,142.2
58.8376,328.2
58.842,122
58.8468,566.2
58.855,153.4
58.8929,367.1
58.9014,466.5
58.9143,356
58.9147,215.1
58.9305,186.4
58.9455,77.6
58.9629,637.3
58.9695,282.8
58.9704,229.1
58.9792,617.9
58.9998,247.2
59.0027,205.8
59.0384,71.6
59.042,108.2
59.0501,70.6
59.0503,213.9
59.0504,198.7
59.0529,734
59.0535,740.6
59.057,681.4
59.0648,596.8
59.0725,726.6
59.0824,231.3
59.0855,640
59.0866,94.2
59.0896,180
59.1044,555.1
59.1197,93.1
59.123,230.8
59.1247,681
59.1298,147.8
59.1567,241.8
59.1691,122.2
59.1726,80.2
59.1826,318.6
59.1928,155.1
59.1971,209.8
59.2063,261.2
59.2068,19.9
59.214,76.6
59.2224,18
59.2304,187.7
59.242,128.6
59.2835,290.7
59.303,340.1
59.3089,187.3
59.3159,535.9
59.3232,169.1
59.3253,241.1
59.3273,936
59.3379,132.4
59.3437,185.4
59.3446,898.1
59.3457,567.1
59.3459,532.4
59.3578,183.6
59.3608,20.2
59.3735,153.3
59.3843,229.1
59.3866,80.2
59.3871,155.1
59.3889,413.4
59.3907,134.1
59.4016,174.4
59.4091,643.4
59.4231,99.1
59.4363,138.7
59.441,914.8
59.4497,428
59.4636,668.7
59.4757,147.6
59.4831,20.6
59.4873,527.6
59.4943,261.3
59.5021,662.4
59.5075,88.9
59.5198,18.1
59.5252,125.3
59.5362,156.3
59.5404,177.3
59.5547,129.7
59.5634,120.3
59.5668,752.4
59.572,115.6
59.5735,851.7
59.5958,171.1
59.597,573.3
59.6015,17.4
59.603,817.2
59.6289,130.9
59.6461,204
59.6627,95
59.676,16.8
59.6787,168.7
59.6796,379.3
59.705,172.2
59.7223,145
59.7328,143.9
59.7408,572.8
59.7639,117.2
59.7653,20.7
59.7719,124.8
59.7778,627
59.7793,113.5
59.7816,184.8
59.8041,131.1
59.8501,142.8
59.8528,318.9
59.8542,191.1
59.868,109.9
59.87,340.2
59.8842,15.6
59.8945,99.8
59.8973,16.4
59.9222,123.1
59.9242,540.6
59.9268,877.2
59.9369,380
59.9415,397.7
59.9685,418.9
59.9789,298.1
60.0049,22.5
60.0287,776
60.0371,160.1
60.0438,243.4
60.0849,859.8
60.0859,109.3
60.095,97.8
60.1126,409.1
60.1141,148.1
60.118,404.5
60.1206,175.2
60.148,181.2
60.1606,215.4
60.1681,839.6
60.1772,362.2
60.1816,186.7
60.2172,91.7
60.2401,357
60.2406,334.3
60.2455,483
60.2623,110.1
60.272,548.2
60.2793,91.9
60.2835,679.4
60.2842,750.5
60.2866,15.2
60.3031,180.4
60.3233,796.3
60.3353,261.1
60.3561,16.8
60.3577,274.4
60.3726,729.7
60.3748,580.8
60.3887,640.4
60.3898,107.5
60.3911,103.2
60.4109,111.5
60.4173,88.1
60.4204,172.3
60.423,238
60.4265,90.1
60.4363,16.5
60.468,106.7
60.4707,94.1
60.4747,397.7
60.4967,134.7
60.4984,72
60.5112,108
60.5137,64.3
60.5269,245.7
60.5374,377.7
60.5448,271.7
60.5628,808.9
60.5884,206.4
60.5891,180.5
60.5968,127.1
60.6162,77.2
60.64,1033.4
60.6443,688.6
60.6603,99.2
60.6708,113.9
60.6823,262.1
60.6865,180.9
60.6888,137.2
60.6918,195.2
60.6951,885.7
60.6964,494.9
60.7035,86
60.7087,93.3
60.7206,66.8
60.7305,121.1
60.7363,157.4
60.7709,311.5
60.7833,16.8
60.7888,634.2
60.7946,219.3
60.7973,107.4
60.8276,374.7
60.8361,105.8
60.8377,167.3
60.8519,202.5
60.8611,391.3
60.8888,125.4
60.8927,713.8
60.908,924.3
60.9168,749.6
60.9383,135.1
60.942,76
60.9561,341.5
60.9607,254.7
60.978,343
60.979,325
60.9846,106.2
60.9984,658.2
61.0143,628.1
61.0213,193.4
61.0495,70.3
61.0674,341.6
61.0681,17.6
61.0712,369.2
61.0761,401.8
61.0814,244.2
61.0935,21.9
61.1101,172
61.1147,901.2
61.1262,16.5
61.1455,319
61.1569,654.9
61.1592,983.8
61.1597,243.8
61.2013,603.3
61.2242,105.3
61.2352,29.7
61.2402,138.4
61.2522,293.5
61.2599,110.4
61.2669,687.7
61.2704,280.8
61.2861,396.3
61.2926,139.9
61.3091,643.9
61.3302,745.4
61.3725,623.7
61.3795,17
61.3983,143.7
61.4237,597.5
61.4325,161.5
61.4344,909.3
61.4391,938.7
61.4415,161.5
61.4995,622.3
61.5015,654.5
61.5062,101
61.5158,373.9
61.516,434.7
61.5247,511.9
61.5332,113.9
61.5467,16.3
61.5493,286
61.5538,216.7
61.5719,252.4
61.5752,875.5
61.5978,112.4
61.6088,108.8
61.611,117.8
61.6261,154.3
61.6274,604.2
61.6346,649.3
61.6447,91.7
61.6499,94.6
61.6527,644.2
61.6637,390.7
61.6687,18.3
61.6694,473
61.6702,730.9
61.7025,116.8
61.7135,114.4
61.7187,17.1
61.7196,214.2
61.7273,132.3
61.7932,341.1
61.7983,117.7
61.8255,728.2
61.8333,154.3
61.8421,71.9
61.8532,183.2
61.8557,106.3
61.862,246.8
61.8648,750.4
61.9081,108.9
61.9138,796
61.9272,247.7
61.9363,293.5
61.9691,85.1
61.9754,1024.1
61.9813,590.3
61.9878,122.2
61.9899,148.8
61.995,670.7
62.0061,142.7
62.0542,16.3
62.0739,184.4
62.079,16.7
62.0817,130.2
62.0848,98.6
62.1015,204.4
62.1017,114
62.1092,307.2
62.1302,420.8
62.1306,256.7
62.1313,232.1
62.1507,71.1
62.1557,400.6
62.157,155
62.1726,133.1
62.1804,18.9
62.1858,122.2
62.1966,16.9
62.2167,259.9
62.2218,603.5
62.2261,163.6
62.2409,135.5
62.2414,16.9
62.2637,252.9
62.2658,129.9
62.2751,786
62.2809,432.2
62.2902,384.3
62.3031,204.3
62.3509,18.4
62.3779,234.6
62.3879,136
62.4002,103.2
62.4063,241.7
62.4096,99.8
62.4169,637.2
62.425,173.3
62.4457,260.1
62.4499,20
62.4522,130.5
62.4929,952.8
62.5137,19.8
62.52,168.3
62.5219,322.8
62.5342,144.3
62.5375,937.2
62.538,104.2
62.5386,114.9
62.5414,450.3
62.5444,626
62.5554,400.9
62.5649,630.4
62.5718,350.3
62.574,276.6
62.5753,128.6
62.5833,94.4
62.5899,647.3
62.5922,148.7
62.5985,215.8
62.6003,160
62.6011,123.7
62.6075,147
62.6141,269.7
62.6305,650.3
62.641,236.4
62.6485,19.1
62.6915,107.2
62.6977,365.5
62.7203,172.2
62.735,214.5
62.7491,157.8
62.7503,238.6
62.7649,107.1
62.7654,78.3
62.7707,97.2
62.7726,346.6
62.7803,415.8
62.7853,303.9
62.7909,1141
62.7919,740.2
62.8156,18.1
62.825,96.6
62.8263,945.7
62.8368,126.7
62.8379,106.5
62.8417,130
62.9043,150.4
62.9181,149.2
62.9251,539.8
62.9298,523.9
62.9338,120.5
62.9414,160.8
62.9516,125.9
62.9623,111.4
63.01,864.2
63.0147,292.2
63.0152,100.8
63.016,697.2
63.0178,344.1
63.023,954.9
63.0237,256.8
63.0311,233.3
63.0398,372.2
63.0419,153.8
63.0551,19.8
63.0587,327.7
63.0615,111.8
63.0666,112.3
63.1005,17.3
63.1089,246.6
63.1232,270.1
63.1241,106
63.1294,642.8
63.1408,276
63.1515,637.3
63.1525,132.2
63.1608,371.2
63.1622,931.1
63.1673,74.7
63.1968,161.6
63.1987,934.1
63.2014,139.1
63.2066,353.5
63.219,326.6
63.2338,139.4
63.2419,167.9
63.2629,1161.1
63.2699,646.5
63.2869,649.6
63.291,133.3
63.2998,712.7
63.3178,238.8
63.3291,111
63.3318,111
63.3344,1114.3
63.3502,401
63.3507,156.7
63.3583,877.5
63.3595,935.2
63.3719,116.4
63.3765,613.6
63.4105,631.2
63.4123,109.9
63.4534,85.2
63.4555,361.9
63.4602,130
63.4998,114.1
63.5005,170.8
63.5148,140.5
63.537,100.6
63.5501,656.2
63.5711,447.3
63.6051,1009
63.6191,253.7
63.6353,338.2
63.6398,155.9
63.6523,211.4
63.6569,1222.4
63.6592,662
63.7016,258.4
63.7253,177.9
63.7479,19.3
63.8079,508.9
63.8141,141.9
63.8161,624
63.819,296.8
63.8232,146
63.825,178.1
63.8311,18.2
63.8352,125.1
63.8494,414.7
63.8508,251.8
63.8512,128.1
63.8627,247.8
63.8881,546.5
63.8919,543.5
63.9106,156.9
63.9182,96.8
63.9297,818.7
63.9328,126.2
63.9618,79.9
63.9692,997.7
63.992,130.3
63.9949,17.5
64.0189,860.3
64.0289,500.3
64.0814,75.7
64.1068,768.4
64.1251,84.6
64.1326,126.5
64.1509,102
64.1522,74.9
64.1829,409.1
64.1839,299.7
64.2027,612.2
64.2336,112.4
64.238,210
64.245,180.8
64.2484,621.5
64.2559,115.6
64.2638,261.9
64.2705,163.7
64.2766,17
64.2772,999.2
64.2894,465.4
64.3027,644.5
64.3107,120.1
64.3154,16.6
64.3485,136.7
64.3505,98.3
64.365,100
64.3748,1114.4
64.3756,171.8
64.381,190.4
64.3815,676.2
64.3821,150.6
64.3867,18
64.4076,19.3
64.4105,385.4
64.4185,232.4
64.4205,256.3
64.4282,126.5
64.44,121.7
64.4442,113.6
64.4481,492.6
64.4746,445.3
64.4787,120.2
64.4824,828.5
64.4827,924.6
64.4965,106.4
64.521,123.7
64.5363,87.1
64.5499,252.6
64.5619,375.6
64.6273,84
64.64,200.6
64.6483,296.6
64.6612,697.4
64.6994,111
64.7039,172.6
64.7052,313.7
64.7075,634.9
64.7156,902.2
64.7297,148.6
64.7319,133.7
64.7354,192.9
64.7386,780.6
64.7552,17.6
64.7615,562
64.775,542.6
64.7964,272.1
64.8165,16.8
64.8254,231.2
64.8446,490.1
64.8447,590.5
64.8449,314.8
64.8474,20.5
64.8806,561.9
64.8815,672
64.8823,254.4
64.8864,119.2
64.8926,117.1
64.8973,258.9
64.9007,120.3
64.9261,92.2
64.9327,226.2
64.9386,92
64.95,18.6
64.9856,277
64.9896,15.1
65.0015,759.1
65.0056,332.3
65.0296,185.2
65.0368,563.1
65.0459,584.9
65.0514,217.9
65.0603,589.4
65.0629,846.6
65.1037,145.1
65.107,176
65.1087,143.1
65.1157,199.6
65.1224,660.8
65.1261,99.5
65.1298,151.4
65.1649,931.6
65.1651,964.4
65.1652,674.2
65.1713,471.2
65.1805,148.7
65.1904,708.6
65.2023,157.3
65.2206,679.5
65.2364,151.7
65.2568,273.8
65.2888,273
65.2963,758.8
65.299,779
65.3303,702.7
65.3334,230.1
65.3401,378.1
65.3586,975.9
65.3661,323
65.3681,116.5
65.3737,139.8
65.3854,698.2
65.4337,17.9
65.4356,485.6
65.4555,929.2
65.4633,97.1
65.4801,460.6
65.4811,15.1
65.4977,92.9
65.5094,755.6
65.5352,674
65.5405,336.1
65.5503,805.8
65.5562,1020.4
65.5635,641.8
65.5817,106.2
65.5967,119.8
65.6193,309.5
65.6361,126.6
65.6548,211.5
65.6587,654.1
65.6756,146.3
65.6841,671
65.6911,129.4
65.7002,662.5
65.714,132.5
65.7158,111.4
65.7178,432.2
65.7283,110.7
65.74,142.3
65.7424,152.9
65.7451,148.2
65.7512,156.9
65.7725,303.7
65.813,806.6
65.8158,265.8
65.8195,786.1
65.8224,155
65.8279,409.8
65.8522,522
65.8603,276.7
65.8621,372.4
65.8656,127.2
65.8819,205.9
65.8914,80.5
65.9007,17
65.9074,260.7
65.9186,544.7
65.9394,190.4
65.9438,331.1
65.9479,496.2
65.9648,646.9
65.9657,113.5
65.9811,257.2
65.9895,336.4
65.9987,468.2
66.02,714.7
66.0418,16.1
66.0818,684.3
66.0851,17.3
66.0869,757.9
66.0879,193.9
66.0906,93.3
66.0984,645.1
66.1167,337.4
66.1179,530.3
66.1201,207.7
66.1887,449.5
66.1997,219.4
66.2015,104.7
66.2087,697.3
66.2147,668.5
66.2223,607.7
66.2308,306.8
66.2379,149.9
66.2557,753
66.2671,298
66.2697,675.7
66.2812,17.5
66.3017,114.6
66.3184,369.1
66.3199,138.9
66.3341,86.6
66.3349,134.1
66.3394,18.8
66.3638,530.2
66.3647,342.8
66.3706,19
66.3803,132.7
66.3822,215.7
66.3875,280.2
66.4025,186.2
66.4279,756.4
66.4308,681.4
66.4707,330
66.4739,941.9
66.4805,150.6
66.4836,668.9
66.4872,866.3
66.4989,121.1
66.5138,131.1
66.5502,288.7
66.553,925.9
66.5532,917.4
66.5534,220.1
66.5648,182.2
66.5699,106
66.5811,261.5
66.6021,106.3
66.6235,130.7
66.6416,167.3
66.6719,209.2
66.6864,555.2
66.7021,690.3
66.7038,182.1
66.7085,16.6
66.7113,309
66.7125,346.7
66.7164,358.5
66.7205,155.6
66.7227,373.4
66.7249,16.3
66.7288,315.2
66.7449,149
66.7542,901.3
66.7711,1075.6
66.7925,797.7
66.8058,377
66.8113,134.3
66.8262,102.8
66.844,232.3
66.8989,188.7
66.9028,232.3
66.9147,153.7
66.9255,641.4
66.9346,204.1
66.9509,835
66.958,116.4
66.9656,251.1
66.9865,20.6
66.9888,615.9
66.9896,203.3
66.9977,801.3
67.0002,161.7
67.0249,247.4
67.054,28.7
67.057,16.1
67.0714,173.4
67.0736,257.8
67.0815,201.6
67.0855,226.9
67.0888,509.9
67.1113,743.3
67.1159,117.5
67.1166,602.6
67.131,18.7
67.1386,18.6
67.1662,145
67.1678,17.7
67.1696,238
67.1742,368.2
67.1792,392.3
67.1904,122.1
67.2076,177.4
67.2218,157.9
67.2263,535.4
67.2563,422.2
67.2665,124.6
67.2673,814.4
67.2742,370.7
67.282,607
67.2833,357.2
67.2863,21.2
67.3083,381.2
67.314,110.2
67.3248,109.8
67.3414,18.4
67.3493,627.7
67.3501,126.5
67.3507,644.7
67.3593,106.2
67.3699,668
67.3702,640.4
67.4069,17.7
67.4212,184.2
67.4686,174.9
67.4764,297.2
67.478,342
67.4979,17.1
67.499,401
67.5138,704.8
67.5154,126.7
67.5186,100.1
67.5211,858.6
67.5235,170.1
67.5598,207.1
67.5617,99.9
67.576,247.5
67.577,361.7
67.5951,852.9
67.6176,20.1
67.62,959.6
67.6387,226.7
67.667,18.8
67.6742,329.3
67.6754,817.6
67.6766,764.2
67.6919,79
67.6985,751
67.7147,99.1
67.7352,113.5
67.759,340.5
67.7638,95.8
67.7905,661
67.795,695.3
67.8152,99.1
67.8199,210.4
67.8219,278.1
67.8264,274
67.8342,113.3
67.8695,321.1
67.8733,22.6
67.8854,249.9
67.8876,794.6
67.9028,16
67.9231,725.3
67.924,19.6
67.9305,396
67.9361,93.8
67.9598,249.7
67.9664,716.8
67.9732,20.8
68.0614,280.3
68.0821,19.1
68.0868,175.3
68.097,393
68.0988,1051.1
68.116,102.6
68.1199,108.2
68.1411,281.3
68.1557,184.8
68.208,197.6
68.2211,349.2
68.2365,17.3
68.2782,113.1
68.3224,135.4
68.3233,98.5
68.3296,416.1
68.3354,341
68.3869,251
68.4033,153.2
68.4557,119.9
68.4686,268.5
68.4726,387.8
68.5066,15.3
68.5115,341.1
68.5249,108.3
68.5393,606.8
68.5559,526.5
68.5939,607.9
68.5997,153.7
68.6084,16.4
68.6434,292.1
68.6488,198.7
68.6667,137.5
68.6865,867.8
68.6884,648
68.6891,348.9
68.7022,599
68.7208,123.4
68.7256,136.5
68.7392,78.5
68.7452,133.4
68.7487,770
68.7519,107.1
68.7626,826.7
68.7659,167.5
68.7783,134.7
68.7793,196.6
68.7953,77
68.8054,17.5
68.8129,18.9
68.8202,140.5
68.8338,100.3
68.8446,162.6
68.8762,830.9
68.9029,86
68.9178,139.4
68.9546,382.9
68.965,69.9
68.9686,503.7
68.9825,756.9
68.9869,756.6
68.998,651.3
69.0085,336.7
69.0094,319
69.0121,157.8
69.0157,595
69.0248,440.6
69.0407,141.6
69.0465,210.9
69.0491,622.5
69.0541,108
69.0641,19.6
69.0713,148.3
69.0805,156.5
69.0835,408.1
69.1157,146.1
69.1274,464.2
69.1317,366.2
69.1375,367.7
69.1605,368.5
69.1966,93.9
69.1996,16.1
69.2114,1025.7
69.2149,133
69.2253,925.1
69.2266,20
69.2601,187.8
69.2644,651.1
69.2839,19
69.2955,220.7
69.3108,129.7
69.3299,102.2
69.3725,99.4
69.4196,181.1
69.4282,119.1
69.4319,199
69.4655,257.9
69.5114,98.6
69.5275,869.9
69.5349,211.4
69.5417,335.8
69.544,116
69.5508,678.5
69.5533,106.2
69.5568,168.1
69.5615,201.6
69.5774,665.6
69.5893,284.5
69.5962,358.2
69.599,138.2
69.6302,107.3
69.6318,682.1
69.6454,588.1
69.6493,186.4
69.6559,414
69.6635,361.8
69.6774,93.7
69.7186,308.1
69.7336,239.1
69.7536,704.8
69.7622,130.9
69.7703,522.3
69.7714,274.1
69.7858,270.9
69.7869,708.2
69.7988,367.3
69.8244,159.5
69.8386,95.6
69.844,88.2
69.8443,135.6
69.8446,180.4
69.8562,227.2
69.909,83.2
69.9136,100.5
69.9286,397.4
69.942,713.4
69.9466,930
69.9483,157.1
69.9585,126.6
69.9642,414.6
69.9668,270.3
69.9685,107
69.9825,483.1
69.9954,158.7
70.0209,255.2
70.0241,95.4
70.0322,421.6
70.0389,16.3
70.0486,18.8
70.0584,16.3
70.059,70
70.0649,641.5
70.0678,16.8
70.069,17.3
70.0764,196.6
70.0856,16
70.0944,593
70.1028,98.8
70.1039,374.8
70.1105,74.9
70.127,242.5
70.1302,306.5
70.1599,19.5
70.1646,153
70.1904,133
70.1935,298.2
70.2077,173.3
70.2084,278.5
70.2541,87.8
70.2606,323.1
70.2613,370.7
70.264,911.1
70.266,144.1
70.2885,219.1
70.2905,461.5
70.2958,385.7
70.3184,1040.5
70.3376,76.9
70.3431,193.5
70.3541,85.7
70.358,164.9
70.3651,306.1
70.3801,669.8
70.3846,545
70.3967,958.3
70.4188,399.9
70.4202,251.6
70.4386,172.5
70.4786,234.4
70.479,756.7
70.4831,571.4
70.4893,137.2
70.4982,176.1
70.5501,383.4
70.5601,89.8
70.5677,18.5
70.5821,394.9
70.5886,317.4
70.5955,742.1
70.6154,425.9
70.6163,1660.3
70.6271,112.5
70.6329,347
70.6363,356.5
70.6453,337.3
70.6736,842.8
70.6791,243.2
70.6988,105.1
70.7123,96.3
70.7167,647.8
70.7184,107.5
70.7214,253.1
70.7389,135.6
70.7579,1009.7
70.774,118.2
70.7868,181.1
70.812,152.2
70.8542,221.8
70.8587,323.4
70.8667,62.9
70.8691,98.1
70.8941,146.3
70.8951,70
70.9612,107
70.9772,97
70.9856,385.1
70.9944,148.3
71.0196,616.5
71.0263,17.5
71.0282,126.1
71.0362,732
71.0875,614.2
71.1008,748.8
71.1045,584.2
71.1258,108.6
71.1369,99.3
71.1471,140.9
71.1604,77.6
71.1825,186.5
71.214,19.8
71.2268,405.1
71.2302,16.4
71.237,118.7
71.2661,369.1
71.2785,379.8
71.3019,361.4
71.3261,296.3
71.3324,16.9
71.3838,203.1
71.4023,556.6
71.409,19.5
71.4617,183.4
71.4661,285.7
71.4679,18.2
71.4685,16.7
71.4779,88.5
71.5145,695.1
71.5289,795.8
71.5321,699.5
71.578,139.4
71.5999,323.7
71.602,635.4
71.6033,424.8
71.6231,431.1
71.6376,252.3
71.6696,101
71.687,117.6
71.6909,168.9
71.6982,233.7
71.7123,291.4
71.718,108.8
71.7369,143.5
71.7719,902.6
71.8261,143.6
71.8269,148.1
71.8594,671.4
71.8934,111.2
71.8979,95.3
71.9074,87.1
71.9229,900
71.9583,445.4
71.9602,336.6
71.9678,256
71.9754,1133.5
71.982,126.4
72.0073,799.4
72.0099,19.2
72.019,80
72.0213,709.8
72.0491,82.2
72.0806,486.1
72.1029,253.4
72.1457,148.8
72.1545,144.9
72.1843,182.9
72.1881,232.8
72.1914,900.8
72.1934,363.5
72.2019,532.1
72.2054,98.4
72.2067,914.1
72.208,707
72.2097,1183.7
72.2106,549.3
72.2121,1615.6
72.2134,1799.4
72.2143,657.2
72.2149,852.7
72.2157,2243.9
72.2165,920.9
72.217,1513.1
72.2178,1756.7
72.2184,1823.5
72.2193,2760.9
72.2201,3633.3
72.2206,4090.4
72.2214,4801
72.2224,3014.7
72.2236,4951.6
72.2242,3201.2
72.2252,3089.3
72.2257,1504.4
72.2265,3750.2
72.2272,3786.4
72.228,4208.6
72.2285,2624.8
72.2296,1120.4
72.2309,2077.3
72.2314,1235.2
72.232,683.6
72.2328,1023.1
72.2337,141.1
72.2345,123.3
72.236,390.2
72.2365,890.2
72.2376,106.4
72.2387,92.1
72.2392,97.7
72.2402,253.9
72.2409,152.4
72.2413,161.4
72.2548,130.3
72.2684,93.8
72.2694,345.9
72.3111,1075.1
72.3207,353.4
72.3214,176.7
72.3258,94.5
72.33,80.7
72.3364,695.9
72.3567,114.1
72.3643,98.3
72.3649,114.3
72.3748,370.5
72.3949,209.7
72.425,192.7
72.4378,639.4
72.4669,919.7
72.4672,1170.7
72.4804,18
72.488,584.9
72.4885,151.4
72.4947,16.4
72.4999,755.1
72.5031,522.1
72.5287,123.3
72.5367,230.8
72.5412,261.2
72.552,19.3
72.5646,108.1
72.5812,111.5
72.5903,249.9
72.6164,518.3
72.6278,306.1
72.6384,72.7
72.646,108.1
72.6559,116.5
72.6574,440.9
72.6616,115.1
72.6634,482.7
72.6688,346.9
72.7181,159.8
72.7213,711.2
72.7221,907.2
72.7387,273.1
72.7471,108.3
72.752,248.5
72.7747,572
72.7843,118.6
72.8027,544.1
72.8345,775
72.8455,16.8
72.8487,16
72.851,623.7
72.8645,299.5
72.872,169.8
72.8765,344
72.8844,18.9
72.8961,118.1
72.9039,243.5
72.913,107.1
72.9266,253.7
72.937,32.1
72.951,751.9
72.964,271
72.9756,122.9
72.9771,470.8
72.9824,773.8
72.9866,18.6
73.0103,129.1
73.0374,314
73.0431,199
73.0487,238.7
73.1178,91.2
73.1453,16.3
73.1711,21.4
73.1832,292.5
73.1905,704.8
73.1915,161
73.1957,18.2
73.2055,197.5
73.2622,416.9
73.2707,249.7
73.2887,631.1
73.3007,375.8
73.3162,18.6
73.3177,329.3
73.3251,429
73.3266,279.3
73.3346,142.8
73.3353,495.4
73.3385,530.4
73.3537,445.5
73.3616,208.6
73.3788,112.1
73.3909,262.8
73.4071,19.8
73.4154,634.1
73.4537,127
73.4571,16.5
73.4611,118.2
73.471,117.8
73.4787,105.5
73.4923,135.2
73.4998,633.9
73.5123,171.8
73.5134,265.8
73.5185,718
73.5232,17.9
73.5374,16.8
73.5528,225.1
73.554,700.9
73.5963,229.7
73.6125,116.1
73.6562,335.1
73.6629,109.7
73.6907,813.8
73.6978,180.5
73.6985,913.3
73.7052,351
73.7359,751.7
73.7669,320.4
73.7776,665
73.7982,460
73.8105,618.4
73.8143,17.7
73.8152,156
73.8389,493.6
73.8446,961.7
73.8482,16.8
73.8567,202
73.8854,19.9
73.8896,299.8
73.8959,380.6
73.9722,14.9
73.9795,729.9
73.9985,403.8
74.0076,281
74.0087,571.6
74.022,18.1
74.0445,1075.1
74.0599,4156.1
74.1025,85.4
74.1325,19.5
74.1424,350.8
74.1577,154.4
74.1589,373.3
74.1635,121.5
74.1667,17.1
74.1817,740.8
74.1906,372.8
74.2042,139.8
74.2217,193.7
74.2338,248.4
74.2368,354
74.257,107.8
74.2628,18.4
74.3039,18.6
74.3056,199.5
74.3311,84
74.3362,102.9
74.3462,139.8
74.3523,159.9
74.3539,155.8
74.3576,133.5
74.3606,114.3
74.3623,420.8
74.3754,754.8
74.3792,654.2
74.3823,692
74.4178,605.4
74.4259,769.4
74.4266,121
74.4359,214.9
74.4368,92
74.4463,104.2
74.4489,142.1
74.4518,85.4
74.4548,618.9
74.4681,20.6
74.512,286.7
74.5524,927.1
74.5538,150.8
74.5564,655.1
74.5602,17
74.562,692.3
74.5912,18.2
74.6111,293
74.6466,90.1
74.6672,640.8
74.6833,142.5
74.688,456
74.6899,18.2
74.7181,192.8
74.7216,130
74.7272,135.8
74.7432,82
74.7605,99.7
74.7654,613.6
74.7895,582.4
74.8036,110.9
74.8138,202.5
74.819,444.5
74.8304,703.5
74.846,790.9
74.8549,705.2
74.858,105.5
74.8595,261.1
74.873,265.8
74.8805,126.9
74.8886,77.8
74.8892,726.2
74.8997,16.4
74.9063,361.5
74.912,486.3
74.933,17.3
74.9501,17.1
74.971,622.9
75.001,286.4
75.0256,417.6
75.0337,122.5
75.0551,135.1
75.0687,131.1
75.0892,1117
75.0915,111.2
75.1001,395.8
75.1132,858.7
75.1165,169.2
75.1246,367.6
75.1252,362.5
75.1258,15.9
75.1336,353.6
75.1487,101.4
75.1545,244.8
75.1754,631.5
75.1765,78.1
75.1853,681.1
75.2325,155.3
75.2847,404
75.2862,16.9
75.2907,102.8
75.2927,133.8
75.3008,18.8
75.3023,142.3
75.312,158.6
75.3382,17.4
75.3475,121.3
75.364,286.8
75.3868,625
75.4098,138.7
75.4104,568.9
75.4497,301.2
75.4821,183.2
75.4893,264
75.5483,225.6
75.5523,229
75.5685,834.6
75.6036,17.4
75.6272,794.4
75.6581,120.3
75.6596,634.9
75.6619,124.3
75.706,239.5
75.7891,271.1
75.7923,123.4
75.7954,685.3
75.8179,837.8
75.8192,234.9
75.8204,303.1
75.8286,732.6
75.8516,18.4
75.8847,98.2
75.8851,105.8
75.9162,769
75.9468,165.8
75.9532,92.2
75.9634,181.6
75.9849,209.6
76.0392,365.3
76.0407,427.2
76.0778,295.1
76.0873,589.5
76.089,115.6
76.1025,214.9
76.1262,63.3
76.1273,985.7
76.1298,100.5
76.164,344.8
76.1878,882.8
76.2008,15.8
76.2021,178.3
76.2042,17.6
76.2163,373.3
76.2433,73.8
76.266,177
76.2999,860
76.3163,144
76.3185,731.2
76.3424,90.8
76.3571,220.1
76.397,96.2
76.4016,101
76.4084,204.2
76.4214,231.7
76.5318,629
76.548,19.7
76.5504,84.3
76.5755,359.3
76.5784,185.4
76.6329,20.2
76.6517,205.6
76.6572,17.7
76.67,89.1
76.6835,87.2
76.6956,643.1
76.7234,139.4
76.7286,625.9
76.7753,16.8
76.782,442.1
76.8339,76.3
76.8378,638.5
76.8515,808.3
76.8564,354.2
76.8622,107.9
76.8838,131.6
76.888,191.8
76.8905,98
76.9259,122.9
76.9266,17.6
76.9413,340.1
76.9525,207.4
76.9654,615.3
76.9785,74.8
76.9906,872.2
77.0073,793.7
77.0102,918.6
77.0166,16.2
77.0325,21
77.0346,22.1
77.0348,20.7
77.0352,16.4
77.0384,129556
77.0393,88.9
77.0425,353.8
77.0529,137.7
77.0566,137.3
77.0821,482.3
77.09,298.3
77.1339,158.4
77.1441,712.6
77.1594,178.3
77.21,19.4
77.243,856.4
77.2464,800.9
77.2586,145.6
77.2637,249.5
77.2962,554.3
77.2975,77.4
77.3259,181.5
77.3501,624.9
77.3692,144.3
77.374,662.1
77.3878,142.4
77.3977,336.5
77.4213,588
77.4288,148.3
77.4642,79.7
77.4819,184.6
77.4933,17.7
77.4964,17.2
77.5156,813
77.5475,224.1
77.5624,1044.8
77.5672,106.7
77.573,897.8
77.5947,279.2
77.6061,338.4
77.6128,322.8
77.6198,17.6
77.6265,191.7
77.6493,79.9
77.6701,238.4
77.6979,650.9
77.7017,18.1
77.7209,225.8
77.7544,84.9
77.7788,353.9
77.7879,803.4
77.7904,812.6
77.8384,712.7
77.8395,573.4
77.8557,356.5
77.8569,142.8
77.8945,134.2
77.9272,67.6
77.9383,112.8
77.9668,268.5
77.9754,575.2
77.9899,114.9
78.0187,252.5
78.0308,369.8
78.0394,368.7
78.0418,4514.8
78.05,117.4
78.0714,196.5
78.0825,365.9
78.0848,77.8
78.1109,390.1
78.127,17.3
78.1284,97.7
78.142,801.7
78.1441,89.7
78.1576,667.2
78.1687,280.1
78.1896,714.4
78.1988,91.9
78.2461,659.5
78.2483,454.7
78.2571,177.6
78.2583,102.7
78.2721,292.7
78.2743,702.3
78.275,167.1
78.2807,110.2
78.2852,409.2
78.3175,238.9
78.3177,240
78.3365,767.3
78.3463,69
78.3755,139
78.3918,112.2
78.4063,106.1
78.4171,238.4
78.4184,164.4
78.4389,325.6
78.4562,84.1
78.4941,732.4
78.5048,19.1
78.5124,424.1
78.514,597.9
78.5424,192.6
78.5495,127.9
78.5576,514.4
78.5891,750.6
78.5933,269.2
78.595,766.9
78.6174,345.1
78.6198,17.5
78.6451,21.2
78.6572,739.2
78.6893,17.9
78.7046,689.1
78.7167,167.4
78.7181,119.4
78.7202,342.1
78.7246,16.6
78.727,449.9
78.7297,146.8
78.7377,708.5
78.7508,608.7
78.7809,136.6
78.7815,149.2
78.7916,604.3
78.7929,325.6
78.7944,301.1
78.8326,719.9
78.8609,215.4
78.8658,675.3
78.8903,396.5
78.8952,690.8
78.9078,170
78.9193,226.1
78.9331,362.5
78.9515,305.2
78.9539,19.2
78.9597,123.4
78.9633,190.8
78.9969,212.2
79.008,296
79.0163,206.8
79.0233,127.3
79.0284,126.3
79.036,805.7
79.0541,1747.9
79.0569,650.5
79.0639,321.2
79.0784,409.4
79.0954,114.5
79.1549,321.6
79.1728,226.1
79.1853,722.6
79.1943,170.4
79.2101,695.1
79.2145,186.6
79.2296,111.8
79.2503,268.2
79.2572,112.3
79.2866,125.6
79.3154,147.4
79.3257,136.4
79.3434,271.5
79.3767,120.5
79.3844,324.2
79.4047,95.3
79.5049,211.1
79.5117,467.4
79.5149,906.5
79.5338,859.6
79.5359,117.8
79.5617,114.3
79.5638,602.7
79.5791,134.7
79.587,339.7
79.6226,941.9
79.6315,185.8
79.6814,254.6
79.687,101.6
79.6958,136.5
79.6979,133.2
79.6995,918.7
79.7106,207.2
79.7242,87.4
79.728,573.7
79.7392,370.7
79.7749,156.9
79.7812,309.9
79.7955,629.1
79.8137,480.6
79.8744,121.5
79.8914,146.8
79.8966,678.7
79.8983,613
79.9237,649.2
79.9245,746.3
79.9292,127.3
79.9424,18.6
79.9682,93.5
79.9799,155.6
79.9924,598.2
79.9929,668.8
80.0071,18.2
80.0387,622.6
80.05,20
80.0509,17.4
80.0575,16.9
80.0628,330.4
80.0746,407.1
80.0999,17
80.1021,334.3
80.1162,106.4
80.1175,175.7
80.1196,684.8
80.1285,818
80.1536,208.8
80.2283,903.2
80.2301,1060.7
80.2352,968.2
80.2365,907.4
80.2422,131.4
80.2616,96
80.2776,85.9
80.3041,108
80.3084,381.3
80.3445,120.6
80.3538,153
80.3557,772.7
80.3604,1092.5
80.3621,19.4
80.3807,337.8
80.4082,155.7
80.4245,102.5
80.4287,112.9
80.4357,75.3
80.4385,754.8
80.4458,394.6
80.451,16.3
80.4614,118.6
80.4683,324.6
80.4918,130.6
80.529,829.5
80.5414,257.5
80.5468,794.2
80.5554,970.6
80.6047,141.5
80.6102,438.1
80.6127,150.3
80.6356,635.9
80.6386,95
80.6455,325.9
80.6542,992.9
80.698,294.7
80.7054,17.4
80.7132,288.2
80.7252,218.7
80.7332,113.3
80.7722,347.4
80.7767,357.9
80.784,77.3
80.8002,95.8
80.8409,341.6
80.855,859.4
80.8618,244
80.8743,149
80.8824,17.9
80.8851,621.2
80.8865,17.6
80.9333,19.3
80.9426,355.2
80.9477,32397.6
80.9506,394.1
80.9546,264.4
80.9869,493
80.9965,194.6
81.0057,128.1
81.0136,22.1
81.0151,199.2
81.0301,1018.5
81.0424,189.6
81.0697,2080.3
81.0766,401.7
81.0878,73.9
81.1123,897.6
81.1248,662
81.1498,395
81.1523,1103.9
81.154,3105.9
81.1561,1521.5
81.1571,345.7
81.1626,157.5
81.1838,18
81.2094,311
81.2123,194.6
81.2232,97.1
81.2376,190.5
81.239,333.3
81.2613,16.3
81.2614,16.1
81.2789,748.4
81.2937,268.9
81.3116,126.8
81.3218,157.8
81.3226,436.4
81.3273,74.7
81.3433,69.8
81.3756,164.1
81.3879,101.8
81.4159,88.3
81.4206,366.3
81.4416,588
81.45,157
81.4628,405.4
81.4648,564.9
81.4713,23.8
81.4933,158.6
81.5153,341.6
81.5161,182.6
81.5325,112.2
81.5344,143.9
81.5381,621.6
81.573,336.4
81.5873,753.6
81.6028,139.9
81.6437,658.8
81.6537,1043.9
81.6686,828.4
81.6948,190.4
81.7265,287.4
81.7426,224.3
81.7642,134.8
81.7669,465
81.7722,195.3
81.7736,191.3
81.8312,189.3
81.84,259.8
81.8477,262.8
81.8495,325.9
81.8641,97.1
81.8848,175.4
81.9282,559.9
81.9348,20.3
81.9414,1148.7
81.9615,717.2
81.9771,94.9
81.9895,173.1
81.9963,620.5
82.0323,505.7
82.0607,217.9
82.0733,116.6
82.1049,18.1
82.1161,391.9
82.1264,107.8
82.1385,358.5
82.1644,171.9
82.1767,676.9
82.179,104.9
82.1945,275.2
82.2011,597.4
82.2136,126.4
82.2142,579.1
82.2234,147.8
82.2257,133
82.2514,67.7
82.262,1007.4
82.281,130.5
82.2986,91.5
82.3189,352.7
82.3331,1139.5
82.3428,348
82.3647,348.9
82.3758,137.1
82.3828,17.5
82.4215,754.7
82.481,768
82.492,506.4
82.4952,76.8
82.4988,598.3
82.5043,17
82.5259,281.5
82.5443,165.3
82.5543,322.6
82.5603,806.4
82.6206,147.9
82.6247,21.9
82.6666,230.9
82.6867,269.8
82.6885,365.1
82.7129,767.1
82.7436,331.6
82.7733,884.5
82.784,204.6
82.806,130.9
82.8139,163.7
82.815,71.4
82.8224,140.2
82.838,695.4
82.8403,17.4
82.8467,301
82.8619,90.8
82.866,661
82.876,669.1
82.8786,756.9
82.8898,123.5
82.9041,16.8
82.9155,96.1
82.9448,5629.1
82.9543,1328.3
83.0406,291.4
83.0417,981
83.0637,576.6
83.0715,368.4
83.0771,143.9
83.0854,44.8
83.1065,591.6
83.1239,222.3
83.1315,103.8
83.1359,207
83.1417,553.2
83.1632,198.9
83.197,125.2
83.2118,84
83.2234,112.3
83.232,168.6
83.2362,111.6
83.278,212.6
83.2831,277.1
83.3325,498.6
83.3422,196.7
83.3488,642.8
83.3766,329.4
83.3797,811.6
83.4337,318.6
83.441,1087.4
83.4542,610.7
83.4568,631.4
83.4722,16.8
83.4735,113.1
83.4911,318.8
83.5215,16.9
83.619,16.8
83.6415,84.7
83.6701,694.8
83.6906,79.4
83.7451,127.8
83.8155,206.9
83.8561,1029.3
83.8587,137.3
83.8779,254.9
83.9083,16
83.91,110.7
83.9337,16.5
83.9517,239.5
83.9638,358.4
83.9796,134.1
83.9875,129.3
84.0111,530.1
84.0445,612.7
84.0665,303.4
84.0969,114.7
84.1601,890.4
84.1695,129.9
84.1821,276.7
84.2151,417.9
84.2362,867.3
84.2399,129.3
84.2446,250.1
84.2469,448.9
84.2693,382.2
84.2719,161.5
84.308,163.8
84.3096,373.4
84.3528,366.1
84.361,546.2
84.3662,16.8
84.3683,892.2
84.3706,539.3
84.373,228.2
84.4029,356.3
84.4072,281.5
84.4195,773.3
84.4206,687.8
84.4285,510.4
84.4534,154.8
84.483,149
84.4976,367.2
84.5021,394.5
84.5037,180.1
84.5278,102.7
84.5342,222.5
84.5434,302.7
84.5609,162.7
84.5745,530.2
84.5812,103.5
84.5956,509.4
84.5979,317.3
84.6373,216.9
84.6942,123.4
84.7004,671.3
84.703,205.1
84.7105,249.6
84.7625,391.6
84.7695,525.2
84.7704,87.7
84.7897,297.1
84.8049,18.4
84.8497,786.2
84.8678,188.6
84.8734,740.2
84.8888,711.2
84.9031,660.5
84.9545,311
84.9596,21481.8
84.9627,175.2
84.9851,194.1
85.0097,327.2
85.0149,277.6
85.0162,312.6
85.0172,93.5
85.0216,593.2
85.0284,3366.7
85.0427,830
85.05,219.8
85.0612,74.2
85.0697,77.9
85.091,148.9
85.0992,106.9
85.1011,24.2
85.1415,764.4
85.1746,200.1
85.2094,881.5
85.2233,501.5
85.2387,598.3
85.2892,99.5
85.2904,116.9
85.3625,106.4
85.3945,246.8
85.4083,83.9
85.4245,115.4
85.4877,240.8
85.502,318.3
85.571,372.1
85.5854,298
85.5875,93.8
85.5888,85.9
85.6456,111.8
85.6632,429.7
85.6651,470.7
85.718,235.7
85.7441,406.7
85.7488,174
85.7538,692.4
85.7555,582.6
85.788,97.6
85.8027,963.3
85.8325,111.5
85.8367,274.1
85.8643,21.4
85.884,751.6
85.9422,801.6
85.977,453.4
86.003,732.6
86.0309,940.8
86.0589,330.4
86.06,43952.6
86.0964,174972.6
86.1195,127.1
86.127,238.1
86.1343,636.2
86.1922,353.2
86.1982,113.1
86.2113,110.5
86.2129,924.9
86.2276,18.6
86.2376,209.6
86.2616,101.8
86.2799,321.9
86.3112,646.5
86.3228,974.9
86.4297,18.1
86.4391,310.9
86.4646,807.6
86.4659,104.4
86.4687,206.3
86.478,153.7
86.4941,866.1
86.5039,18
86.5809,238.9
86.5926,120.5
86.616,232.7
86.6446,290.2
86.6501,20.1
86.6549,98.1
86.6861,271
86.6917,219.5
86.7051,595.6
86.7182,336.3
86.7367,85.3
86.7611,416.3
86.7715,355.1
86.828,16.3
86.8458,114
86.8611,716.8
86.8706,186.4
86.8745,308.9
86.8762,137.9
86.9283,136.6
86.9532,602.4
86.9668,386.8
86.9768,206.9
86.9785,168.1
86.9932,307.9
87.0003,651.3
87.0056,16
87.022,536.6
87.0476,17
87.0845,112.9
87.0928,110.2
87.0998,3013.4
87.1257,383.8
87.1368,220.6
87.1407,853.2
87.1444,87.7
87.1663,821.7
87.2254,99.7
87.2309,81.2
87.235,148.1
87.2486,714.2
87.271,227
87.2738,130.4
87.2841,646.8
87.2952,158.1
87.3076,375.5
87.3454,422.5
87.356,171.5
87.3628,159.3
87.3861,174.7
87.4183,152.5
87.4233,720.4
87.432,181.2
87.4457,162.4
87.453,208.9
87.4741,83.9
87.4796,134.1
87.505,999.7
87.5364,17.1
87.545,692.2
87.5771,95.1
87.5997,135.4
87.6006,644.4
87.605,256.5
87.6156,708.6
87.6205,22.3
87.6329,370.9
87.6435,702.3
87.6529,287.1
87.6618,160.4
87.6677,154.6
87.6718,18
87.6766,173.5
87.6875,18.6
87.6906,139.2
87.6931,160.8
87.6973,325.3
87.7169,370.5
87.7278,18
87.7405,173.5
87.7452,169.7
87.7465,777.9
87.7561,627.7
87.7839,326.1
87.8676,399.7
87.9011,181.8
87.907,177.5
87.918,144.6
87.9361,253.7
87.9827,105.1
87.983,121.9
87.9833,91.4
87.9848,78.5
88.0329,103
88.0379,17
88.0393,10437.8
88.0482,691.2
88.0957,740.2
88.1061,439.2
88.1298,106.6
88.2333,18.1
88.258,289.3
88.2633,310.8
88.2753,201.7
88.2833,245.2
88.2995,99.6
88.3005,78.3
88.3145,687.8
88.3287,251.6
88.3359,116.6
88.4139,339
88.4188,117.3
88.4388,621
88.495,137.8
88.4969,180.5
88.5209,730.1
88.5397,681.8
88.5438,144.4
88.6109,211.6
88.673,494.6
88.7349,280.6
88.7988,75
88.8143,269.1
88.8342,17.2
88.8377,18.5
88.8437,16.1
88.8711,220.4
88.8783,204.7
88.8829,342
88.8865,189.6
88.9031,113
88.9133,742.5
88.9168,88.9
88.9424,328.8
88.9493,104.3
88.9525,23.4
88.9806,18.8
88.9873,335
88.9894,236.7
88.9913,117
88.9938,653.1
89.0084,18.7
89.0103,351.1
89.022,437.6
89.0253,368.8
89.0335,18.6
89.0379,166.6
89.1203,104.4
89.1243,913.9
89.1483,188.4
89.1767,146.4
89.1976,259.8
89.206,616.5
89.2135,128.6
89.2238,920.3
89.2251,163.7
89.272,712.1
89.2929,716.3
89.3412,113.8
89.3607,152.7
89.368,865.3
89.3697,252.6
89.404,115.8
89.4809,340.7
89.4976,89.2
89.5124,722.5
89.538,124.6
89.5573,187.4
89.6077,419.6
89.635,366.7
89.6422,79.5
89.6513,111.7
89.6521,209.8
89.6672,703.2
89.6974,222.1
89.8071,246.9
89.8094,152.5
89.8168,377.5
89.8215,129.8
89.8303,179.7
89.8374,21.3
89.8582,682.8
89.9029,208.8
89.9117,724.5
89.9328,108.6
89.9504,960.6
89.9697,24.3
89.9861,310.2
89.9869,140.5
90.0316,156.5
90.0437,910.2
90.0714,203
90.0856,728.7
90.1192,164.3
90.121,653.9
90.136,566.7
90.1634,144.8
90.2019,190.2
90.208,630.8
90.239,18.7
90.2466,235.2
90.2795,480.4
90.3092,204.2
90.3419,370.3
90.3833,529.1
90.3864,18
90.4303,1260.5
90.4477,20.4
90.4812,17.4
90.482,70.1
90.4998,383.2
90.502,658.2
90.5158,354
90.558,103.3
90.5593,249.4
90.561,139.5
90.5832,140.1
90.5979,170.6
90.6509,116.4
90.6914,200.2
90.6926,114.2
90.6963,95.7
90.7012,357.8
90.7083,154.7
90.7414,17.8
90.7529,17.1
90.7737,243.7
90.7975,623.8
90.8305,125.7
90.8582,16.7
90.8688,357.5
90.8923,492.3
90.8974,163
90.9055,105.1
90.9305,209.4
90.9477,47.1
90.9522,438.2
90.955,165.8
90.9629,397.2
90.9766,3982.8
91.0081,330.6
91.0168,356.8
91.03,17.7
91.0507,439.6
91.0542,3207.2
91.0647,135.2
91.0875,788
91.1183,901.6
91.1274,102
91.1566,149.6
91.1744,129.6
91.1925,293.7
91.2056,390.4
91.2102,611.6
91.2349,618.8
91.3006,594.2
91.3113,68.2
91.3271,230.2
91.3724,126.5
91.3985,314.8
91.4167,155.6
91.419,332
91.4447,18.9
91.4468,113.5
91.4841,86.3
91.491,25.1
91.5421,793.4
91.5977,115.8
91.6107,19.7
91.6526,881.1
91.7371,651.8
91.7546,409.9
91.7866,249.8
91.8076,15.8
91.8186,903.3
91.8257,158.8
91.837,104.9
91.8679,82.6
91.8861,993.6
91.908,438.5
91.9158,526.4
91.9304,199.4
91.9975,144.9
92.0259,682.9
92.0494,23.7
92.0577,24.1
92.0668,355.9
92.0688,422.1
92.0795,293.5
92.1249,447.1
92.1408,114.9
92.1525,163.8
92.1733,155.2
92.1793,371.5
92.1907,211.3
92.1973,102.3
92.2063,720.5
92.2155,438.4
92.2666,642.5
92.2786,249.3
92.2909,74.9
92.3101,109
92.3168,806.2
92.3344,471.2
92.3366,427.9
92.3446,104
92.383,547
92.3863,19.2
92.3976,192.7
92.4519,651.6
92.4709,199.2
92.5255,112
92.5344,673
92.5613,360
92.5916,746
92.5951,177.4
92.5991,354.9
92.6015,317.7
92.6091,531.3
92.6112,558.8
92.6126,327.1
92.6405,153.1
92.6483,342.3
92.6509,449.8
92.6832,126.5
92.6889,133.7
92.6987,711.6
92.7245,125.2
92.7396,630.3
92.7673,123.1
92.7766,125.6
92.7785,207.3
92.793,767.7
92.806,584.5
92.8827,107.8
92.8839,146.6
92.8961,122
92.8985,137
92.9262,141.3
92.9282,117.2
92.9342,293.7
92.9612,121.2
92.9696,94.1
93.0127,618.3
93.0204,283.7
93.0335,80
93.0382,20
93.0441,484.2
93.0622,138.9
93.07,505.1
93.0773,690.3
93.0846,81.1
93.1231,116.3
93.1342,174.8
93.138,260.3
93.17,444.1
93.171,19.9
93.2131,18.6
93.2228,19.3
93.2753,405
93.2773,693.7
93.302,19.3
93.3027,876.9
93.3521,572.9
93.355,20.6
93.3603,465.5
93.3794,428.3
93.3867,79.3
93.4056,586.2
93.4107,255.1
93.4429,668.1
93.4433,698.7
93.4442,18
93.4714,147.2
93.4906,672
93.5112,166.7
93.5147,526.3
93.5277,91.3
93.5286,278.6
93.5457,100.9
93.5551,738.6
93.6843,96.1
93.7244,163.5
93.7531,17.1
93.827,687.1
93.8349,114.2
93.8443,17.8
93.8809,104.6
93.8824,18.1
93.8966,120.2
93.9146,17.8
93.9433,113.7
93.9497,524.1
93.9645,324.9
93.9688,343.8
93.9794,835.8
93.9797,837.4
93.9864,91.5
93.9937,550.6
93.9963,17.2
94.0281,262.5
94.039,31.2
94.0413,68963.6
94.0547,367.3
94.1038,157.3
94.1655,95.3
94.1768,191.5
94.1807,720.7
94.1852,339
94.2342,158.9
94.2475,196.2
94.2503,81.3
94.2567,17.2
94.3063,1008.3
94.3169,324.4
94.3194,85.1
94.3286,163.7
94.353,234.8
94.3619,136.2
94.3897,20.5
94.4097,168
94.4295,1173.7
94.4453,375.3
94.4663,19.1
94.4835,310.4
94.4885,286.9
94.5031,136.5
94.5214,17.1
94.5223,18.2
94.5493,17.6
94.5779,20.3
94.5945,683.2
94.5996,22.1
94.6101,857.1
94.6133,357.9
94.6192,100.9
94.6498,651.5
94.667,680.1
94.6818,18.9
94.7523,230.3
94.7763,19.2
94.8115,308.6
94.8289,1147
94.8582,119.8
94.8587,122.1
94.8827,165.9
94.8899,661.6
94.8979,247.3
94.8999,18.3
94.9242,277.4
94.9463,83
94.9612,126.8
95.0019,309.1
95.0088,25.8
95.0342,342.4
95.0358,25.6
95.0386,18.8
95.039,16.8
95.0447,1905.3
95.0461,84.1
95.0468,49.6
95.0475,219.8
95.0491,449831.5
95.0505,346.2
95.0518,135.3
95.0525,42
95.0624,44.3
95.0678,21.1
95.0856,743.6
95.0894,27.6
95.1092,743.3
95.1266,339.6
95.1333,17.4
95.1455,169.3
95.162,1065.4
95.1838,724.1
95.1871,648.6
95.2014,433.6
95.227,347.7
95.2306,64
95.2483,322.3
95.2663,405.2
95.2966,502.9
95.3682,967
95.3924,787.1
95.3929,910.8
95.3932,548.9
95.3999,1020.7
95.4028,167.9
95.4176,84.8
95.4327,133.8
95.4352,188.8
95.459,804.8
95.4711,958.7
95.4758,279.1
95.5194,747.5
95.5234,724.9
95.5541,342.8
95.5833,439.9
95.6195,122.8
95.6354,395.9
95.6392,149.9
95.649,331.8
95.6671,128.6
95.6848,85.7
95.6887,647.5
95.727,134.4
95.7316,140.6
95.7454,1046.8
95.764,138.4
95.7932,87.4
95.8692,78.3
95.9013,17.5
95.9591,204.1
95.9621,299
95.9728,473.7
96.0525,23541.1
96.0807,21.4
96.136,103.1
96.148,679.1
96.1949,108.5
96.1971,530.6
96.2095,110.1
96.2557,24.1
96.2574,159.6
96.2659,94.2
96.2856,76
96.2927,70.8
96.3074,101.3
96.3401,128.4
96.3529,151.9
96.3581,308.9
96.3616,365.4
96.3655,110.1
96.4414,17.4
96.4615,386.2
96.4629,150.2
96.4841,102.4
96.5229,124.3
96.5245,767.2
96.5585,1122.4
96.5728,173.9
96.5755,661.4
96.6393,110.9
96.6823,394.8
96.7179,170.5
96.7244,91.8
96.74,215.5
96.7825,713.5
96.7849,377.9
96.7954,652.9
96.8065,541
96.8111,721.8
96.8638,136.1
96.8711,124.4
96.9218,119075
96.9353,423.4
96.9479,632
96.9573,1425.3
96.9585,163.6
96.9627,519.8
96.9739,153.7
97.005,133.3
97.0076,144.6
97.0328,718
97.0515,336.7
97.0534,93.6
97.0558,92
97.0568,105.5
97.0607,177.7
97.0798,394.1
97.0818,126.1
97.0877,253.9
97.1011,72.4
97.1216,1066.3
97.187,672.7
97.2127,102.6
97.2234,114.2
97.2242,266
97.2477,23.7
97.2507,380.9
97.2523,560.9
97.2764,107
97.3381,656
97.3459,221.2
97.3854,507.8
97.3936,107.1
97.4454,87.7
97.4646,346.5
97.4903,129.2
97.5045,134.8
97.5765,634
97.618,148.4
97.6228,182.8
97.6405,365.5
97.6792,289.7
97.6848,384.5
97.7671,220.9
97.7865,704.9
97.82,565.4
97.8494,97.6
97.8878,281.7
97.9479,167.4
97.9513,1000.7
97.9936,210.2
98.0323,329.4
98.0366,183.3
98.0408,605
98.083,157.8
98.084,23
98.0938,218.7
98.119,145
98.1496,102.6
98.1538,349
98.1636,179.1
98.1922,204.2
98.212,784.8
98.2318,551.8
98.2735,170
98.2899,209.6
98.3225,285.3
98.3323,121.1
98.3407,121.6
98.3528,187
98.3575,96.2
98.3751,624.6
98.4006,874.6
98.4654,432.3
98.4863,18.7
98.4921,120.7
98.5125,129.9
98.535,732.6
98.6272,532.5
98.6284,437.2
98.6534,391.9
98.655,203.7
98.6578,241.8
98.6865,17.4
98.6929,639.5
98.7357,131.8
98.7408,189.3
98.7436,600.1
98.7552,96.8
98.7761,112.4
98.793,20.3
98.8165,165.3
98.8431,315.3
98.8528,682.8
98.8609,437.8
98.8848,611.1
98.9188,32534.1
98.9199,4202.9
98.9456,511.4
98.9506,333.7
98.9754,12668.5
98.9842,78.8
98.9872,116.7
99.0109,19.9
99.0625,115.5
99.1086,702.3
99.2379,652.8
99.2447,135
99.3636,614.7
99.4071,900.5
99.4212,598.3
99.457,18.4
99.5306,21.8
99.5684,278.7
99.5827,239
99.6016,764.2
99.606,20.6
99.6238,734.4
99.6445,306.8
99.6844,631.4
99.6894,176.7
99.7257,656
99.7325,213.5
99.7424,67.2
99.7596,696.7
99.7976,138.2
99.8468,271.2
99.8744,26.5
99.8896,209.7
99.9241,354.5
99.9389,618.4
99.9401,701.6
99.95,572.4
100.0156,96.7
100.0267,797.6
100.0318,185.7
100.076,1005.2
100.0851,16.8
100.1093,207.4
100.1257,173.9
100.1447,171.7
100.1458,105.2
100.1617,358.8
100.1735,188.6
100.1772,133.9
100.1957,18.5
100.2144,74.9
100.2345,118.6
100.2724,133.4
100.2775,18.5
100.3471,727.8
100.363,197.4
100.3972,171.4
100.4155,814.5
100.4284,357
100.4342,533
100.4855,328.8
100.5063,17.3
100.5155,82.6
100.5686,620.5
100.5859,118.2
100.6029,93.8
100.6522,125.9
100.6565,980.4
100.7249,662.5
100.7269,18.7
100.7401,125.9
100.7697,666.6
100.7944,157.4
100.8014,298.2
100.8143,259.4
100.8451,187.2
100.8988,854.6
100.9068,935.2
100.917,508.2
100.928,105.7
100.9291,886.4
100.9553,333.3
100.9572,272.5
100.9734,243.7
100.9958,237.5
101.001,18.1
101.0471,3218.9
101.071,3549.8
101.107,159.2
101.1158,299.7
101.1231,620
101.1253,106.4
101.1308,155.3
101.1447,769.8
101.1648,114.7
101.2409,17.5
101.2555,335.3
101.3001,299.1
101.3439,560.4
101.3665,242.5
101.392,386.4
101.4123,953.5
101.4383,290.4
101.4793,561.1
101.5244,151.6
101.568,743.4
101.5732,100.3
101.5743,667.6
101.5917,129.3
101.5938,94.8
101.5974,227.3
101.643,692.6
101.6862,217.6
101.7062,112.6
101.7278,88.4
101.7335,357.2
101.7343,158.4
101.7363,78.9
101.8263,107.8
101.8284,722.1
101.8603,123.9
101.8821,898.4
101.9117,815.6
101.9211,561
101.9331,663.1
101.9495,691
101.9616,69.4
101.9729,685.3
102.0148,328.2
102.0526,71.9
102.055,6289.2
102.0788,740.9
102.1076,264.6
102.1268,175.8
102.1367,975.8
102.1788,116.5
102.2134,908.4
102.279,800.8
102.2998,250.8
102.3025,157.4
102.3161,1037.4
102.3563,279.5
102.3591,920.1
102.3634,146.6
102.3922,107.5
102.4056,216.2
102.4105,500.7
102.4429,179.2
102.4927,1014.5
102.5386,337.2
102.5572,371.7
102.5925,235.7
102.6197,278.1
102.6322,381.3
102.6522,100.5
102.6631,554.7
102.6642,592.9
102.6727,586.1
102.6979,287.3
102.7192,85.8
102.7432,157.3
102.7589,16.4
102.7594,17.3
102.7896,669.6
102.8131,18.5
102.8151,17.2
102.844,166.5
102.8454,642.5
102.8603,761.7
102.8632,628.8
102.9115,163.3
102.9142,203.6
102.9164,325.9
102.9682,22
102.9703,653
103.0032,73.8
103.0544,350.8
103.0601,295.2
103.066,146.6
103.0818,557.5
103.0843,99.2
103.1279,17.5
103.1301,107.5
103.1648,105.6
103.2078,323.5
103.2486,107.8
103.2551,1369.1
103.2696,182.7
103.2814,679.8
103.3149,698.8
103.3178,591.7
103.3212,150.1
103.3809,149.5
103.4102,111.5
103.4335,430.5
103.4471,240.8
103.4582,127.3
103.4984,93.1
103.508,478.3
103.5124,433.2
103.5145,103.7
103.544,189.1
103.5614,114
103.5955,622.4
103.649,276.9
103.6725,23
103.7161,949.9
103.7523,574.3
103.8695,256.5
103.8728,960
103.8938,258.3
103.9152,205.8
103.9844,147.1
103.9978,565.1
104.0725,1031.7
104.0741,114.3
104.1038,735.1
104.107,790786.9
104.1233,254.9
104.1792,18.2
104.2043,582.6
104.2266,640
104.2314,597.5
104.2729,437.7
104.2805,19.1
104.3054,766.4
104.3236,459.6
104.4819,753.3
104.498,125.6
104.5139,135
104.574,110.4
104.6144,114.6
104.7243,729.4
104.7366,117.2
104.7698,107.2
104.7865,739.8
104.8074,822.6
104.8264,370.4
104.8394,131.2
104.8426,21.8
104.8778,95
104.9019,328
104.9136,1045.4
104.9288,132.7
104.9427,788.8
104.9544,123.9
104.9634,108.2
104.9923,2003.5
104.9941,77.4
104.9969,301.8
105.0033,21.8
105.0382,154.2
105.04,18.3
105.0419,351.7
105.0448,41201.7
105.0464,48.6
105.0553,333.3
105.0583,17.9
105.1104,31550.9
105.1124,106.5
105.1175,89.7
105.1606,309.9
105.1848,770.5
105.2073,655.3
105.2219,375.6
105.2283,16.5
105.3104,625.7
105.3163,96.1
105.383,138
105.3954,362.6
105.4021,230.5
105.4172,334.8
105.432,16.8
105.4346,74.4
105.4794,545
105.4863,207.6
105.4986,73.7
105.5124,156.3
105.5265,862
105.5637,236.1
105.6616,302.7
105.6809,137.1
105.6894,675.3
105.6968,331.8
105.7044,499.9
105.7486,131.1
105.7754,505.2
105.8218,102.2
105.8243,17.5
105.8464,408.3
105.857,87.9
105.8638,369.8
105.8891,239.3
105.9197,109.7
105.9366,76.4
105.9728,401.1
105.9789,299
106.0009,878.5
106.0073,104
106.0244,17.7
106.0261,187.2
106.0271,195.5
106.0482,461.8
106.0736,357.6
106.0762,293.4
106.0965,19
106.1122,258.9
106.1371,287.1
106.1662,235.9
106.167,860.7
106.1905,110.2
106.1959,117.4
106.2125,269.7
106.2272,203.3
106.2341,734.3
106.2658,836.6
106.2834,104.9
106.3322,134
106.3762,147.6
106.4406,385.6
106.4819,502.4
106.4877,592.9
106.5036,101.5
106.5137,929.7
106.5396,393.3
106.5433,82.4
106.5632,19.8
106.5808,347.1
106.5841,544.6
106.6151,169.8
106.6385,180.6
106.6506,86.5
106.7235,557
106.8081,475.1
106.8981,131
106.9001,261.6
106.9085,100.5
106.9508,963.1
106.9923,183.6
107.0284,132.2
107.0492,644.5
107.0855,22.8
107.1133,460.7
107.1165,309.9
107.1177,212.6
107.1314,161.5
107.1345,232.3
107.1932,677.3
107.204,315.9
107.2461,427.6
107.3779,834.2
107.3935,186.4
107.4014,133.4
107.4317,156.2
107.4491,123
107.5165,633.7
107.5173,189.2
107.5269,707.2
107.5566,246
107.572,177.2
107.5766,649.5
107.5833,1062.1
107.5855,19.7
107.5879,243
107.5943,500.6
107.6073,353
107.624,383.7
107.6446,382.3
107.7019,185.5
107.7559,110.1
107.8277,100.7
107.8294,144.9
107.8575,92.7
107.8618,111.2
107.8816,404.7
107.8846,1065.4
107.8916,667.5
107.9009,81.2
107.997,88.3
108.0068,77.3
108.0194,464.8
108.0227,152.6
108.0314,18.4
108.0384,980.2
108.041,312.7
108.0487,278
108.0571,19.2
108.0965,501.8
108.1096,792.7
108.1119,136.5
108.1343,317.9
108.1365,1008.1
108.15,128.2
108.1548,103.2
108.1597,451
108.171,737.6
108.2139,396.1
108.2513,19
108.278,899.3
108.2815,680.3
108.2863,391.5
108.2875,325
108.3207,393.4
108.3588,622.5
108.3991,410.8
108.4176,16.8
108.4885,357.4
108.4986,279.3
108.5166,148.9
108.5795,642
108.5837,239.9
108.604,970
108.6079,754.7
108.6503,21.8
108.6959,234.7
108.7038,427.7
108.7129,159.4
108.7292,307.8
108.7615,259.2
108.8754,129.5
108.9109,138.2
108.9599,17.9
108.962,283.6
108.9722,911.4
108.9831,79
108.9898,176.4
109.0093,417.3
109.0105,18.5
109.0538,391.4
109.0566,144.7
109.0628,24.3
109.0634,46.7
109.0649,75011.3
109.0665,57.4
109.1013,201
109.1145,540.9
109.1478,274
109.1779,163.1
109.2085,333.9
109.2099,95.1
109.2445,413.8
109.2849,131.4
109.2876,707.1
109.3169,313.8
109.333,1016.6
109.3511,106.6
109.3772,493
109.382,89.1
109.3852,96.6
109.4054,134.4
109.4213,18.1
109.4507,569.2
109.5083,99.4
109.5382,251.5
109.5559,421.3
109.6211,466.2
109.6412,124.2
109.654,348.5
109.6646,90.8
109.7206,114.6
109.7502,438.5
109.7677,189.5
109.7763,23.2
109.7815,755.7
109.8304,150.4
109.8312,175
109.8561,218.6
109.8609,189.4
109.8894,229.4
109.9336,101.4
109.9464,352.4
109.97,16.1
110.0214,132.6
110.0296,476.2
110.0543,118.6
110.06,116.6
110.0682,2847
110.0714,639.4
110.082,139.6
110.1023,390.6
110.1242,504.8
110.1443,112.6
110.147,282.8
110.2364,469.1
110.2518,133.1
110.2604,191.3
110.2845,840.9
110.3134,458.4
110.3198,722.5
110.322,144.5
110.3433,397.1
110.3539,958.2
110.3551,17.9
110.3822,113.9
110.4526,20.7
110.4697,376.8
110.4997,580.6
110.5084,1027.4
110.5124,250.9
110.5223,1047.1
110.525,858.7
110.5614,70.2
110.5708,71.3
110.5854,307.7
110.622,717.1
110.6356,83.8
110.7119,87.5
110.7383,367.1
110.7671,83.9
110.7797,163.9
110.7856,303.9
110.8069,186.4
110.8271,150.1
110.906,685.3
110.9083,424.9
110.9256,445
111.0104,668
111.0233,313.5
111.0258,276.1
111.0359,17
111.0441,221.5
111.0546,326.3
111.0716,25.1
111.0808,19.4
111.108,425.9
111.1495,122.3
111.1817,156.7
111.1973,111.5
111.2338,992.9
111.2533,171
111.355,120.3
111.4368,84.2
111.4711,119.9
111.4802,204.6
111.515,257.7
111.5329,244.7
111.545,1014.1
111.5977,150.4
111.6422,106.6
111.6857,279.8
111.7078,146.3
111.7095,91.5
111.7182,18.5
111.7326,112
111.7657,981.2
111.8836,212
111.9117,225.9
111.9935,94.8
112.029,124.1
112.0853,174.5
112.0925,127.9
112.0998,393.4
112.1146,135.9
112.1624,1433
112.1777,451
112.2001,1045.9
112.2047,470.5
112.2133,183.8
112.2373,269.1
112.2403,172.1
112.246,751.4
112.2587,251.2
112.2732,679.5
112.2774,1123.5
112.2815,115.7
112.2874,602.2
112.3137,574.6
112.3211,185
112.3308,267.1
112.3403,21.6
112.355,873.4
112.3887,18
112.4595,1083.9
112.477,720.4
112.5248,328.5
112.5394,998.2
112.542,731.3
112.6055,372
112.6272,98.2
112.6537,289.6
112.6651,188.2
112.7204,166.3
112.7933,103.4
112.8003,1439.7
112.8168,89.4
112.8631,306.7
112.8843,19.2
112.8958,384008.9
112.927,358.6
112.9345,860.1
112.9435,639.2
112.9638,396.3
113.0102,166.5
113.0328,406.8
113.0379,76.1
113.077,963
113.1283,494.2
113.1401,484.5
113.1546,604
113.1636,779.4
113.1996,947.5
113.2357,101.8
113.2953,403.5
113.3001,167.4
113.3015,168
113.3224,18.6
113.3785,107.3
113.4194,901.4
113.4286,247.7
113.4416,222
113.4768,767.8
113.499,144.1
113.5177,98.9
113.5221,316.6
113.534,19.2
113.5708,335.8
113.5887,118.9
113.6106,169.1
113.7644,16.7
113.8171,688.4
113.9247,301.6
113.937,378
113.9395,171.2
113.9773,78
113.9961,97.2
114.0551,65263
114.0575,123
114.0656,761.2
114.0663,650.8
114.0913,39
114.1031,187.6
114.1244,188.5
114.1606,711.8
114.1754,341
114.1975,245
114.2378,253.9
114.2478,193.8
114.2752,713.2
114.2856,17.4
114.2919,1018.5
114.311,127
114.3182,980.8
114.3585,310.8
114.3824,254.7
114.4531,177.9
114.4605,91.6
114.5567,358.8
114.5689,91.4
114.5718,249.3
114.5921,209.1
114.6041,827
114.6164,629.8
114.6881,273.1
114.6909,585
114.8064,75
114.8299,17.9
114.8341,196.8
114.8573,877
114.8628,19.7
114.8683,165.3
114.8891,168.8
114.8929,121890
114.8998,233.7
114.942,170.6
114.9722,124.4
115.0185,119.5
115.0381,107
115.0396,176.8
115.0584,1160.9
115.1201,355.8
115.1514,18.8
115.1632,99.6
115.1731,263.4
115.2233,18.7
115.2253,231.1
115.2817,131.5
115.2903,77.6
115.326,448.5
115.3732,575.3
115.3908,159.8
115.405,258.1
115.4111,102.8
115.4188,117.1
115.428,202
115.4411,681.3
115.4721,889.2
115.4865,104.2
115.4957,144.7
115.5169,136.4
115.5345,185
115.5388,71.3
115.5491,128.5
115.5536,251.4
115.5813,772.6
115.6143,381.4
115.6395,671.5
115.6436,22.9
115.6589,100.2
115.7516,627.2
115.7543,892.6
115.7773,402
115.8272,242.2
115.8379,763.5
115.8518,19.2
115.8536,435
115.8897,275.7
115.8934,98.4
115.9541,139.2
115.9778,18.3
115.9893,806.9
116.0035,400.5
116.0487,74.7
116.0707,4306.5
116.0952,20.1
116.106,611.7
116.1197,195
116.1422,108.8
116.2003,183.2
116.2233,1239.8
116.2306,134.4
116.2406,170.5
116.2532,172.6
116.2692,16.9
116.2711,296
116.3141,113.7
116.3358,139.9
116.3711,119
116.4048,262.8
116.4274,72.9
116.4391,19.1
116.5669,18.2
116.583,131.4
116.6474,275.7
116.681,479.6
116.7176,73.6
116.7276,214.8
116.7316,140.2
116.7985,677.4
116.8352,158.9
116.8838,100.6
116.891,12557.6
116.9048,258.1
116.9156,396.5
116.92,17.4
116.9738,721
116.9778,190.7
116.9861,1855
116.9912,1178.1
116.9967,1001.5
117.0013,71.7
117.0207,906.9
117.0219,640.7
117.1178,216
117.1757,184.4
117.2293,350.9
117.2343,211.6
117.2385,493.4
117.2725,16.5
117.2919,103.2
117.3819,302.8
117.4021,601.8
117.4069,868.5
117.4157,254.3
117.4202,186.1
117.4295,713
117.467,983.5
117.5139,638.8
117.5861,130.4
117.6263,106.2
117.6414,395.5
117.65,108.3
117.6567,170.8
117.7208,126.4
117.7228,393.8
117.7256,239.1
117.7567,455.4
117.7615,320.7
117.7733,111.8
117.7857,566.7
117.8123,384.5
117.8301,161.2
117.8873,430
117.891,16.9
117.9591,219.2
117.9645,368.9
118.0141,203.1
118.0315,131.2
118.0366,587.7
118.054,411.8
118.0701,18.5
118.0811,341.9
118.1148,20.4
118.137,115.2
118.1434,385.4
118.1786,165.6
118.1855,123.8
118.2468,270.5
118.2479,208.6
118.2905,683.9
118.3143,90.9
118.3213,102.5
118.3601,845.3
118.3744,80.1
118.4239,168.5
118.4729,614.7
118.4881,435.4
118.4979,466
118.5175,865.3
118.52,99.4
118.6288,329.6
118.635,878.3
118.6714,148.6
118.7014,17.5
118.724,128.2
118.7588,197.8
118.7892,172.1
118.8017,113
118.8052,906.7
118.8114,927.2
118.865,89.7
118.8736,20.9
118.8816,287.8
118.8973,897.6
118.9017,398.2
118.9127,617.8
118.9171,87.7
118.9382,486.2
118.9801,268.4
119.0131,146
119.017,105
119.0189,25.6
119.0289,197.4
119.0355,122.7
119.0619,18
119.0793,124.3
119.0824,369.9
119.0857,22.2
119.0966,233.5
119.1135,110
119.1277,122.1
119.2422,366.7
119.275,107.8
119.2918,750.1
119.3448,472.4
119.3512,121.9
119.4126,464.2
119.4269,958.7
119.5033,155.6
119.5056,17.5
119.5069,174.7
119.5287,209.2
119.6707,177.4
119.6833,136.1
119.6918,208.5
119.7216,237.1
119.7333,19.2
119.7782,109.7
119.7873,796.2
119.8618,145.8
119.8939,590.6
119.9198,915.4
119.9291,107.1
119.9726,279.5
120.0034,1858.6
120.0401,616.7
120.0656,1577.8
120.0809,22694.9
120.0919,833.6
120.234,17.8
120.2374,19.4
120.2492,884.9
120.3078,435.4
120.3118,24.3
120.3215,135.6
120.3362,714.8
120.3382,830.8
120.3469,266
120.3596,489.6
120.3966,682.2
120.3975,483.5
120.4374,151.3
120.4999,561
120.5811,164.7
120.5848,305.9
120.5929,18.1
120.6279,634.6
120.652,21.4
120.6769,273.4
120.7089,199.8
120.7139,100.7
120.7235,104.3
120.7828,17.2
120.7899,506.2
120.8021,574.2
120.9191,230.1
120.9384,175
120.9548,484.9
120.9809,218.6
121.0077,340.3
121.01,108.5
121.0233,226.9
121.0286,484
121.0396,73.6
121.0744,411.8
121.0827,147.7
121.1013,55.9
121.1209,889.7
121.1322,230.2
121.1373,677.3
121.1618,930.6
121.1648,235.9
121.1721,20
121.2068,330.1
121.2403,145.6
121.2461,154.5
121.2636,18.9
121.2828,816.7
121.2875,173
121.3061,97.2
121.317,295.7
121.3544,85.5
121.4148,220.6
121.4167,19.3
121.4663,102.5
121.5012,196.6
121.509,96.4
121.5111,779.7
121.5358,751.9
121.5437,722.4
121.5585,18.1
121.5683,17.9
121.57,18
121.6708,200.3
121.6827,265.1
121.693,611.2
121.7141,121.5
121.7205,580
121.7706,170.6
121.8514,368.3
121.8595,149.7
121.9124,17.9
121.9321,189.8
121.9919,110.1
122.029,287.4
122.0715,104.8
122.077,133.9
122.0817,458.6
122.1789,268.8
122.1803,211.9
122.1948,248
122.2282,735.4
122.2818,360.7
122.2886,161.6
122.304,104.3
122.3249,214.9
122.3394,177.2
122.3471,127.3
122.3605,242.6
122.3671,168.9
122.3683,364.3
122.382,125.6
122.3994,316.9
122.424,135.6
122.4502,349.8
122.4522,244.7
122.5058,479.4
122.5151,159.1
122.5676,131.1
122.57,421.7
122.6038,664.4
122.612,258.2
122.6261,234.5
122.6458,96.2
122.6765,603.6
122.6921,123.4
122.7039,548.9
122.7806,146.5
122.8121,122.1
122.855,237
122.8604,179
122.8636,233.3
122.8752,16.8
122.9246,15555.7
122.9412,301.5
122.9609,209.9
122.9632,273.7
122.9818,775
122.9904,793.9
122.9926,721.6
123.0057,633
123.0138,405.7
123.0333,23
123.0393,280.9
123.0804,68.8
123.1287,327.3
123.1375,532.2
123.1443,151.7
123.1544,96.8
123.2033,108.5
123.219,20
123.2855,340.4
123.2885,133.6
123.2919,205.2
123.3008,255.1
123.3178,821
123.3465,155.3
123.4377,115.1
123.4508,156.1
123.4697,149.2
123.525,591.5
123.5478,544
123.5665,150.4
123.6515,194.5
123.67,191.7
123.7357,658
123.7388,533.7
123.781,95.6
123.7872,219.9
123.8451,239.2
123.8549,347.5
123.9324,767.9
124.0059,667.3
124.0073,148.9
124.0103,1198.5
124.0214,120.5
124.1204,771.8
124.1238,203.8
124.1421,710.8
124.1532,696.8
124.1562,108.8
124.244,265.6
124.2549,110.2
124.2906,325.5
124.3102,1105.5
124.3824,891.6
124.3945,19
124.4235,108.8
124.4251,721.8
124.4346,19.5
124.4471,235.9
124.4483,788.8
124.4739,17.1
124.4808,367.6
124.4824,94.1
124.4928,70.7
124.4985,236.8
124.5301,635.1
124.5311,159.5
124.5377,379.5
124.5486,154.1
124.5846,159.3
124.6786,674.7
124.6932,346.6
124.71,94.7
124.7219,425.6
124.7312,82.9
124.7857,162.4
124.7933,661.8
124.8162,194.7
124.8477,998.1
124.9325,83
124.9472,181.1
124.9645,98.2
124.987,168.9
124.9976,111.8
125,11688.7
125.0057,343.1
125.039,277.5
125.0599,29.5
125.0905,858.5
125.1076,233.2
125.2521,175.3
125.2588,224.3
125.3167,222
125.3297,19.3
125.3346,914.9
125.3366,100.2
125.4002,133.2
125.4093,706.8
125.508,17.1
125.5185,648.9
125.5364,163
125.5536,630
125.5789,1249.6
125.5837,1073.2
125.5885,111.3
125.6076,251.5
125.6437,1344.1
125.6878,139.4
125.8141,115.1
125.8184,18.4
125.8293,318.8
125.8491,800.3
125.8781,199.8
125.8797,143.8
125.9541,629.8
125.9969,585.6
126.0439,283.2
126.1004,715.6
126.1584,205.5
126.1893,367.2
126.2126,78.3
126.2448,576.1
126.2676,1021.4
126.2802,300.4
126.3196,685.8
126.3279,26.8
126.3426,910.1
126.3482,142.8
126.3994,226
126.404,161.5
126.4108,396.1
126.4121,609.6
126.4143,16.5
126.4933,89.2
126.5315,665.7
126.5581,95.2
126.6464,514.4
126.657,285.5
126.6904,279.1
126.6997,607
126.7131,696.1
126.7477,339.2
126.7501,633.4
126.78,110
126.7941,597
126.97,924.4
126.9724,372.1
126.9917,93.6
127.0184,255.5
127.0241,115.7
127.048,77
127.083,111.2
127.0874,140
127.1195,92.2
127.1415,769.7
127.1648,229.1
127.1879,377.3
127.2009,156.9
127.2268,444.3
127.2649,94.3
127.2752,370.6
127.2871,103.2
127.2996,156.2
127.3264,116
127.3603,1246.4
127.405,183
127.4388,263.4
127.4919,106.7
127.5953,118.5
127.6087,19.8
127.66,795.1
127.6744,84.8
127.6971,97.9
127.7197,139.5
127.8093,204.6
127.8607,459.8
127.9061,266.1
127.9286,211.8
127.9493,1034.6
127.9667,207
128.0019,501.9
128.0451,98
128.107,20.1
128.1454,19.4
128.2128,233.6
128.2145,372.3
128.2289,351.3
128.2569,588.4
128.3278,405.2
128.3565,101.4
128.3643,117.8
128.3826,114.5
128.4151,890.6
128.5328,438.9
128.6082,81.7
128.6184,901.3
128.6293,193.2
128.6733,263
128.7068,321.9
128.7179,1022.2
128.7221,566.5
128.7535,1138.6
128.8147,326.5
128.8243,420.4
128.8568,141.4
128.9395,87.2
128.9656,224.1
128.9701,105.5
129.0034,904.1
129.0471,327.5
129.0608,263.4
129.0659,1135.1
129.0901,300.4
129.1024,1325
129.1044,241.7
129.1186,198.6
129.1502,335.7
129.1898,97.3
129.1923,148.9
129.215,297.1
129.2193,82.1
129.2431,158.4
129.2842,418.1
129.3308,220.2
129.3567,706.2
129.3697,1076.7
129.4261,120.4
129.4292,330.3
129.519,356.4
129.5323,285.8
129.5455,425.8
129.5627,682.7
129.5715,97.9
129.6752,207.5
129.7171,158.9
129.7531,147.5
129.7563,687.3
129.8105,132.4
129.8252,913.6
129.864,100.4
129.8777,98.8
130.0007,108.7
130.0102,20.7
130.0266,20.4
130.0501,10472
130.0607,153.7
130.0649,640.9
130.0679,77.5
130.166,241.8
130.1767,108.4
130.2029,22.1
130.2146,17.8
130.2264,169.5
130.2685,17.1
130.291,524.4
130.4244,93.2
130.4484,157.6
130.4911,452.2
130.4959,225.8
130.5285,17.5
130.5601,174.5
130.6779,855.5
130.6803,742.1
130.6841,735
130.8089,109.2
130.899,98.2
130.9465,916.6
130.9711,363.2
130.9751,238.1
130.9848,214.2
131.0015,18.8
131.0122,362.3
131.0169,427.6
131.1778,118
131.214,118.5
131.2427,853.2
131.2776,175.3
131.3205,1095.7
131.3766,199.1
131.3976,18.7
131.4251,720.9
131.4367,79.7
131.4435,19.1
131.5123,79.7
131.5201,122.8
131.5806,17.7
131.5861,370.3
131.6822,17.8
131.7005,181.9
131.7607,17.3
131.7779,85.6
131.8036,134
131.8158,785.8
131.8184,256.7
131.8334,138.6
131.8858,137.2
131.8936,434.6
131.8982,157
131.9259,203.3
131.9311,133
131.9685,694.7
131.9875,24.8
132.0034,31059.9
132.0434,111.1
132.0657,110937
132.0722,184.3
132.0753,630.7
132.0803,677
132.0921,18.6
132.1056,435.2
132.1183,80.9
132.1535,301.9
132.1574,645.7
132.1772,925.4
132.2173,132.4
132.2259,323
132.2274,788.6
132.2346,594.4
132.2705,122.2
132.2796,227.5
132.2888,289.4
132.292,220.8
132.2993,23.6
132.3183,19.8
132.3193,16.7
132.3287,774.7
132.3352,760.1
132.3374,489.9
132.4059,341.3
132.4098,328.8
132.4367,844.3
132.4482,161.3
132.4754,956.7
132.4878,91.4
132.5685,539.1
132.5813,606.5
132.5953,964.2
132.6307,87.7
132.666,400.9
132.6872,149.3
132.7358,143.7
132.7665,98.4
132.7871,378.3
132.7888,222.5
132.8023,799.6
132.8243,567
132.8954,299.9
132.8981,106.5
132.9028,20.6
132.9091,169.8
132.9874,2404.6
133.0003,162.3
133.0043,461.7
133.0132,267.9
133.029,653.5
133.069,3267.2
133.0706,131.6
133.0974,21516.2
133.1127,485.5
133.1176,102.3
133.1278,208.4
133.2058,259.4
133.3447,199.9
133.3621,190.9
133.4154,460.7
133.4465,334.7
133.4953,176.4
133.5549,1002.2
133.6399,18.9
133.6565,470.8
133.66,766.9
133.691,396.2
133.7505,420.5
133.7521,255.5
133.8457,18.7
133.8573,123.7
133.9319,232.3
133.9371,15.7
133.9476,719.3
133.9565,18.2
134.0111,506.9
134.019,12261.7
134.0434,530
134.1038,77.3
134.1369,626.8
134.1486,105.8
134.1596,580.2
134.1796,95.2
134.2151,183.9
134.2484,142.3
134.2507,202.6
134.2674,118.5
134.3226,17.7
134.3646,939.1
134.3989,623
134.4035,172.1
134.4264,223.3
134.4889,128.2
134.4931,91.7
134.5284,805.1
134.7125,310.8
134.7619,154.7
134.7646,542.3
134.806,124.5
134.831,194.1
134.8574,930.3
134.8763,532.4
134.9363,400.2
134.9965,79.3
135.003,115576.7
135.0232,18.8
135.1023,266.8
135.117,21.7
135.1473,376
135.1855,126.1
135.2049,19
135.2303,293.8
135.3229,161.7
135.3452,317.2
135.3779,694
135.5017,93.9
135.5314,19.7
135.5347,384
135.5752,234.3
135.6377,18
135.652,395.1
135.6576,118.3
135.7043,295.6
135.7561,473.7
135.8156,245
135.8625,637.9
135.9029,107.9
135.94,746.3
135.9632,122.7
135.9773,3892.8
136.0065,2696.2
136.0085,467
136.0115,188.6
136.0483,2737.3
136.0759,18552.8
136.1164,254.3
136.1539,88.5
136.2009,248.1
136.2235,82.3
136.2469,790.2
136.3006,93.6
136.3184,266.2
136.3206,373.9
136.3466,463.4
136.3527,395.5
136.3612,820.8
136.3755,301.6
136.4315,84.6
136.4781,738
136.599,182.4
136.6427,754.6
136.7072,376.6
136.7602,371.7
136.8586,109.7
136.8733,237.4
136.9313,990.8
136.9505,556.4
136.9728,107.1
137.1402,617.9
137.1862,643.8
137.2201,649.9
137.226,678.2
137.2573,182.6
137.2592,206.8
137.2795,255.8
137.3149,131.2
137.452,151.4
137.4613,640.5
137.4859,790.4
137.5898,451.1
137.6857,175
137.7191,125.5
137.7377,653.6
137.7512,356
137.7554,720.9
137.7816,141.2
137.8076,98.2
137.8105,402.5
137.8134,246.7
137.8176,419.2
137.8312,244.3
137.8806,159.2
137.9168,127.6
137.998,255
138.0278,17.7
138.0528,10310.7
138.0665,37.4
138.0867,423
138.1851,140.9
138.1934,180.5
138.196,159.1
138.2577,158.4
138.2709,641
138.3021,107.3
138.3406,520.9
138.3888,565.6
138.5385,222.4
138.539,245.2
138.5396,112.4
138.6029,925.5
138.6235,669.9
138.6514,287.6
138.6603,284.6
138.7011,20.1
138.7184,590.7
138.741,891
138.7746,107.8
138.7775,165.3
138.7976,769.8
138.8092,333.3
138.8142,26.3
138.8184,441.4
138.9067,1318
138.9331,305
138.9854,247.4
138.9912,190.5
139.0016,765
139.0041,80.4
139.0296,283.4
139.1728,231.8
139.178,106.5
139.1921,19.9
139.2198,959.6
139.2891,126.9
139.2993,847.1
139.3801,256.4
139.393,166.9
139.3957,239
139.4279,254.3
139.4586,251.2
139.4633,648.5
139.5467,76
139.761,474.6
139.7733,122.5
139.809,135.5
139.9902,181.1
140.0167,1105.8
140.0241,155.2
140.0683,627
140.0884,247.7
140.1546,165.4
140.1764,336.7
140.2281,719
140.2356,76.1
140.3014,721.6
140.3571,210.8
140.3693,818.2
140.3787,99.1
140.3939,100.3
140.4475,194.3
140.4768,360.3
140.5243,444.4
140.5329,354.3
140.5436,927.7
140.5931,17.4
140.5996,777.2
140.6156,128.4
140.6752,102.2
140.6795,708.6
140.6858,110.1
140.6928,89.3
140.7861,1704.9
140.7951,607.1
140.9038,818.2
140.9044,944.8
140.905,894.4
140.9164,194.8
140.9328,318.5
140.9417,123.4
140.9653,278.8
141.0007,21546.2
141.0201,21.3
141.0459,694.7
141.0767,130.7
141.1001,163.9
141.1022,133.3
141.1404,795.8
141.1586,566.5
141.1631,126.2
141.2039,596.3
141.2544,197.5
141.3119,19.5
141.4625,19.2
141.4836,203.2
141.4898,249.1
141.5423,508.6
141.5697,159.1
141.6967,182.6
141.7494,886.2
141.7858,533.9
141.8569,152.8
141.8856,20.5
141.9215,106.2
141.9272,98.1
141.9407,1004.6
141.9497,131.3
141.9753,164.5
141.9909,163.5
142.004,425.3
142.0183,242
142.0697,598.6
142.078,627.9
142.1045,86.6
142.1361,647
142.1844,233.4
142.2543,722.7
142.2652,18.6
142.2686,366.2
142.2947,91.6
142.3068,86.5
142.3174,159.8
142.3778,376.8
142.3973,22.8
142.6101,180.1
142.6398,98.3
142.6499,176.3
142.7079,821.8
142.7586,596.2
142.8006,78.5
142.832,274.1
142.8388,602.2
142.9327,122
142.9388,143.6
142.9588,91.9
142.9965,338.9
143.0063,274
143.0257,95.5
143.0428,116.4
143.0609,663
143.0818,611.7
143.0881,127.6
143.1367,333.5
143.1468,124.1
143.2158,1048.5
143.2451,75
143.317,672.1
143.3217,21.6
143.3979,114.3
143.4032,88.7
143.4203,82.7
143.4277,354.6
143.4332,159.6
143.4394,973.1
143.4501,26.4
143.4537,140.8
143.4984,230.1
143.5124,609.4
143.5176,1058.4
143.5269,923.3
143.5498,113.5
143.577,683.8
143.6147,218.3
143.6332,101.9
143.6769,130.1
143.7161,695.9
143.8116,623.3
143.8148,381.4
143.8306,146.9
143.8509,104.2
143.8954,225.1
143.9332,125.2
143.9591,244.5
143.992,147
143.9973,878
144.063,24.9
144.0779,871.8
144.2141,82.8
144.2771,289.2
144.324,668.4
144.351,179
144.389,188.9
144.4335,457.7
144.4538,24.5
144.4902,948.3
144.5303,751.9
144.5426,245
144.5529,193.6
144.5821,109.8
144.593,132.4
144.6064,890.4
144.6229,948.6
144.6291,287
144.649,403.4
144.6819,587.2
144.7245,18.2
144.7374,138.7
144.7681,682
144.7856,617.6
144.8175,451.2
144.8609,106.6
144.8793,369.6
144.9811,2832.9
144.9891,276
144.9934,143.1
145.0713,123.9
145.109,76.3
145.1756,132
145.196,774.6
145.2499,416.1
145.2984,117.5
145.3086,371.3
145.3193,139.1
145.3937,635
145.4069,129.2
145.4561,20.2
145.4795,127.7
145.5135,288.2
145.5236,150.3
145.567,167.3
145.5795,94
145.5888,87.1
145.6028,110.2
145.6297,806.7
145.6322,254.3
145.6387,731.9
145.6446,630.1
145.6476,673.8
145.7453,113.4
145.7922,19.6
145.8139,162.4
145.8815,127.5
145.9301,17.2
145.976,22.4
145.9797,88.2
145.9833,568.2
146.0127,6560.7
146.0191,18778.8
146.03,127.9
146.0365,110.1
146.0448,19
146.0467,21.8
146.0489,373.4
146.0579,319.6
146.0644,111.7
146.1015,199
146.1845,414.8
146.1996,121.8
146.2196,639.6
146.2255,626.4
146.2589,1046
146.2786,133.4
146.3203,83.4
146.3883,299.9
146.4003,189.4
146.4716,104.2
146.4894,83.3
146.5201,357.6
146.6279,880
146.6352,166.2
146.6548,172.4
146.6686,876.1
146.6752,90.8
146.8107,948.9
146.9,207.1
146.9397,367.6
146.9621,272.8
146.9656,890.8
146.982,181059.7
147.0076,162
147.0209,92.2
147.0373,213.4
147.0675,270.8
147.0767,82621.3
147.1131,20102.3
147.117,30.7
147.1288,229.9
147.1393,352.1
147.2039,123.7
147.315,961.1
147.3506,19.9
147.4407,671.4
147.4524,341.4
147.455,545
147.482,89.7
147.571,465.3
147.5753,19.9
147.6091,684
147.6221,19.8
147.7428,1067.4
147.8467,184.1
147.9134,654
147.9372,370.8
147.9673,298.5
147.9773,1023.1
148.0679,184.7
148.0801,1396.2
148.0922,235.1
148.1082,193.5
148.1906,381.5
148.3343,89.7
148.3667,779.9
148.3927,543.8
148.4293,247.7
148.4391,232.9
148.4445,742.4
148.4652,174.5
148.5124,96.6
148.5324,5514.7
148.6813,168.7
148.6873,278.4
148.8759,22.1
148.9613,6732.1
148.981,716.5
148.9899,158.6
148.9944,864.5
149.0028,47.7
149.0188,2613.7
149.0236,5470.4
149.072,16.7
149.1074,222.4
149.1121,21.2
149.1326,32.6
149.1455,425.6
149.1615,383
149.2234,747.8
149.2257,410
149.278,552.9
149.2946,923.4
149.2989,193.3
149.3414,118.6
149.4118,414.9
149.4176,303.2
149.4621,704.8
149.5411,424.6
149.5781,382.5
149.6038,19.9
149.6302,242.3
149.699,21.6
149.7102,313.4
149.7336,253.2
149.7559,127.4
149.7597,793.5
149.7729,121.3
149.8124,437.3
149.8251,190.3
149.8594,83.9
149.8849,278.9
149.8943,140.6
149.9522,512.2
149.9755,340.3
149.9867,22.5
149.9883,82.1
149.9931,9538
150.0139,3127.5
150.0268,88.6
150.0442,415.6
150.0514,170.7
150.0931,376.8
150.1114,136.2
150.1845,147.5
150.1956,16.5
150.2443,326.8
150.2462,1227.3
150.2664,211.3
150.2711,100.5
150.3152,734.5
150.3306,376
150.3345,21.1
150.337,387.7
150.3456,20.8
150.3938,953.8
150.4257,19.7
150.4441,245.8
150.4646,445
150.5745,215.7
150.5941,108.6
150.61,288.9
150.6366,124.3
150.6777,473.1
150.6813,259.9
150.7616,669.2
150.7823,169.1
150.8248,742.6
150.8367,91.3
150.8565,85
150.8893,148.4
150.9032,173.4
150.9323,220.5
150.9489,605.1
150.9771,81758.2
150.9843,146.6
150.9891,214.3
150.9928,582.3
150.9954,129.7
151.0272,316.2
151.0481,2695.1
151.1156,88.7
151.1219,605.5
151.124,157.7
151.2181,17.2
151.2591,142.9
151.275,868.5
151.302,995.7
151.3707,206.1
151.4008,691.7
151.4089,913.1
151.439,141.8
151.4853,87
151.4991,680.3
151.5044,124
151.5192,385.7
151.5715,201.5
151.619,1053.4
151.7447,332.2
151.7525,902.1
151.8686,130.9
151.8896,223.3
151.8982,580.6
151.9571,168.8
151.9657,626.9
151.9745,363.7
152.0223,7998.9
152.0321,3809.6
152.127,16.5
152.1821,98.8
152.232,216.5
152.2369,256.2
152.2584,247.5
152.3041,272.3
152.3381,140.3
152.353,17.3
152.4819,126
152.4933,18.5
152.5171,127.1
152.556,357.2
152.7024,164.2
152.7318,952.7
152.7792,272.6
152.7932,632.9
152.8071,268.1
152.8711,397.7
152.8861,600
152.909,725.2
152.9366,234.6
152.9526,694.8
152.9752,4618.1
152.9975,123.6
153.0002,139.6
153.0518,374
153.1028,127.8
153.1093,968
153.1527,284
153.1759,184.1
153.1818,251.4
153.2155,149.3
153.2554,19.5
153.2682,1322.6
153.4679,74.1
153.4849,193.4
153.5469,711.2
153.5481,642.3
153.5703,246.1
153.5923,260.3
153.62,380
153.6712,189.7
153.698,191.3
153.7762,95.3
153.779,78.7
153.7856,22.2
153.8202,161.6
153.866,1055.9
153.887,672.2
153.9445,741.3
153.9589,294.7
153.9794,76.9
154.0115,914.9
154.0229,20.9
154.0267,1493.8
154.087,367.1
154.0905,695
154.0997,1066.5
154.3162,18.9
154.4267,83.3
154.4379,292.4
154.4411,263.9
154.4449,138.4
154.4555,361.3
154.4997,120.9
154.5156,136
154.5398,102.6
154.5666,184.8
154.6219,586.1
154.7537,925.9
154.7743,160.7
154.8341,191.1
154.9079,53.4
154.9417,24.7
154.9693,674.3
154.9786,476.6
155.0494,775.4
155.0542,4134.8
155.0733,16.7
155.0867,765.3
155.0938,214.6
155.1098,112.1
155.1185,346
155.1551,17.1
155.1945,84.8
155.2035,927.1
155.2773,85.4
155.3525,279.3
155.3687,225.4
155.3933,1125.7
155.4038,412.3
155.4715,129.1
155.53,107.1
155.6444,104.9
155.6822,405.5
155.7058,301
155.7223,127.2
155.8239,18.3
155.8749,248.3
155.9226,444.8
155.9449,687
155.9566,1021.6
155.9897,364.2
156.0205,395.3
156.0422,1226.6
156.0509,509.9
156.0576,92.2
156.0771,66607.5
156.0867,263.2
156.0891,96.5
156.0972,121.2
156.2442,19.6
156.2604,169.9
156.2722,101.7
156.2824,138.8
156.2973,18.4
156.3122,17.6
156.3324,283.8
156.4018,723.5
156.4124,894.2
156.4292,19.2
156.5015,19.5
156.5261,331.7
156.5441,120.8
156.5555,625.9
156.6636,901.1
156.6773,364.6
156.7578,892.7
156.8236,473
156.8507,115
156.8569,612.1
156.9145,141.2
156.9326,169
156.9706,178
157.0533,1055.4
157.0974,206.5
157.1259,649.1
157.1286,89.2
157.1481,118.9
157.2205,102
157.2267,174
157.2767,94.6
157.3236,205.6
157.3575,184
157.3959,709.8
157.4255,1019.4
157.4616,19.8
157.4876,973.6
157.5185,74.7
157.676,907.2
157.6876,236.3
157.7126,134.6
157.756,378
157.7679,689.4
157.8325,172.8
157.8458,124.1
157.8735,113.4
157.9007,123.1
158.013,536.6
158.0273,4423.9
158.0564,284.5
158.1534,1099.5
158.1643,332.9
158.2027,111.6
158.228,234
158.2332,134.5
158.2354,291.2
158.2445,571.9
158.3209,20
158.3247,286.5
158.3393,18.8
158.3644,255
158.447,709.5
158.5416,20.2
158.5505,137.2
158.6452,160.8
158.6833,158.1
158.6953,221
158.8276,355.9
158.8543,143.4
158.8632,679.8
158.8683,339.5
158.895,136.6
158.9281,1957.9
158.959,634
158.9644,5805.4
158.9968,5413.4
159.0115,50.8
159.0307,188.8
159.0623,483.8
159.0698,86.9
159.0786,122.3
159.0918,441.4
159.1188,167.1
159.1827,19.3
159.227,389.7
159.2559,1026.9
159.2841,660.6
159.3126,424.1
159.3465,709
159.3541,273.7
159.3546,289
159.4867,291.9
159.6215,584.5
159.7047,199.2
159.7111,116.5
159.7349,281.8
159.7786,373.6
159.7994,159.7
159.8049,107.6
159.8179,461.3
159.8394,557.6
159.8498,154.6
159.8639,668
159.8943,755.5
159.9485,164.1
159.9532,1227.2
159.9847,133.5
160.023,56.4
160.0269,385.8
160.0348,18801.4
160.0608,115403.4
160.2109,376.6
160.2485,183.8
160.2679,21
160.2707,231
160.2897,176.6
160.3416,88.6
160.3584,17.4
160.3721,137.9
160.3964,104.3
160.4581,1097.1
160.5077,1101.3
160.5103,101.7
160.5223,576.8
160.5743,148.9
160.5932,141.4
160.5957,971.1
160.6061,16.7
160.6353,195.4
160.6408,73.9
160.6665,112.5
160.6999,156.1
160.704,282.2
160.7684,18.9
160.8225,130.2
160.8572,722.5
160.8827,127.9
160.8998,101.6
160.9148,224.8
160.9449,395.7
160.9622,327.5
161.0158,187.6
161.0337,820.8
161.0641,5462.2
161.0865,108.1
161.1288,8488.2
161.1515,291.8
161.2472,189.2
161.3612,826.6
161.3841,83.4
161.4135,798.6
161.4606,108.6
161.5048,317.2
161.5162,738.5
161.5185,107.8
161.7241,223.4
161.7303,117.6
161.7941,391.1
161.7985,1053
161.8103,17.5
161.8952,18
161.9078,148.2
161.9637,23.4
161.985,250.1
162.0504,12023.4
162.0884,874
162.1017,642.1
162.1699,316.4
162.2292,155.5
162.2379,1069.5
162.2747,314.6
162.2917,138.4
162.3233,144.6
162.353,352.1
162.3636,1035.9
162.4042,19
162.4493,144
162.4961,85.2
162.4981,801
162.5059,99.3
162.5161,130.7
162.5349,171.4
162.553,541.9
162.6618,140.2
162.6778,304.5
162.6972,463.3
162.7278,283.5
162.7351,884.9
162.7377,325.1
162.8444,125.1
162.8546,987.5
162.8618,630.9
162.913,18.8
162.9229,198.9
162.9347,139.5
162.9472,747.1
162.9561,9291.5
163.0159,1867.1
163.0234,255
163.0317,265
163.0346,607.1
163.0548,321.3
163.1079,240
163.2962,214.6
163.3225,115.4
163.4098,245.6
163.5968,233.7
163.6015,72.2
163.627,114.8
163.6357,722.2
163.6446,618.1
163.658,160.4
163.6723,645
163.7009,226.3
163.7345,142.5
163.7531,798.6
163.7696,132.4
163.7728,449.3
163.8155,18.4
163.9011,131.6
163.9056,132.6
163.9893,161.2
164.0236,577.2
164.0298,13526.2
164.053,872.5
164.1017,86
164.1268,724.2
164.1719,152.1
164.1877,814.9
164.2396,370.4
164.2763,691.2
164.2833,231
164.4374,99.7
164.5212,1014
164.5624,79.5
164.5981,190.7
164.6433,85.2
164.6875,232.3
164.7012,307.1
164.7213,703.2
164.8928,220.5
164.9208,7020.6
164.9304,11054.7
164.9354,2196.2
164.9928,1590.1
165.0079,95.4
165.0858,414.6
165.0914,631.9
165.14,609.4
165.1641,122.5
165.2324,138
165.3237,82.1
165.3277,200.7
165.3365,755.9
165.3386,208.5
165.3544,217.2
165.3607,77
165.3922,71.2
165.4135,17.3
165.4527,392.8
165.6239,232.9
165.6432,112.2
165.6496,146.8
165.7119,316.7
165.7356,177.5
165.7745,329.8
165.7914,17
165.843,590.9
165.8641,131.3
165.9238,1020.2
165.9576,219.5
165.967,1695
165.9721,236.3
165.9792,2707.2
165.988,4940.7
165.9955,47.5
166.0065,208.8
166.0156,18.2
166.0419,255
166.0493,260.3
166.1122,179.4
166.1314,119.1
166.2322,572.9
166.2474,411.6
166.4155,105.3
166.4422,608.3
166.5547,243.5
166.5935,702.9
166.6007,132.6
166.6422,103.5
166.6762,273.6
166.7301,150.8
166.7671,150.4
166.8931,20.3
166.8985,558.8
166.9511,37491.1
167.0222,7825
167.0268,81.6
167.0631,400.6
167.0823,208
167.1411,126.4
167.1647,82.5
167.2089,768
167.252,332.1
167.2648,375.6
167.3416,17.4
167.3429,18.7
167.4224,169.5
167.5137,274.3
167.5612,132
167.6599,625.9
167.6737,266.4
167.7019,16.8
167.7529,130.1
167.7567,444.6
167.7747,751.1
167.7805,161.9
167.8049,19.7
167.8353,116.9
167.9376,117.1
167.9795,350.4
167.9948,2642.1
168.1101,266.3
168.1203,995.3
168.2447,400.7
168.2556,133.4
168.2905,18.5
168.4156,311.8
168.4281,194.5
168.4775,280
168.4878,826.9
168.5594,118.7
168.6116,140.3
168.6374,18.7
168.6983,505.3
168.7027,633.3
168.7828,670.8
168.8131,89.9
168.8436,843.4
168.9493,3975
168.958,22.7
169.0201,833.8
169.031,274.2
169.0366,19
169.0466,139.2
169.0588,84619.1
169.0656,978.5
169.0832,120.9
169.0953,1205
169.0975,798.5
169.1715,239.6
169.2007,123.6
169.244,213.3
169.2469,160.2
169.3278,692.1
169.4136,366.2
169.4209,362.5
169.4845,433.7
169.5059,1242.2
169.5629,369.5
169.5908,118.7
169.592,112
169.6468,215.6
169.6718,623.2
169.6796,101.1
169.6815,179.7
169.6988,199.6
169.7052,227.2
169.7141,258.8
169.7434,83.4
169.7818,1073.9
169.8505,107.8
169.855,398.7
169.86,710.7
169.8655,383.2
169.9861,1486.2
170.0329,707.8
170.0617,425
170.0928,726.1
170.1035,196.2
170.1444,219.1
170.1631,136.8
170.1735,727.4
170.3385,756.5
170.4831,149.5
170.494,369.7
170.5342,19.3
170.5421,128.2
170.5515,19.9
170.5923,16.3
170.6239,314.8
170.6344,87.8
170.6495,92.9
170.7096,137.5
170.7689,715.3
170.8474,22.8
170.8547,3181.2
170.8609,207.9
170.9247,1037.6
170.9438,410
171.0148,243.7
171.0171,1904.9
171.0282,334.4
171.0538,17.3
171.0604,213.6
171.1124,120.8
171.1236,243
171.1846,1002.3
171.2317,585.4
171.2746,653
171.2991,287.8
171.3129,908.6
171.33,457.7
171.4641,566.1
171.4738,570.1
171.5181,347.1
171.5418,428.3
171.5718,118.2
171.6316,96.2
171.6407,116
171.746,339.8
171.7677,854.8
171.799,171.4
171.9889,314.5
172.0286,619.1
172.1069,117.8
172.1075,114.9
172.1083,103.5
172.1343,484.9
172.1657,196.2
172.1704,19.2
172.1899,174.8
172.2667,107.8
172.3146,16.8
172.3169,291.1
172.3467,391
172.4199,263.5
172.4713,126.2
172.5623,615.3
172.5728,139.9
172.6504,206.5
172.7011,16.9
172.7402,22
172.7427,18.4
172.8237,20.6
172.8516,1895.2
172.9454,272.1
172.9544,397
172.9872,357.4
173.027,333.5
173.0302,898.4
173.0463,539.3
173.1009,752.6
173.1326,216.6
173.1649,660.6
173.1711,307.2
173.2318,218.3
173.3256,25.5
173.3264,23.7
173.3277,17.4
173.3417,97
173.3879,106.5
173.4459,18.1
173.4667,475.9
173.5198,397.8
173.5588,210.6
173.5593,211.7
173.5755,98.8
173.5792,278.4
173.6062,637.2
173.6136,314.9
173.6878,645.1
173.7073,82.4
173.7156,200.1
173.725,23.6
173.7269,813.6
173.7826,162.4
173.7868,21.3
173.8042,919.5
173.8072,73.9
173.876,111.5
174.0665,1000.2
174.0717,18.4
174.1157,97.9
174.2059,343.9
174.2424,519.8
174.2715,191.5
174.3079,719.5
174.3254,383.2
174.462,104.2
174.4698,113.1
174.5593,123.3
174.6952,730.9
174.7107,18.1
174.7229,813.4
174.7752,20.8
174.8301,109.8
174.9384,1357
174.9745,160
174.9852,40.5
175.0209,287.5
175.0346,15015.3
175.0458,3708.8
175.0582,781
175.0679,635.8
175.1194,44053.9
175.1362,372
175.1454,21.4
175.1484,226
175.1904,137.8
175.2766,273.3
175.3073,101.8
175.3157,110.6
175.3192,18
175.3998,420.4
175.418,343.6
175.4333,88.5
175.5327,109.6
175.696,119.9
175.7602,147.8
175.8131,158.5
175.8588,938.3
175.9361,160.8
175.9575,765.4
175.99,99
176.0001,168.2
176.0088,8975.9
176.0313,20.9
176.0662,24889.3
176.0712,710.9
176.1034,1715.1
176.1306,799.4
176.16,174.7
176.2691,404.3
176.3349,521.3
176.4281,428.1
176.4766,728.2
176.574,81.5
176.5797,477.9
176.5866,244.4
176.6058,145.1
176.6121,1205
176.6386,622.6
176.7924,73.8
176.8012,19
176.8356,793.4
177.0252,5046.4
177.0615,4790.4
177.0694,886.5
177.0875,325.2
177.1037,137.8
177.1644,124.5
177.2159,491.5
177.2178,967
177.2616,162.4
177.2926,443.2
177.3068,143.2
177.3724,874.2
177.3896,125.6
177.4179,330.6
177.4329,267.8
177.4771,413.6
177.5196,19
177.6072,393.2
177.6161,300.1
177.6338,398.6
177.6514,95.3
177.8495,398.5
177.9174,126.1
177.958,631.3
178.0091,10770.3
178.0245,7269.8
178.0315,223.2
178.0591,4124.8
178.1252,939.3
178.1969,251.6
178.2363,337.9
178.2694,190.1
178.2933,98
178.4958,530.6
178.5044,805.1
178.5164,126.8
178.5589,218.5
178.5905,82.5
178.7233,186.4
178.7924,17.5
178.8014,19.3
178.9244,132.9
179.0048,147.1
179.0084,459
179.0517,97.8
179.0636,326.3
179.0779,745.4
179.0858,938
179.1222,694.5
179.2583,99.9
179.2854,1100.7
179.3812,117.1
179.3886,82.5
179.4552,334.4
179.5069,257.3
179.5296,137.8
179.6036,181.6
179.627,370.9
179.6361,646.2
179.6594,566.4
179.6925,22
179.7508,449.4
179.7672,984.6
179.7776,489.6
179.8995,724.5
179.9044,69.3
180.0037,7846.9
180.0158,689.6
180.0413,203.3
180.0678,17.6
180.0933,645.6
180.2545,76.2
180.2619,106.2
180.2865,298.3
180.381,163.4
180.4181,18.7
180.443,340.2
180.5606,616.6
180.5731,352.1
180.683,421.6
180.6939,97.4
180.7078,169.3
180.7129,229.5
180.7392,18.6
180.7659,160
180.7831,165.5
180.8421,640
180.8632,19.5
180.8948,2662
180.9044,7237.4
180.9286,81.1
181.0255,637.8
181.0654,12257.7
181.2198,517.8
181.2777,767.5
181.2861,418.8
181.2896,18.8
181.3432,19.7
181.5465,124
181.6257,119.8
181.6492,172.3
181.6647,17
181.6804,106
181.6836,88.1
181.8126,104.3
181.8644,299.2
181.9621,610
181.9813,444.4
182.0016,432.7
182.0217,581.7
182.0429,41831.7
182.0868,168.2
182.1135,143
182.1512,204.4
182.1985,918.8
182.3054,22.2
182.4454,18.5
182.5708,196.9
182.5776,814
182.6711,378.5
182.8646,243
182.8687,419.4
182.8713,352.8
182.9028,72.3
183.0251,178.7
183.0324,330.5
183.0447,2743
183.0984,146.8
183.1563,147.3
183.1953,130.1
183.4382,24.5
183.4404,179.7
183.5761,436.6
183.6128,320.4
183.6146,609.7
183.7425,80.7
183.8037,137.4
183.8121,199.6
183.8405,233.4
183.9652,1334.1
184.0065,112.5
184.0226,752.6
184.0372,163.7
184.0661,211.4
184.0738,5173631.5
184.0962,17.7
184.1825,1516.5
184.201,19.5
184.2316,212.1
184.313,93.7
184.3365,73.7
184.3739,818.1
184.423,374.4
184.5732,94.6
184.5839,200.2
184.7467,181.2
184.8044,153.2
184.807,163.1
184.8223,19.6
184.8527,138.6
184.8977,900.4
184.9885,125.2
185.0103,609.4
185.0289,249.6
185.0328,82837.7
185.0535,949
185.0708,9006.7
185.0771,241701.3
185.1106,113.8
185.2258,82.2
185.2777,172.1
185.3362,631.8
185.37,677.5
185.399,239.4
185.4231,371.5
185.5142,19.1
185.7073,796.4
185.7395,16.7
185.7782,236.5
185.7988,188.6
185.9123,220.6
185.9146,242.3
185.9256,720.8
185.9384,89.9
185.9603,568.2
186.036,1228
186.0781,31387.5
186.1032,104.1
186.2254,21.3
186.2298,456.6
186.3071,175.5
186.3629,177
186.4605,396.3
186.4998,276
186.5329,265.6
186.5402,792.6
186.554,788.1
186.6901,491.2
186.765,19.8
186.8772,373.9
186.9817,180.5
187.0309,2744.8
187.0581,2615.9
187.0719,2084.3
187.1082,40569.4
187.1169,106.2
187.1231,23
187.1287,138.1
187.133,158
187.1955,156.2
187.2149,126.7
187.2206,21.1
187.2815,608.6
187.3,126.5
187.3234,304
187.4568,491.6
187.4742,131.7
187.5193,720.2
187.5393,116.3
187.5993,142.7
187.6397,885.5
187.675,611.3
187.6899,22.9
187.7759,257.2
187.8754,408.7
187.8906,358.4
187.9421,315.7
187.9641,819.1
187.9708,269.4
187.9777,779.6
187.995,260.7
188.0085,923
188.069,571.9
188.0794,127.2
188.111,514.5
188.2139,1048.2
188.2644,149.9
188.3644,891
188.4517,233.3
188.618,272.9
188.6355,82.5
188.6968,88.6
188.802,1001.4
188.8263,416
188.8676,139.3
188.936,148
188.9599,19.2
189.0039,440.7
189.0152,300.5
189.0584,834.2
189.0615,2329.2
189.0826,1095.9
189.0875,11258
189.127,138.2
189.152,109.7
189.1791,537.3
189.2554,227.8
189.2599,353.3
189.2622,544.7
189.3946,243.1
189.4321,1164.1
189.4505,607.2
189.4636,158.3
189.541,275.9
189.5532,203
189.6315,574
189.6708,142.7
189.6918,611.1
189.7461,521.9
189.7619,718.3
189.8403,492.7
189.9481,305.5
189.986,133.8
190.1326,411.2
190.1744,110.9
190.2123,299.4
190.2355,181.4
190.298,931.8
190.3203,157.4
190.3655,169.4
190.4636,747.3
190.4678,143
190.5387,91.8
190.5454,225.8
190.585,767.3
190.7049,104.5
190.7831,296.6
190.7891,327.4
190.7952,98.7
190.8187,1030.8
190.9062,174.6
190.9333,345.6
190.9442,448.8
190.9894,135.7
191.0085,11708.3
191.0408,138032.8
191.0772,14405.6
191.1425,299.1
191.1589,788.4
191.1819,114.3
191.4307,330.2
191.4451,122.6
191.5157,413.5
191.572,145.4
191.6291,1177.7
191.6947,170.1
191.7005,366.2
191.8129,742.6
191.8268,352.5
191.8834,696.2
191.9419,80.5
191.9827,585.8
192.0212,342.9
192.0225,373.8
192.0402,15592.8
192.044,4054.4
192.0662,75.2
192.0732,197.2
192.0831,263.8
192.1309,118.5
192.1586,552.7
192.164,888.2
192.1929,809.6
192.2428,1052.3
192.2805,465
192.3307,155.7
192.3509,440.6
192.3543,208.3
192.3617,491.5
192.3735,428.8
192.4334,370.3
192.4375,260.7
192.4907,217.2
192.5416,119
192.5891,85.2
192.6119,171
192.6403,652.8
192.7423,311.5
192.7609,507.6
192.7728,317
192.7858,213.9
192.8507,234.6
192.9814,18.7
192.9989,5483.1
193.0024,203.2
193.0355,715.1
193.0665,362.8
193.0787,101.3
193.1485,137.5
193.1865,18.3
193.1916,16.8
193.2145,28
193.2353,205
193.2901,74.7
193.324,21.1
193.3277,79.7
193.3621,335.1
193.3941,110
193.4434,16.4
193.541,227.3
193.6112,130.5
193.6436,715.1
193.6804,679.5
193.8177,130.1
193.8411,127.5
193.8666,96.2
193.9764,101.7
193.9984,3193.5
194.0053,3124.5
194.0106,558.7
194.0202,396.9
194.0226,438.6
194.0328,1150
194.1188,267.7
194.1352,234.3
194.1543,138.2
194.1734,421.8
194.2758,889.8
194.2874,247.1
194.2951,188.6
194.3165,136.1
194.3861,408
194.4036,69.4
194.4124,725
194.4427,80.7
194.4563,299.3
194.5227,156.2
194.5375,561.3
194.5505,115.1
194.5715,124
194.6326,188.9
194.6584,267.9
194.6925,144.7
194.6964,362.1
194.7667,233.4
194.8476,18.7
194.8934,124.1
194.9164,709.5
194.9283,288.3
194.9674,86.5
194.9857,638
195.0446,112.4
195.049,79.1
195.1225,976.2
195.1946,769.4
195.2009,128.9
195.236,138.5
195.3182,123.2
195.3448,154.8
195.3677,801
195.3734,17.4
195.5427,397.3
195.5614,132.2
195.7019,364.2
195.8047,23
195.9209,187.4
195.9409,116.7
195.9776,1322.3
196.0284,123.8
196.061,225.3
196.0766,162.3
196.0795,122.7
196.0871,19.9
196.1701,387.1
196.2482,20.4
196.2655,19.6
196.2956,204.3
196.3729,355
196.4507,801.7
196.6175,637.3
196.7106,587
196.7752,387.8
196.7797,718.3
196.8657,3657.1
196.8688,1148.9
196.8783,1457.9
196.9329,1070.6
196.9784,82.8
196.9855,276.1
196.9985,443.1
197.0079,107.9
197.0241,131.3
197.1852,409.4
197.1877,188.1
197.2609,486.7
197.2686,127.6
197.3027,644
197.3159,183.5
197.3246,804.5
197.5023,106.3
197.5075,649.4
197.5566,1062.6
197.6237,702.1
197.6391,621.7
197.6773,143.8
197.6856,262.9
197.6958,137.6
197.7069,203.4
197.8042,529.7
197.8842,297.5
197.9606,92.4
198.0077,209.1
198.0485,1366.5
198.0855,7444.4
198.09,708.5
198.0931,967.2
198.117,81.4
198.1337,661.1
198.1558,258.3
198.1858,6782.3
198.2366,432.8
198.2711,715.3
198.306,182.7
198.3171,314.1
198.3462,264.5
198.4628,600
198.5045,152
198.5849,432.9
198.5998,199.8
198.631,16.4
198.7668,532.6
198.7698,868.6
198.8034,425.2
198.8354,132.2
198.8627,2959
198.8744,741.7
198.9113,671.7
198.9607,260.7
199.0404,92.9
199.076,3098.2
199.0807,146
199.1893,411.9
199.2624,138.4
199.3692,96
199.3936,389.7
199.399,205.2
199.4321,678.8
199.4758,256.2
199.4863,19.8
199.4919,77.9
199.6185,379.9
199.6589,127.5
199.7125,810.3
199.8225,80.2
199.8325,138.7
199.9082,725.2
199.9274,925.6
199.9721,81.4
199.9912,32515.6
200.0411,13823.7
200.0448,618
200.0486,738.3
200.072,256.8
200.0748,611.5
200.0954,116.8
200.124,12374.6
200.1407,134.5
200.1693,75.2
200.2045,112.1
200.2068,337
200.2228,647.2
200.2433,71.3
200.3428,275.6
200.396,620.2
200.6349,224.2
200.6407,511.4
200.6562,113.4
200.6691,234.3
200.8597,1413.4
200.9063,665.5
200.9247,120.4
200.9751,19.1
201.0208,199.7
201.0512,97.8
201.055,283.5
201.0875,303.6
201.1786,129.5
201.2181,216.7
201.2277,974.8
201.3078,313.1
201.4197,222.6
201.4677,19.3
201.5793,662.7
201.6859,165.4
201.7539,404.5
201.7754,87.9
201.7944,176.2
201.8225,274.4
201.8648,37.2
201.8692,217.6
201.9639,115.2
202.0588,144.8
202.1345,119
202.1693,238.1
202.1917,506.1
202.2675,933.9
202.4872,205.2
202.4972,16731.3
202.581,1341.8
202.6145,113
202.6326,429.7
202.7138,120.6
202.7752,173.5
202.7859,110.3
202.7975,797.3
202.8892,220.8
202.9367,22.2
202.9432,438.9
202.9609,943.3
202.9995,19.7
203.0084,488.8
203.0176,150.7
203.0321,629.9
203.0532,1140434
203.0773,10086.5
203.1838,135
203.2342,519
203.447,100.6
203.5157,535.1
203.5213,21.1
203.5406,867
203.5994,166.2
203.6384,83.6
203.6572,502.8
203.844,83.1
203.8777,18.5
203.89,123.8
203.9459,24.3
203.9636,380.4
203.9731,740.1
204.0249,53083.5
204.0565,58294.9
204.0798,178
204.2946,248.9
204.3308,20
204.4027,166.9
204.4122,422.4
204.4517,160.5
204.5178,18.9
204.6468,115.3
204.6993,383.8
204.7248,122.8
204.8183,504.6
204.8211,109.8
204.8576,608.4
204.9035,179
204.934,896.9
204.9497,202
204.9702,667.6
205.0284,785.2
205.0382,690.9
205.0418,157.9
205.0574,5608.4
205.0839,126.6
205.093,652.1
205.0982,728.4
205.1032,379.9
205.1451,664.5
205.1782,273.5
205.3181,846
205.3317,682.5
205.3674,231.8
205.41,182.7
205.4182,296.2
205.439,672.2
205.4569,523.3
205.5056,138.5
205.5503,215.3
205.562,457.8
205.5983,254.8
205.6944,621
205.7514,19.2
205.8021,23.5
205.8228,305.1
205.8422,629.1
205.8907,804.3
206.0426,155.8
206.0458,978
206.0558,2166.7
206.1195,191.9
206.1325,214.5
206.1499,20.5
206.197,125.3
206.2282,795.2
206.2426,148.1
206.2605,626.7
206.3422,844
206.3673,635.6
206.368,624
206.6117,370.9
206.6182,709
206.6874,17.8
206.7127,712.3
206.7542,121.7
206.79,114.1
206.7974,561.1
206.8944,9061.4
206.9826,6579.2
207.0148,100298.6
207.0448,3136.3
207.0511,7266.4
207.3082,867.5
207.3117,104.3
207.3359,326.7
207.4114,257
207.4689,966.5
207.473,396.3
207.5129,411.1
207.5419,113.2
207.5876,663.5
207.5965,269.9
207.6858,213.5
207.6973,227.4
207.8339,116.4
207.8936,291.2
207.9325,144.9
208.0007,763.6
208.0139,1528.2
208.0182,1954.4
208.1887,428.6
208.2582,123.5
208.3232,169.4
208.353,130.9
208.4039,149.9
208.4458,18.3
208.5263,244.1
208.5703,17.4
208.6269,630
208.6614,608.7
208.754,95.8
208.7547,95.2
208.7899,172
208.8607,17.5
208.8834,108.4
208.8915,8392.9
208.9357,880.9
208.9553,89.3
208.9744,679.7
208.9911,1073.8
208.9994,223.2
209.0128,4125.2
209.0225,100.6
209.1373,623.7
209.1555,82.9
209.1798,204
209.2422,941.1
209.2845,1018.2
209.2997,387.7
209.3299,118.8
209.3362,678.6
209.4209,754.5
209.4245,710
210.7001,750.9
210.7557,228.8
210.9435,149.5
210.9528,137.5
211.054,395.7
211.0567,438.9
211.0695,721
211.0798,108.9
211.1742,1049.3
211.177,7055.4
211.1829,16088
211.1848,20205.1
211.1867,18671.1
211.1905,19977.6
211.1948,28087
211.1994,34337.9
211.2026,14790.8
211.2059,9406.9
211.2155,368
211.2577,111.7
211.583,83.6
211.6697,964.4
211.7147,920.5
211.7253,19.4
211.8114,129.1
211.9145,540.5
211.9174,157.4
212.0234,19.2
212.0301,226.3
212.0745,138.9
212.0797,185.6
212.083,308.9
212.1127,18.5
212.2714,148.2
212.2822,850
212.3486,18.7
212.4901,118
212.5304,21.3
212.538,512.8
212.6261,351
212.6321,173
212.6331,173.6
212.7229,111.9
212.8165,100.8
212.8395,1554.1
212.8583,202.3
212.9629,741.6
212.9651,19.1
213.0551,1568.4
213.0671,106.8
213.1031,150.4
213.1771,20.5
213.2508,459.7
213.3056,905.7
213.3804,265.9
213.4536,411.7
213.5226,193.3
213.5382,277.8
213.5667,746
213.8721,19.6
213.9625,70.6
213.9851,379.2
214.0595,9558
214.0803,395.3
214.0902,874.6
214.2318,17.2
214.4315,180.7
214.4782,598.5
214.5027,324.7
214.5957,439.1
214.5999,161.4
214.6019,178.2
214.6319,174.9
214.6475,164
214.6879,110.3
214.7376,145.2
214.7685,145.1
214.8127,17.7
214.8364,1269.7
214.9183,108.2
214.9692,861.9
215.0011,21.5
215.0931,32.5
215.1705,349.1
215.1796,152.6
215.2318,95.7
215.3462,524.5
215.3505,341.8
215.3666,681.6
215.3713,872.2
215.3743,241
215.3885,442.7
215.4468,683.9
215.4782,123.7
215.4931,491
215.5531,19.2
215.6555,710
215.6653,112.3
215.6814,101.9
215.7163,18.8
215.7588,123
215.8247,117.8
215.9534,710.6
215.9645,632.6
216.0151,9738.3
216.0182,1065.6
216.024,260.1
216.0521,352.4
216.0698,18.5
216.1295,106.8
216.1454,1081.7
216.2513,104.5
216.3206,108.4
216.3438,345.7
216.3551,393.5
216.3897,222.4
216.4284,170
216.4623,104.4
216.4904,156.2
216.5942,616.9
216.6423,359.9
216.6466,99.1
216.661,194.3
216.6916,313.4
216.7479,1440.6
216.8013,982.5
216.8088,97.8
216.9233,25578.3
216.9541,132.5
216.9573,870
216.9848,53.6
217.0013,559.1
217.0193,25.2
217.0842,540.6
217.1073,164.8
217.2009,143.5
217.2311,96.5
217.2934,421.7
217.3369,728.8
217.3481,265.1
217.3926,667.6
217.401,686.5
217.4795,473.2
217.5038,147
217.6626,749.1
217.6669,100.6
217.7388,93.3
217.8145,196.8
217.9156,126.7
218.0159,69
218.0439,334.1
218.0557,98.2
218.0804,647.4
218.0892,21.1
218.1517,39.9
218.2075,108.6
218.2689,951.5
218.3375,100.4
218.3596,1027.3
218.4123,655
218.5367,642.5
218.7284,120.8
218.8649,193.1
218.9111,133.6
218.9203,7343
219.0178,1725.9
219.0271,1379386.6
219.0835,584.1
219.0861,18
219.1424,18.9
219.1529,358.8
219.1909,143.8
219.2784,635.8
219.6292,186.1
219.74,126
219.9989,617.5
220.0305,70269
220.0388,130.7
220.0675,8916.4
220.1677,383.3
220.2738,285.5
220.4074,17.8
220.4833,339.5
220.5414,1110.3
220.5589,22.7
220.573,374.7
220.7477,940.1
220.7572,143.7
220.7872,674.6
220.854,23.8
220.8558,25.9
220.9891,746.2
220.9954,671.7
221.0194,1558.9
221.0253,83620.1
221.0313,9899.1
221.0514,1998.5
221.0658,886.3
221.0849,113
221.088,318.2
221.1705,19.4
221.177,341.9
221.1866,140
221.2043,169
221.3706,716.3
221.4065,1027.1
221.5162,190.4
221.6826,350.9
221.7289,152.7
221.747,397.5
221.7503,321.5
221.8818,21.6
221.8925,162.8
221.9421,188.2
221.9568,229.9
221.9842,3793.4
221.9886,294
222.0027,835.9
222.0284,1807.3
222.1015,166.8
222.1339,425
222.1549,104.7
222.2066,756.3
222.2401,703.8
222.3138,860.6
222.3879,174.3
222.437,737.6
222.4519,836.5
222.4834,165.6
222.5331,131.8
222.5571,700.4
222.8043,88.4
222.8684,11615.5
222.8892,491
222.8988,23.7
222.9148,763
222.9888,13030.1
223.0369,972.1
223.0647,19.4
223.0734,188.8
223.0908,140.6
223.094,518.9
223.1079,415.9
223.157,379.4
223.2559,373.9
223.267,105.3
223.2769,612.8
223.2916,456.1
223.4239,19.2
223.4983,235.1
223.5099,18.5
223.5271,17.9
223.55,160.3
223.6275,401.4
223.9537,49.9
223.9678,309.9
224.03,394.9
224.1393,448.9
224.1714,88.5
224.1936,528.1
224.2278,126.3
224.3183,435.8
224.4243,347.6
224.4535,757.4
224.5502,795.8
224.5747,179.1
224.5857,258.2
224.6169,99.7
224.6449,718.9
224.7103,105.1
224.7242,190.1
224.7435,21.1
224.7883,731.5
224.7961,95.2
224.8344,201.2
224.8391,187.6
224.8654,6491.6
224.9493,1161.4
224.9549,172.5
224.9864,409.7
225.0553,37874.9
225.0853,461.7
225.0906,109.4
225.0943,131.8
225.1306,108.9
225.2126,71.9
225.3241,330.3
225.3855,784.2
225.4928,910.7
225.5176,220.9
225.5829,115.5
225.5961,1281.1
225.6281,873.8
225.9165,302.7
225.9366,1016.7
225.9526,55.6
226.0025,92.1
226.0069,868.9
226.0246,7844.8
226.0457,6068
226.0802,121.5
226.1112,692.8
226.2197,18.3
226.3373,1252.1
226.3416,1111.5
226.3489,18.3
226.4026,685
226.429,112.1
226.548,758.8
226.5635,126.4
226.6107,465.8
226.6553,282.8
226.7311,157.2
226.7351,98.9
226.752,203.5
226.7626,987.5
226.7775,89.4
226.7863,21.1
226.8054,442.4
226.8977,741
226.9025,876.7
226.9521,16276.8
226.9605,191.6
227.0111,264
227.0346,1685
227.0705,75.8
227.0799,1460.7
227.087,206.6
227.2849,1060.8
227.3696,145.4
227.4186,940.6
227.5368,123
227.541,182.4
227.5949,765
227.7078,170.9
227.7784,952.9
227.8463,109
227.9006,182.8
227.9533,147.6
228.001,1253
228.0225,1766.3
228.0846,342.7
228.1323,128.3
228.1522,1072.8
228.2353,135.8
228.2622,763.4
228.3301,641.4
228.3516,1089
228.4525,542.3
228.5093,120.8
228.5268,795.9
228.6273,20.8
228.7229,20.2
228.775,307.6
228.8253,624.1
228.878,235.4
228.8889,109.5
228.8919,121.5
228.9244,670.7
228.9337,18.4
228.992,826.4
229.0294,146.2
229.1263,220.2
229.1549,23.5
229.2565,124.4
229.2925,599.5
229.3078,438.3
229.3581,96.5
229.3665,135.2
229.3758,78.8
229.4442,175
229.4742,157.8
229.4942,832.4
229.6976,16.1
229.756,195.5
229.7708,274.1
229.9575,174.9
229.9952,686.3
230.0338,235.9
230.1297,112.8
230.206,599.1
230.2569,86.7
230.5515,449.4
230.5698,838.3
230.6009,740.9
230.7608,116.9
230.7725,117.9
230.8091,249.9
230.8853,16.7
230.8902,21
230.9015,433.2
230.9271,179.3
230.9908,62.3
231.014,17.5
231.0201,1006.2
231.0559,136.5
231.0676,119.4
231.0846,4057.6
231.0988,1006.3
231.1319,137.9
231.1455,240.3
231.2065,17
231.3079,292.9
231.3232,20.9
231.4569,81.4
231.6426,513.2
231.7397,925.4
231.9262,18.1
231.991,297.6
231.9958,323.9
232.0255,101.2
232.0752,102.9
232.1974,18.3
232.2123,246
232.3725,129.9
232.3938,662.9
232.3997,701.7
232.4128,19.5
232.4279,217.3
232.4601,312.1
232.4633,121
232.5561,733.3
232.621,198.7
232.6666,928
232.6972,505.8
232.766,23.1
232.836,103.5
232.8675,104.8
232.8972,24561.8
232.9843,586.4
233.0428,78.7
233.0516,9852.3
233.0638,20.5
233.1422,84.6
233.1914,18.3
233.3268,19.3
233.3312,17.7
233.4369,137.4
233.4755,360.4
233.4869,373.9
233.5527,92.7
233.7187,172.3
233.7267,785.8
233.8486,245.8
233.8692,263.5
233.9243,433
233.9369,352.3
233.9859,580.5
234.0004,153.7
234.0266,133.5
234.0313,77.2
234.051,74.1
234.114,113.2
234.1443,952.8
234.1707,19.7
234.2478,734.8
234.2688,261.3
234.3197,20.1
234.8445,629.3
234.8941,5834.3
234.9147,923.6
234.9242,367.1
234.957,92.3
234.982,5724.1
234.9936,17.6
235.0575,945.5
235.0673,971.1
235.0932,20241.5
235.1764,17.5
235.2674,129.8
235.3852,929.1
235.4478,364
235.4598,18.5
235.4904,121.3
235.5537,108.8
235.69,365.4
235.6994,136.5
235.7279,463.4
235.7638,482.5
235.7683,738.2
235.8025,670.7
235.8757,115
235.9047,675
235.9084,78.2
235.9339,279.6
235.9658,95.1
235.9708,346.2
235.9913,389.2
236.0112,87.6
236.0174,33.4
236.0413,6444.2
236.0476,395.3
236.0722,39482.2
236.0964,267.3
236.1159,17.2
236.1391,120.2
236.2349,140.4
236.2789,156.1
236.3332,383.9
236.4644,383
236.579,99.8
236.646,334.8
236.6918,410.4
236.7867,422.7
236.9027,220.1
236.923,125.8
236.9455,186.1
236.961,882.8
237.023,313.2
237.0677,376.4
237.0715,39.1
237.0755,1110.7
237.1086,18.9
237.236,384
237.2565,886.4
237.3438,655.1
237.6689,117
237.8908,232.6
237.9514,23.7
237.9995,138.6
238.0301,900.4
238.0357,439.4
238.0411,19.5
238.068,411.4
238.1618,217.8
238.2317,458.3
238.3942,444.6
238.4123,163.9
238.4291,278
238.5901,695.3
238.7196,238.2
238.832,919.6
238.8424,3090.3
238.854,517.1
238.8644,89.3
239.0492,106.9
239.0529,98.8
239.0586,663.9
239.0643,1384.9
239.0686,1921.6
239.1825,382.8
239.1894,301.5
239.2017,109.9
239.2371,21.2
239.3104,122.1
239.3978,170.1
239.408,376.9
239.4152,509.5
239.4467,826.8
239.4529,337
239.4607,103.6
239.5004,670.3
239.5334,265.2
239.5899,173.4
239.5931,791.9
239.7214,29
239.9877,959.1
240.0572,776.1
240.0908,645.7
240.0998,2381.7
240.1058,743.8
240.117,19.9
240.1297,654.8
240.2358,203.6
240.3109,190.9
240.3609,255.6
240.4437,204.5
240.4639,1009.2
240.5233,391.7
240.537,121.5
240.5664,18.4
240.617,132.7
240.6523,81.2
240.8389,1431.8
240.8422,253.2
240.8528,158.9
240.8681,93.4
240.9551,1045.1
241.0185,118.3
241.05,106.1
241.0856,111.8
241.2812,167.2
241.2962,1079
241.3069,334
241.3103,940.8
241.3131,130.9
241.357,388.4
241.4832,412.8
241.5464,130.4
241.5787,116
241.7168,92
241.8463,74.2
241.9406,1106.7
241.9801,134.7
241.9988,441
242.0197,4044
242.0331,169
242.1103,88.5
242.1387,131.8
242.1824,749.1
242.276,80.5
242.4456,370.6
242.6046,149.6
242.6368,464.6
242.7049,280.5
242.791,105.3
242.8361,110.8
242.8722,260.7
242.8955,146.3
242.9261,10121.1
243.0335,374.8
243.0537,4760.5
243.0659,16083.3
243.3133,137.9
243.4868,80.9
243.5639,94
243.5993,455.3
243.6665,327.6
243.6874,209.9
243.7153,156
243.7339,586.3
243.7663,114.4
243.7737,88.1
243.7891,120.9
243.8346,368.9
243.9285,1293.6
243.9406,110.2
243.9563,949.4
243.9731,81.8
244.0133,379
244.1219,1002.3
244.1709,75.1
244.1993,435.7
244.2624,129.6
244.4279,166.4
244.4788,831.6
244.4885,19.4
244.4926,720.1
244.4939,793.5
244.4952,654.3
244.5504,147.5
244.735,76.9
244.8714,2711.1
245.0068,22.1
245.0158,25.1
245.0755,767.9
245.236,705.9
245.4104,129.7
245.4435,19.4
245.5023,148.6
245.6645,327.7
245.7093,135.9
245.7191,1103.2
245.7786,254.5
245.7959,814.4
245.8639,447.9
246.0017,181.7
246.0112,70.7
246.1023,260.9
246.1262,665.4
246.1546,127.4
246.1744,75.4
246.2187,155.6
246.5423,86.2
246.5466,209.2
246.5717,85.9
246.6014,445.1
246.6751,18.4
246.744,265.4
246.7602,18.9
246.8788,109.2
246.9182,1021
247.0369,1892.2
247.0585,3994.2
247.0673,1589.6
247.0932,5528.3
247.1016,200.2
247.1067,208.8
247.1334,287.6
247.1582,311.4
247.2419,317.1
247.3211,255.8
247.3655,1172.2
247.4811,240
247.4958,971.7
247.5226,943.9
247.6284,447.6
247.7417,313.6
247.8892,148.7
247.9017,409.6
248.0974,183.6
248.1247,7294
248.252,220
248.3805,419.2
248.4781,18.5
248.5333,640.9
248.7049,115.5
248.8024,79.6
248.8712,8022.8
248.8821,457.4
248.8908,159.6
248.9106,1197.5
248.9478,99.3
248.9599,572
248.9641,289.9
248.9997,588.8
249.0166,1273.2
249.0617,13103
249.0799,109
249.096,270.2
249.1095,194.7
249.1448,478.1
249.1603,768.5
249.3012,87.3
249.3718,854.7
249.5853,176.9
249.877,160.7
249.9347,105.9
249.988,159.1
250.0714,754.5
250.1663,1054.8
250.2865,125.4
250.3637,117.5
250.3811,705.6
250.4582,652.1
250.7,169.5
250.7456,848.7
250.7499,73.6
250.8675,1239.2
250.8947,20.9
250.921,2581.6
250.9559,1391.4
250.9955,231
251.0009,91.5
251.0343,2034.3
251.1875,153.4
251.2141,120.9
251.2218,384.4
251.2561,113.2
251.2756,16.6
251.3513,696
251.4859,254.5
251.5965,770.2
251.637,133.7
251.6526,642.4
251.7932,263.5
251.911,140.2
251.9991,20.7
252.0213,175.6
252.0366,161.1
252.0463,98378.4
252.1111,948
252.1186,353.1
252.1934,153.7
252.2753,145.3
252.3589,614.4
252.3896,837.6
252.4205,120
252.4697,902.5
252.4844,16.9
252.5118,272.7
252.8308,18.6
252.9179,868.5
252.9956,939.9
253.0496,6794.4
253.0674,488.2
253.0712,20.1
253.1515,404.3
253.1963,87.1
253.3613,77.4
253.404,672.3
253.4846,143.1
253.5048,702.8
253.5219,340.6
253.5236,337.9
253.529,516
253.534,296.2
253.5411,17.7
253.5669,724.9
253.5886,83.1
253.6586,913.8
253.6931,245.9
253.7096,277.2
253.7152,219
253.9399,302
253.9732,496.9
254.003,99.7
254.0444,3323.1
254.2951,378.9
254.3712,72.3
254.5296,222.2
254.5397,508.8
254.5459,524.1
254.6963,900.1
254.7206,168.7
254.8023,639.5
254.8166,687.3
254.8244,4403.8
254.8938,125.8
254.9038,110.1
255.0336,24912.3
255.0382,1012.6
255.0473,728.9
255.152,167.5
255.1575,558.8
255.2183,979.3
255.2612,235.2
255.3669,285.6
255.3744,179.7
255.4031,754.2
255.4432,17.4
255.6452,750.2
255.6506,108.3
255.693,731.3
255.7185,798.9
255.7345,20.8
255.8293,733.1
255.8513,103.5
255.9202,493.7
255.9885,301.9
256.059,197.5
256.0675,175.4
256.1398,122.5
256.1615,109.2
256.1792,119.7
256.2258,164.5
256.2366,809.8
256.2738,446.4
256.3355,188.2
256.3653,127.1
256.5338,93.3
256.5407,72.9
256.8216,5405.3
256.8746,216.9
256.8798,110.3
256.9703,166.6
257.0168,92.6
257.0491,5445.3
257.067,728.7
257.0752,62992.3
257.1459,525.6
257.1558,235.2
257.1623,285.1
257.308,597.6
257.3315,22
257.5521,472.9
257.7566,108.3
257.7645,398.3
257.8165,681.3
257.8663,104.7
257.9392,87.7
257.9673,816.7
258.0217,141.1
258.0283,73.5
258.0707,131.2
258.0787,1892.8
258.1109,39600.8
258.2651,311.5
258.2803,107.5
258.2954,380.5
258.3055,251.9
258.3363,974.6
258.3514,133.3
258.3845,652.6
258.4781,649.6
258.5792,667.4
258.6482,154.4
258.6523,973.4
258.7777,409.5
258.8186,1828.6
258.9001,941.1
258.9281,20.9
259.0277,505.8
259.4102,319.6
259.4829,858.2
259.5264,630.3
259.5783,826.6
259.6323,106
259.6492,280.9
259.8205,263
259.8294,98.4
259.897,117.7
259.9401,114.8
259.9465,521.4
259.9683,19.5
260.0177,24.8
260.0383,1067.2
260.4081,819.4
260.466,575.2
260.6161,120.7
260.6465,286.2
260.891,178.9
260.9496,6815.5
261.047,374.6
261.084,603
261.1487,143.7
261.285,322.7
261.3633,121
261.4291,100.6
261.4989,619
261.5653,335.2
261.6295,208.1
261.6886,348.7
261.7143,108.3
261.8515,845.3
261.8758,175.5
261.9358,909.1
262.0284,102.7
262.0567,706.9
262.0629,107.8
262.0827,1304
262.1174,23.4
262.1368,413.7
262.6935,924.1
262.7447,829.1
262.9038,626.4
262.9192,184.2
262.9465,1554.9
263.0858,866.1
263.0984,148.5
263.1413,765.7
263.309,717
263.4865,176
263.5578,157.8
263.6017,356.6
263.7842,171.6
263.9514,416.7
263.9997,280.6
264.0126,25
264.0773,104.4
264.0938,169.9
264.1006,118
264.1041,258.1
264.1738,591.8
264.2158,660.4
264.2258,129.2
264.2698,21.8
264.3769,350.2
264.4416,255.1
264.5552,707.6
264.6849,233
264.6863,237.1
264.7308,885.3
264.8533,2210.3
264.934,1406
264.9887,190.4
265.017,240.7
265.0357,8028.7
265.0481,3188.2
265.0653,280.8
265.1555,105.6
265.2707,81.3
265.2999,103
265.4368,249.9
265.4677,211.8
265.5016,22
265.526,20.3
265.5821,780.3
265.5992,992.3
265.6909,555.4
265.8209,150.3
265.9391,85.2
265.9878,205.9
266.028,348.5
266.0383,129.1
266.0584,84.8
266.087,683
266.2043,911.9
266.2413,226.7
266.3022,23.5
266.3972,598.6
266.4011,759.2
266.5775,169.4
266.8504,1670.8
266.8557,500.7
266.864,20.5
266.8949,2552.1
266.9124,467.6
267.008,276.9
267.0145,162.8
267.0894,173.1
267.1783,857.1
267.3558,800.4
267.6131,133.5
267.6472,1293.7
267.6583,141
267.6643,144.8
267.6983,829.3
267.7926,176.4
267.8113,437.2
267.8289,960.3
267.875,168.6
267.9769,22.4
268.0168,121.3
268.0322,232.3
268.0559,83.7
268.1052,475.9
268.1899,108.4
268.2362,115.6
268.2497,384.3
268.3737,138.5
268.4232,793.1
268.537,17.8
268.6562,105.2
268.7457,883.9
268.8848,1227
268.8915,902.5
268.9196,1032.2
268.9945,87.7
269.0126,74.1
269.0288,205.8
269.0329,284.6
269.0455,23462
269.0493,43519.5
269.0658,119.2
269.099,228.3
269.1297,865.9
269.2191,280.6
269.2203,277.3
269.2256,19.8
269.3523,404.3
269.3717,375.8
269.5186,83.9
269.5983,616.8
269.6701,100.1
269.6874,85
269.827,228.9
269.8758,112.7
269.9473,389.9
269.9783,247.9
270.0254,620.9
270.048,28966.5
270.0538,254.6
270.0743,362.8
270.1028,776.8
270.1123,397.1
270.1455,1834.8
270.4491,138.4
270.6427,1199.9
270.6577,75.3
270.6768,150.5
270.7093,91.6
270.7608,86.4
270.7988,2261.8
270.8513,439.2
270.8739,123.5
270.914,152.3
270.9784,13008
270.9892,189.8
271.0248,557.9
271.0514,459.4
271.0784,906.4
271.0909,1457.2
271.4611,106.9
271.4723,426.9
271.512,349
271.6514,18
271.6616,95.9
271.8402,134.9
271.8483,22.9
271.9186,822.7
272.0436,130
272.0479,37.3
272.0809,282.1
272.0909,265.5
272.0972,916.1
272.2755,407.3
272.295,413.1
272.356,79.2
272.4235,652.2
272.4805,183.6
272.6043,135.3
272.7952,2681.5
272.8805,647.7
272.9242,138.8
272.9728,595.7
273.0109,378.3
273.0493,5615.8
273.1745,503.1
273.242,154.5
273.3517,468.6
273.4265,371.4
273.4444,706.5
273.4766,654.6
273.7944,121
273.9061,108.6
274.0695,202.5
274.0927,3085.2
274.1672,163.1
274.2263,148.3
274.3699,258.2
274.4175,98.8
274.4461,19.7
274.4691,700.4
274.4996,902.9
274.5161,19
274.5256,552.3
274.5893,150.6
274.7195,235.6
274.7925,1313.6
274.8877,460.9
274.9833,710
275.0607,105.3
275.0659,395.8
275.0797,335.3
275.1023,285.4
275.1122,107
275.1527,239.8
275.2176,100.8
275.238,257.6
275.2479,399.9
275.2631,142.4
275.322,19.5
275.3646,20.1
275.5565,102.2
275.616,105.8
275.6537,127.5
275.7436,365.4
275.7777,435.5
275.9145,1201.2
275.9419,382.1
275.944,324.5
275.9924,363.4
276.0042,159.6
276.0851,69.4
276.0905,179.5
276.107,766.3
276.4785,89
276.5632,264.1
276.6762,239.9
276.8166,246.2
276.8822,21.7
276.9236,8339
276.9846,824.7
277.0109,259
277.0291,107.2
277.051,92.3
277.0657,662.2
277.1226,157.3
277.139,108.4
277.2017,1092.4
277.3572,966.3
277.3723,98.3
277.5208,1393.3
277.537,77.1
277.5977,197.3
277.6181,272.4
277.908,16.8
277.9458,115.8
278.0029,124.2
278.0077,436.2
278.0195,507.5
278.1122,596.7
278.1943,390.8
278.2609,117
278.2994,251
278.3562,594.6
278.4283,963
278.5269,20.9
278.5523,21.5
278.6434,184.6
278.6959,108
278.834,781.2
278.9206,1606.6
278.9291,358.5
278.961,844.6
279.0031,316.8
279.0573,44357.3
279.1114,208.3
279.119,198.7
279.4733,446.7
279.5429,157.7
279.5766,129.9
279.6406,20.7
279.6443,1168.5
279.7798,830.6
279.8073,720.4
279.826,591.2
279.8394,534.9
279.8551,1020.6
279.8972,23.1
279.9456,381.7
280.0163,313.2
280.0607,683.1
280.0931,458.2
280.3398,271.6
280.3554,847.4
280.3585,956.2
280.3677,92
280.5361,121.5
280.758,657.4
280.788,20
280.8274,986.2
280.9187,20.2
280.9457,268.3
280.9744,110.7
281.0097,2169.2
281.0228,1056.1
281.0518,158.4
281.0573,722.7
281.1679,100.5
281.1882,726.9
281.2357,234.3
281.2476,122.6
281.3281,198.1
281.5985,147.8
281.8968,134.9
282.0155,188.6
282.0653,547.2
282.0904,118.4
282.1382,28.7
282.1757,413
282.1928,22.9
282.2839,242.3
282.4353,96.5
282.4543,471.2
282.6365,812.7
282.8245,622.8
282.8689,474.4
282.9056,25
282.9255,163.7
282.9441,131.9
282.9678,845.8
282.9999,96.9
283.0285,792.1
283.0648,1055.5
283.0884,230.3
283.1285,312.6
283.191,125.6
283.2274,220.8
283.3142,98.7
283.4213,476.4
283.4536,93
283.4632,116.6
283.5898,303.8
283.6433,194.6
283.7007,849.6
283.773,503.3
283.784,125.5
283.7916,19.5
283.8123,19
283.8182,357.8
283.8896,924.6
284.0522,31.7
284.064,445.5
284.1192,253.5
284.1605,1644.8
284.2385,18.6
284.2548,146.4
284.2732,611
284.4349,92.6
284.4926,91.7
284.5478,118.7
284.6499,171.2
284.7212,145.4
284.781,77.6
284.8033,128.2
284.8169,862.2
284.866,663
284.9598,93.9
284.9837,401.5
285.0227,616.9
285.0906,22.7
285.1069,135.3
285.1247,1829.2
285.2554,19.4
285.2709,483.9
285.4363,112.6
285.4418,208.1
285.4711,812.4
285.5237,168.1
285.5807,133.1
285.5985,797.1
285.7517,150.5
285.9142,884.7
286.0036,98.4
286.0201,196.6
286.0365,144.8
286.0428,24.7
286.0639,715.5
286.0966,69.1
286.1997,19.7
286.5416,124.1
286.6843,583.5
286.7099,198.3
286.7724,1145
286.7844,540.9
286.8,87.5
286.9174,1218.7
286.9524,7069.1
286.961,416.2
286.9987,90.4
287.0142,132
287.056,53025.6
287.1357,408.6
287.1395,1188.8
287.1439,525.8
287.1796,872.1
287.5488,574.2
287.5723,353.8
287.5764,996.5
287.5875,990.3
287.7244,762.2
287.7347,285.8
287.8113,1249.7
287.9765,203
287.9873,245.9
287.9965,434.3
288.014,46.5
288.0592,2681.4
288.0851,176.8
288.0925,256.5
288.1012,126.5
288.1268,134.6
288.1355,294.3
288.1563,79821.3
288.2446,176.8
288.3024,395.5
288.3333,165.8
288.4245,113.6
288.4412,85
288.6282,807.8
288.7693,1767.2
288.8164,977.9
288.8286,3340.3
288.8331,1450.2
288.8384,5628.8
288.8454,9262.6
288.8491,9978.8
288.8555,10024.1
288.8626,10623.4
288.8683,17538.4
288.87,17665.2
288.8759,20635.8
288.8833,25269
288.8921,30517.1
288.898,29817.3
288.9085,23067.3
288.9165,16363.1
288.924,7800.4
288.9283,7457.9
288.9346,3891.1
288.937,3648.9
288.9435,4504
288.9573,772.3
288.9629,534.9
288.9693,345.3
288.972,384.1
288.9754,173.5
288.9803,188.4
288.9878,245.9
288.9905,191.3
289.0378,168.8
289.0619,245.6
289.0746,235.3
289.1596,5081.9
289.2385,198.4
289.2995,128.9
289.351,247.1
289.3933,190.2
289.4224,406.7
289.5992,103.9
289.6186,84.5
289.6446,233
289.8461,112.8
289.8594,94.5
289.8774,237.1
289.9298,541.1
290.1009,54.3
290.271,619
290.2762,20.6
290.3074,973.6
290.3933,438.5
290.4089,727.6
290.5536,774
290.7668,649.6
290.88,169.6
290.9402,173.3
290.9615,129.3
291.0273,3916.4
291.0461,143.4
291.0581,148
291.2994,17.6
291.345,256.9
291.6337,19.8
291.7645,105.7
291.8082,18.5
291.8494,108.3
291.9222,1004.1
291.972,1259.9
292.0058,138.6
292.0283,660.8
292.0752,454.9
292.0802,147.1
292.1033,558.1
292.2439,1116.1
292.2941,273.5
292.516,111.1
292.5377,765.1
292.5543,700.6
292.5636,407.8
292.6578,172.7
292.7201,632.7
292.7352,398.7
292.7735,253
292.8883,799.9
292.8974,1647
292.9136,123.7
292.9986,21.3
293.0495,934.8
293.073,2987.4
293.0989,540254.6
293.1538,917.7
293.1799,7247.7
293.3676,987.1
293.5023,210.1
293.5056,17.8
293.5201,959.7
293.5484,121.3
293.5644,591.6
293.6286,111.8
293.6772,413.7
293.7241,653.8
293.8486,226.4
293.8636,1079.6
294.0961,584.9
294.1023,50420.7
294.2849,1088.6
294.3607,161.4
294.6301,731.7
294.7914,290.7
294.882,156.1
294.8942,468.5
294.9296,23.3
294.9912,574.5
295.0258,504.2
295.0315,1228
295.1028,2928
295.1203,155.3
295.1483,134.3
295.1954,39968.6
295.2061,200.1
295.241,107
295.2863,86.1
295.3821,443.9
295.4406,19.2
295.4868,156.5
295.4969,343.8
295.6476,214.5
295.7542,160.4
295.7791,131.4
295.9006,964.8
295.9591,147.1
295.9949,24.3
296.02,373.7
296.1042,106.7
296.119,165.2
296.1639,20.2
296.1987,2969.4
296.3712,593.3
296.6016,408
296.6314,737.7
296.8259,22
296.9882,248.7
297.0254,213.6
297.0848,327.6
297.1245,1651
297.1572,1996.1
297.4773,216
297.4974,19.5
297.5581,345.9
298.0107,121.9
298.043,18171.5
298.0564,911
298.1606,24.6
298.1867,726.8
298.1992,189.6
298.3394,186.2
298.3737,747.3
298.5895,187.5
298.6072,79.5
298.6587,112.6
298.8738,265.1
298.9255,1470.8
298.9773,169.5
298.9869,190.8
299.0237,3418.5
299.0463,1485
299.1072,412.5
299.1399,33036.8
299.1915,202
299.1969,1432.7
299.3303,343.4
299.3384,962.5
299.588,239.9
299.7909,136.4
299.8314,170.2
299.843,211.5
299.933,19.1
299.9442,829.5
300.0388,249.9
300.0493,53.1
300.0761,473.2
300.1437,674.7
300.1773,117.8
300.197,27.4
300.3117,21.4
300.3625,19.9
300.3908,20.9
300.4041,383.7
300.4243,216.3
300.4553,293
300.6106,268.3
300.6145,564.2
300.6177,795.3
300.6201,870.1
300.6747,238.9
300.7769,107.6
300.8048,20.5
300.812,623.7
300.8234,19.8
300.8564,382.4
300.907,21.3
300.9375,95.6
300.9894,747.9
301.0392,23868.7
301.0762,23.7
301.1419,218.8
301.151,80.3
301.1644,118.7
301.2056,105.4
301.2122,4675.1
301.2456,766.9
301.537,99.3
301.6065,660.8
301.6516,353.4
301.7854,268.2
301.8479,219.5
301.9464,1176.6
301.9863,20.1
302.0127,454.2
302.0204,135.5
302.0357,99.8
302.0421,434.1
302.0646,4874.4
302.2479,532.2
302.5307,22
302.5544,252.2
302.6191,775.4
302.6321,149.2
302.6672,1049.8
302.679,21.4
302.6905,293.8
302.694,20
302.6986,649.5
302.7077,954.8
302.8081,587.1
302.8215,165.2
302.8298,1223.6
302.9255,783.7
303.0382,139.8
303.068,425.5
303.109,197.5
303.1778,460.4
303.2177,4618.3
303.2298,2267.5
303.2785,163.8
303.4946,180.1
303.525,24.7
303.6271,156.4
303.6309,657.5
303.6586,203.7
303.7372,794.5
303.813,155.7
303.8745,113.5
304.0614,304.9
304.1601,211.5
304.1713,411.5
304.2138,194
304.2321,195.3
304.3146,111
304.4741,1177
304.4906,845.9
304.6042,146.6
304.739,160
304.9609,344.4
304.9766,2059.5
305.0335,608.3
305.0666,644.6
305.2333,3272.8
305.2602,373.5
305.294,289.6
305.3155,94.8
305.3467,936.7
305.3548,504.6
305.5241,155.8
305.6838,573.8
305.8497,149.8
305.9964,1047.9
306.0618,1084.9
306.0959,118.2
306.3958,983.2
306.4182,644.8
306.5235,19.6
306.6317,324
306.667,194.4
306.8471,117.6
306.8546,144.5
306.9089,95.6
306.9201,134.2
306.9583,504
307.1248,537.2
307.1322,89.5
307.5767,93.8
307.8808,147.6
307.8971,239.6
307.9584,534.4
308.0085,402.9
308.0901,91.4
308.1308,147.9
308.2381,641.5
308.4016,20.8
308.4574,448.9
308.5099,190.1
308.5552,212.8
308.7743,163.7
308.787,73.6
308.8674,454.9
308.8797,3738.5
308.9568,882.4
309.0069,356.8
309.0218,92.7
309.0383,4223.2
309.083,1257.2
309.1222,779.3
309.1359,155.2
309.1659,85.5
309.192,155.5
309.2411,17.5
309.4556,607.3
309.5917,133.4
309.7097,157
310.0293,21.5
310.1023,191.6
310.2179,839.2
310.5587,228.1
310.5762,1147.3
310.6697,138.7
310.7486,1205.2
310.7798,302.4
310.8203,21.9
310.869,265.4
310.8766,2537.8
310.9502,120.7
310.9669,24.9
310.9921,138.9
311.0035,174
311.0726,762.8
311.2737,185.5
311.4664,77.3
311.5593,117.4
311.6603,746.2
311.8427,311.8
311.9834,236.1
312.025,353.1
312.0542,131.2
312.1085,180.3
312.1473,141.8
312.1868,206.7
312.1916,782.9
312.5332,323.1
312.6221,738.1
312.7513,1049.7
312.7802,740.7
312.8412,588.3
312.8585,1051.1
313.0026,138
313.0118,386
313.0807,108.1
313.1583,203.1
313.1925,843.3
313.2747,86921.9
313.4367,235.9
313.4483,304.1
313.4706,21.6
313.5445,724.5
313.614,211.7
313.6189,202.4
313.7206,89.7
313.7899,150.1
313.8456,113.6
313.9483,346.3
314.0151,170.8
314.0735,379.7
314.0915,226.6
314.1781,149
314.2779,12591.6
314.2923,416.1
314.3931,742
314.5075,868.9
314.6624,157.9
314.776,168.3
314.8376,6033.1
314.9879,588.6
314.9997,5023.7
315.0049,1884.5
315.046,765.9
315.0506,1516.8
315.0527,3227.5
315.0562,7634.3
315.0588,4349.5
315.0609,5932.1
315.0632,7114.6
315.0671,27298.3
315.0702,34745.8
315.0721,20894.8
315.0809,10443055
315.0892,27165.5
315.0914,20162.3
315.0934,14630.9
315.0956,9833.6
315.0984,7520.7
315.1029,5157.6
315.1048,4042.2
315.1071,3513.3
315.1138,1072.2
315.1154,882.9
315.1199,403.6
315.1437,426.1
315.1621,5090.3
315.2412,416.7
315.3243,6783
315.4194,228.4
315.4874,742.4
315.5629,435.4
315.5686,179.4
315.6189,108
315.7291,148.7
315.756,243.5
315.846,927.7
315.8723,377.6
315.8958,124.4
315.9243,228.3
315.9675,288.9
315.9804,835.3
316.0538,23.5
316.0641,700.2
316.0691,1759.3
316.0784,55361.8
316.0842,1086287.8
316.2381,145.1
316.2778,286.4
316.3284,249
316.4433,167.6
316.9874,1286.8
317.0571,804.8
317.0659,1865.2
317.0848,126642.3
317.1282,502.6
317.2112,219.3
317.4656,818
317.4777,362.2
317.4919,246.4
317.7546,111.1
317.771,230.6
317.8793,450
318.0512,387.1
318.0663,676
318.0883,11423.4
318.1315,119.8
318.153,100
318.2215,1134.9
318.3026,414.1
318.3225,132.3
318.494,178.8
318.5837,20.7
318.7632,860.5
318.7935,52.8
318.8038,622.1
318.8132,335.7
318.9086,546
318.9579,23.2
319.1089,732.4
319.1207,425.9
319.1508,132.7
319.1633,20.5
319.1883,18
319.1955,70176.8
319.2107,94.5
319.2771,408.4
319.3991,312.5
319.4534,778.7
319.4595,167.3
319.517,228
319.7764,20.7
319.8024,407.1
319.8138,233.5
319.9211,184.6
320.0572,17.5
320.0752,188.6
320.0885,947.8
320.1045,354
320.1567,368.2
320.1666,876.1
320.1986,11960.6
320.2495,1042.7
320.2592,1673.7
320.9053,619.7
320.9338,157
320.9504,555.7
321.111,506
321.1224,98.6
321.2112,71357.6
321.2241,892.4
321.2628,116.6
321.4104,363
321.6307,17
321.6897,402.6
321.7822,126.8
321.9628,127.3
322.0097,240
322.1138,179.6
322.2142,7646.6
322.4774,355.8
322.5833,398.5
322.7269,641.3
323.0214,10137.3
323.2266,4369.6
323.2401,665.7
323.3693,381.7
323.6022,371.5
323.7676,285.5
323.9464,104.4
323.962,175.3
324.0056,122.1
324.0354,1119.8
324.5499,487.8
324.6078,6499.5
324.6147,7284.7
324.6223,3524.2
324.8537,1964.3
324.9286,451.1
324.9483,189.8
324.967,918.4
325.0029,423.7
325.1164,2962.8
325.1248,101.3
325.1522,1092.3
325.1954,129.8
325.2021,96
325.2124,11316.3
325.2876,101
325.3186,812
325.3426,447.2
325.3871,110.8
325.7879,277.8
325.7931,123.8
325.9884,656.2
326.0053,52.7
326.0207,378.4
326.1263,264.2
326.1717,400.7
326.3665,214.4
326.5855,169.8
326.6215,158.3
326.7621,145.6
326.8015,20.5
326.8506,1994.2
326.9498,151.3
326.9821,707.4
327.0088,148.2
327.0161,5033.8
327.1044,96.3
327.228,23239.2
327.3741,787.5
327.41,108.1
327.421,103.3
327.429,107.9
327.6019,24.8
327.9753,379.3
328.0776,147.3
328.1125,169.6
328.2316,2171.2
328.2397,645.4
328.3957,128
328.4291,1739.3
328.4366,1013.4
328.4492,191.8
328.4591,498.7
328.4921,345.8
328.5453,311
328.6034,118.5
328.8021,134.8
328.847,392
329.0678,163.3
329.0967,1742.2
329.1763,589.9
329.1892,220
329.2437,265.5
329.3347,189.1
329.4849,799.5
329.5276,435.4
329.5619,356.4
329.7526,692
329.8002,189.1
329.8491,638.8
329.9043,355.3
329.9938,207.4
330.051,821.6
330.0594,223.3
330.3258,18.1
330.7073,116.1
330.7761,18.5
330.9109,461.8
330.9677,413.6
330.9776,548
331.0207,372.7
331.0356,180
331.0461,174486.8
331.0548,1614753.3
331.0683,263.3
331.1098,268.6
331.1265,264.1
331.3202,448.9
331.3851,649.2
331.4224,107
331.4875,417.7
331.5365,20.6
331.5422,841.6
331.6877,252.1
331.6981,21.4
331.727,83.8
332.0422,172.4
332.0487,12845.2
332.0582,142890.4
332.1778,543.4
332.2362,207.4
332.4985,201.7
332.7246,173.5
332.7534,126.7
332.8388,502.9
332.9259,98
332.9921,465.1
333.0012,377.7
333.053,94638.4
333.0585,15742.5
333.0846,294.1
333.2436,153.6
333.4962,781.5
333.7891,146
334.0563,9124.6
334.0628,368.5
334.0908,76.7
334.2007,254.8
334.4471,21.6
334.4543,1096.2
334.6163,18.8
334.6571,195.1
334.8278,20.5
334.8556,947
335.0001,470.6
335.0389,878.8
335.1808,311.4
335.2211,213.3
335.2295,209.5
335.3685,686.3
335.4016,125.1
335.6046,333.6
335.6624,110.2
335.6943,264.1
335.8446,115.4
335.9861,380.3
336.0071,653.2
336.0561,260.2
336.1094,96.3
336.2644,283.7
336.2715,20.8
336.3001,679.1
336.6603,446.6
336.8529,129.6
336.8926,20
337.0371,12847
337.0504,30188.2
337.0629,808785.3
337.0806,671
337.1403,174.8
337.2299,840.8
337.236,1424.7
337.2748,26000.9
337.2947,561.2
337.5217,226.5
337.592,19
337.6744,702.5
337.7012,138.6
337.8589,184.8
337.9259,231
338.0497,543.9
338.0662,71877.9
338.2783,1383.7
338.3427,25.3
338.478,366.4
338.5367,249.5
338.6154,794.1
338.7414,345.5
338.7847,698.3
338.8147,668.8
338.8217,427.9
338.8733,122.5
338.9347,189.8
338.9818,123.2
339.0392,3068.2
339.048,1480.2
339.0668,6756.3
339.2519,7279.7
339.2904,17810.4
339.3554,186.2
339.3782,296
339.4338,161.4
339.6266,310.4
339.6614,772.1
339.8378,391.1
339.9165,195.3
340.021,419
340.0505,235.5
340.151,160.5
340.2499,354.8
340.2932,1609.4
340.3116,139.7
340.3399,117.1
340.3788,128.7
340.542,418.6
340.8148,123.9
340.999,660.8
341.0186,73.2
341.0634,303.7
341.0995,22.5
341.1455,132.9
341.306,8405.2
341.3889,114.2
341.4539,343.7
341.5046,116.6
341.5452,174.5
341.6122,19.4
341.6665,877.3
341.7855,114
342.1972,20.6
342.2029,1048.8
342.2215,117.4
342.4768,139.3
342.6722,25.2
342.8097,289.2
342.914,136.3
342.9895,1307.3
343.1955,10091.7
343.244,1073
343.2824,204.6
343.5155,214.2
343.754,498.9
343.8976,1071.4
343.9088,642.6
343.9463,201.8
344.014,20.9
344.0305,217.9
344.1555,151.8
344.2822,124.1
344.4713,442.1
344.5511,549.7
344.5878,1042.1
344.6141,184.6
344.743,119.9
344.773,85
344.8696,618
344.959,223.3
345.0828,391.7
345.1553,94.2
345.1698,94.3
345.211,3037.8
345.2893,149.2
345.4432,119.7
345.5356,327.9
345.6412,108.5
345.6655,409.8
345.9083,125.8
345.9843,2013.2
346.3957,96.7
346.6528,270.8
346.7212,134.9
346.809,80.6
346.8176,123.5
346.8985,456.1
346.9061,233.6
346.9664,80.2
347.2406,1317.7
347.4735,383.1
347.5768,257.1
347.5794,248.7
347.6286,377.5
347.9015,1133.7
347.9435,17.5
348.1191,515.9
348.2007,273.5
348.2105,275.8
348.3158,816.2
348.3249,516.8
348.6319,774.9
348.7116,681.1
348.7665,800.3
348.7798,211.8
348.8995,268.7
348.9343,952
349.139,110.6
349.1971,108.5
349.2436,422.7
349.277,253.2
349.3181,18.4
349.4135,291.9
349.577,784.2
349.6041,309.1
349.8183,370
349.9673,132.8
350.0197,3430.8
350.0397,123.3
350.0622,393.3
350.0832,232.4
350.3024,188.6
350.315,411.4
350.3222,653.4
350.3699,104.7
350.4791,726
350.4893,26.8
350.7286,21.7
350.8453,83.5
351.3247,713.8
351.9171,447.1
352.141,280.5
352.3927,480.9
352.54,200.3
352.6914,83.8
352.7513,690.5
352.8233,718.5
352.834,258.9
352.8678,377.9
353.028,202414.4
353.0369,290083.4
353.2341,422.3
353.286,621.1
353.4465,183.3
353.6036,154.6
353.6425,229
353.9584,22.4
354.0312,16988.8
354.0403,28322.3
354.2369,615
354.2741,136.4
354.6702,384.4
354.6967,776
354.7184,151.5
354.8314,111.8
354.8962,526.8
354.9691,317.3
355.0124,2090.9
355.0352,16622.6
355.0709,232.9
355.1302,626.2
355.1851,244.5
355.2161,1041
355.2472,729.3
355.3464,169.4
355.5842,139.2
355.8771,150
355.9176,273
356.0157,167.9
356.038,289
356.0695,36.7
356.6668,194.2
356.8153,892.5
357.0093,938.3
357.0204,531.1
357.0797,600.7
357.0958,101.1
357.4876,222.4
357.6215,19.1
357.6274,158.6
358.0106,832.7
358.0328,20.7
358.0452,101.9
358.1698,411
358.2022,82.6
358.3084,129.1
358.3556,181.7
358.4829,868
358.7065,736.1
358.7137,473.6
358.7873,19.5
358.8506,123.8
358.9538,650.4
359.0082,652.1
359.0323,16937.9
359.0449,479992.2
359.1034,21.8
359.3217,176.1
359.381,120.3
359.3918,167.6
359.4185,124.3
359.4221,265.7
359.4335,168.5
359.4412,972.9
359.4471,466
359.4605,1580.6
359.4792,574.8
359.4843,1369
359.5084,1236.3
359.5276,896
359.5423,118.3
359.5531,801.8
359.5595,162.2
359.6482,774.2
359.7841,259.2
360.0114,25.7
360.0483,44454.5
360.0948,319
360.3248,291.2
360.3336,18.2
360.3936,318.2
360.6043,574.3
360.699,123.5
360.7887,473.6
360.9743,215
361.0042,663.5
361.0211,5497.7
361.0294,779.2
361.0377,21.8
361.0487,2072.6
361.2328,225.5
361.2764,246
361.3403,284.9
361.4869,89.4
361.648,352.2
361.7574,273.2
361.8111,180.6
361.9586,159.2
361.966,762.9
362.145,963.5
362.1749,785.9
362.1954,108.7
362.2121,21.4
362.2232,22.8
362.2477,326.9
362.5805,271
362.7373,687.2
363.2548,101.5
363.2924,152.4
363.3392,208.2
363.3667,400
363.4559,125.5
363.5103,160.8
363.6905,577.7
363.709,280.2
363.7404,929.5
363.8473,914.7
364.0009,896.8
364.1359,20.1
364.4241,105.4
364.6197,447.5
364.6481,222.9
365.1063,2336.7
365.2353,133.3
365.3803,188.4
365.4372,281.1
365.5123,189.5
365.5162,179.2
365.8824,139.2
365.9564,113.3
366.0076,262
366.1292,208.4
366.2278,126
366.3702,678.1
366.4908,256.3
366.4967,1180.7
366.9088,23.8
366.9534,501.4
367.1514,155
367.1953,2517.9
367.2605,126.1
367.4094,119.1
367.4648,188.3
367.513,19.9
367.5355,257.5
367.5742,194.2
367.7128,253.3
367.7719,258.3
367.8372,925
367.8911,20.6
367.9935,28.4
368.0026,185.9
368.1989,113
368.3141,191.1
368.3901,175.7
368.4979,761.6
368.5853,411.1
368.686,179.9
368.6917,282.4
368.7146,617.7
368.8762,168.3
368.9229,120.9
368.9929,4527.4
369.002,27473.9
369.0109,9681.7
369.0791,127.7
369.139,117.7
369.2687,900.2
369.327,294.2
369.3526,59.9
369.487,148.6
369.6128,205.7
369.6593,664.5
369.7949,1182.4
369.9305,159.1
369.993,1432.5
370.005,290.4
370.0681,90.9
370.3514,192.4
370.3881,994.3
370.6309,19.7
370.7117,20.3
370.9175,135.7
370.9492,338.4
371.0091,612.7
371.1017,759.7
371.1216,127.8
371.2545,271.4
371.8311,377.3
372.0033,923.8
372.0257,449.5
372.1007,103.8
372.2847,399.6
372.4008,564.4
372.5531,448.6
372.5913,883.4
372.6212,268.6
372.6984,141
373.0446,833
373.4234,218.9
373.5779,23.7
373.597,794.5
373.8036,145.4
374.0984,117
374.1263,119.8
374.2342,319.4
374.2395,253.3
374.2915,107.8
374.3138,149.1
374.3818,350.9
374.3984,133.4
374.4188,219
374.5721,20.2
374.8623,388.3
374.9858,162.7
375.01,175989.9
375.0189,152300.1
375.2132,75.8
375.2286,119.6
375.4842,169.1
375.5959,20.5
375.7096,903.7
375.84,144
375.8967,222.2
376.0132,11851.1
376.0223,14096.1
376.0662,132.3
376.0948,385.6
376.168,919.4
376.339,209.2
376.3813,550
376.6006,18.8
376.995,2057
377.0052,123.8
377.0173,7799.4
377.1917,644.7
377.2007,136.6
377.2487,24.3
377.357,104.7
377.4068,225.1
377.4314,156.5
377.5504,165.4
377.7333,167
377.755,109.5
378.0706,83.4
378.1363,105.3
378.3355,336
378.3971,19.2
378.4795,833.9
378.7667,281.2
378.8042,141.6
378.8754,117
378.8892,190.6
378.9479,112.3
378.9909,144.2
379.0023,141.3
379.1943,922.2
379.2104,388.7
379.3161,17.8
379.3386,36.1
379.3719,255.6
379.4834,183.2
379.7684,170.3
379.9222,134.3
380.069,22.1
380.3849,244.1
380.4919,224.7
380.5396,157
380.5478,115.5
380.8115,289.1
380.8777,387.6
380.8903,395.9
380.99,27.2
381.0144,27347.9
381.0269,250532.7
381.08,1389.5
381.0908,241.5
381.4314,387.3
381.5282,18.4
381.5958,668.7
381.8802,132.8
382.0302,21292.3
382.0547,383.4
382.0704,166.5
382.5585,168.6
382.6032,102.9
382.7344,125.5
382.888,275.6
382.9177,402.5
382.9973,651.2
383.0754,427.3
383.1172,167322.6
383.2704,190.6
383.3334,149.9
383.9018,261.7
384.0318,245.3
384.1205,14192.4
384.3137,31.1
384.346,945.8
384.3765,431.2
384.3922,27.7
384.446,634.8
384.5119,89.6
384.5859,274.6
384.7512,109.9
384.8097,453.2
385.2306,112.5
385.4072,474.6
385.442,467.3
385.4726,343.5
385.4818,177.1
385.5034,192.3
385.8034,187.2
385.8395,19.7
386.0642,83.6
386.1494,194.8
386.1676,74.1
386.278,111.1
386.391,580.2
386.6013,695.1
386.7159,476.1
386.76,496
386.9739,750.6
387.003,1006.4
387.0427,344.5
387.0612,561.9
387.1661,353.9
387.2787,765.3
387.5729,181.8
387.6689,1025.7
387.862,779.4
388.2008,160.1
388.2285,103.5
388.2396,150.8
388.3586,382.6
388.5063,84.6
388.6012,623
388.7127,700.6
388.8887,204
389.1079,107.3
389.207,104.3
389.3446,73.6
389.487,19.4
389.5252,254.5
389.5675,100.5
389.8101,868.6
389.9599,408.9
389.9746,1473.2
389.995,23.1
390.147,888.5
390.1555,417.9
390.4005,157.3
390.4564,123.2
390.54,149.9
390.6624,107.2
390.6739,699.2
390.7691,846.2
390.8526,515.4
390.8589,360.2
390.8685,697.5
390.9749,12777.5
390.984,34095.1
390.9929,16842.8
391.0147,110.2
391.0243,616.8
391.1155,22.1
391.2534,131.9
391.273,295.1
391.6325,115.3
391.7097,182.8
391.7646,20.7
391.7852,323.4
391.9194,904.1
391.9903,375
391.9953,206.8
392.1005,966.9
392.4474,688.5
392.4676,380.1
392.9019,269.3
392.9468,140.4
392.9594,114.9
392.9694,116.4
392.9818,418.4
392.9913,396.9
393.007,632.5
393.0205,1154.7
393.0909,217.5
393.1544,199.1
393.2765,77.3
393.298,54.1
393.4055,785.4
393.466,933.9
393.506,198.6
393.586,117.9
393.7021,341.1
393.8442,17.3
394.5341,85
394.6269,121
394.6393,942.4
394.6751,927.3
394.6954,376.3
395.0316,402
395.112,566.4
395.1761,334.6
395.2289,188.7
395.5201,635
395.5562,115.6
395.6168,772.6
395.886,821.5
395.9672,312.5
396.1099,123.5
396.2031,88.1
396.3032,197.8
396.5766,206.1
396.7455,387.7
396.8023,161.6
396.9617,81.3
396.992,194308.6
397.0008,86722.6
397.2128,373.8
397.26,276.8
397.4004,927.8
397.7169,223.8
397.7628,951.5
397.9724,422.4
397.9951,12020.8
398.0042,4700.7
398.2042,899.5
398.2424,3577.8
398.404,216.3
398.4154,283.9
398.7417,737.5
398.7627,3372
398.9058,1037.5
398.9271,140.7
398.9767,110.1
398.9864,514.2
398.9992,1596.2
399.1393,203.7
399.3813,18.5
399.4899,308
399.5669,794
399.6115,273.2
399.7105,204.9
399.772,649.7
399.8105,427.2
400.019,135.1
400.1078,616.9
400.1775,1186.3
400.213,369.2
400.2645,222.3
400.4264,24.3
400.4976,19.8
400.654,671.1
400.8341,113.9
400.8903,1066.5
400.9652,122.6
400.9742,44.8
400.9847,1198
401.0202,951.1
401.8903,499.3
401.9342,130
401.952,823.2
401.9831,694.7
402.0059,103.3
402.1339,838.7
402.1982,25.8
402.3551,106.4
402.6361,337.2
402.7271,317.1
403.0088,259437.3
403.1242,307.6
403.1746,740.8
403.2728,88.8
403.3642,325.3
403.3719,628.3
403.4961,17.7
403.6337,456.8
403.7772,83.2
403.7933,237.5
404.0121,21620.9
404.0668,411.2
404.1797,493.1
404.2135,432.8
404.224,810.6
404.4783,129.7
404.677,1184.7
404.7998,179.1
404.8705,105.3
404.8787,163.9
404.9662,18.9
405.013,1423.9
405.1084,20.5
405.1182,647.1
405.2421,91.6
405.2546,517.1
405.2938,19.2
405.4898,623.2
405.5969,229.1
405.7349,142
405.9491,503.5
406.1102,136.2
406.2826,20.7
406.3302,1436.9
406.3816,214.4
406.4913,990.1
406.5632,752.4
406.8824,775.2
407.0097,190.7
407.1737,19.3
407.3334,169.4
407.3565,135
407.4015,980.6
407.4644,731.3
407.5791,361.2
407.8762,544
408.1481,915.2
408.3085,109.7
408.3435,682
408.4345,698.9
408.4491,108.9
408.6702,271.7
408.7983,255
408.8515,371.6
408.9594,817.9
408.9856,596.8
409.0569,36.7
409.2797,852.8
409.345,19
409.3934,18.4
409.4671,362.2
409.6933,943.1
409.7217,215.7
410.031,631.2
410.0431,152.5
410.0746,552.1
410.1529,20.2
410.2063,990.7
410.4515,883.9
410.5046,867.3
410.5515,841.7
410.6764,521.1
410.7674,440.9
410.8324,103.3
410.9531,866
410.97,110.1
411.0847,180.1
411.1305,97.1
411.3007,20
411.3323,204.6
411.4458,668.5
411.5325,105.9
411.5385,1072.4
411.7689,418.3
411.8152,238.7
411.9248,136
411.9399,156.2
412.058,761.3
412.0797,866.7
412.2308,582.3
412.2788,912
412.3225,2149
412.3602,824.3
412.51,21.6
412.5644,228.1
412.668,117
412.7049,422.3
412.9121,312
412.966,38061.2
412.9747,15440
413.0051,20.8
413.0994,84.5
413.2509,245.5
413.2674,3184.7
413.2812,894.1
413.3251,285.3
413.4544,522.2
413.4707,621.4
413.5849,17.1
413.5954,309.3
413.8454,374.6
413.9683,1062.8
413.9769,152
414.138,17
414.2707,412.3
414.3164,169
414.4691,99.4
414.5378,667.7
414.6173,19.4
414.9186,739.9
414.9391,128.1
414.9732,690.8
414.9984,2313
415.008,164.7
415.01,153.9
415.037,677.8
415.2233,2235.2
415.2833,2583.7
415.304,179.1
415.4424,260.9
415.5142,424.2
415.6405,104
416.0713,474.3
416.0992,19.2
416.1362,5329.6
416.2152,19023.9
416.4049,793.1
416.4422,20.3
416.4761,131.5
416.5868,138.4
416.5994,17.9
416.6523,94.8
416.738,359.6
416.7453,19.4
416.8061,20.5
416.8362,189.5
416.9685,157.2
417.0254,1175.2
417.1487,975.3
417.1625,381.6
417.2188,1841.2
417.603,203.2
417.661,19.6
417.7138,544.4
418.0452,676
418.5004,17.7
418.604,210.7
418.6119,178.5
418.7323,106.2
418.7557,21.4
418.9828,101445.1
419.0096,411.7
419.0285,155.5
419.0494,207.1
419.371,179
419.602,127
419.863,213
419.9658,111.3
419.9863,4594.8
420.0326,766.9
420.0888,157.5
420.124,198.2
420.1408,78.9
420.2073,82.2
420.239,94.7
420.2773,778.7
420.304,151.3
420.4713,18.9
420.7041,476.4
420.7454,126.6
420.9566,628.4
420.9812,3704.2
421.2148,259.2
421.5469,827.4
422.032,251.3
422.158,334
422.2073,446.8
422.3038,74.2
422.404,307.7
422.4267,207.9
422.6932,645.6
422.8358,790.8
422.8809,420.4
422.8986,126.7
422.9772,115
422.9934,634.4
423.0593,785.9
423.0758,18.5
423.4235,21.3
423.4749,89.9
423.6375,121.9
423.8141,168.7
424.3512,467.3
424.4677,118.8
424.5829,21.8
424.6554,775.7
424.6949,950.5
424.8111,123.4
424.8825,155.6
425.0843,280.1
425.2146,98.6
425.2677,432.8
425.4165,121.4
425.599,130.8
425.6457,349
425.8708,191.5
426.1949,857.7
426.381,24.9
426.458,133.5
426.5178,162.4
426.8315,302.1
426.8689,188.1
426.8944,158.2
426.9567,161.6
427.0472,304.1
427.15,407.5
427.2327,143.3
427.2677,753.5
427.5726,803.5
427.7338,723.2
427.8607,523
427.8876,666.2
428.0019,116.5
428.0346,193.3
428.2726,125.4
428.4552,704.7
428.5501,405.4
428.8055,17.5
428.9306,1181.4
428.9396,4042
428.9798,143.2
429.0897,208.8
429.1946,105.4
429.2815,224.5
429.374,126.9
429.7145,306.8
429.8331,111.2
430.1125,222.2
430.2959,19.9
430.3654,135.3
430.4308,164.9
430.8322,501.7
430.905,614.6
431.0697,1096.5
431.081,610.7
431.2178,4990
431.2781,2866.3
431.4107,339
431.5346,383.3
431.5638,250.7
431.6016,171.1
431.832,471.5
432.1451,198.7
432.2807,478
432.3926,556.4
432.454,147.2
432.6567,363
432.6948,487.7
432.7997,122.6
432.8179,156.1
432.954,246.2
432.9697,363.4
433.0309,168.5
433.0619,156.2
433.1789,812.7
433.24,311.5
433.2758,672.7
433.573,101.5
433.6921,19.2
433.8707,153.6
434.1204,150.9
434.1829,106.4
434.8441,172.1
434.9568,17411.4
435.1411,127.5
435.1749,298.1
435.2077,21.2
435.2529,82.5
435.3579,363.7
435.368,300.7
435.5948,147.9
435.6303,280.2
435.8064,421.2
435.8902,229.8
435.959,419.6
436.1049,127.7
436.2865,880.6
436.5833,487.1
436.7778,156.7
436.8468,19.5
436.956,427.2
436.966,99.8
437.0599,103.6
437.2058,866.5
437.662,736.6
438.0144,516
438.1969,1659.2
438.208,825.7
438.37,18.1
438.4063,105.5
438.7754,1206.9
438.854,252
438.8765,263.9
438.9733,3244.3
438.9853,4712.5
439.0768,121.4
439.165,20.6
439.6453,100.9
440.0591,19.7
440.064,21.2
440.1079,237
440.1832,17.6
440.2421,89.6
440.4877,181.3
440.5795,365.5
440.7626,93.2
440.8827,125.7
440.9706,811.5
440.9809,231
440.9969,191.8
441.2986,261.6
441.5584,17.4
441.6824,263.2
441.8132,394.4
441.9198,99
442.3014,26.2
442.3917,17.1
442.5191,417.1
442.8489,721.6
442.9403,787.5
443.2544,1300.5
443.4725,277.9
443.4977,96
443.9418,114.9
443.9737,777.4
444.1242,115.7
444.2018,658.3
445.2685,717.4
445.3869,19.6
445.5398,849.6
445.8505,22.8
445.8952,556.4
445.9876,1228
446.128,114.8
446.1956,163.8
446.2647,232.4
446.5681,709.9
446.6667,308.2
446.6979,107.3
446.8978,108.3
447.2102,160.4
447.2577,590.8
447.2972,98.6
447.5086,154
447.5637,149.9
447.5769,639.9
448.1994,795.8
448.2273,1178.3
448.4715,201.9
448.5701,808.6
448.5868,735.7
448.6748,21.8
448.7216,628.6
448.9334,2445.6
449.1399,317.9
449.155,1658.5
449.1661,640.9
449.2212,365.8
449.2784,98.3
449.2982,1077.8
449.5324,735.3
449.7313,18.8
449.7817,112.1
449.7908,18.9
449.9232,121.1
450.0215,17.5
450.0968,497.9
450.1585,289.7
450.3205,254.9
450.6064,82.3
450.6276,728.6
450.8103,114.2
450.8733,86.3
450.9295,524.4
451.0148,618
451.0527,97.7
451.1502,38.5
451.1582,737.7
451.4806,22.8
451.8801,133.9
452.1599,134.5
452.1705,123.4
452.2072,364.9
452.281,819.1
452.3049,760.2
452.3501,154.1
452.403,203.2
452.5566,230.8
452.5889,113.6
452.731,97.4
452.8017,18.9
452.863,18.6
452.8893,19.3
453.0086,100.4
453.0455,930.4
453.1738,975.5
453.3182,663.8
453.5481,113.8
453.6295,1082.5
453.9266,117.8
453.9791,105.3
454.1421,111.4
454.2555,308.1
454.6447,155.9
454.7273,121.2
454.9168,969.8
454.9507,35069.9
455.0132,720.1
455.144,185.1
455.196,632.1
455.2655,19.4
455.8478,21.5
455.8988,93
455.9545,1112.4
456.0232,130
456.2314,176.5
456.2677,578.1
456.5271,120.9
456.6995,536
456.8333,168.6
456.9481,9338.8
456.9752,223.4
457.2337,31454
457.6999,1042.2
457.7093,173.2
457.7999,822.7
457.847,107
457.956,800.4
458.0382,885.3
458.1387,117.3
458.2371,4487.9
458.3521,391.9
458.4269,242.9
458.5834,243
458.8694,186.6
458.9627,4126.4
459.0253,415.5
459.2494,821711
459.9996,669.9
460.1703,665.3
460.1871,711.7
460.2138,118.1
460.2528,164582.5
460.3458,458.6
460.4098,275.2
460.4211,19.2
460.4354,1033.7
460.5178,673.6
460.9216,430.5
460.9676,75935.5
461.1687,693.1
461.2064,1987.7
461.2559,10925.9
461.2801,922.2
461.3053,210.2
461.5252,100.7
461.7322,246.2
461.75,116.6
461.902,557.7
461.9707,3486.7
462.4089,18.8
462.9646,22021.6
463.0956,705.9
463.146,182
463.3693,110.9
463.3839,126.2
463.4175,82.7
463.5225,969.6
463.6342,573.8
463.6903,211.3
463.7459,123.5
463.9681,683
464.2754,117.1
464.3218,117.6
464.4902,222.1
464.6994,122.5
464.9794,11284.9
465.0727,327.9
465.1126,656.8
465.1408,470.6
465.7487,376.9
465.9633,298.7
466.0643,807.7
466.1154,1033.3
466.2251,428.1
466.3369,145.7
466.3725,192
466.4367,276.2
466.4474,114.7
466.4923,19.6
466.5647,793.8
466.6164,21.1
466.8596,804.6
466.9321,553.9
467.0682,84.3
467.1958,93.4
467.4274,310.2
467.7028,202.1
467.8125,116.8
467.9474,693.7
468.0449,310.3
468.2278,157.6
468.3081,669.8
468.5158,120.2
468.8948,111.1
468.9387,167.9
469.0812,358
469.1412,33.9
469.2539,101.5
469.3262,222.1
469.4437,817.5
469.4883,975.4
469.901,680.5
469.9114,356.7
470.2847,495.8
470.3824,464.7
470.5164,305.1
470.5464,734.3
470.9246,18825.7
470.9962,2972.2
471.2866,1753.8
471.4073,688.7
471.4996,230
471.5503,627.3
471.6388,235.3
471.8387,210
471.9283,585
471.9527,163.1
472.1661,1173.2
472.2081,315.4
472.3037,1625.9
472.498,265.4
472.7005,20.4
472.866,124.1
472.9218,4229.1
472.9323,1578
472.9482,197.2
472.9587,2415.1
472.9866,158.4
473.0002,288.8
473.1231,96.5
473.2005,452.5
473.2434,130.7
473.2655,2851.8
473.295,179.3
473.5266,287.8
473.7329,78.7
473.8573,395.7
474.201,380.4
474.2143,129.7
474.4543,98.9
474.4951,438.8
474.7299,774.4
474.8821,127.2
475.072,682.8
475.1029,110.8
475.1762,830.7
475.2234,38785.7
475.2443,663.2
475.2567,754.6
475.3841,398.8
475.4533,105.9
475.7242,225.9
475.7567,700.6
475.8561,100.2
475.9034,333.4
475.9737,442.2
476.1461,354.5
476.2267,6379.1
476.2917,116
476.3149,902.4
476.3552,88.7
476.6635,452.4
476.7592,80.4
476.9414,46826.3
477.2218,2353.5
477.6188,19.3
477.7775,19.2
477.945,1916
478.3304,66785.7
478.4435,907.1
478.6125,273.6
478.6637,219.4
478.9385,14244.6
479.0044,237.5
479.0153,143.4
479.1218,190.9
479.2174,79.7
479.3336,12558.8
479.6422,241.6
479.7621,21.8
479.8303,618.3
480.2704,130.4
480.3315,474.4
480.3657,173.1
480.5096,256
480.6443,412.9
480.9361,852
480.9529,2518.3
480.9963,134.1
481.0156,711.4
481.0922,66.9
481.1986,471.9
481.2335,964
481.317,967.3
481.7414,96
482.0895,133.3
482.2205,20.1
482.363,1154.9
482.4196,21.4
482.5148,125.8
482.5574,173.7
482.9924,1248.2
483.2495,318405.5
483.5919,233.6
483.7302,719.9
483.9911,20.3
484.0176,643
484.2528,71239.1
484.2669,1299.1
484.4545,1084.1
484.5348,704.4
484.5444,23.5
484.6294,125.5
484.7468,196.9
485.175,23.1
485.1973,885.5
485.2651,237166.7
485.3268,1143.9
485.7664,163.6
486.0072,664.7
486.1244,109.4
486.2476,19.8
486.2683,52511.7
486.3595,99.6
486.8991,1741.1
486.9691,788
487.1322,207.6
487.1531,23.4
487.1753,699.4
487.2317,16.9
487.2807,138296
487.3303,823.3
487.342,845.4
487.3747,180
487.3876,189
487.6237,373.3
487.7414,137.4
487.8728,696.8
487.9685,204.9
488.1406,158
488.284,28695.5
488.3698,412.2
488.5843,84
488.731,682.9
489.0697,17.9
489.0862,56.7
489.1371,386.6
489.2514,143.7
489.278,342.7
489.2887,1977.3
489.3563,1997.9
489.3688,407.8
489.385,872.3
489.671,274.3
489.6898,84.6
489.8046,162.8
489.8851,217.3
490.0142,676.5
490.2915,10591.2
490.4994,1375.6
490.7889,192.6
490.9333,614.6
491.0835,28.5
491.2582,633.4
491.2955,716.3
491.3729,1250.2
491.4215,215.9
491.4897,1197.3
491.7178,89.9
491.9707,266.2
491.9986,124.4
492.0399,18.3
492.1789,959.8
492.1854,888.7
492.2426,197.3
492.3068,21
492.4437,324.6
492.5732,20.3
492.603,427.2
492.6901,248
492.7096,681.6
492.9058,1045.6
492.9157,8317.7
493.0845,21
493.1797,887
493.4929,169.5
493.5075,84.1
493.5844,392.8
493.7591,465.3
493.9638,142.7
493.9874,136.6
494.1345,75.8
494.2867,1553.7
494.3255,33259.7
494.4261,477.1
494.4544,315.3
494.8152,556.1
494.9122,5214.9
494.969,309.5
495.003,155.1
495.1484,36.3
495.2919,670.6
495.3292,2858.4
495.4509,225.2
495.4644,774.8
495.5293,104.4
496.3411,912727.8
496.524,610.5
496.846,143.9
496.9315,1718.2
497.1943,301
497.3444,219165.6
497.4197,369.9
497.831,378.8
497.9767,98.1
498.0433,25
498.1147,195.7
498.2231,752.1
498.3476,22024.3
498.4669,298.1
498.5594,18.2
498.5716,953.1
498.5831,349.2
498.6552,823.6
498.928,662.2
499.2232,16344
499.2662,988.3
499.3461,284.8
499.4727,21.4
499.6841,157.2
499.901,141.9
499.947,955.1
500.0341,105.4
500.2086,18.2
500.2259,1430.2
500.2758,873.6
500.5347,83.8
500.6531,604.8
500.8624,683.6
501.1093,328
501.1775,19.3
501.2133,148.8
501.2391,14746.1
501.2661,990.3
501.3798,267.1
501.9773,92.5
501.9988,745.1
502.0626,165
502.3303,29453.2
502.7082,22.5
502.7814,154.6
503.1086,45.8
503.1704,138.5
503.2548,6952.6
503.3336,5174.8
503.3697,791.2
503.5545,742.2
503.7824,21.4
504.0014,231.6
504.204,908.8
504.2966,271.1
504.3072,2333.7
504.3457,15566.8
504.7389,230.6
504.9193,149
505.1712,22.3
505.3497,1301.6
505.4553,19.4
505.5585,20.8
505.6714,226.6
505.831,727.8
506.0179,20.4
506.1308,643.7
506.2636,464.3
506.2828,406.1
506.3614,5789.2
506.4088,154.9
506.5597,408.5
506.6113,286.9
506.6442,826.5
506.8942,534.2
507.2291,783.3
507.2494,44205
507.3649,27.2
507.5249,260.7
507.6007,346.2
507.6237,475
507.7523,537.8
507.9205,102.9
507.9723,100.9
508.2532,9017.4
508.4589,199.7
508.6632,755.1
508.7679,490.2
508.8107,802.6
508.891,508.5
508.9259,21.1
509.0057,4009.3
509.0363,909.8
509.0514,326.5
509.1448,217.3
509.2205,297.8
509.265,22067.2
509.3328,101.2
509.8847,18.5
509.9577,180.9
510.0087,810.3
510.0588,105.3
510.0718,148.4
510.1605,250.2
510.2682,4600
510.3001,21
510.3564,716.4
510.4702,19.6
510.9017,38.6
510.9868,1026.1
511.0174,19.9
511.125,763.7
511.1532,743.9
511.1945,684.1
511.2618,175.8
511.3141,192.5
511.7186,97.6
512.0742,798.7
512.2038,219.8
512.3961,18.7
512.6898,892.4
512.7319,418.5
512.7956,471.4
512.9093,11113
513.0495,80.8
513.2959,992.4
513.3573,2073.7
513.4054,149.4
513.7783,511.3
513.8049,533.8
513.9484,219
514.0266,109.9
514.2546,112.9
514.5189,22.4
514.5724,432.4
514.6586,470.7
514.9065,5039.7
515.0224,1967.5
515.1158,1175.2
515.3548,233.6
515.3726,1196.2
515.3833,829.3
515.4339,17.1
515.4464,125.3
515.7507,135
516.3073,51682.8
516.4316,83
516.5623,21.5
516.6458,802
516.9227,649.7
517.0061,167.4
517.0668,102
517.311,11116.8
517.3871,757.3
517.6319,147.8
517.7151,110.2
517.8366,107.2
517.8495,146.2
517.9362,174.5
518.0872,288.8
518.2369,189.9
518.323,1425190.6
518.5723,865.6
518.9262,21991.3
518.9429,19.6
519.2162,720.9
519.3264,341059.1
519.4095,381.6
519.4605,402.2
519.6363,81.2
519.844,195.5
519.9311,495.2
520.0411,353.3
520.2809,752
520.3411,335363.8
520.4098,775.7
520.6665,206.7
520.7203,442.9
520.9231,13885.5
521.3445,88888
521.6384,222.8
521.6764,262.3
521.8884,421.9
521.9248,560.4
522.2428,1005.2
522.2582,3401.4
522.2743,313.4
522.3567,292329.1
522.8676,1006.5
522.9204,1773.7
522.9378,5281.2
523.056,19.9
523.2227,907.6
523.2594,462.3
523.3601,75192.8
523.5132,161.2
523.8299,218.9
523.982,108.6
524.0157,23.9
524.0479,585.6
524.3724,199953.5
524.5196,1072.9
524.5305,114.7
524.6879,515.8
524.8619,1313.4
524.9365,1255.9
524.9805,899.8
525.2406,808
525.3758,55112.3
525.8777,21.4
526.1291,731.2
526.1869,145.2
526.2131,829.1
526.3307,1119.2
526.3788,3463.1
526.7464,152
526.8891,111.6
526.9551,414.6
526.9837,217.4
527.1907,792.4
527.288,662.4
527.5381,876.5
527.7662,462
527.8132,849.6
528.0139,223.1
528.0354,89.4
528.0461,232.6
528.1841,122.2
528.2148,420.1
528.8832,5195.8
528.9547,2516.8
529.2627,1181.7
529.4814,560.6
529.7419,556.8
529.8412,180.6
529.886,394.5
529.8972,252.7
530.311,674.2
530.3234,809
530.3595,1025
530.6056,92.4
530.8799,3063.3
531.0997,78.1
531.2495,4705.2
531.4444,679.1
531.5391,1147.9
531.6058,631.6
531.7766,837.1
531.8719,389.2
531.9492,914.6
532.281,9993.2
532.3243,148.9
532.3389,5945.4
532.436,149.9
532.636,115
532.7883,88.7
532.8925,249.4
533.1558,205.1
533.2645,1006.8
533.2853,2672.7
533.3421,946.6
534.0155,663.9
534.2971,359176.3
534.3171,1105.8
534.3341,154.5
534.4454,728.1
534.4902,22.8
534.567,675.7
534.6944,156.1
534.9002,14454.1
535.2245,252.3
535.3004,84659.1
535.9723,764.9
536.0671,103.7
536.1484,157
536.281,124.2
536.2954,20427.3
536.4673,929.9
536.8354,698.3
536.8661,172.4
536.8973,10256.5
537.1451,104.8
537.2984,4319.1
537.3685,1106.3
537.4807,198.7
537.5252,765.5
537.5706,183.3
537.6483,92.3
538.0923,967.1
538.2232,421.1
538.2316,793.6
538.3663,20.3
538.4766,103.9
538.5299,20
538.6353,246.6
538.8977,912
538.9113,3158.5
538.9331,1039.6
539.0827,794
539.2439,244.2
539.3705,296.4
540.1588,632.4
540.2495,513.7
540.3068,1541.6
540.9817,143.2
541.1235,695.8
541.3872,1486
541.4016,121.2
541.9948,184.7
542.1,153.4
542.2628,1052.5
542.3231,501562.6
542.4606,111.7
542.4967,569.5
542.5749,19.7
542.6093,81.9
542.8175,91.4
543.0665,248.2
543.2864,203.6
543.3264,127625.9
543.4037,4783.7
543.4773,377.1
543.8513,314.2
543.8772,307.6
544.2152,696.4
544.3388,449469.6
544.3723,90
544.4066,686.2
544.5499,279.5
544.5993,141.7
544.858,1221.6
544.9494,1198.3
545.3421,108823.6
545.363,284.1
545.4174,336.3
545.5725,94.7
546.2095,385.2
546.2554,19.2
546.3544,296096.1
546.4084,351.1
546.4509,80.6
546.4802,113.9
547.1027,802.3
547.3348,469.1
547.3579,71253.4
547.409,687.1
547.5165,1054.8
547.6447,500
547.737,137.3
547.9551,109.6
548.0934,109.6
548.184,771.1
548.3131,912.7
548.3605,6335.2
548.4315,285.6
548.61,514.9
549.1675,78.6
549.2095,573
549.2884,348.5
549.6098,620.1
549.9252,823.3
550.1122,724.3
550.1557,250.3
550.2995,248.7
550.3906,748.2
550.4143,23.7
550.5269,191.5
550.6163,142.6
550.6406,286.5
550.8733,3335.1
550.9012,115.4
550.9677,393.9
551.2272,319.2
551.2541,218.2
551.5678,768.3
551.6223,24.4
551.7571,156.8
551.8552,140.5
552.0736,454.7
552.0928,104.9
552.1137,101.7
552.1369,329
552.4414,79
552.6813,775.2
552.871,1931.9
553.3833,24
553.5028,137.3
553.7837,1020.3
553.8265,243
554.1906,143.7
554.452,188.3
554.4741,268.3
554.5212,116.7
554.5899,102.6
554.6015,568.4
554.9383,85.9
555.6281,119.5
555.8198,17.4
556.0063,969.3
556.354,251.3
556.3652,687.3
556.3897,144.9
556.4413,92.5
557.0908,383.7
557.1449,161.5
557.246,213.1
557.2657,639.1
557.3471,99.5
557.3594,612.4
557.403,432
557.6833,79
557.7247,358.4
557.7403,20.3
557.8692,878.5
558.2209,448.5
558.2971,127714.9
558.4707,114.3
559.3006,35139.9
559.3891,857
559.4529,83.7
559.5323,948.3
560.2962,8427.8
560.3127,107368.6
560.4393,874.6
560.5908,1117.2
560.8074,157.2
561.0643,730.8
561.3163,26046.1
561.355,719.6
561.4141,10438.5
561.4554,163.4
561.7377,257.7
561.7794,151.4
561.9023,133
562.2226,846.4
562.2414,987.8
562.2745,665.5
562.3117,4783
562.3285,62340.7
562.4186,1077
562.5896,445.2
562.7481,1093.7
562.7658,199.3
562.8379,332.6
562.9584,183
563.0054,132.5
563.2374,115.1
563.3143,2360.5
563.3321,13132.8
563.4303,4202
563.6286,132.6
563.7191,245
563.727,348.9
564.0458,765.3
564.119,127.2
564.1966,99
564.2858,1181.9
564.3089,813.4
564.3258,2599.4
564.47,717.4
564.6525,438.4
565.0618,198.9
565.1325,101.1
565.5229,138.5
565.6451,132.2
565.6764,95.9
565.7093,144
566.1519,1061.4
566.3233,68370.6
566.3567,428.5
566.658,724.9
566.9665,1777.7
567.0168,253.7
567.3265,14690.2
567.4013,196.2
567.4498,83.2
567.5061,495.5
567.7588,180.2
567.939,139.7
568.0177,369.1
568.2455,1984.5
568.3389,40206.7
568.509,333.5
569.3426,9153.6
569.4208,1335
569.7576,151.1
569.8309,433.1
570.1744,211
570.4346,357.3
570.5948,370.5
570.7142,418.4
570.8684,2807.6
570.9247,197.1
571.0023,1159
571.0366,331
571.0607,1497.8
571.1697,314.2
571.2706,216.3
571.2887,159
571.4327,194.5
571.5829,81.4
571.7165,97.5
571.798,88.4
572.3313,839
572.3696,2246.2
572.7907,116.4
572.8656,3465.8
572.9107,324.4
572.9795,1336.3
573.2145,142.4
573.2718,759.3
573.2846,19.2
573.348,21.7
573.4034,178.4
573.4969,630
573.5229,775.2
573.7301,160.6
573.8887,319.4
574.1322,185.4
574.284,4234.2
574.4151,476.1
574.5799,705.1
575.141,237.4
575.2867,744
575.4779,955.1
575.5046,12867.1
575.7702,655.6
575.8164,1039.6
576.0122,283.2
576.2817,13080.6
576.5733,835.4
576.6815,74.8
576.6997,208.6
576.8848,8660.7
577.2847,1953
577.4537,145.3
577.5224,562.8
577.5724,231.2
577.6184,155.1
577.6695,22.4
578.2516,303.2
578.2796,2176.1
578.3239,770.6
578.5638,371.3
578.7592,852.9
578.8819,8109.4
579.0051,118.9
579.1797,694.8
579.3242,143.8
579.4487,105.9
579.5691,771
579.5771,719
579.6307,195
579.6395,162.2
579.6574,20.7
579.9469,140
580.075,766.6
580.145,976.4
580.2633,488.6
580.4077,788.9
580.5726,337
580.6247,181.9
580.7719,344.8
580.7958,1132.8
580.8251,618.8
580.88,757.3
580.8972,1098.3
580.9622,302.7
581.3095,840.5
581.378,1061.1
581.5296,452.7
581.7786,86
582.0983,174.3
582.1646,1012.7
582.1962,429.5
582.2145,595.7
582.2331,392.3
582.247,434.5
582.2651,829.1
582.2972,15306.5
582.3111,1790.7
582.3351,1204.6
582.3574,784.3
582.3854,140.1
582.5531,558.4
582.5712,180.4
582.7493,150
582.8933,1214.5
583.0672,21.7
583.1898,117.9
583.2132,118.4
583.2385,151.5
583.2569,17459.6
583.3004,5220.7
583.4721,192.4
583.8176,338.6
583.8609,478.3
583.9008,120.1
584.0377,321.9
584.2123,92
584.2588,1388.9
584.2956,766.7
584.3127,8011.1
584.3298,79.7
584.5756,1004.1
584.7067,767.5
585.0132,111.3
585.0987,240.2
585.1954,169.6
585.2724,23284
585.3204,751.9
585.3972,269.7
585.7891,163.7
585.9046,239.9
585.9922,450.7
586.1981,177.2
586.2294,18.9
586.2766,3596.3
586.3105,7389.6
586.3728,796.7
586.5314,193
586.8415,2074.6
586.9134,2284.6
587.0097,20.1
587.0622,358
587.2877,673.4
587.3128,884.2
587.3573,19
587.667,684.7
588.1109,731.9
588.2167,1022.3
588.7554,356.8
588.7809,761.8
588.8386,1667.2
588.8551,569.4
588.9003,718.8
588.9102,525.5
589.2165,89.2
589.271,428
589.644,789
589.8594,113.9
589.9958,218.9
590.0876,22.3
590.1946,202.8
590.3236,6072.5
590.3692,828.2
590.6282,117.9
590.7533,420.9
590.7705,200.9
590.9003,664.9
590.9259,571.1
591.2522,119.1
591.3268,2269.4
591.6358,107.2
591.744,259.9
592.0556,1093.8
592.2561,2021.8
592.3069,146.6
592.339,3475.2
592.4714,457.4
592.859,6467.2
593.6701,379.7
593.6931,147.1
593.8178,19.6
594.1619,23.1
594.177,1019
594.3515,861.3
594.3644,997.9
594.5213,188.4
594.622,343.4
594.7379,367.9
594.8564,7145.4
594.9234,244
595.2567,243.5
595.8546,516.1
595.8757,77.4
595.9367,663.1
596.4935,752.6
596.5698,133.8
596.8539,1657.1
596.8714,688.7
596.9186,146.1
596.9507,410.2
597.3646,98.8
597.4044,412
597.4512,13051.1
597.4869,16545.1
597.9275,217.1
598.1332,103.5
598.306,128.9
598.4547,2065.3
598.4906,3231.2
598.541,174.5
598.8684,488.5
598.9581,815.9
599.1496,886.2
599.4666,5042.5
599.5046,392
599.5927,215.3
599.6623,636.7
599.9827,113.4
600.228,395.7
600.2404,227.7
600.2817,4920.6
600.3303,136.6
600.4769,158.2
600.8726,109.3
600.9891,325.1
601.1299,117
601.2652,1552.5
601.4756,587.9
601.6608,182.6
601.7932,638.7
602.2373,356
602.2961,1781.8
602.3439,1113
602.7457,79.5
602.8228,18.8
602.8868,677
603.0566,151.8
603.0755,743.6
603.2015,343
603.2368,107
603.3308,703.8
603.5377,230.3
603.8904,748
604.0425,1023.4
604.1034,508.4
604.1189,201.1
604.2704,372.6
604.2933,151
604.783,130.6
604.9345,896
604.9547,192.4
605.0042,818.9
605.0438,422.6
605.1336,744.2
605.205,162.5
605.2395,2492.2
605.2528,238.1
606.1139,127.9
606.3207,113.3
606.4618,354.4
606.7488,154.2
607.172,5512.7
607.2548,1217.7
607.3169,350.7
607.3787,912.4
607.5858,96.9
607.6463,102.7
608.0235,772.6
608.1764,438.7
608.2601,791
608.3108,423.8
608.6694,101
608.7974,22.5
608.8339,1091.8
608.8761,116.3
608.917,762.5
609.3547,18.3
610.0923,811
610.3103,2457
610.8295,1651.6
610.9405,252
610.9649,247
611.6196,18.6
611.7509,802.2
611.9506,319.1
611.9798,798.7
612.2488,327.6
612.6863,365.7
612.8273,619.1
612.8872,357.7
613.3475,848.5
613.428,951.7
613.5229,161.7
613.7479,442.7
614.1812,964.4
614.3417,477.1
614.4796,109.5
614.5334,319.6
614.5369,290.8
614.8515,137.9
615.3701,434.9
615.4612,18218.6
615.4852,141.8
615.7636,598.9
615.7727,759.7
615.8267,145.9
615.8418,118.1
615.9846,572.5
616.2578,838.5
616.401,150.1
616.4646,3910.3
616.5507,998.6
616.5936,229.3
616.774,303.9
616.8775,184.7
616.8986,696.7
617.477,41653.9
617.6061,372.8
617.6788,27.8
617.7054,448.3
618.2091,19.5
618.3141,176.3
618.4803,12791.4
618.5004,210
619.0556,20.4
619.4927,37500.1
619.9048,242.2
619.9357,397
620.0485,151.6
620.1711,365.3
620.2797,482.8
620.3454,1031.2
620.4957,11675.8
620.7993,1144.7
620.863,875.6
621.0545,295.3
621.3813,21.7
621.4881,5437.4
621.9066,101.6
622.2308,471.1
622.7153,88.7
622.9569,1065.5
623.0032,96.8
623.0349,644
623.1374,30703.6
623.3793,266.4
623.4633,659.8
623.4975,664.8
623.8327,189
624.1408,4484
624.3584,553.9
624.6391,20.2
624.9235,507.6
624.9618,128.8
625.1403,268.5
625.2996,98.4
625.3538,281.7
625.4811,1492.5
625.7896,826.8
626.1898,367.4
626.2135,74.8
626.2325,868.7
626.4377,323
626.492,185
626.7921,1006.4
626.8441,402.5
627.455,115.1
627.5366,257.6
627.6193,24
627.8173,1028.3
627.856,135.2
628.0784,144.5
628.0943,1097.2
628.2991,102.9
628.3223,673.4
628.3968,553.3
628.4209,552.5
628.48,365.7
628.5398,77.2
628.632,395.8
628.6955,122.1
628.7962,21.8
629.0519,203.4
629.1122,111.2
629.1543,62802.2
629.3994,252.7
629.4322,19.5
629.4731,984.7
629.5442,23.6
629.6485,22
629.9588,84.8
630.1581,13124.1
630.1964,125.5
630.3375,719.3
630.6931,20.3
630.7659,20
630.8786,671.9
631.1589,1159.2
631.3045,440.5
631.4157,379
631.658,71
632.2517,418.7
632.3549,315.2
632.3833,264
632.4464,298.3
632.5163,663.5
632.6447,165
632.7919,90.7
632.8134,161
632.8496,222
632.8827,368.4
632.9395,416.2
633.1356,540.4
633.2842,20.6
633.32,118.1
633.4516,2999.7
633.4706,1327
633.7044,196.6
634.132,166.8
634.3215,92.4
634.4245,18.1
634.8441,1758.3
635.4657,2291.8
635.4836,1138.6
635.6639,126.2
635.687,20.4
635.7109,310.5
635.7726,349.6
635.8232,111.5
636.0205,177.9
636.653,295.1
636.8412,2529.7
636.9615,132.5
637.3832,709.5
637.4591,366
637.6814,154.9
637.7794,457.2
637.7968,208.6
638.0785,720.4
638.3734,271.4
638.427,75.3
638.5938,130.1
638.8408,495
638.9693,20.9
639.0008,967.3
639.0727,17.3
639.6469,654.6
639.7871,107
640.0192,160.1
640.891,305.8
641.1737,23.5
641.5036,651.2
641.5403,24.8
641.9039,111.5
641.9964,113.7
642.0141,629.2
642.2369,175.2
642.3013,473.4
642.4518,280.5
642.5202,131.3
642.9654,793.8
643.1646,19
643.535,23.1
643.6615,410
644.1882,21.3
644.4237,124
644.7224,706
645.1193,26579
645.1657,199
645.8974,397.4
645.915,18.2
646.1229,3679.8
646.1482,279.5
646.1818,18.4
646.2255,175.1
646.4303,1340
646.6729,360.9
646.705,316.3
646.9176,453.1
646.9332,1088.2
647.0956,1327.5
647.1251,544.1
647.3688,141.2
647.4336,879.4
647.5077,1709
647.7163,317.1
647.7542,127.1
647.9813,177.8
648.0154,476.5
648.2607,183.4
648.6012,387.3
648.6883,359.5
648.8662,396.9
649.4879,752.2
649.5813,128.1
649.8291,713.9
650.0646,19.9
650.4401,3681.3
650.7175,105.9
650.8188,1041.4
651.1363,69711.6
651.4433,587.1
651.5493,88.1
651.5777,714.6
651.6552,387.8
651.7725,226.9
651.9075,929.6
651.9604,758
651.9955,694
652.0101,396.3
652.052,161.6
652.0897,157.9
652.14,13797.7
652.2053,88.6
652.8157,1938.1
653.112,422.1
653.143,1792.6
653.694,973.3
654.4256,18.7
654.6125,655
654.6834,373.3
654.8109,620.6
654.9792,535.3
655.5288,395.2
655.8006,248.6
655.8985,95.2
656.0208,820.6
656.3672,624.7
656.4065,88.6
656.5243,22
656.8675,200.6
656.9302,361.1
657.0914,126.8
657.2413,101.2
657.2704,612.3
657.4223,113.4
657.4616,332.1
657.4833,195.7
657.4957,19.7
657.5672,225.3
657.6846,145.9
657.7541,424
657.8649,18
658.3699,691.3
658.4538,781
658.7942,108.8
658.9968,120.5
659.0783,176.6
659.2628,265.6
659.2936,1052.2
659.3915,241.7
659.8045,27.2
660.4148,688.6
660.9479,1109.8
661.0845,14709.4
661.3233,101
661.5766,884.7
661.679,746.4
662.0243,19.6
662.0596,90.6
662.0861,456.6
662.7216,130.2
663.255,190.2
663.4117,1054.3
663.452,813.3
664.0256,277.7
664.6244,158
665.1072,21.4
665.5112,830.6
665.6913,127.6
665.838,123.1
665.9023,719.1
666.3113,820.8
666.4029,1075.9
666.4342,1022.5
666.4857,7863.5
666.6756,981.2
666.7326,97.7
666.7926,984.6
666.9071,18.5
667.1011,39906
667.1887,144.9
667.2855,716.6
667.4574,146.8
667.4874,1251.1
667.5529,94.9
667.6793,744.6
668.1049,7175.2
668.1915,130
668.3272,23.1
668.3595,308
668.4924,1202.2
668.6798,865.2
668.788,459.9
668.8053,122.4
668.934,954.6
669.089,112.2
669.1056,626.6
669.1859,136.8
669.8438,347.2
670.1103,212.3
670.1877,899.4
670.2123,146.6
670.4336,847
670.4706,1200.4
670.5911,460.7
671.0186,411.5
671.2181,135.5
671.3519,509.4
671.4378,953.8
671.4518,167.6
671.7638,363.6
671.8374,271
672.2203,423.4
672.2291,744.4
672.4226,3351.3
673.1183,77988.7
673.3728,219.7
673.6084,1405
673.7795,1032.6
673.9316,125.7
674.1222,15027.2
674.1443,313
675.05,133.6
675.0949,542.9
675.1238,932.6
675.424,176.7
675.545,14605.6
675.8252,266.1
676.0727,162.9
676.547,2706.6
676.7477,168.1
676.7658,335.3
676.8022,160.7
676.939,22.2
677.2011,214.4
677.3418,202.7
677.415,648.6
677.4291,86.7
677.6686,214
677.7145,788.3
677.8871,19.9
677.974,113
678.1635,132.2
678.3013,561.4
678.5071,230.3
678.6216,112.3
678.9889,727.5
679.0185,128.5
679.1888,139.6
679.4926,139.7
679.5636,648.8
679.6682,119.6
679.6979,19.2
679.8244,598.8
679.9072,120.1
680.0715,762.7
680.1054,182.6
680.1591,150
680.1861,132.8
680.2999,87.1
680.4947,351.2
680.5227,218.6
680.558,79.8
680.8738,744.6
681.3254,176.6
681.6316,661.5
682.0276,165
682.0664,274.3
682.1871,21.8
682.7219,139.4
682.8557,390.3
683.0662,8969.3
683.107,242.1
683.1443,157.6
683.4549,1532.3
683.7096,144.6
683.7343,26.2
684.069,485.2
684.3812,438
684.4488,240.5
685.4378,9192
685.4839,221.2
685.4946,217.3
685.6089,438
686.0582,125
686.1031,822.5
686.4413,122.6
686.4673,469.7
686.6296,106.9
686.6838,162.8
686.8133,976.4
686.9261,459.9
686.9488,82.5
687.3127,1151.8
687.3692,2022.8
687.4155,350.9
687.7406,125.4
687.8563,220.1
688.2285,117.5
688.6924,91.6
688.8198,205.3
688.9491,285.3
689.0825,28366.6
689.0918,22850
689.2178,172.3
689.3508,170.9
689.611,689.4
689.6169,673.6
689.6266,471.4
690.0863,3183.6
690.096,2729.7
690.4394,598.7
690.7613,195.6
690.9088,736.3
691.088,415
691.1426,166.7
691.4107,125.9
692.141,890.1
692.8452,126.5
692.8891,24.2
693.0229,255.4
693.0688,309.8
693.5308,90.2
693.5951,174.4
693.855,255.7
694.0515,373.8
694.3675,231.7
694.7992,910.3
694.9653,139.3
695.1005,51378
695.463,1568.6
695.6572,852.6
695.8531,178.1
696.1039,7926.5
696.5518,361.5
696.5686,382.6
697.0773,87.4
697.182,111
697.4749,1243.9
697.5273,17434.8
697.5687,265.3
697.9757,364.6
698.0393,154.2
698.2196,511.3
698.4012,146.4
698.5301,4635.4
698.586,1126.8
698.6895,459.9
698.8049,167.5
698.9959,126.2
699.2801,193.5
699.7795,103.1
700.0188,168.9
700.161,111.4
700.277,802.9
700.5816,107.4
701.0367,691.7
701.2284,140.9
701.5152,109.8
701.5612,35066.5
701.777,915.9
701.9659,199.8
702.0131,128.1
702.0601,699.2
702.1095,18
702.343,2463.9
702.4497,163.4
702.5372,363.4
702.5644,12366.3
702.8069,696.4
702.822,152.2
703.1801,439.1
703.3485,766.4
703.577,112415.7
703.8924,189
703.9472,249.9
704.4495,7906.2
704.5804,47664.7
704.7551,193.6
704.9486,309
705.0021,125.6
705.0546,7011.8
705.4514,3408.8
705.5831,5243.7
705.7743,496.2
705.8559,737.9
705.9812,1154.1
706.2771,173
706.54,1664.8
706.6065,20
707.1926,232.5
707.5461,1082.6
707.6895,1269.5
707.8502,454.7
707.9656,20.9
708.2788,248.2
708.4255,330.4
708.5562,138.5
708.6814,419.8
709.1463,116.3
709.2461,601.9
709.4148,876.8
709.4522,127.9
709.5588,97.3
709.9691,134.6
710.1774,79.3
710.7316,21
711.064,18353.7
711.0756,19146.8
711.1203,923.3
711.3802,103
711.5192,215.8
711.5437,1151
712.0795,2093.2
712.4049,203.3
712.7727,447.8
713.0405,226.6
713.0747,272
713.2979,249.9
713.3216,416.8
713.5036,1509.9
714.0265,300.3
714.433,19.6
714.6505,311.4
714.7784,133.1
714.9179,351.2
715.0002,140.3
715.0268,108.6
715.2995,378.6
715.3181,716.1
715.3807,22.7
715.4524,145.4
715.5284,136.4
715.68,113.1
715.7046,392.1
715.7807,272.3
715.879,158.4
716.7359,118.4
716.7806,551.3
716.9753,432.6
717.0086,19.7
717.0265,728.5
717.0824,24339.6
717.1073,22.3
717.1859,338.5
717.4233,778.6
717.8183,372.5
718.0861,2370.6
718.1194,125.6
718.3358,21.6
718.3888,270.1
718.5776,133.3
718.7791,210.6
718.8698,21.6
718.966,138.4
719.2037,358.6
719.466,721.8
719.519,657.8
719.5477,87.5
720.5944,396.1
720.9987,265.3
721.0127,787.4
721.2359,89.9
721.4801,80406.8
721.5365,129.5
721.595,141.3
721.8506,358.7
721.9385,1022.5
722.0161,22.2
722.4833,35675.4
722.8472,191
723.4957,17480.8
723.5434,33246
723.5939,18.5
723.9058,930.8
724.0359,330.5
724.4483,226.7
724.4987,756
724.5472,10508.8
725.3541,159
725.507,466.2
725.5592,95944.8
725.6316,262.9
725.7934,873.1
725.8769,532.3
726.1944,800.1
726.4588,111.2
726.5101,1093.6
726.5624,38825.1
726.641,303.1
726.8071,112.1
726.8601,157.9
727.0317,5315.4
727.5464,20.7
727.5648,4236.5
728.0391,477.8
728.1609,230.7
728.5036,20.7
728.5208,1984.4
728.7595,427.4
729.0505,242.1
729.1192,528.5
729.2985,99.2
729.5264,569.3
729.5934,6349.5
730.2815,1042.8
730.4806,145.6
730.5406,14554.4
730.5961,573.8
730.6824,129.3
730.7956,19.1
731.5442,4223.3
731.5892,1041.7
731.609,1496.4
731.926,188.5
732.143,144.1
732.1942,1163.7
732.556,89037.7
732.611,619.9
732.7538,18.1
733.0465,10224.9
733.0579,11489.7
733.1072,213.2
733.1266,199
733.1473,225.1
733.2515,128.5
733.2756,370.3
733.3325,750.2
733.5597,36659.8
733.9622,109.4
734.008,435.7
734.06,405.7
734.282,586.1
734.5174,77.7
734.5721,11836.6
735.0367,130.2
735.2667,125.9
735.3832,160.4
735.5756,3786
736.0808,619.4
736.129,29.2
736.3668,493.8
737.0546,480.9
737.289,104.4
737.4538,16676.3
737.5159,208.4
737.5578,1056.3
737.8533,451
738.4536,2063
738.7535,159.4
738.7889,346.3
738.8762,259.9
738.9438,846.7
739.005,676.4
739.0644,12347.5
739.1457,17.1
739.3368,968.9
739.4721,2326
739.7119,274.5
739.7969,560.2
740.0701,583.6
740.3416,19.3
740.3704,1335.2
740.4167,513.1
740.5016,429
740.7406,93.1
740.8521,280.3
741.0412,418.1
741.1318,628.9
741.1811,166.9
741.319,137.7
741.5338,10537.3
741.5825,575.5
741.6693,1007.1
741.773,111.8
741.7917,333
741.9666,18.6
742.0408,619.8
742.116,1101.1
742.5378,3208
742.5765,6078.7
743.339,374.2
743.5482,20.8
743.5795,1092.7
743.6877,789.6
743.7176,153.5
743.9379,741.8
744.5553,2827.9
744.5932,3877.7
744.7404,166.2
744.8033,504.4
745.0074,351.3
745.4801,27662.6
745.5598,2092.7
745.597,475.9
745.7775,215.9
745.9331,712.5
745.9955,194.5
746.026,18.5
746.0999,898
746.164,168.7
746.2705,457.8
746.4386,386.3
746.4836,8195.5
746.5097,172.1
746.5715,3496
746.6078,3114.4
746.7441,265.5
746.9874,1124.7
747.0467,155.3
747.0896,306.4
747.0942,321.7
747.2722,134
747.2846,98.1
747.4968,14406.9
747.6123,668.9
747.636,1208
747.7371,984.5
747.8984,269.5
748.0571,138.9
748.2301,175.3
748.3005,283.6
748.5016,759.8
748.9258,912.7
748.9733,476.5
749.0125,2250.7
749.0299,544.6
749.0672,153.5
749.1368,237.8
749.2473,926.3
749.5113,2660.4
749.5904,658.6
749.6562,163.3
750.0191,483.7
750.2563,893.7
750.4357,204.6
750.5164,170.9
750.6012,651.9
750.7605,582.2
750.9375,22.6
751.0899,203
751.2472,207.3
751.3263,131.1
751.3398,783.3
751.4283,101.1
751.5738,2216.3
752.0656,107
752.3098,19.1
752.5218,13750.1
752.5556,602.6
753.0381,117.2
753.119,149.1
753.5273,2312.2
753.5902,3091.2
753.6992,107.2
753.8736,19.3
753.9938,152.2
754.0122,414.4
754.2974,20.8
754.4692,366
754.5383,69285.6
754.6889,697.8
754.9776,20.9
755.03,3120.7
755.0401,4472.7
755.0993,713.4
755.4723,201.6
755.5415,30228.5
755.5816,234.7
755.6655,2038.1
756.0248,270.4
756.0413,94.1
756.4227,691.4
756.5561,71697.3
756.6967,186.7
756.951,447.1
757.3204,224.2
757.5594,29842.6
758.0449,144.6
758.3374,504.2
758.5718,1770127.9
758.6785,730
758.8833,442
758.9698,165.2
759.0426,193.2
759.1103,87.4
759.4584,136.6
759.5753,774147.6
759.639,645.9
759.682,108.5
759.7464,260.2
760.0866,988.6
760.1034,841.5
760.1743,180.2
760.4386,93.1
760.4728,1095.4
760.5885,558719.3
760.6736,176.1
760.7409,155
760.8957,1148.5
761.0463,3998.1
761.1656,1273.7
761.3625,454.8
761.451,2455.8
761.5151,174.2
761.5912,275197.2
761.7252,1519.9
761.9641,426.9
762.0108,315.4
762.0474,315.6
762.4586,317.1
762.5942,64087.6
762.829,147.5
762.9656,732.5
763.0832,92.5
763.1801,260.3
763.2687,20.1
763.2989,818.1
763.5969,6061.4
764.259,484
764.5574,2895.1
764.9106,136
764.9753,1353.8
765.3745,218.2
765.4281,108.1
765.4835,730.1
765.7184,111.1
765.8482,387.8
766.2812,503
766.4749,399.2
766.5371,1652.2
766.5764,23516.9
766.6823,644
766.7287,20.8
766.7493,343
766.8973,869.1
766.9604,339.3
767.5787,7353.5
767.6496,1245.1
767.7024,181.6
767.7614,901.6
768.0397,105.9
768.2326,122.8
768.2517,833.5
768.329,461.2
768.5579,840.5
768.5927,36419.1
768.9187,118.3
769.1547,215
769.3887,608.9
769.5609,1603
769.5967,11870.3
769.9808,98
770.0176,189.1
770.0815,669.6
770.3311,875.1
770.5121,8094.2
770.5423,144.4
770.5731,391.5
770.609,2112.9
770.6406,788.9
770.7268,418.3
770.954,621.2
770.9933,4918.3
771.1928,1143.4
771.3986,114.1
771.4675,786.2
771.4987,207.5
772.4395,95.5
772.4997,290
772.5877,6388.8
772.6324,491.8
772.7883,150.9
772.9627,713.1
773.0019,477
773.1087,522.4
773.2817,259.6
773.4051,691.1
773.5029,147.3
773.5893,1459.5
773.6933,658
773.6991,643.2
773.7223,104.6
774.7065,115.1
774.9244,487.3
775.747,246.7
775.9251,615.1
776.3331,198.3
776.5222,2258.6
776.5443,1031.4
776.942,418.7
777.011,4014.5
777.2244,825.5
777.2489,791.3
777.5452,2395.3
777.6752,750
778.0474,2872.4
778.13,1089.7
778.5381,58318.7
778.5949,283.6
778.6706,410.2
778.8662,103.6
778.9298,357.4
779.0538,620.6
779.4901,1742.3
779.5419,23430.4
779.9308,20.4
780.4827,987.1
780.5539,1134985
780.6558,19.4
780.7884,242.3
781.0767,813.5
781.5574,511460.2
782.0126,18.8
782.1525,294.3
782.3805,19.6
782.4685,18
782.5714,826919.1
782.6175,319.5
782.9632,828.6
783.0011,574.3
783.0286,5408.3
783.1055,153.4
783.3039,862.5
783.3219,97.1
783.488,1215.1
783.5747,382003
784.4048,23.7
784.5881,458974
785.5912,236033
785.6538,872.9
786.6037,375167.5
786.6573,1128.6
786.7346,168
786.9461,132.1
786.9956,301.9
787.267,381.4
787.5681,407.7
787.6068,180470.4
787.6707,483.4
787.7093,682.1
787.8009,788
788.1028,679.5
788.1441,247.2
788.2748,243.5
788.5289,804.3
788.5591,6843.1
788.6067,29544
788.6222,18951.3
788.6783,103.4
788.7269,92.8
788.959,821.4
789.4809,480.9
789.5458,2932.3
789.5593,2171.8
789.6234,12511.5
789.6661,762
790.0477,2024.9
790.4214,18.8
790.4886,144.5
790.5462,509.3
790.5755,15228.5
790.6266,349.6
791.2278,122.2
791.5423,191.3
791.5784,4574.4
791.9482,734.6
791.9901,24.4
792.0642,750.6
792.2007,575.9
792.3122,408.8
792.3782,23.2
792.5921,7763.1
792.7896,1281.9
793.3414,1165.4
793.4469,311.2
793.5958,2285
794.0895,355.7
794.5118,10410.1
794.5698,2045.7
794.6083,35538.6
794.733,22.1
795.0607,123.5
795.1129,269.2
795.3322,999.7
795.6117,15518.5
795.7912,1032.4
795.8834,832
796.1379,867.3
796.5278,210842
796.5867,1103.3
796.6251,3478.5
796.8117,249.8
796.8611,116.1
797.3084,648.4
797.5312,98115.4
797.6291,545.4
797.8676,44.2
798.313,30.7
798.5446,58694.6
798.5827,19
798.5992,329
798.7313,858.7
798.7824,115.7
799.001,1366.4
799.5473,26609.9
800.1533,641.7
800.2004,336.9
800.4782,154
800.4991,371.9
800.5777,473.4
800.9426,1074.6
801.7884,25.6
802.1126,23.3
802.3644,425.2
802.5381,20726.5
803.3875,899.3
803.5419,11176.7
803.6403,1249.6
803.6779,149.4
803.7425,358.1
804.0103,2074.9
804.1681,19.2
804.3982,19.3
804.554,381436.5
804.6684,20
804.7024,235.7
804.7942,425.9
804.8179,1231.2
805.2292,995.1
805.5573,168776
806.2094,1091.3
806.5707,370242.1
806.7435,533.7
807.1873,186.7
807.4391,358.6
807.5739,176393.7
808.1108,172.6
808.5868,257817.5
809.033,1046.5
809.3214,1127
809.5898,132174.6
809.6645,1003
809.7478,789.4
809.8412,962.3
809.9878,171.1
810.1745,429
810.3884,191.6
810.604,127455.8
810.9675,341.6
811.4167,16.9
811.5519,714
811.6069,62496.2
811.6378,771.4
811.6709,2953.1
811.7559,148.7
811.8358,821.3
811.9538,116.7
812.6208,26681.8
812.6742,795.2
812.7253,383.8
813.3218,159.3
813.5548,3019.5
813.6235,13928.7
813.6869,5337.5
814.0542,723.4
814.2478,168.2
814.3962,1259.8
814.6244,2116.6
814.6908,1281.6
814.876,732.7
815.1563,504.2
815.9093,398.8
816.5234,952.4
816.5902,14793.7
817.1738,21.2
817.2247,20.9
817.293,1576.1
817.5937,5526.7
817.6493,862.9
817.7308,793.1
818.0557,130.1
818.1794,754.7
818.6086,720.7
818.8596,20.7
819.0804,22.3
819.2567,265.4
819.4354,939.1
819.5863,281.6
819.7568,1188
820.3308,2001.1
820.4094,778.1
820.4569,388.8
820.5278,71267
820.7771,774.7
820.8194,904.3
821.0913,24.1
821.1294,431.9
821.2108,382.3
821.3549,91.6
821.4536,1065.9
821.5314,30026.4
821.6279,107.8
821.6926,259.8
821.9981,876.8
822.1565,1017
822.2731,905.4
822.366,946.7
822.5444,48786.7
822.6997,187.3
822.8004,17.6
823.5474,21267.1
823.8055,428.5
823.9788,174.7
824.295,822.9
824.3725,749.5
824.5598,35409.7
824.8004,1083.6
825.1076,1022.2
825.1665,116.9
825.3407,338.7
825.4987,296.7
825.562,11146.7
825.5867,749.7
825.6582,338.6
826.3075,237.5
826.4299,645.2
826.5614,549.4
826.766,735.3
827.0672,916
827.148,168.6
828.1924,115.7
828.4843,130.3
828.554,71640
828.7897,168.4
829.5574,31003
829.6571,1117.5
829.6964,205
829.8263,1003.7
829.9505,420.2
830.1115,113
830.1841,962.3
830.3285,831.5
830.5174,215.4
830.5705,52268
830.6406,524.6
831.024,1116
831.5736,26881.2
831.6993,97
831.9471,510.2
832.0721,981.4
832.2025,689.5
832.4921,104.6
832.5862,64605.7
832.9695,973.1
833.0044,199.9
833.068,982.7
833.2696,297.8
833.3383,995.8
833.5252,197.3
833.5892,31620.7
833.7802,769.5
834.115,144.1
834.1956,768.5
834.5472,146.7
834.6032,23141.1
834.7825,1060.6
835.148,177.5
835.5186,238.9
835.5449,108.4
835.6056,6122.2
835.6603,186.2
835.7167,105.2
835.7587,542.9
835.7734,504.5
836.2184,257.4
836.4426,1058
836.619,1598.4
837.1056,201.7
837.2503,890.9
837.3431,19.3
837.6234,831.4
838.1728,243.8
838.2961,156.1
838.3898,115.8
838.5111,612.3
838.5722,434.8
838.5987,375.2
838.8242,478.6
839.2811,569.1
840.1198,98.3
840.4172,171.1
840.5234,561.5
840.6981,215.8
840.7979,185.6
841.2199,78.9
841.3653,450
842.1049,792.3
842.6585,116.7
842.7477,1007
842.8162,941.8
843.1856,142.9
843.3063,164.3
843.3744,20.4
843.5354,968.9
843.6383,17.4
843.7261,897.9
843.9441,18
844.2167,595.4
844.5283,8589.7
844.8801,1499.5
845.1659,130.6
845.3693,297.7
845.4357,180.4
845.5285,862.2
845.9252,17.2
846.1973,1029.2
846.4564,199.8
846.5432,6957.4
846.8901,142.8
847.0921,758.1
847.545,1962.1
847.584,202.7
848.0853,93.6
848.3783,966.9
848.5573,4540.1
849.0292,479.3
849.0658,148.4
849.1653,312.6
849.3717,710.5
849.5662,1036.8
849.675,295.9
849.9043,19.5
850.0076,649.2
850.1945,21.1
850.434,19.4
850.4627,145.2
850.5607,91.6
850.5895,571.7
850.9149,231.6
851.0458,143.5
851.2686,316
851.3987,185.1
851.616,796.7
851.8544,19.3
851.8773,742.9
852.0423,295.7
852.2122,1002.8
852.2698,422.6
852.5847,92.4
853.0492,186.4
853.1445,37.4
854.518,1060.6
854.5706,526.6
854.9761,308.6
855.251,1598.8
855.4202,317.8
855.4631,263.5
855.648,128.2
856.4606,89.1
856.583,2898
856.6448,438.9
856.8623,644.9
857.2459,695.7
857.6643,658
857.803,823.8
857.8785,368.8
858.0534,1156.6
858.0638,1258.2
858.1906,430.9
858.3089,212.4
858.7125,97
858.8348,93.7
859.2844,224
859.4529,746.6
859.5532,836.4
860.0133,1014.8
860.1058,1629.7
861.2837,703.3
861.4932,284.1
861.6709,314.4
862.8712,320.1
863.3079,19.1
863.5781,271.8
863.8994,362.2
863.9601,115.7
864.1534,122
864.5336,160.9
865.4128,196.4
865.7651,733.2
865.8221,927
865.9596,140.2
866.6731,21.7
867.3185,773.7
867.6313,440.8
867.8029,109.5
868.0869,1645.1
868.2322,977.3
868.6551,381.5
868.6691,365.8
868.7584,153.5
869.1569,314.3
869.2394,189.4
869.4078,144.1
869.526,293
869.5735,256.2
869.6295,1664.4
869.6411,1622.9
869.6863,3120.3
869.714,2552.6
869.7351,1760.3
869.7595,2447.3
869.8076,3436.9
869.8615,7324.7
869.913,2638.9
869.9434,2970.2
869.9667,2715.6
870.0125,312.2
870.0426,1178.3
870.0847,1462.3
870.1411,154.3
870.2869,1180
870.3782,19.9
870.4137,765.4
870.8913,431.8
871.9028,234.6
871.9361,161.2
872.5376,888.9
872.5814,291.3
872.6662,932.6
873.0779,410.5
873.4239,630.8
873.4498,737.1
873.7145,402.5
874.3298,406.1
874.8994,916.8
875.8154,1069.7
875.8445,896.9
876.1189,188
876.4072,801.4
877.0374,437.6
877.1648,773.9
877.2083,19.6
877.5919,2642.7
877.6542,150.2
877.9053,1114.5
878.2494,91.4
878.4325,18.7
878.6058,88.1
878.7844,107.6
879.0464,353.9
879.1055,121.1
879.2303,86.4
879.43,1247.5
879.5252,274.3
879.6676,18.6
880.012,145.9
880.0466,937.9
880.0996,394.6
880.2042,395.2
880.2439,1592.3
880.3323,20.4
880.6515,160.1
880.9666,1659.9
881.1408,1462.6
881.2108,21.2
881.2424,1456.2
881.6762,439.3
881.7308,500.8
882.109,177.4
882.152,377.1
882.5158,20
883.3114,249
884.1961,212.9
884.6722,193.4
885.2518,410.6
885.6752,237.9
886.1547,646
886.2259,215.9
886.4826,738
886.5067,188.1
886.6492,250.8
886.7545,1128.5
886.8028,837.5
886.9227,212.7
887.8766,343.9
888.1526,888.5
888.3117,137.8
888.4252,207.4
888.473,466.9
888.791,22.7
889.2748,280.6
889.3392,2095
889.6646,512
890.3084,1111.6
890.4044,131.1
890.6247,139.9
890.7866,297.6
890.9324,780.9
891.0768,607.2
891.2312,203
891.3305,849.6
891.4951,640.3
892.5111,435.1
892.6203,167.5
892.8147,467.7
893.2767,212
893.3296,132.2
893.6221,500
893.6574,108.8
893.985,1187.2
894.4423,904.1
894.8527,19.9
895.114,126.9
896.2238,109.4
896.2765,482.3
896.3046,389.4
896.3328,789.4
896.6616,1446
896.6944,928.8
896.7166,512.6
897.019,112.8
897.4093,171.5
897.7704,252
897.841,112.7
898.1722,506.5
898.6195,214.6
898.7024,27.6
898.769,229
899.4155,1069.8
899.7034,157.1
899.8139,18.3
899.8372,179.1
900.439,337.1
900.5888,1012.6
900.7499,202.5
901.2184,889.6
901.568,806.4
902.3343,686.6
903.2367,200
903.6814,280.4
903.8755,701.9
903.9233,1374.5
904.0062,408
904.2123,817.6
904.3284,131.5
904.3716,2465.6
904.7033,1656.8
905.0486,406.6
905.3619,204.1
905.5886,131.9
906.1384,1094.3
906.7918,301.4
906.8523,788.3
906.9626,121
907.4442,156.1
907.5533,210.8
907.6412,112.5
908.0445,491.3
908.442,872.1
908.4679,20.8
908.7594,362.7
908.8995,20.7
909.056,30.9
909.2098,157.6
909.3871,547.6
910.0985,1067.1
910.2424,1976
910.5665,122.3
910.6322,127.6
910.9057,296.3
911.043,897.3
911.0765,100
911.2267,190.9
911.5547,162.3
911.6424,19.2
911.6659,250.3
911.9918,328.8
912.1291,191.5
912.3529,95.1
912.4893,1121.2
912.6062,256.6
912.949,612.7
913.086,529.4
913.2226,180.9
913.3887,191.4
913.7788,21.4
913.9142,734.1
914.4963,114.9
915.3717,995.7
916.0565,21.4
916.5073,381.7
916.6796,1055.4
916.7324,167.5
916.9357,397.9
916.9872,646.9
917.1637,123.1
917.842,1301.8
917.8885,209.7
918.8261,537.4
919.4754,20.7
919.5743,171.4
919.764,685.7
919.9313,383
920.1412,26
920.2263,182.5
920.4253,1243.1
920.4911,1150.8
920.6524,136.1
920.9342,130.5
921.443,891.1
921.51,131.9
921.5477,222.1
921.648,960.4
921.7223,146.4
921.8123,929.3
921.8521,827.1
922.0134,108.6
922.0653,118.2
922.1186,18.1
922.5772,942.5
922.9641,781.4
922.9927,1774
923.0902,210
923.5476,378.1
924.4494,148.2
924.7111,152.9
925.4412,261.6
925.8744,282.8
926.5095,449.6
928.091,95.3
928.272,350.5
928.4231,230.1
928.4546,1078.2
928.7448,270.8
929.0133,136.4
929.069,78.3
929.0966,82.3
929.1396,994.5
929.4338,149.7
929.4977,100.1
929.831,86.3
930.239,974.7
930.5994,730.7
930.869,1042.7
931.3968,1286.5
931.4377,81.4
931.6878,728.2
931.9933,788.6
932.2833,955.1
932.4501,20.1
932.5846,248.9
932.7577,1369.5
933.3023,848.9
933.5192,161.4
933.7546,153
934.0469,138.8
934.2699,107.2
934.4331,1045.4
934.8349,549.4
935.6631,403.3
936.2204,19.1
936.4366,468
937.9042,946.1
937.9638,21.9
938.2687,689.2
938.406,829.7
938.6745,132.9
938.8408,460.9
939.0776,493.2
939.4033,212.7
939.6829,252.9
940.1016,967.1
940.449,22.1
940.4864,89.5
941.2192,1248.4
942.3458,1041.3
942.3625,1176.7
943.3792,783.8
943.5701,870.3
943.772,853.3
943.8441,682.3
943.8772,633.1
943.9972,20.5
944.9138,543.2
945.3246,1105.4
945.4991,1723.4
945.8976,21.9
946.2842,2357
946.5001,382.2
946.6593,735
947.1587,1211.5
947.2436,21.7
947.4578,1564.1
947.5257,445
947.6507,899
947.8171,1741.1
947.9406,602
948.0742,915.5
948.1818,178.5
948.2252,2009.9
948.2749,550.4
948.5649,988.9
948.9342,20.7
949.2161,2234.1
949.2909,865.4
949.4195,1304.8
949.6415,223.1
949.7951,503.2
950.0113,809.3
950.0937,199.2
950.1325,556.1
950.1997,202.9
950.2561,1211.3
950.3307,631.7
950.5171,211.8
950.5818,130
950.8422,978.9
950.9027,546.6
951.1884,1192.6
951.4983,414.9
951.8328,120.2
952.8348,236.4
954.3065,904.4
954.6624,389.5
954.9232,381.9
955.4959,678.5
956.1632,234.4
956.2857,823.2
956.61,206.2
956.6595,106.6
956.862,336
956.8834,86.4
956.9486,112.1
957.0345,22.5
957.6573,805.9
958.1468,378.2
958.2194,509.8
958.5445,168.9
958.5886,125.8
958.7971,1049.4
959.0402,807.2
959.2232,346.6
959.6117,121.1
959.8079,158.7
960.1931,1767.9
960.2991,418.9
960.7648,143.7
960.995,91.3
961.3883,1485.5
961.9828,1527.7
962.1571,1289.3
962.2322,139.6
962.8331,117
963.2921,99.2
963.4619,238.8
963.4993,166.9
963.7552,90.4
964.0198,101
964.2167,2315.4
964.2742,120.4
964.464,1414.3
964.5635,878.2
964.6356,94.3
964.761,366.4
964.8004,115.6
965.1487,862.7
965.1967,1769.4
965.2092,1596.9
965.25,24.9
965.6205,496.3
965.8533,248.4
966.012,2060.3
966.0414,2141.4
966.1831,718.3
966.2612,149.5
966.6659,336.8
966.9998,403.3
967.1533,76.9
967.4888,360.1
967.6722,1073.6
967.7056,695.8
968.0552,308.2
968.123,144
968.4493,273.5
968.6631,756.1
968.7286,2296.1
968.821,133.6
968.9148,1425.6
969.0603,198.3
969.4244,155.2
969.7484,106.2
969.8132,717.6
970.3669,1018.3
970.4235,2489.3
970.6742,1375.5
970.7928,375.9
970.7997,380.5
971.2084,263.1
971.7594,819
971.8512,113.5
971.9863,251.1
972.0755,301.2
972.1151,188.2
972.4561,665.6
972.7378,19.4
972.9704,90
973.5071,732
973.6271,1515.1
973.8378,316.2
974.2648,255
974.6874,115.7
976.0875,1249.8
976.2412,138.8
976.9855,676.4
977.8024,1269
977.9575,136.6
978.0141,959.1
978.2544,410.4
978.3998,733
978.73,1114.7
978.8849,592.3
978.9616,129.6
979.1091,396.9
979.2908,355.4
979.6996,191.6
980.0513,843.8
980.1532,676.2
980.2611,488.9
980.7219,696.8
980.9239,826.2
981.1712,2107.4
981.4814,135.3
981.5908,185.1
981.7709,699.6
982.4572,170.8
982.6128,750.1
982.7649,19
983.2151,866.7
984.1381,434.5
984.4704,712.7
984.5669,83.4
984.6774,88
985.0041,138.2
985.0545,101.1
985.1784,372
985.2823,226.6
985.3532,186.4
985.9928,1148.1
986.5708,106.1
986.9839,983.2
987.1944,179
987.2987,1158
987.3406,1009
988.0658,364.3
988.1332,131
988.215,1106.9
988.2549,509.8
988.4927,88.1
988.6104,17.5
988.669,956.7
989.6951,291.2
990.0445,237.2
990.0837,844
990.1606,101.3
990.3184,1169.7
990.6738,1170.1
990.9226,423
991.1347,1104.2
991.1931,499.6
991.2194,994.2
991.8086,233.7
991.975,118.7
992.2348,388.1
992.4921,640.7
992.6473,602.1
992.7436,2683.2
992.8114,691.1
992.8531,784.2
993.0281,23.1
993.3795,302.4
993.6929,164.3
993.7659,432.4
993.7983,222.1
994.4937,742.3
994.904,125.4
995.0333,88.8
995.5937,804.2
995.8794,2176.1
996.7325,440.8
997.0432,855.6
997.2064,1034.6
997.3961,821
997.5335,990.9
997.5862,1051.2
997.795,179.9
997.8231,260.6
998.1377,315.7
998.2579,372.5
998.507,991.2
998.7774,237.2
998.9945,1757.4
999.0875,1445.9
999.5105,465
999.5721,742.7
