SPECTRUM - MS,
1510.RAW,
FTMS + p ESI Full ms [50.00-1000.00],
Scan #: 1-40,
RT: 0.01-1.96,
AV: 40,
m/z,Intensity

50.0098,85.7
50.0142,21.2
50.017,473.9
50.023,106.6
50.0479,84
50.0556,16.5
50.0617,584.8
50.0635,76.9
50.0733,356.7
50.088,133.8
50.1063,280.3
50.1156,534
50.1351,17.4
50.1357,454
50.1544,460
50.164,17.6
50.1806,186.6
50.1876,86.3
50.1902,91
50.2093,60.1
50.2464,790.9
50.2537,627.8
50.2763,659.7
50.2864,113.6
50.3243,139.3
50.3447,143.1
50.3825,339.7
50.4249,228.4
50.4388,228.8
50.4407,231.9
50.4503,291.5
50.4704,113.9
50.4814,111
50.4957,409.9
50.5026,121.5
50.5043,158.4
50.5194,138
50.5434,113.9
50.5578,133.7
50.562,513
50.5939,471.7
50.6001,210.3
50.6078,110.4
50.6208,160
50.6263,100.9
50.6284,637.5
50.6321,97.8
50.6467,132.3
50.6497,67.9
50.6578,76.2
50.663,268
50.6673,16.1
50.6678,81.1
50.6709,102.9
50.6802,136.3
50.7053,18.6
50.7102,436.9
50.7234,574.9
50.73,482.1
50.7389,646.1
50.752,18.1
50.7528,290.7
50.7648,136.3
50.7725,660.1
50.7906,529.6
50.8161,100.8
50.8195,18.3
50.8247,242.4
50.8308,150.1
50.8488,17.1
50.8497,175.4
50.8702,699.9
50.8778,148.4
50.8877,559.3
50.8934,86.1
50.8974,122.2
50.9026,548.3
50.9031,142.3
50.913,18.1
50.9221,234.8
50.9321,253
50.9333,146.8
50.9538,580.4
50.9613,356.7
50.977,237.6
51.0175,292.7
51.0309,298.9
51.05,137.7
51.0673,256.1
51.0825,231.4
51.0884,15.6
51.0929,678
51.1017,714.3
51.1018,614.4
51.1201,110.9
51.1365,254.5
51.1496,135.2
51.1501,202
51.1584,152.6
51.1602,300.4
51.1648,126.5
51.1699,160.9
51.1706,210.2
51.1888,211.3
51.1986,103.3
51.1998,117.9
51.2063,145.6
51.2285,259.7
51.2386,122
51.2477,162.3
51.2611,18
51.2657,16
51.2879,159.6
51.2931,119.3
51.2977,638.2
51.3095,242.9
51.3324,662.3
51.3385,176.2
51.3453,574.7
51.3621,241.8
51.3946,15.8
51.4013,68.4
51.4039,114.7
51.4068,486.3
51.4097,99.9
51.4138,319.9
51.4204,557.2
51.4261,171.9
51.4326,158.9
51.4383,163.6
51.4395,18.7
51.446,141.9
51.4485,86.1
51.4539,278.3
51.4649,340
51.4739,580.5
51.4878,116.3
51.4977,505.5
51.4987,564.1
51.5171,657.2
51.5202,79.1
51.5252,138.4
51.5359,349.8
51.5619,152.3
51.5693,288.5
51.5725,167.2
51.5772,335.3
51.5779,91.4
51.6018,16.4
51.6154,182.8
51.618,22.6
51.6183,190.2
51.6232,223.6
51.6243,236
51.6281,15.8
51.6466,206.1
51.6641,303.8
51.695,73.7
51.6959,692.5
51.6984,430.6
51.7106,135.2
51.7574,113.6
51.7755,17.2
51.7765,122.8
51.7841,363
51.7935,179.1
51.798,834.3
51.7986,546.4
51.811,123.5
51.8183,770.6
51.8193,523.6
51.8208,199.7
51.9038,356
51.9044,137.4
51.917,293.4
51.9244,625.9
51.9288,15.7
51.9373,198.6
51.9447,15.6
51.971,399.5
51.9735,672.1
52.0041,670.3
52.0163,83.5
52.0373,481.7
52.0602,16
52.0874,327.9
52.0913,582.3
52.1213,278
52.1279,127.3
52.1476,207.3
52.1488,240.9
52.1671,15.6
52.1743,140.2
52.1851,100.7
52.1978,93.1
52.2005,171
52.2052,332.9
52.2064,18.8
52.2166,115.4
52.2321,545.3
52.2701,701.7
52.2903,15.1
52.302,238.4
52.3029,538.9
52.3037,173.7
52.3288,393.5
52.3642,63.9
52.3758,102.8
52.3948,18.3
52.3985,674.9
52.4024,148.7
52.4094,180.6
52.4116,295
52.4147,148.4
52.4171,241.6
52.4322,208.5
52.4328,608.9
52.441,259.6
52.4474,59.6
52.4477,794.7
52.4509,296.4
52.4635,268
52.4709,237.3
52.4797,565.8
52.5003,109.8
52.5019,233.4
52.5027,453.1
52.5141,143.9
52.5153,794.1
52.5184,105.2
52.5313,111.9
52.5534,198.9
52.5592,252.7
52.561,1164.5
52.5674,340.1
52.5769,502.6
52.5892,239.2
52.5999,213.7
52.6038,658.9
52.6275,16.1
52.6363,109.3
52.6374,406.9
52.6394,237.5
52.6423,225
52.7021,221.8
52.7027,577.9
52.7172,18.4
52.7283,78.3
52.742,253.4
52.7932,48.1
52.7942,16.5
52.7948,608.7
52.7956,950.7
52.796,1113.6
52.7966,1055
52.7968,1387.2
52.797,1576.9
52.7978,932.1
52.798,1145.3
52.7985,2592
52.7996,3715.9
52.8061,145.4
52.8066,624.4
52.8127,228.5
52.8367,386.3
52.8385,80.9
52.8446,292.7
52.8666,105.1
52.8676,290
52.8883,669.6
52.8943,290.6
52.9154,178
52.9329,181.9
52.9594,515.5
52.9762,568.8
52.9874,462
53.0004,241.6
53.0064,168
53.0277,534.6
53.0312,772.9
53.0928,101.7
53.0996,17.3
53.1039,214.5
53.1104,163.1
53.1188,18.4
53.1222,83.4
53.136,114.5
53.1403,304.4
53.1423,259.5
53.1589,364.7
53.1664,89.7
53.1858,290.5
53.1907,23.3
53.2017,368.3
53.203,15.9
53.2311,107.5
53.2421,105.8
53.2434,165.5
53.2466,339.4
53.2836,554.9
53.2864,583.9
53.2878,135.9
53.3043,464.2
53.305,128.1
53.3053,393.7
53.3115,110.6
53.3133,128.8
53.3333,108.8
53.3412,86.2
53.3415,231
53.3541,272.2
53.3566,535.7
53.3697,192.1
53.3793,89
53.3804,19.4
53.3823,215.8
53.3849,19.4
53.3854,693.9
53.3907,75
53.4075,15.6
53.4077,16.3
53.4136,115.8
53.4292,636
53.4455,91.5
53.449,202.1
53.4584,18
53.4648,220.1
53.5436,18.2
53.5535,123.5
53.5667,262.2
53.57,135.4
53.5949,286.2
53.6059,72.8
53.609,221.6
53.6231,439.4
53.6516,96.3
53.6863,151.7
53.688,454.3
53.7062,286.6
53.7138,233.7
53.7299,175.3
53.7343,216.5
53.7364,206.4
53.76,601.2
53.7675,595.5
53.7697,19.8
53.7766,122.5
53.8052,124.1
53.8305,104.1
53.8329,65.5
53.8395,164.7
53.8442,270.9
53.8471,110.4
53.8762,116.8
53.902,655.4
53.9038,534.5
53.9064,167.7
53.916,269.1
53.921,127.5
53.9267,442.7
53.9362,100.8
53.9367,79.5
53.9429,265.1
53.9484,510.9
53.9584,366.3
53.9614,331.7
53.9746,17
53.9982,304.3
54.0058,16
54.0163,198.5
54.0348,242.4
54.0376,79.2
54.0426,14.5
54.0496,107.2
54.0577,82.4
54.088,295.9
54.0933,153.9
54.1084,120.7
54.1105,292.1
54.1388,115.3
54.1401,117.9
54.1688,760.3
54.1813,14.5
54.1928,64.2
54.2189,123.3
54.229,146.5
54.2566,319
54.261,296.3
54.2616,130.2
54.269,187.4
54.2743,248.6
54.2879,92.2
54.2926,17.7
54.3046,66.6
54.3105,152.5
54.3115,302.4
54.3163,207.1
54.3229,108.6
54.3422,68.2
54.3489,106.4
54.3541,17.9
54.3568,101.3
54.3701,354.7
54.3838,88.6
54.4042,348.7
54.4111,101.8
54.4139,456.2
54.4358,171.6
54.4392,101.8
54.4439,376
54.4601,18.8
54.4684,236.3
54.4766,473.7
54.5012,18.9
54.5027,166.7
54.5131,204.3
54.5381,204.7
54.5407,85.1
54.5426,108.6
54.551,188.2
54.5768,15.8
54.5817,171
54.5822,683.6
54.5824,623.7
54.6055,113.4
54.6075,108
54.6212,579.4
54.6362,114.3
54.6543,113.8
54.6651,561.7
54.6887,90.9
54.6923,62.1
54.7177,527.2
54.7209,178.5
54.7243,201.3
54.7293,16.6
54.7312,146.4
54.7756,296.2
54.7845,96.8
54.7984,298.1
54.8279,448
54.8291,733.4
54.8321,133.5
54.8493,20.3
54.8598,118.5
54.8839,16.9
54.9528,262.2
54.9603,102.2
54.9679,142.1
54.9687,117.6
54.9709,538.9
54.9821,263.3
54.9853,350.7
54.9957,18
55.007,632.3
55.0229,74.2
55.029,16.6
55.0506,664.5
55.0572,151.3
55.0873,149
55.1062,18
55.1076,357.6
55.113,516.5
55.1253,93
55.1919,103
55.1982,150.5
55.2166,15.7
55.2346,505.7
55.2382,158.8
55.2409,645.6
55.2684,16.2
55.2722,511.6
55.2906,130.9
55.3186,126.1
55.3263,436.2
55.4043,18.5
55.4055,172.1
55.4364,211.3
55.4401,15.2
55.4473,121.7
55.4672,563.6
55.4751,89.9
55.4805,90
55.4988,378.6
55.5024,124.7
55.508,20
55.5101,337.3
55.5252,17.5
55.526,432.3
55.5419,110.4
55.5515,735.3
55.5737,198
55.5834,624.4
55.6382,176.5
55.6752,96.2
55.6774,16
55.6821,91.3
55.6906,96.1
55.7069,15.2
55.7558,65.1
55.763,119.2
55.7706,222.5
55.7785,212.4
55.7793,562.5
55.8008,403.5
55.8051,68.8
55.8238,129.7
55.8314,76.7
55.8583,124.8
55.8654,645.6
55.8695,611.4
55.8703,471.9
55.8748,348.1
55.8851,561.2
55.9051,343.1
55.9096,202.2
55.9269,370.3
55.943,307.4
55.9465,501.9
55.9842,125.6
55.9887,613.9
56.0094,277.6
56.0224,139.2
56.0232,154.9
56.0277,133.6
56.0329,530.5
56.0399,20.5
56.0458,96.9
56.0491,83
56.0939,435.3
56.1055,123.5
56.1114,280.2
56.1184,414
56.1203,75.6
56.1403,149.2
56.1598,16.7
56.1666,86.9
56.1694,275.3
56.1715,279.2
56.1747,158.7
56.1897,631.5
56.2084,165.2
56.2101,72
56.216,531.5
56.2351,275.3
56.2715,329.4
56.2954,197.2
56.3044,18
56.3187,89.4
56.3331,174.5
56.3549,676.2
56.3641,208.7
56.3688,71
56.3728,408.7
56.3864,93.6
56.3914,522.3
56.3922,72
56.397,70.6
56.4016,664.3
56.4035,746.8
56.4396,96.9
56.4469,311.1
56.4999,73.5
56.5003,86.7
56.5152,381.1
56.5347,117.4
56.5445,147.4
56.5756,238.1
56.5763,797.2
56.5791,131.3
56.5824,153
56.5891,639.1
56.6039,564.3
56.6076,82
56.6166,16
56.6209,98.6
56.6283,423.4
56.6455,138.1
56.6482,494
56.6705,329.5
56.6827,131.8
56.692,118.5
56.7052,152.6
56.7071,86.6
56.7267,85.6
56.7277,17.6
56.7286,109.1
56.7446,247
56.7708,282
56.7852,506.7
56.8153,219.6
56.816,303.9
56.8189,243.3
56.8491,197.6
56.858,335.1
56.8642,172.5
56.8749,512.5
56.8955,108.6
56.909,117.7
56.914,81.2
56.9264,135.7
56.932,637.2
56.9367,227.7
56.9402,289.8
56.941,182.1
56.9445,285.8
56.9471,196
56.9575,139.3
56.9743,89.4
56.9854,18.7
56.9908,64
57.0038,19.7
57.0137,595.6
57.028,97.7
57.0393,92.5
57.0543,87.7
57.0578,122.6
57.0651,96.7
57.0795,691.1
57.0874,113
57.0896,656.8
57.0959,321.8
57.1018,158.9
57.105,208.8
57.1113,288
57.1126,125.9
57.1265,442.9
57.1317,101.5
57.138,80.5
57.1796,128.1
57.1905,380.3
57.2258,59.4
57.2288,465.7
57.2496,197
57.2517,122.3
57.2585,83.2
57.2603,118.4
57.2605,115.5
57.2699,342.2
57.2717,17.5
57.2778,257.5
57.2852,767.4
57.2956,61.1
57.3134,175.7
57.3217,347.7
57.3253,105.9
57.3304,86.7
57.3437,777.2
57.3818,529.1
57.3964,347.3
57.4067,275.3
57.4088,702.5
57.4455,216.2
57.4493,273.7
57.4662,459.7
57.4771,17.5
57.4792,619.2
57.4929,118.6
57.4968,714.9
57.5125,319.1
57.5177,190.5
57.5294,81.3
57.5345,133.9
57.5353,120.2
57.5379,117.1
57.5419,403.2
57.5941,260
57.5991,788.7
57.6022,16.5
57.6152,691.1
57.6398,524.3
57.6403,169.9
57.664,236.6
57.6739,95.3
57.6754,497.8
57.6821,122.7
57.7192,582.1
57.7284,276.8
57.7462,161.4
57.7611,159.9
57.7672,437.1
57.7677,645.5
57.7973,76.9
57.8014,14.9
57.8042,220.8
57.8056,118.2
57.8118,18.1
57.8232,186.3
57.8395,143.6
57.842,95.3
57.88,484.4
57.9073,136.8
57.9306,95.4
57.936,337
57.9751,377.7
58.0243,322.4
58.0452,677.2
58.0464,333.1
58.0684,76.4
58.0753,227.2
58.0964,81.3
58.1122,82.4
58.1232,355.6
58.1294,270.4
58.1312,201.2
58.139,18.3
58.1407,18.9
58.1637,469.9
58.1832,77
58.1926,767.5
58.2212,116.4
58.2234,72.8
58.2241,140.7
58.2261,595.5
58.2593,286.1
58.2844,185.6
58.2959,134.3
58.3103,117.7
58.3174,297.3
58.3204,99.9
58.3352,317.6
58.3743,211.1
58.3958,149.8
58.4034,19.2
58.4052,331.4
58.4134,248.9
58.4305,469.9
58.4574,419
58.4598,83.9
58.4611,219.4
58.4622,748.8
58.4837,82.6
58.4842,153.1
58.489,332.9
58.4954,294.1
58.5345,509.2
58.5404,116.9
58.5429,130.9
58.5575,560.4
58.6266,121.3
58.6617,456.8
58.6627,257.2
58.6778,137.1
58.6812,551.8
58.6869,472.1
58.6891,152.9
58.7145,125.8
58.7539,250.7
58.7707,275.8
58.7735,816.5
58.7766,662.7
58.7835,293.8
58.7872,19.8
58.7879,107.4
58.7909,229
58.8044,17
58.8111,672.3
58.8237,17
58.8389,607.5
58.8392,16
58.8448,200.9
58.8524,65.2
58.8588,15.5
58.8602,300.5
58.8874,210.5
58.8911,345.1
58.9025,316.3
58.9131,142.8
58.9167,430.6
58.9173,91.8
58.919,216.2
58.9509,199.9
58.9555,128.3
58.9639,95.6
58.9762,370.7
58.9937,62.5
58.9968,251.4
59.0115,339.3
59.0217,113.3
59.0272,347.4
59.0333,281.1
59.0553,79.5
59.0592,254
59.0633,387.4
59.0695,239.6
59.0711,117
59.0888,332.7
59.0894,437.9
59.091,329.2
59.0963,15.5
59.0986,275.2
59.1014,229.4
59.1161,687.7
59.1497,18.8
59.15,121.1
59.1555,528.7
59.1646,297.3
59.1842,341.6
59.1944,172.2
59.1954,591.7
59.1962,70.7
59.2133,100.4
59.2272,64.5
59.2504,309.9
59.2592,181.6
59.2819,301.1
59.2908,75
59.3003,616.1
59.3016,293.2
59.3076,102.3
59.344,519.9
59.3591,114.3
59.3634,100.2
59.4121,72
59.4408,82.2
59.4445,96.2
59.4646,19.9
59.4702,273.4
59.4834,287.2
59.4865,208.9
59.4986,151.6
59.5075,494.7
59.5096,155.2
59.5105,134
59.5252,213.5
59.5293,714.3
59.5309,307.1
59.5414,278.7
59.5879,351.3
59.6017,727.4
59.6108,133.4
59.6441,581.3
59.6459,398.2
59.6591,88.4
59.6625,230
59.665,93.8
59.6667,91
59.6697,565.3
59.6825,288.9
59.6888,165.6
59.6899,81.9
59.6937,337.1
59.7035,702.4
59.7055,298.4
59.7102,743.2
59.7287,259
59.734,331.6
59.7384,439.8
59.7515,109.7
59.7661,16.3
59.7953,121.6
59.7998,523.5
59.8008,65.5
59.8539,121.3
59.8606,930
59.8678,193.5
59.8778,211.9
59.9064,98.2
59.9099,301.5
59.9302,217.1
59.9389,16.1
59.9581,507.1
59.961,666
59.9886,137.3
59.9936,277
59.9966,120.4
60.0079,669.1
60.0099,165.5
60.0146,437.9
60.0259,140.6
60.0323,80.1
60.0442,218.2
60.0513,454.3
60.0662,119.4
60.081,19.3
60.0864,185.1
60.0978,105.7
60.1352,295.3
60.1464,747.3
60.1489,116.1
60.1553,79.3
60.1574,319.5
60.1604,642.9
60.163,143.9
60.1666,125.8
60.1759,89.6
60.1852,765.6
60.2121,502.8
60.216,206
60.2258,707.1
60.2551,394.6
60.2741,16.7
60.2777,156.2
60.284,130.4
60.2853,304.4
60.3133,616.8
60.3183,490.3
60.3241,139.6
60.3247,213.1
60.3256,328.8
60.3274,18.5
60.3332,182.7
60.3343,133.7
60.3532,171.5
60.3817,158.2
60.3883,252.6
60.4084,147.1
60.4199,695.2
60.4306,205.6
60.4439,148.5
60.4494,589.1
60.4581,211.1
60.4873,503.8
60.5073,17.7
60.5133,159.3
60.5417,863.8
60.5515,285.4
60.5574,112.5
60.5582,232.3
60.5594,119
60.5822,89
60.5852,100.8
60.5936,492.1
60.6098,77.9
60.6105,386
60.6225,131.7
60.6262,649.6
60.6304,263.7
60.6307,122.4
60.6509,131
60.6533,555.2
60.6671,274.1
60.6726,17
60.6796,116
60.699,672.1
60.7296,676
60.7343,302.3
60.735,480.5
60.7401,295.9
60.7404,221
60.7622,509.4
60.8005,249.5
60.8085,82.8
60.8122,261.1
60.8201,17.4
60.8226,395
60.833,104.7
60.8349,78.8
60.838,702.6
60.8611,208.2
60.8802,417
60.8857,71.4
60.9054,17.4
60.9152,110.3
60.9314,15.2
60.9706,108.8
60.9759,607.8
60.9807,75
60.9918,327.7
61.0098,117.7
61.0268,239.4
61.0392,85.4
61.0405,180.7
61.0446,18.1
61.0521,913.6
61.0785,18.1
61.0878,286.4
61.0928,190
61.0944,248.8
61.0998,643.8
61.1056,273.8
61.1107,178.8
61.1252,418.8
61.1497,95.4
61.1539,130.9
61.1591,98.2
61.1691,17.5
61.1784,438.6
61.1798,201
61.1807,18.9
61.1901,16.3
61.1982,195.3
61.2033,127.7
61.2109,128.4
61.2163,927.7
61.2223,164.7
61.2383,18.9
61.2429,20.1
61.2491,119.9
61.2546,535.5
61.2749,151.3
61.3024,109
61.3026,111.2
61.3058,116.6
61.3151,75.8
61.3156,270.9
61.3212,428.8
61.3368,93.3
61.3436,18.6
61.3553,83.9
61.3631,124.3
61.3651,18.6
61.3798,587.2
61.3944,87.4
61.4045,296
61.4065,867.6
61.4095,87.4
61.4239,77.3
61.4366,158.7
61.443,97.7
61.4807,669.1
61.5022,93.4
61.5148,99.9
61.5174,158.9
61.5195,639.3
61.5548,924.8
61.5566,169.6
61.5711,78.9
61.5932,753.7
61.6109,110.9
61.6274,722.9
61.6404,17.7
61.6524,417.5
61.6711,125.1
61.6787,88.7
61.7025,18.9
61.7103,19.8
61.7123,124.3
61.721,388.7
61.7285,190.8
61.736,133.5
61.7807,553.2
61.7817,112.6
61.7953,335.4
61.8013,104.9
61.8128,770.5
61.8183,17.8
61.8397,447.8
61.8467,61.6
61.8573,611.9
61.9161,18.3
61.9302,210.6
61.9333,469.6
61.9369,160.7
61.9718,277.5
61.9722,246.5
61.9758,252.3
62.0013,363.7
62.0444,355.8
62.0534,126.9
62.0608,309.2
62.0696,430.1
62.0945,117.7
62.0977,18.8
62.1088,135.5
62.1153,177.6
62.131,20.4
62.1564,18.2
62.1624,121.1
62.1787,184.7
62.206,159.2
62.267,155.5
62.2683,119
62.2712,105.2
62.2774,571.3
62.2841,192.3
62.2958,317.9
62.2971,351.2
62.3275,456.1
62.3389,295.3
62.3473,652.7
62.349,106.1
62.3579,278.1
62.372,320.1
62.3732,713.5
62.3829,658.8
62.3865,770.1
62.3953,76.6
62.3977,17.5
62.3989,173
62.4006,198.5
62.4019,177.7
62.4309,121
62.4531,608.3
62.4548,210.4
62.4772,425.7
62.5102,19.5
62.5273,100.8
62.5335,287.9
62.5366,387.7
62.5479,386.3
62.5503,130.4
62.558,161.6
62.5719,219.5
62.6086,640.2
62.6098,131.2
62.6107,171.8
62.6171,194.7
62.6185,139.7
62.6304,445.4
62.6307,286.1
62.6668,306.5
62.6706,125.8
62.6714,270.9
62.697,75.6
62.71,84.6
62.7114,75.2
62.714,177
62.7214,105.2
62.7482,766.8
62.756,178.1
62.757,107.3
62.7635,138.8
62.7751,261.5
62.7816,198
62.7881,19
62.7991,227.2
62.8105,133.5
62.8316,17.1
62.8468,250.6
62.8528,687.2
62.857,704.4
62.8752,300.9
62.8767,16.1
62.8924,163
62.8972,15.9
62.9249,122.7
62.929,828.7
62.944,158.2
62.9572,241.2
62.9708,225.7
62.9768,116.4
62.9798,17.4
62.9901,151.8
62.9924,337.4
63.0081,409.1
63.0413,275.2
63.0416,291.6
63.0994,104.1
63.1316,302.2
63.146,111
63.1549,116.8
63.166,18.1
63.1836,370.7
63.1894,214.3
63.1944,242.6
63.2144,346.1
63.2227,72.9
63.2286,157.7
63.2327,301.9
63.2469,261.2
63.2706,115.1
63.2712,110.9
63.3301,18.8
63.3535,437.3
63.3545,721.5
63.3571,208.4
63.3878,436.7
63.4006,307.3
63.4332,286.3
63.4631,103.1
63.4714,375
63.4924,188.6
63.5009,74.4
63.5145,290.2
63.5171,365.5
63.5431,129.8
63.5445,679.3
63.5534,113
63.5575,111.1
63.5612,18
63.5737,411.1
63.5795,16.6
63.5936,665.6
63.5975,188.1
63.6156,351.5
63.628,23.1
63.6467,196
63.6629,326.5
63.6664,262.3
63.6766,275.2
63.6902,699
63.6928,309.1
63.7074,17.1
63.7307,17
63.7509,411
63.7602,802.4
63.7843,678.7
63.8007,98.6
63.8086,619.2
63.8096,16
63.8301,76.3
63.8391,16.7
63.8513,607.2
63.854,400.1
63.8555,122.3
63.8735,270.1
63.875,694.1
63.8772,209.9
63.8869,593.4
63.907,91.6
63.9363,561.8
63.9385,555
63.9489,398.5
63.9843,266
63.9852,18.2
63.9878,166.3
64.0056,129.2
64.0555,140.8
64.0566,492.3
64.0679,680.7
64.0722,287.4
64.075,122.5
64.0854,93.9
64.0868,471
64.1079,302.8
64.1301,170.3
64.1337,198.9
64.1432,300.9
64.1538,708.6
64.1854,70.2
64.1905,86.3
64.2052,180.7
64.2168,161.3
64.22,20.3
64.2596,15.7
64.2656,201.7
64.2724,502.3
64.3344,84.7
64.3369,244.9
64.3486,290.3
64.3854,538.6
64.394,874.8
64.4045,125.8
64.4125,211.7
64.4251,188.9
64.4379,624.7
64.4491,154.1
64.4803,172.9
64.4848,108.1
64.4944,320.5
64.5112,206.8
64.536,127.7
64.5457,96.8
64.5472,279
64.5531,134.8
64.5541,524.6
64.58,628.1
64.5821,170.5
64.5853,282.6
64.5874,87.8
64.588,557.1
64.5963,122.2
64.6098,643.5
64.6122,229.3
64.6124,229.4
64.6334,76.3
64.658,507.9
64.6851,133.4
64.6869,171.5
64.6981,17.8
64.6988,103.1
64.7175,181
64.7327,498
64.7477,368.3
64.7659,112.2
64.7701,587.9
64.7966,378.1
64.805,104.9
64.8183,83.5
64.82,104.9
64.8288,85
64.8497,95.3
64.875,124.8
64.9069,210.2
64.9145,583.4
64.9162,727.4
64.9485,126.4
64.9505,94.6
64.9596,723.4
64.9625,660.7
64.965,16.6
64.9724,321.9
64.979,460.7
64.9887,16.7
64.9961,166.8
64.9987,259.9
65.0137,170.9
65.0181,203.1
65.0795,641.7
65.1139,126.6
65.1192,509
65.1316,548.2
65.1329,500.6
65.1467,132
65.156,109.7
65.1571,831.5
65.1678,132.2
65.1705,135.8
65.1889,259.7
65.197,135.6
65.2013,114.3
65.2042,91.2
65.2396,124.3
65.2565,149.3
65.2661,574
65.2708,125.8
65.2797,581.7
65.301,470.6
65.3173,245
65.3196,142.6
65.3228,800.6
65.3608,280.6
65.3707,78.5
65.3717,573.3
65.3743,69.8
65.3775,224.4
65.3895,469.1
65.3929,91.8
65.4024,117.2
65.4047,117
65.4231,76.4
65.4373,476.5
65.449,18.8
65.4565,274.3
65.4646,83.7
65.467,64.5
65.4688,634.1
65.494,146
65.5084,18.2
65.5319,91.4
65.5433,125.6
65.5558,80.5
65.5644,88
65.5728,450.9
65.5937,302.6
65.6354,103.9
65.6632,403
65.6717,88.6
65.6949,141.4
65.7083,84.3
65.7248,224.7
65.7567,458.4
65.7601,646.3
65.7649,19.4
65.7806,108.1
65.7906,78.5
65.8032,595.5
65.8066,75.5
65.8102,685.9
65.8197,216.7
65.8317,418.1
65.8341,97.3
65.8435,689.5
65.859,97
65.8852,222.8
65.8883,270.8
65.8927,300.5
65.8973,207.9
65.9016,102.5
65.9019,91.8
65.905,223.5
65.9235,86
65.9366,102.8
65.9494,103.3
65.9579,258.7
65.9866,162.4
66.0107,225
66.0192,15.8
66.0212,126.2
66.0346,141.8
66.0415,20
66.0447,99.1
66.0579,138.9
66.074,130.2
66.0903,378.5
66.0962,643
66.1005,214.8
66.1025,150.4
66.1055,144.7
66.1245,701.5
66.1253,228.6
66.1556,321.7
66.1679,210.7
66.1698,311.4
66.1955,17.8
66.1979,156.9
66.2001,673.9
66.2155,94.7
66.223,244.5
66.2242,81.6
66.2378,536.2
66.2418,222
66.2666,84.4
66.2864,119.8
66.3547,640.8
66.3584,77.8
66.3715,239.4
66.401,24.1
66.4021,139.6
66.4034,100.3
66.4066,473
66.4165,20.9
66.4179,18.3
66.4199,285
66.4317,357.2
66.4564,17
66.49,20.6
66.5045,750.9
66.5113,100
66.5156,785.9
66.5353,509.5
66.5367,334.3
66.5411,101.7
66.5415,565.1
66.557,226.5
66.5619,238.2
66.5624,152.7
66.5912,136.7
66.5996,200.6
66.6111,213.1
66.6143,210.2
66.6298,308.8
66.6343,347.9
66.6363,106.8
66.6677,301.1
66.688,137.4
66.6984,94.5
66.7021,475.4
66.7081,656.4
66.7474,71.4
66.7649,624.2
66.7751,738.5
66.7974,68
66.7991,345.5
66.8206,485.2
66.8322,317.4
66.8426,531.2
66.8452,168.4
66.8955,119.3
66.9156,111
66.929,126.8
66.9339,17
66.9346,184.4
66.9428,448
66.948,16.7
66.9735,752.1
66.976,158
66.9934,15.6
67.0106,141.5
67.0304,280.4
67.0328,97.3
67.0418,89.2
67.0428,96.2
67.054,55.9
67.0559,591.9
67.0566,269.5
67.0868,618.6
67.0931,117.8
67.094,233.8
67.2001,18.2
67.2158,628.5
67.2274,151.1
67.2393,719.5
67.2783,264.3
67.2852,589.7
67.2878,290.7
67.2948,330.3
67.2986,141.6
67.3033,490.5
67.3087,325.5
67.3176,17.1
67.3247,75.7
67.3266,143
67.3423,707.8
67.3467,379.7
67.3474,115.2
67.354,131.1
67.3634,581.7
67.375,128.6
67.3808,102.3
67.4068,626
67.4239,762.8
67.4297,16.6
67.4328,122
67.4402,148.9
67.4446,609.2
67.448,84.1
67.4548,97.6
67.4635,203.5
67.4674,104.4
67.473,341.4
67.4866,670.6
67.489,80.5
67.4899,18.4
67.5163,133.1
67.5175,292.6
67.5277,193.4
67.5374,331.8
67.6041,16
67.6111,648.4
67.6404,98.7
67.6425,127.2
67.6588,421.1
67.6743,93.1
67.6802,136.6
67.6964,91.9
67.7147,442.8
67.7164,279.9
67.7307,619.6
67.7451,194.7
67.7588,20.2
67.7639,109.8
67.7658,285.1
67.7797,415.4
67.7869,134.7
67.8053,268.6
67.8152,117.5
67.8176,792
67.8271,146.8
67.8319,824.7
67.8844,112.8
67.8903,238.5
67.8926,145.3
67.9077,17.9
67.9155,636.2
67.9397,347.2
67.9616,18.2
67.972,742.3
67.9914,134.9
68.0047,192.6
68.0686,102.6
68.0764,514
68.0911,297
68.0972,195.1
68.1093,18.7
68.1331,117.7
68.1468,434.8
68.1514,164.8
68.1521,713.4
68.1568,103.2
68.1642,73
68.174,135.8
68.1979,233.2
68.2803,245
68.3294,171.8
68.3319,121
68.336,550.4
68.35,322.7
68.3513,121.1
68.364,165
68.3847,177.7
68.3861,111.3
68.3974,153.2
68.3991,135.1
68.4029,16
68.4228,158.8
68.4393,384.8
68.4773,506.5
68.4779,424.5
68.4829,103.3
68.4901,303.1
68.4965,366.7
68.4977,116.4
68.4985,72.3
68.5,134.3
68.5264,125.5
68.5324,605.9
68.5375,691.6
68.5381,188.4
68.5471,124.9
68.5619,16.8
68.5787,127.1
68.5855,229.6
68.6161,152.9
68.6291,149.7
68.6381,123.6
68.6396,19.3
68.6587,100.4
68.6641,76.4
68.6672,101.1
68.6935,104.9
68.6979,126.2
68.704,199.7
68.7508,155.3
68.7598,575.8
68.7676,104.3
68.8017,164.8
68.8145,654.5
68.858,382
68.8647,542.9
68.8664,274.5
68.8953,373.9
68.9087,17
68.91,125.1
68.9154,165.1
68.9277,643.2
68.9374,491.5
68.9463,379.4
68.9636,17.8
68.9676,674.1
68.9785,398.3
68.9974,118.4
69.0243,533.6
69.0392,472.2
69.0425,238.7
69.0543,130.7
69.0607,588.7
69.0805,230.7
69.0908,146.5
69.164,317.9
69.1895,18.3
69.1949,17.2
69.2256,643.4
69.2264,195.4
69.2352,421.6
69.2541,299.6
69.2601,537.9
69.2608,192.9
69.2793,117.6
69.2942,730.5
69.3055,551.3
69.3219,15.9
69.3294,432.1
69.3451,93.1
69.3543,269.2
69.3744,511.5
69.3844,232.4
69.4078,106
69.4141,628.3
69.415,211.7
69.4241,637.1
69.4909,254.9
69.501,308.9
69.5297,436.4
69.5419,325.8
69.6254,88.7
69.6492,102.6
69.6523,101.8
69.6627,163
69.6653,87
69.6824,313.9
69.6886,100.9
69.6963,18.5
69.7054,79
69.7314,549.4
69.7343,89.1
69.781,318.5
69.7816,125.6
69.7875,352.3
69.7948,555
69.822,19
69.8488,193.1
69.851,16.6
69.8515,17.6
69.8707,252.2
69.9175,273.7
69.9219,129.8
69.9617,290.3
69.9627,631.1
69.9666,116.3
69.9703,143.2
69.9903,137
69.9943,199.5
70.0016,360.2
70.0092,18.5
70.0161,277.2
70.0213,16.5
70.0351,84.1
70.0401,18.3
70.056,146.2
70.0649,1991.3
70.0756,16.1
70.0791,140.1
70.0832,275.7
70.092,274.1
70.0986,197.3
70.1053,103.2
70.1257,83.6
70.1342,156.9
70.1436,230.7
70.1489,334.5
70.1552,652.5
70.1686,539.6
70.1834,18.8
70.1881,721.8
70.1987,436
70.2122,238.7
70.2325,256.2
70.25,223.1
70.2602,643.5
70.2618,313.7
70.2715,18.8
70.2857,101.1
70.3017,318
70.3121,302.5
70.3169,88.4
70.3226,428.5
70.324,126.9
70.3338,300.1
70.3371,616.1
70.3603,426.8
70.376,610.7
70.3906,73.6
70.4001,158.1
70.4106,553.4
70.4214,17.5
70.446,100.3
70.4485,219.4
70.4595,183.6
70.4687,101
70.4756,174.3
70.5012,294.3
70.508,99.3
70.5152,446.4
70.5249,116.5
70.5393,107.5
70.5447,482.8
70.561,589.4
70.5661,16.3
70.5783,168.1
70.581,144.2
70.5993,17.2
70.602,668.5
70.6034,157.7
70.6145,114.9
70.6204,270.6
70.6223,19.2
70.6522,118.4
70.6801,159
70.6899,655.5
70.6948,125.5
70.7042,19.9
70.7062,126
70.7197,105.7
70.7807,808
70.8161,17.9
70.8222,236
70.8247,678
70.8275,816.7
70.8321,139.4
70.8322,155.3
70.8389,387.2
70.8495,108.9
70.8975,89.8
70.9692,211.7
70.9703,282.5
70.98,18.9
70.9944,635.7
70.996,638.2
71.0063,16.4
71.0107,107.9
71.0201,290.1
71.0262,311.3
71.0314,110.8
71.0385,100.3
71.0467,19.9
71.0754,340.8
71.0807,154.5
71.0856,228.6
71.1293,313.5
71.1373,17.9
71.145,466.3
71.182,141.2
71.192,624.9
71.1948,17.9
71.2258,688.8
71.227,537
71.2399,137.7
71.2479,95.8
71.2537,141.3
71.2555,199.7
71.2699,896.7
71.2839,163.9
71.3143,769.9
71.3312,279.4
71.3403,623.9
71.3793,16.9
71.3859,142.9
71.3968,93.4
71.4476,293.7
71.4721,851.9
71.4852,128.4
71.4914,132.1
71.4989,714.9
71.5049,254.7
71.5265,295.8
71.5406,153.6
71.5453,542
71.571,83.4
71.5825,20.1
71.6083,104.5
71.6487,256.1
71.6563,72.2
71.6622,568.8
71.6669,16.5
71.6759,226.9
71.6814,605
71.7046,495.5
71.7066,323.9
71.7133,93.1
71.7284,121.3
71.7383,215.1
71.7428,148.7
71.7777,117.1
71.779,118.4
71.7948,449.6
71.8108,547
71.8454,77.6
71.8499,288.7
71.8575,583.6
71.8685,157.1
71.8705,377.8
71.8791,16.6
71.8947,559.2
71.8953,89.7
71.9098,19
71.9242,17
71.939,94.8
71.9444,720.1
71.9499,18.3
71.9587,212.7
71.9597,78.3
71.9654,18
71.9818,643.7
72.0007,392.6
72.0016,16.6
72.0212,127.8
72.0637,81.1
72.0656,722.2
72.0805,3184.2
72.0969,477.2
72.1189,679.6
72.1238,154.5
72.1476,145.6
72.1622,97.6
72.1835,82.2
72.2078,604.8
72.2118,19.1
72.2138,153.7
72.2146,251.5
72.2184,227.3
72.2188,163.2
72.2191,184.7
72.2201,1292
72.2208,718.1
72.2219,964.5
72.2228,1421.9
72.2235,550.1
72.2241,1394.9
72.2248,2177.3
72.2255,2316.2
72.2263,1315.8
72.2274,2187.7
72.2285,2588.3
72.2301,2157.1
72.2305,2125.8
72.2314,2059.9
72.2318,2712.4
72.2324,4714.9
72.2334,2405.6
72.2344,4167.3
72.2351,2067.1
72.236,2705.1
72.2369,1769.5
72.2374,1351.3
72.238,3414.6
72.2393,758.4
72.2401,284.2
72.2413,1164.7
72.2422,900.2
72.243,881.2
72.2442,392.4
72.2449,535.5
72.2456,339.2
72.2468,204.2
72.2477,203
72.2484,99.7
72.2489,324.6
72.2523,20.1
72.2841,229
72.2953,117.3
72.302,517.3
72.3198,132.1
72.3282,764.6
72.3406,128.1
72.3454,595.2
72.3925,144.6
72.3973,173.7
72.4024,258.3
72.4474,112.3
72.4539,337.3
72.4572,251.6
72.5195,76.9
72.5395,17.7
72.5501,507.3
72.563,90.3
72.5801,226.4
72.5876,274.7
72.6009,250.5
72.6139,262.1
72.6202,16.6
72.6384,772.5
72.6505,79.4
72.6553,127.8
72.669,16.8
72.6763,148.5
72.6845,134.2
72.6855,159.1
72.7027,179.5
72.7317,815.9
72.7383,23.4
72.7467,223.6
72.7581,590.9
72.7673,85.2
72.7744,224.2
72.776,17.7
72.7771,400.7
72.778,234.6
72.7792,285.8
72.7935,491.3
72.8064,137.7
72.8113,19.7
72.854,216.3
72.9052,17.3
72.913,87.1
72.9151,17.1
72.9292,16
72.9477,454.8
72.9498,254.5
72.9638,93.8
72.9825,84.3
73.0076,126.3
73.0314,124
73.0355,463
73.0401,80.3
73.047,230.4
73.0513,367.5
73.0739,488.9
73.0781,527.9
73.0866,586
73.0876,660.4
73.106,133.9
73.1258,622.6
73.1382,234.6
73.1463,782
73.1572,343.6
73.1602,181.9
73.2061,142.1
73.2166,301.5
73.2222,347.8
73.2436,258.6
73.2639,466.3
73.2839,83.8
73.2899,172.4
73.2936,122
73.2977,498.5
73.3063,101.9
73.3136,175
73.3188,108.2
73.3362,86.9
73.3464,367.9
73.3643,17.8
73.3772,103.9
73.387,755.1
73.4016,126.6
73.4047,20.8
73.4106,684
73.4315,592.7
73.4569,552
73.4775,171.5
73.4925,76.6
73.4933,328.6
73.5146,425.5
73.5556,271.9
73.5647,431.7
73.5932,329.3
73.6057,19
73.6237,122.3
73.6459,77.6
73.6645,556.1
73.6724,116
73.681,171.2
73.6943,16.4
73.6949,703.6
73.7058,756.1
73.7192,87.3
73.7219,322.2
73.7367,194.4
73.7385,95.3
73.7554,107.3
73.7742,404
73.8094,632.2
73.8249,15.6
73.8298,378.2
73.8533,123.3
73.8662,219.6
73.8752,426.1
73.88,135.5
73.8964,163.9
73.9202,17.8
73.9552,110.4
73.9685,411.9
73.97,522.2
73.9874,144.4
73.9995,426.3
74.0093,576.9
74.0107,94.5
74.0212,279.6
74.0341,449.5
74.0358,94.8
74.0485,73.1
74.0598,4957.9
74.1239,672.3
74.1255,358.3
74.1727,101.3
74.2218,123.3
74.2326,130.6
74.2573,137.2
74.2662,18.5
74.2892,117.4
74.3056,780.1
74.3081,144.5
74.3087,735.2
74.3099,133.1
74.3166,358.8
74.3226,95.1
74.3246,186.6
74.367,211.1
74.3682,131.5
74.3706,119
74.373,21.6
74.3858,76.9
74.3929,168.3
74.4177,362.5
74.4184,309.2
74.4555,497.7
74.4833,191.8
74.485,302.6
74.5063,193.7
74.5115,106.1
74.5177,395.2
74.5237,123
74.5346,453.9
74.5467,152.7
74.547,185.9
74.5472,161.5
74.5478,184.8
74.5593,210.7
74.5625,355.5
74.596,123.9
74.6173,71.1
74.6574,19.7
74.6616,17.4
74.6751,400
74.6958,86
74.6974,155.2
74.705,384.4
74.7061,485.9
74.7141,162.5
74.7224,216
74.7394,176.2
74.7494,691.4
74.7564,17.3
74.7667,118.9
74.7745,187.2
74.8096,102.2
74.8161,29
74.8297,112.3
74.8487,325.5
74.8642,234.6
74.8672,76.3
74.8759,245.5
74.8847,79.6
74.9061,17.5
74.9111,197.1
74.9472,212.7
74.9544,588.2
74.9758,313.1
74.9887,135.5
74.9942,439.1
74.998,670.9
75.0162,107.5
75.023,553.6
75.0237,107.2
75.069,177.7
75.0882,158.1
75.1168,17.7
75.1262,251.6
75.1485,133.3
75.1535,19.4
75.1611,394.2
75.1867,787
75.2026,118.3
75.2084,69
75.2143,310.3
75.231,548.7
75.2358,277.8
75.2393,470.6
75.2495,328.3
75.2734,167.4
75.2769,17.8
75.2837,538.8
75.3093,148.4
75.3119,111.1
75.3222,76.8
75.3255,581.5
75.3276,17.4
75.3377,113.6
75.3519,187.6
75.3888,124.6
75.4172,210.3
75.4226,137.4
75.4353,386.8
75.4461,147.4
75.4799,210.4
75.5014,144.9
75.5187,106.7
75.5297,291.3
75.5399,119.3
75.5419,91
75.556,431.8
75.5666,128.9
75.5735,158.9
75.5884,476.3
75.5941,373.8
75.6049,360.7
75.6669,70.7
75.697,270.3
75.7124,117.8
75.7161,285.2
75.7902,173.6
75.8148,87.7
75.8593,296.1
75.8607,126.3
75.8832,102.8
75.8837,678
75.8846,73.7
75.9138,158.2
75.9267,79.7
75.9282,294.1
75.9386,92.9
75.9413,158.7
75.9496,99.6
75.9519,213.5
75.9885,90
76.0066,17.4
76.0241,146.4
76.0486,119.9
76.052,650.1
76.0603,87.7
76.0609,157.9
76.0709,83
76.0751,246.7
76.153,695.9
76.162,67.1
76.1822,763.8
76.1832,21.8
76.1931,139.9
76.1958,425.8
76.1983,117.9
76.2032,653.6
76.2543,250.5
76.261,534.2
76.2686,17
76.28,182
76.2813,103.4
76.2863,103
76.3023,811.1
76.3237,746.4
76.3313,158.8
76.3367,200.8
76.362,97.4
76.3735,22.7
76.3898,771.1
76.4097,334.8
76.4117,15.4
76.4182,304.4
76.4265,176.4
76.4333,391.4
76.4427,340.8
76.4528,106.3
76.4546,149.4
76.4553,218.6
76.4576,412.8
76.4942,314.8
76.5023,170.1
76.5072,118.5
76.5117,17.4
76.532,152.1
76.5468,99.3
76.553,22.5
76.6054,427.8
76.6235,92.2
76.6454,446.2
76.6917,353.9
76.6931,242
76.717,348.4
76.722,526
76.7329,79.5
76.7418,18.3
76.7585,181.5
76.7817,79.1
76.7998,385.4
76.8053,653
76.818,332.6
76.8418,156.9
76.8538,601
76.8741,97.5
76.8914,254.7
76.8985,112.1
76.9053,553.2
76.9132,97.5
76.9291,540.8
76.9648,756.6
76.9681,159.3
76.9821,232.4
76.9974,112.3
77.0048,119.4
77.0354,722.5
77.0358,605.1
77.0384,130838.7
77.0656,155.9
77.1124,19.7
77.1479,680.5
77.2031,86.7
77.2097,963.9
77.2488,261.4
77.2559,687.2
77.2662,1473.9
77.2693,74
77.2712,228.3
77.2781,196.2
77.2858,96.6
77.3084,141.1
77.3354,708.7
77.3512,103.9
77.3589,671.1
77.3739,298.4
77.383,99.4
77.4074,161.3
77.4191,104
77.4592,99.9
77.5074,314.7
77.5127,257.6
77.5235,17.4
77.5523,988.2
77.5568,650.5
77.5739,108.1
77.5795,283.4
77.6023,414.8
77.6321,392.9
77.6511,102
77.6556,101.9
77.674,811.3
77.6798,438.8
77.7246,110.8
77.7361,163.3
77.7394,25.3
77.7657,96.8
77.7726,301.4
77.7766,738.1
77.7993,181.7
77.8009,90.9
77.8018,215.5
77.8038,300.3
77.824,672.9
77.8473,588.3
77.8503,585.8
77.8621,98.1
77.8656,169.5
77.8846,98.3
77.8987,95.1
77.9027,549.3
77.9097,17.8
77.9106,527.9
77.922,712.3
77.957,240.3
77.9603,18.5
77.9655,553.3
77.9803,79
77.9961,160.5
78.0107,100.3
78.015,204.5
78.0418,4111.3
78.0823,419.8
78.0938,397.9
78.0946,735.6
78.098,129.8
78.1011,75.4
78.1383,89.4
78.1534,243
78.1637,90.2
78.171,533.3
78.2061,653
78.2286,174.6
78.2334,594.7
78.2377,212.4
78.2582,314.7
78.2918,459.4
78.3202,102.9
78.3243,94.9
78.3365,81.1
78.3405,86.4
78.3439,90.9
78.3459,88.7
78.3619,279.7
78.3662,96
78.3717,229.7
78.3761,197.6
78.3867,16.6
78.4146,647
78.4663,17.8
78.468,126
78.5413,141
78.5564,97.5
78.5729,439.1
78.5762,163.2
78.5861,125.8
78.5877,146
78.5957,553.6
78.6294,136.6
78.6326,127.7
78.6385,114.1
78.6972,280.8
78.6993,16.1
78.7096,20.2
78.74,204.7
78.7446,730.3
78.7494,19.7
78.7679,17.6
78.7694,223.6
78.7819,559.4
78.7823,373.4
78.7911,89.2
78.8016,97.7
78.8108,399.2
78.8262,104.1
78.8379,114.1
78.8527,162.5
78.8895,140.6
78.8937,435.8
78.8971,336.9
78.8994,356.4
78.9074,566.8
78.9106,16
78.9185,110.5
78.9689,193.7
78.9797,116.4
78.9892,430.8
78.9925,392.2
78.9931,96.4
78.9969,191.5
78.9991,242.9
79.035,426.4
79.0398,641.7
79.0452,95.8
79.0463,903
79.0541,2491.5
79.0611,145.8
79.0661,437.4
79.0828,326.5
79.0892,385.2
79.1128,699.2
79.1249,233
79.1307,139
79.1582,221.6
79.1641,110.3
79.1879,715.9
79.1917,18.4
79.2114,97.3
79.2154,152.6
79.2447,580.3
79.2578,170.6
79.3103,538
79.317,113.2
79.3209,581.8
79.3217,119.7
79.3422,18.4
79.3658,714.2
79.3667,356.8
79.3837,145.5
79.4178,17
79.4285,781.4
79.4329,308
79.4613,747.3
79.4652,592.7
79.5318,395.3
79.5507,265.4
79.5891,254
79.5944,305.8
79.6088,612.2
79.6217,138.2
79.6358,164.6
79.641,20.1
79.647,105.2
79.7106,182.1
79.734,456.2
79.7526,783.3
79.7694,171.4
79.7847,422.7
79.8641,435.9
79.8891,571.5
79.9186,18.4
79.9332,174.1
79.9799,191
79.9825,303.3
79.9864,319.3
79.9914,135.3
79.9992,300.8
80.0013,611.5
80.0036,224.7
80.0449,579.9
80.0502,133.4
80.0538,96.4
80.0553,416.5
80.0681,15.5
80.0717,228.3
80.087,580.1
80.0951,639.8
80.1076,577.8
80.1909,247.5
80.1958,292.3
80.243,420.9
80.2529,146.4
80.257,168.9
80.2735,612.9
80.2773,147
80.387,19.6
80.391,17.2
80.4001,96.8
80.4121,100.4
80.4131,205.8
80.4172,17.8
80.4422,483.6
80.4575,279.4
80.4808,478.5
80.5007,88.1
80.5135,16.7
80.5202,472.6
80.5246,482
80.5253,83.7
80.53,651.4
80.5438,239.7
80.5487,283.4
80.556,121.9
80.5711,148
80.579,116.8
80.5933,17.2
80.5953,530.9
80.6024,552.6
80.618,275.5
80.6237,97.7
80.6598,691.6
80.6751,609.1
80.7029,375.7
80.7045,275.2
80.7134,130.8
80.7145,280.5
80.7238,84.2
80.7394,152.1
80.7584,112
80.8008,344.8
80.813,357.7
80.82,142.9
80.8389,78.3
80.8578,309.4
80.8778,169.2
80.8826,584.3
80.8958,532.6
80.9356,358.4
80.9401,15.6
80.944,130.9
80.9477,34426.6
80.9547,115.7
80.9978,277.2
81.0098,730.5
81.0252,116.2
81.0538,75.6
81.0698,1076.3
81.076,425.5
81.1106,226.6
81.1153,457.4
81.1358,203.6
81.1509,464.7
81.1515,93.2
81.1524,656.4
81.1536,307
81.1545,1177.3
81.155,943.2
81.156,425.3
81.1569,270.7
81.1583,504.6
81.1612,134.4
81.199,577.6
81.2382,358.5
81.2562,405.6
81.2604,396.5
81.2899,166.1
81.2993,203.8
81.3409,437
81.3636,17.4
81.3901,644.3
81.4579,97.6
81.4668,143.9
81.4897,206.5
81.5082,311.7
81.5903,438.1
81.6022,149.9
81.6135,493.7
81.6145,19.4
81.6466,613
81.6491,467.5
81.6611,239.4
81.6642,16.8
81.6748,390.8
81.6836,301.3
81.6926,89.1
81.6934,321.5
81.6951,546
81.75,408.7
81.7976,77.1
81.8066,280.4
81.8107,108.6
81.8297,768.3
81.8405,434.6
81.856,124.6
81.873,219.6
81.8907,71.3
81.8958,18.8
81.9278,203.6
81.9641,148.5
81.9705,534.9
81.9762,753.2
81.9897,256
81.9921,102.4
82.0037,246.4
82.0072,290.5
82.0125,249
82.0266,95.2
82.0283,136.4
82.0388,81.4
82.0451,220.5
82.0611,194.2
82.0693,431
82.0731,16.8
82.1188,112.2
82.1591,332.2
82.2305,83.2
82.2349,16
82.2502,94.9
82.265,153.6
82.2904,119.1
82.2941,621.5
82.3094,638
82.3161,113.4
82.3189,109.9
82.3273,16.3
82.3325,16.7
82.355,82
82.3792,17.8
82.3958,355.7
82.404,81.8
82.4486,325.6
82.4541,761
82.4589,539
82.4843,414.6
82.5035,127.5
82.5188,672.7
82.5211,80.5
82.5357,234.5
82.5484,513.2
82.5503,510.6
82.5589,970
82.5831,812.3
82.5995,77.1
82.6665,16.8
82.6724,735.5
82.6752,95.9
82.6962,117.9
82.7182,119.1
82.7906,159.2
82.8026,150.2
82.818,26
82.8567,556
82.9003,18.2
82.9376,110.9
82.9448,7532.6
82.9506,130.4
82.9539,140.9
82.9706,537.4
82.979,100.3
82.992,252
83.0096,87.5
83.0236,122.1
83.0854,25.2
83.1135,94.8
83.1194,88.6
83.1361,621.1
83.1584,441.5
83.1952,72.9
83.1977,360.5
83.3062,324.2
83.3131,308.6
83.318,94.5
83.3189,71.2
83.3694,935.8
83.3887,144.5
83.4372,385.5
83.4873,194.8
83.5353,178.9
83.5588,390.3
83.5815,108.8
83.5839,423.2
83.6164,20.4
83.6173,237.9
83.6259,116.1
83.6309,760.1
83.6416,736.3
83.6545,17.4
83.6619,114.8
83.6773,736.4
83.7039,167.6
83.7375,357.9
83.7534,317.3
83.7558,105.9
83.7621,511.9
83.7854,366.8
83.7999,96.3
83.8083,88.8
83.8114,405.7
83.8152,159.5
83.8503,125.5
83.8744,116.3
83.8909,97.1
83.904,119.9
83.9201,296.9
83.9215,80.6
83.9441,259.2
83.9637,522.5
83.975,410.6
83.9778,762.9
84.0151,17.2
84.0185,95.7
84.034,71.1
84.0443,1175.5
84.0807,97.3
84.0861,291.7
84.0919,298.8
84.1036,964.4
84.1214,441.3
84.1228,755.5
84.1772,267.3
84.1972,406.9
84.2367,649.3
84.2916,369.2
84.3184,320.6
84.3392,679.8
84.3902,342.3
84.3943,120.7
84.4233,118
84.4368,157.7
84.4419,317.1
84.458,701.4
84.4771,100.7
84.4843,112.5
84.5202,90
84.5686,277.8
84.5858,491
84.5968,170.1
84.6375,94.2
84.6549,107.7
84.7193,232.8
84.7409,16.7
84.7728,180.2
84.7761,117.1
84.7848,20.9
84.7913,83
84.7951,299.3
84.8144,117.5
84.8414,294.3
84.8859,301.5
84.892,19.2
84.9176,222.7
84.9284,567.8
84.9466,156.6
84.9572,76.9
84.9596,22248.3
84.9619,99.6
84.9641,402.8
84.9702,273.5
85.0066,133.2
85.0165,279.9
85.0186,509.1
85.0262,117.6
85.0278,132.8
85.1054,123.6
85.1225,662.4
85.1567,394.7
85.1681,700.1
85.1744,17.3
85.2045,207.6
85.2084,164.1
85.2105,109.1
85.2829,680.7
85.3179,101.1
85.3268,197.2
85.3337,226.2
85.3388,158.2
85.3468,121.5
85.4216,67.9
85.4359,340.9
85.4461,795.9
85.4628,262.5
85.4755,652.9
85.5249,358.8
85.5431,17.7
85.5875,674.4
85.6015,222.7
85.6028,98.3
85.6031,140.5
85.6033,143.9
85.6221,610.3
85.623,124.8
85.6724,76.4
85.6746,517.9
85.6911,130.5
85.6917,223.1
85.6937,399
85.736,254.6
85.7459,20.1
85.7474,109.2
85.7637,225.7
85.7842,138.2
85.7891,432.2
85.8135,164.4
85.8358,158.8
85.8547,114.7
85.8808,480.8
85.8859,591.4
85.93,145
85.9313,98.8
85.9337,67.9
85.9921,136.1
85.9935,166.9
86.0093,95
86.0234,181.2
86.0262,456.6
86.06,46207.5
86.0951,16.3
86.0963,132456
86.1277,98.3
86.1595,19
86.1678,267
86.189,281.5
86.2225,79.3
86.2799,17.1
86.2814,230.6
86.2955,633.8
86.2972,276.3
86.3171,17
86.3236,637.3
86.3728,129.8
86.3737,78.9
86.3952,108.8
86.4107,363.5
86.4133,18.7
86.4621,382.8
86.4655,742.9
86.47,77.7
86.4983,309.2
86.5267,116.4
86.5599,111.9
86.5962,323.3
86.6418,293.3
86.6447,173.1
86.6496,117.1
86.6663,145.4
86.7013,129.6
86.7147,208.9
86.7205,268.2
86.7212,115.7
86.7681,500
86.7849,120
86.8073,15.7
86.8494,284.6
86.852,624.1
86.8593,664.7
86.8757,346.2
86.9054,680.2
86.9078,122.5
86.9304,16.8
86.965,751.5
86.9966,102
87.0804,99.8
87.0813,565.5
87.1145,76.7
87.1168,20.1
87.1595,16.3
87.1908,231.3
87.2054,452.9
87.2317,120
87.2379,287
87.2426,19.4
87.2944,17.5
87.2998,652.9
87.3053,169.2
87.3137,249.8
87.3331,704.7
87.3378,120.1
87.3491,687.7
87.3699,21.2
87.3867,716.4
87.3964,143.8
87.4184,226.2
87.4242,818.3
87.4274,165
87.4455,218.1
87.4636,316.9
87.4812,300.4
87.488,18.1
87.4954,132.4
87.4976,106.9
87.5343,102.1
87.5387,130.2
87.546,19.2
87.5486,557
87.5516,636.4
87.5544,140.3
87.5707,134.4
87.6189,201.3
87.6432,642.8
87.6648,101.9
87.6841,71.5
87.7126,453.7
87.723,787.1
87.7288,21.3
87.7849,112.4
87.8228,217.8
87.8254,750.5
87.8349,95.3
87.8734,360.5
87.8985,112.8
87.9052,87.6
87.9164,18.1
87.9747,299.1
87.9877,343.9
88.0084,111.2
88.0304,129
88.0392,11445.7
88.1069,91
88.119,242.5
88.1296,244.9
88.1311,71
88.1381,384.5
88.1743,211.6
88.2155,810.2
88.235,398.8
88.2774,17.5
88.3186,673.9
88.321,142.1
88.3322,482
88.3431,609.4
88.3467,103.7
88.3486,410.2
88.3754,240.3
88.4203,93.2
88.4271,154.9
88.4406,124
88.4868,86.2
88.5221,518.3
88.5318,458.6
88.5365,635.7
88.5432,211.3
88.5457,126.5
88.5524,253.6
88.5861,80.6
88.6287,200.8
88.6403,99.7
88.642,129.9
88.6664,79.4
88.6694,16.5
88.6767,656.9
88.6975,217.7
88.7232,271.4
88.7254,21.1
88.7308,91.3
88.8141,17.9
88.8734,524.1
88.8915,171.6
88.9719,435
89.017,687.5
89.029,20.9
89.0499,194.3
89.0598,22.6
89.0625,106.7
89.1057,368.1
89.11,133.6
89.1177,211
89.1486,307.4
89.1835,157.2
89.1918,268.8
89.1971,239.4
89.2012,120.5
89.2049,306
89.2297,762.5
89.2564,610.4
89.2763,167.2
89.2949,416.6
89.2996,445.5
89.3099,122.6
89.3177,104
89.3195,21.1
89.3577,179.3
89.3702,291.7
89.382,162.8
89.4074,291.7
89.4403,16.9
89.5304,178.6
89.5674,299.4
89.5983,762.6
89.5994,120.4
89.6278,109.4
89.6453,365.9
89.7495,106
89.7972,86.2
89.8055,903.5
89.8708,108.5
89.9006,335.8
89.9236,647
89.9346,117.6
89.9671,775.6
89.9934,204
89.9937,233.4
89.994,98.1
90.0058,197.4
90.04,463.6
90.0584,277.5
90.0607,114.1
90.0671,18.7
90.1111,162.5
90.1203,557.4
90.1344,226
90.1477,254.4
90.1502,146.5
90.1524,139.6
90.1602,234
90.1696,257.5
90.1717,19.2
90.2006,238.5
90.2036,320.2
90.2067,157.3
90.2084,421.4
90.2189,19.3
90.2786,769.3
90.2866,79.9
90.3016,114
90.3164,913.4
90.3434,397.9
90.3444,140.4
90.3466,349.4
90.348,622.4
90.3705,405.8
90.4016,442
90.4049,158.6
90.4148,156.8
90.4436,172.3
90.4632,98.4
90.4812,300
90.5138,591.9
90.5217,84.2
90.5397,21.4
90.5575,211.4
90.5596,279.4
90.5632,544.9
90.5677,283.5
90.5763,105.5
90.6054,493.4
90.6113,436.7
90.6198,377.7
90.6215,699.2
90.626,83.3
90.6467,101.2
90.657,459.3
90.6743,752.6
90.6891,154.4
90.7072,107.6
90.7089,20.9
90.7458,112.4
90.7693,128.1
90.7734,582.4
90.7918,185.2
90.7977,307.5
90.8112,375.1
90.8274,108.5
90.8284,166
90.8311,139.7
90.8334,88.9
90.8386,134.2
90.8545,113.5
90.8781,99.8
90.9157,222.1
90.9233,833.2
90.937,242.8
90.9476,49.2
90.9766,6743.4
90.981,211.4
90.986,107.2
91.0542,4189.2
91.064,20.4
91.081,579.7
91.1558,383.5
91.1806,148.5
91.2354,19.2
91.3304,135.5
91.3517,127.6
91.3591,17.3
91.3636,794.9
91.378,671.3
91.4243,314
91.4498,858
91.4509,154.9
91.5221,143.6
91.529,467.6
91.5302,534.1
91.5568,227.8
91.5682,214.1
91.5885,259.3
91.5953,402.4
91.6529,209.4
91.7292,359
91.7306,19.3
91.7504,157.6
91.783,211.6
91.7847,312.3
91.8012,84.9
91.8103,502
91.8155,351.6
91.8357,172.3
91.8389,172.6
91.8418,136.4
91.8426,106.8
91.8465,329.6
91.8481,18.5
91.888,136.6
91.8892,428.6
91.9166,116.9
91.9305,134.7
91.932,211.3
91.9591,22.6
91.9972,122.3
92.0019,562.6
92.0114,153.9
92.0479,327.7
92.0498,555.2
92.0644,213
92.1037,80.3
92.1206,146.2
92.1267,126.6
92.1293,22.9
92.1559,242.4
92.1627,132.1
92.1922,173.5
92.2031,191.7
92.2618,93.6
92.3088,229.5
92.3298,94.4
92.3354,158.3
92.3976,16.1
92.4165,489.1
92.4289,466.6
92.4607,107
92.4625,297.1
92.4704,154.5
92.4716,276.5
92.4756,85.4
92.496,203.2
92.5312,712.6
92.5402,449.3
92.5433,219.3
92.5728,302.2
92.6113,18.5
92.654,103.5
92.7087,16.5
92.7543,354.3
92.7693,313.5
92.7771,152.8
92.7953,215.1
92.8471,459.7
92.8488,288
92.9019,18.8
92.9171,128.7
92.939,190.6
92.9405,20
92.9589,674.2
92.9675,101.8
92.9901,127.6
93.0126,489.1
93.0135,643.6
93.0202,747.6
93.0212,158.1
93.0265,451.9
93.0322,756.4
93.0334,23.5
93.0646,113.1
93.0664,100.4
93.0699,227
93.1074,785.3
93.1181,395.1
93.1285,129.6
93.1411,527.1
93.1681,141.7
93.1929,247.8
93.215,109.3
93.217,117
93.2246,292.1
93.23,598.6
93.2782,140.2
93.2832,85.2
93.2973,892.4
93.3286,20.8
93.3561,165.7
93.3581,65.7
93.3709,330.3
93.4115,156.5
93.4262,395.6
93.4438,151.8
93.4598,110.9
93.4646,147
93.5034,173.5
93.5169,384.4
93.5242,134.7
93.5438,129.6
93.5722,155.4
93.575,130.6
93.6062,74.5
93.6481,662.5
93.6768,800.5
93.6857,167.6
93.7079,824.3
93.7122,148
93.7136,98.9
93.7163,534.2
93.7261,706.6
93.7367,116.2
93.7739,236.5
93.7881,596.7
93.7967,133.3
93.8209,459.9
93.8279,453.8
93.8641,219.9
93.873,18.6
93.9158,365.4
93.9227,207.2
93.9379,113.8
93.9729,225.1
94.0042,585.3
94.0149,152.8
94.0413,71612.4
94.0429,37.7
94.0508,138.2
94.0732,558.8
94.0936,18.4
94.1076,671.1
94.115,147.9
94.1162,322.1
94.1264,76.4
94.1467,147.3
94.1627,106.9
94.1669,99.7
94.2473,301.8
94.2797,444.6
94.3285,309.9
94.34,86.8
94.3518,567.2
94.3566,351.9
94.3648,535.7
94.3846,159
94.3888,184.3
94.4223,155.4
94.4424,138.1
94.4648,291.1
94.476,296.2
94.5045,314.6
94.5097,365.7
94.5189,667.5
94.525,700.8
94.5433,107.6
94.5501,231.8
94.5956,198.8
94.6081,326.1
94.6308,355.4
94.6432,326.6
94.6608,365.8
94.6863,206.4
94.7706,284.7
94.7831,275
94.7868,436
94.8546,806.9
94.8601,571.5
94.8881,206.1
94.9071,131.8
94.915,242.3
94.9202,185.9
94.9232,331.2
94.9242,285.6
94.9363,310.1
94.9765,691.6
95.0234,23.1
95.0356,53.8
95.0424,444.8
95.0447,1532.7
95.0464,172.6
95.0476,173.5
95.0491,468152.1
95.0508,143.2
95.0511,87.7
95.0514,57.4
95.0518,36.3
95.0624,50.2
95.084,233.3
95.0854,529.8
95.0894,23.4
95.1049,101.4
95.1381,21.5
95.1623,15.6
95.2052,290.7
95.2217,108.4
95.299,142.9
95.3105,121.7
95.3218,209.2
95.3279,19.9
95.3323,335.5
95.3768,340.9
95.3912,239.7
95.4017,424.7
95.4114,196.3
95.4158,687.3
95.4616,141.3
95.4871,109.7
95.5281,385.5
95.5365,335.7
95.5655,156.1
95.6091,85.3
95.6115,603.3
95.671,151
95.7185,18.9
95.7244,103.8
95.7423,19.4
95.7433,109.3
95.7471,429.2
95.8159,488.9
95.8536,155.7
95.8802,113.5
95.8857,24.7
95.8939,20.2
95.9163,526.2
95.9284,176.3
95.958,134.5
95.96,79.8
95.9882,136.9
95.9995,164.5
96.0152,138.9
96.0456,309.8
96.048,24.8
96.0525,24029.6
96.0591,162.9
96.0778,142.2
96.0956,106.7
96.0986,177.4
96.1003,93.4
96.1185,17.3
96.1324,298.5
96.1457,621.1
96.221,147.9
96.2512,95.7
96.2662,93.5
96.3044,169.6
96.3338,871.8
96.3349,19.5
96.374,421.5
96.3809,364
96.4232,150.1
96.4285,150.8
96.479,164.8
96.5046,852
96.5179,177.9
96.5344,131.9
96.5393,755.9
96.5672,208.8
96.5873,340.8
96.6128,585.3
96.6371,82.4
96.6454,130.9
96.6479,105.3
96.6766,695.4
96.6978,333.1
96.7686,129.5
96.7891,559.7
96.7902,166.6
96.8278,118
96.8527,312.4
96.8909,738.9
96.9217,121189.6
96.9573,331.4
96.9639,119
96.9737,94.7
97.0075,187.9
97.0105,36.6
97.0155,271.9
97.0223,399.5
97.0253,119.7
97.0533,127.6
97.0557,30.8
97.0937,123.5
97.1011,25.2
97.1417,279.5
97.1482,97
97.2254,19.1
97.235,561.6
97.2414,212.6
97.2713,145.3
97.3233,37.1
97.3353,90.1
97.3383,155.3
97.3391,84.1
97.372,20.9
97.3944,698.5
97.3968,21
97.434,545.3
97.4556,18.8
97.4719,330.3
97.5043,657.5
97.51,144.1
97.5613,75.6
97.5816,185.8
97.6013,156.8
97.625,268
97.6402,209.1
97.6792,602.3
97.702,532.7
97.7312,123.3
97.8205,122.4
97.8258,19.4
97.8344,96.8
97.8559,94.9
97.8688,158.8
97.8788,173.9
97.9597,439.8
97.9926,594.2
98.0157,110.5
98.0393,19.4
98.0401,99
98.0614,370.7
98.1067,21.7
98.1211,103.6
98.15,203
98.1865,140.3
98.2009,292.4
98.2069,150.8
98.2308,132.5
98.2378,430.7
98.2832,419.5
98.3292,188.7
98.3507,92.2
98.42,220.5
98.4848,103.2
98.5309,227.5
98.5515,293
98.5559,159.3
98.5683,157.6
98.6087,19.2
98.6304,261.3
98.642,422.9
98.654,691.1
98.6951,323.2
98.8047,19.8
98.8091,748.6
98.8196,232.4
98.8306,760.4
98.85,582.5
98.864,139.9
98.8811,588.9
98.8814,586.7
98.9188,33130.1
98.9198,3968
98.9333,594.4
98.9504,251.2
98.9753,10078.5
98.9841,107.9
98.9956,122.9
99.0183,85.3
99.0278,18.6
99.0434,765.5
99.0719,703
99.0915,96.9
99.1326,348.2
99.1427,632
99.1593,124.3
99.1629,862
99.2232,623.5
99.23,441.5
99.2744,670.2
99.2937,419.9
99.3079,388.8
99.3233,519.2
99.3343,516.1
99.3623,639.6
99.3677,157.3
99.3867,16.9
99.3926,74.1
99.4,147.2
99.403,95.7
99.408,16.9
99.4234,126.2
99.4666,235.1
99.471,258.4
99.5078,97.7
99.5235,415.4
99.5277,559.1
99.5309,345.1
99.5727,131.1
99.6104,67.7
99.6124,485.8
99.6559,257.3
99.6661,79.9
99.6925,106.9
99.6955,264.1
99.7241,271.2
99.7771,589.7
99.7836,461.8
99.7865,694.2
99.7964,205.9
99.814,702.8
99.838,83.1
99.8407,131.2
99.8475,104.4
99.9527,232.8
99.9755,612.5
100.0237,468.7
100.0337,89.8
100.0436,406.6
100.055,201.9
100.0757,45.1
100.087,240.6
100.1102,330.6
100.112,3747.1
100.1287,570.3
100.1606,119.6
100.1883,159.5
100.2197,126.4
100.2457,241.8
100.2919,17.6
100.3167,84.6
100.3501,141.1
100.3539,17.7
100.3842,181.6
100.4243,579.3
100.4872,172.7
100.5013,91.7
100.5322,241.8
100.5383,259.7
100.6413,18.4
100.6576,758.1
100.6701,724
100.6953,114.5
100.7268,86.6
100.8179,134.7
100.8988,372.8
100.9084,218.2
100.917,1680.5
100.9573,811.5
100.9648,400.5
100.9804,467.6
100.9834,145.3
101.0471,3281.7
101.071,1145.3
101.0791,139.3
101.0816,93.8
101.0964,477.8
101.1079,227.9
101.1191,696.2
101.129,18.3
101.1346,174.5
101.1387,136.5
101.1419,158
101.144,577.2
101.1546,84.2
101.1677,568.5
101.1984,131.6
101.2138,186.7
101.25,392.1
101.2828,66.7
101.3135,350.9
101.3727,167.9
101.4095,249.4
101.4207,379.2
101.432,84.4
101.4618,114.3
101.4887,207.4
101.5046,126.3
101.512,632.2
101.5488,18.5
101.5523,107
101.5641,102.5
101.5695,665.2
101.5774,731.6
101.6039,109.3
101.6178,206
101.6421,106.5
101.6467,74.3
101.6673,525.6
101.6726,76.8
101.6817,557.8
101.6989,120.8
101.7188,161.6
101.7246,206.5
101.7363,568.2
101.7995,117.9
101.84,81
101.8583,18.5
101.873,300.3
101.8784,103.9
101.8814,331.2
101.9037,376.7
101.9371,430.6
101.9446,292.6
101.9601,170.3
102.004,240.2
102.006,239.6
102.0124,238.7
102.029,183.9
102.0365,232.6
102.055,6785.9
102.0769,386.6
102.1247,110.6
102.1327,275.2
102.1348,675.3
102.1618,71.4
102.1629,134.8
102.1687,311.1
102.1803,144.1
102.1879,408.8
102.2251,152.2
102.2785,121.2
102.4161,700.2
102.4312,146.1
102.4574,518
102.4623,332.7
102.474,124.2
102.4782,80.8
102.5454,278.9
102.577,169
102.5816,132.1
102.5888,258.1
102.5915,689.8
102.6053,292.7
102.6095,344.4
102.6181,26.2
102.6264,504.1
102.6458,120.7
102.6485,702.7
102.6616,198.5
102.6845,451.3
102.6879,165.3
102.7119,286.6
102.7592,92.8
102.7692,873.2
102.812,520.9
102.8349,176.8
102.8412,421.1
102.8522,179.7
102.873,18
102.889,703.9
102.9178,278.1
102.9358,663.8
102.9631,93.9
102.9702,543.5
102.9825,85.2
103.0096,134.2
103.0298,145.7
103.049,726.3
103.0543,323.8
103.0614,82.8
103.0859,306.5
103.1023,108.2
103.1183,541.4
103.1297,20.5
103.1498,113.6
103.1513,401.2
103.1702,612.6
103.1714,180.8
103.1811,276.5
103.1838,82.1
103.2729,192.4
103.2868,18.2
103.3042,124.5
103.3433,17.9
103.4225,252.6
103.4519,162.6
103.4863,329.2
103.497,467.8
103.5223,94.3
103.6262,108.1
103.6336,81.9
103.6455,553.2
103.6529,155.2
103.6625,85.7
103.6636,225.7
103.7291,215.5
103.7436,93.9
103.7748,189.1
103.7894,752.2
103.8208,17.4
103.8297,152
103.8445,343.9
103.8527,97.7
103.8629,81.4
103.8942,727.9
103.8985,726.8
103.9134,204.8
103.9416,546.6
103.9885,318.6
104.0161,140.3
104.0471,116.7
104.0671,299
104.0686,366.2
104.0721,224
104.0973,240.2
104.1019,246.7
104.107,561951.6
104.1653,182.3
104.1796,680.7
104.1903,135.6
104.2103,17.2
104.2155,850.5
104.2258,799.8
104.2798,603.9
104.3174,133
104.3293,18.7
104.3339,371.9
104.343,515.1
104.3518,142.1
104.3702,438.8
104.4007,94.8
104.4018,17.9
104.4441,164.6
104.4638,124.8
104.467,643.5
104.4797,118.6
104.4908,385.7
104.5025,110.1
104.509,423.2
104.5589,177.6
104.6204,206.8
104.638,166.7
104.6646,801.5
104.6817,588.8
104.7187,93.1
104.7282,545.3
104.7296,20.8
104.7385,22.5
104.7515,397.2
104.7745,994.1
104.7809,130.7
104.7837,743.3
104.7895,559.9
104.8312,280
104.8346,161.6
104.8868,91.6
104.9078,41.1
104.9136,107.1
104.9291,79
104.9458,671.6
104.9477,161.1
104.9633,150.3
104.9756,345.1
104.9922,344.8
104.9983,69.8
105.0033,43.4
105.0291,72.2
105.0312,119.6
105.0447,45295.5
105.0468,781.4
105.0534,215.6
105.0602,640.9
105.0733,458.4
105.0736,452.5
105.0804,118
105.0866,511.6
105.0973,93.3
105.1103,17942.8
105.1143,203.8
105.1509,132.4
105.1905,784.6
105.2038,18.3
105.2307,144.5
105.2517,190.4
105.2578,250.8
105.3184,395.2
105.3314,164
105.3564,237.8
105.3609,508.2
105.4041,573.2
105.4052,416.6
105.4118,122.9
105.4199,84.1
105.4275,255.3
105.4312,98.7
105.4493,95.2
105.4629,122.4
105.4837,18.1
105.5088,320.6
105.5432,794.9
105.5679,476.5
105.5848,105.6
105.6118,151.6
105.6443,124.4
105.6959,206.7
105.7062,19
105.7101,708
105.7803,342.7
105.7873,178.8
105.8452,138.6
105.8597,224.8
105.8607,181.4
105.8817,550.8
105.8921,211.2
105.9659,78.2
105.982,96.2
106.0003,118.2
106.0151,410.4
106.021,389.2
106.0248,98.9
106.0482,1289.1
106.1149,914
106.1711,323.6
106.1858,197.2
106.1913,344.4
106.2078,369.8
106.217,98.4
106.2516,659.4
106.2706,282.9
106.3302,196
106.363,833.1
106.3937,112.9
106.3994,897.9
106.4076,194
106.416,163.7
106.4176,19.4
106.4741,569.8
106.4772,215.6
106.5138,199.8
106.5275,16.6
106.6022,405.3
106.6144,288.7
106.6186,340.1
106.6321,677.5
106.6374,123.9
106.6489,98.3
106.6516,233.1
106.6615,755.1
106.6752,535.8
106.6855,799
106.6918,102.7
106.6983,235.6
106.7312,16.6
106.8169,432.4
106.8219,143.8
106.836,829.3
106.8692,125.7
106.8809,19.5
106.8866,711.4
106.937,151.5
106.9387,770.9
106.9507,2438
106.9892,189.5
106.9919,109.3
107.0284,68.1
107.0491,558.1
107.0592,512.9
107.0817,608.9
107.0855,62.7
107.1101,320.3
107.1814,598.4
107.1971,152.8
107.2142,89.1
107.2207,448.4
107.2368,145.9
107.2379,536.9
107.2998,557.8
107.3236,559.8
107.3252,99.7
107.3302,864.6
107.4175,134.8
107.4286,235.2
107.4494,78.2
107.4725,171.9
107.5172,105.4
107.5214,105.9
107.5217,106.3
107.5387,791.1
107.5477,233.5
107.6188,443.9
107.6413,134.7
107.6573,137.9
107.6855,75.4
107.7112,241.1
107.7403,644.4
107.7937,66
107.822,100.2
107.8871,880.4
107.8888,18.1
107.9275,148
107.9855,151.7
108.0399,110.7
108.057,20.8
108.0862,275.6
108.102,690.4
108.1341,132.6
108.1497,419.8
108.1659,367.2
108.1842,86.8
108.2018,111.4
108.3028,808.1
108.3375,201.3
108.3907,434.1
108.3968,371.9
108.3996,19.2
108.4132,243
108.4833,421.5
108.4847,766
108.4887,153.3
108.5196,16.5
108.5256,105.9
108.616,136
108.7166,786.1
108.7402,90.1
108.7568,101.1
108.8037,123.5
108.8115,293.4
108.8399,570.8
108.9012,636.3
108.9084,295.1
108.9161,257.9
108.9857,86.1
108.9891,75.4
108.9901,165.4
109.0108,22.3
109.0152,22.5
109.0512,480.1
109.0648,76185
109.0668,41.8
109.098,392.3
109.1012,32.3
109.1058,118.6
109.1491,64.5
109.1737,151.8
109.2144,363.4
109.2379,18.8
109.2438,479.2
109.2809,128.2
109.2966,372.6
109.306,19.4
109.3377,552.4
109.3553,323.6
109.3569,151.6
109.3882,91.1
109.4021,150.2
109.4032,17.3
109.4466,115.8
109.4686,18.6
109.4901,204.9
109.5358,365.5
109.54,529.6
109.5556,1076.8
109.5764,134.9
109.6095,261.7
109.6301,17
109.6563,148.1
109.6626,22.7
109.6669,96
109.729,622.9
109.7315,215.3
109.7373,873
109.7729,636.4
109.8014,501.1
109.8088,232.3
109.8155,262.3
109.8351,19.4
109.8449,634.9
109.8846,569.6
109.8882,837.5
109.9019,189
109.9211,205.6
109.9253,609.7
109.9401,117.3
109.9684,97.6
109.9745,875.1
109.9891,634.4
110.0069,212.3
110.0365,15.7
110.0453,17.4
110.0682,2732.5
110.0712,202.4
110.0793,328.8
110.1025,16.9
110.1423,188.4
110.163,664
110.2124,788.5
110.216,114.6
110.2356,18.9
110.2489,838.4
110.296,71.8
110.3142,124.1
110.3164,188.6
110.3262,18
110.3294,524.3
110.3519,617.8
110.3643,17.1
110.4286,224.5
110.4381,286.7
110.5721,516.1
110.6291,225.8
110.6419,322.6
110.6572,229.1
110.6727,395.7
110.6786,781.3
110.69,302
110.7028,326.3
110.7174,722.7
110.7863,19.5
110.8844,360.8
110.9322,167.4
110.9767,678.5
111.0033,98.2
111.0048,95.7
111.0232,331.9
111.0368,16.9
111.044,240.6
111.0756,240.5
111.0829,82.8
111.0901,143.8
111.095,843.1
111.2236,178.1
111.2911,803.2
111.3653,712.1
111.3698,320.8
111.3736,378.6
111.3774,218.9
111.4728,91.9
111.4757,131.9
111.4929,175.6
111.4955,86.9
111.4977,18.6
111.5042,765.2
111.5198,665
111.5967,129.1
111.6893,18.5
111.6974,564.9
111.7019,17.2
111.73,336.5
111.7809,19.4
111.792,478.5
111.8028,358.7
111.838,385.5
111.8588,132.8
111.8718,140.3
111.9151,82.2
111.9272,99.3
111.9452,342.6
111.9793,78.5
112.0066,233.9
112.0212,122.7
112.0425,783.1
112.0796,18.1
112.0901,17.6
112.1284,251.7
112.1495,427.3
112.1825,423.7
112.204,616.5
112.2236,140.7
112.2285,606.3
112.231,78.5
112.3194,379.3
112.3458,395.7
112.3813,86.2
112.3828,139.4
112.3869,18.2
112.3927,463
112.4536,293.2
112.4795,20.2
112.4833,711.1
112.5108,159.9
112.5256,18.8
112.5322,237.3
112.5428,252.2
112.5693,167.5
112.6483,71.2
112.6727,16.6
112.7163,338.2
112.7564,703.3
112.795,258.9
112.8341,100.1
112.8374,318.8
112.8402,127.4
112.8516,162
112.8534,187.1
112.8958,398360.7
112.948,335.4
113.0015,456.5
113.0052,367.4
113.0116,141.7
113.0252,149.6
113.0388,188.4
113.0447,89
113.0653,89.7
113.1643,76.7
113.2191,81.7
113.2827,215.3
113.2951,637.8
113.2991,16.6
113.302,101
113.3198,534.3
113.3572,90.3
113.3758,787.5
113.4956,17.6
113.5491,560.8
113.5632,163.4
113.5718,155.9
113.6252,71.9
113.8039,108.3
113.8392,697.2
113.868,156.7
113.9005,17.6
113.9888,16.3
114.0058,543.4
114.0185,191.3
114.055,69045.1
114.0662,4890.8
114.0932,79.8
114.1179,158.4
114.1242,163.8
114.1757,285.7
114.2256,107.8
114.2457,216.9
114.2667,273.6
114.3021,187.4
114.3297,109.8
114.3324,127.6
114.3433,113.3
114.3591,528.1
114.3608,736.6
114.3659,175.5
114.3837,450.5
114.3969,174.1
114.4062,623.9
114.4261,115.1
114.4365,112.6
114.4523,567.9
114.5135,175.5
114.5562,484.8
114.6176,379
114.6207,265.3
114.6336,78.1
114.6408,100.9
114.6522,264.7
114.6818,550.5
114.7109,107.2
114.7168,262.2
114.7211,142.2
114.7417,221.3
114.8928,126893.8
114.9026,148
114.9283,691.5
114.9311,18.1
114.9481,22.8
114.9493,394.8
114.9828,304.1
114.9876,644.1
115.0208,327.3
115.0501,535.4
115.0584,926
115.0866,934.3
115.1264,234.8
115.1353,373.7
115.1533,639.2
115.1613,270.7
115.1953,128
115.2137,459.1
115.2386,504.3
115.2505,118.8
115.2794,139.1
115.2928,190.6
115.3272,157.7
115.3428,365.7
115.3441,188.9
115.3559,301.5
115.4142,130.3
115.4293,17.2
115.4371,111.8
115.4588,193.4
115.461,174.9
115.4771,143
115.5332,85.3
115.5447,529.1
115.5685,382
115.6381,131.9
115.6575,84.5
115.6808,21.7
115.6928,107.3
115.699,485.8
115.7051,912.1
115.716,485.9
115.7503,102.4
115.789,22.8
115.8094,344.8
115.8574,128.2
115.884,685.5
115.9832,228.6
115.9901,127
116.047,87.1
116.0707,9146.2
116.0921,103.1
116.1107,306.5
116.1521,151.7
116.1543,94.2
116.1807,181.9
116.1826,104.5
116.1953,66.7
116.2147,16.9
116.2437,88.3
116.3023,318.7
116.3677,442.1
116.3879,18.5
116.3959,20.6
116.423,97.6
116.4435,424.4
116.4552,166.2
116.4568,700.1
116.473,170.4
116.5548,379.4
116.573,138.1
116.5851,333.6
116.5865,201.2
116.6097,17.2
116.7109,80.1
116.7237,743
116.7267,113.3
116.7339,235.6
116.7495,71.5
116.7598,20.4
116.7696,178.1
116.784,149.2
116.8045,157.7
116.8289,230.8
116.831,250.7
116.8327,716.4
116.8574,120.8
116.8606,165.8
116.8795,19.9
116.891,13073.9
116.9581,401.3
116.986,490.1
116.9986,137.7
117.0456,607.8
117.0551,81.9
117.0591,159.8
117.07,33.7
117.0732,340
117.1261,137.5
117.1299,164.3
117.1364,85.4
117.1771,132.7
117.1874,16.2
117.2429,807.4
117.2472,232
117.2685,311.5
117.2713,19.6
117.2743,111.7
117.2754,272.9
117.2849,396.3
117.3329,671.8
117.3512,100.8
117.3785,122.4
117.4173,240.5
117.4376,137.5
117.4502,204.3
117.4996,137
117.5522,832.2
117.5976,118.5
117.6111,85.3
117.6412,582.9
117.6466,155.7
117.7434,70
117.7552,731.6
117.8131,23.9
117.8941,153.9
117.9294,168.8
117.9407,135.4
117.9485,142.8
117.9799,238.4
118.0006,18.8
118.0072,17.8
118.0152,507.8
118.024,298.1
118.0653,755.6
118.0712,237
118.0767,375.2
118.0919,580.4
118.1134,18.3
118.2984,17.7
118.3051,327.9
118.3161,101
118.4635,69.7
118.4662,281.7
118.4861,292.2
118.5205,359.4
118.5239,92.6
118.5266,353.1
118.5538,87.2
118.5588,216.1
118.5653,124.1
118.6409,527.2
118.6469,739.1
118.6752,180.3
118.6773,562.1
118.6917,810.6
118.7134,18
118.7264,16
118.7374,103.3
118.7633,104.6
118.8095,697.8
118.8545,97.4
118.8638,827.3
118.8667,102.2
118.9506,19.1
118.9774,102.7
118.9791,17.4
119.0191,40.6
119.0856,35.4
119.1855,553.3
119.1874,86.9
119.1889,100.5
119.2156,818.2
119.225,565.9
119.258,202.2
119.3286,103.9
119.332,371.7
119.3386,109.6
119.3717,220.2
119.3751,194.5
119.3986,413.9
119.4207,120.2
119.4261,455.9
119.45,120.2
119.4705,217.9
119.4754,546.6
119.5546,18.2
119.5645,666.7
119.5689,106.8
119.6078,118.7
119.6159,319.2
119.7699,532.5
119.8437,414.6
119.9207,168.9
119.9227,311.1
120.0032,3386.9
120.0808,13089.7
120.1388,245.6
120.1418,84.8
120.2104,16.7
120.2727,300.3
120.3346,27.5
120.3496,83.1
120.3679,153.8
120.4003,132.8
120.4081,141.6
120.416,187.5
120.4432,90.2
120.4477,16.1
120.451,359.5
120.4597,182.2
120.4958,648.6
120.5448,242
120.5649,127.4
120.5732,120.3
120.6248,932.8
120.7104,827.4
120.7472,158.4
120.7514,263.8
120.7541,111.2
120.8276,137.7
120.8398,151.1
120.8572,21.4
120.9041,188.8
120.9809,159.7
121.0076,370.2
121.014,424.5
121.0284,439.5
121.0357,182.1
121.0396,196.1
121.0645,17.7
121.1012,39.7
121.1444,138.2
121.1713,272.8
121.2538,177.4
121.2644,26
121.2746,80.6
121.347,480.3
121.3632,126.4
121.3849,518.9
121.3958,161
121.4144,221.4
121.4809,112.3
121.495,85.5
121.535,221.5
121.5808,78.2
121.5889,721.8
121.6431,172
121.6992,591.4
121.7106,317
121.7202,105.6
121.7653,83.3
121.801,441.5
121.8188,427
121.8463,662
121.8696,583.7
121.9096,121.4
121.9356,673.7
121.9402,271.7
121.949,158.5
122.0576,407.4
122.1014,104.9
122.1285,87.8
122.1446,706.7
122.1488,143.5
122.15,210.6
122.1603,166.4
122.197,94.9
122.2024,240.2
122.2123,93.8
122.2254,316
122.2681,136.9
122.2842,738.3
122.3302,174.1
122.3449,82
122.3752,592.6
122.3765,285.7
122.4143,408.6
122.4457,427.9
122.5097,558.6
122.5121,90.1
122.5174,136.4
122.5263,164.2
122.5631,286.4
122.5848,651.9
122.6858,157.4
122.6919,314.4
122.7124,550.8
122.7244,233.2
122.781,489.5
122.8006,308.5
122.8634,742.2
122.8806,151.3
122.904,189.9
122.908,18.8
122.9246,20394.4
122.972,287.2
122.9735,17
122.9916,440.4
122.994,573.6
123.0242,466.4
123.0304,695.8
123.0805,66
123.0918,140
123.1153,97.9
123.1168,17.6
123.1273,188.2
123.199,456
123.208,73.4
123.2177,19.5
123.2218,150.3
123.2276,123.7
123.25,136
123.2542,102.3
123.2563,324.7
123.3566,117.1
123.376,128.2
123.4039,214.6
123.414,272.1
123.428,17.9
123.4564,484.1
123.4997,239.4
123.5893,590
123.6514,143
123.6747,130.9
123.7123,91.2
123.7252,17.6
123.7513,20.6
123.8579,112.5
123.866,278.9
123.8936,127.1
123.9057,77.4
123.9155,121
123.9459,658.1
123.998,82.6
124.007,543.8
124.0171,18.7
124.0737,384.7
124.0834,18.3
124.1013,367.6
124.1122,20.9
124.227,146.9
124.2376,16.8
124.2634,345.9
124.273,167.2
124.379,206.2
124.4002,614.7
124.4232,77.5
124.4278,146.1
124.4333,116.4
124.4419,319.5
124.4558,374.7
124.5337,172.3
124.5502,877.6
124.5683,394.5
124.5909,215.4
124.6101,594.4
124.6166,121
124.6586,780.9
124.6667,162.9
124.7127,97.1
124.7232,635.8
124.8003,164.3
124.86,971.6
124.9227,617.1
124.958,18.2
124.984,439.1
124.9999,7779.1
125.0056,267.5
125.039,215.4
125.0597,70.5
125.1086,981.8
125.1248,741.2
125.1303,125.7
125.2143,304.6
125.242,19
125.2432,316.4
125.2979,224.5
125.387,563.3
125.3956,19
125.4397,238.8
125.4825,20.1
125.653,423.7
125.6858,78.1
125.6989,179
125.7026,670.4
125.7241,264.5
125.8001,96
125.8381,253.2
125.84,359.6
125.8681,870.4
125.8741,438.3
125.9089,807.3
125.9312,136.5
125.934,124
125.9422,590.2
125.9621,221.7
125.9659,171.5
125.979,144.8
125.9908,641.6
126.0203,251.4
126.0206,252.2
126.1229,16.1
126.1499,155.3
126.1795,708.4
126.1811,147.3
126.1952,851
126.2463,529.5
126.2936,578.5
126.3833,17.9
126.4659,103.9
126.4741,181.8
126.5132,18.3
126.5553,314
126.5619,228.3
126.5912,309.7
126.6273,256.7
126.6743,394.3
126.6771,21.9
126.703,19.1
126.7205,194.3
126.8057,18.9
126.8474,78.3
126.9796,80.5
127.0203,374.5
127.0479,52
127.0525,241.6
127.0602,141.7
127.0822,125.2
127.0861,174.1
127.0987,364.7
127.1715,427.2
127.2978,111.6
127.3216,82.9
127.3279,356
127.3828,423.7
127.3984,396.2
127.4057,670.8
127.4139,207.4
127.4418,222
127.4509,86.4
127.4571,215
127.4983,216
127.5271,310.5
127.5523,376.6
127.5732,249.3
127.5841,119.5
127.6022,128.2
127.6488,18
127.688,508.7
127.7273,137.2
127.7321,99.2
127.7648,807.8
127.8048,83.7
127.8201,513.7
127.8296,834.5
127.8502,435.6
127.8675,625.1
127.8945,321.6
127.9164,190
128.0254,662.7
128.0268,244.9
128.0444,182.3
128.0783,18.7
128.0997,324.8
128.1401,350.3
128.1747,230.6
128.1887,443.7
128.1911,848
128.1977,151.6
128.2259,90
128.2718,556.9
128.3154,164.1
128.3483,370.6
128.3711,236.2
128.409,534.8
128.4527,219.5
128.5071,290.2
128.5498,349.1
128.5812,343.3
128.609,148.3
128.6334,260.9
128.7041,82.8
128.7309,312.3
128.7399,124.2
128.7809,19.2
128.7915,746.1
128.8237,480.5
128.8711,89.3
128.8738,441.9
128.902,88.9
128.921,266.9
128.9398,20.1
128.9603,220.5
129.0034,970.7
129.0066,105.9
129.0217,288
129.0633,82.8
129.0918,149.1
129.1022,854.1
129.136,102.9
129.1461,16.6
129.172,417.4
129.187,517.4
129.2691,905.7
129.2996,664.2
129.3145,347.1
129.3431,269.8
129.3538,85.2
129.3858,171.8
129.412,419.2
129.6067,198.2
129.6237,646.8
129.6702,84.8
129.779,720.5
129.8393,135
129.848,73.9
129.9154,134.1
129.9236,200.4
129.9386,107.9
129.9407,820.5
129.9514,87.9
129.9783,178.9
130.05,7535.9
130.0651,35.8
130.0938,163.7
130.0991,243.6
130.1164,208.8
130.1493,648.4
130.1599,16.5
130.2471,666.1
130.2529,126.3
130.288,380.2
130.3029,690.9
130.3329,259.1
130.3471,214.7
130.3806,240.8
130.4129,17.1
130.4547,114.6
130.5051,115.4
130.507,121.5
130.5223,114.3
130.5418,764
130.6139,86.1
130.6157,170.5
130.6968,277.5
130.8544,129.4
130.9159,153.5
130.9235,121.7
131.0013,19.9
131.0142,18.1
131.0177,414.1
131.0226,318.7
131.044,161.1
131.0786,426.2
131.0856,74.7
131.1929,107.6
131.1944,319.1
131.2226,265.5
131.2411,255.2
131.2722,257.7
131.3905,223.5
131.4557,374.3
131.4756,430.3
131.4803,656.7
131.5015,20.9
131.5046,700.2
131.5285,463.6
131.5419,98.2
131.5836,312.6
131.589,232.1
131.5944,132.6
131.6137,356.8
131.636,170.4
131.661,528.2
131.7178,129.7
131.7255,113.9
131.7676,757.4
131.8066,957.7
131.8692,309.5
131.9183,120.6
131.9504,18.7
131.9874,249.9
132.0033,29023.9
132.0657,116334
132.0769,1878.5
132.1023,754
132.2108,630.1
132.2348,90.7
132.2497,775.8
132.2831,81.5
132.2899,567.5
132.3332,73.1
132.3546,20.4
132.3649,454.4
132.3708,129.5
132.3789,80.6
132.4859,331
132.4968,20.5
132.5171,292.4
132.5781,468.5
132.5818,70.9
132.5999,144.7
132.6127,130.2
132.6225,19.4
132.7412,146.4
132.7584,563.7
132.7881,110.1
132.8148,108.1
132.8431,76.9
132.8564,309.4
132.9027,19.1
132.9588,17.9
132.9873,6047.6
132.9964,685.3
133.0098,135.1
133.0147,489.1
133.0332,592.2
133.069,2738.7
133.0797,338.4
133.0815,290.5
133.0859,40.3
133.0973,27102.2
133.1013,26.1
133.1521,636.6
133.2229,114.1
133.293,18.4
133.4284,86
133.4491,161.9
133.4648,20.4
133.4852,83.8
133.5082,350.1
133.522,489.3
133.5393,74.7
133.565,282.2
133.6863,71.7
133.6909,78.7
133.7392,145.2
133.7469,846.4
133.7555,87.2
133.8947,261.8
133.9,639.6
133.9229,137.8
133.9308,163.9
133.9462,170.1
133.9711,89
134.019,14520.5
134.0264,399.8
134.0602,151.1
134.07,115.6
134.0795,197.3
134.0824,280.7
134.0853,96.8
134.0989,16.5
134.2145,336.4
134.2175,155.3
134.2464,765.6
134.2878,714.4
134.3094,175.6
134.3929,197.2
134.4823,140.6
134.485,96.8
134.5677,99.7
134.6132,113.1
134.666,822
134.6796,262.2
134.6917,90.3
134.7124,616.1
134.7138,104.5
134.7436,764.2
134.7619,307.7
134.7887,103.7
134.7935,212.8
134.7994,109
134.9405,543.1
134.9964,26.5
135.003,91949.3
135.0233,54.9
135.0636,18.7
135.0732,423.5
135.0774,91.8
135.1138,701.7
135.1167,23.3
135.1317,113
135.1634,495.2
135.208,184.2
135.2122,460.7
135.2448,143.6
135.2611,182
135.2653,127
135.2672,351
135.3385,281.4
135.4478,143.2
135.4576,120.1
135.4719,415.4
135.5029,132.5
135.5054,223.1
135.555,18.1
135.5572,471.1
135.5692,604.3
135.5717,363.7
135.575,181.2
135.6039,127
135.6263,151.2
135.6811,576.8
135.6947,172.2
135.78,182.3
135.7836,719.5
135.8057,282.3
135.8188,310.7
135.8262,919.3
135.8708,292.8
135.8797,115.2
135.9166,85
135.9703,167.3
135.9726,280.2
135.9773,3103.7
136.0063,1047.4
136.0123,218.2
136.0483,16517.8
136.0572,624.5
136.0579,614.2
136.0758,8739.9
136.1079,17.9
136.1339,131.7
136.1548,132.8
136.1876,19.9
136.2523,130.9
136.2646,364.1
136.332,456.1
136.3347,536.2
136.4423,679
136.4565,208.1
136.4844,19.3
136.5319,803.7
136.541,102.6
136.5771,108.3
136.582,262.4
136.6518,88.9
136.6753,262.1
136.713,116
136.7344,742.3
136.7794,953.8
136.7889,80.8
136.8415,149.6
136.8719,154.4
136.8911,545.5
136.8916,524.6
136.9064,128.1
136.9119,157.9
136.9314,867.8
136.9721,458.1
136.9962,77.6
137.065,732
137.0787,435.6
137.1135,342.7
137.1857,306.8
137.1915,133.3
137.2086,218.4
137.2096,586.5
137.2889,18.2
137.296,480.9
137.2989,141.5
137.3606,21
137.4039,80.5
137.4195,73.5
137.4283,208
137.4626,324.4
137.4783,313.7
137.5359,442.5
137.5618,229.8
137.6045,184.3
137.6911,307.1
137.7139,432.2
137.7221,339.8
137.7229,575.2
137.7233,574.9
137.7331,128.5
137.7864,931.1
137.8526,766.9
137.8721,16.7
137.9058,260
137.9199,477
137.9381,123.6
137.9938,108
138.0218,489.4
138.0478,81.4
138.0527,8897.8
138.0663,42.8
138.0793,137.8
138.1091,194.9
138.1853,639.9
138.1878,392.2
138.1912,741.6
138.1943,102.8
138.2335,206.8
138.2427,794.1
138.2645,198
138.3401,381.4
138.4516,180.9
138.4759,88.7
138.4865,694.4
138.5188,293
138.5284,21.1
138.5349,765.2
138.585,18.5
138.5973,589
138.6167,94.5
138.6416,322.2
138.688,171.1
138.6922,157.5
138.7365,24.1
138.8405,1032.7
138.8504,169.2
138.851,243.5
138.8515,235
138.9066,1155.8
138.9474,350.3
138.9497,418.7
138.9915,636.7
139.0476,147.1
139.0726,135
139.0952,267.3
139.1246,460.2
139.1539,179.9
139.2431,777.7
139.4777,75.5
139.4933,612.8
139.5075,409.9
139.5595,163.6
139.614,198
139.6168,71.5
139.6501,300.9
139.6739,618.2
139.6773,626.7
139.7174,91.3
139.7211,87.1
139.796,139.1
139.8176,18.9
139.8572,109.2
139.985,20.6
139.9888,833.6
140.0166,1067.1
140.0414,21.4
140.0441,18.6
140.0684,2616.7
140.0889,123.8
140.1266,98.7
140.2541,656
140.267,736
140.3199,331.3
140.3234,778.2
140.3539,465.7
140.3572,338.1
140.4897,294
140.5156,301.4
140.5435,975.9
140.5944,78.6
140.6027,420.1
140.6127,747.3
140.6582,21.3
140.7537,463
140.8332,145.1
140.8961,157.2
140.9038,505.8
140.9136,432.1
140.9209,19.1
140.9318,217.4
140.9487,82.3
140.9523,27.2
140.9574,682.2
140.9682,114.3
140.9942,96.2
141.0006,19494.3
141.0218,122.9
141.0577,155.9
141.1124,240.9
141.1445,348.3
141.1527,524.3
141.1545,17.8
141.17,20.2
141.1862,113.9
141.32,230.4
141.3859,432
141.4218,778.9
141.4237,491.1
141.5184,130.9
141.5786,245.4
141.6174,695.3
141.6299,103.2
141.6424,814
141.7497,22.8
141.7718,414.6
141.8387,1117.3
141.8413,219.2
141.85,471.2
141.893,433.6
141.9019,478.6
141.9089,109.7
141.9223,297.4
141.9265,85
141.9502,254.3
141.9671,522.7
141.9806,205.7
141.985,226.1
141.9999,27.2
142.004,421.8
142.0106,17.7
142.0124,163.1
142.0397,173.5
142.0495,319.3
142.0631,851.7
142.0738,23
142.1097,146.1
142.1151,144.7
142.1227,45.2
142.148,411.3
142.2327,181.7
142.2482,213.2
142.3642,229.7
142.3987,730.8
142.4001,590.4
142.4207,214
142.4719,18.6
142.5183,492.1
142.5251,107.7
142.5334,86.3
142.5409,743.4
142.5962,407.7
142.6298,242.4
142.6635,663.9
142.6697,81.8
142.7168,19.4
142.8161,17
142.8414,407.6
142.8494,228.9
142.8965,18.1
142.901,764.4
142.9384,22.6
142.9483,582.9
142.9964,332.7
143.0321,1072
143.0513,666.3
143.0565,397.1
143.0651,586.2
143.0677,751.5
143.0816,318
143.0985,390.9
143.1071,71.2
143.1542,121.2
143.1666,158.8
143.1893,20
143.2413,289.6
143.2467,886
143.2731,136.5
143.2841,134.9
143.3767,128.4
143.4271,328.7
143.4557,331.4
143.4574,127.6
143.4996,262.9
143.574,625.9
143.5946,18.5
143.6834,157
143.6891,137.2
143.7567,177.9
143.8211,18.4
143.9786,308.9
143.9916,238.4
143.9969,142.9
143.9983,81.4
144.0632,30.8
144.0796,440.8
144.0947,99.6
144.1006,362.2
144.1995,17.4
144.2348,146.6
144.3025,773.7
144.3209,608.7
144.3506,167.4
144.5048,611.8
144.5401,252.4
144.5672,21.8
144.5795,365.5
144.6144,129.4
144.615,169.1
144.6157,189.3
144.6823,695.4
144.7101,403.1
144.7198,106.8
144.7238,379.5
144.7289,621.2
144.7471,169.2
144.817,190.3
144.8222,534.9
144.8957,104.7
144.9462,246.1
144.9486,778.3
144.9725,154.5
144.9809,3399.5
144.9934,271.3
145.1524,535.9
145.1597,376.6
145.1603,519
145.1613,517.8
145.1855,820
145.187,300.7
145.285,179.9
145.2899,615.8
145.3103,580.8
145.3141,121.9
145.354,358.9
145.3653,437.2
145.4689,18.2
145.4699,19.2
145.6141,322.8
145.6714,163.1
145.7433,470.5
145.7646,147.3
145.8983,240.2
145.9272,102.6
145.9653,166.1
145.9722,255.8
145.9815,797.7
146.0071,410.4
146.0127,10389.3
146.019,20806
146.045,22.5
146.06,116.2
146.0975,259.4
146.1477,19.2
146.203,666.5
146.2044,140.2
146.3311,72.5
146.4414,209.2
146.4538,88.6
146.4575,441.6
146.5567,352.3
146.5728,133.9
146.5995,74.1
146.6798,287.4
146.6886,21.6
146.7293,177.5
146.7807,124.3
146.784,306
146.7989,240.5
146.8023,108.2
146.8093,382.5
146.8269,218.6
146.9052,18.1
146.982,136130
147.0766,50876.5
147.0983,349.9
147.113,42083.6
147.1169,99.4
147.119,437
147.1773,172.6
147.2013,597.6
147.2071,490.9
147.2364,181.1
147.2714,291.3
147.2893,111.6
147.3071,674.6
147.334,344.3
147.383,419.9
147.3903,409
147.4788,596.4
147.485,82.5
147.4904,248.9
147.5147,241
147.6395,19.6
147.6727,101.8
147.6847,382.4
147.6942,290.6
147.776,90
147.8128,122.2
147.8535,115
147.9083,22.8
147.9225,74.6
147.9244,555.8
147.9307,411.1
147.9456,487.2
147.9671,237
147.9776,74.3
147.9872,506.9
148.005,310.5
148.0433,453
148.1113,689.9
148.1163,421.9
148.1205,176.3
148.1724,772.8
148.2966,79.3
148.2987,149.5
148.3091,257
148.3124,18.4
148.3204,207.3
148.3497,104.3
148.3898,16.7
148.4556,554.9
148.5161,289.5
148.5322,1637.9
148.5571,138.4
148.5887,180.6
148.5964,320.4
148.6658,855.5
148.6737,680.9
148.7645,237.7
148.7732,545.3
148.8073,590.7
148.8624,138.3
148.924,251
148.926,328.6
148.9613,3107
148.9818,398.2
148.9991,343.6
149.0027,45.1
149.0187,3583.8
149.0235,5820.8
149.0451,36.6
149.0624,357.7
149.0684,18.2
149.0743,537.1
149.1202,19.3
149.1314,678.5
149.1407,126.5
149.146,116.2
149.1485,136.3
149.189,85.3
149.2015,20.8
149.249,113.9
149.311,93.4
149.3259,88.5
149.3596,81.6
149.3615,308.2
149.3639,494.5
149.3882,619.5
149.4735,326.1
149.5121,137.1
149.5218,261.3
149.5999,91.1
149.6558,653.2
149.7414,683
149.8217,21.2
149.8554,338.2
149.8773,109.5
149.9778,373.4
149.993,9053.5
150.0019,166.9
150.014,3979.3
150.0269,92.1
150.0674,550.7
150.1674,398.1
150.2277,157.8
150.2425,96.6
150.2503,359.8
150.2545,702
150.2787,148
150.3127,106.2
150.3515,411.4
150.4228,184.4
150.5091,200.5
150.5124,107.9
150.5476,297
150.5699,295.9
150.5872,206.7
150.6062,761.9
150.6233,132.2
150.6331,749.8
150.6583,718.7
150.6837,417.2
150.752,250.1
150.7569,94.6
150.813,651.4
150.8302,134.9
150.8371,99.7
150.977,64381.6
150.9842,167.5
151.0069,19.6
151.0241,658.1
151.048,1540.2
151.0722,301.2
151.0903,153.9
151.1679,106.4
151.2079,466.8
151.2423,484.3
151.3281,101.9
151.3356,366.5
151.3499,88.9
151.38,706.5
151.4065,16.2
151.4247,779.9
151.467,469.5
151.5144,696.9
151.5982,288.5
151.6559,73.6
151.6578,164.4
151.8277,459.1
151.8467,128.5
151.9217,20.9
151.9522,257.5
151.9663,145.2
152.0223,27801.4
152.0319,2131.5
152.0708,369.7
152.0785,314.5
152.0845,232.8
152.112,261.4
152.1377,471.3
152.1955,172.8
152.2071,16.9
152.2629,18.9
152.3025,246.9
152.3085,747
152.3584,96.5
152.4059,723.5
152.4222,143
152.4422,134.3
152.447,588.8
152.4594,19.2
152.4826,73.4
152.5008,496.8
152.5281,19.3
152.5379,314.6
152.5478,235.3
152.5615,516.6
152.5978,72.1
152.6023,368.6
152.6563,18
152.6633,125.1
152.6907,124
152.7437,175
152.8698,209.6
152.9751,3181.9
153.0479,338.6
153.1328,215.9
153.1387,122.8
153.2227,118
153.3136,119.3
153.3829,89.2
153.4181,16.9
153.4446,167.9
153.5151,114.1
153.5458,88.4
153.5595,276.6
153.5866,430.6
153.6648,88.8
153.7041,164.9
153.7484,296.8
153.7544,195.6
153.7594,852.6
153.7631,74.4
153.7657,200.7
153.7789,245.3
153.7927,260.8
153.8245,441.8
154.0113,588.6
154.0206,1163.9
154.0238,84.1
154.0267,1636.2
154.059,1949.1
154.0679,108.3
154.0777,19.5
154.0914,445.9
154.2103,107.1
154.2308,115.9
154.3454,329.4
154.3807,345.1
154.4266,93.1
154.43,245.8
154.4359,615.2
154.4419,153.7
154.4451,1026.6
154.456,430.3
154.4835,17.3
154.5311,861.2
154.6466,295.4
154.6507,283.8
154.6703,260.1
154.6792,157.5
154.7639,324.4
154.8235,153.4
154.833,104.7
154.9076,136.4
154.9182,711
154.9206,20.7
154.942,47.4
154.9552,379.8
154.9654,270.9
154.9696,610.8
154.9825,111.2
155.0132,182.7
155.043,644.3
155.0494,877.1
155.0541,3925.1
155.0701,86.1
155.0795,776.2
155.1608,259.3
155.1651,336.2
155.1911,518.3
155.2476,561.1
155.2539,218.3
155.2664,74.7
155.2967,462.6
155.3037,458
155.3422,797.7
155.352,589.5
155.3778,228.5
155.4316,211
155.462,212.4
155.5414,18
155.5538,366.3
155.6318,127.5
155.6446,84.9
155.7732,189
155.7883,20
155.8016,19.3
155.8264,280.8
155.9294,677.4
155.9676,227.8
156.0074,280.7
156.0267,507.9
156.0424,4778.6
156.0466,17
156.0515,234.7
156.0574,25.4
156.077,59543.2
156.1706,682.9
156.2454,182.9
156.2844,172
156.3238,122
156.3508,442.9
156.4412,696.4
156.4645,21.1
156.5668,103.5
156.6033,20.4
156.628,312.6
156.6646,386
156.6723,150
156.6766,506.4
156.6909,179.2
156.7088,142.9
156.7277,621.5
156.7873,17.5
156.7917,86.2
156.8044,297.5
156.8174,160.5
156.8326,390.5
156.8466,701.4
156.849,635.2
156.8731,321.8
156.8801,343
156.8948,130.2
156.9246,199.3
156.9502,440.9
156.9706,150.4
156.9743,21.3
156.9912,632.2
157.0089,98.1
157.0134,76.2
157.0367,111.6
157.0555,147.9
157.0902,99
157.0973,229.1
157.114,768.4
157.1571,125.5
157.1714,18.3
157.1735,247.8
157.2181,154.5
157.2532,16.2
157.2667,20.4
157.271,19.2
157.3835,251.1
157.4078,227.1
157.4567,131.7
157.5052,202.2
157.6001,112.3
157.6033,166.7
157.6217,750.1
157.6565,657.3
157.664,603.3
157.6843,99.6
157.6939,398.3
157.7815,423.3
157.7897,20.4
157.8129,595
157.8209,231.8
157.8233,145.6
157.9556,220.1
158.0127,282.6
158.0218,919.2
158.0272,3992.7
158.1256,20.2
158.1821,20.8
158.1994,22.5
158.2754,23.7
158.3046,402.2
158.3771,766
158.3892,766.3
158.464,611.4
158.4787,136.3
158.4899,147.7
158.5148,399.2
158.5417,157.4
158.5446,354.5
158.5476,106.6
158.5505,121.3
158.5609,442.5
158.5803,128.4
158.6392,18.1
158.6642,421.7
158.6709,118.3
158.7362,623.7
158.7521,72.2
158.7631,203.7
158.764,187.9
158.8102,445.8
158.8224,90.2
158.8375,481.7
158.8731,235.8
158.8981,98.5
158.9279,977.1
158.9363,18.3
158.9382,20
158.9425,81.9
158.9643,7654
158.9967,2609.8
159.0173,78.2
159.0305,123.6
159.0766,537.5
159.0855,136.4
159.0996,141.7
159.1433,124
159.2178,18.4
159.2335,19.4
159.2689,546.6
159.3122,246.5
159.3315,145
159.3642,18.6
159.4246,217.8
159.4315,136.8
159.4345,608.4
159.4539,758.7
159.459,276.6
159.4827,136.3
159.544,594.7
159.6023,120
159.6288,633.6
159.6858,138.5
159.7472,244.9
159.7741,293.5
159.778,380.9
159.784,21.4
159.7865,1021
159.7982,297.3
159.8518,504
159.8668,208.2
159.9204,77.6
159.9668,306.5
159.9922,19.4
160.0229,77.9
160.0348,26238.6
160.0607,120194.2
160.1014,88.2
160.1945,115.8
160.2065,94.7
160.2289,257.8
160.2849,125.5
160.3248,111.2
160.3281,512.6
160.3597,19.8
160.3695,647
160.3776,186.5
160.3914,93.8
160.5304,293.7
160.557,166.8
160.589,140.4
160.6084,373.2
160.6205,300.9
160.751,80.9
160.7607,553.6
160.7626,139.9
160.8397,791.5
160.8923,172.4
160.911,628.5
160.9989,285.6
161.0504,584
161.064,4891.5
161.1053,282.1
161.1326,301.2
161.1667,183.5
161.2077,19.6
161.2676,308.1
161.4145,253.8
161.4735,103.4
161.6179,707.5
161.6194,587.3
161.6588,89.4
161.6659,112.8
161.7502,103.9
161.7572,150
161.8576,106.8
161.8757,177.3
161.9291,72.5
161.9332,99.7
161.9496,202.7
161.9678,250.3
161.979,386.6
161.9927,474.6
162.0004,263.2
162.0081,195.3
162.0333,568
162.0408,330.2
162.0504,21187.8
162.0586,247.4
162.1872,389.4
162.3052,20.4
162.3639,244.5
162.381,268.3
162.4381,124.2
162.5456,20.6
162.5537,89.2
162.5802,104.4
162.6103,308
162.6572,154.2
162.7056,157.7
162.7352,724.9
162.8022,799.4
162.8238,119
162.8339,607.5
162.8379,619
162.881,284.7
162.956,6144.5
162.9743,110.8
162.9959,518.6
163.0156,2688
163.0346,396.9
163.1464,202.7
163.159,141.2
163.2024,164.8
163.2219,575.3
163.2653,212
163.2675,19
163.2777,176.1
163.2973,593.6
163.3031,268.5
163.3178,172.4
163.3412,135
163.3984,289.5
163.412,178.7
163.5437,18.9
163.5652,90.3
163.6184,120.3
163.6298,87.9
163.6464,22.6
163.6535,824.2
163.6623,201.4
163.7504,351.6
163.757,142.9
163.7999,393.3
163.8223,277.8
163.8266,264.8
163.9236,149.5
163.935,713.9
163.9534,21.9
163.9893,19.8
164.0027,403.3
164.014,134.8
164.0236,206
164.0297,21852.5
164.0423,98.1
164.1548,430.6
164.172,133.9
164.1948,136.7
164.212,20.9
164.2357,15.9
164.2475,460.3
164.2547,573.7
164.2627,165.2
164.2964,143.1
164.3335,306.5
164.3852,17.7
164.3974,18.8
164.4648,601.4
164.4983,79
164.5146,287.1
164.6106,165.3
164.6654,169.6
164.6748,534.6
164.7022,87.3
164.7299,205
164.7756,563.4
164.9208,5730
164.9303,16012.4
164.9354,6121.6
164.985,106.5
164.9927,1565.2
165.0342,387
165.051,123.7
165.0872,244.2
165.0911,369.6
165.1898,436.9
165.2206,77.9
165.2714,436.9
165.3224,710.3
165.3401,464.9
165.3441,78.7
165.3733,17.2
165.4027,71.3
165.4115,323.4
165.4516,114
165.5408,106.4
165.5833,117.9
165.6214,17.8
165.6238,129.8
165.7244,18.6
165.7261,378.2
165.7467,722.1
165.7533,18.3
165.7945,146.8
165.8992,149.2
165.967,2997
165.979,2528.3
165.985,295.8
165.988,3184.9
165.995,20.2
166.0947,900.5
166.1462,152.6
166.1989,482.3
166.3318,21.4
166.3417,452.9
166.3861,302.4
166.4645,307.9
166.4781,455.8
166.5709,129.4
166.5931,204.5
166.6374,82.6
166.6737,120.3
166.7235,125
166.7516,75.3
166.7666,605.4
166.7899,760.3
166.7988,786
166.8341,331.1
166.8375,96.3
166.8428,668.4
166.9096,611.8
166.9105,585.7
166.951,29870.5
166.985,244.7
167.022,3092.1
167.1003,392.7
167.1096,190.1
167.1519,205.8
167.1593,643.1
167.1847,596.6
167.2063,540.9
167.2132,147.2
167.2755,582.5
167.3376,20.9
167.3749,124.3
167.4003,623.1
167.4758,94
167.4953,162.8
167.5208,108.3
167.5486,722.1
167.5757,328.3
167.5854,597.1
167.588,112.5
167.696,18.8
167.7023,118.9
167.705,452.5
167.7609,106.9
167.7896,117
167.8212,118
167.8361,70.3
167.8515,556.4
167.8569,795.8
167.882,1062.5
167.9078,118.5
167.9375,411.4
167.9543,747.5
167.9946,3540.9
168.0058,645.3
168.0198,517.2
168.0576,140.7
168.0846,17
168.1551,418.1
168.1785,608.1
168.1855,142.8
168.2016,685.6
168.2423,67.6
168.253,307.4
168.3434,617.6
168.3528,398.6
168.4522,194.2
168.5878,164.2
168.6796,710.5
168.6923,624.9
168.7662,93.5
168.8294,102.9
168.9492,3239.4
168.9777,353.8
169.0586,40649.8
169.0652,1041.5
169.0782,126.5
169.0951,4415.3
169.2087,142.9
169.2444,22.4
169.258,609.9
169.3472,119.8
169.4797,20
169.4854,639.1
169.5192,165.8
169.5264,260.1
169.5807,118.7
169.6043,153.3
169.6618,627.8
169.6856,16.9
169.7174,761.7
169.8874,135.1
169.9104,138
169.9861,2242.8
170.0329,5831.9
170.0643,148.9
170.0927,87516.8
170.1443,301.9
170.1501,658.9
170.2057,805.8
170.2381,208.2
170.2716,101.6
170.3086,393.9
170.3154,21
170.3326,95.7
170.3969,570.4
170.4347,204.9
170.5089,512.6
170.5384,112.9
170.589,572.8
170.642,467.3
170.6475,346.4
170.7245,123.1
170.7369,328.5
170.7679,247.3
170.8547,3782
170.8643,139.3
170.9696,99.7
171.0129,19.3
171.0171,822
171.0282,452.3
171.0535,924.2
171.0657,731
171.0844,270.7
171.0961,2492.1
171.1479,167
171.193,181.8
171.4099,18.6
171.4225,163.9
171.5192,105.4
171.5267,309.4
171.5406,234.1
171.5439,17.4
171.5497,617.9
171.5991,104.3
171.6929,785.8
171.8305,127.7
171.8352,282.2
171.8677,875.1
171.891,184.7
171.9231,320.1
171.9465,183.4
172.0006,782.3
172.0032,590.4
172.0284,2523.2
172.1311,597.6
172.1768,132.6
172.1887,692.9
172.2434,127.2
172.257,323.6
172.2686,446.6
172.2891,156.5
172.2963,119.8
172.3508,17.7
172.3808,936
172.4034,297.7
172.4126,543
172.4353,326.8
172.4415,605
172.5396,19.2
172.5492,657.3
172.7261,119.8
172.7377,448.5
172.7985,603.9
172.8048,122.5
172.8257,296.7
172.8358,305.9
172.8419,750.6
172.8516,1710.3
172.9057,219.9
172.9297,75.9
172.9469,134.7
172.9562,445.3
173.0002,335.9
173.027,350.2
173.0299,1769.8
173.0522,689.4
173.0971,223.2
173.1002,580.9
173.1144,301.1
173.2246,630.7
173.2439,168.6
173.3149,768.9
173.3677,172.2
173.5112,94.2
173.5514,319.7
173.5721,337.7
173.6032,212.7
173.7003,20.6
173.7285,666.7
173.7775,339.2
173.886,205.8
173.8951,18.6
173.9527,333.7
174.0072,139.1
174.0191,635.7
174.0402,17
174.0513,789.7
174.065,99
174.0947,170.8
174.1611,812.7
174.1916,279.3
174.2026,132
174.2096,204.8
174.2338,424.1
174.2823,180.9
174.4114,144.1
174.4395,338.5
174.5945,363.9
174.7461,168.6
174.7487,107.3
174.7521,153.4
174.7614,442.2
174.7691,130
174.826,140.6
174.8573,82.4
174.8757,79.1
174.883,288.6
174.9096,256.2
174.9186,505.5
174.9384,3494
174.9777,239.2
174.9966,325.2
175.0074,714.8
175.0345,8899.2
175.0399,910.4
175.0457,4499.9
175.0562,800.2
175.0953,187.2
175.1193,98442.5
175.1444,161.5
175.2724,172.7
175.3842,144.1
175.5747,506.9
175.6546,399.3
175.7026,807.9
175.7199,534.9
175.8161,104.9
175.8754,395.3
175.9335,268
175.9976,127.8
176.0088,14143.5
176.0297,2836.2
176.0409,702.8
176.0662,38418.5
176.0721,112.6
176.0861,110.3
176.1033,3648.6
176.1104,178.9
176.1132,505
176.1227,407
176.1269,18.4
176.1683,395.8
176.1855,133.5
176.2164,16.9
176.2709,119.4
176.2782,662.8
176.2845,376.3
176.2884,160.4
176.3078,516
176.314,90.8
176.3181,127.8
176.3437,158.8
176.3735,614.9
176.4292,392.2
176.4732,105
176.4953,154.5
176.5115,181.8
176.5508,172.6
176.5717,267.3
176.5806,605.6
176.6708,844
176.7025,176.8
176.7412,135.6
176.757,381.4
176.8568,93.6
176.8702,219
176.8923,300
176.9928,2488.1
177.0213,22.5
177.0251,7881.3
177.0614,11178.6
177.0874,753.5
177.1075,108.1
177.1507,457.6
177.2333,699.5
177.2358,18.9
177.257,383.2
177.3367,594.8
177.4388,109.3
177.4648,154.7
177.5026,510
177.5097,792.9
177.6518,146.4
177.7824,209.5
177.8258,731.5
177.8604,150
177.9079,573.4
177.9665,325.9
177.9948,103.1
178.0029,771.8
178.009,11306.2
178.0166,104.8
178.0245,13063.9
178.059,3240.9
178.0846,146.7
178.1261,278
178.1325,160.1
178.2245,111.4
178.3288,19.9
178.3589,81.6
178.3815,557.9
178.4633,96.1
178.4999,101
178.6225,373.6
178.6387,450.4
178.6633,201.9
178.6778,19.5
178.696,846.1
178.7226,654.2
178.7289,251.1
178.8083,113.3
178.8127,73.2
178.8394,233.8
178.8573,177.1
178.89,110.9
178.9034,124.2
178.9102,22.1
178.9427,265
178.9543,151.4
179.0097,703.2
179.0495,233.1
179.0885,714.8
179.1527,278.5
179.2576,587.2
179.2928,228.4
179.3181,358.1
179.3385,317.9
179.4442,16.1
179.5432,105.9
179.5982,353.1
179.6014,485.4
179.6297,168.2
179.7178,80.9
179.7225,182.9
179.7605,148.8
179.9649,912.4
180.0037,15535.3
180.0071,18.8
180.0228,380.2
180.0312,167.3
180.0346,409.6
180.0955,77.4
180.1001,308.6
180.1411,613
180.2086,92.9
180.2748,217.3
180.3233,126.9
180.4222,225.5
180.4524,110.6
180.4704,243.1
180.5205,99.8
180.569,181.6
180.6294,18.8
180.6618,482.4
180.6892,23.5
180.7123,296.3
180.7296,248.7
180.7972,441.4
180.8578,80.5
180.879,139.9
180.8947,4344.7
180.9044,10471
180.9577,640
180.9618,529.2
180.9698,180.5
181.0084,323.1
181.0652,12657.7
181.0711,303.8
181.0766,17.7
181.1075,84
181.1731,85.8
181.223,78.8
181.2506,112.8
181.2868,155.7
181.3441,311.5
181.4107,84.9
181.4242,159.1
181.5505,270.4
181.5752,543.3
181.7414,179.3
181.7614,304.2
181.7676,409
181.7953,512.5
181.8247,84.5
181.9802,652.2
182.0428,43870
182.0689,211.4
182.0763,469.2
182.1051,17.7
182.1225,143.6
182.155,431
182.1996,668.3
182.2296,218.6
182.239,479.7
182.2578,17.8
182.3242,209.6
182.328,21.4
182.4438,224.3
182.5384,206.4
182.6272,317.8
182.7247,301
182.8293,595.6
182.8831,306.1
182.9027,80.6
182.9137,110.3
182.968,156.3
182.9772,77
182.9888,490.1
183.0448,2988.3
183.0696,144.3
183.0985,156.3
183.1669,75.5
183.239,165.7
183.2797,795.2
183.4377,474.7
183.5255,138.2
183.5641,109.6
183.5841,637.6
183.5912,566.9
183.5975,201.6
183.6248,259.2
183.709,309.7
183.8419,588.4
183.8591,296.2
183.935,527.5
183.9462,220.6
183.9651,406.9
183.9721,166.3
183.9987,17.3
184.0375,807.1
184.0564,237.4
184.0584,150.8
184.0591,150.5
184.0664,619.6
184.0671,651.9
184.0737,4530656
184.1099,237.2
184.1701,28.3
184.1824,1693.3
184.1931,376.2
184.2133,342.6
184.3102,266.5
184.336,100.3
184.337,107.3
184.3382,114.6
184.3445,623.8
184.388,110.3
184.4174,575.4
184.5186,129.3
184.5838,131.5
184.6313,148.4
184.6949,130.5
184.6984,180.2
184.7103,125.8
184.7167,99
184.7281,98.5
184.7485,304.1
184.7673,17.8
184.7703,277.9
184.8075,148.7
184.8171,280.9
184.8297,110.5
184.8864,399.6
184.9059,510
184.9211,19.3
185.0129,18.8
185.0326,51076.4
185.0705,11681.8
185.077,211378.6
185.085,309.2
185.0861,328.3
185.1152,487.9
185.1599,18.7
185.2876,631.4
185.2967,78.8
185.3201,175.6
185.3316,18.1
185.3406,96.4
185.3826,92.4
185.4407,95.8
185.6543,126.5
185.67,79.8
185.6815,90.5
185.6872,180.4
185.763,105.6
185.7687,723.9
185.7868,324.4
185.8215,88.8
185.8898,86.4
185.8945,19.7
185.9203,231.6
185.9602,1778.5
185.9992,427.8
186.0222,109.4
186.036,387.1
186.0779,30055.7
186.0883,221.9
186.1205,111.2
186.2536,769.5
186.2705,133.8
186.385,379.6
186.4498,190.6
186.4558,293.5
186.4589,85.1
186.4906,99.9
186.4949,101.6
186.5004,456.4
186.5196,86.2
186.5386,572.9
186.5576,172.4
186.6744,127.4
186.6795,193.2
186.6975,216.1
186.7996,98
186.8283,132.6
186.877,84.1
186.8975,631.2
186.9124,4329
186.9209,229.2
186.9498,544
186.9973,536.8
187.0267,202.6
187.0308,481.2
187.0427,867.1
187.0582,2810.7
187.0717,2613.2
187.1081,3252.3
187.1297,289.3
187.1337,385.1
187.1489,312.5
187.2503,214.6
187.342,22.9
187.3958,156.2
187.3991,18.6
187.4018,122.3
187.4255,18
187.4779,638.2
187.4979,105.8
187.5582,644
187.6401,849.4
187.8064,175.9
187.8198,129.4
187.8592,79.8
187.8937,124.8
187.9014,110
188.03,320.8
188.0453,74.8
188.0516,92.6
188.0795,142
188.1181,527.4
188.1293,485.6
188.1749,109.1
188.2798,447.4
188.349,667
188.3827,144.6
188.3949,93.6
188.4791,295.6
188.4923,351.4
188.5239,323.8
188.54,134.8
188.6317,86.1
188.6536,113.9
188.6646,280.6
188.6806,299.5
188.7175,190.1
188.7394,183.1
188.7574,238.6
188.8932,239
188.909,356.7
188.945,879.4
189.0041,414.6
189.0394,17.4
189.0615,2889.1
189.0874,12395.3
189.1857,133.2
189.2608,16.9
189.4196,17.4
189.4457,19.1
189.4548,18
189.5492,244
189.5834,187
189.5981,729.8
189.6528,749.8
189.7266,481.7
189.8788,145.1
189.9209,99.3
190.0286,695.8
190.0908,212
190.1643,453.8
190.1944,548.3
190.1996,347.3
190.2469,818.2
190.3062,101
190.3838,119.2
190.4938,403.2
190.5355,221.6
190.7097,143.8
190.8417,689
190.8617,19.2
190.8887,375.1
190.9125,1291.4
190.9426,215.6
190.9447,100.3
190.9625,603.3
190.9802,169.2
191.0085,6377.6
191.0152,80.3
191.0371,256
191.0407,99862.3
191.0708,128.2
191.0771,31819.9
191.1374,333
191.1573,116.1
191.2211,374.5
191.2652,203.4
191.2673,172.2
191.3026,331.5
191.3327,703.3
191.4159,192.2
191.4447,177
191.4502,106.5
191.5418,496.5
191.5899,255
191.6374,600.1
191.7356,255
191.7779,78.8
191.7849,370
191.8933,150.2
191.9828,2753.7
191.9901,21
192.0037,1117.9
192.0402,20638.6
192.0442,2156.2
192.1649,354.1
192.2165,699.4
192.2198,653
192.2465,119.4
192.2701,139.8
192.2919,155.2
192.4393,776.1
192.4415,204.3
192.4682,309.8
192.4805,184.7
192.5296,640.1
192.5392,132.7
192.5724,432.4
192.6049,480.4
192.6823,90.8
192.7201,240.7
192.8327,392.6
192.8514,18
192.9237,192
192.9584,501
192.9991,6526.1
193.0354,6310
193.0439,336.5
193.0817,84.3
193.1147,133.3
193.2235,325.6
193.3383,147
193.3633,231.7
193.4937,18.1
193.6204,628.8
193.6443,171.8
193.8033,722.5
193.8721,202.1
193.8964,662.4
193.9453,105.7
193.9985,3241
194.0105,859.7
194.0224,1070.3
194.0329,2463.2
194.0383,354.9
194.0502,323.5
194.117,365.1
194.1309,101.5
194.1464,256
194.1543,103.4
194.3506,269.6
194.3974,98.3
194.5114,761.6
194.6045,502
194.6218,16.8
194.6244,18.5
194.655,772.3
194.6899,187.1
194.699,384.1
194.709,97.9
194.768,146.3
194.8007,190.6
194.8017,216.5
194.8412,168
194.8599,139.7
194.9726,161.2
194.979,429.2
195.1047,459.3
195.1149,18.5
195.1199,135.4
195.2254,339.4
195.2341,357.5
195.3296,112.2
195.3508,319.8
195.3793,87.4
195.4355,344.4
195.5722,541.9
195.7829,338.2
195.8023,184.5
195.826,587.2
195.84,18.4
195.9586,380.6
195.9781,1527.7
196.0794,60.9
196.1017,615.1
196.1192,102.2
196.1552,400.6
196.1699,327.2
196.2002,177.4
196.2291,21.9
196.3261,120.2
196.3424,192.4
196.3813,229.1
196.4759,82.4
196.4846,173.8
196.504,146
196.5696,496.8
196.7094,364.5
196.7268,90.8
196.7683,17.5
196.7972,315.9
196.8023,621
196.8125,114.9
196.8655,3067.3
196.8689,1479.3
196.8783,2771.4
196.9461,726.4
196.9929,256.2
197.0238,853.4
197.0805,265.4
197.1176,150
197.2115,350.1
197.2274,132.1
197.231,22.6
197.3258,160.3
197.3577,645.6
197.4159,245.2
197.5486,538.3
197.5616,738.8
197.6572,17.8
197.8047,17.9
197.9642,762
197.9758,304.6
198.008,935.9
198.0218,20
198.0794,429.3
198.0853,8327.1
198.0894,1870.4
198.1217,184.2
198.1717,345.3
198.1857,6259.6
198.2114,115.4
198.2177,522
198.2246,420.4
198.3049,131.4
198.3198,324.7
198.3863,292.4
198.4208,311
198.5111,308.1
198.5987,335.7
198.6398,327.9
198.6797,586.5
198.6826,305.5
198.7008,96.8
198.7523,176.1
198.8112,152.6
198.826,85.9
198.8626,1958.6
198.8668,355.3
198.8746,117.2
198.9582,642.1
198.974,58.6
198.9819,137.3
198.9917,134.1
199.0371,142.1
199.055,237.6
199.0697,272.7
199.0759,2541.8
199.0804,145.5
199.0934,114.5
199.1608,395.3
199.1624,300.2
199.1844,560.4
199.1889,302.4
199.272,613.8
199.5239,166.4
199.6653,352.6
199.7429,161.7
199.7517,396.6
199.7819,131.1
199.8826,730.5
199.9584,728.1
199.9862,454.7
199.9911,33782.5
200.0411,15930.2
200.0764,89.4
200.0818,423.5
200.0849,684.1
200.1211,334.6
200.1278,791.5
200.1319,11466.1
200.1589,96.3
200.171,372
200.1758,178.1
200.1816,123.4
200.1839,518.2
200.3266,503
200.3375,593.7
200.6062,585.7
200.672,17.9
200.6807,299.9
200.7208,18.9
200.7902,117.3
200.8209,156.7
200.8596,352.3
200.8748,789.7
200.9452,923
201.0371,264.7
201.055,99.8
201.0874,369.2
201.0896,269.5
201.0916,810.1
201.1258,19.1
201.1958,100.9
201.213,98
201.2341,20
201.2583,86.3
201.5406,97.8
201.5424,96.2
201.6277,96.6
201.6698,104.8
201.7039,124.4
201.7796,20.2
201.7916,89
201.8486,864
201.8609,470
201.9338,502.8
201.9974,192.6
202.0488,299.7
202.1183,109.9
202.2801,214.1
202.3234,733.6
202.3465,265.4
202.3541,383.3
202.3867,105.5
202.4473,359.7
202.4654,135.3
202.4778,327.2
202.4941,748.4
202.504,16767
202.5084,754.1
202.5475,107.7
202.587,301.3
202.6849,159
202.7726,104.7
202.7856,175.3
202.8204,113.4
202.8613,19.2
202.9062,559.7
202.943,424.3
202.9787,832
203.0322,1772.1
203.053,647226.1
203.0771,10391.9
203.1019,768.2
203.1608,404.5
203.2011,19.1
203.245,98.2
203.2955,626.9
203.3586,698.6
203.5715,103.9
203.6173,21.4
203.7176,136.6
203.8026,226.1
203.8081,340.7
203.8261,596.1
203.8294,400.1
203.8799,312.9
203.8926,23.9
203.9058,173.1
203.9462,62.6
203.9972,20.8
204.0248,54079.2
204.0564,30617
204.0633,521.4
204.066,294.7
204.0871,611.2
204.2741,645.2
204.3408,631.7
204.535,676.6
204.5396,18.9
204.5526,273.3
204.6486,189.7
204.7228,115.3
204.7497,86.1
204.7603,166.8
204.8825,86
204.8891,21.2
204.9374,86.3
205.0279,333.7
205.0478,361.8
205.0572,892.7
205.0687,243568.1
205.0842,51.8
205.0975,512
205.1553,458.5
205.1631,148.3
205.2793,231
205.2875,207.3
205.4865,510.1
205.6186,547.6
205.6231,148.4
205.6482,237.6
205.7404,664.1
205.7718,19.7
205.7887,18.1
205.8647,122.9
205.9158,205.1
205.9677,169.9
205.9766,233.3
206.0391,175.7
206.0554,2627.1
206.072,12121.5
206.0844,542.1
206.1375,749.7
206.1481,363.1
206.1804,178
206.2961,145.1
206.3099,349.8
206.3713,121.7
206.5612,17.9
206.6156,164.9
206.6453,88.8
206.7705,18.4
206.7925,448.3
206.8086,18.2
206.8944,8538
206.9361,566.5
206.9825,3942
206.987,25.9
207.0049,115.8
207.0147,78660.4
207.0445,3650.8
207.0511,16453.2
207.1568,112.6
207.3073,83.2
207.4138,447.3
207.5085,317.4
207.5445,144.8
207.5552,606.9
207.7214,316.2
207.7258,20.8
207.7368,78.2
207.7544,147.8
207.783,83.3
207.834,85.3
207.8396,710.8
207.8741,261.7
207.89,136.9
207.9938,80.1
208.0142,5514.8
208.018,621.7
208.0581,756.6
208.0786,559.8
208.0934,179.1
208.3207,441.9
208.4093,203.5
208.5837,303.3
208.6743,816.4
208.6937,653.8
208.7652,257
208.7947,407.4
208.8835,39
208.8914,6737.8
208.9358,395.3
208.9553,24.6
208.9889,205.6
209.013,3058.2
209.0712,377.6
209.0787,194.4
209.1057,355.6
209.1533,113.5
209.1743,456.6
209.2181,18.3
209.2482,375.3
209.2607,776.2
209.4288,202.1
209.5402,342.4
210.6937,181.9
210.8095,125.2
210.8891,409.5
210.9399,715.5
210.9433,108.5
210.9833,199.6
211.0173,366.1
211.0416,151.3
211.052,82.1
211.057,1028.4
211.062,473.9
211.0696,2021.7
211.1693,1157.6
211.1715,1027.6
211.1794,11108.4
211.1854,27675.5
211.1878,20151.2
211.1908,25327.9
211.1941,24544.2
211.1968,22027.3
211.2007,5409.4
211.2076,251.8
211.3059,745.4
211.529,616.9
211.5375,786.2
211.5547,126.9
211.6288,149
211.6409,136.3
211.6465,863
211.7532,119.5
211.9723,18.4
212.0227,42.6
212.0743,108
212.1005,139.9
212.1961,168.7
212.2187,672.7
212.3129,120.3
212.3789,745.5
212.3866,242
212.6163,18
212.6685,201.8
212.6732,220.7
212.8044,446
212.8394,641.3
212.8765,585.2
212.9297,20.2
213.0339,731.5
213.0549,1062
213.1994,96.4
213.2847,207.9
213.3573,99.4
213.4669,191.2
213.4797,20.7
213.4912,135
213.6836,182.9
213.7247,213.6
213.8664,167.8
213.9315,97.1
213.9331,99.3
213.946,91.5
213.9532,144
213.9622,51.2
213.9849,459.1
214.0066,477.3
214.0593,13715
214.0901,869.5
214.1807,19.4
214.197,164.2
214.216,343.4
214.2469,278.8
214.3138,178.7
214.3183,107.3
214.3723,316.4
214.4042,17.5
214.4077,407.8
214.4505,566.2
214.4554,89.5
214.4656,478.1
214.4775,454.2
214.5121,607.4
214.6591,535.5
214.6757,168.1
214.8365,1034.3
214.8708,114.6
214.918,147
214.9359,524.4
214.9517,310
214.9801,119
215.0226,552.7
215.0348,113.4
215.0547,20.4
215.0715,137.5
215.0838,527.3
215.0934,24.2
215.1955,544
215.3124,345.7
215.3672,421.4
215.6826,79.9
215.8257,371.9
215.8609,1094.4
215.9647,400.3
216.0151,15888
216.0263,17.8
216.1723,20.3
216.2303,166.7
216.2439,170.3
216.2473,817
216.2543,276.2
216.3457,273.6
216.3679,297.9
216.4881,135.9
216.5244,20
216.5694,85.2
216.7675,28.9
216.8,322.7
216.9232,29445.3
216.9392,339.4
217.0186,66.7
217.0217,24.1
217.0571,155.9
217.0857,106.1
217.1041,212.5
217.3464,83.8
217.3864,168.5
217.5028,17.9
217.6051,145.8
217.6736,165.3
217.7785,342.7
218.0073,111.6
218.0131,794.7
218.0391,197.4
218.1519,81.1
218.2132,434.4
218.4304,147.8
218.4457,312
218.4517,210.3
218.4744,17.7
218.5161,436.9
218.5683,357.2
218.6224,84.9
218.7109,589.1
218.7389,477.6
218.7811,802.9
218.8292,332.9
218.8548,111.5
218.9103,238.4
218.9203,6841.9
219.027,828050.1
219.0457,764.9
219.0725,939.8
219.0834,8803
219.1478,324.4
219.1552,24
219.252,881.1
219.2577,19.6
219.4048,128.3
219.4725,20.3
219.4845,462.3
219.5025,18.4
219.5699,151.5
219.7143,613
219.7324,184.3
219.89,134.4
219.9991,587.9
220.0235,253.2
220.0304,43511.7
220.0674,11585.9
220.0834,301.7
220.1136,733.1
220.1677,412.8
220.2079,571.5
220.3824,355.1
220.4072,341.4
220.4403,77.8
220.489,19
220.5475,323
220.6414,241.4
220.6447,487.6
220.6622,136.9
220.7548,254.6
220.768,239.4
220.7845,165.6
220.8293,299.3
220.8375,165.1
220.9104,320.4
220.9579,91.6
221.0204,82.5
221.0252,48253.9
221.0314,7808.2
221.0427,169414
221.0515,1367.7
221.0563,74.7
221.0649,206.2
221.0852,199.5
221.3201,151.6
221.3582,19.9
221.5217,113.1
221.544,17.8
221.5803,816.3
221.7268,635.6
221.7469,131.2
221.8384,404
221.8715,305.3
221.9008,492.9
221.9117,128.5
221.9213,265.2
221.9297,212.2
221.9565,198.2
222.0282,755.8
222.0339,403.9
222.0372,645
222.046,6208.6
222.2534,143.4
222.2856,741.5
222.3849,373.6
222.5077,277.1
222.6121,286.4
222.6917,742.6
222.7074,254.3
222.726,20.6
222.8013,322.2
222.8053,742.7
222.8525,494.4
222.8583,515.6
222.8684,9738.1
222.8794,887.4
222.8892,896.8
222.9614,20.8
222.9708,20
222.9887,10790
223.025,2814.6
223.0408,8638.1
223.1191,169.9
223.1812,179.5
223.2517,143.1
223.2734,17.5
223.2854,263.6
223.2933,101.1
223.2995,98
223.3188,20.4
223.3214,21
223.4133,482.4
223.6,452.6
223.6666,18.5
223.7738,197.2
223.9452,476.5
223.9535,28.8
223.9927,687.6
224.0297,893.4
224.0427,120.6
224.0915,508.6
224.2457,678.5
224.3503,767.1
224.3642,174.2
224.4336,192.7
224.4706,256.1
224.5455,425.3
224.5977,261.9
224.6025,335.2
224.6273,228.7
224.6363,729.4
224.6455,104.1
224.7285,140.7
224.8397,20.1
224.8543,683.6
224.8653,7054.6
224.9383,148.9
224.9571,23.2
224.9868,464.6
224.9963,585.3
225.0551,35819.2
225.0783,118.2
225.0851,115.2
225.1001,710.2
225.1988,322.8
225.2506,145.5
225.5016,275.6
225.5592,126.1
225.6722,131.6
225.6883,326.8
225.8103,360.1
225.8391,182.5
225.8993,652.5
225.907,544.1
225.9523,21.6
225.9916,526.4
226.0022,69
226.0068,2284.5
226.0245,11839.5
226.0301,334
226.0455,10896.2
226.0585,201.9
226.0854,131.6
226.0987,74.3
226.1367,16.9
226.1596,1250
226.2401,271.9
226.3441,78.2
226.3611,235.8
226.4484,173.5
226.4637,340.5
226.5706,234.5
226.6856,100.8
226.7059,611.9
226.7164,104.9
226.8589,16.4
226.8623,22.2
226.9162,218.6
226.9209,104.7
226.939,247
226.9521,26920
227.0343,1919.1
227.0434,1057.8
227.071,674.2
227.0796,1534.5
227.0867,175.2
227.1491,123.6
227.3287,267.3
227.4639,92.7
227.6578,160.3
227.7067,136.4
227.8351,778.9
227.8519,92.6
227.8575,123
227.9707,317.8
227.9834,98.6
228.0008,1041
228.0226,1216
228.055,75.2
228.093,21.4
228.2121,88.4
228.2192,556.3
228.3084,17.6
228.3753,92.1
228.4225,17
228.4973,308.5
228.5288,21.7
228.7116,923.3
228.8891,19.9
228.8951,115.2
228.9206,130.4
228.9314,147.4
228.9463,131.8
228.9599,869.9
228.9738,617.4
228.9973,267.9
229.1944,149.3
229.3235,146.8
229.465,17.9
229.5045,324.8
229.6254,398.2
229.7458,553
229.8109,118.9
229.8178,367.4
229.8469,18.3
229.9575,208.1
229.9865,230.6
230.0247,276.2
230.0305,2192.6
230.0337,381.6
230.0421,132.3
230.106,298.9
230.1315,83.1
230.1488,17.9
230.3044,23.2
230.3577,131.3
230.4451,145.6
230.4582,82.2
230.4752,328.6
230.5136,397.8
230.5479,964.9
230.6321,158.4
230.7648,138.7
230.7788,434.1
230.9907,71.8
230.9984,120.5
231.0564,18.3
231.0829,754.3
231.1157,506.8
231.1328,132.9
231.1818,394.5
231.2888,335
231.3201,18.1
231.3844,977.7
231.4772,153.2
231.5453,657.6
231.5633,17.1
231.6432,205.6
231.6506,559
231.7151,337.2
231.7562,314.9
231.9425,467.8
231.9818,17.3
231.9956,338.3
232.0319,17.4
232.0413,71.5
232.0807,258
232.2142,404.1
232.2209,86.6
232.2986,283.6
232.4085,785
232.4737,154.7
232.4978,219.8
232.5176,331.9
232.6183,509.4
232.6413,121.5
232.6483,17.5
232.7133,202.2
232.736,252.8
232.8972,32087.6
232.9325,112.9
232.986,5619.5
233.0515,10967.6
233.0637,25.2
233.1004,109.9
233.1147,126.3
233.2181,184.6
233.2388,198.4
233.3867,100.7
233.3929,241
233.5465,92
233.718,83.4
233.8066,19.8
233.8099,132.6
233.863,328.7
233.9349,241.9
234.032,470.9
234.1303,28.2
234.2429,17.7
234.2567,18.2
234.3401,131
234.3977,264.3
234.4637,310.8
234.4843,259.6
234.4984,158.3
234.5468,231.8
234.5677,81.8
234.6103,267
234.6192,99
234.6376,83.5
234.7075,623
234.7333,421.9
234.8363,103.2
234.8389,124.1
234.84,132.5
234.8563,159.9
234.8941,6541.2
234.9191,306.1
234.9272,705.9
234.9333,248.2
234.9461,18
234.9822,3086.8
235.0391,19.7
235.0573,5923.2
235.0619,182.5
235.0668,1796.9
235.093,22605.5
235.149,562.6
235.1598,251.3
235.2416,150.3
235.2453,21.5
235.3625,95.4
235.3854,163.7
235.4772,320.4
235.5345,317.2
235.6259,133.2
235.715,176.9
235.8227,195
235.8353,113.9
235.9729,20.3
236.0414,7250.4
236.0721,33563.5
236.0966,253.3
236.1344,121.6
236.1377,294.7
236.2295,325
236.2584,255.2
236.2708,18.1
236.2818,98.6
236.4108,527.8
236.4277,744.5
236.5041,478.2
236.5142,20.6
236.5741,179.3
236.6422,171.9
236.6599,21
236.6793,151.4
236.702,172
236.8862,94.6
236.9058,131.6
236.9691,741
237.0006,109.6
237.0398,182.4
237.0754,1179.4
237.0845,136
237.2828,82.9
237.3491,321.8
237.4194,225.3
237.4678,703.5
237.534,20.4
237.5751,755.9
237.7286,216.8
237.7321,147.7
237.9316,23.1
237.9458,809.1
237.9619,745.8
238.0401,336.1
238.0679,429.5
238.0715,20.2
238.1021,203.2
238.3129,21
238.5955,139.7
238.7476,174
238.8017,129.9
238.8233,90.5
238.832,507
238.8423,4282.5
238.8536,707.7
238.8599,780.5
238.869,97.9
238.8851,21.7
239.0509,331.9
239.0648,956.4
239.0683,1674.5
239.241,16.8
239.2508,296.4
239.321,269.4
239.3341,160
239.4732,691.5
239.5005,296.7
239.5783,203.7
239.6184,448.9
239.6472,755.4
239.704,170.2
239.76,216.9
239.8995,106.9
239.9869,132.8
240.0038,945.3
240.0186,737.3
240.0345,171
240.1,1500
240.2061,154.1
240.2114,549.5
240.4022,789.9
240.5433,480.6
240.5945,596.9
240.7964,323.7
240.8391,1944.2
240.868,694
240.9677,1201.3
241.0026,23.6
241.0174,109.6
241.0582,121.5
241.1682,122.2
241.2641,324.4
241.2831,313.4
241.2945,775.1
241.2957,717.5
241.2992,158.4
241.3201,896.3
241.3369,738.3
241.3441,82.2
241.4321,701.5
241.4344,723.1
241.4665,622.6
241.4801,109.3
241.4985,20.7
241.6874,933
241.7197,839.5
241.851,236.1
241.8732,19.8
241.972,427.1
241.9799,80.5
241.9986,3193.4
242.0047,318.7
242.0196,5751.8
242.2716,147.5
242.4786,108.4
242.5969,18.8
242.7006,327.4
242.7808,118.2
242.8969,17.2
242.9025,167.3
242.9261,16259.8
242.9319,175.4
242.9461,112.1
242.9522,238.5
242.996,79.2
243.0064,18.7
243.0328,190.3
243.0537,9295.6
243.0658,14358.9
243.0894,333.2
243.1122,181.8
243.1174,512.2
243.2369,168.4
243.2435,755.3
243.3529,103.4
243.4424,81.3
243.6463,267.7
243.73,101.4
243.744,102.1
243.7544,87.3
243.7917,313.3
243.8444,550.2
243.8548,286.5
243.8993,180.2
243.9233,125.2
243.9344,115.3
243.9722,179.1
244.0129,290.2
244.0333,19.1
244.0477,150.7
244.0519,711.9
244.1553,113.1
244.2996,220.2
244.3863,118.7
244.5711,19
244.6183,22.4
244.6229,496.2
244.6465,736
244.7214,365.9
244.7677,317.2
244.8143,468.2
244.826,397.4
244.8712,7189.9
244.9245,947.7
245.0476,92
245.1149,125
245.1232,330.2
245.2503,503.8
245.3371,105.4
245.4067,130.6
245.4242,475.3
245.552,338.8
245.5846,720.7
245.6304,71.9
245.8718,188.7
245.9397,385.2
245.9675,146
246.0016,142.3
246.0109,51.9
246.1057,365.4
246.1573,370.4
246.1812,710.2
246.2317,189.5
246.2441,406.5
246.2537,256.1
246.2886,148.3
246.3223,365.2
246.3563,187
246.5302,99.9
246.6274,214.3
246.7733,321.3
246.8173,712.9
246.8227,230.3
246.925,422.7
246.9489,234.2
246.9572,158.4
247.0269,224.8
247.0373,1668
247.0672,1051.5
247.093,6388.4
247.1955,454.4
247.479,434.1
247.7878,466.6
247.8595,595.8
248.0859,235.2
248.0965,77.2
248.1147,193.4
248.1246,10868
248.1702,20.2
248.1833,110
248.2112,183.5
248.2232,315.2
248.2464,417.8
248.2684,127.3
248.4095,721.6
248.6926,533.3
248.8713,10185.7
248.9601,9109.6
249.0163,490.8
249.0617,18189.1
249.116,753.3
249.2108,239.6
249.2163,327.7
249.2486,137.7
249.2759,197.2
249.3924,151.9
249.5427,81.2
249.5647,357.9
249.6123,318.5
249.6499,117.1
249.6641,171.2
249.7312,157.1
249.8057,99.3
249.8305,271.6
249.8568,214.6
249.8937,549.5
249.9465,293.2
250.0334,20.3
250.1386,141.5
250.143,142.7
250.1543,430.5
250.2808,432.4
250.283,454.8
250.3053,126.2
250.4043,201.4
250.473,1008.5
250.5119,276.9
250.6984,109
250.7124,884.7
250.7231,231.4
250.8687,1206.6
250.9208,1527.6
250.9557,383
250.9842,90.2
250.9995,151.3
251.0346,2384.8
251.0819,139.6
251.263,181.9
251.2965,719
251.4878,732.1
251.6411,308.4
251.714,690.3
251.7208,16.9
251.743,149.1
251.7893,332.3
251.8258,137.7
251.8417,340.7
251.8783,728
252.0016,19.3
252.0372,191.7
252.0461,74804
252.1036,371
252.4122,168
252.4459,80.9
252.8229,192.6
252.8432,82.6
252.9175,424.1
252.9675,567.5
252.998,36.9
253.0382,117
253.0416,23.2
253.0494,4488.8
253.1043,399.7
253.172,148.3
253.2734,254.1
253.2983,638.8
253.3143,349.3
253.4696,245.9
253.4942,106.4
253.5137,138.4
253.6211,87.6
253.7035,148.2
253.8098,138.4
253.8151,904.4
253.8376,399
253.9403,688.8
253.9455,421
253.9577,219.2
254.0025,73.5
254.0179,231.2
254.0441,635
254.1405,244.3
254.3868,848.9
254.4139,144
254.4193,592.5
254.4701,198.4
254.5099,172.5
254.5597,22.1
254.5905,187.3
254.6021,649.8
254.6662,22.7
254.8162,704.1
254.8244,5060.9
254.8384,304.8
254.8775,159.7
255.0134,100.9
255.0335,30696.1
255.0377,866.6
255.0387,897.9
255.0471,779.9
255.0667,513.6
255.0866,20.5
255.1155,243.1
255.128,20.2
255.1549,105
255.2035,492.6
255.3037,151.2
255.3465,609.4
255.3527,19
255.4727,392.7
255.4969,284.4
255.5045,242
255.5385,421.3
255.7913,283
255.795,710
255.8025,18.5
255.8477,171.1
255.9195,173.6
255.9427,116.7
255.9605,87.5
255.9651,293.2
255.9788,868.2
255.9989,281.6
256.0588,142.7
256.0673,220.6
256.113,120.8
256.1351,122
256.2178,649.9
256.253,163.7
256.259,298.2
256.5119,636.1
256.5371,106.3
256.5448,392
256.5964,117.6
256.639,151.4
256.6774,242.5
256.7347,89.3
256.7883,140.2
256.8134,401.4
256.8215,5856.1
256.8546,135.8
256.8973,165.4
257.0065,239.2
257.0492,8150.2
257.0657,2190.1
257.0751,66168.8
257.1071,172.4
257.1344,285.1
257.2163,125.7
257.347,208
257.3609,78.4
257.4323,511.9
257.4385,859
257.5157,540.8
257.5313,211.9
257.5653,603
257.6453,85.7
257.7364,109.9
257.8473,324.8
257.9793,278.2
257.9937,673.4
257.9982,171.1
258.0314,192.9
258.0401,20.6
258.053,340.4
258.0594,727.6
258.0784,2492.5
258.1042,189.8
258.1108,27346.3
258.1309,189.6
258.1881,392.1
258.2234,21.4
258.2678,85.2
258.2704,77.4
258.292,443.8
258.358,423.4
258.5272,19
258.6546,88.9
258.6821,498.1
258.7939,104.7
258.8006,183.4
258.8186,1334.2
258.8493,297.2
258.9,3810
259.0761,202.3
259.2888,94.3
259.4689,219.7
259.4847,406
259.4904,211.4
259.4915,213.9
259.5,159.9
259.5111,22.4
259.5185,713.9
259.6371,138.7
259.7428,104.7
259.8052,314.9
259.8504,100.3
259.9063,735.8
260.0172,32.4
260.1562,22.2
260.1614,158.4
260.2116,21.1
260.2714,515.8
260.3091,558.9
260.794,185.1
260.8157,469.1
260.8451,4337.4
260.9496,6808.7
261.0461,219.6
261.0607,18.7
261.0964,85.6
261.127,631.1
261.1493,712.5
261.169,217.8
261.3336,481.6
261.4665,110.7
261.4792,444.9
261.9139,260.4
261.9628,132.2
262.0757,244.4
262.0824,1696.6
262.2083,99.5
262.2189,226.9
262.2659,304.2
262.3062,509.4
262.3735,213.6
262.3927,465.6
262.4549,781.3
262.8423,427.7
262.9357,377.7
262.9468,415.2
262.9501,546.6
263.0323,593.8
263.0855,1674.8
263.1423,19.3
263.2374,21.5
263.4198,691.5
263.9506,21.7
264.01,305.9
264.084,688.3
264.1657,157.4
264.2344,460.9
264.2685,279.3
264.4221,100.3
264.5504,564.2
264.5869,157.7
264.5928,107.9
264.7318,942.2
264.8332,21.2
264.8456,830.4
264.8533,2121.1
264.9117,155.9
264.934,15550.8
264.9732,404.2
264.9894,153.8
265.0166,261.8
265.0356,13401
265.0479,5610.3
265.0656,401.7
265.0728,720.6
265.1887,140.1
265.2182,139.9
265.2483,108.5
265.398,135.3
265.4727,1153.1
265.6487,231.8
265.6567,21.1
265.7006,163.3
265.8556,83.5
265.8881,117.4
265.946,20.1
265.9799,20.6
266.0393,411.6
266.0478,662.5
266.1146,397.5
266.3961,344
266.4083,118.7
266.4208,776
266.5553,276.3
266.5828,916.2
266.7053,105
266.7401,17.3
266.7541,201.5
266.8503,1697.1
266.8946,2147.3
266.9077,143.1
266.932,408.2
267.0134,152.9
267.1639,19.2
267.3758,338.2
267.4046,184.9
267.4123,95.9
267.4799,606.2
267.5145,128.5
267.8952,624.6
268.032,218.8
268.4002,112.5
268.4451,854.9
268.4632,208
268.5619,239
268.5686,150.8
268.6692,373.1
268.6976,192.2
268.74,209.3
268.8666,116.1
268.8916,514.2
268.9113,139.6
268.9395,576
268.9623,810.1
269.0126,32.5
269.0308,114.7
269.0373,249.2
269.0396,162
269.0454,24851.7
269.0492,48958.1
269.113,297.4
269.1605,548.2
269.5078,406
269.532,123.6
269.5637,339.7
269.5701,100.8
269.5846,358.3
269.6061,352.3
269.7073,135.5
269.7519,179.2
269.8928,138.5
269.9882,326.6
270.0252,525.1
270.0479,30039.5
270.0768,492
270.0809,787.5
270.1456,922
270.2579,79.3
270.2926,23
270.3644,378.2
270.3889,154.5
270.4928,102.3
270.5964,19.3
270.6109,320.2
270.6148,334.5
270.6265,19.2
270.7619,137
270.765,20.7
270.7823,134.9
270.7984,2560.5
270.9785,15083
271.0075,682.3
271.0243,1960
271.051,374.5
271.065,296.2
271.0679,135.5
271.078,1241.7
271.0907,3108.9
271.172,199.9
271.1996,87.2
271.2112,171.5
271.2899,587
271.3159,219.3
271.4183,561
271.5374,129.4
271.7767,583.6
271.8806,176.6
271.9422,370.3
271.9658,73.5
272.0358,180.5
272.0445,687.5
272.0808,309.9
272.09,39.9
272.3844,93.4
272.5151,294.8
272.5538,150.2
272.6954,124.6
272.7007,76.6
272.7953,3676.1
272.807,20.4
272.8473,420.2
272.8911,20.4
273.0491,4517.5
273.1517,132
273.1815,118.9
273.196,705.5
273.2321,90
273.2735,674.3
273.4377,849.3
273.6226,84.3
273.7801,404.5
273.7899,1094.7
273.8035,19.2
273.8916,682.3
273.9548,679.4
274.0404,29.1
274.0508,742.1
274.0697,549.4
274.0928,3645.2
274.2289,122.1
274.3617,23.1
274.3905,304
274.4708,21
274.5635,17.8
274.6973,811.1
274.722,19.2
274.7924,1407
274.8034,99.7
274.9196,81.6
274.9641,343.5
275.0114,323.5
275.1557,244.7
275.1731,472.9
275.2194,86.3
275.254,132.3
275.2848,243.7
275.3847,180
275.4878,109.7
275.5554,197.5
275.6124,187.2
275.6639,90.2
276.0039,122
276.085,110.5
276.1148,169.8
276.143,270.2
276.1938,164.5
276.4598,235.9
276.5007,351.5
276.546,109.1
276.5638,124.5
276.7525,609.7
276.8396,205.8
276.8991,340.3
276.9065,85.5
276.9235,8981.9
277.0089,356.8
277.0364,19.1
277.0407,519.5
277.0782,20.5
277.2051,18.5
277.2508,369.2
277.2933,355
277.4223,423.3
277.5625,91.5
277.7045,209.7
277.8629,21
277.8987,397.4
277.9228,22
278.0005,44.2
278.0193,479.7
278.0889,213.2
278.2141,17.7
278.4932,708.6
278.7093,96.8
278.8893,353.4
278.9038,126
278.9204,439.7
278.9478,99.2
278.9791,311.1
278.9879,2301.1
279.0433,146.2
279.0477,280.5
279.0571,46380.3
279.1553,469.3
279.3034,385.8
279.343,320.7
279.4859,311.3
279.5433,172.7
279.6244,103.1
279.8438,396.3
279.8779,580.2
279.8955,713.2
279.9798,516.5
280.019,669.9
280.0361,566.9
280.0606,845.7
280.0867,19.1
280.0923,539.6
280.1481,142.9
280.2894,105.5
280.3003,95.1
280.4562,21.1
280.5456,525.1
280.5937,284.7
280.6176,141.9
280.6307,204.9
280.7406,190.7
280.7702,148.8
280.7979,311.2
280.8271,1267.3
280.8488,402.2
280.9749,487
281.0099,1639.3
281.0206,23
281.0319,119.3
281.0518,128.9
281.1758,19.1
281.2521,636.8
281.3164,357
281.3635,854.3
281.3781,106.7
281.3978,110.3
281.5299,375.5
281.6605,314.2
281.6902,213.9
281.7153,294.9
281.7713,166.8
281.8487,18.8
282.0154,135.7
282.0391,20.4
282.0653,481.5
282.4257,151.5
282.4479,124.2
282.5231,147.1
282.6986,378.8
282.7753,513
282.8242,528.7
282.8686,395.1
283.0088,146.3
283.0195,26.1
283.1727,132.7
283.2066,860.7
283.3246,622.2
283.5508,237.7
283.5581,18.2
283.5816,733
283.8686,17.5
283.9784,927.7
284.0381,184.7
284.0534,78.7
284.0636,201.8
284.1506,259.3
284.3195,835.2
284.3262,366.5
284.3461,98.8
284.4096,437.6
284.4375,432.8
284.4501,104.1
284.458,334.6
284.6041,820.2
284.8347,190.5
284.8877,334.5
284.9821,996.1
285.0633,196.7
285.092,693.8
285.119,517.4
285.2861,91.6
285.2937,104.4
285.3955,18.4
285.5092,398.9
285.5767,171.5
285.6177,392.2
285.753,469.8
285.7639,567.2
285.9197,133.2
286.0201,189.5
286.0775,801.2
286.0967,73.1
286.3064,800.1
286.3731,81.7
286.4887,105.8
286.6587,147.9
286.6808,103
286.7047,21.3
286.7254,19.7
286.7723,1198
286.7853,102.8
286.9525,5773.7
286.9851,19.2
286.9993,205.7
287.0236,18.2
287.0559,47789.4
287.101,2700.3
287.3144,118.8
287.4898,112
287.605,18.5
287.6211,97.1
287.7072,168.6
287.8229,122.1
287.982,75.7
288.0159,380.7
288.059,1329.8
288.0851,188.7
288.1348,212.9
288.1561,32671.1
288.1651,256.5
288.3615,448.5
288.3907,343
288.3932,343.7
288.5125,974.3
288.5191,82
288.5688,296.1
288.7693,1389.6
288.8191,534
288.8509,175.7
288.8564,912.9
288.8626,1738.3
288.8704,3372.5
288.8747,3308.5
288.8804,5914.4
288.8857,7272.2
288.8872,7225.5
288.8975,12575.2
288.9074,16704.3
288.9115,15743.1
288.9226,20761.5
288.9268,21010.9
288.9279,20831
288.937,18656.4
288.9425,22674.4
288.9456,21424.7
288.9484,14605.7
288.9528,14565.9
288.9588,11697.7
288.9674,5656.5
288.9731,3256.8
288.9774,2294.6
288.9801,2352.7
288.9861,1757.4
288.9965,1263.1
289.0506,19.8
289.0621,132.4
289.1592,760.9
289.217,319.1
289.2711,393
289.4421,141.8
289.4473,18.9
289.7267,434
289.7585,608.9
289.7983,838.7
289.8663,90.8
289.9398,149.7
290.011,23.1
290.0172,330.6
290.0612,173.2
290.1009,182.5
290.1161,80.1
290.2777,353.1
290.4502,449.9
290.4701,130.7
290.7669,1689.6
290.7769,132.7
290.8809,98.3
290.9817,125.7
291.0272,3379.4
291.0491,160.3
291.1058,182.7
291.1736,342.3
291.2111,265.3
291.2705,192.5
291.2937,73.5
291.3028,20.5
291.3273,124.7
291.4449,429.6
291.4651,520.2
291.4843,133.5
291.4999,744.1
291.5441,886.3
291.6413,737.4
291.6836,637.7
291.9841,995.4
292.08,137.7
292.1032,727
292.2189,113.5
292.5817,291.4
292.5885,368.3
292.6359,169.1
292.6495,113.1
292.7738,169.7
292.8978,681.7
292.9379,631.7
292.9453,333.2
292.9776,23.2
293.0064,918.7
293.0247,100.9
293.043,264.8
293.0729,2540.5
293.0987,507964.5
293.1842,113.5
293.3784,83.4
293.4817,257.5
293.5171,942.3
293.5852,670.1
293.6714,167.7
293.6869,341.7
293.6994,19.1
293.7355,141.3
293.7469,135.4
293.8396,108.9
293.9811,89.9
294.0532,426.6
294.0654,18.7
294.0954,524.3
294.1021,47157.3
294.153,327.6
294.305,19.3
294.3229,669.8
294.3453,532
294.7359,341.7
294.7436,349.2
294.7535,381
294.7735,390.7
294.8151,416.2
294.8661,196.9
294.9023,20
294.9761,120.2
294.9911,512.5
295.0311,1687.2
295.103,3114.8
295.1692,231.1
295.1951,16614.7
295.2757,88.7
295.386,85.4
295.4991,522.2
295.5131,238.2
295.6316,101.8
295.7114,460.1
295.7353,502
295.9725,305.2
295.995,26.9
296.0101,1351.4
296.0631,23.3
296.1121,135.2
296.1599,366.8
296.1985,742.9
296.7689,218.2
296.801,549.2
296.9879,279.4
297.0241,411.3
297.0939,394.9
297.173,204.7
297.3242,291.1
297.3969,227.4
297.5965,87.3
297.7486,18.1
297.7574,92
297.7744,179.2
297.8419,513.6
297.8666,351.6
297.9697,144.1
298.0086,323.7
298.0263,972.7
298.0428,18356
298.0619,360.5
298.1341,136.6
298.2118,22.3
298.2811,164
298.3956,289.3
298.422,124.6
298.5119,309.1
298.5925,173.6
298.5985,338.2
298.6927,111.6
298.8199,501.6
298.8772,277.1
298.9701,238.1
298.9868,173.4
299.0237,4369.1
299.0424,882.2
299.0457,655
299.0815,442.4
299.1103,74.5
299.1398,2201.3
299.1539,122
299.1639,25.4
299.267,754.3
299.6768,352.8
299.806,515.4
300.0387,292.8
300.049,28.7
300.0639,125.1
300.0759,502.5
300.1137,301.8
300.1432,28.4
300.1961,29.8
300.2651,170.9
300.2761,290.2
300.2816,107.6
300.3249,340.7
300.4931,752.5
300.5299,290.3
300.5417,446.6
300.5571,19.1
300.5915,78.4
300.6035,187.6
300.6279,348.8
300.6675,623.1
300.6912,17.4
300.7059,362.4
300.7445,132.1
300.7479,130.6
300.8507,361.2
300.9647,711.5
301.0391,24294.6
301.0818,87.9
301.1015,447.7
301.1354,729.8
301.1416,241.6
301.3024,16.8
301.3093,273.9
301.3807,760.9
301.6447,19.3
301.7779,216.3
301.9558,892.8
302.0127,1022.3
302.0205,148.6
302.0356,91.1
302.0417,111.1
302.0645,4979.6
302.0735,47.4
302.3074,149.9
302.3144,18.2
302.4565,100.5
302.4685,272
302.5091,359.9
302.5467,641.8
302.6293,233
302.6734,117.7
302.6826,1182.3
302.6942,169.1
302.7067,22
302.7128,695.6
302.7215,844.5
302.7356,887.1
302.7784,146.5
302.83,4088.9
302.9073,173.1
303.0195,169.9
303.0679,484.2
303.0748,4834.7
303.1873,21.7
303.2179,2168.3
303.2541,267.9
303.4089,303
303.416,82.8
303.6469,226.1
303.667,327.4
303.6875,162.8
303.7658,431.6
303.7814,128.5
303.8169,107.7
303.89,790
303.9153,149
303.9614,187.7
304.0601,247.7
304.1704,343.8
304.2211,165.9
304.359,96.4
304.6174,157.7
304.6706,331.7
304.8274,1836.2
304.976,1412.5
305.0386,637.9
305.1243,462.1
305.2435,527.7
305.6562,792.5
305.6731,381.6
305.7499,196.7
305.7749,174.6
305.9015,655.7
306.0174,213.5
306.0249,531.2
306.0958,108.3
306.2367,208.6
306.353,146.7
306.5197,620.9
306.6575,881.2
306.8136,504.9
306.9434,370.9
306.9579,319.5
306.9778,3038.6
306.9852,148.1
306.9943,400.7
307.094,389.3
307.2986,717.8
307.666,838.5
307.6752,536
307.7007,720.4
307.7221,110
307.7956,145.9
307.9769,82
308.0757,533
308.1399,147.2
308.2845,310
308.3545,255
308.369,167.8
308.7856,301.5
308.8795,3059.7
308.888,368.5
308.916,119.7
308.9891,175.3
309.0008,325.9
309.0067,337
309.024,96.8
309.038,5682.5
309.0575,663.4
309.0831,5160.4
309.3744,579.8
309.4318,239.7
309.4855,19.7
309.6109,85.8
309.6373,23.9
309.916,523.8
309.9746,136.7
310.0599,154.1
310.0874,513.1
310.2434,217.1
310.3349,275.1
310.5141,17.8
310.5989,329.4
310.737,301.9
310.8278,703.8
310.8767,2129.6
311.0036,213.6
311.166,165
311.1948,104.8
311.2275,826.4
311.4565,79.1
311.5041,499.4
311.6974,640.9
311.7165,437.9
311.7241,19.9
311.8578,129.5
311.8783,771.6
311.9551,128.8
312.0414,1627.5
312.0654,18.9
312.1489,238.3
312.1868,443.9
312.2132,85.2
312.429,318.9
312.4507,173.9
312.4863,192.9
312.5958,118.6
312.6259,187.5
312.6826,103.7
312.7885,275.1
313.0024,170.5
313.0369,1616
313.0691,18.4
313.1505,21
313.1966,137.9
313.2129,473.5
313.2412,582
313.2746,33158.9
313.2811,359.2
313.3078,453.8
313.3993,434.8
313.5384,260.1
313.7231,101.8
313.8784,450.2
313.9236,152.6
313.9361,191.2
313.9772,20
314.015,248.7
314.0199,1051
314.0913,301.5
314.1746,461.5
314.1847,84.8
314.2114,17
314.2777,3748.3
314.3802,204.9
314.3955,601.6
314.5287,158.3
314.5588,517.2
314.6759,136.1
314.8376,5753.3
314.9209,134.9
314.941,188.8
314.9441,226.1
314.9996,6051.6
315.0205,312.8
315.0273,143
315.0291,198.3
315.0309,185.7
315.0422,253.5
315.0439,367.2
315.0527,4961.8
315.0558,10095.4
315.0638,7228
315.067,23116.9
315.0701,33130.8
315.0724,21928.6
315.0807,10230146
315.0892,24378
315.0912,18003.9
315.0944,12351.4
315.0984,7764
315.1007,5962.7
315.1028,5167.9
315.1049,3723
315.107,2472.4
315.109,1966.4
315.113,464.5
315.1179,403.2
315.1217,290.4
315.1264,275.9
315.1619,6530.6
315.2415,196.4
315.2602,330.3
315.3101,184.8
315.3242,7344.8
315.4295,433.3
315.4869,1302.9
315.5482,104.2
315.6185,474.2
315.6603,376.2
315.7089,286.7
315.7424,491.4
315.9369,849
316.0694,2352.4
316.0781,54975.6
316.0841,1070958.5
316.1121,1587.2
316.1601,229.1
316.3293,709.9
316.3509,178.2
316.4234,135.7
316.4561,281.3
316.4962,426.2
316.5378,97.7
316.6713,108.2
316.7301,365.9
316.8256,27.3
316.8746,386
316.9211,285
316.972,24.4
316.9871,357.3
317.0106,619.6
317.0566,1544.8
317.0657,2380.8
317.0846,122903.3
317.1056,471.3
317.184,238.9
317.1908,531.8
317.2162,553.4
317.5185,856.8
317.9222,787.4
317.9339,501.1
317.9649,312
317.9741,112.2
318.0881,12945.8
318.5662,103.6
318.5803,205.6
318.7786,144.4
318.7924,46.6
318.8039,3067
319.09,116.8
319.1952,39757.6
319.2052,155.8
319.2255,144.9
319.2537,126.7
319.3003,264.8
319.3169,654.3
319.5487,20.9
319.6002,301.8
319.8324,425.3
320.0751,227.1
320.1105,1291
320.1983,2769.9
320.2335,678.5
320.2589,1444.1
320.4075,418.3
320.4358,79.6
320.6144,451
320.7676,405.5
320.8011,612.8
320.8851,356.5
320.9076,712.7
320.9499,537.7
321.0066,415.3
321.0921,81.9
321.2109,21944
321.2623,91.5
321.2751,95.8
321.345,111.7
321.3633,916.3
321.587,168.2
321.6108,315
321.6897,196.3
321.8091,220.9
321.9277,129.2
321.9614,757.7
322.001,164.1
322.0095,202.4
322.2141,2093.5
322.2367,90.5
322.3004,286.7
322.3583,171.5
322.4313,174
322.5686,344.1
322.7018,19.8
322.7069,19.7
322.8213,126.1
322.8463,390.9
322.9484,351.9
323.0212,13302.1
323.0608,19.8
323.1463,108.9
323.2267,2123.7
323.3771,426.4
323.4235,656
323.455,387.8
323.6354,108.1
323.7113,366.2
323.7654,20.8
323.8683,838.5
323.9919,242.8
324.0058,133.4
324.0243,1103
324.0836,825.2
324.4825,221.8
324.5061,251.6
324.6068,2858.8
324.6143,4688.6
324.6185,5071.2
324.6435,739.4
324.6884,237.4
324.8095,486.7
324.8529,506.4
325.0026,616.6
325.0081,17.9
325.0261,903.8
325.0571,2605.6
325.1278,78.4
325.203,662.2
325.2116,2344.5
325.2307,246.7
325.2804,439
325.2963,156.9
325.3042,18.5
325.321,86.5
325.3314,112.8
325.5992,599.4
325.6335,282.7
325.6472,449.1
325.6535,327.3
325.7149,523.1
325.9603,128.4
326.0049,56.3
326.3366,134.3
326.4324,387.2
326.5023,366.8
326.6373,282.1
326.7129,782
326.8504,1220.5
326.9566,139.8
326.9766,361.5
326.9786,385.1
326.9805,355.1
327.0162,2421.9
327.0524,2546.8
327.1334,453.2
327.1516,106.5
327.228,6136.9
327.298,824.3
327.3487,155.2
327.3608,110.8
327.4349,18.3
327.4643,695.2
327.6496,546.9
327.7481,156.6
327.828,634
327.9128,269.2
327.9761,19.7
328.0486,134.2
328.1385,184.8
328.1791,614.6
328.2187,204.1
328.292,500
328.4203,337.8
328.5365,320.2
328.6293,176.7
328.7533,240.6
328.9858,538.5
328.997,755.1
329.0257,444.6
329.0964,2477.3
329.2033,130.8
329.22,88.3
329.2243,291.4
329.3026,750.1
329.3623,114.9
329.4299,147.6
329.4553,94.8
329.6459,289.7
329.6742,18.6
329.7141,231.6
329.7603,253.4
329.8417,864.2
329.9716,325.1
330.0191,145.1
330.0595,244.1
330.5828,479.3
330.6299,74.6
330.7741,119.7
330.8715,121.4
330.9246,239.2
330.9586,215.2
330.9886,25.4
331.0209,684.8
331.046,155720.1
331.0547,1658345.4
331.0949,2006.1
331.2546,245.2
331.3073,361.4
331.3173,208
331.4965,114.2
331.7799,87.3
331.7846,187
331.8243,887.3
331.8497,138.8
331.8741,478.1
331.9481,677
332.0005,99.5
332.0245,625
332.0486,10116.3
332.058,150286.5
332.0806,294.1
332.3899,309.7
332.4458,195
332.5229,323.7
332.6136,230.2
332.674,102.8
332.69,505.8
332.7262,296.9
332.9457,119.5
332.9609,439.3
333.0007,585.2
333.0528,97282.7
333.0583,16832.6
333.1008,117.1
333.1537,650.5
333.4276,21.2
333.5198,242.5
333.9347,18.7
334.0284,86.6
334.0561,9325.6
334.0622,434
334.0908,109.1
334.1125,236.7
334.366,412.7
334.4341,203.9
334.4468,124.4
334.4821,142
334.7348,403.3
334.8203,651.9
334.8299,127.9
334.9046,178.9
335.0096,566.3
335.0388,711.3
335.0766,85.3
335.1447,428.8
335.1575,284.8
335.4534,319.5
335.6941,123.2
335.8463,213.4
335.8874,483
335.9096,504.9
336.2445,75.1
336.2619,155.4
336.4219,20.8
336.5005,124.2
336.6978,363.7
336.7135,329.3
336.8054,875.5
336.831,631.7
336.8364,103.2
336.8592,225.2
336.9933,289.7
337.0368,13987.3
337.0502,28762.9
337.0627,809980.5
337.1591,96.2
337.2746,27683.3
337.7914,202.1
337.8966,373.4
337.9367,401.3
338.0343,467.6
338.0444,521.8
338.0541,621.9
338.0661,71328.3
338.263,210.4
338.2781,2509.9
338.6376,192.1
338.7541,197.3
338.995,495.6
339.0389,2630.9
339.0478,1303.4
339.0666,6634.8
339.1489,705.1
339.2821,90
339.2904,8667.8
339.7514,289.9
339.9731,152.4
339.9906,412.5
340.0373,193.1
340.0702,158.5
340.1796,96.5
340.2073,140.1
340.27,247.7
340.3242,124.3
340.4753,307.6
340.539,154.9
340.6307,480
340.7824,387.5
340.9529,155.1
341.0189,22.7
341.1785,1092.1
341.1917,282.4
341.3057,2505.2
341.3533,93.3
341.4964,21.1
341.7642,191.4
341.8638,597.8
341.9091,393.6
342.0514,297.9
342.0699,32.5
342.2785,118.1
342.3094,19.1
342.3573,318
342.3778,584.9
342.4158,120.5
342.484,222.7
342.4957,484
342.5334,153.2
342.55,171.3
342.653,398.7
342.7953,24.3
342.8808,719
342.9193,106.9
343.1612,103.3
343.1867,480.2
343.1955,11552.5
343.3389,889.4
343.3613,175.4
343.5263,220.8
343.6957,643.4
343.7053,198.8
343.7873,221.2
343.8453,287.3
343.9052,22.5
344,283.8
344.056,83
344.2258,267
344.307,136.5
345.4696,206.4
345.542,19.3
345.5831,348.6
345.8095,109.8
345.8211,223.6
345.8839,256.2
345.985,1336.7
346.1013,89.1
346.4919,110.8
346.4994,231.1
346.5372,190.5
346.7406,114.7
346.7925,525.2
346.86,146.6
346.881,139.8
346.9102,116.6
347.0088,288.3
347.2743,648.3
347.4968,385.1
347.6525,758.5
347.6628,205.7
348.2039,129.4
348.4602,151.3
348.5338,562.2
348.5736,655.3
348.6114,76.2
348.9885,19.6
349.0109,155.3
349.0286,170.9
349.0416,166.1
349.1656,163.6
349.2362,106.1
349.31,677.5
349.5039,137.7
350.0137,24.4
350.0189,526.4
350.08,1084.4
350.2341,175
350.4222,133
350.4822,80.1
350.5458,389.2
350.7069,182.4
350.7934,726.3
350.8212,405.5
350.8999,431.6
350.9292,97
351.044,20.4
351.0697,327.6
351.1966,665.4
351.2589,704.7
351.2774,158.2
351.6156,20.8
351.6204,220.5
351.7377,160.9
351.8678,21.4
351.9495,242.3
352.1004,611
352.1338,77.7
352.4024,135.9
352.4128,227.5
352.4294,243.4
352.5022,638.3
352.612,247.2
352.6639,608.4
352.7914,121
352.8978,776.7
353.0278,172628.3
353.0367,282040.7
353.1895,300.4
353.929,260.4
354.0309,15653.5
354.04,26312.6
354.1102,161.2
354.1189,19
354.2408,118
354.2637,540.8
354.2715,180.7
354.315,21.3
354.3352,22
354.6878,127.6
354.7615,115.2
354.8789,373.6
355.0025,399.4
355.0123,2020.3
355.0267,24
355.035,16362.5
355.0719,950.3
355.1514,452.7
355.1716,582.6
355.5812,258
355.5907,320.2
355.607,600.1
355.9668,160.9
355.9899,432.4
356.0157,132.3
356.0301,813.1
356.0696,24
356.1358,556.5
356.1889,22.9
356.2281,324.3
356.4268,176.2
356.5438,178.9
356.5622,544.9
356.6667,340.7
356.7022,230.5
356.7442,191.8
356.8019,107.7
356.8576,108.8
356.8828,117.6
356.9206,124.7
357.0097,1001.5
357.0208,414.5
357.1797,202.8
357.3084,595.2
357.3248,423.8
357.3546,234.8
357.3858,264.1
357.4908,479
357.5381,555.5
357.5613,261
357.5982,104.2
357.6087,182.6
357.6251,19.1
357.6307,230.2
357.7741,157.7
357.8402,23.3
357.9345,143.5
358.0094,93.4
358.019,482.4
358.0446,775.5
358.1917,599.8
358.4013,146.7
358.5033,20.3
358.6257,338.5
358.8786,182.1
358.9187,79.9
359.008,711.1
359.0322,17613
359.0447,469059.3
359.1439,21.1
359.1792,216.2
359.2224,225.6
359.2372,521.6
359.252,388.2
359.2597,153.4
359.3098,196.8
359.3515,231
359.404,217.8
359.4214,867.1
359.4285,221.3
359.4418,1202.7
359.4614,645
359.4704,2341.4
359.4801,476.4
359.4941,502.2
359.5181,142.8
359.5348,22.2
359.555,679.4
359.5719,21.2
359.6081,777.4
359.6372,18.1
359.8794,308.7
359.9116,309.1
359.9219,677.4
360.012,52
360.0354,159.8
360.0481,41051.4
360.3108,178.8
360.3243,1359.4
360.5646,253
360.5948,96.9
360.6241,406.5
360.6311,117.5
360.708,492
360.7317,87.7
360.8146,752.7
360.8859,101
360.9091,121.3
361.021,5293.8
361.0486,2763.5
361.2073,450.5
361.2587,106
361.2748,3858.2
361.4816,162.1
361.5829,234.5
361.8635,81.8
361.9806,336.9
362.0067,129.9
362.1458,604.9
362.2273,258.7
362.237,77.8
362.3444,305
362.5252,242.9
362.555,653.2
362.9273,981
362.9874,537.8
363.1312,611.9
363.1799,668.4
363.2425,152.8
363.2989,942.2
363.6018,19.6
363.629,764.8
363.6384,190.5
363.6836,316.4
363.8357,432.9
363.9327,641.2
364.0943,339.1
364.1626,83.5
364.1806,256.2
364.5945,333.5
364.6275,18.9
364.6776,90.6
364.9367,320.8
365.1073,931.6
365.1359,317.9
365.1782,90.9
365.3007,351.2
365.3659,85.2
365.4254,113.7
365.522,112.9
365.6737,168.7
365.7201,346.1
365.8489,264.5
365.8861,141.4
365.9229,522.5
366.161,905
366.1938,90.7
366.311,348.7
366.6484,553.9
366.7726,17.2
366.7973,239.4
366.9482,802.5
367.1221,767.1
367.1488,130.3
367.1949,2828.7
367.3644,610.7
367.4431,542.4
367.6434,17.7
367.7547,335.2
367.7658,573.7
367.845,559
368.0431,358.8
368.075,288.2
368.3675,248.6
368.3873,16.7
368.3925,266.4
368.5716,157
368.6278,115.3
368.6505,152.6
368.7443,90.9
368.7851,344.2
368.9928,4436.8
369.0018,22507.4
369.0107,10528.1
369.0891,217
369.1892,316.7
369.2118,723
369.2396,171.4
369.4331,137.6
369.5156,197.2
369.5827,201.8
369.6291,328.5
369.8107,20.4
370.0097,824.5
370.3728,190.9
370.5736,255.9
370.6677,717
370.6929,83
370.8246,206.7
370.8548,81.6
371.0016,178.2
371.0651,116.2
371.1243,92.6
371.1921,150.3
371.2027,364.8
371.3646,712.9
371.6154,160.1
371.6217,833.6
371.8863,947.9
371.902,774.2
371.9563,235
372.0359,21.1
372.1042,409.8
372.2563,98.1
372.3026,101.2
372.3528,168.5
372.3839,839.6
372.6408,173.7
372.7744,445.4
372.823,1990.3
372.9624,162.9
372.983,832.2
373.0494,186.5
373.0735,562.9
373.2097,75.5
373.3816,168.7
373.4031,840.1
373.4155,88.2
373.4298,87.8
373.9993,755.3
374.0249,18.7
374.1247,804
374.244,78.6
374.3148,110.9
374.4926,116.2
374.7026,458.1
374.8435,430.1
374.9166,20
374.953,548
375.0098,160357.1
375.0187,157199.5
375.2023,88.6
375.3893,468.2
375.6422,17.6
375.6477,148.1
375.7385,708.1
375.7406,688.6
375.7517,846.1
375.9543,199.1
375.9785,301.7
376.013,12590.5
376.022,12451.5
376.1566,232.9
376.1827,142.3
376.2517,128.2
376.2917,20.2
376.3802,2341.9
376.3818,2365.4
376.4045,181.1
376.4364,436.7
376.445,371.5
376.5247,19.5
376.5881,427.5
376.5954,241.6
376.6672,117.2
376.7913,749.4
376.8155,182.7
376.9947,1694
377.017,9268.2
377.4352,19.2
377.4664,633.1
377.5784,175.4
377.587,641.5
377.8503,789.9
377.9855,497.8
378.1312,128.2
378.2884,715.1
378.3351,352
378.5847,107.5
378.7168,300.6
378.7335,72.2
378.7554,295.8
378.7785,376.5
378.9687,291.4
378.9909,146.7
379.0027,690.7
379.1429,389.5
379.1448,381
379.3392,198.4
379.6816,90.3
379.9206,120.7
380.0524,176.5
380.0619,437.9
380.3814,178.3
380.6824,96.3
380.9397,351.6
380.9797,457.7
380.9898,25.9
380.996,865.8
381.0144,29856.1
381.0267,253311.4
381.1334,682.1
381.5168,165.9
381.5505,123.4
381.5943,101.9
381.7295,163.4
381.7512,530.6
381.8217,302.7
382.0301,22246.1
382.1341,257.4
382.164,529.8
382.2242,73.9
382.248,505.7
382.2543,247.4
382.3645,486.4
382.6451,323.4
382.7702,451.3
382.9005,246.9
382.9218,193.2
382.9493,137
383.0308,837.3
383.0654,134.5
383.0878,474.4
383.117,80655.5
383.2067,135.4
383.2799,141.4
383.3236,124.4
383.3414,638.2
383.3657,173.8
383.9137,126.7
383.9549,342.4
384.1203,5483.8
384.2302,462.2
384.3952,567.4
384.4943,250.2
384.5697,161.2
384.7757,455.5
385.1384,154
385.375,21.4
385.6339,504.7
385.6551,156.5
385.9126,631.3
385.9563,634.4
386.0281,150.6
386.0386,167.1
386.2818,227.3
386.3141,23.8
386.4727,245.3
386.5598,101
386.6339,20.4
386.7494,542.2
386.8587,145.3
386.8846,647
387.0032,2589.3
387.1887,88
387.3162,99
387.5362,261.5
387.6703,600.9
387.9859,140.3
388.1723,19
388.4072,126.2
388.5136,226.8
388.5823,197.8
388.7137,394.7
389.0361,157.8
389.2024,572.4
389.7663,550.6
389.8472,151.2
389.9747,1272.5
390.1945,140.6
390.281,135.4
390.6931,384.8
390.7095,412.5
390.7992,927.4
390.8428,600.4
390.8516,559.9
390.8699,209.6
390.8768,171.9
390.8886,644.3
390.9019,609.1
390.9746,13475.8
390.9836,30559.4
390.9927,18951.5
391.0091,257.8
391.017,582.5
391.0329,153.7
391.2475,113.1
391.2579,17.8
391.4727,223.8
391.6751,81.1
391.7481,390.3
391.8522,100.1
391.8575,858.8
391.8813,22.1
391.8937,159.1
391.9831,268.6
391.9893,295.8
392.2304,89.1
392.2708,160
392.4691,620.1
392.4763,119.5
392.553,22.5
392.597,282.1
392.6544,615.6
392.7791,211.7
392.7968,438.9
392.9556,737.8
392.9822,123.8
392.9911,1108.1
393.0746,507.9
393.2982,27.4
393.3843,582
393.6115,98.2
393.6867,875.1
393.7982,653
393.9258,601.5
393.9966,143.5
394.0272,369.3
394.0387,642.5
394.3848,389.7
394.6504,18.5
394.6818,140.5
394.7207,136.5
394.7934,1016.1
394.9855,105.1
394.9892,96.2
395.0664,156.4
395.2717,771.5
395.3783,175.8
395.4413,232.6
395.6074,443.9
395.9825,143.8
396.2593,226.4
396.6305,210.9
396.7305,129.4
396.8313,506.9
396.9918,187497.7
397.0006,87479.4
397.3389,199.1
397.441,163.2
397.4726,850.9
397.5472,672.4
397.995,14618.4
398.0041,4533.3
398.2059,20.7
398.2247,351.6
398.2424,8843.6
398.2652,213.1
398.2822,334.7
398.3251,21.8
398.5465,472.1
398.6209,501.1
398.7421,742.6
398.8307,627.6
398.8936,203.5
398.9286,318.6
398.9764,119.9
398.9862,422.5
398.999,902.6
399.0899,556
399.2065,669.9
399.3034,340.5
399.7668,155
399.8405,20.6
399.9557,506.9
400.0029,106.9
400.0115,113
400.0544,144.7
400.0726,400.5
400.1039,358.4
400.443,107
400.5219,218.2
400.5287,84.3
400.7225,144.5
400.7433,125.3
400.9727,27.5
400.9844,555.8
401.034,319.3
401.0476,714.1
401.1524,84.6
401.1772,468
401.4463,168.6
401.4889,95.8
401.7612,196.7
401.8309,992.1
402.0362,685.7
402.1725,87.4
402.2258,380.9
402.2833,268.1
402.3018,377.8
402.332,280.7
402.3821,257
402.5081,152.2
402.5682,303.6
402.6368,300.9
402.7375,789.2
402.8109,524.3
403.0087,284650.1
403.1381,168
403.4368,606.7
403.5691,154.9
403.6115,20.8
403.6887,695.4
403.7464,665
403.7648,745.1
403.9111,406.4
403.9765,79.8
404.012,25380.9
404.0762,732
404.1207,86.3
404.2216,125.2
404.3357,520.1
404.3642,298.1
404.9203,213.9
404.9857,155.4
405.0124,964.4
405.1012,793.3
405.1938,359.1
405.2367,308.3
405.3179,345.5
405.3709,129.2
405.7002,116.7
405.9482,235.5
406.33,1002.3
406.3853,188.6
406.4245,87.1
406.5495,530
406.7073,18.7
406.7737,517.6
407.3332,211.7
407.4555,96.7
407.5791,503.9
407.7579,18
408.1469,17.8
408.239,111.2
408.3349,22.6
408.4086,18.7
408.4894,413.9
408.624,17.8
408.6944,96.8
408.7716,1260.8
408.9356,19.5
408.9853,3608.2
409.0574,21.2
409.1406,86.5
409.1562,18.3
409.3653,633
409.5169,181.4
409.6284,569.2
409.714,753.1
409.8573,175.7
409.9803,345.9
410.0126,112.1
410.0526,149.4
410.2166,505.9
410.4895,22.7
410.7677,362.8
410.9703,66.6
410.9767,138.3
411.0816,256
411.2231,119
411.42,917.8
411.4421,20.6
411.4551,218.5
411.5639,116
412.0026,82.7
412.1665,246.6
412.1942,266.5
412.2037,672.2
412.2472,297
412.3224,2195.3
412.4972,283.8
412.5563,23.5
412.567,292.9
412.5843,761.7
412.7176,381.8
412.9657,37963.5
412.9746,15476.6
413.0909,296.4
413.1034,501.6
413.1738,553.3
413.2668,4590.6
413.2886,512
413.3251,200.7
413.3781,18.1
413.4082,249.7
413.4556,17.3
413.6116,72.5
413.6838,415.7
413.759,429.2
413.9691,784.2
414.0807,132.9
414.2704,328.4
414.3713,228.5
414.5345,445.2
414.5592,781
414.6482,20.1
414.6633,161.9
414.7152,642.1
414.7787,635.1
414.8501,348.5
414.9314,343.8
414.9637,609.2
414.9731,423.2
414.9974,759.3
415.0062,81.2
415.0385,19.9
415.1573,723.9
415.3181,19.6
415.4508,82.4
415.7128,234
416.1163,115.7
416.1357,1367.1
416.2149,28294.9
416.5821,262.6
416.8478,199
416.8649,104.2
416.9392,627.7
417.0443,287.7
417.2181,3886.2
417.3147,132.7
417.3442,112.4
417.4031,268.7
417.5432,20.8
417.608,434.6
417.7752,202.3
417.8141,137.5
418.0959,954.3
418.1609,82.6
418.2333,390.4
418.4588,78.2
418.567,787.4
418.6689,103.2
418.7568,629.9
418.8233,137.7
418.9286,536.9
418.9826,103905.1
419.2568,671.9
419.3133,136
419.3216,345.1
419.3637,789.7
419.4764,377.3
419.5031,145.3
419.5259,20.6
419.547,180.9
419.8844,314.4
419.9858,5933.9
420.2849,265.8
420.3586,567.2
420.427,752.4
420.5626,167.8
420.7345,184.4
420.8303,153.5
420.9113,470.7
420.9585,500.8
420.9811,2784.2
420.9998,90.5
421.2101,16.9
421.3163,134.7
421.8535,129.6
421.8669,18.9
422.1323,18.8
422.2246,20.9
422.484,375.8
422.553,858.3
422.7142,243.3
422.8026,424.1
422.9122,493.7
422.9788,681.7
423.0296,24.4
423.1459,443
423.2962,280.6
423.3513,264.9
423.391,75.7
423.578,545.6
423.6228,106.6
423.6353,135.6
424.0294,213.3
424.1439,291
424.2839,1317.9
424.3238,120.1
424.4461,339.3
424.4806,258.5
424.7333,429.9
424.9599,81.4
424.9763,19.8
425.0701,134.8
425.1173,117
425.365,135.7
425.8624,109.6
426.1838,97.7
426.366,221.9
426.4264,171.5
426.7945,422.1
426.9372,488.7
426.9733,697.6
427.1615,275
427.277,501.4
427.6824,18.3
427.7813,90.2
427.7889,855.1
427.8611,324.1
427.9275,582.5
428.0255,155.5
428.0512,112.2
428.065,95.9
428.3193,128.9
428.3547,106.4
428.6896,242.8
428.7012,194.6
428.7399,94.7
428.8558,795.5
428.8924,440.8
428.9395,2247.8
428.949,114
428.9631,194
428.9712,220.3
429.013,176.5
429.0897,173.2
429.2409,22.2
429.2626,472
429.2881,713.3
429.5457,113.1
429.5775,862.9
429.632,23.2
429.7276,228.5
430.1155,165.6
430.3338,324.6
430.3977,122
431.1208,438
431.1747,898.9
431.2178,6309.7
431.7998,81.5
431.9064,130.3
431.9591,110.9
431.9694,628.1
432.0193,214.6
432.1062,200.1
432.3126,22.8
432.4109,739.1
432.7724,287.1
432.8118,670.5
432.9156,430.4
433.0303,20.3
433.2356,1033.5
433.4278,181.2
433.4669,115.5
433.6718,625.3
433.857,438.9
433.9234,20.3
433.9281,18.9
434.0145,18.2
434.1352,244.2
434.4947,600.1
434.5396,237.1
434.5927,776.7
434.6121,261.1
434.6282,498.2
434.6504,158.4
434.762,581.3
434.9567,21812.8
434.9729,264.3
435.1494,103.8
435.3682,276.6
435.6596,696.2
435.9599,1534.7
436.0737,490.3
436.0837,20.9
436.1122,89.3
436.1891,216.4
436.4784,112.3
436.6384,927.1
436.7712,127.4
436.799,154.3
436.8672,438.8
436.9541,1260.7
437.149,185.5
437.2038,659.9
437.2623,259.1
437.4117,80.9
437.7272,73.5
437.7842,373.2
437.956,20.3
438.1072,682.9
438.1968,838.6
438.2357,808.9
438.3007,20.9
438.4128,390.1
438.4888,91.5
438.5244,104.6
438.9728,2786.6
438.9857,6111.3
439.0445,377.2
439.0574,159.4
439.2052,648
439.2234,1272.5
439.2547,774
439.8083,20.1
439.8289,472.1
439.8646,276
440.0156,326.4
440.2935,144.8
440.4673,267.1
440.6051,121.2
440.6721,167.9
440.8339,776.9
440.8494,121.6
440.9209,200.8
440.9389,305.2
440.9701,596.7
440.9827,633.4
441.2984,394.9
441.4429,503
441.5159,871.4
441.6619,193.4
442.2387,107.5
442.3029,42.1
442.8054,654.1
442.839,191.8
442.9861,894.6
443.2541,1484.9
443.2979,170.3
443.5121,350.2
443.7691,182.8
443.8046,664.4
444.1694,163.9
444.6115,268.3
444.6303,382.8
444.9878,148.2
445.1733,26.8
445.232,1879.7
445.2569,186.8
445.3224,171
445.5116,70.3
445.7229,126.1
445.8542,225.9
445.8671,315
446.0032,379
446.4256,236.4
446.4422,477.2
446.6973,129.6
446.9243,225.3
447.0557,345.3
447.1669,672.1
447.1849,448.2
447.206,824.5
447.2889,445.2
447.5071,497.9
447.9178,200
448.1565,106.8
448.3289,152.6
448.5599,113.1
448.9341,1538.9
448.9497,200.4
448.9673,174.8
449.1548,1629.4
449.2919,313.6
449.3636,20.5
449.5458,20.2
449.7381,342.4
449.8775,730
450.1208,123.8
450.1584,326.9
450.5069,357
450.6487,114.9
450.7162,379
450.9303,674.1
451.15,116.3
451.2259,287.9
451.2322,348.9
451.3958,804.6
451.4219,106.4
451.4349,484.8
451.6813,642.6
451.822,148.1
452.2931,96.2
452.3467,118
452.5478,137.7
452.5857,149.4
452.6431,709.9
452.9454,612.4
452.9925,669.1
453.3203,108.3
453.4864,477.5
453.6649,175.6
453.709,136.5
453.8563,246.9
453.9882,130.9
454.2937,115.8
454.7117,259.7
454.9506,35491.3
455.0773,313.2
455.1792,803.6
455.2752,217.7
455.4359,166.5
455.5271,385.1
455.7045,145.5
455.7841,18.6
455.7912,17.6
455.9541,389.8
456.1973,141.4
456.7002,773.4
456.799,308.8
456.9478,7229.4
457.0875,185.2
457.1475,20.2
457.2337,17715.3
457.3176,120.4
457.4634,250.6
457.4781,346.8
457.4978,577.8
457.5652,435.4
458.0813,210
458.2363,1169.9
458.3229,403.3
458.408,267.2
458.5848,825.8
458.6039,19.8
458.7017,126.4
458.7153,383.5
458.9623,3563.2
459.0236,767.5
459.0459,83.3
459.2493,366098.5
459.292,127.8
459.6306,22.9
459.9866,113.4
460.2526,72514.6
460.2867,441.5
460.3853,102.6
460.5868,186.5
460.6543,105.2
460.8393,368.1
460.9673,73245.6
461.1486,525.6
461.2051,1135.9
461.2552,4738
461.5296,136.2
461.5722,750.6
461.9709,6115.4
462.2834,744.7
462.7733,126.9
462.9644,23257.5
463.6646,325.5
463.7562,628.5
463.8523,121.9
463.9679,710.5
464.4182,18.8
464.5685,334.9
464.6229,394.8
464.8346,87.2
464.9009,104.1
464.9107,780.6
464.9467,175.3
464.9795,9629.9
465.1576,494.3
465.2692,1394.1
465.3289,149.3
465.5941,143
465.9162,337.3
465.9334,674.2
465.9706,600.1
465.9836,358.6
466.2679,265.6
466.3904,138.1
466.8491,280.7
466.944,600.8
466.9972,518.1
467.1286,281.5
467.2146,81.4
467.3558,946.7
467.4136,232.4
467.5294,85.5
467.6568,719.3
467.9357,136.5
467.9653,20
467.9741,19.3
468.0464,529.6
468.1141,286
468.1909,660.2
468.3091,4392.8
468.393,739
468.6795,156.2
468.836,325.6
468.8797,185.1
469.0276,346.6
469.1416,43.6
469.3242,898.5
469.5094,111.1
469.5998,461
469.7724,853.5
470.0566,216.5
470.4581,674.3
470.4988,255.6
470.7318,870.5
470.9244,17252.2
470.996,5038.9
471.1436,82
471.2858,1922.3
471.4252,639.3
471.4859,106.7
471.5246,359.2
471.6312,175
471.6628,111.6
471.9449,104.6
471.9546,226.5
471.9757,170.6
472.1058,368.6
472.542,166.6
472.6136,81.5
472.675,591
472.9217,5338
472.9334,348.5
472.959,926.1
472.9808,652.9
473.1502,497.4
473.2651,6081
473.2932,108.3
473.3851,91.5
473.4724,252.3
473.8853,160.4
473.9729,255.8
474.0374,359.9
474.098,671
474.3743,179.9
474.5134,339.2
474.553,550.1
474.6715,371.9
474.7749,482.4
474.9937,420
475.0279,447.6
475.0499,109.1
475.2232,16903
475.2444,975.3
475.6008,141
475.7116,245.7
475.8486,323.2
475.9339,694.5
475.957,136
476.2273,2052.8
476.2489,876.8
476.3589,141.6
476.3715,240.5
476.5689,185.7
476.6139,722.3
476.6454,466.8
476.6994,872.6
476.9413,50664.6
476.9933,461.4
477.0759,254
477.0979,517.4
477.1509,128
477.2355,760.2
477.2571,121.6
477.5116,187.1
477.9449,2763.1
477.9651,787.2
478.1583,131.2
478.2935,2442.5
478.3301,41584.5
478.3461,250.1
478.699,121.2
478.8662,245.6
478.9385,15395.3
479.0061,216
479.3164,759.8
479.3337,8236.3
479.3863,254.3
479.476,123.5
479.6384,876.7
480.0313,176.3
480.0825,306.2
480.2096,430.2
480.3111,827.5
480.3451,1389.4
480.3928,82.6
480.5695,185.8
480.7973,321
480.9532,3783.1
481.0918,91.6
481.2179,344.4
481.2339,3724.9
481.2667,18.5
481.3928,77.6
481.4403,209.6
481.5018,159.2
481.9795,110
482.0316,750
482.0441,549.3
482.055,453.8
482.2196,488
482.3629,863.2
482.5388,166.4
482.6196,293.3
482.6912,205.4
483.1643,21.6
483.2493,316929.8
483.3792,217.6
483.3899,647.4
483.5172,278
483.5958,160.9
483.6943,336.7
483.7056,830.8
483.833,152.4
483.9233,197.4
484.2526,69627.6
484.3009,21.5
484.4117,263.3
484.6138,100.8
484.6543,136.6
484.9304,532.8
485.1153,570.9
485.1598,163.5
485.2649,142206.5
485.4955,340.7
485.7683,536.6
485.7963,282.4
485.8967,338.4
485.954,223.9
486.0166,175.5
486.134,85.2
486.233,413.6
486.2682,31570.3
486.3545,776
486.5653,18
486.6487,444.9
486.7337,92.3
486.8986,759.1
486.9706,1760.6
487.0769,304.7
487.1535,27.6
487.2454,701.9
487.2806,53064.1
487.4358,106.4
487.5392,223.1
487.6408,408.1
487.7211,779.9
488.0082,222
488.2838,12990.7
488.3704,19.7
488.6758,875.7
488.7778,333.6
488.839,156.4
488.8955,476.6
489.0738,279
489.0867,96.2
489.1493,706.6
489.2284,872.1
489.2821,413.3
489.3169,19.6
489.3388,652.1
489.3467,600.2
489.3863,724
489.4185,847.5
489.4599,137.6
489.5811,311.1
490.0164,820.7
490.1234,724.1
490.2915,9636.6
490.4188,734
490.5181,288.7
490.7447,110.5
491.0687,209.3
491.0804,33.2
491.1293,165.1
491.2572,21.2
491.2936,371.6
491.6218,252.2
491.9589,158.2
492.0914,217.4
492.3323,590.6
492.6651,633.5
492.6914,751.1
492.8303,587.3
492.9153,8420.1
492.9693,465.1
493.2579,171.4
493.3874,20.1
493.4208,21.3
493.4362,157.1
493.4994,509.4
493.5851,504.5
493.6688,348.1
493.8079,17.4
494.0062,395.4
494.216,427.6
494.3052,291
494.3253,9505.9
494.464,354.2
494.6446,177.1
494.6989,167.8
494.7879,706.3
494.913,3372.4
494.9498,108
494.9691,169.1
495.1881,82.3
495.2111,111.7
495.3262,1122.8
495.3441,17.1
495.4981,590.8
496.0057,454
496.2653,766
496.2887,144
496.3408,436228.7
496.3888,86.6
496.5514,248.8
496.7548,639.8
497.3441,109216.1
497.4394,325.7
497.4879,19.1
497.7134,197.3
497.7404,563.1
497.8247,451.1
498.0282,22
498.2986,370.3
498.3475,7984.1
498.7445,313.4
499.1871,176.5
499.2231,14940
499.4668,87.6
499.7664,180.2
499.7837,103.5
499.8388,189.5
500.0741,19.3
500.2271,2496.9
500.2584,871.8
500.2767,970.2
500.3122,1082.7
500.7447,220.5
500.8596,224.5
500.9474,434.6
500.9858,236.1
501.2024,539.8
501.239,7907.1
501.6098,132.2
501.7671,213.5
501.8219,468.8
502.0558,114.4
502.2431,1147.7
502.2717,147.1
502.2932,1648
502.33,22735
502.7474,122.7
502.9858,394
503.2541,2050.1
503.3335,2712.1
503.477,214.6
504.0572,904.1
504.084,333.7
504.2255,720.6
504.2496,396.7
504.3078,3484.2
504.3456,6867.8
505.0108,201
505.0925,74.1
505.1888,18.3
505.2334,4064.1
505.3842,380.3
505.4147,812.4
505.4749,332.4
505.5901,649.8
505.6203,684.1
505.6847,234
505.6974,218.2
506.1232,133.3
506.1725,95.5
506.2661,1569.3
506.2936,276.5
506.3094,114.9
506.3618,3022.2
506.893,1420.8
506.98,640.8
507.1711,134.4
507.1744,131.9
507.1821,151.8
507.1845,156.6
507.2494,40459.1
507.3636,693.2
507.4392,19.4
507.4523,638.2
507.494,193.1
507.5316,529.4
507.6069,126.5
507.6251,623.8
507.6672,21.3
507.7422,193.5
508.0272,298.5
508.2527,9558.8
508.3767,830.4
508.6166,408.8
508.7669,374.4
508.7955,121.7
508.8896,1797.8
509.0055,4422.1
509.0413,164.3
509.2645,13466.4
509.2846,225.4
509.372,324.2
509.4972,159.5
509.557,23
509.5937,17.8
509.6086,135.7
509.9088,82.4
509.9458,18.9
510.2676,1270.2
510.3357,815.1
510.3569,2700.7
510.4837,150.6
510.5106,592.1
510.6281,396.6
510.7492,757.1
510.8029,834.1
510.8967,20.3
511.0508,186.3
511.1249,77.5
511.3071,232.5
511.5825,141.9
511.71,146.2
511.8621,376.2
512.1271,606.6
512.3369,232.5
512.9095,10211.5
512.9601,469.1
512.9731,107.1
513.3871,82.2
513.6404,295
513.9964,958.7
514.0561,429.1
514.3635,439.7
514.5144,316.4
514.6328,674.1
514.7101,578.7
514.9065,6441.6
514.9972,92.7
515.0228,1405.5
515.318,629.9
515.4454,87.2
515.4566,112.3
515.5159,273.8
515.5656,195.4
515.618,268.1
515.7083,282.6
515.845,216.3
515.9916,318.9
516.176,123.1
516.3072,20335
516.5204,894.6
516.5649,261.7
516.6653,381.5
516.7423,129.7
516.7968,424.8
516.8707,434
516.902,385.6
516.9211,2615.4
516.96,300.9
517.0047,296.4
517.1235,115
517.1443,178.5
517.3103,1196.5
517.4893,698.7
517.6838,636.9
518.1376,141.8
518.2716,79.5
518.3228,603354.9
518.3971,579.9
518.7152,337.7
518.7262,575.7
518.861,333.2
518.9262,26069.9
519.3262,149682.6
519.7222,690.9
519.8616,787.9
519.9293,1600.9
520.0078,74.9
520.1814,136.5
520.2247,228.7
520.2802,499.5
520.3408,332669.9
520.5631,594.4
520.9234,16643.3
521.202,874.3
521.2502,143.9
521.3442,89961.2
521.5214,125.1
521.5395,151.5
521.5465,178.5
521.7852,413.4
521.8236,18.2
521.9025,426.5
521.9264,760.6
522.2574,1713.3
522.3564,186458.5
522.4247,590.5
522.6066,330.5
522.6462,106.1
522.6918,499.9
522.7101,256.5
522.7502,174.8
522.9202,1328.2
522.9383,5190.2
523.039,766.7
523.1428,142.8
523.2226,672.5
523.3599,43877.3
523.629,114.6
523.7956,417.8
523.9392,324.7
524.0264,313.3
524.0455,430.3
524.0637,102.1
524.2208,290.9
524.372,86155.2
524.6186,86.2
524.792,97.3
524.9355,706.8
524.9795,910.9
525.0547,21.2
525.1738,166
525.2385,737.4
525.3754,18241.8
525.4596,607.3
525.9058,94.4
526.3296,1475
526.3499,931.2
526.3773,427.1
526.5918,226.7
526.6636,150.4
526.6741,19.9
526.8525,851.1
527.055,416
527.4872,133
527.735,403.3
527.8358,279.9
527.9335,174
528.3435,239.6
528.6167,121.2
528.7278,467.1
528.8832,7004.4
528.9382,125.5
528.9559,1868.5
529.3035,360.8
529.5202,148.8
529.8953,210.9
530.075,239.9
530.2052,114.3
530.2269,217.9
530.3217,1050.6
530.3595,1794.3
530.5803,129.8
530.614,120.9
530.8295,19.2
530.8802,2685.6
530.9506,1249.3
530.9958,458.3
531.0533,128.9
531.1501,114.1
531.1703,93.9
531.2496,6327.6
531.3629,537.2
531.3995,523.4
531.5602,16.9
531.8586,19.9
531.9819,90.8
532.0295,164.9
532.2108,485.7
532.2327,399.1
532.2517,717.3
532.2815,5665.4
532.339,7958.8
532.5666,233.9
532.6067,175.4
532.8302,19.7
532.8998,953.2
532.9662,1142.2
533.0442,189.1
533.2126,133.1
533.2664,437
533.5179,455.4
533.7909,569.8
533.9526,906.7
534.0375,106
534.2968,178925.4
534.3176,2067.9
534.7821,447.5
534.8091,189.5
534.9,18033.6
534.9399,415.3
535.1676,455.3
535.3003,38670.5
535.5006,166.7
535.6188,111
535.7839,708
535.8538,794.8
535.8775,18.8
535.9033,1084.2
535.9543,873.9
536.2957,7567
536.694,520.3
536.8973,9932.8
537.037,525.4
537.0623,950.9
537.1882,138.9
537.5903,251.2
537.6164,159.8
537.9765,290.8
538.1494,157.1
538.2174,512.9
538.235,24.6
538.2664,132.8
538.3866,754.5
538.4799,92.7
538.5492,872.7
538.8954,1137.2
538.9117,1568.9
538.9319,453.3
539.06,115
539.1145,796
539.2482,455.7
539.3156,181.1
539.3358,316.6
539.3595,91.8
539.606,385.1
539.7163,312.6
539.7721,306.1
539.9311,110.5
540.1448,174.8
540.3072,4749.4
540.939,85.1
541.0482,615.9
541.4119,297.3
541.5041,810
541.6724,300.4
541.9001,114.4
542.0315,742.7
542.3229,464498.6
542.4697,307
542.7793,722.6
543.0193,282.5
543.1093,446.6
543.3263,121904.3
543.3851,326.4
543.5184,444.7
543.6498,75
543.7434,160.3
544.1274,833.1
544.3387,250618.6
544.4166,104.4
544.8575,588.2
544.9292,1357.3
544.9494,3868.1
545.3421,67501.4
545.4299,141.8
545.4952,742.2
545.7696,495.4
545.9316,474.8
546.0015,165.8
546.2435,24.1
546.2575,1106.2
546.3135,152.6
546.3544,116217.6
546.5104,355.9
546.5798,433.2
546.5966,343.6
546.8533,360.2
546.8839,727.7
546.9272,8231
547.0345,834.5
547.1373,228.5
547.3578,30078.1
547.4659,411.3
547.6698,165.5
547.9687,18.3
548.1921,82.6
548.2551,19.6
548.3132,653
548.3608,1219.8
548.4126,118
548.4488,23.1
548.6895,239.6
549.0368,319.6
549.4612,22.6
549.7583,212.9
550.0051,19.9
550.0124,20.2
550.0302,353.1
550.2429,325
550.2725,803
550.2978,590.2
550.4043,126.8
550.4654,408.9
550.6968,256
550.874,3667.9
551.2189,150.1
552.0135,192.8
552.1691,150.9
552.5652,319.7
552.7134,79
552.8266,304.2
552.8708,2347.3
553.5741,162.4
553.5904,19.2
553.697,145.5
553.7709,158.9
553.8541,778.5
554.0035,265.3
554.2992,137.6
554.5378,530.2
554.6527,157.3
554.7682,687.6
554.8009,140.8
554.8642,323.4
554.8779,90.9
554.9038,577
554.913,343.4
555.0144,420
555.0694,114.3
555.0974,429.8
555.1675,17.9
555.7706,633.9
555.8003,121.5
555.8819,21.6
555.9693,420.4
556.087,721.7
556.2335,732
556.3774,106.2
557.1689,18.4
557.2914,87.4
557.6391,148.7
557.7339,539.8
557.7941,284.4
557.7993,309.7
558.2969,144522.5
558.5604,730.2
559.1838,113.4
559.3003,36150.4
559.3502,147.5
559.4135,91.3
559.5065,104.5
559.7219,204
559.7612,593.7
559.9217,404.6
560.2953,6198.5
560.3125,73100.3
560.9233,893.3
561.0401,196.5
561.2651,544.9
561.3159,19251.2
561.6494,82.1
561.8451,21.2
561.8792,97.9
562.0074,1216.6
562.1177,131.4
562.1612,204.7
562.3089,1657.1
562.3281,26370.5
562.7674,233.5
562.9799,386.5
562.9949,89.5
563.1816,278.8
563.3315,3815.9
563.3946,91
563.4644,745.1
563.4772,132.2
563.6195,836.1
563.9137,138.1
564.221,19.1
564.3073,3919
564.3282,111.5
564.3736,20
564.4759,137.8
564.4956,99.2
564.7954,782.8
564.9547,386.8
565.0462,390.1
565.2673,18.3
565.3133,448.2
565.3289,899.2
565.6737,335.6
565.849,952.6
566.1692,74.2
566.323,57555.1
566.477,296.7
566.9639,1150.6
567.1594,127.4
567.3265,13019.8
567.3458,477.8
567.421,501.1
567.4423,327.2
567.4969,595.1
567.7615,764
567.837,21
567.8516,262.2
567.8696,781.6
568.2668,236.3
568.3389,29924.8
568.5443,302.4
568.6261,117.2
569.0032,301.7
569.0432,167.6
569.342,4461.4
569.4398,168.1
569.5089,18.4
569.9389,189.5
570.318,466.9
570.3554,1725.6
570.4034,19.4
570.5596,85.7
570.8679,1900.8
570.992,827.3
571.0593,396.4
571.3922,234.2
572.3132,110.5
572.3698,663.8
572.5297,1082.1
572.8091,121
572.8654,2035.1
572.9809,795.5
573.0522,530.3
573.1601,118.5
573.2158,149
573.2727,221.7
573.6341,778.1
573.9402,98.5
573.9896,145.5
574.2844,1976.6
574.4519,948.9
574.7768,108.2
574.8904,374.3
575.3302,418.1
575.4715,533.8
575.5048,9665
575.5925,168.4
575.882,242.2
576.1381,143.1
576.2641,840.7
576.2824,5765.9
576.508,188.9
576.7548,125
576.8848,8182.6
576.9361,19.3
577.5195,170.2
577.6899,141.8
577.8737,469.8
577.9336,418.2
578.2794,520.5
578.7565,352.3
578.8822,7720.2
579.1385,530.9
579.1667,698.6
579.2049,150
579.424,210.2
579.4818,631.9
580.0027,144.6
580.292,1333.5
580.3184,183.1
580.3357,623.3
580.4268,593.4
580.7427,713.9
580.817,109.9
580.8791,2225.3
580.8961,1789.4
580.9314,439.6
580.9549,695.3
580.9968,957.7
581.0183,365.3
581.1719,748.3
581.4436,843.8
581.5706,20.5
581.9386,385.5
582.0214,187
582.1001,1217.1
582.1629,634.4
582.2437,953.3
582.2789,97.1
582.2968,14825.9
582.3232,692.7
582.3576,766
582.3788,130
582.4065,334.6
582.4195,908.9
582.4326,170
582.6006,93.3
582.7219,758.4
582.8796,100.5
583.3011,2252.3
583.6872,196
583.8342,524.4
583.8888,764.1
583.965,867.9
583.9853,774.8
584.051,267
584.1794,105.6
584.2096,109
584.2313,82.1
584.3126,4665.2
584.4048,102.6
584.7167,357.7
584.9437,635.1
585.3484,132.7
585.3848,147.4
585.6484,347.3
585.8448,144.9
586.2715,146.2
586.3101,4859.7
586.4937,497.3
586.8201,787.6
586.8424,1432
586.9146,1323
587.0117,410.2
587.0667,497.4
587.0788,272.7
587.1643,24.5
587.1936,159
587.3419,328.6
587.637,797
587.7291,580.9
587.7854,238.1
587.8362,147.2
587.9703,288.6
588.26,566.3
588.2741,472.1
588.3743,157.6
588.6388,893.7
588.7456,563.1
588.8394,1505.9
588.9195,895.5
588.9928,720.3
589.0215,528.1
589.159,405.8
589.5575,284.2
590.0403,143.3
590.08,404.2
590.323,13339.2
590.553,400.6
590.5979,109.7
590.7116,175.6
590.7767,116.8
590.8369,565.8
590.9252,823.5
591.0231,695.5
591.0658,130.9
591.1357,215.5
591.2093,229
591.3268,3775.7
591.5819,437.6
591.7326,394.3
591.8182,182.6
592.0633,72.6
592.2564,520
592.3389,1665.1
592.7384,763.7
592.8021,123
592.859,5499.6
593.061,18.2
593.1963,110.2
594.0148,439.9
594.2688,177
594.2943,23.7
594.3169,855.8
594.3792,581.6
594.856,7244.6
594.9868,323.4
595.3379,287.8
595.3621,317.9
595.6519,395.5
596.3197,93.5
596.349,508
596.72,669.5
596.8536,2453.1
596.8698,1030.1
597.0384,896.5
597.1368,151.9
597.4481,1703.2
597.4592,1848.1
597.4865,12793.7
597.9524,563.3
598.1264,18.9
598.1419,710
598.4003,138.6
598.4538,1100.3
598.471,765.4
598.4906,2928.8
598.5187,623.3
598.9863,116
599.228,147.2
599.4633,2153.8
599.5044,2799
599.555,310
599.9232,461.3
600.1756,662.2
600.2819,5385
600.403,505.3
600.4595,985.4
600.4773,383.4
600.6181,96.8
600.6726,712
600.9035,163.9
601.0099,19.9
601.5246,325.7
601.5661,81.4
602.2972,975.3
602.8165,398.3
602.9013,478.2
603.0815,151.9
603.216,315.2
603.3103,209.5
603.5378,318.4
604.2167,644.2
604.3112,542.2
604.5128,85.1
604.6576,388.7
604.7712,115.8
604.8138,335.6
605.0493,935.8
605.312,398.3
605.4434,194.2
605.5702,236.3
605.7446,244.7
605.8125,655.9
605.874,97.5
606.2974,2319.6
606.7092,117.7
606.9201,89.2
607.1133,392.2
607.1719,5814.7
607.4774,791.6
607.5101,95.5
607.5696,735.6
607.8133,120.4
608.1279,726.7
608.1757,201.2
608.56,613.4
608.8334,1733.3
608.9439,339.5
609.1902,140.7
609.2925,336.7
609.3239,729.2
609.5256,198.5
609.7901,145.9
609.8749,157.3
609.9842,409.9
610.3105,2598.8
610.4545,1042.3
610.8301,2798.7
610.9144,481.4
611.0703,864.9
611.2032,524.1
611.3326,665.8
611.5412,913.6
611.9446,607.8
611.9618,262
611.9834,438.4
612.1341,788.2
612.1902,124.7
612.2722,229.3
612.3161,138.4
612.4373,205.6
612.6794,665.6
612.9291,18.9
613.1759,284.4
613.6328,150.3
613.9566,20.9
614.2528,594.1
614.351,265.4
614.4535,680.2
614.7621,319.8
614.8864,707.6
615.0202,149.5
615.1154,153.7
615.2546,117
615.3119,388.5
615.3583,919.3
615.5841,786.6
615.6118,84.8
615.6586,673.6
615.7756,148.7
616.1228,324.3
616.2536,597.9
616.4147,379.3
616.666,255.1
617.1472,724.6
617.2026,741.3
617.2589,111.5
617.2752,181.6
617.4764,1733
617.6505,824.7
618.0011,20451.4
618.2718,555.1
618.3899,111.6
618.5184,824.7
618.5438,140.6
618.7007,19.8
618.8804,1150.5
619.0045,1267.7
619.1635,101.1
619.2752,785.8
619.3227,901.2
619.4734,917
619.491,3023.2
619.6872,144.4
620.1009,149
620.4337,649.6
620.4821,302.4
620.4965,995.7
620.8148,366.1
620.881,373
620.9243,220.4
621.1924,501.6
621.4519,671.3
621.4867,4307.8
621.763,169.5
621.8488,93.6
621.8845,606.5
622.0647,225
622.4542,323.7
622.4925,2110.7
622.5319,300.8
622.5917,150.5
622.7772,312.9
623.1372,30546.1
623.4249,127.7
623.4747,272.7
623.5046,2217.9
623.9194,92.5
623.9353,216.5
624.1406,5700.6
624.2286,459.7
624.412,128.3
624.4419,74.5
624.4749,1049.7
624.6974,230.4
624.8045,392
624.9998,760.4
625.1433,102.4
625.1604,22.5
625.3045,146.2
625.4857,775.3
625.711,24.4
625.8374,21.9
626.368,237.8
626.4982,406.9
626.8388,357.6
626.9194,1022.8
627.0313,254.3
627.0958,181
627.51,826.7
627.5357,676.2
627.8962,547.3
627.9347,205.6
628.3176,561.4
628.3793,406.7
628.5392,56.6
628.5855,253.1
628.8564,92.9
628.9377,21.9
629.0199,438
629.154,70910.9
629.7757,174.9
629.8858,82.8
630.1577,14337.6
630.8669,502.8
631.1295,548.7
631.1591,1993.2
631.733,841.7
632.0926,129.6
632.4336,447.7
632.7207,132.7
632.7841,1011.6
632.8583,138.2
632.8931,182.8
633.0243,203.6
633.1062,238.5
633.4518,301.5
633.5553,106.8
633.606,1153.4
633.8971,451
633.9946,2797
634.0841,454.4
634.8436,2598.7
634.9003,162.1
634.9654,172.3
634.9877,22.3
635.2673,238.6
635.7759,136.7
635.9397,1064
636.0117,243.5
636.161,80.8
636.2732,273.4
636.7907,387.4
636.8406,2910.4
636.9238,639.2
637.444,98.6
637.6046,238.1
638.0302,307.6
638.8122,185.2
638.8377,1058.2
639.3943,343.2
639.5995,763
639.6342,213.7
639.6548,176.4
639.9308,638.1
640.0405,18.6
640.2021,133.3
640.2304,508.8
640.4534,495.1
640.5029,113.3
640.7055,834
640.9922,104.8
641.1115,1415.4
641.2327,387.2
641.4523,591.8
641.5349,241.2
642.3036,766.8
642.4546,123
642.7004,544.4
642.8534,205.6
643.3535,373.8
643.4515,427.6
643.6285,498.8
643.8106,477.5
644.3551,674
644.4931,305.5
644.6292,180
644.7784,167.7
644.8099,370.3
645.007,128.9
645.1191,26821.2
645.2832,497.1
645.3043,121.2
645.3205,626.5
645.3728,525.7
645.4564,428.3
645.4862,955.3
645.8543,211.1
645.902,727
646.0324,44921.4
646.1227,4197
646.2063,435.5
646.2397,134.9
646.5937,286.5
646.7799,785.7
646.9116,402.5
646.9722,18.3
647.0361,8845.3
647.0939,548.4
647.1253,658.8
647.3151,286.5
647.4368,901.3
647.5247,203.3
647.5876,93
647.8339,148.2
647.9991,404.2
648.0245,144
648.3876,558.5
648.6485,462.9
649.4343,405.1
649.4756,334.1
649.635,330.3
649.9184,314
650.0879,411.6
650.4133,22.2
650.4412,2219
650.8178,1761.2
651.0211,427.1
651.136,74614.9
651.4115,410
651.4439,147.6
651.508,20.6
651.5277,99.2
651.54,251.3
651.6622,144.3
651.9231,136.3
652.1396,14953.9
652.2592,801.2
652.7537,707
652.7743,160.5
652.8149,3419.1
653.1122,731.8
653.1411,1605.8
653.8477,230.3
653.9453,682.9
654.4464,760.4
654.5311,113.5
654.5684,829.5
654.5883,578.3
654.6157,439.1
654.8117,537.2
654.8293,350.5
655.0492,651.4
655.4409,74.9
655.8062,386.9
655.9055,155.4
656.7748,613.6
656.936,651.9
656.9841,256.6
657.0022,670.3
657.1525,722.7
657.235,360.4
657.7445,815.4
658.5097,598.1
658.593,116.7
658.9677,360.9
659.0226,377.4
659.1216,210.7
659.3753,479.8
659.4396,484.4
659.8849,625
660.0828,118.9
660.2973,195.2
660.3512,189.9
660.4882,338.2
660.5476,396.4
660.6937,22.4
660.849,512.7
661.0115,152.1
661.0838,14717.6
661.2951,444.5
661.4661,427.7
661.5039,18.5
662.087,336.5
662.5068,19.3
662.6034,395.7
663.456,303.2
664.0748,18.7
664.1394,131
664.2093,238.2
664.4542,23.2
664.4692,955.8
664.5086,146.4
664.5859,147.7
664.9319,687.9
665.2886,147
665.5505,225
665.5593,201.9
665.566,91.2
665.697,137.1
665.9461,230.3
666.4106,408.1
666.4854,8392.5
666.7914,587.3
666.8593,21.8
666.885,522
667.1006,37125.8
667.3894,20.5
667.4896,812.7
667.7376,80.4
668.1041,6012.3
668.4714,781.1
668.7902,1208.5
668.8605,113.7
669.0818,310
669.1074,879.5
669.1964,148.1
669.3306,415.2
669.4494,272.9
669.5737,867.1
669.9459,461.8
670.1337,85.8
670.265,184.4
670.3489,122.3
670.3743,619.2
670.4075,510.5
670.413,477.9
670.4193,324.9
670.5173,589.9
670.5493,99.8
670.7885,358.8
670.8265,407.8
670.9289,277.4
670.9918,115.5
671.2902,195.3
671.4546,216.5
671.4839,215.3
671.6848,536.4
672.1482,282
672.1714,190.1
672.3328,21.2
672.359,155.5
672.4075,617.9
672.4219,2828.4
672.6684,111.1
672.7322,510.7
672.7398,505.2
672.804,225.7
672.9494,90.4
673.118,77394.2
673.4345,327.8
673.6075,546
673.6416,248.2
673.8703,83.4
674.1217,15367.7
674.5345,215.8
674.7864,115.1
674.7966,111.3
675.0942,508.6
675.122,998.8
675.4176,146.7
675.4548,165.1
675.5456,16833.7
675.7117,742.8
676.0979,153.8
676.1314,479.5
676.1834,257.3
676.5027,227.1
676.5479,3206.4
677.0475,20.2
677.5039,128.9
677.636,152
677.7172,808.1
677.9001,220.9
677.9067,261.3
677.9146,191
678.3189,112.9
678.495,106.4
678.561,179.3
679.5032,18.8
679.8743,18.5
680.0112,520
680.1849,392.8
680.524,477.7
680.5307,416.8
680.5674,837.1
680.6651,184.8
680.7465,113.3
680.8605,473.6
680.8855,372.4
680.994,747.1
681.1629,498.3
681.3633,18.1
681.7247,19
681.8426,155.4
682.0645,233.2
682.2027,21.3
682.3012,513.6
682.4588,1089.6
682.7031,429.7
682.8194,86.4
682.9029,117.6
682.9981,19.1
683.0653,8695.4
683.2651,193.5
683.4129,350.2
683.8122,672.9
684.0795,374.5
684.1994,192.7
684.5958,20.1
684.6602,84.2
684.689,19.5
685.4372,8080.1
685.6135,177.5
685.7356,284.3
685.9403,485.4
686.1662,930.9
686.2171,874.1
686.2386,233.3
686.3114,238.2
686.4401,524.3
686.5255,942.7
686.5587,568.4
686.7766,890.5
687.4412,330.4
687.8175,341.4
687.8761,136.8
688.0477,95.5
688.1774,201
688.424,111
688.4946,100.2
688.7875,128.5
689.0306,83.4
689.0822,25807.5
689.0926,25482
689.4197,574.1
689.5608,3602.8
689.9319,584.3
690.0927,3252
690.4949,392.9
690.564,627.6
690.6037,852.8
690.6876,18.7
690.9164,298.8
691.0685,283.8
691.0888,128.4
691.6092,569.7
691.9295,115.6
692.0569,350.2
692.2702,483.9
692.5079,608.1
692.8034,539
692.9483,174.4
693.0538,113.4
693.1718,437.3
693.3081,23.2
693.5196,310.9
693.7812,148.6
694.099,252.4
694.6418,158.4
694.801,642.1
694.8848,118.1
694.9847,154.9
695.1,52969.8
695.2505,109.3
695.5113,2699.5
695.5439,297.1
695.9022,184.9
696.1035,9483.7
696.1757,817.7
696.2902,391.7
696.7955,483.3
696.8175,391
696.9918,280
697.0753,203
697.1063,371.3
697.342,190.2
697.4428,478.3
697.4743,190.6
697.5274,21692.5
697.7296,228.6
697.7963,117.7
698.0245,92.4
698.3864,140.1
698.4531,122.4
698.5309,6898
698.7315,21.4
698.7975,188.2
698.8751,23.6
699.1153,134.2
699.5174,711
699.5573,230.2
699.6248,552.1
699.7078,548.1
699.7764,139.6
699.8284,81.7
699.8627,502.3
700.0103,335.9
700.4188,482.9
700.8526,638.5
700.9565,351.4
701.0803,382.6
701.4128,385.4
701.5611,36720.9
701.894,352.9
702.043,251
702.0637,525.9
702.0919,138.1
702.1342,207.2
702.2068,442.9
702.2852,85.7
702.3434,3368
702.4404,849.4
702.564,13986.7
703.5767,88565.3
703.8257,20.2
703.9424,18.5
704.0428,104.2
704.3382,588.8
704.4483,5358.9
704.5802,39732.2
704.7132,444.6
705.0572,6726.4
705.1315,135.4
705.151,753.9
705.1751,19.7
705.2815,187.6
705.3706,716.4
705.4229,908.4
705.4444,498.8
705.583,3841.7
705.6634,293.5
705.9956,707.3
706.0609,729
706.4116,18.5
706.4453,399.4
706.5111,95.2
706.5394,7738.1
706.5665,117.9
706.7797,237
706.9045,506.6
707.0604,168.2
707.1331,224.4
707.3098,125.4
707.5425,1530
707.5782,322.4
707.6568,637.2
708.3329,149.7
708.5299,408.2
708.6069,752
708.851,196.4
709.1947,24.1
709.415,166.1
710.5636,260.6
710.7739,945.6
710.9215,674.2
711.0643,17833.5
711.0748,22097.9
711.1267,132.4
711.543,5408
711.616,159.6
712.0761,2001.5
712.1057,127
712.1529,139.6
712.3471,317.9
712.4007,432.6
712.4525,754.3
712.4879,28.4
713.0698,279.8
713.1703,582.2
713.2384,154.8
713.6254,19.7
713.6605,18.3
714.5701,138.4
714.6738,144.8
714.7782,132.1
714.8673,399.9
714.9285,91.9
715.0336,105
715.2824,84.8
715.6641,92.5
715.7972,132.8
716.5071,809
717.0819,23188.1
717.1044,716.9
717.4472,496.3
717.5831,131.8
717.7416,88.5
718.0854,3398.7
718.2287,646.3
718.5767,343.2
719.0201,519.4
719.2355,20.6
719.4641,956
719.5051,123.7
719.5657,78.9
719.6023,319.9
720.4267,276.4
720.7614,363.7
721.0104,454.3
721.0898,545.5
721.248,349.6
721.2538,444.8
721.2802,577.7
721.4799,60190.2
721.6888,786.9
721.8882,166.1
721.9297,372
722.0331,82.1
722.1049,95.2
722.3696,614.7
722.4344,123.7
722.4832,26028.9
722.6286,19.2
723.2792,205
723.3009,154.2
723.4953,8014.7
723.543,34340.1
723.7493,685
724.1865,337.8
724.3255,604.3
724.4971,1171.1
724.5466,12871.6
724.5863,456.3
724.6837,723.8
725.5588,81613.6
725.884,833.8
726.5075,1759.8
726.5622,31904.8
727.0298,4055
727.0368,3886.6
727.0909,212.5
727.1253,22.2
727.4541,19.7
727.5648,3327.9
727.6609,568.8
728.2031,384.2
728.2922,382.7
728.522,7847.5
728.593,603.7
728.9449,87.3
729.402,784
729.4247,20.8
729.4991,18.1
729.5264,817.9
729.5923,11465.7
730.1117,20.8
730.5157,813.3
730.5401,15069
730.5938,1430.1
731.1088,673.2
731.3064,21
731.4496,118
731.5429,4036.7
731.6092,4399.5
731.6996,713.8
731.8999,166.3
732.0025,95.1
732.0542,18.2
732.1676,97.1
732.1852,258.3
732.5558,48622.8
732.6115,2160.8
733.022,160.6
733.0453,9285.8
733.0572,10781.4
733.2345,268.4
733.5592,21107.1
733.7086,319.2
733.9026,20.2
734.0603,810
734.2848,117.7
734.5718,10812
735.0255,149.4
735.0551,139
735.2616,119.5
735.3443,402.9
735.4251,19.7
735.485,96.5
735.5749,1231.7
735.6195,522.6
735.6395,244
735.6906,18.6
735.9019,224.8
736.0701,188.8
736.5771,236.6
737.2348,123.7
737.4167,748.9
737.4541,16301.8
737.5118,423.2
737.5794,231.4
737.6176,620.6
737.6384,350.9
737.773,253.8
737.8458,1092.8
738.0192,302.9
738.4577,3812.8
738.8217,88.3
738.936,411.6
738.9659,751.1
738.9859,406.3
739.0066,858.9
739.064,13556.3
739.269,732.1
739.4668,823
739.5176,2328.7
739.8527,86.2
740.0686,744.8
740.1003,381.5
740.6491,838.4
740.9165,666.3
741.0523,1671.3
741.2109,517.8
741.2264,287.7
741.4311,18
741.5327,13882.6
741.968,343.4
742.2688,604
742.3825,334.9
742.5355,4771.9
742.5763,33159.9
742.7008,75.5
742.9951,849.9
743.0402,128
743.2755,337.9
743.3201,19.1
743.4434,469.7
743.4662,922.3
743.5554,228.4
743.5794,12742.5
743.9948,413.5
744.2378,825.8
744.4116,143.1
744.5559,9852
744.5924,22134.5
744.7066,21.5
744.8029,82.4
745.0263,508.1
745.118,173.4
745.4798,27672.5
745.5181,121.7
745.557,3801.5
745.5959,8994
746.4825,10331.1
746.5719,5715.7
746.6079,4380.5
746.9108,19.8
747.0453,558.9
747.1386,160.4
747.4955,5083.6
747.5718,679.5
747.6132,235.7
747.8415,22.5
748.0416,172.3
748.0759,264
748.1156,696
748.2744,490.2
748.3128,418.4
748.5011,901.7
748.5956,197.7
748.6094,188.8
748.9527,556.5
749.0121,2557.3
749.1792,87.7
749.3853,196.1
749.5108,2337.7
749.5518,576.2
749.7058,141.4
749.745,134.9
750.3434,330.9
750.4745,403.3
750.5153,730.4
750.5948,292.9
750.8251,282
751.1259,398.2
751.177,313.3
751.5749,8115.2
751.6314,325
751.8693,419.3
751.9788,140.1
752.2068,384.9
752.3743,128.2
752.522,16327.7
752.5753,500.7
752.7857,138.5
752.9581,78.6
752.9767,157.7
753.0166,281.8
753.0666,21
753.3129,261
753.5257,2843.4
753.5918,1193
753.7781,418.4
753.9106,1054.8
754.2967,163.2
754.4684,401.2
754.5382,39390.3
754.5849,695.5
755.0061,214.4
755.0394,5210.4
755.4833,655.7
755.5417,14148.2
755.8138,116.5
756.3674,1305.4
756.5554,58080.6
756.5867,299.2
756.8563,2541.7
757.4782,242.7
757.5377,258.4
757.5591,23829.2
757.6239,961
757.6642,249
757.8512,1195.9
757.9,150.3
757.9291,74.6
758.0111,266.2
758.0716,411.1
758.4484,331.5
758.5714,1316721.5
758.7603,288
758.8497,19.1
759.0909,1403.5
759.1587,598.8
759.329,19.4
759.5748,588555
759.6387,365
759.9687,747.5
760.5884,337980.3
760.6425,223.7
760.8568,322.1
760.9089,1183.1
761.045,3622.4
761.2001,20.7
761.3413,93.2
761.4542,3924.2
761.5909,169190.6
762.2465,834.8
762.3018,18.9
762.3637,147.5
762.4584,771.9
762.5936,35394.2
763.0134,509.7
763.5769,655.9
763.5963,2537.6
764.1605,374.6
764.4676,521.5
764.5586,16600.2
764.974,861.6
765.442,254.5
765.4718,601.6
765.5629,4192.6
765.6302,99.3
765.8541,253.2
766.0034,434.1
766.538,6219.2
766.5762,56776.1
766.6511,481.9
766.9681,585.2
767.1277,154.8
767.1567,137.7
767.2286,269.4
767.3672,131.4
767.5382,530.2
767.5798,25376.4
767.8458,90.2
768.3584,258.4
768.4806,23.5
768.5029,18.7
768.5534,5092.4
768.5928,50508.4
768.9978,598.9
769.203,472.1
769.4788,4680.8
769.5112,911.6
769.5566,1178.5
769.5955,21099.3
769.9679,733.6
770.5124,4544.3
770.5723,1893
770.609,10965.7
770.6424,360.2
770.8572,725.1
770.9458,303
770.9933,5515.9
771.0154,1214.5
771.3083,80.5
771.3255,701.1
771.3793,327.8
771.5668,160.3
771.6114,3410.1
771.8049,611.6
771.9454,192.5
772.2817,195.4
772.3868,239
772.5235,175.1
772.5654,155.1
772.5872,16799.9
772.6229,808.6
773.5908,5958.5
773.6282,89.2
773.6559,272
773.6847,150.6
773.8168,271.1
774.171,170.4
774.3436,126
774.3978,98.8
774.5591,198.9
774.6044,2918.3
774.6478,521.8
774.7284,149.9
774.846,117.9
774.8737,375.5
774.9922,221.8
775.0324,288.6
775.2152,159.5
775.3626,424.2
775.4067,19.5
775.6598,199.7
775.8068,93
775.9456,137.4
776.1305,139.9
776.5225,5942.8
776.6637,184.9
777.0116,4291.4
777.3178,867.7
777.5282,1341.4
777.5428,2171.8
777.6549,308.4
777.7794,251
777.8171,178.3
778.4457,636.1
778.5382,37382
778.5811,542
778.7191,141.2
778.9525,215.1
779.4226,159.5
779.5413,13729.8
780.2012,199.1
780.5536,833366.2
780.5895,189.8
781.4856,917.1
781.5571,366369.5
781.8073,160.9
782.5712,670929.9
782.9356,174
783.0015,348.5
783.0286,6251
783.2894,1086.7
783.3952,184.3
783.4981,197.5
783.5745,319047.3
784.0284,547.5
784.588,287855.2
784.92,90.6
785.3391,360.7
785.591,141097.6
785.6548,6738.6
785.911,106.9
786.1773,234
786.4403,23.5
786.5266,161.2
786.6033,263732.8
786.9194,367.8
786.9672,1072.5
787.6064,127943.4
787.672,562.4
787.7396,267
788.1278,594.2
788.5587,22372.3
788.6064,17761.8
788.6222,10980.2
789.2079,170.6
789.4762,488.1
789.5622,4800
789.5916,575.9
789.6231,6017.2
789.646,1029.1
789.808,404.6
790.0648,202.1
790.0856,677.9
790.5402,1580.3
790.575,28590.6
790.6247,490
791.5782,11259.3
791.8709,803.7
792.0527,139.7
792.2253,122.8
792.5922,26892
792.8442,185.5
792.9831,470.9
793.361,529.3
793.5956,9263.2
793.7051,283
793.9416,143.9
794.5105,5375.4
794.5693,8091.8
794.6082,48171.7
794.7881,574.5
794.8877,782.8
795.214,268.7
795.2587,839.2
795.5751,798.9
795.6113,24830.4
796.0267,506.4
796.1661,167.3
796.5274,160893.1
796.5863,3985.5
796.6253,5275.4
797.2136,201.2
797.314,193.7
797.5308,69849
797.5903,633
797.6269,2584.9
797.7087,441.9
798.1682,242.4
798.2384,621.9
798.42,19
798.5446,34079.5
798.7169,122.9
798.7747,356.4
799.0031,965.4
799.0516,128.4
799.2955,1619.9
799.5463,13888.2
799.6025,197.3
799.6719,594.1
799.8138,220.4
800.0093,173.2
800.548,1923.3
800.6473,145.1
801.0307,157.5
801.0769,837.9
801.2006,211.3
801.5441,182.9
801.6855,123.8
802.3015,210.7
802.5378,47130.3
803.1803,337.1
803.5412,18856.8
803.7325,702
804.3245,746.3
804.5536,311339.3
804.6368,256.7
805.5569,143934.8
805.7783,260.9
805.8507,645.1
806.0547,126.5
806.3935,125.2
806.5708,305842
807.4653,95.9
807.574,149987
807.6307,1189.2
807.7926,378
807.8095,743.6
807.9363,221.7
808.2664,780.3
808.5389,407.7
808.5868,177858.2
808.9777,338.6
809.1304,222.9
809.3161,99.9
809.4719,507.9
809.5896,89311.2
809.6545,598.7
810.3558,154.3
810.4142,195.2
810.5353,155
810.6037,88501.1
811.0021,205.4
811.0639,192.4
811.6064,46072.2
811.6708,13808.2
812.1752,198.7
812.5606,871.3
812.6207,13092.2
812.6744,4053.7
812.8393,629.7
813.1222,444.9
813.5143,23.9
813.5668,512.9
813.5852,642.6
813.6222,5378.2
813.6874,8932.4
814.2434,315.2
814.5025,1540.6
814.575,4578.2
814.6233,1330.4
814.6908,4376.2
815.5766,2926.6
815.697,125.7
815.9004,99.3
816.3225,81.8
816.5905,22153.7
816.6398,856.5
816.7386,238.5
816.9642,736
817.1937,895.5
817.5927,7040.9
817.6526,80.4
818.1922,81.7
818.306,707.4
818.468,822.2
818.5114,6688.4
818.5691,377.9
818.608,5013.2
818.8874,18.3
819.0656,713.4
819.515,1769.5
819.6107,2011.5
820.3705,503.9
820.4518,800.1
820.5274,62340.1
820.6239,1712.7
821.1173,199.4
821.1477,531.7
821.3608,1072
821.5308,28508.7
821.6133,229.2
821.7729,141.6
822.0144,381.2
822.3433,168.8
822.4581,140.3
822.5173,122.3
822.5442,30427.2
822.6377,371.7
822.7327,410.8
823.0727,99.8
823.3119,322.7
823.5257,959.8
823.5467,11931.2
823.7177,874.7
824.3166,222
824.5229,276.6
824.5596,19876
824.6817,77.8
824.8235,139.8
824.8844,787.2
824.9328,147.1
825.4202,24.8
825.5246,490.6
825.5636,6545.7
825.589,491.2
826.5375,1560.4
826.5644,655
826.6387,299.4
827.3791,897.3
827.4456,312.9
828.5167,21.8
828.5536,95159.8
828.6053,497.9
829.4132,726.8
829.557,47736.4
830.134,885.8
830.1993,1296.7
830.5707,37062.3
830.6939,388.3
830.9215,179.3
831.4465,160.1
831.5729,21981.6
831.7045,237.7
831.7923,249.1
832.1175,144.6
832.5858,43061.6
832.6303,151
833.01,18.8
833.2044,542.9
833.2505,107.4
833.5891,23829.3
833.6504,1569.6
833.7049,88.5
833.769,316.4
833.8781,626.4
834.6032,18739.5
834.6569,663.1
835.2878,181.9
835.4116,123.5
835.6059,8807.6
835.6696,324.9
835.7005,80.7
835.7233,332.2
835.7809,107.9
835.9849,459.1
836.2918,274
836.6194,1645.9
836.6712,687.9
837.55,266.4
837.8835,206.5
837.9668,910.2
838.0905,85.8
838.1522,1355.9
838.1775,249.2
838.397,740.9
838.4691,21
838.51,1881.5
838.5552,158.4
838.5767,210.5
838.5984,19.1
839.0573,195.2
839.2682,523
839.6256,582.8
839.7665,216.2
839.9512,105
839.9768,159.6
839.984,166.9
839.9976,165.6
840.0466,320
840.5571,346.8
840.5887,115.9
840.7324,438.9
840.7589,505.3
840.8824,27.7
841.1268,85.9
841.1911,603.3
842.3362,531.9
842.5248,588.1
842.8303,208.6
843.2099,116
843.6044,382.3
843.6833,343.7
843.8953,21.8
844.0582,1353.2
844.4211,19.4
844.4386,674.2
844.5278,18073
844.7079,226.3
844.775,182.1
845.1944,132.9
845.2856,1140
845.3659,404.3
845.5306,4392.7
845.6083,168.3
845.9263,136.9
846.2103,117.3
846.5443,2420
846.6036,89.8
847.2698,347.8
847.4971,769.3
847.5893,372.7
847.6383,19.6
847.9278,894.4
848.0999,859.5
848.4023,888.6
848.5582,4371.8
848.752,781.1
849.2897,78.8
849.3635,778.9
849.5837,1237.3
849.9774,1217.6
851.0446,528.6
851.1223,705.1
851.3632,18
851.5448,266.3
851.7456,256
851.9566,585.6
851.9809,651.6
852.0645,774.8
852.1186,382.6
852.1377,455.5
852.3346,2542.2
852.636,124
852.6823,105.4
852.9954,279.4
853.0514,564.4
853.07,661.2
853.1363,140.9
853.4869,388.4
853.8784,804.5
854.3004,1741.1
854.3447,248.5
854.4956,81.3
854.606,241.8
855.0149,107.1
855.4014,114.5
855.5696,1293.8
855.728,1023.6
855.8064,570.4
856.1173,619.2
856.4525,322.9
856.583,1045.5
856.6535,164.9
857.1145,774
857.4465,416.7
857.585,1266.2
857.6102,355.4
857.9513,85.1
858.0914,122.7
858.1189,426
858.2109,255.8
858.4082,183.2
858.5407,873.1
858.643,293.6
858.6979,265.5
859.2794,271.1
859.9435,174.1
860.2579,146.4
860.6133,327.7
860.7878,190.8
861.4257,336
861.7721,186.5
862.1941,869.3
862.7477,844.7
863.1091,277.3
863.1923,89.3
863.5428,398.6
863.8104,154.6
864.22,1074.8
864.3727,188
864.544,516.2
864.6342,565.4
865.1219,446
865.496,769.4
865.7066,195.7
865.9069,92.9
866.139,926.7
866.2787,604
866.5419,883.8
866.6012,19.1
866.6308,213.3
866.7576,974.2
867.3159,116.2
867.3429,352.3
867.4477,125.1
868.3408,769.3
868.5225,177.8
868.6627,349.9
868.7311,870
869.2001,225.9
869.2347,930
869.31,853.1
869.4462,276.9
869.4978,1540.4
869.5692,630.6
869.6213,334.8
869.6475,1016.6
869.7187,2382
869.7642,2478.4
869.8022,2777.6
869.8465,3029.9
869.8713,4325.3
869.906,2072.4
869.9643,3128
869.9765,3050.8
870.0262,3024.8
870.0696,2417.8
870.1142,1752.9
870.1791,191.7
870.4672,603
870.5508,579.2
870.8294,172.1
870.8979,215.9
870.9443,520.6
871.1128,125.5
871.2859,1125.3
871.603,90.8
871.732,318.9
872.1467,1045.7
872.2416,111.2
872.3232,17.8
872.5586,267.7
872.7224,44.2
872.9897,354.5
873.0918,91.2
873.1721,187.1
874.2397,566.5
874.3892,503.3
874.4837,621.5
875.0146,219
875.3327,815.7
875.4717,1066.1
875.697,491.8
875.8767,83.4
876.2769,100.2
876.3762,592.9
876.8547,813.3
876.8996,118.6
877.4545,1180.7
877.5594,796.7
877.8263,19.8
878.0793,165.3
878.3532,2304.6
878.4488,1029.9
878.649,1937.8
878.8809,767.7
879.4359,78.7
879.5896,21
879.8118,192
879.8443,269.8
880.4017,407.6
881.6734,339.2
881.7036,20.8
881.7941,302.1
881.8845,358
882.1745,90.6
882.3136,234.6
882.7183,269.6
883.1662,143.2
883.5829,245.4
883.6171,624.1
883.9081,1161.2
884.1215,104.9
884.2802,1806.7
884.7907,22.4
884.8742,672.3
885.0235,1186.2
885.1359,354.6
885.3531,892.4
885.5794,17.3
885.8267,313.1
885.873,649.4
886.2261,20.2
886.3066,184.9
886.4475,708.4
886.9695,19.8
887.0402,2297.1
887.4972,131.7
888.0963,106.4
888.2591,139.8
888.6898,1072.3
888.8158,660.4
888.978,456.3
889.4515,819.3
890.3003,577.4
890.3854,79.6
890.7854,256.6
890.9574,84.1
891.7249,95.1
891.7828,547.1
892.0486,124.9
892.4031,370.6
892.4159,370
892.4605,186.4
892.4991,1048
892.8321,181
893.5575,601.8
893.6959,137.3
893.7802,769.7
894.074,186.9
894.3879,830.7
894.6385,19.1
894.8922,439.8
896.0376,359.9
896.3402,110.8
896.5886,20.2
896.8387,1056.1
896.9643,320.2
897.0297,103.1
897.2619,307.8
897.372,19.7
898.3089,167
898.3646,164.2
898.4516,158.6
898.5699,144.7
898.8141,469.5
898.9531,999.5
899.4339,173.6
899.4613,615
899.5976,568.9
899.7195,159.3
899.8278,173.5
899.8563,265.5
900.1292,660.4
900.6674,541.5
901.0324,548.4
901.2639,258.2
901.4236,403.1
901.5827,833
901.8208,2181
901.9925,319
902.4873,463.6
902.8253,114.6
903.0101,666.5
903.7319,166.8
904.0314,423.7
904.1917,307.4
904.2773,407.2
904.4111,126.4
904.8539,646.2
904.9758,344
905.4178,148.5
905.4732,137.7
905.5561,309.6
905.6673,747.3
905.8255,759
905.9373,90.4
906.5361,156.3
907.0578,1326.3
907.1432,221.2
907.4344,646.2
907.5054,116
907.8259,116
908.1186,222.8
908.2602,2131.5
908.9635,1805.5
909.2626,1017.4
909.3391,18.8
909.696,112.6
909.9047,332.8
909.9793,583.2
910.0968,95.4
910.5171,75.6
910.8359,153.3
910.8771,1071.8
911.6001,147.4
911.8219,112.6
911.8565,328.8
911.9519,1073.2
912.0156,640.7
912.7681,194.3
912.8657,1159.5
913.4796,613.9
913.6754,206.7
913.9035,897.9
914.0228,196.6
914.0633,893.8
914.1832,538.3
914.3,19.9
914.74,368.2
914.8584,383.2
914.9891,560.4
915.5696,112.4
916.0177,122.7
916.6341,80.8
916.8558,194.4
917.8865,17.7
918.9235,345.6
919.0257,380.8
919.0549,1201.7
919.1443,306
920.0366,1135.9
920.0723,264.5
920.1485,149.5
920.4248,604.4
920.7272,19.2
920.9312,106.9
921.2248,481.1
921.314,136.5
921.6566,482.4
921.7685,269.6
922.302,86.9
922.5473,116.3
922.6789,738.9
922.8483,89
923.1076,262
923.3151,2513
923.3725,855
923.7432,363.5
923.8183,107.7
924.1364,137.5
924.3266,18
925.2943,638.3
925.5567,197.4
925.667,455.5
925.7669,147.5
925.8887,242.9
925.9993,179.4
926.1628,892.9
926.4213,327.9
926.799,368.5
927.154,455.5
927.7916,90.2
927.8439,339.1
928.018,192.8
928.4796,1494
928.6696,158.7
928.9251,1644.5
929.4689,137.2
930.4565,584
930.5333,1339.5
930.6356,532
930.9059,90.9
931.0828,739.6
931.3056,87.1
931.7538,922
931.9077,412.9
932.2125,438.6
932.2827,246
932.7354,182.5
932.9182,81.7
932.9485,231.8
933.8565,318.3
934.1662,175.7
934.8587,1018.3
935.0163,215.6
935.5701,19.2
935.9191,700.9
936.8192,370.9
936.8425,483.1
936.8927,576.2
937.0044,239.6
937.0469,900.6
937.8239,98.7
938.1976,1182.1
938.3812,571.6
939.129,828
939.1651,716.1
939.5317,502.2
939.5847,298.2
939.8417,176.4
940.1055,401.6
940.2363,697.2
940.2708,1143.8
940.8896,788.7
941.5061,339.7
942.2045,1259.4
942.6891,315.1
942.775,360.1
943.2736,612.2
943.4999,73.3
944.0471,142.5
944.1388,18
944.1633,705.5
944.2564,752.7
944.8797,19.1
945.4551,848.6
945.739,1640.9
945.7919,262.8
945.9841,489.4
946.0306,962.8
946.313,18
946.4619,824.7
946.4906,504.2
946.7134,835.8
947.0477,471
947.0748,21.9
947.3558,165.7
947.3964,379.5
947.7655,539.9
947.8718,389.7
947.9393,2059.6
948.2255,652.7
948.7525,288.2
948.8857,1013.6
948.9276,1046.3
949.8511,1283
950.1296,29.8
950.221,302.5
950.4154,244.3
950.462,1229.2
950.5013,1444.4
951.0944,251.4
951.1459,246.8
951.1585,285.7
951.3794,314.9
951.4238,17.1
951.5943,509.9
951.8238,106.8
951.8765,484.4
952.0979,22.9
952.2208,614.7
952.8208,643.3
953.3755,563.8
953.5155,257.2
953.7017,332
953.8083,359.9
954.1782,142
954.3125,770.6
954.4005,23.1
955.0628,90.6
955.4156,138.9
956.0431,1163.9
956.285,183.5
956.5089,217.7
956.6976,75.2
956.9883,382.8
957.4618,307.8
957.7236,749.6
958.2869,1290.5
958.3353,436.4
958.5074,84.1
958.9447,184.3
959.0565,355.6
959.2311,152.9
959.3683,1624.1
959.4245,279.7
959.5727,2057
959.7838,189.2
960.3732,188
960.9472,186.7
961.1361,2232.9
961.5348,1063.3
961.8546,703.4
962.2423,104.1
962.5451,882.1
962.7844,17.4
963.2209,616.8
963.2599,289.8
963.3874,219
964.0599,20.7
964.4102,148.1
965.1416,222.9
965.2109,1439.8
965.2786,140.1
966.0525,1553.2
967.1882,96.8
967.2606,720.2
967.4995,149.4
967.6719,219.4
969.6473,1231.5
969.9002,293.7
969.949,235.5
970.2236,449.3
970.6115,253.6
972.4358,1518.1
972.6064,575.6
973.421,246.8
974.2193,126.2
974.3238,328
974.7405,1247.6
974.7851,694.5
975.2465,400.4
975.7026,660.4
975.8916,940.7
976.0971,87.8
976.8823,252.9
976.9189,425.9
976.9978,349.7
977.4324,146.6
977.9501,234.4
977.9927,811.4
978.1577,117.6
978.5817,1238.1
979.1697,443.1
980.0019,136.5
980.0818,116.1
980.1576,178.8
980.4071,1026.7
980.7337,142.7
981.3032,20.8
981.5898,1404.9
981.7496,598.4
982.0039,666.9
982.0277,19.2
982.0585,158.2
982.3023,1013.4
982.5577,973.6
982.8076,709.4
983.2035,24.8
983.4199,596.4
983.7545,143.8
983.9236,19.1
983.9886,536.6
984.512,188
984.5775,813.7
985.1258,387.8
985.557,1167.3
986.0549,773.8
986.1009,253.2
986.2642,1561.3
986.4793,321.3
986.5239,114.8
986.8091,235.2
987.193,464.5
987.4836,442.6
988.2199,597.5
988.4258,150.5
988.5845,72.2
988.9526,475.6
989.3049,730.1
989.324,827.6
989.4709,1054.3
989.5053,306.2
990.3762,498.6
990.9418,120.1
991.3727,153.9
991.5107,177.1
991.6662,835.2
992.046,502.9
992.4194,945.4
992.5003,71.7
992.5558,697
993.3183,1654.7
993.3516,1711.5
993.378,1568.8
993.4743,441.6
993.5738,225.1
993.635,804.2
993.6996,382
993.7827,796
994.4335,698.2
994.6095,79.5
994.7355,116.7
995.2903,1456.1
995.3379,604.2
995.6065,569.8
995.6926,110
995.9914,1390.9
996.0996,196.8
996.7409,588.9
996.7582,489.8
996.7898,314.3
996.9687,217.8
997.0187,253.3
998.1459,130.5
998.3605,21.8
998.3705,21.8
998.6299,157.6
998.7197,95.9
998.9742,99.3
999.1897,775
999.974,139.7
