SPECTRUM - MS,
1558.RAW,
FTMS + p ESI Full ms [50.00-1000.00],
Scan #: 1-40,
RT: 0.01-1.97,
AV: 40,
m/z,Intensity

50.004,519.9
50.0118,405.6
50.0202,156.5
50.0386,143.5
50.0448,16.7
50.0988,97.6
50.1027,104.6
50.1079,124
50.1125,532.4
50.1226,267.3
50.138,15.7
50.1421,82.8
50.1456,369.5
50.1488,245.4
50.1649,73.3
50.1846,120.5
50.1913,639.1
50.2088,82.6
50.2112,78.6
50.2117,133.9
50.2134,85.3
50.2145,104.2
50.2148,416
50.2218,115.9
50.2276,848.7
50.2436,201.2
50.2451,85
50.2492,130.5
50.2705,82.9
50.2837,115.1
50.3028,121.7
50.3154,208.8
50.3217,15.2
50.3233,117.1
50.3245,200.3
50.3304,189.2
50.3376,401.1
50.3404,193.1
50.3459,269.9
50.366,189.6
50.3812,546.4
50.3854,200.1
50.4032,518.3
50.4044,84
50.4062,484.7
50.41,240.4
50.4711,78.1
50.4837,257.4
50.4872,198.5
50.4893,138.2
50.4907,183.8
50.492,223.1
50.4983,177.5
50.5019,86
50.5073,70.3
50.5224,88.6
50.5371,19.7
50.5471,82.5
50.5489,132.9
50.5525,341.4
50.5583,190.7
50.5704,165.8
50.5713,130.4
50.5767,158.4
50.5812,89.9
50.5867,242.8
50.5956,464.3
50.6008,197.1
50.6081,140.5
50.6095,462.2
50.6244,170.3
50.6288,424.5
50.635,77
50.6364,593.7
50.6379,183.7
50.6463,423.5
50.6481,170.8
50.6577,313.5
50.6653,92.3
50.693,18.9
50.6967,206.9
50.7,78.8
50.7144,806.4
50.7308,168.2
50.7411,464.6
50.7486,86.6
50.779,239.4
50.8078,182.1
50.821,136.8
50.8229,16.3
50.8451,76.7
50.8596,185.1
50.8618,307
50.8633,290.4
50.8945,144.5
50.8986,91.2
50.9124,18
50.9199,466.1
50.9227,270
50.9356,413.1
50.942,380.3
50.9554,135.4
50.9663,187.3
50.9883,524.8
50.9903,17.5
50.9908,325
51.0167,17.7
51.0203,81.1
51.025,768.5
51.0456,86.9
51.0528,176
51.0781,88.6
51.0815,273.1
51.0819,273.2
51.0958,769.2
51.0984,570.3
51.1189,460.6
51.1198,144.2
51.1269,262.4
51.1325,251.6
51.1441,187.1
51.1555,207.5
51.1591,205.2
51.1745,76
51.1771,110.3
51.1879,184.6
51.1898,595.5
51.2055,151
51.2059,165.7
51.2098,91.8
51.2204,292.2
51.2454,154.4
51.2481,173.2
51.2611,108.5
51.2719,141.4
51.2777,258
51.2826,136
51.3084,467
51.3187,522.4
51.3358,78.5
51.3655,459.9
51.3699,93
51.3809,149.3
51.4046,97.3
51.4194,522.2
51.4316,117.4
51.4583,16.6
51.474,129.5
51.4817,757.2
51.5062,16.6
51.5066,560.8
51.5118,17.8
51.5162,141.9
51.5279,159.9
51.5424,177.4
51.5513,215.6
51.5532,87.7
51.5562,17.6
51.5711,80.4
51.6066,183
51.6073,116.6
51.6082,378.2
51.6101,128.7
51.6145,170.7
51.6224,17.6
51.6386,288.4
51.6688,177.5
51.6766,435.2
51.7097,282.8
51.7253,635.7
51.7341,512.8
51.7348,159
51.7424,140
51.7668,155.3
51.7853,108.5
51.7918,575.6
51.8003,200.6
51.8207,112.8
51.824,87.8
51.8276,132.6
51.829,171.9
51.8339,16.8
51.8358,187.4
51.8364,79.4
51.8393,208.9
51.8487,533.6
51.8818,82.8
51.8848,132.6
51.8904,68.8
51.8906,69.8
51.8973,131.5
51.8994,285.9
51.903,88.3
51.9073,123.3
51.9154,211.6
51.9212,17.7
51.9232,16.7
51.9508,148.2
51.9553,277.3
51.9778,19.8
52.0079,513.1
52.0201,677.7
52.0208,511.2
52.0235,173.9
52.0346,381.4
52.0848,531.6
52.1028,112.8
52.1071,276.1
52.1201,159.5
52.1265,82.7
52.1403,85.8
52.1495,110.7
52.1542,221.1
52.1714,182.9
52.1719,540.1
52.1895,143.9
52.1944,120.9
52.1991,143.7
52.2021,145.2
52.2219,115.8
52.2238,523.4
52.2327,144.1
52.2391,82.5
52.2437,157.4
52.2529,180.6
52.2837,78.9
52.2961,488.9
52.3011,90.8
52.3044,164.1
52.3093,109.5
52.3183,409.2
52.3356,84
52.3376,251.8
52.3583,525.4
52.3781,185.4
52.3795,622.6
52.3838,143.3
52.3852,84.7
52.3992,89.1
52.413,419
52.427,299.1
52.4278,90
52.433,137
52.4335,160.2
52.4469,103.3
52.4532,124.6
52.4576,481.9
52.4764,137.8
52.4771,24
52.5026,273.2
52.5057,245.9
52.506,203.1
52.5247,412
52.5349,16.6
52.5504,606.5
52.5509,85.8
52.5549,266.2
52.5778,101.6
52.5809,300.8
52.599,717.3
52.6049,264.4
52.6127,371.9
52.6291,243.1
52.6317,132.4
52.6393,95.1
52.6554,123.5
52.6564,14.7
52.6616,85.6
52.6665,95.8
52.6699,446.7
52.6747,251.5
52.677,136
52.6784,244.2
52.699,139.6
52.703,260.4
52.705,132.9
52.7256,84.2
52.7304,79.9
52.7327,281.9
52.7403,475.5
52.7552,82.5
52.7674,192.2
52.7737,285.4
52.7779,164
52.7791,451.4
52.7797,664.5
52.783,284.1
52.793,128.3
52.7981,1560.4
52.7989,1192.4
52.7995,3935
52.7998,1023.1
52.8001,1502.5
52.8005,3259.5
52.8014,3579.9
52.8025,1103
52.8031,242.7
52.8041,236.6
52.8161,382.2
52.817,93.7
52.8275,302.8
52.8336,123.5
52.8506,139.5
52.8597,134.1
52.8609,526.1
52.8771,130.9
52.8854,289.9
52.9189,92.3
52.9203,143
52.9289,92.3
52.9296,409.6
52.9489,384.5
52.9518,262.3
52.952,268.4
52.9674,259.7
52.9696,108.7
52.9783,586.8
52.9813,703.4
52.983,283.6
53.0082,79.6
53.0238,309.2
53.0297,168.3
53.0328,961
53.0477,343.4
53.0515,317.8
53.0566,654
53.0647,15.3
53.0725,575.5
53.0765,126.2
53.0865,854.9
53.0901,129
53.0928,85.2
53.0962,81.5
53.1005,16.2
53.1008,78.8
53.1021,129.3
53.1065,185.8
53.1327,480.2
53.1431,97.5
53.1681,75.4
53.1692,102.1
53.1707,16.5
53.1731,295.8
53.1791,148.8
53.1805,177
53.1826,526.1
53.1841,93.8
53.1977,186.3
53.2065,162.1
53.2114,114.2
53.2122,471.5
53.239,281.3
53.2406,73
53.2481,101.6
53.252,17.6
53.2549,135.5
53.2565,357.5
53.2728,16.1
53.2739,78.9
53.2836,15.9
53.2895,157.4
53.3273,132.2
53.3467,364.6
53.3496,202.7
53.3557,74.7
53.3608,219.3
53.3644,82.8
53.3803,157.8
53.3877,80.9
53.3909,370.3
53.4139,18.2
53.4178,14.7
53.42,79.6
53.4211,95.9
53.4276,152.9
53.4376,165.2
53.4401,70
53.4441,803.3
53.4728,356
53.4766,356.7
53.4825,91.2
53.4955,92.9
53.5172,107.4
53.5291,91
53.53,130.9
53.5419,550.9
53.5427,244.7
53.5491,617.6
53.5564,107.6
53.5678,20.6
53.5826,17.1
53.5872,388.3
53.5976,168
53.6123,164.9
53.6225,83.1
53.6253,90.2
53.6499,253.9
53.6575,88.1
53.6647,276.3
53.6666,135.3
53.6722,111.7
53.6753,102.7
53.6891,14.5
53.6993,791.5
53.7068,214.1
53.7157,335.8
53.7513,969.1
53.7523,155.7
53.7545,727.8
53.7608,70
53.7822,249.9
53.811,150.9
53.8152,70.8
53.8247,629.5
53.8364,480
53.8596,119.3
53.8643,193.2
53.8677,102.5
53.8757,383.5
53.8764,333.7
53.8772,17.6
53.8976,294.7
53.9022,91.4
53.9105,187.6
53.9144,153.6
53.9209,115.2
53.9304,543.2
53.9439,583.4
53.9461,91.9
53.9584,210.8
53.9727,562.4
53.9889,17.3
54.0115,628.7
54.0168,472.6
54.019,73.8
54.0192,91.7
54.0193,95
54.0412,83.7
54.0485,600.3
54.0604,120.4
54.0674,130.1
54.0689,116.2
54.0759,300.3
54.0794,134.5
54.0849,351.1
54.113,165.4
54.1171,171.2
54.1358,101.9
54.1373,214
54.1453,93.6
54.1456,15.9
54.1501,227.4
54.1542,103.2
54.184,135.6
54.1908,892.8
54.2044,725.8
54.2141,75.9
54.3332,219.3
54.3744,417.5
54.3756,115
54.3782,624.2
54.3822,123.3
54.3849,76.2
54.3912,132.6
54.407,419.1
54.4198,82.8
54.4228,18.5
54.4246,17.7
54.428,220.1
54.4487,388.5
54.454,270.9
54.4549,580.1
54.4668,105.2
54.4691,532.7
54.4738,591.4
54.5054,309.4
54.5114,593.5
54.5144,17.7
54.5181,16.7
54.5236,15.8
54.5276,232.4
54.5402,451.5
54.5419,167.2
54.5472,68.1
54.5487,456.8
54.5532,207.4
54.5683,18.8
54.5872,198.7
54.5897,276.2
54.5924,142.5
54.6059,196.2
54.6065,759.3
54.6253,87.1
54.6515,306.7
54.6596,209.7
54.7114,191.9
54.7163,76.8
54.7239,89.3
54.7249,90.7
54.7265,16.6
54.7409,223.7
54.7514,583.6
54.7621,350.7
54.7667,17.9
54.772,582.7
54.7763,169.8
54.7813,328.7
54.7881,134.5
54.7944,156.2
54.7955,101.4
54.8003,385.7
54.8042,241.4
54.8222,91.2
54.8322,73.3
54.8429,417.5
54.8437,17.7
54.8615,258.9
54.871,794
54.9059,161.3
54.9154,218.7
54.9356,186
54.9385,82.6
54.9479,517.2
54.9492,82.3
54.9525,296.4
54.9533,245.9
54.955,466.2
54.9683,250.7
54.9727,130.2
54.9801,102
54.9977,654.9
55.009,423
55.0152,83.2
55.0157,352.8
55.0177,447.7
55.0184,16.4
55.0209,17.3
55.0452,72.1
55.0467,369
55.0635,441.6
55.0798,295.3
55.0825,739.1
55.0898,554.9
55.1005,169.8
55.1619,14.9
55.1671,142
55.1854,101.4
55.1898,709.9
55.1932,560.2
55.2082,86.3
55.2227,90.3
55.2252,16.1
55.227,445.6
55.2303,196.4
55.2353,389.1
55.2419,156.6
55.2431,141.3
55.2434,193.6
55.2439,85.2
55.2472,239.4
55.2493,19
55.2506,650.9
55.2885,457.3
55.2909,144.8
55.2937,201.8
55.3112,260.4
55.3804,93.3
55.3854,151.2
55.3858,160.2
55.4,93.7
55.4034,85.8
55.429,99.1
55.4483,610.9
55.4759,107.3
55.4845,79.4
55.5072,117.7
55.5084,15.9
55.51,187.5
55.5158,16.1
55.5389,17.1
55.5433,16.7
55.5471,857
55.5939,76.5
55.5993,153.6
55.6237,137.5
55.6273,176.6
55.6317,336.8
55.6336,188.9
55.6453,549.3
55.6549,96.6
55.663,549.1
55.6637,772.5
55.6671,117.5
55.6713,102
55.7033,216.9
55.711,124.3
55.7518,697.6
55.7565,116.7
55.7582,125.4
55.7632,782.1
55.7783,669.4
55.7816,16.6
55.789,434.4
55.8016,91.1
55.803,731.2
55.8033,271.9
55.8075,433.5
55.8101,660.1
55.8138,84.4
55.8313,330.6
55.8401,103.1
55.8443,128
55.8459,526.6
55.8478,80.6
55.8576,457.2
55.8641,88.2
55.8685,363.3
55.8694,129.2
55.8701,129.7
55.8757,431.5
55.9022,218.7
55.9034,475.9
55.9248,274.1
55.931,310.4
55.9575,81.4
55.9604,90
55.979,88.4
56.033,174
56.0361,79.5
56.0482,115.1
56.0518,15.3
56.0555,498.3
56.0571,571.1
56.0765,80.8
56.09,236
56.0983,289.3
56.1092,291.3
56.1112,388.9
56.1188,79
56.1231,432
56.161,675.5
56.1867,197
56.1872,470.5
56.2054,378.1
56.2099,16.6
56.2261,280
56.2369,85.4
56.2532,84.7
56.263,18.3
56.2661,84.5
56.2703,18.5
56.2738,105.3
56.2762,151.4
56.2854,134.2
56.2864,202
56.2916,133.5
56.2953,227.9
56.2963,138.3
56.299,530.3
56.3048,119
56.3142,104.1
56.3217,82.9
56.3327,19
56.3452,608.9
56.369,490.6
56.387,503.3
56.3897,211
56.4059,254.8
56.408,351.3
56.4106,285.9
56.43,88.5
56.4397,205.4
56.4517,233.5
56.4712,113.3
56.4734,656.1
56.4781,170.2
56.4791,105.8
56.5026,707.9
56.5101,214.9
56.5546,17.8
56.5658,159.2
56.5666,477.9
56.5978,308.5
56.6255,85
56.6321,204.3
56.6345,89
56.6356,19.9
56.6488,391.5
56.6539,95.6
56.6649,276
56.6865,75.1
56.6885,141.7
56.6973,184.3
56.716,493.7
56.7251,319.8
56.7274,190
56.7387,885
56.7411,97.5
56.7456,17.4
56.7616,17.8
56.7685,81.9
56.7691,468.7
56.7798,499
56.7958,158.3
56.8006,438.5
56.8224,492.7
56.8246,94.8
56.8428,95.2
56.8544,79.7
56.8665,733.4
56.8679,17.5
56.8703,152.6
56.8755,102.3
56.8828,274.1
56.8906,353.3
56.9034,69.8
56.9114,567.9
56.9285,142.5
56.9349,121.8
56.9368,559.4
56.9477,698.3
56.9505,116.1
56.9641,219.7
56.9772,190.5
57.0033,477.2
57.0182,490.8
57.025,187.1
57.0336,317.1
57.0927,672.2
57.1195,388.8
57.1296,494.5
57.1616,760.9
57.1823,312.1
57.205,494.2
57.2154,389.7
57.2159,314.1
57.2275,145.9
57.2338,84
57.2358,1028.6
57.2527,99.4
57.2635,790.5
57.2661,427.6
57.2688,99.4
57.2745,92.2
57.3005,120.8
57.3336,173.4
57.3357,132.5
57.3445,172.3
57.3469,107.9
57.3509,98.7
57.3841,66
57.3926,260.8
57.4051,598.2
57.4174,702.6
57.428,347
57.4314,181.9
57.4348,141.9
57.4401,159.4
57.4455,82.8
57.4486,16.5
57.4576,97.4
57.4862,107.1
57.4954,265.3
57.5064,108.5
57.511,110.3
57.524,459.6
57.5535,82.7
57.5561,344.4
57.5568,108.5
57.561,133.6
57.5617,405.9
57.5667,469.2
57.5727,323.4
57.586,96.8
57.626,179
57.6273,124.5
57.6565,99
57.6592,16.4
57.6604,187.2
57.6648,622.7
57.6702,17.2
57.6753,501.9
57.6771,81.6
57.688,255.4
57.6897,112.1
57.7006,466.8
57.7058,502
57.7081,215.9
57.7245,79.3
57.7253,77.6
57.7376,338.6
57.7468,225.2
57.7499,494.3
57.7573,501.2
57.7605,240.2
57.78,76.5
57.7819,239.7
57.8074,127.3
57.8116,78.5
57.8123,497.9
57.8151,17.6
57.845,352.2
57.8526,179.7
57.8589,358.1
57.8607,135.1
57.8727,19
57.8745,87
57.8791,345.4
57.8803,779.9
57.8954,297.9
57.9017,72.1
57.9101,172.8
57.9214,365.6
57.9475,198.8
57.9711,557
57.9992,499.3
58.0179,74.7
58.0236,121
58.0257,125.7
58.0514,137.4
58.0588,257.8
58.0598,610.7
58.0619,238.4
58.0633,88.4
58.0677,709.3
58.0696,100.5
58.0734,230.6
58.0765,157.4
58.0839,234.9
58.0949,250
58.0983,346.1
58.1009,556.3
58.127,197
58.1287,324.3
58.1468,184
58.1522,120.8
58.1915,77
58.2222,239.5
58.2277,83.2
58.2364,508.8
58.2542,217.5
58.2564,178.6
58.2853,650.9
58.3014,372.1
58.3153,264.9
58.3249,180.7
58.3257,177.7
58.3313,97.2
58.347,144.2
58.3931,730.9
58.414,142
58.4218,232.6
58.4298,239.1
58.4325,187.9
58.4365,209.1
58.4396,268.2
58.4454,350.6
58.4483,186.3
58.45,103.7
58.4511,187.6
58.4862,20.8
58.5013,556
58.5053,403.3
58.5464,525.8
58.5563,232.4
58.5696,605.7
58.579,603.3
58.5848,203.8
58.5888,241.7
58.5973,851.4
58.6032,219.5
58.6171,78.3
58.619,144.5
58.6382,121
58.6458,329.7
58.6477,627.5
58.6668,141.1
58.6915,102.2
58.6995,207.8
58.7041,247.6
58.7223,21.8
58.7398,116.9
58.756,84.4
58.757,280.8
58.7622,589.5
58.7636,178.9
58.7824,72
58.7936,140.5
58.796,248.9
58.8065,186
58.8156,87
58.8187,401.8
58.8222,218
58.8246,79.5
58.8315,16.1
58.8658,118.4
58.8741,96.7
58.8884,715.6
58.9003,128.5
58.9009,97.5
58.9183,144.2
58.9273,195
58.9483,488.3
58.9637,189.1
58.9662,168.6
58.97,568.6
58.9751,82.5
58.9818,254.5
58.993,83.3
58.9938,149.5
58.9992,151.7
59.0041,145.4
59.0395,237.1
59.0551,179.1
59.0707,16.4
59.0796,247.2
59.08,164
59.0903,720.4
59.0941,254.3
59.1021,119.1
59.1151,121.1
59.1176,220.7
59.1376,233.3
59.1455,487.1
59.1493,173.9
59.1663,138.7
59.1711,452.2
59.1862,289.5
59.1896,108.2
59.1934,519.7
59.2331,730.9
59.2404,681.3
59.2512,674.9
59.2657,79.3
59.2676,486.4
59.269,501.8
59.278,218.4
59.3055,630.9
59.3212,226.5
59.3308,91.7
59.3415,103.3
59.3521,520.5
59.4021,86
59.4151,109.4
59.4295,345.7
59.4403,218.9
59.4437,199.3
59.466,164.3
59.4668,88.1
59.4688,271.5
59.4694,259.6
59.4874,544.8
59.4896,288.3
59.4953,87.2
59.4959,754
59.5112,761.1
59.5123,152.2
59.5157,175.4
59.5408,361.6
59.5448,172.8
59.5472,188.5
59.5549,130.1
59.5932,214
59.5939,107.6
59.5989,375.2
59.6003,17.8
59.6052,475.7
59.6094,122.8
59.614,115.9
59.6201,425.1
59.6454,101
59.6493,170.3
59.6569,433.9
59.6674,173.3
59.677,471.8
59.68,171.3
59.6855,557.3
59.6927,140.7
59.7281,95.2
59.7307,192.9
59.7329,177
59.7337,120.9
59.7969,165.9
59.8046,134.5
59.8189,408.2
59.8349,244.7
59.8356,87.8
59.8406,183.4
59.8556,179.5
59.8707,114.6
59.8766,172
59.8791,180.3
59.8951,225.8
59.8955,821.6
59.8966,286.7
59.899,120
59.9091,155.5
59.9343,149.5
59.9354,601.2
59.9599,358.9
59.9689,144.1
59.9753,609.8
59.9862,90.5
60.0064,83.9
60.0186,165.7
60.0373,78.5
60.0385,94.9
60.0442,97.1
60.0459,17.7
60.0487,100.9
60.0522,76.6
60.062,736.3
60.0686,17.1
60.0922,16.3
60.1111,172
60.1244,474.8
60.134,313.6
60.1395,126.1
60.1401,17.9
60.1407,150.7
60.141,64.5
60.1472,140.3
60.1548,339.4
60.1574,803
60.1742,545.8
60.1849,18
60.1885,177.1
60.2324,82.4
60.2475,145.7
60.2538,679.9
60.2659,99.2
60.2687,134.6
60.3025,105.7
60.3265,197.5
60.327,364.7
60.331,449.6
60.3495,15.4
60.3544,104.5
60.362,131.1
60.3692,127.6
60.3702,119.3
60.3718,196.4
60.3875,149.2
60.4002,16.4
60.4011,125.2
60.4096,202.4
60.4103,17.5
60.4121,197.6
60.4155,613.6
60.4198,462.2
60.4208,19.2
60.4576,124.3
60.4588,78.1
60.4741,105.3
60.5035,301.8
60.5142,286.1
60.5198,17
60.5261,74.7
60.5332,536.2
60.5388,279.1
60.5419,78.5
60.5744,509.2
60.5757,184.8
60.5846,239
60.5915,160.8
60.6007,312.4
60.6015,76.5
60.6053,255.9
60.6255,507.7
60.6374,267.5
60.644,352
60.6477,585.2
60.663,233.9
60.666,425.1
60.6745,288.8
60.6892,78.7
60.69,138
60.7122,598.6
60.7155,147.5
60.7172,393.1
60.718,175.2
60.7186,276.6
60.7405,81.4
60.7569,249
60.7614,674.9
60.7641,134.1
60.7982,16.3
60.7984,18.2
60.8018,496.8
60.8052,110.3
60.8144,20.4
60.8383,93.7
60.8434,211.5
60.8722,190.9
60.8771,775.9
60.8842,92.5
60.8943,163.2
60.895,18.1
60.9111,745.7
60.9174,92.4
60.9381,284.3
60.9628,213.6
61.0014,17.1
61.0033,252.5
61.0058,573.3
61.0082,92.5
61.017,660.7
61.0197,121.1
61.0271,105.9
61.0411,19.8
61.0539,192.3
61.0624,188.4
61.0667,102.6
61.0864,346.3
61.0871,71.9
61.1112,16.1
61.125,186.2
61.1333,455
61.1632,427.5
61.1867,862.5
61.1932,292
61.1949,487.2
61.2032,91.3
61.2037,573.1
61.2135,197.1
61.2177,82.6
61.2183,168.4
61.2399,15.6
61.2414,83.4
61.2635,107.2
61.2733,123.9
61.2957,116
61.3016,213.5
61.3582,350.6
61.384,562.4
61.3919,543
61.3959,578.8
61.3983,154.8
61.4122,210
61.4222,329.1
61.4247,16.6
61.4252,213.6
61.4337,15.2
61.4403,204.2
61.4585,181.3
61.4633,730.3
61.4714,94.5
61.4841,132
61.4931,134.2
61.5016,121.2
61.5091,468.8
61.53,18.9
61.5326,16.3
61.5359,296.1
61.5516,545.1
61.5991,299.2
61.5999,71.6
61.6106,93.1
61.622,108.5
61.6237,151.5
61.6255,217.6
61.6263,763.6
61.6586,730.4
61.6755,150.5
61.6787,638
61.6852,211.7
61.7006,16.3
61.7099,170.2
61.7318,731.9
61.7341,92.2
61.7524,190.5
61.762,753.5
61.7714,251.5
61.7995,139.9
61.8061,387.6
61.812,17
61.8136,420.1
61.8187,16.6
61.8196,238.1
61.832,604.5
61.8435,368.7
61.8442,122.5
61.8564,190.8
61.8568,269.6
61.8669,76.7
61.8687,147.6
61.8785,177.2
61.8872,206.1
61.8955,375.2
61.9073,131.3
61.9213,16.1
61.929,614.9
61.9392,168.6
61.9724,147.3
61.9791,244.7
61.9842,133.1
62.0015,120.5
62.0084,16.6
62.0263,359.8
62.0417,300.8
62.0849,20.2
62.1063,186.4
62.1347,88.1
62.1355,121.7
62.1655,92.9
62.1692,116.7
62.1838,86.1
62.191,144.3
62.2037,467.7
62.2551,328.2
62.2959,104.2
62.298,17.4
62.338,19.1
62.3503,135.3
62.3619,156.5
62.4107,232.9
62.4117,851.2
62.4191,291.4
62.4225,164.2
62.4237,284
62.4258,78
62.4398,170.7
62.4437,409.7
62.4693,109.3
62.4806,95
62.4894,81
62.4911,201.2
62.4968,246.9
62.5016,75.3
62.5086,559.4
62.5156,17.5
62.5175,528.9
62.5367,204.9
62.5398,488.4
62.5416,1009.7
62.5423,194.1
62.5483,714.7
62.5743,441.8
62.6034,80.9
62.6045,583.3
62.6097,182.1
62.6221,17.5
62.6256,88.8
62.6343,185.1
62.6371,116.4
62.6478,324.8
62.6785,202.5
62.6847,167
62.7056,624.3
62.7633,309.5
62.7926,582.8
62.7957,341.4
62.8189,74.2
62.8267,756.9
62.8461,83.2
62.8495,508.1
62.8555,85.8
62.8601,280.1
62.8858,95.7
62.8925,491.4
62.9203,577.3
62.9285,160.2
62.9464,127.9
62.9473,711.3
62.9504,643
62.9722,142
62.9995,20.2
63.02,123.6
63.0255,156.1
63.0523,97.2
63.0606,609.1
63.0704,18.3
63.084,474.4
63.0875,18.2
63.0983,148
63.1232,19.3
63.1392,420.5
63.157,79.5
63.1637,580.4
63.1761,18.5
63.1778,172.9
63.2023,454.4
63.2185,100.1
63.2302,129.5
63.2348,312
63.2596,213.1
63.2847,503.3
63.2872,89
63.3038,114.2
63.3446,17.4
63.3713,169.9
63.3776,393.5
63.3796,145
63.3831,185.5
63.3891,162
63.4137,294.7
63.415,262.5
63.4163,535
63.4238,87.9
63.4274,399.9
63.4524,152
63.4538,530.7
63.4569,338.2
63.4669,19.8
63.4778,221.1
63.4809,364.2
63.5053,18
63.5138,650.7
63.516,137.7
63.5204,351.3
63.5344,21.8
63.5398,15.3
63.5902,322.9
63.5918,162.3
63.6014,117
63.611,78.5
63.6296,500.1
63.6418,163.8
63.651,66.1
63.6798,80
63.6997,15.7
63.7027,396.7
63.707,190.7
63.7183,77.6
63.7352,192.7
63.7408,18.6
63.7539,93.6
63.7638,87.2
63.779,118.4
63.8048,404.7
63.8099,114.7
63.8356,191.5
63.8392,375.8
63.8417,481.4
63.8456,211
63.8475,130.8
63.8487,96.6
63.8521,155.2
63.8558,758.2
63.8669,19.4
63.894,88.2
63.8984,161.9
63.9226,548.6
63.9239,182.8
63.9497,472.3
63.9621,178
63.9833,19.6
63.9966,345.2
63.9988,102.2
64.0209,752.1
64.0358,250.7
64.0535,205
64.0592,805.7
64.0819,84.1
64.0848,445.8
64.1139,108.3
64.1387,129.1
64.179,386.9
64.1828,556.2
64.1845,679.1
64.2063,115
64.2194,17.2
64.2466,575.3
64.2883,158.2
64.2965,129.4
64.3378,332.1
64.34,563
64.3504,156
64.3886,153
64.403,113.7
64.4083,250.1
64.4212,613.2
64.4213,613.1
64.4415,99.1
64.4428,503
64.4437,181.8
64.4881,258.3
64.5166,242
64.5241,476.4
64.5309,266.5
64.5347,72.8
64.5409,580.5
64.5527,531.5
64.5584,207
64.5622,18.9
64.5825,179.2
64.5939,88.8
64.602,472.2
64.6078,524.1
64.6138,456.8
64.638,141.5
64.6482,124
64.6537,262.1
64.6555,515.8
64.664,173.1
64.6834,135.5
64.6885,433.1
64.7397,463.9
64.744,17
64.7503,110.8
64.752,131.1
64.7572,682.9
64.776,21.9
64.7852,328.3
64.7911,138.3
64.7929,540
64.8094,151.3
64.8139,474.6
64.8218,92.9
64.825,340.7
64.8489,17.9
64.8493,91.9
64.8632,101.4
64.8653,148.4
64.8788,17
64.9267,281.5
64.9274,17.3
64.9421,165.8
64.9433,139.9
64.9712,462.4
64.9766,287.3
65.0182,160.8
65.0188,174
65.0243,98.1
65.0256,135.5
65.032,19.5
65.0343,839.1
65.0383,115.8
65.0503,582.4
65.0524,127.6
65.0611,520.8
65.0613,343.3
65.0652,208.2
65.0727,92.5
65.0984,397.9
65.1005,630.1
65.1311,196.4
65.1382,102.9
65.1426,257.4
65.1534,15.5
65.1579,340.2
65.1763,493.5
65.2693,91.1
65.3027,103.7
65.305,17.7
65.321,537.6
65.3522,171.8
65.36,175
65.3972,295.9
65.4114,477.1
65.4128,206.3
65.4195,590
65.429,176.8
65.4339,130.7
65.4514,99.3
65.4521,135.7
65.4567,162
65.4604,396.7
65.4645,716.7
65.4657,294.8
65.4688,688.3
65.4709,108.3
65.4727,534.2
65.4858,336.2
65.488,124.7
65.4953,94
65.5038,119.2
65.5127,119.3
65.5172,525.5
65.5303,498.1
65.5348,104.3
65.5461,89
65.5564,270.7
65.5739,111.5
65.5805,110.9
65.5972,402
65.6017,527.3
65.6027,564.7
65.6042,131
65.6072,261.3
65.6173,738.3
65.6332,575.6
65.6396,127.9
65.6886,151
65.6934,16.1
65.698,442.7
65.7104,207.6
65.7318,174.7
65.7376,103.9
65.7421,116.3
65.7433,112.8
65.7513,224.1
65.7523,215.6
65.7696,171.9
65.7708,515.6
65.7732,207.1
65.7874,373.9
65.7883,593.3
65.7905,101.6
65.7926,175
65.799,78.5
65.8094,105.3
65.8184,201.9
65.8281,318.2
65.879,163.6
65.8908,16.8
65.8925,295.2
65.8987,485.3
65.9033,20.5
65.9142,100.4
65.9351,131.4
65.9356,373.9
65.9368,486.6
65.9469,551.5
65.9653,591.8
65.9819,690.4
66.0033,17
66.0068,216.2
66.0092,610.3
66.026,738.7
66.0322,487.3
66.035,16
66.0404,107.7
66.0429,148.4
66.0538,94.4
66.058,434.5
66.0732,607.6
66.0807,987.5
66.0941,283.6
66.1215,310.4
66.1364,776.9
66.1672,682.6
66.1678,87.2
66.1716,846.2
66.1729,110.8
66.1939,19.7
66.2158,263.4
66.2336,83.1
66.2389,88.2
66.2552,234.3
66.261,293.4
66.2635,148.4
66.2648,535.4
66.2664,90.2
66.2811,468.6
66.2827,151.9
66.2847,82.4
66.2857,199.7
66.293,78.6
66.318,184.7
66.3186,653.2
66.3533,114.2
66.3612,380.4
66.371,243.5
66.4045,676.6
66.4209,165
66.4279,455.8
66.4291,131.8
66.4434,135
66.4671,124.2
66.4857,97.1
66.4877,529
66.4982,87
66.5033,409.6
66.5085,345.3
66.5093,295.2
66.5214,440.7
66.5221,113.3
66.5345,113.3
66.5444,167.7
66.5487,203.5
66.5492,287.8
66.5929,106.2
66.5949,333.8
66.5976,498
66.6169,130.7
66.6277,196.1
66.6587,273
66.6599,453.4
66.6905,570.6
66.6907,641.5
66.7078,116.3
66.729,168.1
66.7504,463.7
66.7597,226.2
66.7675,19.4
66.7806,418.8
66.7923,246.2
66.8084,81.1
66.8159,283.2
66.8211,71.5
66.8269,239.6
66.8429,18.1
66.854,174.6
66.865,412
66.866,18
66.8832,79.1
66.886,146.4
66.8969,495.4
66.9131,109.1
66.9517,324.1
66.9614,132.5
67.0036,411
67.0249,87.5
67.0264,18.7
67.0402,86.6
67.0725,219.9
67.0857,97.6
67.087,560
67.0976,95.9
67.1146,83.7
67.1195,19.1
67.1415,586.5
67.1436,101.3
67.1479,462
67.1648,165.2
67.1719,16.3
67.1789,146.8
67.1842,162.3
67.1875,681.6
67.2024,421.1
67.2228,762.5
67.2275,1156.3
67.2409,18
67.2564,74.6
67.2653,16.2
67.2731,227.3
67.2796,355.7
67.2872,93.3
67.2906,386.3
67.3046,225.5
67.3056,72
67.3086,75.2
67.3094,15.1
67.3105,156.5
67.3137,421.8
67.3174,185.8
67.3208,437.6
67.3248,75.6
67.3312,675.5
67.3328,219.7
67.3358,426.6
67.3378,142
67.3392,133.4
67.3471,101.4
67.3909,462.2
67.3983,96.9
67.4032,141.4
67.4058,84.3
67.4073,74
67.4118,179
67.4153,216.9
67.4485,451.6
67.4642,102.5
67.4701,580.4
67.4747,17.8
67.4785,369.1
67.4896,134.9
67.4954,301.5
67.5141,84.8
67.5245,111.3
67.5569,109.2
67.5812,228.6
67.5857,18
67.6003,16.5
67.6056,483.2
67.6068,355.2
67.6212,300.7
67.6503,126.1
67.666,87.8
67.6681,721.8
67.6809,19.7
67.6869,78.9
67.6898,207.8
67.6961,480.2
67.7218,340.1
67.7316,516.7
67.7474,105.3
67.7542,615.1
67.7666,316.6
67.7692,19
67.7698,420.6
67.785,92.6
67.791,108
67.796,19.2
67.8072,85.2
67.8202,299.2
67.8223,597.8
67.8301,103.1
67.8375,325
67.8413,88.5
67.8729,115.9
67.8755,198.7
67.8808,83.1
67.8873,279.1
67.8918,511.2
67.9,686
67.9188,270.9
67.9232,538.7
67.9327,81.3
67.9345,126.1
67.9718,385.9
67.9802,103.7
67.9857,126.7
67.9875,222.6
67.9915,962.3
68.0267,97.1
68.0446,140.3
68.0746,83.4
68.0759,95.9
68.0866,288.3
68.0905,475.7
68.0938,627.7
68.144,686.6
68.1535,388.1
68.2121,100.9
68.2269,706
68.2275,231.4
68.2352,583.3
68.2553,85.7
68.2611,210.1
68.2926,265.5
68.308,147.7
68.3151,15.9
68.3211,17.3
68.3375,165.4
68.3564,146.6
68.3614,85.8
68.3662,17.2
68.3676,484.8
68.3789,141.4
68.3806,15.7
68.3861,86.4
68.3882,94.2
68.3972,493.1
68.3998,144.9
68.4041,390.8
68.4055,298.9
68.4151,546.9
68.4362,15.6
68.4501,744.2
68.4688,421.7
68.4715,90.8
68.4816,447.5
68.4842,112.2
68.4984,83
68.5167,277.1
68.5182,765.2
68.5316,122.3
68.5711,78.3
68.591,320.6
68.6208,216.9
68.6295,272.6
68.6424,240.9
68.6588,306.4
68.6765,305.5
68.7082,156.8
68.7306,140.1
68.7679,75.7
68.7736,94.7
68.799,18.4
68.8152,307.9
68.8169,769.9
68.8477,133.4
68.857,104.7
68.8801,841.3
68.8836,170.4
68.9088,800.7
68.9177,158
68.9267,475
68.9272,92.2
68.9447,119.1
68.9539,283.9
68.9563,154.5
68.9637,532.8
68.9737,250
68.9971,363.5
69.0243,17.3
69.0558,312.5
69.0668,137.5
69.0732,412
69.076,609.9
69.077,190.1
69.1081,180.1
69.115,176.8
69.1155,116
69.1378,199.9
69.1402,124.8
69.152,240
69.1624,188.5
69.1642,472.4
69.1703,98
69.1895,380.1
69.2071,83.9
69.2096,132.4
69.2112,580.4
69.2478,89.4
69.2509,649.4
69.2834,19
69.2874,100.5
69.2881,181.9
69.2912,149.9
69.3025,201.5
69.3271,273.2
69.3385,525.7
69.3463,436.5
69.3637,219
69.3951,537.3
69.4011,17.2
69.4028,71.8
69.4029,69.8
69.4201,287.7
69.4238,126.6
69.4318,159.6
69.4738,173.9
69.4828,143.7
69.4852,443.9
69.4993,574
69.5427,18.8
69.5461,176.9
69.5575,126.8
69.5784,498
69.5813,462.6
69.5841,108
69.5939,404.6
69.6215,16.5
69.6234,16.3
69.6323,92.5
69.6338,698.2
69.6921,168.9
69.7072,471.5
69.7211,206
69.7509,26.2
69.7547,189.7
69.7609,74.5
69.7932,90.2
69.8099,16.6
69.8276,82.2
69.8403,296.1
69.8596,652.6
69.8828,101.3
69.8982,395.9
69.9111,685.2
69.9251,102.4
69.9376,194.6
69.9559,86
69.9965,544.1
69.9994,263.4
70.0092,506
70.0269,292.9
70.051,450.8
70.0555,536.9
70.0616,491.8
70.0649,1743.1
70.0656,96.6
70.0732,420.3
70.1045,123.5
70.1089,769.8
70.1158,130.9
70.1216,92.2
70.136,351.9
70.1401,75.6
70.155,341.9
70.1701,162.8
70.1798,126
70.224,93.6
70.2284,113
70.2301,80.5
70.2303,112.1
70.2305,114.5
70.2402,741.2
70.2441,18.3
70.2584,68.3
70.3148,90.3
70.317,531.2
70.3392,90.4
70.3865,289.6
70.3932,412
70.3953,596.2
70.4046,99.7
70.4175,164
70.4199,16.3
70.4206,100.4
70.4732,85.5
70.5108,293.8
70.5167,176.7
70.5183,312.2
70.528,357.6
70.558,182.9
70.5632,85.7
70.587,464.6
70.6303,91.4
70.6469,110
70.6644,276.3
70.6824,145.5
70.6893,208.9
70.7089,18.9
70.7244,841.3
70.7254,142.7
70.7359,280
70.7425,489.5
70.745,79.6
70.7593,416.7
70.7693,154.1
70.7734,668.4
70.7928,89.1
70.8282,611.9
70.8289,131.8
70.8384,194.7
70.8497,578.5
70.8553,437.3
70.8636,185.8
70.8663,580.9
70.91,170
70.9233,465.3
70.96,464.5
70.9617,17.6
70.9625,87
70.9706,79.7
70.9753,89.3
71.0122,256.2
71.0209,369.8
71.0486,93.9
71.0548,20.8
71.0676,748.8
71.092,328.2
71.0964,88.1
71.113,231.3
71.1259,156.7
71.1469,91.2
71.1896,136.1
71.1937,145.1
71.2203,228.7
71.2285,133.9
71.3093,224.9
71.3098,277.8
71.3133,285.7
71.3325,693.6
71.3415,233.1
71.3464,232.1
71.3476,167.8
71.3646,16.8
71.3666,580.6
71.3688,93.3
71.3926,90.2
71.4037,958.9
71.4233,18.3
71.4263,121.6
71.447,425.3
71.4507,74.8
71.4626,521.1
71.4929,82.1
71.5048,490.3
71.5093,77.9
71.5133,155.6
71.5302,182.4
71.5402,17.1
71.6062,168.6
71.6112,166.6
71.6238,558.6
71.6262,176.8
71.6375,253
71.6536,96.2
71.6567,124.5
71.6595,378.5
71.6676,170.8
71.6732,17.1
71.6854,210
71.6895,713.3
71.6999,72.9
71.7081,668.3
71.7436,17
71.7508,489.1
71.7565,291.7
71.7948,406.5
71.7977,108.6
71.7998,18.3
71.8369,16.6
71.8414,191
71.8707,424.1
71.8809,128
71.8942,716.3
71.8998,402.1
71.9219,16.8
71.9247,569.7
71.9389,179.7
71.9594,716.3
71.9604,652.8
71.9708,90.3
71.9838,229.7
71.9976,126.2
72.031,317.8
72.0366,630
72.0414,183.6
72.045,126.3
72.0547,644.5
72.0631,546.5
72.0806,920.2
72.0901,18.4
72.092,687.2
72.1189,98.8
72.1221,74.1
72.123,461.3
72.1366,81.4
72.1679,169.4
72.174,135.4
72.1856,120.1
72.1978,865.6
72.1987,301.2
72.2038,138.7
72.206,249.5
72.2065,372
72.2076,413.4
72.2089,571.2
72.2095,647
72.2103,538.6
72.2115,391
72.2118,481.9
72.2128,460.9
72.2134,428.6
72.2138,937.3
72.2144,1731
72.2147,1233.4
72.2161,2521.4
72.2174,1612.2
72.2181,1293.9
72.2187,1272.8
72.2192,1945.7
72.2202,2510.9
72.2209,3993.4
72.2224,3477.1
72.2237,3185
72.2247,2483.3
72.2253,3191.8
72.2258,1424.7
72.2266,2253.3
72.2268,2287.3
72.2275,2284.9
72.2283,1245.8
72.2289,1571.3
72.2297,1740.4
72.2309,1242.9
72.232,347.3
72.2327,227.7
72.2338,504.6
72.2344,744.6
72.235,989.1
72.2359,1282.3
72.2367,49.6
72.2375,669.3
72.2384,23
72.2393,19.4
72.2403,328.5
72.2408,298.7
72.242,371
72.2427,109.6
72.2443,16.7
72.2717,100.4
72.2747,107.7
72.2897,94.5
72.2953,328.7
72.3014,697
72.3059,107.9
72.3071,123
72.3116,199.8
72.3147,485.9
72.3277,177.5
72.3305,80.3
72.3312,155.4
72.3652,293.6
72.4146,596.8
72.4264,701.3
72.4307,133
72.437,409.4
72.4498,258.6
72.4873,398
72.4995,88.1
72.5101,242.9
72.5152,18.4
72.5321,543.9
72.543,515.2
72.5567,196.3
72.6011,312.5
72.6083,136.1
72.6218,395.7
72.6268,529.2
72.6379,315.8
72.639,550
72.6631,432.8
72.6638,97.2
72.6674,379
72.6711,21.2
72.6873,188
72.6913,319
72.7078,103.9
72.7363,288
72.7377,99.9
72.7389,121.7
72.7593,17.2
72.7685,131.9
72.7806,611.3
72.7854,517.5
72.8173,133
72.833,144.7
72.8731,114.2
72.8762,198.5
72.882,557.1
72.8969,666
72.907,127.9
72.9079,182.1
72.916,197.3
72.9173,302.3
72.9287,178.8
72.9423,129.8
72.9512,79.3
72.9705,141.4
72.9749,107.4
72.9754,276.2
72.9794,91.2
72.9907,375.4
73.0221,175.1
73.0945,314
73.0981,125.8
73.1221,380.3
73.1248,377.1
73.1274,183.5
73.1287,653
73.1313,18.1
73.1354,86.2
73.1383,324.8
73.1487,312.8
73.1584,17
73.1793,434.4
73.209,514.2
73.2199,18.7
73.2294,107.3
73.2308,609.5
73.2544,172.8
73.2768,101.6
73.2781,661.3
73.3041,18.6
73.323,95.9
73.3244,173.7
73.336,283.6
73.3769,206.9
73.4073,407.1
73.4502,16.2
73.4623,18.3
73.4749,139.1
73.4899,210.1
73.4935,420.8
73.5119,84
73.5438,186.5
73.5511,288.5
73.5579,69.9
73.5769,454.2
73.5784,599.8
73.5833,75.1
73.6004,19.7
73.6009,18
73.6065,136.9
73.6122,168.1
73.6136,176.8
73.6596,430.8
73.6641,98.6
73.6768,345.3
73.6813,205.4
73.712,82.5
73.7126,18
73.7233,99.7
73.7259,746.9
73.7542,85.5
73.7627,161.6
73.7765,590.1
73.7772,591.2
73.7935,183.2
73.7986,120.2
73.8166,195.2
73.8441,625.8
73.8463,398.9
73.8613,76.9
73.8681,119.1
73.8732,752.2
73.9183,675.6
73.935,76.2
73.9458,395.8
73.9537,17.8
73.9561,91.2
73.9652,79.8
73.9698,851.4
73.985,82.9
73.9965,281.7
74.0025,16.3
74.007,289.1
74.0082,96.4
74.0128,684
74.0199,171.6
74.0279,164.1
74.0334,113.4
74.0599,5147.1
74.1041,86.4
74.131,82.1
74.1358,86.3
74.1367,137.7
74.1375,15.9
74.1823,18.9
74.1869,495.5
74.1924,431.9
74.1934,89
74.1997,160.8
74.2126,82.3
74.2793,131.1
74.2871,172.9
74.3173,155.4
74.3321,106.1
74.3332,131.8
74.3396,279.3
74.3471,350.3
74.3699,98.1
74.3743,103.7
74.3871,327.2
74.4181,16.6
74.4309,252.2
74.4526,16.4
74.4898,276.3
74.5034,104.1
74.5133,96.2
74.5138,222.8
74.5234,317.1
74.5395,513
74.5487,154.5
74.5675,488
74.5776,98.4
74.5994,123.6
74.6079,752.7
74.628,172.6
74.6694,171.4
74.6751,215.8
74.6848,507.9
74.7011,725.4
74.7223,530.9
74.7384,167.3
74.7447,102.3
74.7583,584.4
74.7784,17.6
74.7961,18.5
74.8023,16.1
74.8048,18.8
74.8087,187.4
74.8194,302.7
74.8222,112
74.853,81
74.8596,258.8
74.8658,87.4
74.8697,16.5
74.8706,861.2
74.8865,575.2
74.8926,465.6
74.895,136.7
74.9329,477.8
74.9433,91.2
74.9451,16.5
74.954,74.7
74.9721,295.4
74.9832,358.6
75.0001,406.1
75.0092,107.8
75.0121,452.3
75.0558,323.2
75.0636,197.2
75.0769,16.2
75.0784,17.6
75.0792,121
75.0852,188.6
75.0996,583.1
75.1039,264.4
75.1069,281
75.1386,761.9
75.1602,310
75.199,88.7
75.2071,705.7
75.2258,417.9
75.2302,16.5
75.2399,500
75.251,94.4
75.3002,351.8
75.3113,173.5
75.3187,15.4
75.3287,502.6
75.3371,20.3
75.375,97.9
75.398,76.9
75.4168,432.8
75.428,85.5
75.4314,91.4
75.4399,118.2
75.4469,666.1
75.4674,418.5
75.4982,200.7
75.5108,584.8
75.5196,79.7
75.5304,115.8
75.5379,138.2
75.5421,19.8
75.6094,16.3
75.6313,583.3
75.6344,111.8
75.6435,213.6
75.6985,178.7
75.7044,162.8
75.7324,352.5
75.7422,235.5
75.7466,263.5
75.7507,126
75.7543,98.9
75.8044,129.6
75.8482,18.3
75.8544,102.6
75.863,69.9
75.8946,151.9
75.9185,424.6
75.9868,321.6
75.9891,21.8
75.9909,442.6
75.9949,197.4
76.0282,106.1
76.0469,119.5
76.0576,93.2
76.0804,184.4
76.0998,128.9
76.1066,164.2
76.1196,213.3
76.1242,567.3
76.1268,561.7
76.1312,121.8
76.132,19.8
76.1609,637.3
76.1735,415.9
76.2062,23
76.2213,395.9
76.2256,502.6
76.2466,330.6
76.2973,366.5
76.3021,102.9
76.3181,202.3
76.3493,123.5
76.3895,88.8
76.4405,193.2
76.4447,132.8
76.4888,81.6
76.4903,136.3
76.5189,16.3
76.5268,83.5
76.5319,162.7
76.535,89.4
76.5383,458.6
76.553,18.6
76.5705,137.2
76.5757,130.5
76.5779,639.8
76.618,88.1
76.6234,499.7
76.655,599.1
76.6663,468.6
76.6756,118.7
76.6784,187.5
76.6889,92.9
76.6971,16.4
76.7037,95.9
76.74,311.3
76.7725,84.9
76.7885,387.8
76.7949,770.9
76.8034,424.6
76.8581,162.1
76.9,206.8
76.9081,557.9
76.9313,504.7
76.9397,15.9
76.9453,518.6
76.9606,116.7
76.9713,178.3
76.9755,120.3
76.982,95.3
76.9881,192.4
76.9915,186.5
77.0016,435.6
77.0088,501.4
77.0262,639.4
77.0355,252.7
77.0358,263.8
77.0384,136247.4
77.0428,76.2
77.0497,207.4
77.061,83.2
77.1077,385.6
77.1173,407.6
77.1302,80.7
77.1807,181.4
77.1825,171.1
77.1863,303.2
77.1902,168.5
77.2164,16.9
77.2289,330.7
77.2302,193
77.237,129.3
77.2412,315.2
77.2471,604.4
77.2671,213.1
77.2785,81
77.2946,85.9
77.3302,18.5
77.3364,166.9
77.3637,287.9
77.438,199
77.4437,894.1
77.4624,609
77.4877,19.2
77.5157,117.9
77.5207,76.3
77.5347,16.3
77.5554,137
77.5584,477.6
77.6037,304
77.6079,471.9
77.6207,570
77.6373,18.5
77.7247,15.7
77.7419,552.9
77.7473,569.3
77.7774,113.1
77.7823,534
77.8022,530.8
77.8328,209.3
77.8638,71.7
77.9008,93.4
77.9119,226.5
77.9139,227.2
77.9583,222.6
77.9692,117.3
77.9843,691.2
77.994,438.5
78.0033,786
78.0048,265.3
78.0418,4628.2
78.0461,428
78.0691,748.9
78.0791,75.2
78.0817,437.5
78.1085,496.6
78.1193,414.6
78.1489,544.8
78.1652,136.3
78.1718,18.3
78.1731,337
78.1844,82.1
78.1999,94.7
78.2434,99.2
78.2587,97.2
78.2637,94.5
78.2821,134
78.2997,463.9
78.3091,182
78.3208,17.5
78.3357,19.9
78.3658,143.7
78.401,21.2
78.4128,145.4
78.4141,123.5
78.4331,99.7
78.4342,89.2
78.4518,17
78.4524,106.8
78.4615,818.2
78.4681,76.2
78.4922,16.9
78.4967,204.7
78.499,517
78.5101,151.3
78.5368,547.9
78.5945,544.7
78.6033,156
78.6045,175.2
78.6089,776.1
78.6241,250.4
78.6293,20
78.6425,416.6
78.7023,195.1
78.7084,91.9
78.7764,184.8
78.7781,542.7
78.7826,520.1
78.7834,636.7
78.805,158.4
78.8097,659.4
78.8106,306.9
78.8127,523.8
78.8247,254.4
78.8295,86.2
78.8347,435.8
78.8385,157.9
78.8389,158.4
78.8427,400.8
78.8718,93.5
78.873,135.4
78.8762,596.6
78.9166,556.3
78.9243,175.9
78.9681,96.3
78.9792,205.8
78.9933,186.5
78.9952,799.3
78.9969,197
78.998,128.3
79.0246,142.9
79.0541,2988.1
79.0893,471
79.0975,233
79.1135,106.2
79.1203,144.7
79.1264,123.9
79.1514,398.7
79.1653,144.7
79.1749,143
79.1959,81.8
79.2151,18.6
79.2542,85.1
79.2671,17.7
79.2828,184.3
79.2974,15.3
79.3052,94.3
79.3057,16.6
79.3372,239.7
79.3413,83.7
79.3446,21.9
79.3496,105.6
79.3532,145.4
79.3573,165.6
79.3589,372.2
79.3643,640.7
79.3704,586.1
79.3858,127.7
79.3971,120.9
79.4082,103.3
79.4266,661
79.4825,879.7
79.5012,479.9
79.507,102.5
79.51,162.7
79.5211,140.3
79.5363,136.2
79.5386,399.7
79.5422,90.3
79.5742,204.3
79.6064,750.6
79.629,126
79.6829,199.3
79.7034,191.7
79.7042,236
79.7345,165.7
79.7352,735.9
79.7741,401.3
79.7855,554.4
79.7981,184.1
79.8094,256.8
79.8123,111.8
79.8356,171.8
79.8363,98.6
79.8569,419.8
79.9037,75.6
79.9088,127.5
79.9259,687.2
79.9699,315.5
79.98,335.1
80.0069,767.4
80.0287,308.2
80.036,342.8
80.0484,633.7
80.0515,267
80.0985,149.6
80.1096,441.7
80.1187,552
80.1335,125
80.1539,219.2
80.1572,497
80.219,178
80.2241,553.4
80.2253,106.3
80.2677,89.8
80.2721,548.5
80.2962,130.6
80.3149,86.8
80.3219,466.8
80.3231,165.2
80.3347,132.1
80.3524,194
80.354,172.9
80.3718,373.9
80.4029,190.5
80.4072,240.4
80.4119,102.9
80.4287,80.1
80.4309,102.8
80.4651,488.3
80.4857,75.7
80.4965,135.2
80.5691,85.3
80.5835,175.4
80.5898,18.1
80.5947,149
80.6361,493.6
80.642,106.7
80.6594,132.6
80.6767,186.9
80.6907,97.2
80.6963,385.9
80.7152,15.9
80.7433,94.5
80.744,16.8
80.7459,112.4
80.7828,88
80.7991,298.9
80.7998,192.3
80.8296,110.3
80.8622,112.5
80.8844,145.7
80.8934,317.4
80.9191,88
80.9247,249.3
80.9263,809.1
80.9448,87.7
80.9477,38345.4
80.9504,199.3
80.9647,16.9
80.9721,323.5
80.9752,76.7
80.9925,117.9
81.0259,91.1
81.028,479
81.0406,537.9
81.042,138.3
81.0698,1164.9
81.0711,184.4
81.1034,97.5
81.1119,478.6
81.118,268
81.1312,130.4
81.134,694.6
81.1361,156.7
81.1481,436
81.149,637.3
81.1501,1088.4
81.1525,537.8
81.1542,256.2
81.1559,93.1
81.1591,101.2
81.1598,154.2
81.1649,138.2
81.1712,116
81.1719,77.2
81.1745,106.5
81.1913,410.5
81.2129,80.1
81.2173,155.7
81.2397,698.7
81.2581,414.3
81.2678,525.3
81.2828,319.8
81.312,122.2
81.3135,593.1
81.3343,139.9
81.3848,269.3
81.403,138
81.4042,332.7
81.4146,134
81.4605,74.9
81.4772,414.4
81.4922,182
81.4991,113.8
81.5339,261.8
81.5597,249.7
81.5703,175.9
81.582,94.7
81.6159,324
81.6177,291.2
81.6276,237.5
81.6389,88.3
81.6487,121.7
81.6653,723.3
81.6679,180.6
81.6873,657.2
81.7508,147.8
81.7642,249.8
81.7841,16.7
81.7872,579.9
81.8248,75.1
81.8386,90.6
81.8482,571.6
81.8553,205.5
81.8585,186.4
81.8774,83
81.8946,417.6
81.8994,247
81.9149,372.7
81.9253,166.4
81.9316,495.5
81.9503,88
81.9597,193.4
81.9676,247.2
81.9724,134.9
81.9732,146.1
82.0049,108.1
82.0189,619.5
82.0325,140.2
82.0651,20.7
82.0691,601.2
82.073,21.6
82.0931,17.9
82.1077,111.8
82.1183,97.4
82.1211,94.7
82.1521,21.1
82.195,258.4
82.2175,179.4
82.2257,227.2
82.2277,95.6
82.2386,17.3
82.2711,213.7
82.2779,744.4
82.2808,122.8
82.3331,256.3
82.3475,130.4
82.3848,182.5
82.389,479.1
82.4567,577.7
82.5329,689.9
82.5454,483.1
82.5468,347.3
82.549,18.9
82.5753,771.5
82.6149,502.6
82.6359,207.1
82.6481,194.2
82.649,768.3
82.652,821.1
82.6527,105.6
82.6901,289.6
82.7026,712.8
82.7221,317.6
82.798,94.4
82.8212,547.3
82.8658,421.6
82.874,82.2
82.8805,545.4
82.8831,471.2
82.8902,17.8
82.9043,252.3
82.9205,275.7
82.9228,478.9
82.9448,11153
82.9476,238.5
82.9511,185.9
82.9867,501.4
82.9894,532.1
83.0238,105.6
83.0251,21.2
83.0271,597.6
83.05,90.3
83.0641,93.2
83.0812,137.1
83.0855,48.5
83.1069,173
83.1149,552.8
83.1339,165.3
83.1378,510.5
83.1463,90.6
83.1607,100.3
83.2143,20.2
83.2239,270.7
83.2248,472.8
83.2288,102.8
83.2314,923.5
83.2356,210.9
83.2365,218.6
83.2762,252.8
83.306,77.8
83.3108,154.3
83.3338,123.1
83.3369,124.5
83.3518,131.8
83.3629,20.3
83.3723,112.1
83.3968,249.5
83.423,18
83.4286,480.1
83.4372,19.7
83.5645,733.6
83.5683,175.3
83.5849,249.5
83.6055,16.3
83.6066,122.5
83.6163,17.4
83.6209,376.1
83.6339,152
83.6491,162.8
83.6506,18.1
83.6612,202.3
83.6776,279.1
83.7204,399.8
83.7229,220
83.7237,121.5
83.7557,449.6
83.7765,199.1
83.7768,189.1
83.7841,103.8
83.7887,134.8
83.8342,83.3
83.8446,18.9
83.8486,85.5
83.8638,126.7
83.8953,305.3
83.9036,620.4
83.9041,408.4
83.9086,17.1
83.919,18.1
83.9496,331.4
83.998,822.7
84.0443,803.7
84.0672,119.4
84.0711,663.1
84.075,387.3
84.0831,449.5
84.0963,400.8
84.0988,89.1
84.1113,215.1
84.1165,823
84.1179,298.9
84.1265,137.3
84.1327,15.4
84.1385,545.1
84.1443,139.7
84.152,17
84.1565,424.7
84.1738,126.3
84.1783,218.4
84.1951,76.8
84.2035,128.2
84.2055,727.5
84.2099,266.3
84.2118,84.8
84.2221,231.2
84.2478,577.4
84.256,747.4
84.2804,555.4
84.282,461.1
84.293,398.6
84.2937,112.2
84.3313,18
84.3396,17.5
84.3616,1170.8
84.4312,108.2
84.4364,204.4
84.4624,444.4
84.4736,126.7
84.498,131.9
84.5408,490.8
84.602,86.1
84.6023,98.2
84.637,140.2
84.6459,239.6
84.65,279
84.6609,153.4
84.6954,152.9
84.7029,214.2
84.7171,561.3
84.7412,221.5
84.7735,68.3
84.7779,17.5
84.7948,17.9
84.8123,18.5
84.8227,295.3
84.825,96
84.833,684.2
84.8574,93.9
84.86,90.7
84.8805,331.5
84.9007,15.6
84.9032,761.2
84.9041,694
84.943,454.8
84.9536,92.4
84.9557,510.4
84.9596,25790.5
84.9724,498.9
84.9745,268.9
84.9763,17.8
84.9982,70.1
85.0166,514.2
85.0284,1810.5
85.0292,764.6
85.0344,91.1
85.0393,723.6
85.0426,116.8
85.0768,514.5
85.0824,90.3
85.0932,257.3
85.097,94.5
85.1065,271.3
85.1714,250.7
85.1751,15.9
85.1937,517.9
85.2214,69.6
85.2397,101.3
85.2467,358.5
85.2548,76.6
85.2793,860.8
85.3098,117.3
85.3135,95.1
85.3251,79.7
85.3266,116.2
85.3419,312.7
85.3674,84.6
85.3683,135.7
85.3918,202.2
85.3994,493.4
85.418,408.1
85.4691,18.3
85.4981,512.2
85.5192,131.3
85.5423,444
85.5498,250.7
85.5524,1115.2
85.5782,250.2
85.5798,232.6
85.5833,148.5
85.5889,96.6
85.6052,115.6
85.6311,23.1
85.6452,102.6
85.6468,344.9
85.6773,188.8
85.6929,679.6
85.7405,598.5
85.7695,105.3
85.7843,277.2
85.8202,136.5
85.8343,107.9
85.8521,684.4
85.8716,17
85.8936,98.7
85.8995,296.8
85.9508,761.2
85.9644,20.8
86.0322,463.6
86.037,566.8
86.0505,95.6
86.06,49641.9
86.0786,627.7
86.0964,107287.9
86.1039,165.3
86.1222,421.5
86.1229,133.3
86.1327,87.6
86.17,155.7
86.1747,309.4
86.195,164.6
86.2056,199.3
86.2313,18.7
86.2572,79.4
86.2637,274.3
86.2674,599.4
86.2895,194.1
86.3237,694.1
86.3505,17.9
86.3519,186.7
86.3606,499.2
86.3695,102.9
86.382,184.1
86.3887,86.5
86.3961,19.8
86.4964,75.9
86.5606,279.6
86.5773,74.1
86.5873,437.8
86.589,640.1
86.5939,132.9
86.5998,133.2
86.6111,251.4
86.6143,96.4
86.6353,141
86.6429,87.4
86.6556,539.9
86.6573,83.1
86.6646,98.3
86.6756,418.9
86.6803,275.7
86.684,99.2
86.6989,309
86.7096,143.9
86.7176,171.4
86.762,100.3
86.7726,272.6
86.7744,156.8
86.8219,97.1
86.8276,654.2
86.8614,18.1
86.9006,129.7
86.9306,167.5
86.9353,201.7
86.9604,546.5
86.9647,420.7
86.9663,101.9
86.9702,301.8
86.9937,89.7
87.0255,141
87.0338,255.9
87.0369,198.3
87.0476,88.1
87.0713,20.2
87.0768,129.1
87.0847,133.7
87.0924,398.6
87.0999,554.9
87.1152,196.4
87.1315,182.4
87.1477,109.2
87.1821,73.6
87.1843,87
87.2467,129.3
87.3097,241.5
87.3181,174.8
87.3189,21.9
87.3228,195.9
87.3368,177
87.4133,138.7
87.4215,205.3
87.4407,23.7
87.4748,833.3
87.4821,21
87.5309,315.6
87.5696,192
87.5926,121.9
87.6629,74.1
87.6747,727.5
87.6858,86.8
87.7085,20.4
87.7271,280.2
87.7278,187.6
87.7328,416.4
87.7344,294.9
87.7777,91
87.7822,17
87.8037,807.3
87.8039,927.2
87.8042,501
87.8125,93
87.8204,88.4
87.8458,102.2
87.9123,679.9
87.9512,143
87.9532,157.7
87.9601,455.9
87.9896,249.8
88.0216,103.9
88.0393,12193.9
88.0434,82.2
88.0453,111.3
88.0535,717.8
88.0538,790.1
88.0542,641.2
88.0647,280.7
88.0663,20.4
88.1052,164.7
88.1083,17.5
88.1189,302.5
88.1414,104.2
88.1508,72.8
88.1524,513.2
88.1558,169.9
88.1631,182
88.1944,157.5
88.2247,497.6
88.2403,83.2
88.2625,84.2
88.277,149.9
88.3469,197.4
88.3485,731.5
88.3845,74.3
88.3852,335.6
88.3972,83.6
88.4025,577.4
88.4163,95.3
88.4388,178
88.4629,430.7
88.4651,510.8
88.4801,94
88.4828,80.3
88.5176,309.7
88.5259,662.1
88.5373,390.3
88.5508,197.1
88.6068,16.1
88.6374,100
88.6461,576.8
88.6567,192.6
88.6576,81.8
88.6642,177.7
88.6645,203.3
88.6649,138.4
88.6707,748.4
88.6711,778.2
88.7329,193.7
88.7498,127.1
88.7719,102.9
88.8022,683.3
88.821,107
88.8306,321.8
88.8309,299.7
88.9002,92.9
88.9037,459.6
88.9117,174.9
88.956,212.2
88.9733,194
88.9911,18.7
89.0006,298.2
89.015,135.6
89.0389,17
89.0685,223.2
89.0735,87.3
89.0981,230.9
89.11,86.2
89.1418,499.7
89.1441,102
89.1538,115.2
89.1726,521.9
89.1966,310.3
89.1985,17.3
89.2065,274.5
89.2255,16.6
89.2297,239.5
89.243,94.5
89.2555,172.3
89.2851,22.6
89.2993,335.7
89.3005,83.6
89.3225,102
89.3363,594.3
89.3437,17.5
89.4045,784.9
89.4064,88.7
89.4202,19.7
89.4457,259.8
89.4507,184
89.4732,304.6
89.4906,18
89.5251,16.5
89.6387,84
89.6549,126.5
89.676,117.9
89.6911,457.9
89.7235,175.1
89.7366,17.8
89.7395,702.6
89.7451,447.2
89.752,137.2
89.7892,231.8
89.7913,114.2
89.8137,75.6
89.823,561.6
89.8823,101.7
89.8943,913.9
89.9386,74.4
89.9512,92.8
89.9742,844
89.9929,82.8
90.0304,135.7
90.0371,276.2
90.1048,658.8
90.1249,86.1
90.1522,106.8
90.2154,242.1
90.2235,84.2
90.2368,19
90.2481,551.7
90.3445,463.7
90.3864,126.8
90.4135,912.2
90.4187,147.1
90.4483,99
90.4544,177.7
90.4583,87.3
90.4985,299.7
90.5106,194.2
90.5133,77.7
90.5232,343.5
90.5411,639.2
90.55,17.5
90.5518,96
90.5582,91.2
90.5765,428.1
90.5853,379.4
90.6011,153.5
90.611,126.3
90.6147,16.9
90.6363,306.9
90.641,17.9
90.6936,83.5
90.7217,150.1
90.7477,756.4
90.7666,84.8
90.7909,95.6
90.8145,293.1
90.842,89.3
90.8446,215.1
90.8703,121.5
90.9034,90.2
90.9475,20.7
90.9686,275.6
90.9766,7444.1
91.004,503.4
91.0542,3718.9
91.0568,81.1
91.0623,177.8
91.0851,496.3
91.0866,415.3
91.0913,523.2
91.1167,137.5
91.1628,401.4
91.1995,685.8
91.2223,19.5
91.2246,203.1
91.2899,788.2
91.3387,339.2
91.3468,535.4
91.354,156.6
91.3948,530.9
91.4136,473.2
91.4195,583.2
91.4267,225.2
91.4367,21.3
91.4755,101.2
91.5472,774.3
91.5528,460.9
91.5568,629.4
91.5869,18.6
91.6999,264.8
91.7571,636.6
91.8157,129.4
91.8191,596
91.8571,321.3
91.8875,87.2
91.9004,390.5
91.911,71.8
91.9117,77.3
91.9212,132.6
91.9561,206.4
91.9585,566.3
91.9638,414.1
91.9948,425
91.9957,286.8
92.0056,211.9
92.0515,82.4
92.0522,72.3
92.0677,244.1
92.0723,133.5
92.1215,599.5
92.1245,16.7
92.1583,20
92.1617,78.9
92.1749,177.8
92.1872,18.3
92.1983,181.9
92.2243,806.6
92.2277,188.3
92.251,429.9
92.2769,231.5
92.296,633.4
92.2969,736.1
92.3191,325.6
92.3362,265.8
92.3617,20.9
92.386,16.1
92.3922,18
92.3961,377.7
92.4033,296.1
92.431,162.5
92.4414,198.3
92.4533,980
92.458,491
92.4671,273.1
92.5027,503.6
92.5191,909.2
92.5398,127.9
92.6257,288.4
92.6342,823.2
92.7196,96.2
92.7388,94.8
92.755,166.9
92.7748,76.4
92.7783,100.8
92.7979,740.7
92.8356,104
92.9224,115.3
92.9357,503
92.9719,155.8
92.9781,490.7
92.9873,234.5
93.0107,157.9
93.0127,601.3
93.0157,512.2
93.0355,329.6
93.0574,45
93.0601,16.5
93.0699,163.2
93.0902,85
93.0943,297.6
93.0983,322.9
93.1214,19.1
93.1388,615.9
93.1466,118.2
93.1573,106.2
93.1685,103.4
93.1859,485.4
93.2146,115.8
93.2164,95.2
93.2219,506.4
93.2377,722.8
93.2396,17.4
93.25,19.6
93.2629,17.6
93.2638,94.1
93.2774,123.2
93.2953,91.4
93.2975,216.8
93.3125,562.6
93.3186,608.5
93.3475,99.8
93.3698,761.4
93.382,88.8
93.3877,346
93.3939,175.4
93.4019,184.6
93.4025,174.8
93.4237,215.5
93.4297,804.1
93.4397,448
93.4807,98
93.4883,220.1
93.4919,18
93.5022,181.6
93.5133,694.7
93.5271,125.3
93.5322,105.8
93.5551,91.9
93.5561,149.8
93.6023,89.9
93.6077,596.7
93.6123,80.6
93.6132,97.7
93.6821,183.9
93.7187,90.9
93.7421,18.7
93.7756,791.3
93.7778,769.5
93.8033,73.4
93.8308,140.1
93.8351,301.2
93.8361,527.1
93.8414,177.7
93.8559,336.9
93.8604,97.6
93.8992,847.3
93.9319,562.6
93.9425,596.8
93.97,88.6
93.9909,612
93.9922,526.7
94.016,231.7
94.0164,224.5
94.0188,101.2
94.04,27.3
94.0413,71336.4
94.0435,136
94.0652,180.8
94.1328,148.1
94.1375,791.6
94.1386,18.6
94.1898,864
94.2135,149.9
94.2172,139.4
94.2745,157.2
94.2852,296.8
94.3098,148.5
94.3151,216.9
94.3322,163.5
94.3379,114.5
94.3438,97.5
94.3694,119.8
94.3778,20.2
94.3824,80.1
94.4178,410.5
94.4229,20.6
94.45,137.9
94.4779,219.3
94.5143,495.2
94.5223,734.5
94.5304,548
94.5374,334.1
94.5496,213.7
94.5531,268.8
94.5631,19
94.5713,88.7
94.573,87.7
94.6074,479.1
94.6726,503.9
94.6787,167
94.6978,101.1
94.7079,107.1
94.7408,87.7
94.7746,17
94.7927,482.6
94.8108,467.3
94.8381,105.4
94.8598,18
94.8618,90.3
94.8819,172.5
94.9082,552.6
94.934,18.5
94.9349,606.2
94.9482,18.4
94.962,115.8
94.9631,143.6
94.9634,241.2
94.9637,198.8
94.9657,83.5
95.0038,179.7
95.009,22.4
95.0186,435.4
95.0217,86.7
95.0225,173
95.026,240.4
95.0356,27.7
95.0412,276.5
95.0447,1542.9
95.0464,84.7
95.0467,54.9
95.0479,330.5
95.0491,487343.9
95.0624,28.6
95.0632,169.4
95.079,25.4
95.0856,215.4
95.0937,21.1
95.0997,152.4
95.1088,20.4
95.1284,123.7
95.1292,164.1
95.1388,19
95.1645,88.1
95.1864,132.3
95.2143,468.6
95.2303,372.4
95.2626,577.9
95.2638,196.9
95.2712,371.6
95.2825,105
95.2966,577.4
95.3603,95.6
95.3879,130.3
95.3972,250.9
95.4116,206.5
95.4368,196.8
95.4531,186
95.4626,18.3
95.4706,500.4
95.4724,129
95.4813,18.9
95.5021,330.2
95.5119,879.7
95.5202,17.4
95.546,233.3
95.574,148.3
95.5801,123
95.6042,17.3
95.6216,106.9
95.6389,89.7
95.6441,191.8
95.6481,96.6
95.6914,109.3
95.7082,82.4
95.7203,96.5
95.7313,17.7
95.7334,151.2
95.7456,293.8
95.7539,206.7
95.7633,84.4
95.7701,329.4
95.8081,87.4
95.843,510.7
95.8494,246.2
95.876,173
95.8771,147.4
95.8809,258.9
95.8955,15.5
95.9257,259.1
95.9936,81.5
95.9951,546.5
96.0038,472.9
96.0104,205.5
96.0341,19.1
96.0399,135.4
96.0413,117.2
96.0525,24396.9
96.0647,441.2
96.0923,96
96.1362,90.2
96.1804,154.8
96.1847,714.7
96.1913,810.1
96.1939,16.2
96.2053,835.5
96.227,95.6
96.2311,156.5
96.3106,18.8
96.3163,139.4
96.3203,112.7
96.3287,264
96.3309,195.4
96.3515,426
96.4244,16.9
96.4423,18.2
96.456,93.7
96.4662,20.8
96.4921,205.9
96.4956,113
96.5665,233.7
96.5951,442.9
96.601,133.3
96.6066,16.7
96.6185,371.8
96.6231,17.8
96.6287,597.2
96.6447,746.4
96.674,331.5
96.6867,129.7
96.6953,113.4
96.7409,128.2
96.784,92.9
96.8335,549.4
96.8444,171.2
96.8552,230.2
96.8582,427.9
96.9102,167.1
96.9218,132914
96.9237,457.5
96.9264,360.1
96.9576,381.5
96.9679,204.8
96.9683,359.7
96.9685,361.7
96.9863,17.9
97.0076,203.9
97.017,214.4
97.021,118.2
97.0243,602.2
97.0314,615.6
97.037,157.9
97.0428,158.6
97.0472,748.2
97.0533,86.4
97.076,44.2
97.0772,572.7
97.0827,169
97.1012,32.3
97.1123,497.1
97.1201,603.3
97.1293,224.5
97.1752,320.3
97.1814,16.8
97.2034,16.4
97.2087,291.3
97.2163,141.1
97.2304,484.2
97.2436,19.1
97.2927,163.2
97.3016,361.9
97.3103,634.1
97.356,422.2
97.394,306
97.3996,622.9
97.5709,168.3
97.5757,814.9
97.5998,86.4
97.6061,21.8
97.6288,16.5
97.6629,119.7
97.6704,486.9
97.7055,101.5
97.7074,122.8
97.7353,254.9
97.7563,202.1
97.7742,768.8
97.7778,363.5
97.7884,19.6
97.7897,833.4
97.797,208.5
97.82,128.2
97.8543,261.1
97.8857,92.7
97.9174,415
97.9399,509.5
97.9471,564.5
97.958,22
97.9637,255.3
97.985,753
98.0663,590.8
98.0874,89
98.1138,561.3
98.1405,78.7
98.1578,19.8
98.1689,96
98.1702,180.5
98.1784,504.7
98.1838,91
98.1856,283.6
98.2328,105.7
98.24,127.5
98.2468,817.4
98.29,105.2
98.3029,420.7
98.3123,227.4
98.3567,17.1
98.3639,369.1
98.3835,105.7
98.4234,631.3
98.4528,542.3
98.4731,185
98.4901,207.9
98.5055,182.5
98.5161,95
98.5258,17.3
98.5365,85.3
98.5383,164.1
98.5722,15.9
98.5954,402
98.6017,174.2
98.6053,18.1
98.685,118.8
98.7149,148.7
98.7151,149.2
98.7183,375
98.7231,20.3
98.7364,505.8
98.7553,166.9
98.7604,109.6
98.7657,141.2
98.805,100.9
98.809,84.8
98.8294,283.1
98.8616,366.1
98.8711,183.8
98.8794,18.8
98.9006,202.6
98.9046,112.6
98.9082,259.1
98.9157,17.1
98.9189,42825.4
98.9199,6991.2
98.9754,12574.2
98.9842,106.7
99.0032,158
99.0229,277.3
99.0265,500.1
99.0587,284.8
99.0917,107.7
99.1025,108
99.1298,345.5
99.1576,82.9
99.1913,263.1
99.2152,693.4
99.2232,217.8
99.2875,109.8
99.3149,195.9
99.3315,322.8
99.3481,633.8
99.3495,97.5
99.3971,90.8
99.4163,492.2
99.4524,294.1
99.4644,225.6
99.486,657
99.4893,187.2
99.5137,16.5
99.5157,265.9
99.5193,432.6
99.5455,623.3
99.5807,214.7
99.5818,318.8
99.621,93.4
99.6256,564.6
99.6473,16.6
99.6836,456.4
99.7618,15.8
99.7919,1012.8
99.8155,392.5
99.8311,489.8
99.8486,433.6
99.8506,1341.6
99.8985,145.8
99.9785,371.6
99.9795,311.3
100.0266,125.4
100.0297,417.2
100.0524,427.8
100.0722,238.5
100.0757,60.9
100.1104,141.1
100.1851,150.2
100.1899,72
100.1926,496.3
100.2201,435.2
100.2322,187.1
100.3178,92.7
100.3282,138.7
100.3349,18.7
100.3408,629
100.3445,219.3
100.3464,148.5
100.3615,118.1
100.3994,348.1
100.4114,98.2
100.4136,184.5
100.4208,20
100.4249,447.3
100.4414,204.5
100.5059,91.2
100.5379,133.9
100.5464,274.2
100.6103,396.5
100.615,289.8
100.6293,332.1
100.7182,177.6
100.7263,356.1
100.7326,497.1
100.7818,378.1
100.7874,174.9
100.9103,91.9
100.9169,1269.7
100.9652,640.2
101.0013,158.4
101.004,130.7
101.0196,23.6
101.0231,22.9
101.0471,3087.2
101.071,1733.7
101.1321,376.4
101.1483,206.1
101.1832,545.4
101.1878,197.8
101.2069,21.5
101.2136,167.1
101.2365,111.2
101.2584,723.3
101.2938,20.3
101.3407,187.5
101.3544,463.4
101.41,714.2
101.4119,19.3
101.4214,615.7
101.4862,733.5
101.5141,756
101.5525,160.7
101.5797,19.1
101.6079,732.2
101.6114,17.9
101.6203,264
101.6708,39.2
101.6761,133.2
101.7653,90.9
101.7896,666.1
101.8647,408.3
101.9346,106.7
101.9828,286.9
102.0029,86.9
102.0156,94.4
102.0353,116.9
102.055,6967.3
102.0782,216.9
102.0895,151.7
102.1399,530.2
102.2015,365.3
102.223,20.3
102.2456,98.6
102.2571,17.3
102.2827,18.8
102.2947,542.1
102.3153,203.4
102.332,185.8
102.4211,660.9
102.4417,17.3
102.4461,125.7
102.4874,19
102.5003,90.7
102.536,124
102.5549,233.5
102.5569,727.1
102.5723,809.7
102.5912,781.7
102.5968,626.7
102.6075,262.3
102.6588,25.3
102.6655,728.2
102.6673,18.1
102.7182,123.4
102.7253,183.5
102.7465,101
102.7536,747.8
102.7546,150.9
102.7681,17
102.7731,20.4
102.8036,449
102.8215,96.6
102.8421,804.1
102.8517,17.2
102.87,209.3
102.8753,19.1
102.885,190.1
102.9309,332.7
102.9377,486.8
102.9464,81.6
102.9703,659.6
102.9989,74.3
103.0091,17.6
103.0345,98
103.0542,332.1
103.0668,121.6
103.0992,164.1
103.1208,20.9
103.1259,524.5
103.1515,202.4
103.2004,322.9
103.2155,112.4
103.2195,293.2
103.2623,611.3
103.2855,79.2
103.3125,858.3
103.3424,77.3
103.3556,655.2
103.3632,95.6
103.3689,319.6
103.3856,121.6
103.4096,108.8
103.4229,849
103.4303,105.8
103.4446,17.2
103.451,87
103.4592,424
103.4735,147.1
103.4877,753.3
103.5078,79.7
103.5332,468.8
103.5382,321.7
103.5789,187.2
103.7261,340.3
103.7998,90.1
103.8279,93.6
103.83,114.5
103.848,184.8
103.8776,684.6
103.8787,173.2
103.9458,485.2
103.9755,281.3
103.9843,90.4
103.9921,617.5
104.02,95.7
104.0223,718.9
104.0528,137.9
104.0653,165.2
104.0988,284.1
104.107,442652.4
104.1154,669
104.1294,323.7
104.1448,106.1
104.1652,153.7
104.1795,423.8
104.231,24
104.2362,21.3
104.2768,464.9
104.3345,219.8
104.3485,130.3
104.3556,194.8
104.4127,777
104.4215,203.2
104.4421,123.9
104.4844,648.8
104.4957,19.4
104.5048,81.5
104.5296,83.8
104.5373,681.2
104.5639,190.9
104.5651,70
104.5788,179.7
104.6023,307.3
104.6493,447.4
104.6973,138.2
104.7008,105.1
104.7171,734.4
104.741,141
104.7947,199.4
104.8029,443.4
104.8206,578.2
104.8429,80.1
104.8656,91.5
104.8802,743.8
104.8922,649.7
104.9233,83.6
104.9332,110.6
104.9634,184.4
104.9924,1634.3
105.0032,33.4
105.0104,94.8
105.0448,45679.2
105.0699,49.4
105.0817,92
105.101,193.7
105.1027,351.5
105.1104,14587.4
105.1134,342.4
105.1504,120.3
105.1942,279.2
105.2046,405.3
105.2318,529.9
105.2385,88.9
105.3086,104.1
105.3152,82.1
105.3352,706.6
105.3581,681.6
105.4264,221.1
105.4363,83.8
105.4591,405.4
105.4692,188
105.511,519.8
105.5193,173.3
105.5928,417.3
105.6314,159.1
105.6346,773.6
105.6428,431.1
105.649,99.1
105.6527,739.1
105.6594,108.7
105.6721,579
105.697,215
105.7439,144.2
105.7495,167.9
105.7893,18.7
105.7904,97.3
105.8257,135.9
105.8411,960.3
105.9187,16.7
105.9258,105.6
105.9326,138.8
105.9572,815.7
105.9952,357.8
106.0223,192.7
106.0243,604.4
106.0343,519
106.038,84.7
106.0425,160.1
106.0482,872.9
106.0563,342.1
106.065,21.4
106.0757,109.6
106.1141,105.6
106.1367,158.4
106.1551,740.3
106.1749,100.6
106.1823,96.2
106.1964,105
106.234,1020.6
106.2488,783.2
106.269,185.3
106.2962,422.6
106.3536,269.5
106.3576,500.4
106.424,104.9
106.4313,217
106.4833,147.9
106.4847,136
106.5126,293.3
106.5497,19.5
106.5572,17.5
106.5658,81.7
106.5673,400.5
106.5768,262.3
106.6617,452
106.6703,16.3
106.7059,88.1
106.7434,126
106.7467,235.7
106.7661,16.7
106.8002,224.5
106.8457,18.9
106.8761,402.1
106.8955,83.9
106.9337,500.6
106.9506,3105.4
106.9718,115.3
106.992,89.1
107.0284,86.3
107.0492,700.8
107.0846,394.5
107.0856,53.3
107.0898,19.8
107.1056,81.5
107.1395,279.8
107.1518,333.1
107.1696,158.1
107.2065,458.6
107.2092,85.3
107.2214,188.2
107.2497,824.7
107.2691,98.3
107.2786,437.8
107.313,212.4
107.3401,115
107.4149,101.7
107.4355,97.3
107.4566,82.9
107.4665,160.5
107.4852,20.6
107.5537,16.5
107.5623,689
107.588,242.8
107.6229,84
107.6505,19.7
107.6997,271.1
107.7285,141.2
107.7626,114
107.7671,187.9
107.822,101.3
107.8385,17.6
107.8617,77.8
107.8724,305.9
107.9333,17.8
107.9788,181.3
108.0157,101
108.0382,92.2
108.0547,459.1
108.057,39.9
108.141,17.8
108.1883,417.3
108.1995,367.1
108.2125,307.9
108.2232,19.2
108.2288,93.1
108.2392,134.8
108.2401,971.8
108.2665,92.1
108.3141,693.6
108.3159,18.1
108.3312,103.2
108.384,165.5
108.4053,324.8
108.4262,17.5
108.4392,18.6
108.4501,297.2
108.4558,890.1
108.4884,564.3
108.529,521.2
108.5386,107
108.5429,442.6
108.5512,19.4
108.6004,16.6
108.6433,165
108.6747,335.6
108.7405,432.3
108.7673,548.3
108.7808,123
108.7843,421.8
108.794,184.7
108.8101,20.4
108.8264,17.2
108.8283,285.7
108.8687,497.7
108.8707,175.5
108.8856,19.5
108.9081,126.2
108.9186,485.7
108.9405,425.1
108.9595,168.6
108.9772,290.9
109.013,194.3
109.0374,98.3
109.0524,20.1
109.0649,76582.2
109.0668,40.7
109.0746,216.8
109.1013,124.7
109.1203,19.3
109.1754,518.3
109.1822,289.9
109.1946,106.7
109.2067,345.7
109.2974,311.2
109.3403,210.2
109.3504,464.3
109.3545,127.6
109.3693,113.1
109.3912,191.6
109.4207,73.9
109.4257,192.5
109.4399,101
109.462,529
109.4851,749.9
109.52,478.1
109.5326,136
109.542,84.8
109.5556,100.7
109.5667,698.6
109.5772,169.5
109.5907,16.8
109.6347,184.8
109.6881,927.2
109.7065,18.6
109.7091,129.7
109.7153,151.4
109.8045,559.3
109.8218,484.5
109.8374,528.7
109.8886,82.8
109.929,93.6
109.9409,296.9
109.9519,132.3
109.9689,608.9
109.9845,122.2
109.9864,491.6
110.0139,167.9
110.0175,517.7
110.0194,154.3
110.0208,339.4
110.0518,146.9
110.0669,98.2
110.0682,3317.6
110.0714,3087.9
110.0819,198.1
110.0963,19.9
110.1046,22.8
110.1357,96.6
110.1651,104.5
110.2048,127.5
110.2145,806
110.2547,270.2
110.2685,282.8
110.2725,22.4
110.2817,22
110.2914,78.7
110.2973,151.6
110.2996,246.6
110.3115,282.8
110.3157,278.9
110.3862,124.4
110.3974,172.1
110.4058,410.1
110.4243,92
110.5317,573.1
110.5388,217.8
110.5423,17.6
110.7417,584.8
110.7761,93.9
110.8087,110.2
110.8145,180.7
110.8235,209.2
110.8376,399.3
110.8414,715
110.9266,183.4
110.9949,88.4
111.0233,345.7
111.0426,625.6
111.0441,286.6
111.0461,145
111.0512,85
111.0617,394.9
111.0715,29
111.0845,151.9
111.1336,290.1
111.1367,87.5
111.1737,85.3
111.2453,235
111.3029,319.3
111.3178,407.5
111.3186,884.5
111.3352,294.9
111.3395,128.4
111.3433,441.1
111.3721,180.1
111.4091,539.6
111.4203,849.8
111.4294,347.7
111.4835,99.1
111.5111,535.6
111.5236,227.7
111.5656,269.6
111.6178,436.6
111.645,679.3
111.6738,292.9
111.6743,279.8
111.7176,407.7
111.7425,717.8
111.7455,94.3
111.7653,85.9
111.7671,647.8
111.7793,315.7
111.8543,89.3
111.911,182.1
111.9393,164.1
111.9421,208.3
111.9679,577.1
112.0279,179.4
112.0442,124.1
112.0473,224
112.0502,177.2
112.0914,481.4
112.1242,468.7
112.1921,178.7
112.2146,483.4
112.2279,787.9
112.2481,323.3
112.3166,769.6
112.3329,198.1
112.3536,149.8
112.3564,596.4
112.3602,764.7
112.3698,220.6
112.4245,18
112.432,92.3
112.4436,87.7
112.4486,177.6
112.5082,323.8
112.539,182.5
112.5655,288.8
112.5908,99.2
112.5961,252.5
112.6096,90.3
112.6152,83.2
112.6302,82.7
112.6369,110.1
112.638,462.1
112.6636,671.3
112.6955,120
112.6981,706.6
112.7539,529.6
112.7702,108.9
112.7864,227.1
112.7892,74.5
112.8397,537.8
112.8417,94.4
112.8958,481482.7
112.9106,276.5
112.9803,79.3
113.0191,16.1
113.0236,18.4
113.0453,193.3
113.089,16.3
113.097,214.4
113.1226,92.5
113.1246,665.5
113.1607,766.4
113.1993,160.8
113.2005,143.8
113.2622,17.4
113.29,418.9
113.3481,123.8
113.3501,584
113.3659,93.9
113.4105,84.1
113.4415,77.4
113.4682,196.4
113.4829,100.1
113.4849,884
113.5049,199.3
113.5178,543.3
113.5287,17.6
113.5304,210.2
113.5361,136.4
113.5937,361.2
113.6233,206.5
113.6465,132.1
113.655,82.9
113.7099,16.6
113.7114,88.6
113.7142,83.4
113.7258,478.4
113.7357,204
113.7519,106.4
113.7778,208.5
113.8235,131.3
113.8361,133.8
113.8455,271.6
113.885,230.8
113.9104,89.8
113.9124,163.8
113.9459,321.5
113.9752,84.3
114.0003,136
114.0551,72146.7
114.0662,1218
114.0914,51.7
114.0947,18.8
114.1054,236
114.1397,197
114.1461,89.7
114.1838,22
114.3342,650.5
114.4189,129.1
114.4442,459.2
114.4514,216.2
114.4901,714
114.5448,73.5
114.5699,163.5
114.5789,94.1
114.6421,99.7
114.7155,260.7
114.7474,78.6
114.7891,236.5
114.8026,600.3
114.8134,18.8
114.8142,92
114.8734,84.5
114.8799,137
114.8929,155116.3
114.9092,282.8
114.9303,18
114.948,19.8
114.9885,177.6
115.0008,167.8
115.0543,124.2
115.0584,1522
115.1357,109.9
115.1619,19.1
115.1841,385.6
115.1892,564.5
115.2186,151.2
115.2706,160.5
115.2859,425.5
115.3072,160
115.3126,18.8
115.3381,413.4
115.3542,17.3
115.4055,559.8
115.4325,690
115.5154,163.3
115.6022,193.5
115.624,750.1
115.6696,18.5
115.6984,116.2
115.7456,196
115.7662,88.9
115.7733,303.4
115.8022,256.8
115.813,85
115.8641,135.5
115.9021,109.5
115.9034,156.1
115.9156,301.5
115.9229,103.2
115.9304,22.5
115.9317,84.5
115.976,91.1
116.0269,77.1
116.0378,78.2
116.0508,131.8
116.0707,6923
116.1489,19.4
116.1494,19.4
116.1782,183.9
116.1993,137.3
116.2038,267.5
116.2155,78.8
116.2493,520.9
116.2524,140.8
116.2604,277.9
116.3078,132.9
116.3493,306.9
116.3519,185.3
116.3775,129.1
116.3792,697
116.4828,82
116.5049,121.1
116.5135,467.1
116.5388,136.6
116.5488,135.6
116.5507,124.1
116.5563,891.6
116.5597,459
116.5767,325.3
116.6135,449.8
116.6342,160.6
116.6723,287.4
116.6879,119.5
116.701,163
116.7133,185.1
116.7229,180.6
116.7298,488.8
116.7354,28.2
116.7443,98.2
116.7796,138.6
116.8058,217.8
116.8614,590.9
116.891,19021.7
116.9342,17.9
116.9621,521.4
116.986,2314.8
117.0203,151.4
117.0276,88.9
117.0408,152.4
117.0948,569.6
117.1402,613.1
117.1663,98
117.1989,729.9
117.2406,316.1
117.2451,101.4
117.2545,508.7
117.2778,308.5
117.2888,17.1
117.3001,89
117.3252,426.5
117.3487,295.5
117.3596,79.6
117.3851,18.1
117.4595,108
117.5147,95.3
117.5161,77.8
117.5226,169.6
117.5684,117.5
117.5911,236.3
117.6485,407.2
117.6499,113.5
117.6602,179.8
117.6947,490.5
117.7109,516.4
117.7325,325.1
117.7632,140.7
117.8,128.3
117.8431,277.5
117.9639,18.9
117.9803,400.5
117.9891,18.5
118.0651,185.7
118.0708,96.6
118.0863,187.5
118.1009,331.2
118.1059,274
118.1351,154.6
118.1522,142.8
118.252,350.9
118.2738,192.3
118.3248,15.6
118.407,390.7
118.4162,476.3
118.4472,558.9
118.4772,83.5
118.536,95.5
118.5716,121.6
118.575,328.2
118.6675,406.8
118.6743,21.1
118.6992,198.7
118.707,134.8
118.7087,470.1
118.731,18
118.8066,167.2
118.808,200.4
118.8101,392
118.8305,17.6
118.8781,208.6
118.9763,306.7
118.9818,20.2
119.0192,46.8
119.0301,525.3
119.0553,469
119.0857,24.3
119.0897,110.2
119.1294,902.1
119.1311,193.3
119.2405,129.5
119.2801,484.2
119.2951,153.2
119.3565,111.3
119.3696,105.4
119.3722,171
119.3862,17.5
119.4172,687.2
119.4293,169.3
119.4554,93.9
119.4694,78.7
119.5509,518.1
119.5568,72.7
119.5631,170.6
119.5799,93.9
119.5888,169.6
119.5973,86.5
119.6623,291.6
119.7545,92.1
119.7944,15.4
119.8202,146.1
119.8675,365.6
119.9257,17.3
119.9423,184.3
119.9471,935.9
119.9575,104.7
119.9631,80.3
119.9842,147.9
120.0033,1326.9
120.0233,19.7
120.0304,18.5
120.0522,119.2
120.0741,89.4
120.0779,650.9
120.0809,24532.7
120.0869,463.3
120.1123,137.2
120.1189,17.6
120.1462,555.9
120.1487,144.2
120.1535,92.1
120.1606,99.7
120.1957,98.7
120.2199,216.5
120.2395,381
120.2746,995.1
120.2768,95.6
120.3246,326.7
120.3263,142.2
120.39,114.9
120.4467,18.8
120.4808,193.1
120.5039,707.1
120.5399,16
120.5545,217.1
120.5937,189.6
120.599,86.9
120.6028,179.2
120.6179,89.2
120.6258,77.3
120.713,141.3
120.7715,490.8
120.8405,391.3
120.8463,884
120.8673,86
120.9028,291.9
120.9344,199.1
120.981,190.9
120.9859,107
121.0077,368.2
121.0286,322.1
121.0313,127
121.0399,48.7
121.0484,197.6
121.0566,168.2
121.0842,968.9
121.1015,153
121.1891,285.9
121.1937,531.7
121.2264,911.4
121.2477,265.5
121.2748,265.4
121.3513,78
121.3939,151.7
121.4318,174.1
121.4636,592.3
121.4857,318.9
121.4941,477.9
121.4987,155.1
121.5002,99.8
121.5141,150.2
121.5361,322.4
121.571,316.9
121.6008,463.8
121.6391,211.6
121.6479,19.5
121.6583,125.5
121.7295,92.5
121.7328,184.2
121.7418,405
121.7709,135
121.7727,609.6
121.8079,89.7
121.8425,208.3
121.8468,309.3
121.8906,738
121.9027,307.3
121.9108,760.9
121.9121,95
121.9384,104.1
121.9464,499.1
121.9555,83.6
121.9632,132.5
121.9958,473.5
122.0322,128.3
122.0359,146.2
122.0602,101.6
122.0831,85.7
122.2345,80.8
122.2389,217.8
122.3476,583.2
122.3757,197.2
122.4051,85.6
122.4401,90.7
122.4502,545.5
122.4647,17.5
122.4788,378.8
122.4949,531.8
122.5075,19.1
122.5092,573.1
122.5185,83.8
122.5216,233
122.5277,347.1
122.5298,95.6
122.5754,102.9
122.5998,131.3
122.6169,127.5
122.6467,133.8
122.667,22.7
122.6895,188.4
122.7081,110.5
122.712,175.9
122.8131,855.3
122.9247,22470
122.9502,165.6
122.9668,77.3
123.0003,408.4
123.0503,102.2
123.0806,90.3
123.1278,169.6
123.1554,164.3
123.2036,125.7
123.2433,426.5
123.2487,152.7
123.2681,18.7
123.2696,108.7
123.3183,107.4
123.3399,83.6
123.3464,231.5
123.3845,131
123.4225,180
123.4396,84.2
123.4503,523.6
123.4714,191.5
123.7423,140.4
123.8116,20.6
123.8305,988.6
123.8381,18.6
123.8428,19.6
123.8891,99.5
123.9611,122.6
123.9625,303.8
123.9802,21.5
124.0086,119.4
124.0285,91.9
124.0336,167.6
124.037,188.8
124.0797,810.6
124.0982,213
124.151,391.6
124.1584,137.7
124.1945,850.9
124.2929,210.3
124.3706,102.1
124.3744,194.9
124.383,184.6
124.3845,493.1
124.4102,230.5
124.4518,16
124.4804,497.4
124.4897,24.1
124.493,203.1
124.5281,138.2
124.535,671.1
124.5751,497
124.5757,527.7
124.5986,97
124.7121,313.1
124.7165,639.5
124.7294,464.2
124.8906,429.4
124.9085,15.4
124.9109,119
124.9198,190
124.9227,1525.6
124.9275,534.9
124.9477,173.8
124.9544,174.6
124.9634,94.1
124.9707,496
124.987,99.2
125,5402.1
125.0057,312.6
125.0391,336.1
125.0452,388
125.0599,106.8
125.069,92.5
125.0931,339.4
125.1096,17.1
125.1406,255.9
125.1867,93.6
125.2007,480.8
125.2362,184
125.2906,162.4
125.3936,813.5
125.439,232
125.4437,89.6
125.4711,172.6
125.4728,424.1
125.5078,513.8
125.5258,348
125.5545,86.6
125.5985,568
125.6335,89.3
125.6558,180.4
125.6753,81.6
125.7231,319.3
125.7291,226.8
125.8034,86.5
125.8071,205.6
125.8325,392.3
125.8372,121.8
125.8764,130
125.8862,194.5
125.9618,133.8
125.9899,96.1
125.9928,131.1
126.0093,599.9
126.1695,879.4
126.1992,892.8
126.2384,439.6
126.2468,83.4
126.2644,107.6
126.3271,165.3
126.3684,89.2
126.429,252
126.5487,644.4
126.5592,407.7
126.5702,953.5
126.5761,178.4
126.6389,17.2
126.7664,281.9
126.7754,104
126.7859,311.4
126.7902,16.2
126.8171,258.2
126.8313,395.7
126.8577,192.3
126.9127,131.3
126.9218,240.2
126.9263,518.6
127.0078,20.5
127.0117,298.4
127.0273,501.9
127.048,119.8
127.0756,189.8
127.1401,157.2
127.1463,211.7
127.1888,387.3
127.2078,19.2
127.2209,206.1
127.2213,208.7
127.2221,235.2
127.2887,437.8
127.292,530.8
127.3214,459.1
127.4128,547.1
127.4275,496.2
127.43,188.6
127.4914,486.4
127.4961,78.2
127.5274,21.1
127.5534,781.4
127.5642,239.5
127.577,450.5
127.5998,213.8
127.6113,82.8
127.6213,224.2
127.6546,122.8
127.6731,172.6
127.6767,151.2
127.6901,489.5
127.6974,169.5
127.7293,164.3
127.7317,211.1
127.7668,768.6
127.8084,744.2
127.849,639.4
127.9128,153.4
127.9153,104.1
127.9223,204.1
127.9322,524.3
128.0047,187
128.023,177.6
128.0383,16.2
128.0418,18.3
128.0593,97.5
128.117,386.6
128.1394,675.7
128.1664,276
128.2197,169.7
128.2734,255
128.2763,517.7
128.3303,103.9
128.351,19.5
128.3799,778.3
128.3872,323.1
128.4377,661.3
128.4907,99.5
128.5358,18.6
128.5508,151.5
128.609,342.2
128.6459,419.1
128.6934,246.2
128.6999,152.5
128.7199,136.8
128.7468,16.4
128.8097,128.7
128.8492,176.1
128.8583,237.9
128.8812,97.3
128.8873,305.5
128.9205,88.7
128.95,462.8
129.0115,330.1
129.1024,1023.8
129.1439,145.2
129.212,614.9
129.2589,125.8
129.3185,268.4
129.3659,496.8
129.3806,205.8
129.4325,89.3
129.4468,1035.8
129.4526,172.5
129.489,473.4
129.5168,82
129.6118,19.3
129.6179,214.2
129.6361,104.5
129.6611,513.3
129.6853,613
129.7151,77.3
129.7423,20.4
129.7885,93.9
129.7951,254.5
129.84,107.9
129.8661,720.2
129.8816,398.2
129.8937,359.5
129.905,101.9
129.9263,279.9
129.9507,300.4
130.0254,220.3
130.0501,14049
130.144,79
130.1529,113.8
130.1679,311.3
130.1755,73.5
130.1807,19.8
130.4065,704.3
130.4422,328.9
130.4565,214.6
130.5114,101.9
130.5219,664.1
130.6224,88.5
130.6466,80.6
130.6723,86
130.6941,690.3
130.6961,145.1
130.697,160.2
130.7313,259.2
130.7484,84.7
130.76,583.2
130.7832,745.3
130.8322,654.6
130.865,114.9
130.8832,168.9
130.8889,80.1
130.8913,110.3
130.9002,211.9
130.9307,104.5
130.9452,123.9
130.9822,90.5
130.9851,85.2
130.9966,161.6
131.0016,805.6
131.015,117.9
131.0545,139.6
131.057,111.3
131.0688,258.5
131.0764,258.1
131.1163,165
131.188,197.1
131.1984,468.6
131.2737,867.7
131.2949,522.1
131.3078,369.1
131.3218,188.9
131.4162,227.2
131.4254,294.4
131.4271,21.5
131.4855,83.9
131.4944,160.2
131.5259,107
131.6913,109.5
131.7222,85.5
131.743,79.2
131.7956,223.5
131.8323,16.8
131.8793,368.6
131.9729,93
132.0034,29643
132.0164,152.1
132.0379,95.2
132.0407,589.4
132.0575,106.5
132.0657,122047.4
132.0679,345.3
132.091,18
132.1038,18.4
132.1287,82.1
132.1344,127
132.1706,524
132.2593,224.2
132.2748,305
132.2762,16.4
132.3237,491.5
132.3301,259.3
132.3567,167.3
132.3634,788.7
132.3788,143.9
132.4036,17.4
132.4267,197
132.4842,16.7
132.54,17.5
132.5659,109.2
132.658,160.5
132.6923,728.2
132.7081,100
132.7446,314.3
132.7605,779.5
132.8124,841.9
132.8428,412.9
132.8541,542.6
132.8587,87.4
132.8812,275.4
132.9029,21.7
132.9146,624.9
132.9533,437.3
132.9574,263.9
132.9667,99.3
132.9874,1971.5
132.9974,514.8
133.0377,151
133.0619,222.9
133.069,4344.3
133.0726,225.2
133.0863,17.3
133.0974,21420.2
133.1016,374.3
133.1349,163.3
133.167,597.8
133.1925,116.2
133.2055,178.2
133.2752,130.4
133.2791,145.8
133.3336,93
133.358,17
133.3777,752.9
133.3999,17.5
133.4429,586.3
133.4473,168.6
133.5831,114
133.6514,87.4
133.6978,838.2
133.7219,18.2
133.7389,329.7
133.8088,307.9
133.8149,178.5
133.8375,190.6
133.8584,68.4
133.8865,207.4
133.8982,442.4
133.909,574.5
133.9274,323.5
133.9488,86.4
134.0033,155
134.019,11804.3
134.0385,181.7
134.066,303.5
134.1059,215.7
134.1752,183.5
134.1812,198
134.1884,17.9
134.2142,106.7
134.2316,624
134.2506,459.7
134.3258,96.9
134.3331,489
134.3876,619
134.3908,148.8
134.4569,145.7
134.4574,147.6
134.4882,444.4
134.4957,169.4
134.5315,184.7
134.5469,670
134.569,18.8
134.7626,436.1
134.7658,678.5
134.7843,17.7
134.7989,339.8
134.8886,547.8
134.8904,150
134.9319,156.5
134.9344,624.5
134.9382,125.5
134.9702,121.7
134.9837,447.9
134.9966,92.2
135.0031,56181
135.0238,17.6
135.0798,546.7
135.1651,91.3
135.193,94.3
135.1985,789.8
135.2006,19.8
135.2114,17.6
135.2447,101.1
135.3283,319.4
135.3306,496.2
135.4904,166.4
135.5116,19.8
135.5425,87.5
135.5582,118.3
135.5779,119.5
135.6052,19.9
135.6109,161.8
135.6659,209.1
135.7867,136.9
135.8027,92.1
135.8048,197.9
135.906,371.7
135.9568,83.6
135.9734,20.8
135.9773,2269.3
135.9832,275.6
136.0065,304.5
136.0081,541.7
136.0264,142.7
136.0484,8632.5
136.0679,186.9
136.0759,17396.2
136.099,15.5
136.1157,426.1
136.1563,699.9
136.1616,358.3
136.1668,324
136.1802,205.1
136.1935,146.5
136.2719,93.9
136.2922,784.4
136.3085,473.4
136.3801,756.6
136.4134,281.4
136.4918,20.3
136.5193,468.8
136.5245,99.8
136.5937,89.8
136.6041,299.6
136.6256,124
136.7011,118.5
136.7314,291.6
136.7825,85.6
136.8322,267.8
136.8707,113
136.9313,127.2
136.9348,207.4
136.9578,774
136.9763,136
136.9796,192.8
137.0026,355
137.0141,96.8
137.0262,452.2
137.0599,31.4
137.0792,233.8
137.1075,119.3
137.1426,192.7
137.1469,96.2
137.1641,19.4
137.1756,217.8
137.1924,102.7
137.2699,823.1
137.2842,88.2
137.313,512.3
137.3542,226.8
137.3585,632.1
137.365,138.8
137.5258,124.8
137.587,248
137.6517,109.5
137.6883,465.5
137.7084,307.7
137.7293,154.6
137.7549,874.8
137.7692,115.2
137.8539,102.8
137.8594,142.4
137.8873,496
137.8895,18.3
137.9538,22.3
138.0498,234
138.0528,7206.2
138.0666,20.6
138.1085,258.2
138.1878,22.5
138.1895,298.6
138.1933,102.6
138.2065,292.6
138.213,106.6
138.2211,522.8
138.2758,160.2
138.2937,85.8
138.3235,387.2
138.3594,17.9
138.3808,402.6
138.3978,153.9
138.4143,523.2
138.4682,224
138.4837,338.8
138.5063,639.1
138.559,19.2
138.6007,18.9
138.608,317
138.72,137.3
138.7418,17.1
138.7593,88.9
138.8809,208.1
138.9067,1889.6
138.9116,154.6
138.9296,707.7
138.9857,455.3
139.0097,19.6
139.0481,89.7
139.056,19.1
139.0702,15.8
139.103,195.2
139.1542,94.1
139.1847,782.2
139.2548,585
139.3388,239.8
139.3422,76.4
139.4325,94.6
139.4561,174.1
139.4948,92
139.5521,167
139.582,429.6
139.6089,86.9
139.6181,215
139.6323,123
139.7048,136.8
139.7063,154.2
139.7084,175.5
139.75,93.1
139.7603,155
139.8485,144.5
139.87,114.6
139.9023,244
139.9101,19.4
139.9164,92.2
139.9208,123.5
139.9398,101.6
139.9881,132.9
139.997,135
140.0004,486.4
140.0167,1078.2
140.0261,18.9
140.0302,154.5
140.0684,2583.4
140.1642,134.7
140.1877,151.3
140.199,275.1
140.21,622
140.2313,424.5
140.2468,113.6
140.2761,294
140.3382,146
140.3656,17.9
140.3725,283.2
140.3936,638.1
140.4082,182.3
140.528,381
140.557,79.9
140.5623,146.8
140.6076,418.2
140.6345,591.4
140.6451,609.6
140.6723,305.5
140.6882,534.8
140.7163,140.5
140.7196,160.6
140.7706,82.2
140.7734,148.1
140.7827,124.4
140.8211,87.8
140.8362,454.4
140.8744,84.3
140.8892,816.9
140.9037,589.4
140.922,437.6
140.9689,357.8
140.9713,21.7
140.9969,23.4
141.0007,19828.1
141.003,151.5
141.0267,589.6
141.0527,93.2
141.0643,523.7
141.0862,158.7
141.1026,469.5
141.1063,149.3
141.1631,106.1
141.1667,160.8
141.201,438.2
141.2437,456.7
141.28,91.4
141.2904,181.8
141.3183,263.9
141.3481,314.2
141.4051,205.1
141.4566,129.7
141.5759,233.8
141.6164,18
141.6315,20.5
141.6644,117
141.7247,625.1
141.7324,706.1
141.7358,130.7
141.9501,18.5
141.9564,367.7
141.9675,508.9
141.9747,84.6
141.9837,118.6
142.004,681.4
142.0089,18.5
142.0178,286.4
142.0309,226.4
142.0324,82.9
142.0478,801.9
142.0721,562.7
142.0756,170.1
142.1064,373.5
142.1302,231.6
142.1339,681.4
142.1355,81.6
142.2326,816.4
142.2658,584.8
142.273,154.6
142.3157,182.5
142.3281,304.6
142.3411,190.3
142.3782,373.8
142.442,190.2
142.4699,725.8
142.4785,113.3
142.4793,178.4
142.48,167.8
142.5571,364.4
142.6517,123.9
142.6592,213.1
142.6757,19.4
142.7036,88
142.7329,142
142.7609,107.7
142.8127,100.4
142.8662,77.7
142.8764,18.6
142.9127,268.1
142.9388,2721
142.9815,90.2
142.9965,203.6
143.0189,1148.4
143.055,176.7
143.0818,283.9
143.1119,460.5
143.114,20.1
143.1165,806.1
143.1285,489.1
143.209,138.1
143.2491,108.9
143.289,22.1
143.3006,140.5
143.3233,159.5
143.3895,120.9
143.4058,540.9
143.4812,566.1
143.494,95.7
143.5176,196.1
143.5328,126
143.6257,364.2
143.6902,513.8
143.7109,18.8
143.7297,107.6
143.7871,838.4
143.7943,174.2
143.8192,148.2
143.8279,356.1
143.8476,272.1
143.8619,19.4
143.9016,238.4
143.93,619.6
143.9734,192.4
143.9842,195.1
143.9971,342.4
144.0633,68
144.2049,162.4
144.2241,434.2
144.3023,531.7
144.3293,278.1
144.3327,18.6
144.349,80.9
144.3722,138.2
144.3887,102
144.443,186.8
144.4509,301
144.5651,163.4
144.5788,19.4
144.593,116.5
144.6238,102.8
144.6545,309
144.6953,109
144.7556,19.7
144.7928,102.4
144.8052,94.2
144.822,175.7
144.8404,189
144.863,88.7
144.981,2619.2
144.9898,19.8
145.0462,154.8
145.066,421.2
145.0669,408.2
145.0725,799.7
145.1422,333.4
145.1553,74.6
145.1677,526.8
145.2259,455.9
145.3104,211.7
145.3209,654.2
145.3288,486.7
145.3324,188.4
145.3689,87.2
145.3811,91.3
145.3977,216.1
145.4216,73.1
145.4579,135.2
145.4835,95.5
145.4963,480.5
145.5321,144.3
145.5959,157.9
145.6234,117.4
145.6569,328.8
145.7277,102.8
145.7459,88.1
145.7982,93.1
145.8233,515.5
145.8257,109.4
145.8463,572.7
145.8727,526.9
145.8734,484.2
145.8744,141.9
145.8829,494.7
145.922,365
145.9539,186.1
145.9625,97.7
145.9695,19.2
145.9767,814.8
145.981,19.1
146.0127,7755.9
146.0191,22597.3
146.0443,25.8
146.0658,500.4
146.077,278.4
146.1301,347.1
146.2272,133.3
146.2361,453
146.2633,508.6
146.3998,584.5
146.4063,191.6
146.4143,107.9
146.4455,115.9
146.5561,452.7
146.5643,77.8
146.5905,20.9
146.6588,19.9
146.7028,16.4
146.7116,200.3
146.7894,436.6
146.8029,604.8
146.9472,21.8
146.982,112111.2
146.9974,16.4
147.0039,95.5
147.0226,161.4
147.0767,88750.7
147.1131,40641.9
147.117,248
147.1531,314.8
147.1612,169.2
147.1806,397.4
147.3001,528.2
147.3045,198.6
147.4336,18.3
147.4938,257.9
147.5973,212.7
147.6237,100.2
147.6797,16.9
147.6898,83.5
147.7137,214.4
147.7155,90.4
147.7233,475.4
147.7634,92.7
147.8244,821.2
147.8286,522.9
147.8309,17.5
147.8322,19.1
147.8763,17.5
147.8933,753.1
148.0134,300.8
148.08,815.2
148.1148,91.1
148.1161,580.1
148.1662,209.9
148.1756,132.5
148.1851,481.3
148.2489,780.6
148.2735,203.6
148.357,459.4
148.3652,76.6
148.4198,17.6
148.4645,15.9
148.5209,127
148.5215,170.9
148.5226,99.9
148.5324,2475.2
148.5607,311.3
148.563,395.5
148.5642,84.1
148.6429,16.9
148.6591,94.8
148.6733,837.2
148.6887,196.7
148.7085,349.1
148.7352,100.9
148.7688,207.1
148.8341,73.5
148.8458,162.5
148.8859,179.1
148.9615,3329.9
148.9885,79.6
149.0188,2522.7
149.0236,6554.8
149.0451,31.6
149.0861,151.8
149.1292,179.5
149.1328,22.4
149.1402,17.8
149.1701,157
149.203,176.1
149.2545,237.9
149.2595,472.7
149.2762,141.3
149.3132,256.9
149.3462,154.8
149.3485,120.2
149.409,272.4
149.4131,392.3
149.427,84.1
149.4794,750.5
149.5108,670.6
149.5849,15.5
149.6286,701.6
149.6527,18.4
149.6555,101.8
149.7143,140.7
149.7879,474.4
149.794,89.9
149.839,131.8
149.9117,315
149.9387,144.6
149.9637,577.6
149.9679,101.6
149.9803,161.8
149.9931,8799.8
150.0102,307.5
150.014,3043.6
150.0164,216
150.0269,59.1
150.0627,128.9
150.071,21.1
150.0789,96.7
150.1424,19.4
150.1521,505.7
150.1592,408
150.175,89.6
150.1905,171.3
150.246,223.4
150.2684,97.7
150.2801,211.8
150.3171,491.6
150.4159,478
150.4229,137.3
150.4444,226.8
150.4688,380.3
150.4813,729
150.4956,129
150.519,90.2
150.5375,252.8
150.538,252.2
150.5388,136.4
150.624,118.5
150.6949,88.3
150.7053,196.7
150.7272,570.3
150.7487,295.9
150.757,107.1
150.8327,131.9
150.9771,41926.2
150.9843,179.3
151.0481,4028.6
151.0807,820.2
151.096,162.8
151.0991,159.7
151.3336,761
151.3418,19.8
151.353,130.9
151.3675,402.3
151.4406,309.6
151.459,18.6
151.5215,76.4
151.5334,18.4
151.5485,664.9
151.6308,19.5
151.7169,269.2
151.7385,534.4
151.7624,578.6
151.8596,81.5
151.8741,125.6
151.8878,209.5
151.8981,384.8
151.9365,250.1
151.9666,695.9
152.0223,14210.8
152.0321,3985
152.0398,104.2
152.0675,267.2
152.1332,474.4
152.1362,74.7
152.1604,349.2
152.174,921.3
152.1841,19.3
152.2071,20.1
152.2102,550.1
152.2211,147.5
152.2245,97.4
152.2291,120.1
152.3528,19
152.3723,143.2
152.3757,102.5
152.5761,306.5
152.5991,615.6
152.6377,18
152.7173,304.1
152.7478,97.1
152.7716,93.6
152.9752,1079.5
153.0209,111.1
153.0451,229.7
153.0608,185.9
153.123,99.6
153.1679,527.6
153.1948,18.4
153.2382,197.9
153.2711,18.5
153.2756,79.3
153.305,104.5
153.3219,251
153.3413,798.3
153.3459,511.2
153.5855,478.8
153.6296,201.3
153.6539,84.1
153.7077,97.9
153.7096,742.3
153.7185,471.7
153.7311,245.7
153.7756,18.6
153.7985,200.4
153.8253,287.7
153.8478,286.9
153.8515,17.4
153.8568,20.5
153.8728,485.8
153.8874,85.7
153.972,185.3
154.0114,546
154.0209,24.6
154.0235,143.6
154.0268,1399.6
154.0829,180.4
154.1048,203.3
154.183,324
154.2235,590.5
154.2651,98.1
154.3242,161.7
154.3338,110
154.3828,202.9
154.4278,157.3
154.4461,97.8
154.4526,316.7
154.4709,472.9
154.4875,575.2
154.5341,185.7
154.5454,294.9
154.5605,153.6
154.5673,100.3
154.62,154.6
154.6822,160.4
154.8127,276.7
154.8334,16
154.8364,624.9
154.842,21.5
154.8807,587.1
154.9075,40.8
154.942,51.2
154.9464,95.4
154.9539,82.4
154.9598,88.8
154.9649,316.4
154.9902,656.7
155.0059,597.3
155.0328,120.7
155.043,1932.7
155.0496,1259.1
155.0542,4382.5
155.0741,792.7
155.0796,666
155.1399,336.8
155.1822,80.9
155.1959,155.7
155.2616,743.3
155.2979,199.7
155.3047,558.5
155.3849,226.3
155.4586,149.6
155.4989,366.8
155.5037,305.3
155.56,208.3
155.644,928
155.7001,299.8
155.7249,241
155.7342,196.7
155.7439,327
155.813,136.6
155.8532,98
155.9291,607.3
155.9459,17.8
156.0271,117.1
156.0423,3627.6
156.0575,70.3
156.0673,18.6
156.0771,78242.1
156.1065,119.4
156.134,85.4
156.1347,97.4
156.1357,90.3
156.268,165.8
156.3972,94.8
156.4061,83.4
156.4402,106.8
156.4606,126.7
156.4723,296.4
156.4887,94.1
156.5263,241.9
156.5602,325.6
156.6288,344.6
156.6425,145.7
156.6845,86.7
156.6872,512.6
156.7079,118.5
156.7346,17.1
156.7426,20.4
156.7599,103.4
156.7895,464.4
156.8063,83.6
156.8552,100.2
156.8774,302.8
156.9269,473.6
156.9545,191.1
156.9747,72.6
157.0449,83.6
157.0653,722.6
157.0807,893.4
157.0974,200.1
157.1217,294.2
157.1496,478.2
157.1819,913.2
157.2201,132.8
157.2763,598.7
157.3193,87
157.3586,195.4
157.3895,141.2
157.4321,410.3
157.4373,233.3
157.4664,82.2
157.4909,568.9
157.493,265.6
157.5026,195.4
157.5071,304.8
157.5173,805.2
157.5207,145
157.63,154.6
157.6799,20.2
157.6933,390.7
157.7277,306.4
157.8246,150
157.8955,837.9
157.9115,19.9
157.9683,93.9
158.0014,132
158.0127,1060.5
158.0274,4685.5
158.0397,18.9
158.0421,87.2
158.0602,140
158.0745,619.4
158.079,340.8
158.0925,476.2
158.1586,415.3
158.176,571.3
158.2029,155.5
158.2484,153.6
158.2678,789.4
158.3216,474.9
158.325,18
158.3708,277.3
158.3992,240.4
158.5291,436.9
158.5423,94.2
158.6632,73.5
158.6868,113.6
158.7291,221.1
158.7397,17.8
158.7903,562.6
158.9169,76.1
158.928,975.6
158.9644,7486.6
158.9968,6174.3
159.0061,216.2
159.0113,76.9
159.0307,146.4
159.0732,195.7
159.0767,665
159.0849,89.4
159.0885,760.4
159.0921,856.7
159.1142,365.4
159.2115,147.7
159.2533,399
159.2993,20.3
159.3478,19.1
159.3609,852.9
159.4042,17.6
159.4087,708.3
159.4216,405.6
159.4415,136.7
159.5306,655.2
159.6084,109.9
159.65,81
159.7257,304.7
159.7337,351.1
159.7425,160.2
159.7482,997.7
159.7685,114.5
159.8818,328
159.9045,674.7
159.9726,113.5
160.0232,89.6
160.0286,193.3
160.0348,14083.4
160.0608,130617
160.0675,107.9
160.1064,107.5
160.1524,21.5
160.158,81.3
160.2311,226.5
160.2481,108.8
160.265,205
160.3442,266
160.3619,155.1
160.4009,91.4
160.4289,123.2
160.4746,718.6
160.4862,137
160.4923,74.3
160.5427,17.4
160.6172,167.2
160.6864,80.7
160.6902,146.5
160.7164,307.4
160.7421,376
160.8089,18.7
160.8623,337.9
160.9151,149.8
160.9463,140.7
160.979,80.6
160.9909,61
161.0135,205.8
161.0183,114.4
161.0641,5864.2
161.1288,1668.8
161.133,115.1
161.1389,197.3
161.2985,479.6
161.3392,19.3
161.3496,309.7
161.3581,21.8
161.3606,335.5
161.3775,221.7
161.4637,301.5
161.5006,574.4
161.512,832.1
161.5557,20.4
161.5754,329.1
161.6054,153.9
161.6776,579.3
161.6863,91.3
161.6883,305.5
161.7,131.8
161.7394,238.6
161.745,128.5
161.7556,493.3
161.8432,113.6
161.8623,90.3
161.8644,84.4
161.8787,550.3
161.9746,84.2
161.9807,72.2
161.9857,205.4
161.9943,158.2
162.0076,153.1
162.0336,109.9
162.0505,16302.6
162.0605,84.8
162.0806,303.2
162.1127,167.7
162.1392,173.6
162.1416,815.6
162.1825,568.7
162.2536,244
162.337,89.6
162.3836,113.6
162.3956,18.1
162.4895,290.4
162.5035,203.1
162.5899,129.2
162.6486,890.3
162.6632,243.8
162.6888,17.7
162.7134,431.5
162.7177,112.8
162.7276,84.9
162.7477,80
162.8808,477.5
162.9173,19.1
162.9481,85.1
162.956,4196.9
162.9929,844.6
163.0159,1121.1
163.0443,154.9
163.1783,153.5
163.2043,70.6
163.2313,17.5
163.234,780.3
163.3323,328.2
163.4059,187.7
163.4131,237
163.4383,115.2
163.4736,859.1
163.519,281.3
163.5917,182.1
163.629,318.7
163.6315,18.3
163.6419,176.8
163.6486,147.6
163.6492,145.1
163.6582,387.8
163.6703,19.7
163.6884,558.8
163.7204,590.6
163.7749,804.9
163.7839,486.5
163.801,421.4
163.8136,75.6
163.8194,136
163.8671,171.7
163.9113,161.6
163.9629,86
164.0297,12199.6
164.0779,912.9
164.1025,110.5
164.1125,170
164.1376,16.7
164.152,689.7
164.1658,831.1
164.206,219.7
164.3191,287
164.3454,78.4
164.3821,21.1
164.4171,197.2
164.4694,156
164.4975,849.6
164.5304,99
164.5622,114.3
164.8346,199.9
164.8629,375.2
164.8653,132.4
164.8926,110.5
164.9005,251.3
164.9209,5518.7
164.9269,120.5
164.9304,11075.6
164.9355,2216.2
164.9408,813.6
164.9457,106.3
164.949,85
164.9929,1034.6
164.9969,16.5
165.0166,468.5
165.0814,112.8
165.0912,746.1
165.1481,201
165.1702,81.7
165.235,291.1
165.3981,110.3
165.4798,326.5
165.5058,662.2
165.5195,18.5
165.5538,743.8
165.5698,302.3
165.5867,720.1
165.6069,17.3
165.7208,101.4
165.7302,128
165.763,84.1
165.7986,389.4
165.8058,254.2
165.9147,353.9
165.967,2823
165.979,2294.1
165.9881,5082.8
165.997,20.9
165.9998,420.1
166.0616,919.4
166.0921,198.5
166.1043,169.1
166.1172,293
166.1192,754.9
166.1791,19.3
166.2967,415.1
166.3982,80.5
166.4583,123.8
166.4713,19.7
166.5536,97.9
166.5589,204.9
166.6601,167
166.731,187.7
166.8605,19.9
166.9394,396.3
166.9511,18532.8
166.9722,17.6
167.0044,203.5
167.0091,94
167.0221,5993.6
167.0407,193.2
167.0554,88.6
167.0734,111.4
167.081,160
167.0965,100.7
167.1101,192.7
167.1288,111
167.1447,169.7
167.1504,111.6
167.2237,474.4
167.2852,89.9
167.2977,99.1
167.304,509.4
167.4013,87.6
167.418,19.2
167.6772,302.3
167.7191,21.3
167.8162,302.4
167.9271,520.8
167.9293,85.8
167.9948,6464.2
168.0024,181.7
168.006,1703
168.1464,455.3
168.1901,126.5
168.2073,186.9
168.2411,149.8
168.2466,111.5
168.2879,264.7
168.3014,242.6
168.3694,212.2
168.4096,315.3
168.4112,147.8
168.4688,147.3
168.4835,87.1
168.4878,201.6
168.522,187.6
168.5697,101.4
168.5858,141.6
168.682,100.9
168.7636,173.3
168.8685,382.7
168.9428,585.6
168.9493,524.6
169.0349,21.3
169.0588,63505.8
169.0652,1533.2
169.0673,95.8
169.0952,2878.9
169.0976,715.7
169.1637,141.9
169.1851,108.5
169.1976,255.2
169.2332,130.2
169.3097,193.3
169.3355,289.7
169.3438,235.5
169.3504,17.3
169.3717,98.9
169.422,539.1
169.4342,112.4
169.4912,127.2
169.5866,71.6
169.6575,80.9
169.6735,77.7
169.6909,136.3
169.708,202.9
169.7196,891.1
169.7676,135.8
169.906,174.1
169.9166,157
169.9345,20.5
169.9605,19.6
169.9818,83.3
169.9864,593.7
169.9964,18.1
170.0251,383.2
170.0329,3454.5
170.0824,277.7
170.0928,3836.2
170.1305,272.4
170.158,334.5
170.1669,305.7
170.2082,736.6
170.221,107.6
170.2667,201.2
170.2991,113
170.3025,718.6
170.3393,21.7
170.3701,150.5
170.3916,18.9
170.4099,458.1
170.4338,88.5
170.4584,16.8
170.512,415.2
170.6028,94.6
170.6053,88.8
170.6154,786.7
170.7387,246.9
170.7453,570.5
170.7784,88.5
170.8547,3794.7
170.8574,432.7
170.9189,110.2
170.9734,547.2
171.0089,170.7
171.0138,528.8
171.0169,479.8
171.0217,106.3
171.0283,412.2
171.0328,567
171.0455,137.2
171.0536,508.8
171.0653,20
171.1223,260.3
171.1699,229.6
171.1948,208
171.2256,20.2
171.2503,18.2
171.3203,571.3
171.3573,1283.8
171.3686,334
171.3911,92.8
171.4602,243.8
171.4696,22.9
171.4761,568.1
171.4784,130.4
171.4991,531.2
171.5297,196.4
171.5764,629.9
171.6711,20.4
171.729,82.4
171.7485,77
171.7499,80.5
171.8018,187.6
171.8232,98.3
171.9608,419.2
171.992,160.3
171.9968,16.9
172.0284,1566
172.039,18.5
172.0978,108.2
172.1123,173
172.1492,179.2
172.1661,615.6
172.2003,504.2
172.2066,615.3
172.2335,520
172.2613,292.4
172.2881,106.5
172.3839,409.1
172.4423,268.4
172.6312,100.4
172.6323,102.8
172.65,696.4
172.6634,101.8
172.6957,325.6
172.7442,132.5
172.8266,128.1
172.8399,114.7
172.8517,3214.4
172.8849,17.6
172.9424,18.2
172.9493,324.9
172.9527,27.5
172.9991,269.3
173.0271,379.1
173.0302,1570.3
173.0362,549.2
173.0526,86.9
173.0721,227.2
173.0844,19.7
173.1191,147.3
173.269,18
173.3388,383.8
173.381,701.3
173.6178,660.7
173.7172,217.1
173.7264,249.1
173.7667,455.1
173.8285,124.6
173.8365,23.6
173.9108,102.3
173.9674,398.6
174.0011,91.9
174.0139,95.3
174.0303,22.6
174.0678,18.9
174.0925,87.4
174.1087,222.8
174.1186,100
174.1557,343.4
174.1876,86.4
174.2124,493
174.2185,180.2
174.2482,100.3
174.3336,22.6
174.4093,85.1
174.4281,20.2
174.4445,413.3
174.4995,318.5
174.5037,117.4
174.7491,187.7
174.7777,204.2
174.8022,449.7
174.8428,505.2
174.8503,378.4
174.857,171.8
174.8796,740.5
174.8961,130.5
174.9384,2557.2
174.9635,135.6
174.9846,122.1
175.0139,144.2
175.0345,7762.9
175.0458,4083.3
175.1124,20.8
175.1194,115782
175.1934,128.5
175.2005,87.9
175.2053,235.5
175.2191,21
175.2586,395.9
175.2626,75.2
175.3328,469.4
175.4675,214.3
175.6472,85.6
175.6629,113.1
175.6729,812.4
175.6957,94.8
175.7152,456.5
175.7295,17.5
175.7653,95.3
175.8185,21
175.8244,548.2
175.9037,206.5
175.9604,219.8
176.0089,8135.4
176.0336,239.5
176.0611,553.3
176.0662,26299.9
176.0948,498
176.1035,1887.6
176.1109,218
176.1166,101.2
176.119,632.1
176.1227,2316.4
176.14,107.2
176.1529,84.1
176.2057,117.5
176.4608,117.7
176.489,171.8
176.5374,77.6
176.5495,115.7
176.5673,576.7
176.6346,600.4
176.6816,121.2
176.6904,92.7
176.7196,173.6
176.7432,748
176.7738,717.1
176.8447,319.2
176.9004,143.3
176.9928,1749.5
177.0251,3988.1
177.0615,7822.7
177.0696,533.6
177.0842,798.5
177.0874,1892.8
177.149,155.3
177.1895,708.1
177.2318,103.5
177.4227,75.8
177.4356,16
177.5954,175.8
177.6381,168.1
177.6548,201.2
177.6727,202.5
177.7302,789.2
177.7796,386.9
177.7878,153.6
177.8075,527.2
177.8146,212.4
177.8563,114.6
177.863,526.5
177.8968,654.9
177.9627,82.9
177.9698,317.2
177.9795,184.6
177.9922,111.3
178.0091,13134.1
178.0246,9311.5
178.0591,8919.3
178.1804,25.4
178.187,664.1
178.224,234
178.2506,100.7
178.2575,202.6
178.3952,22.3
178.4192,205.9
178.4387,247.3
178.5653,542.2
178.583,864.1
178.5901,302.6
178.6378,122.9
178.6552,18.4
178.7529,508.5
178.8764,689.4
178.9456,17.5
178.9745,114.2
179.0085,353.6
179.0481,327.7
179.0912,490.5
179.098,83.5
179.1343,204.3
179.1374,126.2
179.2026,150.3
179.2177,80.6
179.2305,509
179.2503,217
179.3449,122.6
179.3487,338.9
179.513,717.7
179.5482,166.3
179.6011,117
179.7226,24
179.7401,16.6
179.745,134.9
179.7728,546.6
179.7858,274
179.7965,71.9
179.8935,112
179.9121,194.9
179.9286,546.3
179.9537,72.8
180.0038,9699.5
180.0149,101.3
180.1376,127.6
180.1541,95.5
180.2405,112.7
180.34,849.2
180.3611,340.5
180.3706,18
180.4182,289.4
180.4278,91.7
180.4358,402.1
180.4786,105.5
180.4826,142.7
180.5012,175.1
180.5281,415.2
180.5475,83.6
180.637,84.3
180.6596,216.6
180.7884,200.2
180.7991,498.8
180.8435,409.2
180.8949,3669.1
180.9045,7638.4
180.924,91
180.952,445.7
180.958,747.5
180.9667,283.9
180.9965,596.4
181.0099,68.8
181.0478,573.9
181.0623,141.6
181.0653,14089.7
181.0739,102.1
181.0955,107.5
181.1208,167
181.1281,17.8
181.1319,140.2
181.1653,469.4
181.187,19.3
181.2097,348.4
181.2409,112.7
181.3025,593.9
181.3269,81.6
181.3305,435
181.3753,94.9
181.3953,185.5
181.3991,550.4
181.426,503.2
181.4374,168.2
181.463,560.2
181.4724,123.9
181.4752,18.2
181.5666,523.3
181.6245,557
181.6323,169.2
181.6451,607.6
181.6743,549
181.7688,19.2
181.8409,140.5
181.8467,162.7
181.9318,131.8
181.9882,115.1
182.0128,98.7
182.016,38.7
182.0429,44778.3
182.0652,141.1
182.1688,217.1
182.2251,740
182.2583,200.5
182.2664,657.8
182.3073,111.6
182.3458,159.6
182.4855,102.6
182.549,120.2
182.5765,138.3
182.6042,240.4
182.6357,129.9
182.6632,17.9
182.6877,83.1
182.7447,413.4
182.7484,169.1
182.7696,88.3
182.8195,344.4
182.8236,17.3
182.9027,94.2
182.9702,226
182.9871,19.6
182.9908,680.7
183.0192,98.5
183.0377,75
183.0449,3789.5
183.0653,511.4
183.1064,743.1
183.1097,266.8
183.1617,98.9
183.1788,126.5
183.3354,409.8
183.3463,202.3
183.4673,95.5
183.4705,18.4
183.4797,21.1
183.4903,19.4
183.5494,169.7
183.6006,216.7
183.6767,20.4
183.6815,192
183.7069,91.3
183.7284,16.1
183.7935,518
183.8498,134.5
183.8648,586.2
183.9651,313
183.9932,105.8
183.9991,903.1
184.0372,154
184.0378,149.1
184.061,131.4
184.0738,3938753.3
184.0953,539.3
184.1099,648.9
184.17,37
184.1823,921.6
184.208,294.4
184.2693,19.7
184.361,579
184.4468,351.3
184.4637,81.6
184.5229,130.5
184.5592,144.8
184.6084,584.7
184.6295,382.6
184.6531,195.4
184.6659,202.6
184.8218,429.6
184.8438,195.5
184.8498,503.1
184.9111,85.5
184.9166,446.2
184.9912,148.5
184.9998,335.8
185.016,203.8
185.0328,74674.7
185.0455,218.4
185.0478,96.8
185.0707,5971.9
185.0771,178417.1
185.087,583.3
185.1572,500.9
185.2901,115.8
185.3058,16.7
185.3159,180
185.3601,1006.1
185.4448,608.5
185.4797,682.9
185.4964,264.1
185.5422,17.7
185.6021,345.9
185.6715,97.7
185.7655,119.3
185.7864,197.7
185.8455,483.4
185.9602,489.5
185.9989,553.1
186.0219,262.9
186.0269,192.8
186.0276,186.7
186.0359,845
186.078,23633.3
186.0866,88.7
186.1047,117.8
186.1192,18.1
186.1437,16
186.1967,186.9
186.2126,133.4
186.2413,190.2
186.2726,200
186.2769,87.4
186.397,16.9
186.4799,18.5
186.4839,481.4
186.5193,168.1
186.5286,183.1
186.5791,147.3
186.6832,183.5
186.6899,368.3
186.7361,121.6
186.7546,245.8
186.9124,1928.8
186.9311,219.4
187.0198,17.6
187.0309,2598
187.0476,18.4
187.0582,7563.3
187.0633,325.2
187.0717,2438.4
187.1083,1776.2
187.1364,365.2
187.1953,20.3
187.2105,110
187.2503,104.1
187.3003,191.7
187.3123,776.8
187.4132,176.3
187.4871,108.9
187.4887,276.7
187.4903,282.1
187.537,104.5
187.5668,577.5
187.6008,90.4
187.8422,738.5
187.8616,123.7
187.8674,295.9
187.9354,720
187.9447,17.4
187.9692,576.3
187.9786,780.6
188.0669,21
188.0789,203.8
188.1399,103.7
188.2183,298.7
188.4064,77.5
188.4394,88.8
188.465,296.5
188.5117,815.9
188.5485,475.7
188.5766,119.1
188.5831,240.1
188.6025,84.7
188.6434,85.4
188.7468,307.7
188.8123,742.9
188.816,18
188.8239,203.2
188.9449,719.1
188.9821,247.5
189.0206,77.6
189.0527,124
189.0616,3653.9
189.0874,13667.6
189.1157,512.8
189.1521,118.8
189.2249,611.4
189.3687,106.1
189.4743,86.6
189.4981,694.9
189.5084,398.9
189.5339,370
189.5847,202.2
189.5898,984.5
189.6552,426.8
189.657,414.3
189.7495,80.9
189.8478,251.1
189.9474,143.1
190.0153,96.5
190.042,390.5
190.0851,264
190.1158,741.3
190.1339,349.5
190.206,106.7
190.2538,514
190.3424,242.8
190.4757,397.6
190.5649,202.4
190.6902,272.6
190.7142,296.1
190.8255,623.8
190.8809,600.3
190.8978,95.1
190.9127,1347.2
190.9407,655.6
190.9446,59.4
190.9495,332.1
190.9667,302.2
191.0086,6262.8
191.0179,666.1
191.0408,123586.7
191.0772,21516.3
191.1155,80.2
191.1273,305.4
191.1572,84
191.168,1128.4
191.1789,20.2
191.2288,19.8
191.3308,18.3
191.3472,104.3
191.4037,188.9
191.5098,16.5
191.5323,285.5
191.5441,95.8
191.5795,739.7
191.5838,336.8
191.6149,198.6
191.6286,406.2
191.6922,403.1
191.743,437.9
191.8418,77.7
191.845,283.1
191.98,99.7
191.9828,575.8
192.0152,537.4
192.0403,17140.2
192.044,3373.5
192.0533,17.5
192.0755,17
192.1717,393.5
192.3392,396.2
192.3765,760.6
192.5126,185.2
192.5478,104.7
192.5745,446.4
192.5932,139.9
192.6172,119.2
192.6863,76.3
192.7358,162.2
192.8763,808.6
192.9989,4056.1
193.0119,260.9
193.0356,3026.9
193.1055,822.7
193.1472,319.2
193.1745,534
193.2951,107.6
193.3203,187.4
193.4105,147.9
193.4956,133.9
193.51,278.4
193.6015,273.2
193.6563,290.8
193.6672,200.8
193.7236,373.7
193.7661,251.2
193.9103,899.5
193.9203,244.4
193.9985,3124.6
194.0054,2571.5
194.0104,542.7
194.0151,456.5
194.0331,2500.5
194.1264,528.6
194.1544,121.8
194.1708,100.1
194.2349,648.9
194.2612,550.2
194.3519,512.7
194.482,93.4
194.4874,840.8
194.5301,188
194.7502,461.7
194.8328,406.7
194.8797,132
194.8895,209
194.8977,560.5
194.9664,304.5
195.0174,88.6
195.0445,598.8
195.1061,484.9
195.1555,251.5
195.1685,395.7
195.1869,73.5
195.2848,137.6
195.3307,739.7
195.3596,134.3
195.4626,195
195.5559,837.8
195.5809,99
195.7266,95.8
195.7851,18.9
195.8198,435.9
195.8353,131.6
195.8374,204.1
195.8472,79.4
195.9387,331.9
195.9502,124.9
195.9539,504.6
195.9665,116.5
195.9781,2497.3
195.9849,128
195.9949,20.9
196.0025,748.1
196.0796,92.6
196.1261,246.8
196.1701,280.3
196.1735,488.3
196.1859,832.6
196.1968,491.6
196.2132,124.9
196.3736,128.2
196.4817,134.5
196.5296,80.6
196.5613,92.2
196.5736,206
196.6949,315.7
196.7007,22.4
196.7635,504.9
196.7659,529
196.795,106.9
196.8437,158.5
196.8656,4052.3
196.8689,472.2
196.8784,1334.2
196.9302,707.7
196.9682,118.1
196.9945,85.2
197.0006,173.2
197.0614,81.3
197.1015,1747.7
197.1313,525.8
197.1387,114.2
197.1729,17.3
197.2797,166.5
197.3634,534.1
197.3732,567.9
197.4326,429.4
197.4354,92.5
197.484,294.7
197.5353,592.8
197.5488,233.3
197.612,576.3
197.6609,1009.6
197.6876,718.9
197.7482,95.4
197.7689,96.5
197.8944,106.2
197.9431,124.3
198.0078,670.7
198.0855,8897.9
198.0896,1300.7
198.1036,82.4
198.1344,283.7
198.15,105.9
198.1857,7781.7
198.2037,129.3
198.2081,163.8
198.2231,85.9
198.2471,547.5
198.2943,282.6
198.334,307.6
198.3953,17.3
198.4136,206
198.5789,19
198.6119,260.7
198.6156,103.9
198.6906,300.9
198.7122,589.3
198.7235,85.8
198.7663,149.4
198.8627,4749.6
198.9742,66.2
199.013,445.8
199.0207,211.5
199.0759,4814.1
199.0805,90.4
199.1069,83.6
199.1482,17.9
199.1893,265.2
199.2441,447.3
199.2565,385.5
199.2682,102
199.2932,659.3
199.3061,145.6
199.3744,21.8
199.4818,450.9
199.5359,266.5
199.5486,469.9
199.5609,123.7
199.6239,180.4
199.6402,97
199.6502,18.3
199.6913,321.4
199.7248,83.8
199.7738,93.1
199.7942,596.9
199.8193,865.6
199.8494,892.2
199.8627,529.7
199.8793,264.3
199.9518,691.4
199.9911,36772.6
200.0256,402.8
200.0412,22893.4
200.0529,104.2
200.0701,85.2
200.1015,44.6
200.1039,131.2
200.1363,129.1
200.1529,11396.8
200.1649,23.5
200.2388,20.3
200.3193,697
200.3534,715.3
200.4058,158.4
200.4353,112.9
200.5878,186.8
200.673,106
200.6839,87.4
200.7843,801.9
200.7882,256.9
200.8597,1096.2
200.9391,549.6
201.0283,380.8
201.0553,609.1
201.0642,355.1
201.0876,333.6
201.1797,19.9
201.2147,584.1
201.2688,521.8
201.3482,158.7
201.3738,99.6
201.4435,596.3
201.4591,309.3
201.4942,18.4
201.6061,240.7
201.8195,20.2
201.8273,190.5
201.8424,168.3
201.8532,125.9
201.9799,163.7
202.0453,20.4
202.0494,490.1
202.0789,322.3
202.096,109.8
202.227,594
202.2665,19
202.3073,619.9
202.4729,187.6
202.4776,260.2
202.5147,17114.1
202.5259,136.8
202.5687,123.8
202.5999,145.4
202.6612,171.4
202.6623,170.4
202.6845,20.9
202.7049,405.4
202.7231,534
202.7327,181.6
202.7399,325.4
202.9489,118.2
202.9793,531.9
202.9837,302.7
203.0134,165.8
203.0323,4679
203.0532,1027251.1
203.0773,11086.2
203.1836,479.9
203.2499,419.4
203.2894,175.6
203.2974,79.4
203.4233,622.1
203.4498,101
203.4545,264.4
203.4913,904.7
203.5044,188.5
203.516,107.7
203.5608,307
203.5803,391.9
203.5978,191.3
203.7128,18.6
203.8025,491.5
203.8097,1073.3
203.8371,17.8
203.8431,253.3
203.9394,163.2
204.01,329.1
204.0249,52996.4
204.0418,289.1
204.0565,58640.6
204.0771,205.8
204.1045,71.3
204.2643,247.7
204.3476,302
204.4158,18.8
204.4758,293.9
204.502,129.6
204.5422,205
204.547,378.4
204.576,18.7
204.6276,569.2
204.687,126.1
204.7786,419.7
204.8739,213.5
204.9085,263.3
204.9212,186.3
204.9235,390.5
204.9955,23.6
205.0285,360.5
205.0575,6039.1
205.0664,856.4
205.0839,125.2
205.091,116.2
205.1215,456.1
205.153,777.8
205.2448,340.1
205.3351,199.5
205.4879,430.1
205.5037,549.3
205.517,506
205.5533,263.8
205.6623,209.9
205.713,112.8
205.7296,19.6
205.8988,513.3
205.9035,212.8
205.9517,116.7
205.9722,687.3
205.997,87.9
206.0418,85.9
206.0559,526.2
206.1531,225.7
206.2252,273.9
206.2858,496.9
206.393,104.3
206.4339,119
206.4715,17.7
206.4894,534.3
206.5202,129
206.6415,226.5
206.8675,572.6
206.8944,13725.9
206.9172,21.9
206.9532,207.8
206.9827,4618.3
206.9923,19.8
206.9947,517.8
206.9981,16.2
207.0148,94037.9
207.0447,2704.6
207.0512,11948.1
207.1664,592.6
207.1714,758.1
207.5094,79.5
207.7523,883.6
207.8285,204.1
207.8504,521.3
207.8922,306.5
207.9179,118.1
208.0141,3727.5
208.0181,2425.5
208.0275,338.6
208.0651,99.7
208.0889,159.4
208.1689,98
208.2537,105.2
208.3241,646.8
208.3441,93.1
208.4737,412.6
208.4993,269.2
208.58,21.3
208.6629,138.2
208.6721,451
208.7495,272
208.8242,211.7
208.8637,316.5
208.8836,80.5
208.8916,7642.3
208.921,87.8
208.9356,392.8
208.9443,110.4
208.9532,730.6
208.9554,29.8
209.0128,4612.3
209.072,117.5
209.0783,94.1
209.0853,201.2
209.0905,20.7
209.3375,524.1
209.3939,107
209.4569,755.9
209.6277,17.8
210.6143,19.6
210.636,521.9
210.6534,19.5
210.6879,102.3
210.7519,739.3
210.801,326.6
210.8471,96.7
210.8581,193.9
210.8768,20.2
210.8889,823.9
210.9428,496.3
210.9955,17.9
211.0542,319.6
211.0569,795.6
211.0696,1349.9
211.1766,220.2
211.1874,1033.9
211.1927,7982
211.1977,25032.3
211.2016,28438.4
211.2041,36745.7
211.2063,26600.8
211.214,906.1
211.2177,1219
211.2936,138.2
211.3026,17.2
211.3852,142.2
211.386,137.3
211.4869,98.2
211.5281,234
211.5657,18.3
211.5852,18
211.7362,285.9
211.8109,254.2
211.9861,187.3
212.0071,186
212.0472,451.4
212.0746,130
212.0934,136.3
212.1063,146.8
212.1497,285.7
212.2132,20.3
212.2246,136
212.2714,83.2
212.4109,142.1
212.5432,100.5
212.6285,467.3
212.6437,95.9
212.737,240.6
212.8093,688.5
212.8396,1047.6
212.9252,671.1
212.9788,1909
212.9944,18.9
213.0219,296.4
213.0551,1383.2
213.0754,748.9
213.1641,269.7
213.2111,803
213.2715,345
213.3453,18.1
213.4235,610.9
213.4317,88.9
213.4789,768.8
213.4859,576.6
213.5528,97
213.5667,378.2
213.5721,127.8
213.717,299.6
213.7747,18.2
213.8018,205.9
213.8053,141
213.9112,191.7
213.9356,356.4
213.9402,181.4
213.9625,20.9
213.9851,467.6
214.0594,12257.3
214.0902,844.1
214.1118,943.2
214.1487,20.9
214.2046,189.9
214.2596,191.4
214.3124,78.9
214.4232,552.3
214.4437,120.1
214.6232,577
214.6897,151.2
214.7425,94.7
214.7786,508
214.8366,2202.4
214.9084,626.3
214.9182,1131.8
214.9263,175.6
215.0345,92.7
215.0939,70
215.3749,556.8
215.4751,89.5
215.4892,595.9
215.8417,87.9
215.8834,158.4
215.912,121.1
215.9402,82.7
216.0088,243.7
216.0152,12771.7
216.0181,3082.3
216.055,147.2
216.0885,491.9
216.096,19.6
216.1001,127.5
216.2202,159.7
216.2246,517.8
216.2394,517.4
216.2442,570.8
216.3048,18.1
216.3266,73
216.5077,104.3
216.5549,395.3
216.632,297.6
216.6516,218.1
216.9133,604.2
216.9233,36183
216.9792,140.3
216.9845,18.9
217.0212,479
217.0482,267.2
217.0562,412.5
217.0994,99.8
217.1519,19
217.2546,409.2
217.3212,459.6
217.3598,205.1
217.4337,190.6
217.4851,17.6
217.5668,348.9
217.7404,265.7
217.9675,136.8
217.9912,18.2
218.0073,19.4
218.0155,49
218.0421,155
218.0609,600.7
218.0857,661.8
218.1077,564.3
218.1302,76.2
218.1522,38
218.1748,91.5
218.204,17.7
218.2077,186.2
218.2461,978.7
218.2641,155.2
218.2873,133.3
218.3105,572
218.3788,94.3
218.4092,749.4
218.4689,558.6
218.7442,569.7
218.7476,132.7
218.8163,277.6
218.9203,9840.9
218.9257,253.9
218.9498,758.9
218.9869,94.7
219.0129,94.8
219.0271,1362614.4
219.0323,891.7
219.0666,19.8
219.0834,8655
219.1089,206.7
219.1691,212.2
219.2026,303.2
219.2444,805
219.3225,185.3
219.3973,112.4
219.4269,255.7
219.4495,268.6
219.4675,90.5
219.6306,90.1
219.639,483.5
219.7963,769
219.8142,131
219.8567,344.6
219.9063,233.6
219.9557,305
219.9988,1415.8
220.0094,153.7
220.0218,177
220.0305,65154.5
220.0374,817.4
220.0675,8886.3
220.1314,103
220.1678,471.1
220.2189,99.9
220.2467,227.3
220.3004,510.7
220.3875,435
220.4345,289
220.5131,135.4
220.549,493.6
220.6282,621.8
220.6775,22.6
220.6948,663.4
220.7928,21.6
220.9065,87
220.9347,25
220.9452,20.4
221.0004,167.7
221.0253,79768.6
221.0314,9227.2
221.0516,2534.2
221.0853,93.8
221.0865,104.5
221.1609,584.4
221.1974,450.8
221.2656,17.8
221.2879,494.5
221.3034,171.6
221.3263,311.8
221.3773,18.4
221.4047,294.2
221.4121,102.4
221.4477,513.5
221.5081,395.2
221.794,221
221.9572,227.4
221.9842,3690.9
222.0286,2025.5
222.065,112.8
222.2499,121.4
222.2603,157.9
222.4425,339.9
222.4862,508.4
222.562,90.4
222.6103,155.2
222.6763,713.6
222.7006,122.7
222.7664,171.9
222.8685,13024.9
222.8797,888.6
222.9614,35.1
222.9798,200.5
222.9888,11952.8
223.0045,361.6
223.0375,2036.7
223.1026,450.2
223.1437,265.1
223.1573,840.9
223.1818,123.1
223.2212,406
223.2501,437.7
223.3054,223.1
223.5068,349.5
223.5239,104
223.5798,19.4
223.5996,80.5
223.7092,138.5
223.7716,129.1
223.82,88.6
223.8877,285.8
223.9539,47.7
223.973,498.3
224.1408,395.4
224.185,544
224.2773,91.6
224.5902,337.6
224.7517,79
224.7606,510.1
224.7765,328.8
224.8656,8621
224.8938,96.3
224.9008,19.9
224.9493,227.4
224.9695,142.8
224.988,91.3
225.0103,124.2
225.0553,37848.6
225.0851,1159.1
225.2756,197.3
225.3274,100.3
225.3598,329.3
225.3619,210.9
225.6675,117
225.6821,99.4
225.7722,79.1
225.9083,99.3
225.924,966.7
225.9485,95.1
225.9528,100.4
225.9597,289
225.9906,461.7
225.9922,544
226.0025,171.4
226.0069,2660.6
226.019,299.4
226.0247,9983.9
226.0457,7110.7
226.0592,89.1
226.0831,20.4
226.1335,291.9
226.2162,110.3
226.2415,142.9
226.2811,286.2
226.3757,150.7
226.5706,141.3
226.6324,335.9
226.7668,168
226.8196,83.9
226.8371,616
226.9016,123.1
226.9054,604.1
226.9416,246.4
226.9521,28848.4
226.9621,221.8
226.9659,17
227.0344,2570.4
227.0612,108.6
227.0797,2750.5
227.087,210.8
227.3203,140.4
227.5373,159.5
227.5631,162.2
227.5936,313.9
227.6054,90.3
227.6345,410.1
227.814,281.9
227.8597,105.9
227.9494,148.7
228.0008,289.7
228.0118,19.7
228.0199,18.9
228.0227,519.1
228.0467,834.3
228.0683,759.3
228.1125,697.9
228.4068,915.4
228.4733,395.2
228.526,670.3
228.5795,205.7
228.599,267.3
228.8129,327.1
228.8201,238.7
228.8572,240.8
228.8771,472.8
228.893,140
228.9352,203.5
229.0363,585.9
229.0501,205.5
229.1188,366
229.1294,182.1
229.3353,20.3
229.3755,110.2
229.5228,307.6
229.5722,532.1
229.7167,482.3
229.7987,256
229.8138,569.6
229.875,241.8
229.8943,295.3
229.9169,103.3
229.9575,212.7
229.9996,193.6
230.0049,254.7
230.0338,220.9
230.0516,368.9
230.0661,103.3
230.0907,108.2
230.1482,363.1
230.2906,263.6
230.468,94.1
230.5329,117.2
230.6181,175.9
230.8258,165.8
230.8661,270.2
230.9509,828.9
230.9909,72.3
231.0133,18.4
231.0565,115.9
231.2217,270.4
231.2423,546.7
231.3605,425.4
231.372,495.7
231.401,486.2
231.4717,437
231.538,551.4
231.569,908.5
231.7031,789.4
231.8184,687
231.8265,250.1
231.8924,17.4
231.9901,248.4
231.9958,325.2
232.0225,59.5
232.0515,630.3
232.1309,506.2
232.1721,156
232.1886,348.3
232.2357,182
232.427,94.1
232.4307,213.6
232.4675,602.4
232.5626,374.3
232.6111,304.4
232.624,85.1
232.6684,529.7
232.7818,694.1
232.8973,32957
232.9146,641.3
232.962,20.2
232.9743,653.5
232.9863,4219.1
233.0396,346.6
233.0515,10892.4
233.0597,334.6
233.1127,327.7
233.3299,514
233.3535,295
233.4113,441.4
233.5473,77
233.7693,509.9
233.79,854.5
233.8869,780.7
234.0408,233.2
234.074,110.7
234.1167,130.3
234.2464,171.8
234.2669,313.3
234.2757,123.2
234.293,249.4
234.3063,836.9
234.3894,83.7
234.3975,157.7
234.434,542.1
234.4441,88.8
234.4982,336.9
234.5133,99.2
234.5854,270
234.7704,319.5
234.7897,136
234.8605,239.7
234.8943,7949
234.9734,104.7
234.982,3683.3
235.0345,136.7
235.0576,6718.1
235.0672,2631.3
235.0931,24191.4
235.1534,28.6
235.2064,19.5
235.4023,586.4
235.4137,267
235.4227,487.5
235.489,152.1
235.5271,142.3
235.5619,185.5
235.6435,482.7
235.7103,259
235.7428,94.8
235.8059,571.6
235.8751,221.5
235.9414,252.6
236.0372,17.8
236.0415,7396.7
236.054,16.3
236.0722,38454.1
236.0848,118.7
236.0965,294.2
236.2296,313.2
236.349,561
236.4383,736.9
236.5542,143.9
236.5867,95.5
236.614,433.7
236.6909,138.6
236.7387,100.3
236.7702,156.4
236.8132,459.1
236.8266,143.8
236.8829,316.5
237.0316,139.8
237.0532,540.4
237.0756,1139.7
237.1316,133.3
237.164,167
237.2696,238.1
237.2752,17.4
237.4363,143
237.6033,180.3
237.6239,283.4
237.6843,783
237.7818,562.8
237.8912,293
237.9329,982.6
237.9521,20.2
237.962,196.6
237.9809,79.3
238.016,435.1
238.068,512.2
238.079,32.5
238.1052,378.9
238.132,222.3
238.1445,185.3
238.1908,160.5
238.2925,219.8
238.3059,494.1
238.3263,123.3
238.3592,228
238.4218,916
238.4833,269.2
238.4881,222.1
238.5456,407.4
238.7157,84.6
238.7547,260.7
238.8425,5237.8
238.8635,431.6
238.9151,87.4
239.0148,129.4
239.0497,119
239.0646,958.8
239.0686,1791.7
239.1174,732.4
239.206,164.8
239.2385,446.6
239.2745,149.3
239.3171,697.4
239.4709,396
239.6193,133.3
239.703,820.7
239.7922,98.6
239.7976,219
239.8054,115.2
239.8974,18.6
239.9675,365
240.0036,672.8
240.0311,664.6
240.0755,553.2
240.1653,77.4
240.2274,19.8
240.2499,189.3
240.2587,332.9
240.3638,103.6
240.3904,134.4
240.4379,195.8
240.4937,99.1
240.5244,23.2
240.6342,17.8
240.6799,166.8
240.7463,278.5
240.7916,179.8
240.8394,2449.9
240.9551,836.7
240.9762,137
240.9854,95.1
241.0318,730.4
241.0348,172.4
241.0423,313.8
241.0496,407.7
241.0793,1131.6
241.0893,183.3
241.2248,138.5
241.2347,308.2
241.2895,134.1
241.3593,304.6
241.4024,18.4
241.4559,16.6
241.4658,315.2
241.5813,121.9
241.6336,18.2
241.6538,92.4
241.6651,83.2
241.7183,17.5
241.7262,430
241.8241,133.3
241.8279,21
241.9799,114.8
241.9987,2774.6
242.0023,301.3
242.0197,3398
242.0393,138.1
242.0643,81.5
242.131,537.6
242.1578,21.9
242.3902,18.8
242.5137,223.9
242.5685,186.1
242.5753,101.6
242.6028,521.3
242.9261,19228.1
242.9451,173.3
243.0017,131.9
243.0072,23.2
243.0113,99.8
243.0336,356.8
243.0537,8934.6
243.0659,15132.5
243.0832,244.5
243.157,18.2
243.2119,19.7
243.2505,507.1
243.2957,300.2
243.4203,295.7
243.4305,18.2
243.436,94.4
243.5314,137.1
243.6607,85.8
243.7883,19.3
243.7972,315.6
243.8925,201.9
243.9201,149.5
243.9731,96
244.0132,258.2
244.2729,191.8
244.4007,131.6
244.5804,128.6
244.5906,204.5
244.662,378.5
244.8406,687.4
244.8713,3669.3
244.8926,20.2
244.9411,94.8
245.0169,42.4
245.0699,124.4
245.0724,131.1
245.2244,94.7
245.2784,224.5
245.338,117.1
245.3855,204.8
245.4297,464.9
245.6473,17.5
245.6632,123.2
245.9187,157.4
245.9506,306.4
245.977,842.4
246.0019,186.6
246.0114,81.9
246.0389,20.1
246.1152,1003
246.1373,98
246.1386,101.2
246.14,96.6
246.2565,282
246.2841,510.9
246.4188,329.2
246.4393,113.2
246.4433,749.9
246.6386,217.5
246.6486,547.1
246.7484,86.5
246.7689,146.7
246.8942,17.3
246.9655,151.8
246.9843,20.8
247.0371,1964.8
247.0672,2940
247.0932,7316.4
247.2022,125.9
247.221,611.4
247.3284,136
247.3337,617
247.3696,833.3
247.3926,146.9
247.4457,258
247.6817,91.1
247.7645,303
247.8428,133.8
248.0484,541.4
248.0967,106
248.1248,31204.7
248.198,188.8
248.2759,194.7
248.417,79.8
248.7152,97
248.7205,347.5
248.8172,155.5
248.8714,11024.5
248.9602,5879.1
248.9851,24.3
249.0167,2478.6
249.0618,18914.4
249.109,101.9
249.128,1026
249.1562,91.9
249.1762,579.8
249.2184,587.1
249.3757,604
249.4024,193.9
249.6954,210.9
249.72,103.3
249.735,120.3
249.7412,171
249.7567,102.3
249.8594,529.4
249.9361,335.3
249.9517,157.8
249.9697,20.1
250.0045,755.4
250.0216,555.2
250.0653,435
250.2241,20.8
250.2828,176.9
250.3428,82.5
250.3683,217.3
250.3883,740.5
250.4198,81.8
250.6212,171.5
250.6571,106.6
250.68,323.8
250.7325,769.2
250.8684,1798.4
250.9037,329
250.9171,371.2
250.9213,1249.7
250.9563,1462.4
251.0012,107.3
251.0189,147.4
251.0348,2288.4
251.0683,482.4
251.1018,443.9
251.1171,384
251.1278,828.2
251.1531,93.4
251.2262,121.1
251.2317,81.9
251.2628,19.2
251.4533,266.8
251.4899,148.8
251.4952,153.7
251.5256,17.9
251.5941,18.2
251.6433,866.3
251.6613,79.4
251.7456,131.8
251.7815,279.5
251.8619,379.8
251.9412,120
252.0376,262.4
252.0463,104046.8
252.1172,278.1
252.1253,173.5
252.1338,536
252.2753,205
252.2923,553.9
252.3684,472.6
252.4133,127.6
252.5456,779.6
252.5594,82.2
252.7497,18.3
252.7663,142.8
252.8488,673
252.8512,141.3
252.9183,365.2
252.998,22.8
253.0443,93.7
253.0498,9278.1
253.0557,184.7
253.0678,173.2
253.1003,19.6
253.18,221.7
253.3096,85.4
253.3631,94.3
253.4183,870.3
253.4879,515.2
253.5033,868.9
253.5925,121.3
253.6116,262.1
253.6777,847.9
253.8066,86.1
254.0085,18
254.0199,138
254.0442,3215.1
254.2281,544.3
254.2473,247.8
254.2754,18.3
254.3197,481.6
254.3405,782.2
254.3929,158.9
254.4417,439.8
254.4879,590
254.5619,322.7
254.6596,180.6
254.8166,1468.6
254.8245,6652.9
255.0336,27770.5
255.0386,3100.1
255.0471,1265.4
255.1057,349.8
255.1129,174.9
255.1246,281.6
255.1588,133.2
255.1759,451.3
255.2022,205.7
255.2411,279
255.2761,363.9
255.4172,457.3
255.4556,346.7
255.5574,215.2
255.9261,153.3
255.9474,100.2
255.9781,679.5
256.0591,102.6
256.0818,18.6
256.0915,733.7
256.1061,18.1
256.1237,308.5
256.2182,91.8
256.278,96
256.3289,209.5
256.3467,92.5
256.3949,191.1
256.4649,102.7
256.5041,745.1
256.5931,495.1
256.6468,302.2
256.7008,107.6
256.7661,787.5
256.7699,217.7
256.7867,298
256.8078,431.7
256.8217,5996.8
256.8527,94.8
256.891,171.9
257.0492,8477.9
257.0668,970
257.0752,66758.4
257.2137,118.1
257.3143,362.7
257.4117,281.9
257.4504,17
257.512,205.6
257.5562,340.2
257.731,254.8
257.9934,466
258.0282,23.7
258.0786,2522.3
258.1109,23829.5
258.1188,261.4
258.3884,359.5
258.3924,134.4
258.6798,117.5
258.723,307.4
258.7644,213.5
258.8188,1946.3
258.8445,83
258.8936,895
258.9002,3224.9
258.9928,23.2
259.0285,938.2
259.0861,18.7
259.1789,862.5
259.3233,209.1
259.4966,136.5
259.5006,652.3
259.5135,83.5
259.5179,19.6
259.5217,463.5
259.5377,321.3
259.5493,306
259.5714,313.5
259.6186,156.4
259.742,234.3
259.7522,18.4
259.7707,115.7
259.787,435.3
259.9271,643.3
260.219,218.5
260.2746,600.4
260.3115,21.4
260.3468,542.5
260.5079,428.5
260.5643,202.7
260.6214,151.9
260.6274,517.8
260.8454,1400
260.9178,109.1
260.9285,428.9
260.9498,4259.1
261.0465,657
261.0561,222.5
261.1427,259.9
261.2123,325.6
261.2181,105.4
261.3184,139.4
261.3325,171.6
261.3417,302.8
261.4061,386.5
261.5535,497
261.5827,19.5
261.6206,219.7
261.6474,610
261.7381,133.3
261.7444,152.5
261.7702,83.1
261.8091,17.4
261.8736,19.2
262.0527,17.1
262.1209,19.2
262.206,97.7
262.2712,223.2
262.5717,668.9
262.7664,19.3
262.7929,476.7
262.8539,102.8
263.0213,577.1
263.0322,215.2
263.086,91.6
263.1075,177.3
263.2381,734.9
263.2526,304.5
263.3436,169.4
263.3482,238.3
263.3598,77.7
263.399,135.5
263.5361,228
263.6029,113.4
263.6607,23
263.6805,18.3
263.7802,88.9
263.9404,176.4
263.9654,682.4
263.994,422.3
264.0349,630.5
264.0538,92.7
264.1359,189.3
264.1447,1016.4
264.2428,485.2
264.2693,20.7
264.3375,136
264.4627,371.8
264.4894,150.4
264.5889,259
264.8202,87.6
264.8454,923.8
264.8532,5002.5
264.8804,473
264.9341,12211.5
264.961,202.7
264.9738,1073.2
264.9886,24.7
265.017,357.9
265.0358,10360.8
265.048,6866.5
265.1144,90
265.1629,970.6
265.1948,17.2
265.2161,343.4
265.2511,819.5
265.2759,20
265.2981,326
265.3621,153.5
265.7184,83.7
265.9542,540.5
266.1114,582.3
266.1422,19.1
266.2511,107.2
266.2787,841.6
266.3621,20.6
266.5151,171.7
266.7064,240.3
266.8374,132.7
266.8507,4704.6
266.8948,1209.7
267.0137,161
267.0213,761.1
267.0359,299.1
267.1638,864.5
267.1687,598
267.3709,761.6
267.5249,148.5
267.5996,935.7
267.6887,388.8
267.9795,711.2
268.0324,328.6
268.0747,18.4
268.1732,303.1
268.1926,75
268.2195,300.6
268.2491,20.3
268.2763,474.2
268.3694,190.9
268.4625,95.7
268.6234,18.9
268.67,447.2
268.7621,88.7
268.8548,471.4
268.9038,117.9
268.9206,296.8
269.0124,49.4
269.0275,19.4
269.0328,166.7
269.0454,25572.5
269.0493,45573.8
269.0682,304
269.2215,597.8
269.2574,88.3
269.3493,723
269.5311,238.4
269.5814,190
269.7678,780.9
269.9328,364.3
269.9486,851.5
269.9527,19.7
269.9942,952.8
270.0254,527.2
270.048,27432.1
270.1071,306.5
270.1456,2300.5
270.1933,848.6
270.2719,771.4
270.3221,552.5
270.5035,20.6
270.5651,20.8
270.6432,590.8
270.6845,83.5
270.7172,109.3
270.745,465.2
270.7742,206.8
270.7985,3641.1
270.8063,318.1
270.8784,124.9
270.9546,293.3
270.9704,188.3
270.9787,8858
271.0068,91.3
271.0249,111.8
271.0519,1393.2
271.0651,514.4
271.078,759.5
271.0909,1519
271.2774,457.7
271.2986,86.4
271.4662,272.9
271.5164,177
271.5804,18.6
271.7838,160.6
271.7899,207.7
271.8334,19.2
271.8694,165.8
271.905,1004.5
271.9119,130.1
271.9758,153.1
272.0343,230.4
272.0438,132.3
272.0525,19.9
272.081,278.5
272.0913,147.5
272.1587,306.2
272.1825,90.2
272.2373,208.7
272.2687,123.9
272.3576,98.5
272.4125,18.8
272.4428,90.1
272.4634,22.1
272.4768,626.3
272.5064,473.1
272.5142,224.4
272.5771,75.9
272.6825,101.1
272.7956,4411.2
272.8985,292.4
272.9505,84.9
272.9753,274.7
272.9844,480.5
272.9934,23.5
273.0492,5606.5
273.0848,145.8
273.1438,99
273.1925,132.7
273.3193,109
273.4064,224.1
273.5067,183.5
273.5143,88.4
273.8244,192
273.8509,96
273.9172,114.5
273.9237,140.2
273.9293,88.1
273.9796,113.2
273.989,129.7
274.0102,217.5
274.0366,381.5
274.0408,22.8
274.0697,171.6
274.0929,3488.6
274.1781,353.9
274.2076,309.7
274.2191,157.4
274.4325,330.9
274.4431,152.9
274.5361,148.7
274.5998,127.1
274.6084,306.5
274.6348,101.8
274.6739,202.3
274.7095,176.5
274.7925,1385.4
274.8628,152.2
274.869,115.4
274.8903,500.5
275.0112,535.5
275.0457,200.8
275.1761,88.9
275.2019,95.7
275.2159,666.8
275.2254,170.3
275.2314,549.5
275.2427,362.6
275.2521,695.8
275.2866,77.6
275.3136,456.3
275.3311,450.5
275.3383,337.7
275.4127,132.9
275.6948,301
275.7061,253.5
275.7568,172.8
275.784,717.2
275.8264,20.7
275.9017,129.8
275.9073,242.8
276.0041,65.3
276.0852,133.3
276.1161,162
276.2318,17.8
276.2456,704.2
276.411,286.7
276.5119,193.2
276.5833,533.2
276.6274,24.1
276.6316,564.2
276.7542,160.6
276.9238,4162.7
277.0796,15.8
277.1604,582.5
277.1721,87.3
277.2677,162.9
277.4395,295.6
277.452,95.9
277.4604,160.6
277.4645,21
277.4796,229.4
277.535,112.2
277.575,267.5
277.8151,618.7
277.8857,653.9
277.9677,835.9
278.0006,75.8
278.0149,570
278.0196,434.4
278.0283,23
278.1164,267
278.4056,92.4
278.4395,20.8
278.6464,103
278.8183,636.7
278.9212,450.7
278.9881,441.9
279.0107,145.3
279.0572,46838.3
279.2537,675.2
279.2858,192.6
279.3646,182.1
279.3778,607.5
279.532,366.9
279.8196,196.6
279.8555,232.3
279.9042,861.2
279.9559,415.1
279.9651,582.3
279.9931,181.1
280.0003,24.1
280.0166,280.7
280.0605,1833.5
280.0901,258.2
280.1778,106.1
280.3209,19.3
280.3714,322.5
280.4152,213
280.4189,560.7
280.4535,89.5
280.4783,138
280.5154,98.5
280.5932,418.3
280.6448,127.4
280.8273,1079.8
280.8684,173
280.9484,106
281.0101,2208.6
281.0524,234.5
281.0603,94.1
281.1247,200.2
281.2325,752.6
281.323,255.6
281.5518,833.4
281.5629,418.3
281.7132,119.8
281.787,198.4
281.8746,182.5
281.9163,498.4
282.0084,18.4
282.0153,198.6
282.0521,19.2
282.0655,513.6
282.2508,448.1
282.289,363.4
282.3625,126.7
282.5251,157.1
282.5333,86.8
282.6181,149
282.7007,100.5
282.7043,207.9
282.7221,225.1
282.8245,1736.6
282.8407,610.1
282.8685,388.9
282.9067,17.1
282.9578,269.6
283.0281,1106.3
283.0669,26
283.1152,108.9
283.1269,196.1
283.1914,119.9
283.2643,20.8
283.305,132.2
283.5088,152.5
283.5263,118.8
283.7486,17.4
283.9737,21.6
284.0243,337.7
284.0542,55
284.0636,227.4
284.164,129.7
284.2899,274.5
284.4886,309.1
284.6279,502.7
284.764,687.7
284.9146,335.2
285.0225,273.3
285.0417,111.5
285.0527,123.4
285.101,2183.3
285.1278,123.6
285.145,180
285.351,154.4
285.3556,199.9
285.4254,21.7
285.5224,334.4
285.5622,310.6
285.5976,150.3
285.655,778.1
285.6633,180.5
285.8001,125.8
285.8508,103.3
285.8849,18.5
286.0202,160.4
286.0263,179.8
286.0676,147
286.0965,83.4
286.3773,18.6
286.4391,131.6
286.4546,555.7
286.4609,145.6
286.4968,688.9
286.7238,229
286.74,157.1
286.7724,3109.9
286.7858,706.7
286.8855,185.2
286.9468,406.7
286.9525,2317.7
286.9991,533.2
287.056,52114.6
287.1101,561.8
287.1408,20.2
287.1519,346.9
287.2892,116.4
287.3244,19.7
287.5583,523.2
287.6523,98.1
287.7148,484.9
287.7449,140.9
287.8342,277.8
288.0137,66.7
288.0461,151.2
288.0593,1351.3
288.0855,99.9
288.149,16.9
288.1563,31767.8
288.2922,923.8
288.3092,155.5
288.3783,94.6
288.487,150.3
288.5043,699.6
288.7696,3105.2
288.8107,876.6
288.8193,865.3
288.8209,929.5
288.825,530.4
288.8302,2084.1
288.8394,5118.5
288.8451,5744.8
288.8464,5988.2
288.8537,8058.4
288.8651,12948.1
288.8737,17949.3
288.8751,17372.9
288.8827,16465.8
288.8876,21471.8
288.8956,11542.1
288.9001,18762.9
288.9065,17272.8
288.9129,14068.5
288.9164,13609.7
288.9194,14348.6
288.9263,8676.9
288.9289,8430.4
288.9331,7064.3
288.9377,4994.6
288.9437,4058.7
288.9494,3925.7
288.9536,4708.3
288.9582,2271.6
288.9608,2401.3
288.9689,1667.6
288.975,800.2
288.9851,424.1
288.9954,644.3
288.9989,349.7
289.0006,315.7
289.008,165
289.0614,23.2
289.0682,84.9
289.0816,78.6
289.1597,1343.3
289.2374,561.4
289.3016,17.2
289.3146,18.6
289.415,141.6
289.4691,91
289.5758,503
289.8533,300.8
290.0638,213.1
290.1009,69.7
290.1937,277.1
290.2887,622.2
290.3197,144.8
290.3368,22
290.5435,19.1
290.7136,90.8
290.7447,112.3
290.7466,449.6
290.748,437.9
290.7667,882.5
291.0077,761.7
291.016,183.3
291.0273,5395.5
291.0514,231.6
291.118,97.9
291.1398,804.9
291.1675,205.6
291.2224,725.9
291.2272,17.4
291.4958,190.6
291.5294,168.8
291.5444,422.6
291.6837,102.1
291.711,738.7
291.722,18.7
291.8114,89.8
291.9357,21.3
291.9989,18.8
292.0803,174.3
292.1033,1062.6
292.3054,606.1
292.3486,361.1
292.4282,453.8
292.4583,709
292.4851,308.1
292.5744,695
292.8536,298.4
292.8979,737.6
292.9135,991.1
292.9302,97.9
292.9493,87.8
293.0017,21.7
293.0068,1074.1
293.0562,687.7
293.0729,3451.9
293.0988,581542.2
293.1797,20.3
293.2582,77.2
293.2605,87.8
293.3218,290.5
293.3786,319.3
293.3948,329.1
293.4,945.1
293.4566,159.9
293.46,162.8
293.638,114.5
293.6757,283.9
293.7584,97
293.8233,207.4
293.8323,246.2
293.9318,222.8
293.9963,198.4
294.096,864
294.1023,55464.5
294.3953,212.6
294.4781,935.8
294.4965,395
294.5262,116.4
294.5964,900.3
294.783,79.8
294.9002,151.4
294.9728,219.1
294.9913,511.4
295.0313,2467.1
295.0679,888.9
295.1029,3450.1
295.1276,370.3
295.1953,16710.4
295.6415,658.2
295.7139,526.4
295.7397,700.8
295.771,118.9
295.9014,101.8
295.9454,509.2
295.9581,142.4
296.0099,1174.2
296.0284,181
296.058,775.7
296.164,295.8
296.1986,2269.4
296.2488,295.1
296.381,22.3
296.4044,498.6
296.57,85.1
296.6043,547.1
296.6195,18.7
296.802,540.3
296.9662,272.1
296.988,354.5
297.057,129
297.2418,202.8
297.5275,435.2
297.5889,348.6
297.6034,463.8
297.6165,105.3
297.8582,105.6
298.0325,305.8
298.043,21046.4
298.146,171.2
298.1528,90.1
298.2793,208.8
298.4253,20.2
298.4628,21.1
298.5345,100.6
298.5382,106.9
298.5708,25
298.7627,19.1
298.7984,836.8
298.9621,743
298.987,199.9
299.0238,3281.9
299.0462,1275.4
299.0726,168.3
299.14,5882.1
299.3361,653.2
299.534,106
299.5848,643.7
299.6984,285.7
299.8032,167.8
299.8185,661.5
300.0054,795.9
300.039,247.9
300.044,150.2
300.0495,77
300.076,517.2
300.0814,142.2
300.1432,93.6
300.1602,19.2
300.1875,93.9
300.1963,47.2
300.203,130.8
300.2441,114.1
300.3273,302.3
300.3882,719.4
300.4582,88.5
300.865,233
300.9478,82.3
301.0291,317.9
301.0393,25539.7
301.077,20.1
301.0798,23.4
301.1024,926.8
301.1418,219.5
301.2122,1125.6
301.3446,366.7
301.3817,282.6
301.4509,92.7
301.5868,310.4
301.7236,132.2
301.7419,312.8
301.8111,199.3
301.8169,161
301.8309,16.8
301.8944,442.5
302.0129,360.5
302.0202,133.1
302.0235,346.2
302.0355,186.1
302.0434,95.7
302.0647,5314.4
302.0733,31.4
302.1883,97.5
302.2486,118
302.4957,348.6
302.5729,84.2
302.6077,185
302.6701,296.2
302.6829,99.5
302.6898,184.2
302.6959,499.1
302.6975,480.7
302.6998,209.2
302.7021,369.5
302.704,318
302.7208,214.5
302.7644,115.6
302.8302,2287.9
302.878,99.9
303.0044,298
303.0679,505.2
303.0752,634.7
303.2179,1680.9
303.4402,192
303.504,131.3
303.5371,497.9
303.6347,860.2
303.6816,910.2
303.8629,196.8
303.8779,285.9
303.9018,93.6
303.929,704.6
303.9529,768
303.9587,317.4
304.0603,204.3
304.2212,667.5
304.486,510.5
304.6013,87.5
304.7433,594.6
304.8171,195.3
304.8276,1570.8
304.8654,524.9
304.8889,315.2
304.8983,87.9
304.9237,127.3
304.9762,518
305.0099,337.2
305.2719,212.7
305.4645,138.1
305.6107,168.5
305.6523,277
305.6609,265.8
305.7978,19.7
305.8342,201.9
306.0014,20.6
306.0164,19.8
306.0246,83.3
306.0959,153.3
306.144,85.6
306.2087,212.4
306.3159,448.4
306.3609,194.2
306.6615,87.2
306.6686,80.4
306.6884,168.4
306.7192,254.4
306.9583,1628.1
306.9777,2822.9
307.0126,102.6
307.301,399.2
307.3134,214.4
307.3238,18.4
307.4002,131.5
307.5169,499.8
307.5331,236.2
307.5564,311.8
307.6146,406.8
307.6276,893.9
307.6623,88.6
307.7044,136.9
307.8767,267.4
307.958,539.5
308.0437,908
308.0745,444.4
308.124,17.7
308.453,90
308.5428,74.8
308.6579,193.4
308.7327,21.5
308.88,1497.6
308.9755,827.8
309.0081,862.7
309.0213,118
309.038,3479
309.0465,527.9
309.0831,1235.7
309.1181,310.8
309.1773,186.3
309.2946,109
309.3346,18.8
309.502,611.8
309.8324,361.8
309.856,96.3
309.9547,478.9
310.2049,107.6
310.496,533.2
310.5891,118.2
310.6266,257.8
310.6988,278.6
310.7342,106.1
310.8773,839
311.004,213.4
311.074,88.2
311.1151,96.3
311.1231,83.6
311.1423,23.1
311.1723,85.6
311.4064,178.8
311.4413,463.3
311.5801,103.4
311.7024,146.5
311.8705,161.3
311.9165,344.9
312.0417,1393.9
312.0782,88.6
312.1603,17.7
312.3469,160.7
312.499,173.5
312.5539,138.9
312.5582,137.6
312.5771,249.2
312.6149,148.6
312.6244,218.2
312.6472,135.5
312.7995,82.5
312.8628,712.1
313.0027,127.3
313.1439,523
313.2748,44125.7
313.3782,98.4
313.6683,306.9
313.7188,330.5
313.9364,218.9
314.0161,316.1
314.0199,394.2
314.0917,162.8
314.141,114.6
314.18,103.2
314.187,106.1
314.2781,5790.5
314.3302,18.2
314.4903,238.3
314.5806,416.9
314.5979,342.4
314.618,339.5
314.6756,410.6
314.7939,19.8
314.8224,78.9
314.8241,72.7
314.8377,5378.9
314.9007,403.2
314.97,120.2
314.9867,794.1
314.9998,7814.9
315.0292,304.9
315.0331,394.8
315.0397,323.9
315.0439,793.6
315.0482,2050.1
315.0503,2753.8
315.0525,4948.1
315.0561,9500.1
315.0586,6232
315.0636,8309.1
315.0671,25911.8
315.0702,35831.4
315.0724,25065.6
315.0809,10819756
315.0891,29301.3
315.0913,20841.8
315.0935,13506.1
315.0954,10285.4
315.1008,6979.2
315.1025,5529.7
315.105,4489.2
315.1069,3581.1
315.1093,2898.1
315.1135,1333.7
315.1223,326.7
315.162,8224.9
315.2425,136.1
315.2602,180.5
315.2678,305.2
315.3243,7872.7
315.4869,434
315.5588,500.8
315.6109,163.4
315.6198,291
315.6562,694.7
315.779,86.1
315.8794,131.5
315.9531,585.4
316.0536,59.7
316.0684,2275.8
316.0783,59206.2
316.0842,1146509.1
316.1319,250.5
316.2848,334.2
316.3084,81
316.3777,246.6
316.4188,103.3
316.6346,855.2
316.6692,93.4
316.7777,364.7
316.9871,1214.6
317.0173,379.2
317.0235,749.2
317.0461,18.2
317.0568,493
317.0658,3307.4
317.0722,140.2
317.0847,127713.2
317.1329,637.1
317.1815,448.1
317.284,115.1
317.3507,19.8
317.3876,153.2
317.4556,279.9
317.5432,88.3
317.5686,129
317.6965,404.8
317.7334,21.3
317.8223,152.6
317.9177,917.3
318.0512,77
318.0883,13533.5
318.1068,98.2
318.2955,837.1
318.574,443
318.5853,212
318.5983,20
318.7366,150.9
318.7861,213.6
318.7991,213.6
318.8039,1542.4
318.9845,910.6
319.0216,549.5
319.0443,117.9
319.1012,588.6
319.1588,233.2
319.1954,40528.8
319.2167,634.8
319.2369,257.6
319.3145,87.7
319.3641,206.1
319.5135,19
319.5971,549.7
319.7749,433.6
319.9866,379.7
320.0753,205.8
320.1106,650.9
320.1595,894
320.1987,4880.8
320.2596,1338.4
320.4964,446.8
320.5192,145.2
320.5245,667.7
320.6886,369.1
320.6961,326.2
320.7163,198.4
320.7437,470.4
320.8014,340.3
320.8651,228.4
320.9453,166.9
321.0759,85.7
321.118,303.8
321.1432,194.1
321.2111,41003.9
321.2624,60.5
321.3208,122.2
321.3301,19.5
321.405,96.5
321.4114,862.3
321.5541,448
321.565,94.6
321.7253,341.6
321.7395,191
321.7467,22.5
321.7578,490
321.8413,557.8
321.9158,147.2
322.0082,375.7
322.0448,461.2
322.2144,3820.3
322.3388,535.1
322.3826,108.8
322.5145,119.6
322.6276,132
322.6625,272.9
322.707,789.9
322.7203,769
322.7367,1131.4
322.8124,344.7
322.9252,133.6
322.9522,372
323.0213,11577.9
323.0543,134.7
323.0717,490.2
323.1651,446
323.2267,295.1
323.3344,480.7
323.5329,18
323.7716,145.4
323.8011,96
324.006,145.8
324.0519,408.8
324.0788,175
324.2029,927.5
324.2673,262.1
324.3325,183
324.3887,28
324.3971,469.9
324.5649,88.7
324.5738,246.2
324.5897,1381.6
324.5973,3879.8
324.5998,3818.6
324.608,3271.9
324.6109,3763.3
324.6169,2605.3
324.6327,451.4
324.7142,650.5
324.7792,20.9
324.8093,366.2
324.8541,1052.8
324.9397,104
324.9674,186.5
325.0029,1389.7
325.057,1076.1
325.1024,205.1
325.1817,195.1
325.2044,149.4
325.2124,2631.8
325.5255,657.6
325.6916,151.4
325.7796,177.6
325.8334,165.1
325.8993,314.2
325.9273,724.5
325.961,862.3
325.9662,248
326.0056,47.3
326.1153,108.8
326.1512,128.6
326.1813,417.8
326.4746,123.9
326.5965,355.5
326.6563,476.1
326.7793,410.9
326.7966,18
326.8508,1003.6
326.8738,198.4
326.948,16.7
326.9779,175.9
327.0163,3935.2
327.0359,140.6
327.0664,109.2
327.175,21.1
327.2283,9614.2
327.4445,88.3
327.5102,224.3
327.7669,19.7
327.7761,904.8
327.8777,745.7
327.907,496.2
327.9804,553.3
328.0156,1014
328.1171,209.7
328.1352,217.3
328.1544,132
328.3203,155.7
328.4437,1119.6
328.4529,362.7
328.4687,288.6
328.4911,545.1
328.5619,156.1
328.6968,139.5
328.7491,949.4
328.8477,1232.6
328.9662,160.2
328.9836,289.8
329.0966,2931.7
329.2467,108.9
329.3191,184.1
329.3452,604
329.364,18.8
329.38,104.3
329.4216,100.5
329.4603,181.6
329.7459,618.9
329.7926,655.3
329.8498,640.9
330.0598,210.6
330.3514,98.1
330.3985,161.4
330.6449,264.1
330.7022,448.2
330.7543,505.9
330.8181,335.7
330.8275,112.4
330.9366,202.9
330.9886,77.4
331.0199,2051.4
331.0461,165769.7
331.0548,1747723.5
331.1417,391.2
331.3183,278.7
331.3436,221.9
331.3665,18.7
331.4211,439.7
331.6909,20.8
331.8475,828.3
331.9406,439.1
331.9575,113.4
331.9951,83.1
332.001,18.5
332.0487,13519.1
332.0582,156838.6
332.2499,487.9
332.2728,217.7
332.3336,376.1
332.5075,176.4
332.7285,116.5
332.7493,397.9
332.8502,439.3
332.8994,196.6
332.9613,590.3
333.0529,103642.5
333.0585,18371.3
333.1573,727.7
333.1644,132.1
333.317,580.3
333.5538,84.5
333.9651,128.5
334.0563,8242
334.0907,87.3
334.1865,143.7
334.2441,219.1
334.3691,551.9
334.424,86.7
334.466,605.3
334.6805,281.3
334.796,558.5
334.9882,140.3
335.0385,760.5
335.1841,186.6
335.1998,194.5
335.3348,883.7
335.3968,102.2
335.5243,614.6
335.6244,160.2
335.6552,19.2
335.7189,126.3
335.795,293.4
335.8919,112.6
336.0749,22
336.2044,171.7
336.2501,310.2
336.2793,593.8
337.037,13149.1
337.0504,30850.5
337.0628,831797.8
337.2748,9987.6
337.3542,230.8
337.4443,358.2
337.6355,109.9
337.6634,589.2
337.7535,312.7
337.8053,859.8
337.8404,190.8
338.0457,278.1
338.052,727.9
338.0662,74977.8
338.1243,740.1
338.172,632.6
338.2114,510.8
338.2496,143.2
338.2642,81.6
338.3423,843.2
338.4532,72.7
338.5776,118.2
338.6096,139.7
338.7392,459.1
338.8195,22.5
338.836,92.3
338.906,325.9
338.9216,309
338.93,257.4
339.0391,2129.9
339.0479,2270.6
339.0666,6922.1
339.2518,3951
339.2905,7087.6
339.5234,91
339.5912,583.3
339.8548,95.2
339.8662,138
339.9476,236.7
340.0423,101.9
340.0557,303.5
340.2093,20.2
340.408,165.5
340.6756,128.7
340.6886,145.7
340.8279,338.8
340.9077,369.2
340.9205,221.2
340.9882,375.2
341.0187,51.2
341.031,354.1
341.0355,737.7
341.127,220.4
341.1737,386.8
341.1865,521.1
341.2593,293.7
341.3064,2370.4
341.5001,568.6
341.6202,22.9
341.9201,241.8
341.9533,97.3
342.0312,113.8
342.0696,33.2
342.1654,97.1
342.481,17.5
342.4899,481.1
342.6107,93.5
342.7163,758.3
342.7686,133
342.8081,181.7
342.8251,323.8
342.8877,206.3
342.9901,2103.2
343.0136,822.8
343.0633,427.3
343.1295,131.8
343.1955,10255.3
343.202,575.1
343.3071,200.6
343.3156,113
343.3351,195.8
343.3655,481.6
343.5318,513.1
343.8232,116.7
343.8887,486.4
343.933,16
343.9481,116.9
344.0176,547.6
344.0498,156
344.1671,202.9
344.1986,605.1
344.3374,680.6
344.382,685
344.5084,22.1
344.5215,17.7
344.5638,223.4
344.5723,195.5
344.671,181.7
344.7022,21.3
344.7295,101.9
344.7466,202.8
344.7812,19.3
344.9274,930.8
345.0567,900.3
345.1468,428.7
345.2106,529
345.2575,223.1
345.3113,892.7
345.3369,149.8
345.5287,90
345.8176,84
345.8304,331.8
345.9845,1306.9
346.0411,21.2
346.0531,110.3
346.0889,92.4
346.3045,116.8
346.4811,103.6
346.5118,104.1
346.6252,306.7
346.7639,384.7
346.8127,215.9
346.8249,565.7
346.931,118.2
347.0422,296.4
347.291,98.2
347.3069,395.7
347.4756,268.8
347.565,144
347.707,91.2
347.7388,19.1
347.7763,168.2
347.9747,152.7
348.119,516.8
348.1595,91.5
348.1697,195.4
348.432,95.2
348.605,869.5
349.0676,150
349.139,192.6
349.1644,525.4
349.1775,197.4
349.2277,107.8
349.393,89.3
349.6933,153.5
349.9447,218.2
350.0187,670.1
350.3516,354.9
350.5318,460.1
350.8119,905.9
350.8901,114.2
350.9233,727.5
351.0934,321.9
351.1494,77.6
351.2026,493.9
351.6893,21.7
351.8567,22.5
351.9333,166.8
351.9466,294.3
352.0246,123.2
352.0473,22.2
352.4846,479.1
352.7855,506.7
352.8281,323.4
352.8579,172.8
352.8741,142.9
352.9155,108.8
353.028,192463.8
353.0368,313478.9
353.1469,523
353.3997,515.7
353.5055,154.8
353.6816,233
353.8966,319.6
354.0229,136.9
354.0312,15736.8
354.0402,28014.7
354.1128,682.6
354.314,81.9
354.4308,222.9
354.4402,673.6
354.4855,117.3
354.7663,843.1
355.0126,2191
355.0351,17276.2
355.0711,253.3
355.373,433.2
355.7603,168.4
355.9047,19.2
356.0158,163.6
356.0689,383.2
356.1604,399.2
356.1779,1047.8
356.2104,464
356.2599,126.2
356.311,484.4
356.3285,167.9
356.3655,137.1
356.3889,172.5
356.3945,143.1
356.4282,226.3
356.4635,95.2
356.5969,754.7
356.7924,292
357.0094,1052.7
357.021,433.2
357.0326,21.5
357.169,87.2
357.3044,261.5
357.5869,733.6
357.5893,951.4
357.5987,301.6
357.6124,649.7
357.6155,618.3
357.6265,568.8
357.6575,208.2
357.7707,442.8
357.7769,420.8
357.8258,88.7
357.9279,18.2
358.0099,40.6
358.0146,43
358.1011,105.2
358.2621,196.9
358.3172,224.3
358.3886,870.8
358.5413,156.4
358.7108,561.7
358.7509,448.3
358.8325,652.5
358.8723,219.9
358.9551,208
359.0082,607.7
359.0323,19104.8
359.0449,472748.7
359.0744,582.3
359.2493,18.9
359.3907,101.3
359.3989,25.3
359.4047,132.5
359.4155,771.6
359.4383,23
359.453,120.1
359.4607,326.3
359.4717,1364.7
359.488,653.8
359.5005,611.3
359.5091,1136.9
359.5262,891.5
359.5456,874.8
359.5573,322.3
359.5638,180.6
359.5703,404
359.5805,502.7
359.5975,106
359.6784,20.1
359.7217,532.7
359.7366,147.9
359.7933,83.4
359.8437,443.7
359.8471,1123.7
360.0294,360.2
360.0482,43518.2
360.0676,188.2
360.1452,111.1
360.3245,1186.2
360.3567,389.9
360.3958,735.2
360.498,197.7
360.6586,671.6
360.6703,21
360.7301,512.4
360.9506,158.2
361.0141,320.2
361.021,5196.6
361.0296,84.6
361.0486,978.1
361.1619,306.1
361.2316,20.3
361.2735,81.9
361.3285,62
361.3392,16.6
361.378,17
361.439,83.3
361.6705,21.3
361.928,602.9
362.0231,235.9
362.0818,515.8
362.1239,218.1
362.3205,781.1
362.3328,459.4
362.3386,20.9
362.4077,88.8
362.5344,100
362.564,97.1
362.6463,20.1
362.6596,229.7
362.9645,641.9
363.0127,230.3
363.0823,232.1
363.084,226
363.0924,20.2
363.2393,317.6
363.3289,213
363.3565,572.3
363.4253,20
363.4805,121.1
363.5264,151.3
363.6039,143
363.6083,339.4
364.0518,111.7
364.1599,534.2
364.3359,192.6
364.7455,120.8
364.8983,19
364.9404,153
364.9977,276.5
365.2723,426.6
365.2961,140.5
365.3962,85.5
365.4939,106.3
365.6594,137.9
365.6814,109.1
365.6861,184.9
365.8149,313.5
365.9618,798
366.0473,458.2
366.2938,96.7
366.3601,198.6
366.452,21
366.6134,125.2
366.753,179.4
366.7734,128
366.8307,470.9
366.9268,260.4
367.0789,20.4
367.1228,2378.3
367.1404,88.2
367.1957,1921.8
367.2313,24.3
367.7434,188.7
367.8856,98.8
367.9129,369.4
367.981,96
368.0552,101.3
368.189,147.9
368.705,80.3
368.7239,136.3
368.8656,392.3
368.872,1223.6
368.9499,498.6
368.9714,17.7
368.9931,3593.7
369.0019,26053.9
369.0108,12682.3
369.103,587.5
369.1523,158.3
369.1908,800.8
369.258,150.2
369.3524,33.3
369.447,303.3
369.6048,304.9
369.8479,179.1
370.0054,93.1
370.0669,406.6
370.2638,255.9
370.268,227.4
370.3389,81.2
370.3511,122.1
370.378,127
370.6835,151.2
370.7606,353.7
370.8911,113.3
370.9129,108.9
371.0016,143.7
371.0092,112.3
371.038,166.7
371.1375,162
371.2649,843.3
371.3084,118.5
371.3826,616.7
371.5275,20.4
371.6474,25.7
371.6554,202.9
372.044,17.8
372.1022,404.8
372.4495,19.2
372.4915,92.1
372.7065,317.4
372.7205,117.7
372.7366,345
372.7895,830.3
372.9313,156.7
373.0234,263
373.0623,199.3
373.2549,325.7
373.2961,178.2
373.3353,18.6
373.497,210.5
373.7004,225
373.8138,215.7
373.932,86.2
373.9504,83.5
373.9844,213.1
374.114,270.8
374.1603,944.3
374.3605,18.4
374.4299,767.7
374.5341,280
374.7123,796.1
374.8378,103.6
374.8568,843.6
374.968,122.8
375.01,166939.7
375.0188,161543
375.102,91.7
375.2946,735.7
375.3091,21.7
375.4555,20.2
375.5227,152.3
375.6286,83
375.8374,189.3
375.9202,377.4
375.9433,115.2
376.0131,11724.4
376.0222,12972.3
376.0778,516.6
376.1112,18.7
376.2108,18.7
376.3622,850.4
376.3753,97.5
376.3893,797.5
376.4216,152.3
376.5896,619
376.6611,89.1
376.6904,181.3
376.7621,1223.3
376.8751,781.1
376.9705,539.7
376.9948,1423.8
377.0172,9071.1
377.2286,367.1
377.3303,91.3
377.3484,19.1
377.7599,499.7
377.8082,855.7
377.9976,149.8
378.3354,350.3
378.3872,240.3
378.3957,90
378.4344,89.4
378.4915,127.1
378.5997,214.8
378.6875,21
378.7547,93.6
378.8002,135.3
378.8393,112
378.8517,195.2
378.8914,172.9
378.9015,750.8
378.9284,18.6
378.9912,155
379.0265,85.1
379.333,233.1
379.5124,467.2
379.7767,16.6
379.8746,191.2
379.9715,104.9
380.0144,838.4
380.0575,561.5
380.2702,678.6
380.4999,87.2
380.7247,134.2
380.7603,273.3
380.771,984.8
380.8918,331.2
380.9913,32.2
381.0145,26658.7
381.0269,246891.5
381.1849,300.8
381.3034,189
381.3284,85.9
381.4492,326.3
381.6223,566.8
381.7876,111.7
381.9948,180.1
382.0302,21843
382.1946,17.9
382.2549,561.5
382.3494,108.2
382.3865,104.2
382.4295,237.8
382.4669,91.8
382.508,475.1
382.5919,87.4
382.6805,17.6
382.7683,749.1
382.8135,218
383.0283,592.5
383.1172,138668.6
383.4122,147.8
383.4645,492.7
383.567,19.4
383.6273,582.5
384.1205,14236.8
384.7051,121.5
384.7272,829.7
384.7655,316.1
384.8881,278.7
384.9705,23.3
385.1988,19.9
385.3749,646.8
385.5553,388.9
385.5979,171.2
385.9748,195.8
386.0507,133.1
386.1168,588.6
386.1578,17.2
386.2679,21.4
386.3176,19.2
386.3241,93.4
386.5274,94.7
386.6717,741.4
386.7549,387.7
387.0039,3254
387.1708,736.2
387.2399,841.9
387.5269,113.4
387.5363,300.6
387.5493,540.7
387.7599,19.3
387.9657,577.3
388.1591,222.6
388.3082,568.1
388.3267,289.9
388.3562,744.9
388.3819,232
388.7134,365.9
388.7308,278.8
388.7372,1578.9
388.8505,152.2
388.991,621.2
389.0017,539.4
389.0923,165.6
389.1479,328.2
389.3644,318.8
389.5095,173.6
389.6171,100.9
389.9744,2124.2
389.9943,29.2
390.0623,297
390.1218,100.3
390.227,16.9
390.2602,176.4
390.2697,470.1
390.3299,634.1
390.5037,602.9
390.5646,293
390.575,618.6
390.7427,192.5
390.7992,933.1
390.8432,103.4
390.8523,20.8
390.8592,395.1
390.8765,1190.2
390.8977,736.4
390.9641,20
390.9751,14594
390.9839,37693
390.9928,19938.1
391.0184,242.1
391.1618,644.4
391.1878,454
391.3502,187.5
391.4263,201.5
391.4882,209
391.5284,564.2
391.8128,19.5
391.9871,515.5
391.9964,411.8
392.0749,209.9
392.1757,18.6
392.1823,97.4
392.4559,162.4
392.4713,161.6
392.5985,17.6
392.7971,1186.3
392.8393,655.7
392.96,59.7
392.9937,659.4
393.0042,111.3
393.1211,21.9
393.3786,90.7
393.6884,157.6
393.7986,251
393.9561,366.6
394.1988,646
394.2209,172.5
394.5171,101.6
394.5688,108
394.602,542.4
394.6423,120.5
394.7737,98.9
394.7815,97.2
394.8291,444.8
394.8647,178.7
394.8825,18.3
394.9945,908.2
395.2153,169.9
395.2378,159.5
395.3647,107.5
395.3915,548.6
395.4103,86.9
395.5279,167.5
395.5883,267
395.615,183.3
395.71,138.4
395.7724,663.9
396.0927,97.8
396.2056,417.1
396.2132,416.3
396.3071,175.5
396.4599,773.6
396.4764,633.4
396.6351,444
396.7071,490.5
396.9396,562
396.9552,120.5
396.9724,22.6
396.992,199252.2
397.0008,90545.8
397.0302,324.3
397.0568,442.4
397.1629,251.9
397.19,261.8
397.2572,130.9
397.2894,472.8
397.3519,186.5
397.3772,226.9
397.3999,88.3
397.7005,200.3
397.9169,554.1
397.9241,19.3
397.9547,101.1
397.9952,17921.1
398.0042,3778.8
398.0337,207.1
398.2049,974.7
398.2427,5934.2
398.2577,488.1
398.3421,146.5
398.3698,94.7
398.3936,163.2
398.4355,22.3
398.7327,312
398.7418,581.2
398.8454,378.5
398.894,653.5
398.9764,70
398.9869,630.2
398.9992,2489.8
399.2125,233.9
399.2467,17.8
399.2864,505.7
399.4381,231.9
399.5113,131.1
399.6362,475.6
399.8021,324.8
399.8558,228.4
399.8863,837.3
399.9018,731.5
399.9384,89.5
399.9531,293.8
400.1617,220.9
400.2146,186.8
400.36,344.5
400.4194,317.3
400.5775,148.5
400.5972,601.2
400.7162,191.6
400.7391,848.1
400.9735,31.1
400.9848,446.5
401.0188,116.2
401.3615,301.5
401.459,111.9
401.501,16.8
401.5246,523.8
401.5346,22.7
401.5454,133.9
401.6676,150.2
401.7911,189.4
402.4836,89.7
402.6856,365.7
402.8262,414.8
403.0089,285357.4
403.0377,18.1
403.1619,88.4
403.4409,16.7
403.5187,249.5
403.7725,22.2
403.9221,217.9
403.9647,18.1
404.0122,23937.6
404.0428,280.2
404.1223,196.9
404.1927,547.6
404.3538,149.9
404.453,181.4
404.688,342.3
404.7998,295.9
404.9894,98.5
405.0134,2669.9
405.0866,224.4
405.1518,200.9
405.1646,85.3
405.2126,174.7
405.3955,105.4
405.4271,762.6
405.6476,88.8
405.9483,639.9
406.0497,963.6
406.0837,786.4
406.3304,930.9
406.3823,308.7
406.4207,122.7
406.591,19.8
406.668,750.4
406.6837,345.7
407.0089,24.9
407.083,115.4
407.3092,19.4
407.3336,212.9
407.3829,112.8
407.5032,205.8
407.5375,95.8
407.5729,468.6
407.8555,19.9
408.2258,23.1
408.2888,154.8
408.3051,96
408.4134,118.6
408.4713,241.4
408.6666,691
408.7709,872.4
408.7999,290.4
408.9221,100.9
408.9855,3312.1
409.1846,565.9
409.2587,1299.6
409.3453,1057.1
409.5736,713.8
409.6803,290.2
409.7599,330.1
409.8352,133.5
410.0317,302.4
410.141,228.8
410.1532,777.4
410.6355,612.9
410.8289,420.5
410.9702,90.6
411.1853,87.1
411.2693,264.3
411.4882,163.4
411.5368,695.1
411.7858,863.5
411.8646,24.5
411.9174,268.6
411.9738,310.1
411.9893,21.3
412.0279,103.5
412.166,789.5
412.2064,21.1
412.268,18.7
412.2854,450
412.3221,1933.4
412.4481,427.5
412.7172,388.2
412.8549,934.3
412.9237,262.7
412.9659,38210.1
412.9748,19310.7
412.9866,21.3
413.064,98.8
413.0972,310.7
413.2213,186
413.2671,2898
413.3082,295.8
413.3262,296.5
413.3372,20.5
413.3742,119.4
413.4188,20
413.4304,298.3
413.599,84.1
413.6752,97.8
413.9216,121.2
413.9696,501.3
413.9791,99.2
414.1967,163.7
414.2238,181.6
414.2707,382.9
414.5167,16.5
414.7166,574.1
414.8786,97.4
414.9731,138.1
414.9983,2797.4
415.0351,256.9
415.1095,814
415.185,609.6
415.2859,100.9
415.3578,809.5
416.1363,7920.2
416.1693,160.3
416.1782,638.1
416.2151,47271.3
416.38,723.3
416.4332,346.8
416.5371,618.8
416.5423,525
416.8425,142.6
416.8575,232.3
416.901,20.9
416.9121,25.3
417.1251,192.2
417.1698,132.7
417.2027,815.2
417.2181,5732.6
417.5068,107.4
417.5665,329.6
417.5949,86.9
417.682,100.7
417.8705,294.1
417.9727,21.4
418.442,121.2
418.8054,82.3
418.8298,96.4
418.9142,22.2
418.9647,393.2
418.9828,111653
419.057,639.8
419.0896,383.7
419.2575,888.9
419.4828,92.3
419.8404,344.1
419.8742,118
419.94,260.1
419.9862,6149.2
420.2463,106.1
420.3771,321
420.4308,258.3
420.5644,299.2
420.5697,293.7
420.6517,170.7
420.8206,486.8
420.886,730.4
420.9575,125.9
420.981,5239.9
421.1934,95
421.2206,618.7
421.398,221.1
421.7469,119.7
421.8621,298.9
421.9686,20.6
422.3039,82.6
422.7469,603.7
422.7965,222.2
422.84,18.8
422.8787,102.5
423.1049,177.6
423.3428,286.5
423.4064,108.4
423.7203,123.8
423.7457,421.9
424.1207,275.2
424.2743,524.1
424.2829,262.6
424.4893,331.4
424.6362,589.2
424.744,571.5
424.8921,347.2
425.4459,605.3
425.7152,101.9
425.799,777.2
425.835,429.7
425.9075,85.6
426.1363,849.7
426.1637,20.1
426.3801,152.4
426.3891,823.3
426.6279,167.1
427.0567,879.3
427.0698,17.8
427.0768,84.3
427.1436,135.4
427.1844,157.5
427.2417,123.5
427.5781,167.3
427.5923,627.9
427.7574,138.4
427.8013,84.1
427.9445,194.5
428.0417,101.5
428.1853,101.7
428.5588,194.4
428.7816,199.6
428.9401,2105.3
428.9567,342.5
428.9814,716.4
429.0031,23.4
429.035,165.8
429.0896,70
429.1541,223.1
429.2413,23.9
429.592,123.8
429.7827,619.1
429.8234,440.7
430.0074,22.5
430.2543,19.5
430.3466,134.9
430.3875,228.9
430.5576,381.8
430.8094,21
430.876,132
430.9019,84.6
430.9162,776.7
431.0173,728.4
431.0542,731.9
431.1712,314.2
431.182,93.3
431.2182,3288.5
431.8462,373.8
431.9702,386.4
432.0217,832.3
432.0326,480.9
432.6254,628.3
432.7333,132.1
432.957,99.5
433.026,20.2
433.1464,280.3
433.2552,470.6
433.412,287
433.5248,175.4
433.7443,546.6
433.8572,92.9
434.1034,151.2
434.2141,18.7
434.5878,144.9
434.9569,22784.7
435.363,144.9
435.4985,18.4
435.5939,578.8
435.6063,19.6
435.7287,82.5
435.8148,322.4
435.9603,1051.4
436.1805,308.8
436.2596,131.2
436.4251,539.1
436.7435,158.8
436.9191,781.3
436.9389,109.6
436.9547,717.1
436.9719,90.6
437.0357,202.6
437.1956,112.6
437.2501,90.4
437.6224,220.9
437.7177,150.9
437.8331,90
438.0054,216
438.1071,630.4
438.1974,2382.7
438.3162,179.6
438.3554,171.2
438.4781,303.2
438.767,244.9
438.9059,509.1
438.9732,3601.1
438.9857,4513.5
439.033,19.8
439.1547,95.2
439.6773,561.7
439.7875,266
440.3605,180.8
440.4167,547.1
440.5595,600.8
440.6775,131.9
440.7265,501.6
440.7611,418
440.971,841.5
440.9829,689
441.2379,628.1
441.2987,261.9
441.8876,151.3
442.3063,116.1
442.3394,18.1
442.3904,134.6
442.4872,482
442.5988,370.2
442.6853,134.2
442.6995,459
442.7988,117.9
443.0284,605
443.1208,172.8
443.2544,568.2
443.3369,501.9
443.4147,152.1
443.4894,654.6
443.6351,163
443.7145,355.1
443.7696,18.3
443.9291,136.6
444.5315,21.2
444.6183,80.3
444.6297,124.3
444.8729,18.8
444.9343,878.5
444.949,517.8
445.1566,136.2
445.1651,286.5
445.234,860.6
445.2538,455.3
445.2701,1451.8
445.3076,627.2
445.4861,564.9
445.619,93.9
445.7174,444.8
445.793,524.4
446.3434,190.7
446.3642,481.9
446.5961,283.5
446.645,654.3
446.6723,727.9
447.0007,19
447.0997,200
447.1669,465.3
447.2739,166.2
447.3603,354
447.4891,130.7
447.6998,527.2
447.9023,211.6
447.9427,21.2
447.9861,526.9
448.4992,176.6
448.5897,594.5
448.6978,185.5
448.8418,629.7
448.8647,777.1
448.9333,4342
448.9612,818.8
449.0008,327.4
449.1275,175
449.1552,1738.1
449.1812,780.6
449.7908,191.7
449.8516,141.2
449.9134,783
450.0604,116.3
450.093,317.9
450.1039,150.3
450.1585,280.6
450.3856,508.1
450.6471,327.2
450.7496,584.9
450.9302,1348.3
451.1511,130.2
451.3845,18.4
451.4511,622
451.8739,204.6
451.9712,284.7
452.1235,82
452.4721,404.7
452.663,817.4
452.8226,178.6
452.8796,543.4
452.944,1065.5
453.0208,20.4
453.174,558.5
453.3076,19.3
453.4352,21.8
453.5299,107.7
453.7032,484.1
454.2548,568.6
454.3542,19.5
454.3791,944
454.7342,211.7
454.8053,137.2
454.8534,20.1
454.9187,106.1
454.9509,39862.7
454.9756,635
455.2256,555.3
455.8584,555.4
455.9535,1669.8
456.5209,103.9
456.5369,299.7
456.7014,370.6
456.9481,9181.8
457.0286,116.3
457.2337,16251
457.2512,519.9
457.6206,275.1
457.7533,71.4
457.8293,89.6
457.9524,685
458.0311,1064.2
458.2375,1079.5
458.5024,87.7
458.6403,17
458.7725,20.3
458.8933,195.3
458.9624,5500.3
459.2122,180.4
459.2495,439181.9
459.3133,91.7
459.6794,78.7
459.6888,614.6
459.8755,224.2
459.9131,543.4
460.2528,87484.9
460.3088,303
460.3666,113.7
460.3859,139.1
460.6706,205.9
460.6908,328.8
460.7157,194.2
460.8577,105.8
460.8865,150
460.9415,627.4
460.9676,83547.1
460.9991,22.8
461.0427,166
461.0721,884.2
461.2562,5097.9
461.2913,114.4
461.7113,141.7
461.7927,685.9
461.8687,131.9
461.971,6389.6
462.2555,983.9
462.5772,478.8
462.7334,297.9
462.9647,22025.3
463.0701,105.5
463.8089,96.7
463.9012,213.6
463.9709,371.6
464.0777,199.7
464.1518,112.3
464.3849,928.8
464.7419,412.6
464.9616,333.6
464.9794,13408.1
465.0474,119.5
465.0582,189.1
465.1195,29.1
465.13,21
465.4266,625.3
465.4431,200.3
465.6318,591.8
465.9002,197.7
466.0976,544.8
466.1272,223.2
466.8297,139.2
466.9174,17.8
467.1214,309.5
467.2984,149.3
467.3159,293.9
467.5026,190.6
467.549,314.1
467.6054,452.2
467.6242,514.5
468.3099,1976.2
468.3836,520
468.6465,143.3
468.7422,84.2
468.8127,110.7
468.9861,334.9
469.1333,86.4
469.142,21.8
469.3307,980.5
469.35,18.9
469.7246,95.9
470.2651,580.5
470.2764,614.3
470.4181,79
470.4255,20.9
470.4518,911.8
470.4679,115.7
470.644,687.7
470.7777,280.8
470.7921,197.8
470.8275,984.5
470.9246,17700.9
470.9786,844.1
470.9961,3146
471.1273,299.7
471.2856,479.3
471.3,612.9
471.4095,105.1
471.9279,411.9
471.9554,277.6
472.1203,121.8
472.3803,582.6
472.3889,108
472.65,650.2
472.674,537.3
472.9217,3552.1
472.9376,294
472.9646,1033.7
472.9871,787.8
473.0915,92.6
473.1516,243.8
473.1788,581.5
473.3067,534.4
473.4392,316.8
473.4817,1019.7
473.5482,122.6
473.6364,155.8
473.8136,448.2
473.9508,339.3
474.2901,139.2
474.3415,423.8
474.4017,18
474.7273,182.7
474.8597,87
474.8719,184.9
475.0095,103.9
475.2234,24667
475.2798,612.6
475.3058,121.8
475.4744,81
475.9213,95.4
476.0724,93.6
476.0877,228.3
476.1444,303.3
476.2276,2227.9
476.3248,143.3
476.3409,19.3
476.3681,151.2
476.4179,20
476.6381,294.4
476.9415,55802
476.9755,492.5
477.2706,684.6
477.2981,714.3
477.3147,324.6
477.4932,481.1
477.4959,512.9
477.5025,253.6
477.5386,124.2
477.711,556.9
477.8737,115.3
477.9017,1063.2
477.9449,3700
478.1996,596.1
478.3303,39868.9
478.4536,437.2
478.5087,23.1
478.7959,283.6
478.921,259.5
478.9389,17408.2
479.0398,187.8
479.2216,91.6
479.244,555.1
479.2559,209.5
479.334,2512.1
479.3663,842.6
479.5825,309.3
479.7614,83
479.8259,534.4
479.8704,248.9
479.8965,137.3
479.9421,1229.6
480.1844,111.9
480.3318,495.6
480.3453,550.3
480.4462,770.1
480.7025,662.6
480.9004,119.5
480.9534,3740.8
480.9973,190.1
481.1944,633.2
481.3902,260.5
481.59,119.5
481.9578,333.5
482.2847,406.8
482.3259,1077.3
482.3594,1223.3
482.6113,112.2
482.9355,131.2
483.1044,87.7
483.1145,541.9
483.2495,141003.7
483.6159,326.1
483.68,17.7
483.7385,426.8
483.7609,230.2
483.8288,116.4
483.897,115.5
483.9352,120.4
484.0924,857.5
484.1315,86.2
484.2042,151.6
484.2529,30680.5
484.4343,949.1
484.547,174.5
484.889,208.8
484.9178,252.9
485.2218,346.6
485.248,144.1
485.2651,109999.5
485.5492,690.6
485.7329,92.8
485.9557,571.4
485.9841,314.6
486.0414,19
486.1998,354
486.2686,24794
486.899,1878
486.9704,1321.9
487.1151,19.3
487.1482,192.2
487.2808,79310.2
487.3403,963.4
487.4808,203
487.6357,563.4
487.9809,194.2
488.0552,231.1
488.2681,348.1
488.2842,17530.6
488.4694,138
488.5846,871.2
488.6174,999.6
488.6419,297.7
488.7391,281.9
488.8973,405.1
488.9141,98.6
489.0175,512.5
489.0878,41.3
489.1097,449.3
489.1209,160.6
489.1674,697
489.2248,173.3
489.2321,467
489.2798,491.1
489.2989,202.5
489.317,322.8
489.3452,496.3
489.3579,256.7
489.4125,927.4
489.4479,432.1
489.6718,523.6
489.8202,108.7
489.9118,227.8
489.9853,357.5
490.0293,83
490.0497,135.4
490.0853,21
490.1149,83.3
490.1295,159.8
490.2918,5935.8
490.5727,93
490.6514,351.2
490.6899,509.3
491.2765,201.5
491.3718,2260.5
491.9468,211.7
492.1354,206.6
492.2313,494.8
492.463,435.1
492.7689,142.5
492.7795,87
492.8182,81.1
492.9153,10288.3
492.9792,92.4
493.4425,91
493.5258,193.7
493.7675,19.3
493.9198,483.2
494.054,85.1
494.0719,602.1
494.1278,22.5
494.2454,753.3
494.3254,13741.5
494.819,627.9
494.8925,87.2
494.9129,3830.3
495.1487,19.3
495.3294,2361
495.5565,98.9
495.5794,197.1
495.6078,376
495.6309,99.6
495.6588,83.5
496.0365,413.5
496.1067,102.1
496.168,128.7
496.3171,298.6
496.3411,540368.3
496.6115,133.6
496.8818,18.6
496.9323,1042.5
497.1996,803.9
497.3443,131747.8
497.4078,171.7
497.6188,96
497.6654,481
497.7399,83.6
497.8978,137.9
497.9313,383.5
498.2644,692.4
498.3476,10057.4
498.6105,633.2
498.6745,857.1
498.9263,453.6
499.181,794.1
499.2231,5586
499.7092,281.3
499.8101,381.4
499.9026,576.6
500.0251,139.6
500.057,134
500.1076,197
500.2748,495.8
500.3223,526.7
500.431,438.2
500.4759,144.7
500.4936,92.9
500.9231,251.6
501.1603,425.8
501.2232,789.8
501.2391,5375.4
501.3196,91.1
501.3992,120.4
501.4215,87.7
501.481,498.6
501.5871,126.1
501.6786,115
501.768,805.9
501.7781,18
501.9627,166.5
502.0714,191.1
502.1633,122.2
502.2682,251.7
502.283,552.8
502.3117,98.7
502.3303,16409
502.4259,200.9
502.7489,401.8
502.8068,528
502.8599,21.8
502.8984,553.7
503.1095,37.1
503.1359,164
503.2546,4312.9
503.3339,1947.2
503.4379,86.6
503.7176,227.3
503.809,94.2
504.105,230.6
504.1309,92.7
504.3083,3012.4
504.3459,7041.6
504.8225,554.3
504.8353,19.7
504.9139,364.4
504.9462,312.7
505.3492,1029.7
506.2889,129.7
506.3615,4148.4
506.6045,246.7
506.8926,4040
507.2336,354.7
507.2496,26920.6
507.2857,347
507.3648,328.5
507.4591,551.6
507.6188,117
507.6856,98.8
507.9365,16.9
507.969,617.4
508.2531,2477.2
508.2791,21.6
508.3396,1018.6
508.3427,1043
508.3667,122
508.5237,868.2
508.5652,306.6
508.8895,2854.1
509.0058,2736.4
509.242,108.4
509.265,12461.8
509.7409,659.7
509.7919,156.4
509.9545,607.9
510.2174,573
510.2673,1500.8
510.2935,790.5
510.3267,21
510.3571,1010.1
510.4751,97.1
510.7116,296.2
510.9143,220.9
511.0126,151.8
511.1763,680.3
511.9918,726.4
512.0941,134.7
512.4599,109.5
512.5195,789.1
512.6805,190.4
512.6993,18.1
512.9094,12773.7
513.077,285.6
513.13,549.5
513.2547,238
513.3498,150.8
513.5924,240.1
513.8292,445.9
513.9028,654.1
514.1635,746.6
514.3277,204.6
514.6335,227
514.6722,527.5
514.7529,566.5
514.8512,92.1
514.906,8729.7
515.0903,590.4
515.2269,178.8
515.2884,17.6
515.8819,144
515.9836,28.1
516.1101,120
516.1189,310.3
516.1867,145.5
516.2792,320.4
516.3074,20173.8
516.3214,202.9
516.3417,17.8
516.4457,120.3
516.5277,104.9
516.9207,1595.3
516.9544,151.5
517.1531,158.9
517.3106,3457.2
517.3884,244.2
517.6048,463.6
517.6619,228
517.9365,79.8
518.0655,200.8
518.3231,755979.8
518.3571,619.6
518.4788,369
518.5482,505.1
518.6353,179.4
518.6505,244.2
518.7405,479.8
518.9009,199.7
518.9263,26929.8
519.04,95.3
519.1019,618.3
519.3265,188342.7
519.3473,105.5
519.4356,393.5
519.4597,19.9
519.5662,86.5
519.5847,472.3
519.6005,21.3
519.6471,117.6
519.6605,188.5
519.7842,258.8
519.8989,535.8
519.9299,2377.8
519.9855,786.8
520.3411,164540.5
520.629,89.4
520.8615,365.6
520.9235,16812.9
521.2585,128.8
521.3444,42370.8
521.3917,507.1
521.4228,20.6
521.8515,801.3
521.9056,463.3
521.9266,1050.5
522.0106,112.6
522.157,176.2
522.2589,603.6
522.3369,141.3
522.3567,145011.2
522.4929,505.2
522.6486,18.8
522.7717,588.4
522.9202,1656.9
522.9381,4942.6
522.9874,507.4
523.3601,36996
523.7086,982.6
523.7663,148.5
523.8554,105
524.0352,354.5
524.0611,120.8
524.0732,176
524.1163,101.6
524.3505,95.2
524.3724,133746.2
524.5063,478.7
524.5743,250.5
524.7279,120.1
524.8682,174.2
524.9354,1276.4
524.9594,758.1
524.9791,535.6
525.0087,299.9
525.1563,203.3
525.244,171.2
525.3758,35169.9
525.5491,585.9
525.987,91.6
526.0883,257.6
526.3312,561.2
526.3792,1654.5
526.6203,495.4
526.8243,541.9
527.0139,87.3
527.3223,331.4
527.6389,324.5
528.4427,18.9
528.4586,143
528.479,524.3
528.7666,288.3
528.8831,6617.4
528.9554,2386.2
529.1404,345.4
529.304,244.3
529.4023,20.4
529.6099,92.1
529.895,157.5
530.1854,372.1
530.2942,927.7
530.3245,1676.8
530.359,2241.6
530.3955,317.7
530.6237,375
530.6612,483.9
530.8807,3337.5
531.1456,140.1
531.2215,2397.7
531.2498,4409.1
531.3925,211.4
531.6666,128.3
531.784,165
531.915,19.5
532.0742,366.1
532.2811,6428.7
532.295,363.9
532.3175,841.7
532.3385,5786.5
532.5049,442.9
532.6217,81.4
532.8552,178.6
532.9669,1026.8
533.009,86.3
533.1185,205.7
533.3431,886.7
533.3846,1189.6
533.7241,311.9
533.8602,94.4
534.1259,147.8
534.1507,189.3
534.2971,220214.8
534.3185,2131.6
534.3553,145
534.4785,389.8
534.5979,515.2
534.7642,91.3
534.9003,19262.2
534.9828,119.1
535.0182,694.3
535.1205,110.5
535.1395,767.2
535.3004,51545.7
535.7451,161.7
535.8555,295.7
535.9036,1399.4
536.2721,191.2
536.2952,12452.9
536.4733,77.8
536.6567,600.3
536.6826,727
536.857,162.6
536.8973,11858.1
537.1899,105.6
537.2001,874.6
537.2989,791.4
537.3387,116.4
537.492,118.9
537.5878,210.4
537.5997,135.4
537.8832,19.3
537.9002,408
537.928,559
538.1658,187
538.24,134.9
538.5495,592.3
538.5849,421
538.6008,636.3
538.7994,619.9
538.8944,2499.5
538.9125,1320.6
538.9339,1809.6
538.9839,714.3
539.1636,195.5
540.2238,173.2
540.3061,621.8
540.3379,99.3
540.5791,318.9
541.3104,621.7
541.3667,890
541.3896,365.2
541.4165,871.5
541.7712,441.9
541.8704,89.4
541.9422,107.6
542.1461,207.9
542.172,312.9
542.3232,225580.2
542.4349,438
542.4894,641.4
542.6218,141.5
543.0541,226.1
543.085,144
543.3265,59547
543.3536,627.9
543.4029,639
543.5319,689.4
543.6956,472.8
544.2297,82.6
544.2738,1851.5
544.3389,198693.1
544.3997,313.8
544.6042,461.4
544.9473,882.7
545.227,250.3
545.2687,19.6
545.3423,56855.3
545.4201,549.4
545.5843,140.5
545.6859,180.8
545.7336,19.1
545.7932,80.2
545.9005,120.6
546.213,208.7
546.2557,892.8
546.3545,188410.2
546.4652,245.6
546.6548,133.5
546.8546,518.8
547.3579,45582.4
547.7685,504
547.7768,503.3
548.3611,3201
548.9535,437
549.0602,139.6
549.5321,877.3
549.5489,108.6
549.6614,18.4
549.9878,85.1
550.2504,335.6
550.3491,328.2
550.4758,938.7
550.722,508.2
550.7797,125.7
550.874,4704.7
550.9485,109.1
550.9952,195.5
551.1126,165.5
551.3301,117.8
551.5895,22.1
552.2377,488
552.3057,245.8
552.33,99.4
552.4929,141.7
552.686,627
552.8718,3465.3
552.9315,88.9
552.9608,174
553.0798,22.8
553.142,85.8
553.1743,19.5
553.2684,21.4
553.3591,160.8
553.4548,170.1
553.6266,671.9
553.837,158.6
554.0149,597.4
554.0388,22.1
554.248,202.7
554.5256,496
554.6193,244.3
554.6588,321
554.839,465.4
554.8675,530.8
554.9576,756.4
554.9871,21.6
555.0688,115
555.2021,276.5
555.269,17.9
555.7974,783.2
555.912,93.1
556.0178,19
556.1148,284
556.2744,1053.6
556.384,235
556.7624,118.8
556.8881,410.6
557.5504,246.2
557.593,628.5
557.6333,516.4
557.6454,118.4
558.1655,120.2
558.2169,314.9
558.2973,71018.7
558.4872,17.1
558.7389,675.6
558.8912,594
559.0116,573.1
559.3005,17392.4
559.4006,1278.6
559.4869,171
559.6972,873.5
559.8059,89.8
559.863,389.1
559.9258,309.5
559.992,109.1
560.2977,1613.6
560.3129,52787.1
560.3806,792
560.4852,355.8
560.6115,89.1
560.677,343.9
561.045,136.9
561.316,9693.9
561.414,4554.4
561.5473,934.3
561.5757,307.9
561.9315,596.2
561.9925,668.3
562.1851,178.7
562.2328,567.4
562.3285,43851.3
562.8396,507.2
563.3316,9197.4
563.4299,5640.1
563.602,495.4
563.6839,292.3
564.2088,777.9
564.3279,1845.8
564.4296,896.8
564.5312,167.4
564.8031,169.7
565.044,695
565.1077,339.5
565.133,144.4
565.3357,177.9
566.3232,38142.6
566.434,89.3
566.9651,856.4
567.03,312.8
567.1465,277.4
567.3266,7729.2
567.4726,225.5
567.5971,449.7
567.6251,320.4
567.7543,727
568.0275,592.1
568.339,24306.9
568.7127,430.5
568.7409,132.9
568.8597,776.7
568.8854,416.7
568.9037,93.3
569.0226,19.2
569.0847,257.6
569.3425,6333.6
569.994,879.9
570.0883,667
570.3531,855.3
570.5025,89.9
570.8685,4438.1
571.0609,413.6
571.0927,18.6
571.565,162.2
571.9707,577.2
572.083,154.6
572.4866,148.5
572.7201,220.4
572.8657,4914.3
572.9788,862.2
573.049,325.9
573.1078,19
573.8992,21.8
574.2315,91.7
574.2845,1440
574.3539,240.4
574.6135,472.9
574.9698,134.2
575.0746,785.6
575.3344,541.5
575.5048,10119.8
575.6088,874.3
575.7943,114.4
575.9059,653.2
575.9917,226.2
576.0441,96.3
576.2826,7946
576.3017,424.7
576.3644,115.5
576.7236,478.9
576.801,228.2
576.8539,89.4
576.8849,11750
577.0911,95.7
577.1363,216.4
577.2862,1016.8
577.3823,19.6
577.5213,218.1
577.5823,310.2
577.8888,354.3
578.0302,186.4
578.0638,101.6
578.1098,91.6
578.2791,2811.9
578.6106,1023
578.8824,8632.1
579.2077,102.5
579.3721,612.3
579.3922,131
579.8058,314.6
579.8857,585.7
580.1207,512.8
580.4,142.9
580.4078,133.8
580.879,2084.3
580.8972,3423
581.0205,108.1
581.4921,371
581.6869,101.6
581.9937,321.6
582.1826,329.8
582.2099,577.8
582.2504,926.3
582.2758,826.4
582.2975,11829.8
582.3242,687.3
582.3897,181.4
582.5567,138.5
582.7456,558.8
582.8935,1347.4
582.9561,23.6
583.1017,443.5
583.1327,20.6
583.2586,786.7
583.2777,621.1
583.2998,1331.2
583.7022,142.7
583.8899,302.1
583.901,111.3
583.9749,340.4
583.99,705.3
584.1245,192.9
584.3129,5132.9
584.3832,770.4
584.4278,138.8
584.8916,109.3
585.0013,23
585.2402,95.6
585.2716,2977.9
585.6773,333
585.8841,147.7
586.3112,6277.8
586.392,18.3
586.6687,172.8
586.8423,3535.2
586.9149,888.1
586.9291,219.3
586.9354,180.9
587.1858,106.3
587.2646,512.7
587.3146,983.9
587.3653,173.7
587.5137,391.2
588.0306,86.9
588.1952,741.7
588.2461,155
588.3451,95.3
588.4337,545.1
588.7235,17.6
588.8394,2306.1
588.9111,487.5
588.9956,390.4
589.4307,19.1
589.5713,90.2
590.0092,307.1
590.0735,142.9
590.3232,4670.7
590.5849,199.2
590.8365,1121.1
590.8993,853.7
590.9272,743
591.7095,326.7
591.9373,679.9
592.3395,874.6
592.3635,95.8
592.6092,95.1
592.63,178.2
592.8592,7927.8
592.9573,177.9
593.0134,207.2
593.6296,705.6
593.6939,234.3
593.7638,119.7
593.8623,361.1
593.8849,224.9
594.1576,217.3
594.2865,526.3
594.4543,90.3
594.4725,197
594.8249,795.5
594.8562,8904.5
595.1192,468.4
595.161,893.3
595.4461,891.7
595.4694,199.1
595.8587,365.5
595.8952,398.7
595.9452,89.1
596.0215,329.4
596.1651,303.8
596.1958,118.6
596.4475,290.9
596.8089,506.7
596.8533,1812.6
596.8728,946.4
597.2078,120.8
597.2767,574
597.4512,5698.3
597.4874,9171.7
597.7883,316.8
598.1428,165.4
598.303,94
598.4522,965.7
598.4873,1130.5
598.5494,91.3
598.7814,169.6
598.8499,361.5
598.8698,450.8
598.881,88.5
598.9643,333.4
599.0667,893
599.4539,596.1
599.468,902.8
599.5025,603.8
599.6133,470.7
600.0032,156.5
600.0427,351.4
600.1183,205.3
600.1951,136.9
600.2261,570.7
600.2823,718.2
600.4699,163.3
600.6917,18.4
600.8323,306.1
601.0655,96.6
601.4715,230.5
601.5211,375.3
601.7138,810.4
601.7468,161.2
601.8284,188
602.115,20.6
602.1769,156.4
602.2632,512.3
602.2896,650.4
602.2935,640.6
602.299,534.1
602.3904,22.7
602.5624,192.4
602.9101,954.4
602.9956,315.4
603.3928,134.9
603.5357,251.9
603.6516,197.9
603.6553,213
603.6608,156.4
603.7867,87.2
604.1969,20.6
604.3135,1679.3
604.5311,21.2
604.8117,474.2
604.9065,158
605.0484,344.5
605.2046,331.2
605.3593,103.3
605.993,557
606.2982,1338.8
606.3077,797.9
606.6973,114.6
606.7775,131.8
607.0409,582.6
607.1206,18
607.1721,6152.1
607.2624,661.4
607.4767,117.7
607.7457,197.5
607.8413,264.3
608.0255,282.2
608.1759,325
608.4651,191.5
608.5597,165.9
608.8329,1883.1
609.151,95
609.3355,109.5
609.5228,221.2
609.7869,146.5
609.8363,102.4
610.0083,521.4
610.0636,80.7
610.311,670.1
610.3999,359.1
610.4115,180.1
610.4465,305.2
610.4587,670.2
610.8301,1408.7
610.9205,98.9
611.2312,606.5
611.2637,176.2
611.3223,148.7
611.4764,161
611.5251,448.8
611.6076,91
611.8627,522
611.9504,95.7
612.1136,314.1
612.14,121.4
612.1607,711.6
612.3047,192.7
612.3915,481.6
612.4453,580.7
612.4974,555.4
612.8285,780.4
613.3216,112.5
613.3392,165.5
613.4702,104.6
613.5026,784.9
614.1061,102
614.1201,152.3
614.442,20.2
614.6278,557.1
614.7055,380.3
614.813,505.2
614.8807,838
614.9509,282.4
614.9816,19.4
615.085,170.4
615.4613,2067.7
615.9718,149.4
616.1897,162.9
616.3439,589.5
616.3798,20.6
616.417,466.3
616.4293,181.6
616.5452,452.8
616.7006,880.1
616.9554,426
617.1057,18.3
617.3691,93.6
617.4768,28154.4
617.5035,538.7
617.6239,163.7
618.1205,674.6
618.149,524.6
618.311,717.9
618.4328,634.3
618.4803,11049.3
618.6103,416.2
618.6673,391.2
619.0346,98.8
619.4926,46206.9
619.5209,534.4
619.9872,432.2
620.0147,639.6
620.0547,795.8
620.1141,154.3
620.1493,201.2
620.3285,289.9
620.4958,14032.7
620.5804,20.6
620.7837,221.4
620.9014,94.8
621.0377,211.6
621.3393,167.6
621.4541,1559
621.4886,4986.6
622.0415,103.1
622.3231,144.4
622.4282,386.4
622.4549,728.6
622.4909,1744.9
622.9356,178.8
623.0992,838.1
623.1373,31566.7
623.3686,22.7
623.4481,122.7
623.5029,1733.1
623.7359,257.7
623.8003,191.4
624.0983,152.3
624.1409,6380.9
624.1949,144.6
624.2821,482.4
624.3479,616.9
624.4254,348
624.451,124.6
624.4864,319.1
624.5117,324
624.6958,91.8
624.7985,641
624.9072,188.6
624.9232,317.1
624.9845,154.1
625.486,412.9
625.5083,231.2
625.5241,146.5
626.3794,582.9
626.4935,139.7
626.6331,20.9
626.9586,108.5
627.0632,552.9
627.1547,19.4
627.3066,80.3
627.5353,627.8
628.3705,308.6
628.4267,196.7
628.5397,23.6
628.7344,337.5
628.8203,470.8
628.9975,322.3
629.1542,70163.1
629.3496,324.3
629.8277,20.1
630.1579,13031.2
630.2209,133.5
630.4182,132.5
630.9393,433.5
630.9752,486
631.1302,458.8
631.1602,1119.9
631.4219,326.2
632.2648,205.6
632.2841,235.7
632.4535,951.8
632.5611,85.8
632.6753,668.5
632.7262,95.3
633.0836,20.1
633.4508,5478.6
633.6211,294.1
633.6841,339.1
633.7293,732.9
633.7685,99.5
634.0422,312.3
634.4491,305.6
634.4966,107.6
634.5395,133.5
634.7173,115.8
634.844,2270.8
635.085,109.6
635.3827,696.7
635.4676,4223.1
635.4878,1144.3
635.5813,115.1
635.6692,18.9
635.8513,87.8
636.1845,339.3
636.4091,448.9
636.4798,736.5
636.8413,4394.6
637.0331,20.3
637.0492,412.4
637.3275,432.3
637.6135,581.5
638.5935,687.5
638.6948,110.3
638.8144,156.8
638.8383,1250.6
638.9215,222.4
638.9534,95.7
638.9956,101
639.0629,196.5
639.8203,97.7
640.4216,132.9
640.4789,148.7
640.509,357.5
641.2107,301.9
641.2816,299.8
641.4825,307
642.1686,188.5
642.7011,213.8
642.7338,226.7
642.8291,18.9
642.8445,201
642.9736,447.3
643.0562,237
643.3174,590.3
643.3637,86.8
643.4078,703.4
643.7492,25.2
643.984,531.6
644.0538,264
644.2058,26
644.4695,325.5
644.4911,196.3
644.6057,99.8
644.7832,22.3
644.8032,334.4
644.88,466.6
645.1192,29216
645.2082,273.5
645.3041,172.9
645.3229,1049.3
645.6136,20.9
645.6911,99.5
645.8863,117
645.9998,604.1
646.123,4201.8
646.1627,217.5
646.7985,316.1
646.8698,465.4
647.0507,153.9
647.095,1151.9
647.1241,215.4
647.336,214.9
647.8449,351.3
647.9427,179.8
648.3453,139.4
648.4875,477.8
648.8516,315.7
648.9685,116.4
649.098,147.6
649.1695,177.8
649.6189,126.7
650.3578,95
650.4409,1312.9
650.7029,456.8
650.8181,3012.3
650.8751,538.2
650.971,867.7
651.1363,77121.5
651.7827,419.4
652.0776,110
652.14,14453.9
652.2325,151.9
652.8154,3987.5
653.1119,1463.3
653.1413,882.4
653.4068,673.5
653.4658,564.3
653.8752,148.1
653.9549,356.9
654.56,305.3
654.5893,213.5
654.6161,97
654.8128,884.6
654.8278,452.2
654.996,107.3
655.6106,86.1
655.8788,91
656.2075,106.3
656.4624,325.8
656.6191,196.2
656.6674,565.7
656.7035,308.1
656.7977,109.5
656.9241,544.8
657.06,179.3
657.1712,178.2
657.2878,680.1
657.3769,222.8
658.1783,820.4
658.3238,316.3
658.4297,1339.7
658.7432,266.7
659.0073,21.6
659.0979,1057
659.6931,942.3
659.9023,87.7
659.9393,896.5
659.9654,354.5
660.0712,449.3
660.2106,475.6
660.2595,810.8
660.5316,730.3
661.0843,16358.9
661.2083,20.1
661.4924,421.1
661.7284,20.4
661.768,759.1
662.0018,795.2
662.0885,391.4
662.1989,475
662.259,21.1
662.3714,84.6
662.7648,163.1
662.8445,351
663.019,105.9
663.0476,384.1
663.4565,884.9
663.555,391.9
663.5743,156.9
663.8097,363.1
663.8806,333.4
664.2914,565.5
664.4674,2475.9
664.7388,789.3
665.9067,176.1
666.0111,102.7
666.1434,22.6
666.485,3890.6
666.6408,19.9
666.793,478.7
666.9897,832.3
667.1009,38786.8
667.3943,193.3
667.4605,143.4
667.4879,910.5
667.7462,191.6
667.8005,101.7
668.1043,6218.7
668.1868,407
668.7879,367.2
668.9346,184.9
668.9539,93.8
669.076,188.1
669.1058,404.3
669.4276,416.1
670.053,827.7
670.3817,390.5
670.676,22.2
670.7292,182.7
670.9881,787.4
671.4544,372.9
671.7065,178.1
671.8367,203
671.879,198.4
671.9969,961
672.2212,129.3
672.2601,91.2
672.3522,437.2
672.422,651.9
672.5967,187.1
672.6683,163.4
672.9558,391.2
673.1183,79986
673.2411,254.7
673.4355,208.7
673.4569,112.3
673.4977,383
673.748,231.9
674.0838,287
674.122,18342.5
674.2633,93.3
674.4476,276.4
674.4804,181.2
674.5503,679.2
674.7808,902.5
674.8812,86.3
675.0937,365.6
675.1233,1341.8
675.3323,572.6
675.5143,264.8
675.5455,15024.8
675.6262,207.2
675.9554,92.7
675.9856,102.3
676.0493,216.5
676.3584,204.5
676.3884,22.6
676.5164,121.2
676.5496,3321.8
676.8763,20.6
677.1258,204
677.1914,506.6
677.5114,139.9
677.5167,166.1
677.5237,91.7
677.8702,509.7
677.9873,75.8
678.3723,26
678.737,618.9
679.5755,934.6
679.7242,105.4
679.8785,122.1
679.9686,367.4
679.9835,22.1
680.31,301.1
680.5707,240.6
680.7054,114.6
680.8288,267.5
681.2995,485.5
681.3858,899.5
681.4527,529.9
681.6096,505.9
681.6969,937.1
681.9352,130.7
682.0656,453.6
682.4086,19.2
682.4587,1193.3
682.6577,205.5
683.0342,113.2
683.066,11243.3
683.1473,18
683.3527,659.9
683.4125,546.2
684.3595,258.9
684.8424,200.3
684.9335,328.3
684.9601,92.1
685.0365,166.3
685.0722,119.3
685.2551,323.5
685.4371,8205
685.8614,616.8
685.9635,88.8
686.0981,125.1
686.2833,22
686.4385,306.2
687.0599,168.5
687.1214,311.3
687.3115,110.7
687.3719,723.3
687.662,667.1
687.7379,885.5
688.1776,959.6
688.3126,542.6
688.3461,314.1
688.6923,690.9
688.8189,710.7
689.0824,29870
689.0923,26159.2
689.5623,1752
689.747,168.8
689.8585,251.9
690.0964,5109.6
691.0869,274.9
691.1927,110.9
691.2808,151.4
691.4925,540
691.5369,81.2
691.575,613.9
691.7657,82.1
691.9331,587.8
691.9666,360.4
692.1969,18.6
692.3382,688.2
692.8464,844.8
692.9885,775.3
693.0721,228
693.1698,383.1
693.3575,84.3
693.4435,1228.9
693.4489,1147
693.4972,278
694.2922,107.4
694.8007,1012.7
694.9169,170.9
695.0165,614.7
695.1004,54650.7
695.1534,389.2
695.4658,566.7
695.5104,1020.7
695.8597,605.8
695.9599,234
696.1036,10512.4
696.3565,130
696.6253,468.9
696.7929,297.3
696.8568,177
696.9778,158
697.0778,123.8
697.1046,416.7
697.2317,20.9
697.5273,19499.8
698.0495,107.8
698.1316,22.2
698.2237,482.7
698.4809,650.9
698.5314,4650.2
698.8016,17.8
699.2973,157
699.8769,91
700.1321,88.7
700.1899,229.9
700.8228,94.9
701.3021,92.2
701.4172,973.5
701.5613,38842.3
701.8246,883.8
702.0813,101.3
702.3438,7585.2
702.4135,116.7
702.513,121.9
702.5647,10645.5
702.8264,451.9
702.9362,20.5
703.1807,541.1
703.2081,164
703.3053,97.5
703.3483,923.3
703.5771,82627.3
704.3378,148.4
704.4478,2428.1
704.5263,606.9
704.5805,28513.8
704.6436,898
704.9447,295.8
705.0557,8189.9
705.204,727.1
705.4543,948.1
705.5835,4206.2
705.7827,811.2
705.887,435.6
706.046,83.5
706.0671,104
706.5413,1046.8
706.7063,103.5
706.8274,430.1
706.8643,19.5
707.0533,199.3
707.0966,507.8
707.4404,393.8
707.4795,17.6
707.8351,185.2
708.0417,92.9
708.6757,646.8
708.7762,418.1
708.9909,20.5
709.0573,701.6
709.685,265.5
710.4019,454.1
710.7786,343.8
711.0641,18032.4
711.0755,21629.4
711.5432,5710.7
712.0606,633.9
712.0793,2836.7
712.5456,789
712.761,18.7
713.2733,226.4
713.4999,1415.4
713.7104,292.9
713.9312,876.3
714.0305,199.1
714.0598,421.8
714.1246,97
714.1458,367.7
714.334,535
714.86,815.8
714.9217,690.2
715.0996,19.9
715.1913,384.5
715.2764,633.7
716.0175,192.7
716.1716,147.7
716.607,106.3
716.6671,214.2
716.7941,934.3
716.8461,95.7
717.0821,26019.9
717.1573,671.6
717.1769,695.7
717.261,236.5
717.3392,419.7
717.3609,216.1
717.5299,442.2
717.7001,649.6
717.783,1113.4
717.8726,210
718.0852,2662.3
718.1571,18.7
718.241,676.6
718.5586,561
719.322,993.5
719.4669,1127.4
719.6102,191.8
719.6411,334.4
719.8408,211.8
720.0922,125.9
720.4494,156.3
721.1694,359.1
721.331,150.9
721.4799,55952.2
722.4836,20786
722.5776,514.2
722.7206,214.8
722.8367,106.4
723.4961,8407.1
723.5432,35610.3
723.8761,319.1
723.9513,155.1
724.3227,719.6
724.498,1636.6
724.5466,15277.4
724.6573,437
724.772,605.6
725.5018,257.7
725.5593,79443.9
726.1469,121.2
726.4719,20.3
726.5624,28492
727.0311,5279.2
727.5648,3704.7
728.0333,191.9
728.0647,155.7
728.3266,123.2
728.5224,909.8
728.6085,377.7
728.6622,328.5
728.87,114.2
728.9759,151.6
729.0358,98.6
729.0975,543.6
729.5926,9485.9
729.9756,107.4
730.382,20.3
730.5406,10137.2
730.5943,1899.9
730.971,22.3
731.2175,494.5
731.4941,766.7
731.5428,4924.8
731.6096,5907.9
731.7449,342
732.0282,558.6
732.0486,186.1
732.4733,222.2
732.5562,47680.6
732.6126,425.6
732.7434,903.7
732.7696,104.9
732.86,325
733.0456,8482.9
733.0576,10503.3
733.0833,460.9
733.1115,176.7
733.2959,18.7
733.5594,19542
733.6127,671.1
733.6303,294.8
733.7594,169.3
733.8123,23.6
733.878,275.1
733.9955,428.7
734.0544,1151.3
734.1541,195.4
734.5726,6865.6
734.7136,453.8
735.0665,240.8
735.3202,550.3
735.4321,312.4
735.5738,1560.1
735.6736,178.9
735.763,203.5
735.8667,283
735.9675,366.9
736.061,366.9
736.3638,491.1
736.6999,339.4
736.8226,17.2
737.1444,91.3
737.3088,611.9
737.3519,89.3
737.4538,14000.5
737.5578,402.9
737.6655,628.5
737.9908,111.8
738.4577,2842
738.7647,136.8
738.8292,195.8
738.9518,991.8
738.9669,497.3
738.9719,523.4
738.9827,356.3
738.9951,155.6
739.0164,204.5
739.0645,12929.2
739.128,346.7
739.2242,25.3
739.5169,5525.2
740.0659,431.9
740.5311,110
740.5464,189
740.651,140.6
740.9755,20.6
741.5328,9814.4
742.0178,192.6
742.4559,112.3
742.5364,2085.9
742.5765,6012.8
742.617,307.3
742.8488,780.6
742.9647,745.2
742.9957,1116.3
743.0123,273.5
743.0197,181.5
743.2549,243.9
743.4471,197.6
743.4626,394.6
743.5763,1734.1
744.1489,99.3
744.1924,142
744.5337,91.4
744.5552,3011.2
744.5924,6241.8
744.6655,611.1
744.7622,183.4
744.9537,425.7
745.0376,93
745.4803,20638.1
745.5572,1996.1
745.5969,1104.5
746.4376,700.7
746.4834,7022
746.5708,1770.6
746.6091,1516.4
746.6725,392.9
747.1328,118.2
747.224,330.4
747.4969,11196.1
747.5944,20.1
747.612,1517.2
748.053,167.7
748.0668,342.1
748.4368,172.1
748.4998,1541
748.6594,525.3
748.7318,107.4
749.0128,4341.4
749.1044,245.2
749.4567,107.9
749.5112,3399
749.5631,624.6
749.5965,161.7
749.7792,694.4
749.8571,653.1
750.0142,781.8
750.2292,753.3
750.3562,144.2
750.3912,471.6
750.4452,259.7
750.519,1439
751.3273,20.8
751.5214,791.5
751.5758,2687.9
751.7955,152.6
752.1614,107.9
752.2286,95.6
752.4574,791.5
752.5228,13634.6
752.8233,103.8
752.9261,1087.1
753.5243,3133.2
753.9064,98.6
754.3162,544.2
754.5382,37332.2
754.5965,1317.4
754.6553,534.8
754.7499,744.3
754.8987,166.7
754.9082,221.3
754.9167,267.1
754.9632,212.2
755.0287,5247.7
755.0388,5287.6
755.1428,253.4
755.1818,131.9
755.2652,276.4
755.29,157
755.3225,236.8
755.542,14496.6
755.6821,137.1
756.0057,128.7
756.037,877
756.2161,22.4
756.556,50545
756.7109,475.7
757.29,342
757.4172,165.1
757.5593,18517.5
757.6235,675.5
757.8048,120.3
758.0256,778.4
758.5154,649.2
758.5718,1191904.3
758.7024,745.3
759.1323,101.7
759.4805,896.5
759.5752,533770.3
759.6091,81.4
759.6416,1711.6
759.8469,235.6
759.933,223
760.5002,201.2
760.5886,334928.8
760.644,570.2
761.0466,3000.2
761.4543,6051
761.5912,165417.1
761.8949,207.7
761.9786,97.4
762.0844,342.2
762.459,18.5
762.5941,38915.3
763.1837,17.3
763.3989,377.4
763.47,1013
763.5966,2980.1
763.8437,534.7
763.905,229.8
764.3124,117.7
764.3845,137.9
764.5594,2196.1
764.6782,128.5
764.8673,110.6
764.9889,138.3
765.328,622.7
765.4854,1285.7
765.5675,100.3
765.6219,177.4
766.296,21.5
766.3945,494.6
766.538,3122.3
766.5765,19732.1
766.6748,243.6
766.7629,169.7
767.0868,878
767.2656,251.3
767.4732,204
767.5801,5964.7
767.6792,194.7
767.7106,84.9
767.7719,94.3
768.5529,3015.6
768.5929,25198
768.9653,345.7
769.0195,711.3
769.0667,130.8
769.4628,177.5
769.4792,528.1
769.5955,10435.4
769.7424,137.9
770.3399,216.6
770.5135,2695.3
770.5693,844
770.6098,1492.3
770.9938,7751.9
771.4765,815.1
771.4948,963
771.5149,1114.2
771.5837,179.3
771.6123,1808.6
771.6628,197.4
772.0504,484
772.5149,120.2
772.5644,1287.7
772.5874,10861.5
772.6243,293.8
772.6609,19.1
773.0047,145.7
773.0495,215.3
773.5103,1392.7
773.5892,1598.5
774.0793,19.2
774.1561,22.6
774.3768,543.3
774.6087,981.6
775.0202,135.2
775.1275,330.8
775.524,169.7
775.8261,133.1
775.942,227.9
776.0058,94
776.0503,1343.9
776.5219,1082.4
776.6104,825.2
776.7602,281.1
776.904,268.3
776.9576,192.3
776.9781,101.6
777.0111,5757
777.1463,178.6
777.1683,367.7
777.5068,105.2
777.5455,1516.4
777.6967,185
777.8934,210.5
778.1076,102.2
778.2239,142.8
778.3691,125.8
778.482,526.3
778.5385,34539.8
778.6478,132.1
778.8396,374.2
778.9294,292.3
779.0546,264.9
779.0772,18.9
779.18,833.3
779.5068,493.3
779.5418,11897.1
779.65,136.5
779.8783,217.3
780.1925,762.8
780.5538,745536.3
780.651,21.8
780.7176,570.8
780.7645,276.1
780.8971,256.2
781.0888,116.3
781.3979,984.2
781.5272,121.2
781.5573,333825.7
781.736,20.3
782.5715,604047.6
782.6083,665.9
782.8536,339.1
783.0284,4193.8
783.1164,19
783.2702,760.7
783.5749,285296.2
783.6861,157.1
783.7428,19.9
783.8123,121.9
783.8834,626.8
784.0442,112.2
784.4234,719.1
784.5881,354828.5
784.9694,323.9
785.2217,20.9
785.5912,169819.9
785.6557,7089.5
786.1308,241.2
786.5198,198.9
786.6037,306747.8
786.6588,958.2
786.7956,268.9
786.8308,269.9
786.9694,1355.6
787.3287,203.8
787.6069,141291.1
787.6721,2480.1
788.1192,134.1
788.5183,103
788.5589,2067.5
788.6072,27215.9
788.6224,9118.6
788.6739,280.9
788.8297,105
788.88,176.4
788.9319,366.7
789.0965,886.2
789.3486,140.6
789.5174,275.8
789.6236,6033.2
790.0433,911.9
790.2242,146.3
790.5051,880.8
790.5754,12969.7
790.6267,267.8
790.8557,307.8
791.1141,420.1
791.3245,215.8
791.3763,107.8
791.4661,158.6
791.5605,834.9
791.5849,355.1
791.9861,124.2
792.5433,189.2
792.5922,6912.9
792.7085,89
792.7506,276.4
792.8822,440.1
792.9197,124.7
792.9853,566.9
793.1533,629.9
793.1904,22.5
793.5953,937
793.9008,507.4
794.3848,95.2
794.5126,3759.3
794.5693,3559.9
794.6083,28860.7
794.9642,178.1
795.514,1000.2
795.575,630.2
795.6114,13602
795.9547,541.1
795.9932,20.7
796.5278,152776.8
796.5869,2026.4
796.6251,3006.4
796.7054,730.3
797.127,420.9
797.1702,539.8
797.2845,18.8
797.444,190.4
797.5313,65431.4
797.6259,214.5
797.7252,408.2
797.8875,256.8
798.2746,665.1
798.4381,101.4
798.5449,32938.1
798.5877,664.1
799.0031,694.6
799.0912,546.9
799.1174,168.6
799.1571,107
799.1965,129.4
799.5475,12165.6
799.6442,108.5
799.6699,919.7
799.8329,290
800.371,373.7
800.5425,1990.1
800.7133,84
800.9909,329.5
801.5437,619.5
801.9133,20.1
801.9946,189.8
802.2157,657.5
802.2543,110.3
802.5382,18212.1
802.6028,230.5
802.668,370.4
802.9429,405.2
803.0541,1595.3
803.2804,425.4
803.5419,9020.2
803.6826,320.1
803.9696,572.3
804.0495,81.5
804.5539,278661.1
804.7076,115.6
804.8114,1060.1
804.8428,655.7
805.5572,128273.9
805.6265,638.1
805.6912,277.5
805.7514,215.6
805.9173,226.4
805.9933,914.3
806.1323,397.9
806.2642,196
806.571,318291.3
806.8535,108.1
806.9155,232
807.2101,82
807.2735,877.7
807.3697,131.5
807.5742,159484.3
808.0269,288.9
808.0579,679.9
808.2144,246.4
808.2701,102.8
808.5869,198858.2
808.7922,462
808.9607,172.7
809.13,1139.5
809.4026,22.6
809.496,176.2
809.5897,98538.9
809.6545,128.6
810.4463,245.4
810.6039,120871
810.9705,246.5
810.9961,1309.9
811.3157,653
811.4704,19.6
811.6068,60551.7
811.6714,7499.5
811.8757,19
812.2011,261.1
812.4665,311.1
812.5613,206.7
812.6207,36018.8
812.6744,2492.8
812.7521,861.1
813.1277,289.3
813.4018,81.4
813.6228,16580.2
813.687,7666.3
814.2571,489.2
814.4007,1285
814.5245,339.5
814.5688,1039.2
814.6226,1868.8
814.6899,2355.5
815.1558,100.5
815.428,315.7
815.5569,582.9
815.6372,227
815.7618,173.1
816.0556,317.5
816.4323,273
816.5907,9335.6
816.9264,289.6
817.5929,2113.6
818.1498,574
818.2364,613.5
818.3557,841.5
818.5131,2006.1
818.5685,813.6
819.3235,818.6
819.5732,298.5
819.8737,507.5
819.9414,343.3
820.2425,113.3
820.5279,58077.9
820.6278,518.2
820.6574,251.2
820.8091,559.9
821.215,1183.9
821.5308,24946.6
822.5445,40222.6
822.6375,430.4
822.6606,120.2
822.8258,1004.3
823.0456,342
823.1894,539.8
823.5474,16583.1
823.6434,94.5
823.959,503
823.9903,225.2
824.2692,588.5
824.3214,88.9
824.5603,24535.6
824.6342,122.9
824.7021,239.9
824.8615,90.7
825.0265,347.1
825.2058,603.4
825.2596,639.7
825.5627,8756.8
825.7088,111
826.0472,456.8
826.1006,252.7
826.121,344.8
826.4043,528.2
826.7356,896.2
826.9824,832.6
827.2838,439.2
827.5359,627.3
827.5972,548.7
827.7518,210.4
827.7912,1318.5
828.0944,628.1
828.554,86718.3
828.7915,1281.5
828.9384,19
828.985,331
829.0819,124.6
829.1502,514
829.2309,432.9
829.3845,369.1
829.4256,356.8
829.5572,39024.2
829.6018,1261.9
829.6613,233.8
829.6997,306.1
829.8255,416
829.876,199.5
830.1571,569.3
830.3434,1099.3
830.4504,434.1
830.571,43332.5
830.6176,20.8
830.6946,101.4
830.8141,92.1
830.9027,840.5
831.0164,898.6
831.2987,586.8
831.4303,85.6
831.573,18853.3
831.7524,621.4
831.8245,549.3
831.854,140
831.8699,118.9
832.2478,104.9
832.2706,324.6
832.4027,122
832.4702,138.8
832.5862,59513.3
832.6506,161
832.6818,301
832.904,197
832.9279,310
833.2135,112.8
833.589,30424.2
833.6598,525
834.024,513.6
834.1722,126.4
834.2357,183.9
834.2875,465.3
834.6033,31859.6
834.6542,372.5
834.72,21.1
835.1618,99.7
835.3172,329.9
835.6058,16725.1
835.6698,306.3
835.6965,192.7
835.7235,903.3
835.7921,163.3
835.8215,343.7
836.0219,228.3
836.3896,277.8
836.6207,1609.7
836.9795,177.7
837.2485,215.8
837.2806,566.3
837.4583,527.1
837.6239,357.1
837.7787,1000.4
837.8639,413
837.9393,604.2
838.3002,368
838.3927,215.6
838.5133,1030.3
838.5991,102
838.6334,290.1
838.7083,166.6
838.7405,841.7
839.1771,93.7
839.4698,161.4
839.5872,20.4
839.9124,585.8
839.9898,21.1
840.5188,785.9
840.6499,1515
840.7891,659.5
840.8203,103.4
840.8443,96.5
840.8711,1648
840.989,582.1
841.1355,840.9
841.259,267.3
841.4396,816.6
842.2,774
842.5273,894.1
843.2502,202.6
843.7078,583.8
843.7688,283.9
843.879,1188
843.9907,147.1
844.5274,16039.6
844.681,1317.2
844.825,683.9
845.033,420.1
845.2585,23.3
845.5322,3990.3
845.5775,424.9
845.6303,541.5
846.0089,667.1
846.0965,109.5
846.5442,6242.6
846.581,286.8
846.7094,572.2
846.9967,223.1
847.4263,685.9
847.9722,19
848.0369,172.5
848.3167,291.5
848.3644,148.4
848.3987,153.4
848.5598,6078.5
848.713,176.2
849.0251,545
849.2331,115
849.5625,2344.4
849.7526,104.9
850.2153,229.3
850.4686,132.9
851.144,241.4
851.171,505.2
851.2929,806.1
851.5303,172.3
851.5903,203.7
851.761,178.8
851.9013,687.9
851.9776,262.7
852.0799,182.4
852.1418,126.2
852.3465,687.5
852.4676,19.9
853.8481,530.6
853.8788,217.7
853.9058,583
853.9659,162.4
854.1317,20.4
854.6294,595.1
854.7651,334.6
855.0608,535.7
855.9592,998.9
856.3007,321.5
856.5432,107
856.5868,3564.9
857.3842,431.5
857.588,942.7
857.807,600.9
858.3926,20.9
858.5541,1283.5
858.5973,22.5
858.6797,220.8
858.8986,638.9
859.2562,577.9
859.3353,196.4
859.4676,225.3
859.6097,215.2
860.4846,89.6
861.0169,155.6
861.2407,20.6
861.4068,833.4
861.4322,665.3
861.6724,131.7
861.7521,266.3
862.3092,418.5
862.3546,493.5
862.5111,390.8
862.8646,743.1
862.957,90.9
862.984,144
863.5116,469.6
863.6386,844.9
863.9568,425.7
864.0731,512.9
864.2273,109.5
864.2704,88.1
864.4325,627.1
864.5666,302.8
864.7303,91.2
864.9582,1629.1
865.1861,414.6
865.355,219.4
865.4934,587.2
865.7255,132.2
866.3047,351.6
866.4572,622.5
866.8795,178.3
867.151,86
867.3648,510.1
867.3883,185
867.585,792.8
867.8794,109.4
868.0208,141.9
868.388,571
868.4346,821.3
868.4829,566.4
868.599,132.1
868.8902,81.4
868.9919,263.4
869.491,24.5
869.5403,658.3
869.577,1354.3
869.635,958.2
869.6891,1249.8
869.7173,1210.6
869.7235,1207
869.7596,331.6
869.7887,1815.5
869.8654,5294.8
869.882,5351.5
869.934,5030.5
869.9881,1541.1
870.0183,2604.7
870.0791,1219.1
870.1107,148
870.1337,150.3
870.2762,1671.7
870.3314,234.9
870.3669,774.4
870.6859,581.1
871.0913,557.9
871.4088,123.1
872.4332,863
872.4719,142
872.6735,862.5
872.8236,691.1
873.2978,296.8
873.6979,872.8
873.7325,851.2
873.8116,96.4
874.1698,278.5
874.2595,104.3
874.4087,364.8
874.5723,352.7
874.7894,540.5
874.9803,789.8
875.66,345.3
875.8709,136.2
876.4729,100.8
876.5723,859.5
877.1994,837.5
877.4114,416.8
877.5848,496.7
877.6488,144
877.8029,768.6
878.8776,302.7
878.9519,149.1
879.2869,227.8
879.4646,289.2
880.0098,752.9
880.1339,221.2
880.5166,214.7
881.1408,21.2
881.2674,533.9
881.3395,724.9
881.6692,567.2
882.2796,333
882.3217,233.9
882.9474,92.5
883.5869,136.4
883.8546,626.6
883.9436,204.8
884.2133,810.8
884.3493,671.9
884.4379,626.1
884.4999,289.1
884.6583,90.1
884.8544,20.8
885.1653,781.5
885.4862,609.9
885.9029,669.6
886.5677,331.3
886.8267,90.5
887.6925,515.9
887.7381,88.6
887.8643,846.7
888.4387,183.9
888.478,945.2
888.6678,260.2
888.7427,338
889.0415,192.4
889.1882,178.7
889.6017,257.6
889.6114,259.4
889.8047,356.8
889.8554,426.1
890.2496,222.7
890.2832,178.4
890.3268,121.2
890.4659,225.7
890.4924,246.2
891.4202,509.5
891.4433,97.1
891.5927,106.8
892.0719,87
892.7687,315.2
893.3999,484.7
893.5262,276.9
893.7701,98
893.8242,246.1
893.9622,794.1
894.0497,94.5
894.492,176.1
894.5272,24.9
895.0199,196.2
895.0971,923.8
895.4629,565.6
896.0904,519.3
896.5842,140
896.6358,107
896.762,577
897.1492,233.1
897.2217,252.9
897.4719,451
897.6292,163.7
898.1095,296.3
898.1527,125.7
898.2519,251.1
898.4792,377.2
898.5617,18
898.8847,320.3
899.0395,921.6
899.6359,1379.6
899.8634,801.7
900.147,596.8
900.1639,628.5
900.3977,144.3
900.5663,455.5
902.4808,1315.7
902.5939,97.8
902.8312,214.9
902.8469,153.5
903.1753,89.6
903.3588,268.8
903.6171,672.6
903.7872,1670.1
903.9477,875
903.9971,92.9
905.0009,127.1
905.4674,266
905.5787,342.3
905.9393,252.4
906.0255,289.9
906.1394,212.5
906.251,109.4
906.5747,320
906.6475,19.5
906.7036,581.3
906.7705,112.1
907.0733,200.1
907.2228,729
907.5499,147.8
907.9752,643.3
908.0614,215
908.0903,299.9
908.3007,92
908.7603,338.3
909.0614,21.9
909.2643,1669.7
909.4436,18.6
909.4985,151.5
910.4539,212.6
910.4675,234.6
911.1247,203.6
911.2692,92.3
911.5582,641.9
912.1842,838.3
913.5297,20.7
913.7782,74.3
913.992,338.4
914.1127,181.7
914.6477,91.6
914.6815,867.5
914.8197,265.7
914.9484,99.3
915.1278,493.6
916.1913,551.8
916.3177,280.8
916.7319,98.5
916.7715,1081.8
916.8391,789.8
916.867,671.7
917.1673,334.1
917.2362,292.7
917.4295,281.8
918.4841,552.9
918.5392,206.7
918.6582,575.2
918.829,109.2
919.1045,793.2
919.2583,669.1
919.2846,478.3
919.4044,1075.2
919.6753,992.3
920.0299,1230.8
920.3468,972.2
920.6755,239
920.8249,348.5
920.8732,352.5
921.7853,1508.4
922.0376,527.4
922.2297,1087.9
922.2603,149.4
922.3451,514.1
922.4924,19.5
923.1687,95.6
923.4403,208.9
923.7279,114.8
923.784,293.2
924.3944,1569.3
924.6957,1144.8
924.8043,133.8
925.5708,154.6
925.6592,95.6
926.0159,605.3
926.3457,127.1
927.4243,1714.1
927.4614,1089
928.8935,515.6
929.1171,2247.6
929.2555,138.9
929.3685,18.7
929.6079,237.2
929.6526,392.6
929.7858,290.8
929.9148,103.9
930.0638,912.6
930.1035,367.7
930.1635,112.8
930.2672,20.7
930.4555,1818.8
930.8464,135.2
930.9929,949
931.2055,910.2
931.4055,183.1
931.8064,136.9
931.9983,459.4
932.7696,516.1
933.0477,911
933.4774,372.6
933.5129,26
933.5847,90.6
933.813,1194
933.8386,358.8
934.0441,1323.5
934.4064,633.2
935.2132,220
935.5199,89.5
935.8069,356.4
935.8751,280.3
936.0034,81.4
936.3434,170
936.8928,443
937.1942,313
937.5152,550.7
937.8682,167.9
937.9452,151.2
938.1177,716.6
938.1494,578.8
938.7286,93.6
939.231,596.2
939.4486,21.9
939.812,546.8
940.0014,136.3
940.3154,97
940.5546,454.2
940.959,691.8
941.1343,804.7
941.5218,89.2
941.5995,184.4
941.9119,610.1
942.5348,91.5
942.6298,236.1
943.1985,92.9
943.2284,287.1
943.2623,21
943.5374,614.1
944.5335,848.8
944.6443,85.1
944.723,959.4
945.4177,730.4
945.5654,195.1
946.0279,22.7
946.1475,240.7
946.2232,524.8
946.6633,228.8
946.6875,599
947.2142,115.2
947.3173,221.5
947.4188,1079.5
947.5466,668
947.7974,319.3
947.9355,308.6
948.0783,866.7
948.1728,890.3
948.2277,2043.7
948.3674,565.8
948.66,964.5
949.0457,23.9
949.1601,808.5
949.2395,334.2
949.7634,642.6
949.9255,171.6
950.1128,735.8
950.5529,524.8
950.6069,815.4
950.8877,980.1
951.6734,618.1
951.9581,628
951.9983,193.6
952.7517,450.3
953.4358,909.9
953.4836,667
953.5198,655.9
953.5961,422.7
953.8344,1031.3
953.8763,128.6
954.0001,20
954.5269,169.4
954.8285,167.3
954.8409,135.6
954.888,715.2
955.7813,216.9
956.6225,865
956.7642,513.3
956.8518,98.2
956.8764,183.2
956.9498,394.9
957.3071,221.2
957.763,105.1
958.9406,135.2
959.1775,347.7
959.2376,636.8
959.3175,688.8
959.5023,113.1
959.5352,346.8
959.6421,534.3
959.8083,203.5
960.165,262.8
960.2656,708.6
960.4302,516.8
960.7285,89.2
960.8076,610.4
960.9237,97.5
961.0164,87.9
961.4385,596.2
962.1765,710.2
962.8827,1212.5
962.9253,563.9
963.0164,1177.6
963.3551,708
963.4569,110.4
963.7012,2568.9
963.79,685.6
963.8513,192.4
963.952,150.9
964.0605,490.8
964.1091,271.7
964.4627,491.9
964.5535,292.7
964.6807,1781.3
965.1091,316.1
965.2083,992.5
965.488,1145
965.5966,250.7
966.2136,142.6
966.2551,631.5
966.3867,651.3
966.8492,909.8
966.9035,809.4
967.0963,88.4
967.1251,201.1
967.3013,97.7
967.363,554.8
967.529,305.1
967.9942,199.5
968.1046,777.9
968.2167,852.3
968.6026,479.3
968.7058,192.1
968.7386,424.3
969.4342,555.7
969.6246,1184.6
969.7413,411.2
969.7786,548.8
969.8292,897.9
969.9423,954
970.389,217.9
970.5081,78.9
970.5465,227.9
970.681,597.1
970.7648,18.8
970.8642,316.9
970.899,1237.6
971.1764,91.2
971.3958,222.2
971.594,705.1
971.6569,93.5
971.738,491.3
972.0903,313.3
972.2158,242.4
972.3534,1128.4
972.4895,852.1
972.9437,569.8
973.0018,202.7
973.4002,858.7
973.4887,730.2
973.987,141.5
974.0849,491.7
974.1342,173.2
974.4169,187.3
974.8713,456.2
975.0179,179.6
975.1608,97.7
975.2658,1100.9
975.6978,871.9
975.8002,365.3
975.8697,975.5
976.0436,707.1
976.4549,492.5
976.695,145.8
977.0983,296.5
977.2127,1314.6
977.668,240.6
978.0544,19.9
978.1356,160.3
978.2169,948.4
978.6146,429.1
978.6935,17.3
978.9364,197.6
979.1038,345.8
979.1491,294
979.3164,350.1
979.3648,215.4
979.7045,176.8
979.8041,1062.6
980.1984,582.6
980.2551,893.4
980.3427,223.8
980.7693,206.6
981.3432,1194
981.4659,1323.4
981.6409,770.6
981.8693,565
981.9949,345.9
982.1123,875.3
982.3345,18.7
982.4374,700.6
982.7129,830.7
982.8687,457.3
983.2868,369.6
983.4423,124.7
983.8014,18.4
984.0885,1598.3
984.3791,832.1
985.2321,994.8
985.2613,805.5
985.4911,1094.8
986.2263,454.7
986.3162,1831.7
986.8924,634.3
987.07,950.3
987.1937,850.8
987.6484,360.4
987.7107,205.2
987.9273,1172.1
988.1455,341.4
988.1804,219.9
988.6314,525.4
988.8415,621.5
989.0711,241.6
989.765,126.2
990,559.3
990.3867,701.5
990.5089,1137.3
990.6052,155.6
990.6688,20.1
990.8444,384.4
990.8997,122.2
990.9461,466.3
991.4524,1221.2
991.8117,20.7
992.204,703.4
992.3277,1356.3
992.3995,161.6
992.6371,107.2
993.0854,708.2
993.9533,126.7
994.3314,97
994.6622,117.4
994.954,119.5
995.1436,237.2
995.3049,125.6
995.7678,113.1
996.2083,569.4
996.3292,778.4
996.4357,1156.6
996.4909,104.8
996.7051,699.9
997.749,859.8
998.5566,692.8
998.942,322.6
999.4497,105.6
999.5518,153.7
999.6611,144.8
