SPECTRUM - MS,
1611.RAW,
FTMS + p ESI Full ms [50.00-1000.00],
Scan #: 1-40,
RT: 0.01-1.96,
AV: 40,
m/z,Intensity

50.0098,254.6
50.0103,210.2
50.0279,16.1
50.0388,635.4
50.0477,314.7
50.0643,212.6
50.0777,128.6
50.0931,106.2
50.1512,260
50.1662,20.9
50.1698,192.1
50.1746,292.7
50.1752,502.4
50.1891,310.3
50.1902,201.6
50.1988,503.9
50.1996,546.1
50.2043,231.5
50.2307,75.5
50.2349,949.4
50.2434,120.1
50.259,15.3
50.2633,779.1
50.2692,158.3
50.2759,249.6
50.276,244
50.3087,906.5
50.3295,532.9
50.3425,412.1
50.3436,87.8
50.3669,145
50.3802,811
50.391,16.6
50.397,113.9
50.4081,258.8
50.4088,123.2
50.4114,115.2
50.4121,100.8
50.4198,282
50.4247,20.3
50.4319,200
50.4497,158
50.4558,111.7
50.4562,518.5
50.4574,112.1
50.4599,662.1
50.4617,658.7
50.464,77.5
50.4942,17.8
50.4949,835.2
50.5034,245.4
50.5077,96.4
50.5131,71.1
50.557,71.1
50.5601,332.1
50.5736,122.6
50.577,791.9
50.6294,150.2
50.6564,615.6
50.6672,272.1
50.6794,126.2
50.6943,81.2
50.7027,265.2
50.713,126.4
50.7133,340.4
50.7532,21.7
50.7672,312.7
50.7715,178.6
50.7837,155
50.7877,116.3
50.7924,201.7
50.7947,92.5
50.8057,118.6
50.8073,372.6
50.8078,231.7
50.8134,289.6
50.8217,193.7
50.8302,174.6
50.8325,148
50.8349,94
50.8613,23
50.864,17.5
50.8743,88.6
50.8905,162.1
50.8962,131.3
50.8986,168.4
50.9377,493.8
50.9496,725.8
50.962,125.1
50.9736,160.4
50.9761,96.2
50.9813,94.4
50.9838,333.7
51.0169,133.4
51.0257,133.8
51.0334,191.9
51.0622,320.2
51.0709,18.1
51.0857,585.6
51.0917,63.6
51.093,17.1
51.115,606.3
51.1157,84.2
51.1566,339
51.184,16.9
51.1868,539.1
51.1975,111.7
51.1981,17.6
51.2125,294.8
51.2137,662.2
51.2142,349.7
51.2576,578.7
51.2622,392
51.2682,312.2
51.2812,87.6
51.2966,103.3
51.3024,706.7
51.3335,67.7
51.3355,648.6
51.3586,307.6
51.3701,258.6
51.3888,121.7
51.3996,626.2
51.401,106.5
51.4282,325.7
51.4295,118.3
51.4453,591.6
51.4584,158
51.459,129
51.4808,135.2
51.485,20.8
51.486,286.5
51.5032,634.4
51.506,495.6
51.5138,23.9
51.5298,311
51.5311,73.4
51.536,76
51.5415,461.1
51.5437,202.5
51.551,85.4
51.5642,213.5
51.5652,70.9
51.5673,192.4
51.5758,248.4
51.5825,103.3
51.5858,284.3
51.5884,444.6
51.5961,75.8
51.6015,171.6
51.6182,102.9
51.6344,134.5
51.6409,221.1
51.6569,103
51.6609,170.9
51.6692,303.4
51.6698,107.8
51.6718,648.1
51.6738,116.6
51.6846,246.8
51.7164,18.1
51.7346,200.5
51.7357,850.5
51.7648,699.1
51.7714,110
51.7723,600.9
51.7781,21
51.7886,156.2
51.8084,187.2
51.826,283.5
51.8474,108.8
51.8601,97.7
51.8751,70.7
51.8795,109.9
51.8815,311.4
51.8817,484.6
51.8818,519.8
51.903,1077.8
51.9081,446.2
51.9203,309.1
51.9232,344.8
51.9248,280.4
51.9275,105.3
51.9553,291.5
51.9588,106
51.998,600.5
52.0152,66.8
52.0186,206.6
52.0208,330.7
52.0237,652.2
52.0258,620.5
52.0339,103.6
52.0401,333.6
52.0413,323.9
52.0533,152.4
52.0565,22.4
52.0659,240.5
52.0686,127.5
52.0747,17.2
52.0865,105.9
52.0956,314.2
52.1036,319.6
52.1147,305.8
52.1151,124.8
52.1231,16
52.1784,628.7
52.1833,153.7
52.1954,330.7
52.2019,365.3
52.2333,189.2
52.2459,525.1
52.2533,106.7
52.2774,94
52.2861,85.7
52.311,638.6
52.3136,187.6
52.317,509.4
52.3203,73.3
52.3227,89.6
52.3357,148.9
52.3439,268.5
52.3465,295.8
52.3532,722.2
52.3539,77.3
52.3636,72.3
52.3854,601.6
52.3962,145.6
52.3971,214
52.421,603.8
52.4291,187.5
52.4305,147.4
52.4408,102.5
52.4558,100.8
52.4681,101.1
52.4698,891.4
52.4779,210.1
52.4796,201.5
52.4839,146.4
52.4889,142.8
52.5452,577
52.5483,226
52.5566,369.7
52.5873,648.2
52.6061,878.4
52.6149,344.8
52.6185,74.8
52.626,18.5
52.6317,169.5
52.637,690.1
52.6602,109.6
52.6628,175.2
52.6632,204.9
52.6674,260.8
52.6788,591.1
52.6865,102.9
52.6878,576.9
52.693,147.3
52.7128,613.8
52.7254,630.8
52.7289,265.9
52.7372,244.2
52.7481,345.8
52.7628,313.2
52.7745,200.8
52.7825,595.9
52.7852,338.4
52.7979,508.8
52.7992,820.3
52.7997,3310.9
52.8001,2212.7
52.8006,2671.8
52.8016,620.8
52.802,2924.6
52.8027,985.2
52.804,525.3
52.8043,871
52.805,870.7
52.8055,484.9
52.8085,606.2
52.8152,89.8
52.828,72.7
52.8449,322.1
52.8497,125.7
52.851,610.8
52.8516,855.3
52.8562,20.1
52.8662,99.4
52.8739,111.2
52.8904,266.3
52.9057,105.6
52.9147,180.3
52.9401,347.7
52.9512,976.5
52.9577,211.2
52.9736,384.8
52.9867,81.9
52.9952,439.4
53.0156,194.2
53.0228,229.9
53.0256,310.2
53.035,144.5
53.0356,81.5
53.0644,784.1
53.0657,15.8
53.0739,18.2
53.0793,925.5
53.0812,578.5
53.0897,141.9
53.0921,433.1
53.1321,93.7
53.136,126.1
53.1408,517.1
53.1565,109.8
53.167,170.2
53.168,462.9
53.1963,106.4
53.2004,15.8
53.2272,192.5
53.2395,599.4
53.2529,80.2
53.2753,193.5
53.284,75.4
53.2936,108.4
53.3115,95.9
53.3347,233.8
53.3454,130.6
53.3626,281.6
53.3651,154.7
53.3737,63.9
53.376,140.8
53.3935,90.2
53.4336,122.5
53.4381,16.3
53.4431,309.4
53.4546,236.5
53.4587,155.4
53.4728,20.9
53.4907,305.8
53.4923,334
53.4997,119.7
53.5096,88.7
53.5151,119.2
53.5262,693.6
53.5311,82.3
53.5387,209.9
53.5463,104.9
53.5692,99.2
53.572,108
53.5735,385.2
53.5891,160.9
53.6046,17
53.6059,335.9
53.6155,442.8
53.6211,274.4
53.6234,325.7
53.6287,95
53.6466,105.2
53.6496,237
53.6701,84.6
53.6758,111.9
53.6863,535.3
53.6944,382.6
53.696,96
53.6997,183.5
53.7029,16.1
53.7368,855.2
53.7378,16.3
53.7459,124.6
53.7497,101.8
53.7566,135.1
53.7604,538.8
53.7633,109.4
53.7688,177.6
53.7836,481.6
53.8022,127.1
53.8114,98.9
53.8185,294.1
53.8391,114.5
53.851,304.9
53.8588,257.3
53.8617,355.8
53.8716,82
53.8833,88.5
53.89,91.2
53.9001,97.6
53.9198,95.3
53.9486,97.9
53.9603,1003.2
53.9739,80.2
53.9798,670.6
53.9813,257
53.997,70.7
54.004,476.7
54.0262,228.1
54.0285,131.8
54.0446,162.4
54.045,24.2
54.0556,86.5
54.0599,15.5
54.0641,351.6
54.0779,371.7
54.0828,602
54.0841,265.9
54.0926,667
54.093,173.6
54.1123,450.4
54.1128,67.8
54.1137,113.3
54.1201,97.1
54.1526,22.3
54.1549,132.3
54.1609,84.4
54.1738,69.2
54.1798,587.5
54.1947,112.2
54.1982,171.6
54.2056,374.9
54.208,495.5
54.2323,261.7
54.2466,88.5
54.2526,20.1
54.2896,148.8
54.2986,288.2
54.3191,399
54.321,188.5
54.3244,568.5
54.3341,92.7
54.3444,388.8
54.3483,15.1
54.3487,106.7
54.3733,231.6
54.4061,323.1
54.4073,85.1
54.4157,171
54.4228,17.3
54.4253,354.4
54.43,79.9
54.4443,178.2
54.4496,165.4
54.4513,203.7
54.4675,66.3
54.4678,60.5
54.4938,580.7
54.5017,962.7
54.5028,349.8
54.5042,75.2
54.5069,154.5
54.5109,99.6
54.5234,314
54.5243,294.8
54.5299,171.9
54.5361,68.6
54.5424,378.4
54.5483,301.1
54.556,541.7
54.6301,159.6
54.6314,313.5
54.6526,117.7
54.655,191.3
54.6729,109.4
54.689,146
54.6906,115.5
54.6931,200.6
54.7234,204.6
54.7533,22.1
54.761,153.7
54.7643,356.2
54.7655,472.6
54.7697,153.6
54.7751,335.3
54.7814,193.2
54.7841,111.3
54.8243,244.6
54.8293,208
54.8436,175.9
54.8523,162.9
54.8586,228.3
54.8661,18.3
54.9027,14.5
54.9061,91
54.9064,81.4
54.915,93.3
54.9294,128.2
54.9478,15.2
54.9542,137.2
54.9579,72.4
54.961,148.3
54.9637,297
54.9685,109.7
54.978,193.8
54.9816,338.9
54.9979,16.5
55.0568,469.9
55.0681,161.6
55.0727,495.4
55.1032,197.2
55.1148,463.8
55.1224,115.5
55.1242,21.5
55.1471,267.6
55.1641,292.5
55.1767,355.9
55.2035,378.7
55.2129,538.4
55.222,16.3
55.247,86.8
55.2644,99.3
55.2861,169.7
55.3174,97.1
55.3187,16.6
55.3406,69.3
55.3481,182.6
55.3486,166.1
55.3493,108.9
55.3507,72.1
55.3561,22.6
55.3605,484.1
55.3635,674.2
55.3798,21.4
55.3873,65.9
55.3912,17.1
55.3952,285
55.3986,136.3
55.4002,99.2
55.4033,561.3
55.4134,160.7
55.4159,206.2
55.4213,237.6
55.4297,549.8
55.4341,938.3
55.4376,273.9
55.4425,64.3
55.4479,117.5
55.4607,16.5
55.4685,132.4
55.4967,131.3
55.5088,92.1
55.5092,98.7
55.5214,568.6
55.5377,70.2
55.5409,592.6
55.5435,18.1
55.5686,254.9
55.572,223.2
55.577,15
55.5823,107.9
55.6245,360.1
55.6321,82.9
55.6371,205.6
55.6551,19.8
55.6729,71.3
55.7109,795.9
55.7229,333.5
55.7521,197.8
55.7711,167.9
55.7918,323.3
55.7979,321.8
55.8053,103.4
55.8274,171.9
55.8608,598.6
55.8731,108.8
55.8763,176.1
55.9034,236.3
55.9132,513.2
55.9358,120.2
55.9509,137.1
55.9591,23.9
55.9627,112.6
55.9738,20.3
55.9922,1063.2
55.9927,15.2
55.9963,439.5
55.9972,79.3
56.0145,441.4
56.0192,125.5
56.0212,84.9
56.0467,800.2
56.0491,117.5
56.0501,136.8
56.052,273.6
56.0587,98.8
56.0627,16.4
56.0637,904.4
56.0646,229.1
56.0864,19.8
56.0916,798.9
56.0936,168.8
56.1062,514.7
56.1119,952.9
56.1163,87.8
56.1308,203.4
56.1678,626.4
56.1895,303.8
56.2096,19.6
56.2106,18.9
56.2289,508.4
56.2308,683.3
56.2344,247.7
56.2385,398.2
56.2404,323.5
56.2422,879
56.2602,18.2
56.2703,19
56.2783,92.8
56.2843,836.6
56.3041,110.2
56.3314,473.9
56.3412,219.2
56.3581,409.3
56.361,74.7
56.3924,108
56.4063,423.6
56.433,18.2
56.441,115.3
56.4426,17.4
56.4607,240.5
56.4839,66.2
56.4893,83.7
56.5192,178
56.5272,253.7
56.5358,93.6
56.5449,121.7
56.5475,299.4
56.554,130.9
56.5596,826.7
56.6154,635.2
56.6189,497.9
56.6236,596.8
56.6423,80.6
56.6531,284.4
56.6616,76.6
56.6685,15.7
56.675,91.6
56.7036,67.9
56.7152,587
56.7461,623.6
56.7495,16.7
56.7571,214.9
56.7679,120.9
56.7699,296.5
56.7772,604.2
56.778,75.2
56.7886,455.6
56.8002,101.9
56.8085,68
56.8105,658.7
56.815,107.6
56.8171,80.7
56.818,600.1
56.819,158.4
56.8278,530.5
56.8388,70.6
56.855,332.1
56.8576,314.7
56.868,88.7
56.8763,369
56.884,211.3
56.9007,259.9
56.9071,466.1
56.9177,203.3
56.9218,20
56.9251,20.8
56.9427,180.8
56.9448,368.4
56.9616,18.5
56.9748,189.4
56.9759,940.8
56.987,21.3
57.0065,205
57.0158,231.1
57.0174,82.9
57.0226,74
57.033,194.5
57.0533,601.5
57.0555,219.9
57.0693,493.5
57.0957,956.2
57.0989,102.1
57.1024,514.9
57.1169,185.7
57.1472,187.7
57.1709,311.8
57.1727,519.9
57.1907,131.8
57.2033,285.9
57.2056,79.8
57.2152,136.7
57.2389,293.3
57.2637,550.1
57.2642,639.1
57.2667,172.9
57.2673,133.1
57.2741,121.1
57.2835,881.1
57.3037,258.1
57.3229,186.1
57.3273,193.1
57.3663,104.3
57.3698,73.9
57.3704,265.1
57.3861,96.9
57.3868,64.2
57.3901,108.4
57.3918,147.4
57.4071,287.6
57.4155,323.5
57.4219,171.4
57.4229,16.2
57.4268,594.2
57.4542,494.6
57.4554,272.9
57.4663,21.4
57.4673,338.9
57.492,80.3
57.4956,616.8
57.4978,284.1
57.5095,15.8
57.534,73.1
57.5477,98.3
57.5547,141.4
57.5772,255.5
57.5792,780.7
57.5829,96
57.6138,148.9
57.6195,98.4
57.6206,17.8
57.6431,290.2
57.6507,222.7
57.6554,86
57.6828,152.7
57.6872,94.6
57.7132,221.9
57.7138,123.6
57.715,18.4
57.7324,413.4
57.7399,286.7
57.7522,26.3
57.7615,114.1
57.8035,66
57.804,589.1
57.8115,86.7
57.8198,16.4
57.8307,75
57.8371,198.8
57.85,82
57.8549,324
57.8934,135.2
57.8941,67.2
57.8953,244.5
57.962,98.2
57.9733,120.5
57.9765,241.2
57.9881,163.3
57.9911,272.9
57.992,133
58.0065,228.1
58.0235,669.3
58.0255,306.8
58.0293,303.1
58.0351,190.6
58.0441,69
58.0463,844.9
58.0579,471.1
58.0609,85.3
58.0641,292.3
58.0736,199.3
58.0806,111.3
58.0843,613.5
58.0906,509.2
58.0939,795.3
58.1036,197.4
58.1335,112.5
58.1388,191.1
58.1486,344.9
58.1513,198.3
58.1766,471.8
58.1803,287.5
58.1832,580
58.2046,240.7
58.2105,146.3
58.2147,76.4
58.2193,168
58.2207,161.5
58.2362,362.3
58.2459,91.3
58.2806,871.5
58.2848,98.3
58.2954,76.2
58.2987,124.5
58.2994,325.7
58.2999,119
58.3195,101.5
58.322,205.6
58.3318,265.5
58.3512,447.6
58.3558,38.8
58.3666,169.3
58.3771,132.2
58.3889,143.3
58.4126,887.9
58.4144,84.9
58.4176,340
58.4192,66.8
58.4276,452.5
58.4309,67.7
58.4393,90.3
58.4542,215.5
58.4667,88.6
58.4682,72.9
58.4807,148.3
58.4904,92.9
58.5013,143
58.5108,174.8
58.5147,161.8
58.5293,431.6
58.5305,23.7
58.5339,137.6
58.5353,583
58.5402,257.8
58.572,80
58.6012,286.1
58.6038,423.4
58.6158,242.4
58.6232,16.7
58.6282,103.9
58.6546,535
58.6588,251.4
58.6817,395.5
58.7065,83.3
58.7244,260.2
58.7359,234.7
58.7526,100.3
58.7613,257.8
58.7937,241.5
58.8005,165.1
58.8176,188.4
58.823,582.3
58.8244,634.5
58.83,147.8
58.8324,21.2
58.8349,287.7
58.8393,173.1
58.8417,295.7
58.848,82.4
58.8522,579.9
58.8602,474.5
58.8659,231.5
58.8721,20.6
58.8881,154.2
58.8948,18.8
58.9111,129.6
58.9203,115.8
58.9251,829.8
58.9346,321.5
58.9387,135
58.9483,152.1
58.9489,415.2
58.9565,103.5
58.9949,189.7
59.0474,434.4
59.0542,559.9
59.0557,340.1
59.0619,232.9
59.071,85.9
59.0784,79.2
59.0871,76.5
59.0887,609.4
59.1081,85.1
59.1117,71
59.1341,155.9
59.1393,156.2
59.1521,916.6
59.1627,465.9
59.1924,101
59.1966,202.8
59.214,584.9
59.2262,209.5
59.2406,18.4
59.2423,623.8
59.2665,446.1
59.2733,280.6
59.2782,349.8
59.2808,219.4
59.2839,778.1
59.3012,146
59.3092,71.8
59.3176,16.3
59.3326,124.6
59.3445,99.2
59.3476,187.4
59.3652,478.5
59.3769,615.2
59.3943,534.1
59.4089,258.7
59.419,852.8
59.4373,388.9
59.4702,237.9
59.4844,824.9
59.4851,119.5
59.4861,201.1
59.5033,208.5
59.5243,431.1
59.5252,148.4
59.5323,320.3
59.5345,238
59.5466,15.8
59.5498,88.8
59.5583,503.3
59.572,687.9
59.5753,562.6
59.5814,631.8
59.5831,95.4
59.5964,231.4
59.6193,198
59.6223,85.6
59.6376,303.8
59.6414,127.8
59.6472,133.6
59.6714,83.9
59.689,101.8
59.6899,18.4
59.6989,109.5
59.7061,356.3
59.7134,75.4
59.7227,212.7
59.7489,530.5
59.7557,106.3
59.762,286.9
59.7805,233.2
59.7811,19.3
59.7817,92
59.7903,108.9
59.8016,106.3
59.8116,19.3
59.834,156.8
59.8448,59.8
59.8495,134.5
59.8565,854
59.8664,70.6
59.8888,296.9
59.9166,19.5
59.9212,133.8
59.9309,187.5
59.9336,394.9
59.9351,599.5
59.9527,613.1
59.9538,256.3
59.9821,162.5
59.9853,16.4
60.0065,537.4
60.01,16.4
60.0339,311.4
60.0728,256.5
60.0765,544.3
60.0857,463.4
60.0902,63.9
60.0972,195
60.1002,332.3
60.1056,194.5
60.1062,205.1
60.1186,398
60.1336,862.7
60.1384,480.1
60.1659,111.5
60.1668,696.4
60.1838,73.4
60.2025,274.8
60.2049,36
60.2107,160
60.2181,124.8
60.2296,117.8
60.2423,603.9
60.2594,150.9
60.2637,80.5
60.293,319.1
60.3068,85.3
60.3427,80.3
60.3502,292.2
60.3536,136.8
60.354,19.8
60.3558,492.6
60.3585,69.6
60.3762,338.9
60.404,403.3
60.4288,71.3
60.4331,403.7
60.4431,169.8
60.4453,384.3
60.4512,278.1
60.4601,638.8
60.4657,237.6
60.5138,204.4
60.5175,16.2
60.5213,135.1
60.5316,200.9
60.5447,205.6
60.557,173.7
60.5598,423.5
60.5703,558.6
60.5779,579.6
60.5797,93.8
60.5815,270.4
60.6179,120.3
60.6247,509.2
60.632,92.7
60.6479,149.5
60.6516,93
60.6586,118.1
60.66,299.6
60.6604,146.4
60.6733,183.1
60.6922,81.7
60.695,278.8
60.6961,538.4
60.7104,267.9
60.7173,242
60.7315,83.9
60.7333,461.9
60.7562,20.2
60.7607,624.3
60.7779,986.6
60.7798,755.1
60.7834,630
60.7883,185.5
60.7896,563.2
60.7934,117.7
60.8013,70.9
60.8114,93.4
60.8116,89.2
60.8131,81.8
60.8214,86.2
60.8324,104
60.838,179.5
60.8696,86.9
60.8912,314.6
60.9352,234.6
60.9548,166.6
60.9567,886.8
60.9615,17.4
60.9632,224.1
60.9682,77.3
60.977,322.5
60.9821,295.7
60.9922,283
61.0064,553.2
61.0392,91.2
61.0475,202.7
61.0587,694.8
61.0611,191.6
61.1134,111.9
61.1257,343.7
61.1454,227.8
61.1596,288.7
61.1717,202.3
61.1759,202.7
61.1781,159.5
61.1895,415.6
61.2036,71.4
61.2735,20.8
61.2852,763.2
61.3059,122.1
61.3072,318.7
61.3105,876.5
61.3194,345.6
61.323,17.5
61.3339,125.9
61.3348,103.2
61.3359,127.9
61.3378,285.4
61.3591,287.2
61.3645,165.2
61.4039,638.7
61.4068,843.8
61.4171,100.7
61.4445,679.4
61.4579,308
61.4615,101.4
61.482,77.4
61.503,29.1
61.5056,138
61.5259,288
61.5273,518.2
61.5593,298.7
61.5756,605.9
61.583,89.9
61.5873,105.9
61.6213,476.3
61.624,474.1
61.6292,97.3
61.6378,626.7
61.6389,361.7
61.652,87.5
61.6547,233.3
61.6581,609.7
61.6648,74.8
61.7,91.9
61.7263,1108.8
61.7304,160.4
61.7631,172.6
61.7716,165.5
61.7757,79.2
61.7864,206.2
61.7918,140.8
61.8114,800
61.8462,135.3
61.85,326.5
61.8553,114
61.8765,269.9
61.8858,383.3
61.8942,75.9
61.9011,17.9
61.904,172.9
61.9051,16.3
61.9244,102.5
61.9256,462.2
61.9382,111.6
61.9409,540.6
61.9444,1031.5
61.9448,378.5
61.9565,89.3
61.9765,125.4
61.997,19.5
62.0001,948.1
62.0119,267.1
62.0208,399.9
62.024,145.6
62.0267,225.5
62.0354,265.7
62.0517,184
62.0576,185
62.0907,157
62.1226,125.6
62.1328,594.5
62.144,269.8
62.1603,17.3
62.1624,572.4
62.1833,671.6
62.1903,639.3
62.197,101.7
62.2395,511.1
62.2482,365.7
62.2533,671.1
62.2546,269.1
62.2864,105.9
62.2938,203.3
62.297,108
62.3183,665.2
62.3247,218.1
62.3294,173.6
62.3552,78.6
62.3795,304.1
62.3917,19.3
62.4026,111.8
62.4097,135.1
62.4505,128.5
62.4578,153.5
62.4797,128.5
62.4933,20
62.4981,72.9
62.5003,107.6
62.5104,18.8
62.5133,164.1
62.5161,319.6
62.5346,189.9
62.5375,727.4
62.5661,112
62.5701,194.1
62.5734,85.6
62.5838,222.8
62.6004,1198.6
62.6217,151.8
62.6339,348.6
62.6577,252.2
62.659,593
62.6826,192
62.7008,331.2
62.7055,483.6
62.7106,103.4
62.7139,16.7
62.722,396.1
62.725,23.5
62.7346,73.9
62.7432,66.4
62.7531,178.1
62.7584,17.6
62.7635,332.5
62.7702,298.3
62.7726,362.8
62.8064,278.7
62.8085,357.2
62.8128,19.6
62.8457,296.5
62.8478,698.8
62.8488,335.4
62.8632,155.9
62.8724,586.8
62.8811,199.4
62.8817,293.2
62.8848,180
62.89,580.9
62.9075,529.2
62.929,591.8
62.9377,322.9
62.9434,729.4
62.9721,210
62.973,657.1
62.982,89.2
62.9836,168.5
62.9844,348.9
62.9936,17.9
63.0088,127.5
63.0168,75.6
63.0222,165
63.0332,107.7
63.044,382.2
63.0646,517.4
63.0787,988
63.0952,17.5
63.1005,415.9
63.1157,188.4
63.1317,528
63.1351,633.9
63.144,21.2
63.1539,494.4
63.1595,147.7
63.1622,841.8
63.1678,110.8
63.1709,362.2
63.1738,489.7
63.1776,289.7
63.1839,245.8
63.2049,16
63.2219,253.6
63.2362,106.5
63.253,769.6
63.2653,691.7
63.2664,133.6
63.2691,129.8
63.2755,956.9
63.2881,252
63.2888,19.1
63.3275,110.2
63.3542,97.6
63.3747,83.2
63.3753,157.3
63.3896,19
63.4305,98.7
63.4408,17.5
63.4439,144.8
63.4704,81.5
63.5373,20.5
63.5905,277.7
63.5916,74.6
63.5941,17.5
63.5966,176.5
63.6066,19.9
63.6097,831
63.6333,91.1
63.6566,501.1
63.6971,474.8
63.6985,184.6
63.7329,74.2
63.7471,645.1
63.7717,186.4
63.7753,76.5
63.7837,218.5
63.7872,157.1
63.8282,209.4
63.8319,1057.4
63.8515,82.2
63.8712,809.3
63.8781,645.1
63.8843,15.9
63.8998,223
63.9027,815.5
63.9224,76.5
63.9231,149.4
63.9331,114.5
63.9433,1217.9
63.9438,143.8
63.9628,151.9
63.9967,1039.1
64.0153,1044.9
64.0209,90.9
64.0249,345.7
64.0323,138.8
64.0329,93.2
64.053,627.5
64.0611,687.9
64.0746,328.2
64.0941,698.9
64.0967,332.9
64.1064,154.4
64.13,346.6
64.1375,585.3
64.1396,169.2
64.1528,75.5
64.1656,86.5
64.2021,358.7
64.2101,220.5
64.2191,244.1
64.2245,202.6
64.2333,81.9
64.2343,108.3
64.2511,313.4
64.2679,672.8
64.2693,954.7
64.2796,82.5
64.284,273.8
64.291,456
64.2961,195.2
64.3054,689.1
64.3363,401.1
64.3433,374.4
64.3494,213.8
64.3518,172.2
64.3651,1121
64.3666,20.4
64.3684,619
64.379,100.1
64.3887,22.9
64.4062,18.8
64.4152,427.9
64.4463,219
64.4801,501.1
64.4807,80.8
64.4959,384
64.4978,855.2
64.5135,24.2
64.5217,333.5
64.524,16.9
64.5274,87.1
64.5346,73.2
64.5388,18.2
64.5435,23.8
64.5844,288
64.6033,159.7
64.6192,691.4
64.6233,22
64.6288,90.2
64.6296,93.8
64.6344,595.1
64.6418,96.2
64.6686,227.7
64.7013,318.6
64.7058,834.3
64.731,144.7
64.7392,114.5
64.746,979.5
64.7619,315.4
64.7824,358
64.7902,17.6
64.7906,258.1
64.8076,768.4
64.8231,705.9
64.8246,113.1
64.8392,90.7
64.8532,123.2
64.861,171.4
64.8786,85.7
64.9065,111.1
64.9131,822
64.9178,75.2
64.9288,301
64.9313,20.7
64.9597,292
64.991,385.1
65.014,381.8
65.021,585.4
65.0314,650.6
65.0472,117.4
65.0627,765.8
65.0804,557.7
65.0856,82.5
65.094,748.5
65.0961,324.2
65.109,331.4
65.11,387.8
65.1143,169.6
65.1383,75.7
65.1402,225.6
65.1584,104.6
65.1644,189.1
65.1667,566.8
65.1791,72.5
65.1933,362.8
65.224,124.7
65.2457,23.9
65.249,20.4
65.2523,230.2
65.2798,220.3
65.2811,378.7
65.283,148.7
65.2944,198.4
65.2959,96.3
65.3162,165.5
65.3593,150.4
65.3619,545.6
65.3686,479.3
65.3722,228.2
65.3772,798.2
65.3952,153.2
65.4019,304.1
65.4194,804
65.4289,335.3
65.4325,190.8
65.4427,108.5
65.4548,73.1
65.4569,318.1
65.4871,18.2
65.4936,361.9
65.4969,110.5
65.4981,451.1
65.513,18.5
65.5159,95
65.5226,16.3
65.5348,266.2
65.5552,327.1
65.5673,577.9
65.5942,493.5
65.6006,217.2
65.6019,214.9
65.6154,506.9
65.6236,135.1
65.6367,683.8
65.64,88.8
65.6471,269.9
65.6492,18.3
65.6544,606.1
65.6625,482.2
65.6794,315.4
65.7026,236.2
65.7084,160.4
65.7146,103.2
65.7192,872.4
65.7224,155.4
65.7262,20.6
65.7326,25.2
65.7706,234.9
65.8044,131.2
65.8089,91.4
65.8179,299.9
65.8572,17.6
65.8654,698.8
65.8703,90.4
65.906,114.9
65.9066,103.3
65.9203,115.1
65.9403,284
65.9523,153.3
65.959,339.4
65.9648,104.1
65.9776,547.2
65.9871,202.8
66.0178,131.4
66.0352,259.9
66.0407,136.6
66.0459,318.2
66.0462,324.1
66.0563,89.3
66.0943,227.2
66.1,19
66.1083,154.5
66.1164,20.7
66.1597,79
66.1643,437.3
66.1985,18.6
66.2049,171
66.2164,137.8
66.2329,222.8
66.2345,690.8
66.2362,753.7
66.2444,125.7
66.2461,79.8
66.2519,306.1
66.2532,1228.5
66.2811,98.7
66.2828,16.9
66.2974,84.3
66.3076,89.7
66.3127,180.2
66.3279,220.7
66.3501,407.1
66.3551,176.3
66.3761,525.1
66.3815,93
66.4073,627.6
66.412,94.4
66.4136,647.1
66.4163,333.2
66.4308,19.4
66.4325,106.2
66.4506,589.2
66.4756,255.1
66.478,120.7
66.4812,613.2
66.4913,81.9
66.4937,527.4
66.4998,668.8
66.5216,88.7
66.5268,455.4
66.5329,245.2
66.5345,116.7
66.5411,280
66.5524,209.5
66.5602,166.1
66.5784,16
66.5816,102.7
66.592,131.3
66.5958,633.6
66.6129,341.4
66.6211,218.3
66.6226,664
66.6233,324.4
66.6251,230.3
66.6271,212.2
66.6292,326.6
66.6453,17.8
66.646,334.1
66.6519,15.6
66.6663,533.4
66.6677,519.7
66.6742,367.5
66.677,126.9
66.6783,335.5
66.6953,20
66.6964,78.2
66.701,129.7
66.7027,112.4
66.7049,681.6
66.7066,311.1
66.7089,95.5
66.7103,648.6
66.7199,22.1
66.7329,75.3
66.7632,22.2
66.764,314.2
66.7884,114.9
66.7941,279.1
66.7966,127.7
66.8097,644.6
66.8216,72.5
66.8307,141.7
66.8387,312.3
66.8626,195.1
66.8674,298.9
66.8681,211.5
66.8741,19.7
66.8846,20.7
66.8978,16.6
66.9001,17.5
66.9036,319.3
66.9095,134.8
66.9134,227.3
66.9166,26.2
66.924,170.5
66.9402,138.8
66.9475,922.1
66.9552,724.7
66.9588,677.5
66.959,672.3
66.9633,115.6
66.9818,17.9
66.9832,118.7
66.9973,18.2
67.0039,89.9
67.004,90.8
67.0051,21
67.0077,475
67.0412,295.4
67.0418,83.9
67.0459,21.4
67.054,49.4
67.0547,127.5
67.0997,198.2
67.128,71.6
67.1696,253.3
67.1861,139.8
67.1876,131
67.1896,68.8
67.198,247
67.2113,321
67.2229,839.4
67.2278,18.8
67.2441,70
67.2643,535.1
67.2658,343.4
67.2673,136.1
67.2759,127
67.279,76.4
67.2874,167.4
67.3143,142.3
67.3193,160.5
67.3257,199.7
67.3429,24.6
67.3479,199.2
67.3498,707.2
67.3926,98.7
67.4056,84.6
67.4066,660.9
67.4287,72.3
67.432,17.9
67.4367,185
67.4467,122.6
67.4475,870.3
67.4697,18.7
67.4737,726.1
67.4987,68.7
67.5162,105.9
67.5499,118.5
67.559,492.8
67.5595,378.9
67.5639,540.1
67.5645,358.8
67.5658,352.7
67.5682,422.2
67.5698,248.4
67.5765,105
67.5917,265
67.6274,380
67.6419,641.3
67.6516,380.8
67.6609,604.6
67.6721,266.1
67.6871,213.6
67.6932,248.9
67.7205,102.8
67.7294,912.6
67.7558,77.3
67.7631,315
67.7702,119.7
67.797,104.9
67.8044,79.8
67.8389,522.2
67.8647,25.7
67.8669,324.8
67.8789,147.9
67.8799,291.3
67.886,176.5
67.8903,92.8
67.8962,103.1
67.9065,98.7
67.9363,415.1
67.9447,25.4
67.9521,402
67.9736,343.5
67.9976,70.8
68.0079,322.7
68.0239,779.7
68.0254,158.3
68.0313,145
68.0525,130.2
68.0596,240.6
68.087,23
68.1022,324.7
68.1045,706.5
68.178,98.2
68.222,79.7
68.2286,1001.8
68.2384,19.9
68.2488,130.6
68.2598,87.1
68.2618,18.1
68.2937,78.7
68.2958,1036.9
68.2971,449.1
68.3,639.8
68.3075,142.1
68.3237,476.6
68.3251,304.4
68.3333,359.6
68.3381,182.2
68.3384,212.3
68.3501,515.5
68.3752,337
68.398,327.2
68.4012,166.5
68.4131,759.6
68.4224,67.1
68.431,228.5
68.4577,646.9
68.4586,439.7
68.4684,183.9
68.4689,110.5
68.4738,138.1
68.4789,17.1
68.4945,77.2
68.501,89.1
68.5089,601.4
68.5253,346
68.6074,75.6
68.6531,121.8
68.663,156
68.7105,71.8
68.7701,135.4
68.7866,233
68.7915,74.2
68.7959,17.9
68.7997,421.3
68.8092,151.8
68.8131,223.7
68.8182,852.6
68.8306,391.6
68.8313,134.1
68.8728,924.6
68.8822,178.7
68.8998,23.6
68.901,289
68.9301,70.6
68.9532,144.1
68.975,268
68.9992,17.7
69.0242,18.4
69.028,566.3
69.0319,796.2
69.0699,185.5
69.0728,17.4
69.0919,659.6
69.0932,347
69.1011,75.1
69.1446,102.5
69.1483,117.6
69.1496,20.1
69.1624,19.9
69.1868,286.7
69.1997,516.5
69.2197,98.7
69.2266,290.1
69.227,304.3
69.2298,119.2
69.2327,656.6
69.2347,265
69.2424,111.3
69.2714,414.7
69.2732,21.3
69.2741,1161.9
69.285,22.4
69.4162,447.7
69.4246,117.5
69.429,479.4
69.4391,680.5
69.4505,349
69.4512,117.9
69.4659,216.6
69.4698,16.8
69.4781,71.7
69.4863,268.8
69.4936,100.7
69.4949,68.5
69.5283,631
69.5326,224.5
69.5464,506.5
69.5505,169.6
69.5565,481.9
69.5579,276.2
69.5671,791.3
69.6131,98.3
69.6145,124.3
69.6263,679.5
69.6461,574.1
69.6468,17.7
69.6657,935.2
69.6761,672
69.6783,141.1
69.7309,112.5
69.7862,311.8
69.8002,18
69.8093,98.1
69.8198,103.8
69.8212,103.9
69.825,128.2
69.8263,140.9
69.8367,22.1
69.8647,21.9
69.8952,475.4
69.9123,459.9
69.9414,326.3
69.9578,119.6
69.9584,435.7
69.9597,568.7
69.9609,393.9
69.9618,265.4
69.9695,355.7
69.9805,79.5
69.9876,93.5
70.0105,20.9
70.0171,146.4
70.0318,751.8
70.0328,266.5
70.045,304.1
70.0519,246.9
70.057,202.5
70.0649,97.1
70.0733,603.9
70.1024,113.4
70.1208,672.9
70.1341,370.5
70.1415,212.8
70.1459,20.9
70.1622,542.9
70.1734,441.2
70.176,181.4
70.1768,323.9
70.1819,312.3
70.188,82.2
70.219,325.3
70.259,86.9
70.2768,15.9
70.279,657
70.2853,93.4
70.3036,257.2
70.3212,106.1
70.3299,478.4
70.3797,272.8
70.4043,15.9
70.4376,105.5
70.4834,490.5
70.4885,546.3
70.4893,82
70.491,19.5
70.4914,84.2
70.504,197.8
70.5054,576.3
70.5601,588.7
70.5715,305.1
70.5775,23.9
70.5928,105.4
70.602,102.7
70.6334,401.2
70.6516,105.5
70.6553,604.3
70.6781,377.6
70.6875,214.1
70.7046,603.8
70.7176,233.5
70.7277,240.5
70.736,147.4
70.7409,80.9
70.7533,299.4
70.7711,65.6
70.7741,440
70.7849,422.8
70.7922,23.4
70.7945,120.2
70.8259,157.3
70.8365,150.3
70.8608,72.2
70.8645,91.9
70.8674,16.8
70.8739,339.6
70.8797,93.7
70.9206,73.9
70.9261,242.1
70.9327,271.5
70.9538,129
70.9574,655.7
70.9786,87.8
70.9879,868.8
71.0044,178.5
71.0616,105.9
71.0687,584.6
71.0942,931.1
71.0983,612
71.1031,79.7
71.1073,333.3
71.1698,113.5
71.1816,111.2
71.183,165.2
71.1849,311.9
71.2066,262.2
71.2237,294.3
71.2324,339.7
71.2373,17.6
71.2581,99.3
71.275,586.3
71.2949,653.6
71.3082,913.1
71.3215,506.9
71.3481,584.5
71.3519,871.6
71.3698,198.8
71.3776,18.7
71.4021,99.3
71.4156,271.9
71.4321,65.1
71.4356,372.5
71.436,390.5
71.4574,70.6
71.506,231.7
71.507,170.3
71.5169,443.1
71.5264,19.7
71.5322,372.1
71.5741,125.7
71.5752,381.6
71.5788,16.5
71.5813,297.1
71.5913,148.4
71.5981,303.5
71.6165,110
71.6185,103.9
71.6312,189.9
71.6334,95.8
71.6429,153.6
71.6458,542.6
71.6509,137.9
71.6585,149.2
71.6975,112.4
71.7027,220.2
71.7674,19.7
71.7684,279.4
71.7704,572.5
71.7772,607.8
71.7844,356.5
71.7966,187.8
71.8274,623.8
71.8386,219.9
71.8452,680.3
71.8543,394.6
71.8672,811.4
71.8855,21.2
71.8946,295.4
71.8983,173.7
71.909,96.4
71.915,459.9
71.9205,132.7
71.9691,317.5
71.9953,84.5
72.0074,82.5
72.0225,134
72.0256,82.1
72.0423,17.3
72.0459,676.6
72.0806,235.5
72.106,139.3
72.1082,365.4
72.1278,103.1
72.1429,190.3
72.1661,538.6
72.1689,208.6
72.1804,96.2
72.1849,16.6
72.1854,306.6
72.193,602.5
72.2067,949.4
72.2084,781.6
72.2088,368.6
72.21,817.6
72.2117,693.6
72.212,846.3
72.2128,1328.2
72.2138,176.1
72.215,998.5
72.216,2153
72.2166,1416.7
72.2171,1871
72.2174,1907.7
72.2177,2118.8
72.2181,2626.3
72.2192,1961.7
72.2197,1933
72.2215,5850.7
72.222,4430.4
72.2231,2166.4
72.2237,3069.9
72.2244,3379.5
72.2247,3187.2
72.2252,2761
72.2261,3201.5
72.2264,3629.8
72.2274,1420.9
72.2288,2418.6
72.2297,1549
72.2305,687.7
72.2313,1047.8
72.2321,646.2
72.2328,383.8
72.2343,462.3
72.2353,217.6
72.2362,25.8
72.2367,28.1
72.262,341.9
72.2652,533.4
72.2939,88.5
72.3128,257.8
72.316,374.5
72.3233,82.5
72.3361,94.8
72.3408,234.2
72.3431,749.3
72.3628,251.2
72.3716,474.5
72.3872,256.9
72.3896,178.7
72.4011,470.9
72.4184,206.1
72.4542,252.9
72.4649,280
72.4657,363.3
72.4688,21.7
72.5297,353.5
72.5481,100.4
72.5505,128.7
72.5643,80.1
72.6146,369
72.6227,164.9
72.629,159
72.6331,104.7
72.6556,203.5
72.6661,693.8
72.6707,536.9
72.6776,815.1
72.68,99.3
72.6912,310.2
72.6974,910.8
72.7436,458.5
72.7538,93.3
72.777,552.2
72.7773,564.2
72.7978,376.3
72.8064,301.5
72.8238,327.4
72.8282,149.4
72.8407,195.9
72.8433,656
72.9172,489.4
72.9226,418.4
72.9245,225.3
72.925,18.4
72.9304,211.7
72.9353,155.6
72.9684,117.8
72.9722,865.3
73.0089,16.8
73.0094,175.2
73.0147,558.9
73.0193,568.5
73.0306,245.6
73.0326,123.4
73.0729,18.7
73.081,772.8
73.092,524
73.0957,127.7
73.1064,18.7
73.1169,131.6
73.1243,162.4
73.1298,156.1
73.1473,127.2
73.1554,90.3
73.1682,206.3
73.1723,108.1
73.1833,253
73.1857,108
73.2084,480.8
73.2183,186.2
73.2415,350.5
73.248,16.3
73.2676,76.6
73.2716,333.5
73.2728,236.7
73.2961,206.8
73.2969,22.5
73.3,103.2
73.3008,126.2
73.3058,88.5
73.3124,80.7
73.3153,208.5
73.3382,156.4
73.3613,521.1
73.362,142.8
73.3707,72
73.39,429.1
73.3956,141.8
73.4018,80.8
73.4185,178.5
73.4372,92.8
73.4379,277
73.4634,587.8
73.4717,235.2
73.4729,273.1
73.4808,84.3
73.4853,215.7
73.4879,79.9
73.5203,413.2
73.5328,125
73.5522,75.7
73.5649,137.1
73.5679,599.7
73.5836,78.1
73.6,335
73.6047,73.1
73.627,146.5
73.6384,697.4
73.6397,319
73.6405,227.2
73.6483,145.9
73.6505,764.9
73.6523,284.6
73.662,111.3
73.6802,862.5
73.705,291.7
73.7095,122.2
73.7175,234.5
73.7289,542.8
73.7304,205.9
73.7411,82.3
73.7727,146.6
73.7767,81.8
73.7771,245.2
73.8153,310.5
73.8275,142
73.8353,111
73.8429,90.8
73.8447,606.1
73.8468,73.1
73.8571,108.6
73.8649,126.8
73.8861,153.5
73.8875,75.4
73.8923,230
73.9092,275.9
73.9356,243.9
73.9854,320.9
73.9877,340.1
73.9895,167.1
73.9946,375.1
74.0015,77
74.0188,312.1
74.0212,580
74.0291,219.4
74.0338,465.5
74.0482,215.7
74.0599,4798.8
74.073,130
74.0739,220.9
74.1542,195.5
74.1585,195.2
74.159,230.4
74.165,241.6
74.1893,213.8
74.1919,106.1
74.1971,172.2
74.2002,582.2
74.2027,757.9
74.223,536.2
74.2498,140.2
74.2503,526.8
74.2505,508.6
74.2509,479.3
74.2535,680.3
74.2847,92
74.2875,121.8
74.2914,284.1
74.2934,279.5
74.2957,265.6
74.3055,140.2
74.3151,211.1
74.3171,572.1
74.3694,89.2
74.3711,250.3
74.3863,212.3
74.3897,78
74.3995,236.2
74.4349,20.2
74.4529,87.1
74.4537,78.7
74.4571,83.6
74.4591,198
74.4649,105.1
74.4813,595.8
74.4822,138.7
74.4847,110.2
74.5411,66.7
74.5537,114.1
74.5899,331.5
74.6291,22.1
74.6361,23.2
74.6434,194.7
74.6616,333.5
74.6622,79.2
74.6735,17.5
74.6849,705.7
74.7025,75.7
74.7068,426.3
74.7188,785.7
74.7222,81
74.7304,606.2
74.7433,87.6
74.7492,451.7
74.7794,265.4
74.8029,663
74.8149,186.2
74.819,156.5
74.8304,608.8
74.8463,380.7
74.853,337.9
74.8731,84.3
74.8738,461.9
74.8757,106.9
74.8827,502.7
74.8846,624.3
74.8969,287.5
74.8976,106.1
74.9208,365.7
74.9606,80.9
74.9736,127.4
74.9752,19.9
74.9779,362.1
74.9912,142.7
74.9951,134.9
75.0283,134.7
75.0582,106.8
75.098,507.8
75.1029,202.1
75.1093,301.3
75.118,74.9
75.1247,98.4
75.1282,433.8
75.1397,141.3
75.1439,107.7
75.1493,321.1
75.1607,214.6
75.1634,223.9
75.1724,939.6
75.232,190.5
75.2549,479.6
75.2623,303
75.2668,23.9
75.2686,124.9
75.291,17.9
75.2941,133.7
75.2958,241.2
75.3117,318
75.3237,238.5
75.3411,96.7
75.3501,640
75.3555,137.8
75.3647,22.1
75.3702,21.6
75.3776,344.8
75.3793,22.7
75.3856,72.8
75.3937,176.7
75.4308,374.1
75.432,358.7
75.4353,118.8
75.4566,198.1
75.4724,103.9
75.4762,314.2
75.4876,242.9
75.5228,253.3
75.5339,488.4
75.5598,800.3
75.5653,174
75.567,333.7
75.584,190.8
75.5945,109.1
75.6099,425.5
75.6316,112.6
75.634,89.3
75.6859,160.8
75.6949,565.6
75.7069,219.8
75.7103,71.8
75.7344,393.9
75.7502,184.5
75.7664,118.7
75.8467,24.7
75.8608,225.6
75.8781,328.1
75.917,94.9
75.9219,76.1
75.9305,134.3
75.9347,333.9
75.9357,82.8
75.9379,335.1
75.9429,144.3
75.9737,212.3
76.0024,194.2
76.0181,757.4
76.0196,95.5
76.0309,326.7
76.0403,891
76.0792,647.8
76.1075,17.3
76.1202,102.9
76.1234,162.8
76.133,1102.6
76.1793,181.5
76.1876,19.6
76.1951,94.8
76.202,577.4
76.2059,201.5
76.207,358.8
76.2162,569
76.2178,79.1
76.22,211
76.2266,106.2
76.2779,189.1
76.299,90.4
76.3475,76.1
76.3572,17.9
76.3586,95.2
76.3721,610.5
76.3727,106.3
76.3811,181.8
76.3912,79.4
76.3986,963.5
76.4118,967
76.4125,172.4
76.4204,228
76.4364,283.1
76.4465,279.6
76.4475,93.9
76.4505,143.8
76.4683,372.8
76.4874,140
76.5053,728.3
76.5145,17.7
76.5218,258.4
76.532,98.7
76.5333,109.6
76.5567,17.9
76.5602,75.8
76.5696,134.9
76.5863,823.1
76.6054,82.9
76.6084,163.2
76.6446,1105.1
76.6898,94.6
76.6926,561.4
76.7026,533.8
76.7099,434
76.7242,1016.3
76.7419,286.7
76.7561,135.9
76.7879,161.2
76.8085,95.3
76.8137,230.4
76.8166,573.3
76.8255,94.7
76.8272,82.6
76.8336,346.1
76.858,1422
76.8902,630.1
76.9084,146.4
76.9193,74.6
76.9256,165.7
76.95,305.9
76.9511,610.3
76.973,686.3
76.9859,597.1
77.0074,354.8
77.0079,17.2
77.0108,660.1
77.0285,724.2
77.0326,19.6
77.035,559.5
77.0385,135612
77.054,204.6
77.0543,207.7
77.0562,112.4
77.0949,247.2
77.1367,205.7
77.1444,205.2
77.1686,103.8
77.1715,115.3
77.1751,19.8
77.2059,250.8
77.2302,354.5
77.239,186.8
77.2452,300
77.2818,124.2
77.292,285.7
77.3011,261
77.3089,206
77.3286,558.3
77.3315,115
77.3387,163.9
77.3561,237.2
77.3615,487.7
77.3661,546.8
77.3683,457.2
77.3762,132.4
77.3909,583.4
77.4016,293.4
77.4206,219.1
77.4597,137.1
77.4739,219.2
77.5397,143.1
77.5412,329.9
77.5599,274.6
77.6261,983.6
77.6317,878
77.649,158.5
77.6499,133.8
77.6572,116.2
77.6749,87.6
77.6971,123.4
77.7352,349.4
77.7491,430
77.75,99.3
77.7625,650.9
77.7869,79.2
77.8074,145.9
77.8101,102
77.8401,539.6
77.9202,101
77.9263,161.3
77.9496,24.4
77.952,128.5
77.9563,104.2
77.9701,112.1
77.9759,116.7
77.9809,222
78.0023,218.3
78.0063,334.3
78.0248,159.5
78.0284,118.5
78.0418,4927.9
78.0528,224.2
78.0576,120.3
78.0647,273.7
78.0705,109.8
78.0899,159.6
78.115,94.6
78.1439,245.6
78.1515,118.8
78.1589,336.8
78.1691,234.9
78.1791,95.2
78.1857,21.7
78.1881,180.5
78.2149,98.8
78.2163,155.2
78.2204,329
78.2357,74.4
78.2601,381.1
78.2628,16
78.2704,710
78.2843,342.8
78.2913,16.2
78.303,195.3
78.3153,119.4
78.3282,76.7
78.3322,324.7
78.3578,97.2
78.3786,20.9
78.4071,22
78.4377,745.3
78.4588,90.1
78.4813,16.8
78.4867,149
78.4932,79.2
78.4999,167.9
78.5058,190.7
78.5808,207.1
78.5954,313.4
78.6064,580.6
78.609,635.2
78.6323,1108.1
78.6423,569.2
78.6699,287.6
78.6823,100.7
78.6879,494.7
78.6973,207.5
78.7038,95.2
78.7077,643.4
78.7259,268.2
78.7282,494.8
78.7509,95.2
78.7576,20
78.8072,84
78.8312,170.5
78.864,77
78.8782,106.8
78.8851,876.4
78.9289,156.6
78.9603,993.6
78.9952,195.4
78.9969,161.8
79.0086,679
79.0163,363.3
79.0289,65.7
79.0332,431.6
79.0399,267.5
79.0502,231.6
79.0541,3051.9
79.0642,284
79.0673,567.7
79.0858,176.9
79.0915,148.7
79.1799,572.2
79.1902,140.6
79.1992,267.2
79.2044,91
79.211,1454.3
79.245,151.6
79.2522,176.7
79.2886,97.4
79.29,518.5
79.3062,100.5
79.3371,281.5
79.3459,105.2
79.3512,144.6
79.3601,89.9
79.3646,159.2
79.3802,18.1
79.3937,185.7
79.4002,22.4
79.41,72.8
79.4155,171.3
79.4463,173.1
79.4601,322.6
79.4692,610.2
79.4812,203.2
79.4836,187
79.4931,118.6
79.494,623.4
79.5103,301.5
79.5224,153.3
79.5262,492.7
79.5278,99.2
79.5925,21
79.5948,445.3
79.6037,404.2
79.6464,133.8
79.6959,1194
79.7115,90.6
79.7129,122.6
79.7147,297.9
79.7202,870.1
79.7507,17.8
79.7834,725.6
79.7848,160
79.799,179.4
79.8102,585.7
79.8214,835.8
79.8278,116.3
79.8283,373.4
79.829,117.6
79.8353,108.5
79.8367,633.9
79.8483,97.1
79.8554,921.5
79.8658,22.9
79.8665,162.5
79.8756,199
79.8846,443
79.8962,16.8
79.9036,121
79.9134,109.8
79.9377,519.7
79.948,786.4
79.9554,797.6
79.959,498.5
79.978,519.3
79.98,189.9
79.9884,118.8
80.0149,134.4
80.024,221.4
80.0243,195.7
80.0294,294.6
80.0349,424.8
80.0575,50
80.0667,83.1
80.0674,745.3
80.0725,202.7
80.0854,205
80.0955,236.1
80.1017,123.7
80.1471,109.2
80.1686,541.4
80.1807,216.3
80.1887,456.5
80.2327,210
80.2989,67.8
80.3132,946.3
80.3165,601.9
80.3289,99.9
80.3433,110.9
80.3466,154.4
80.3566,153.2
80.4042,111.1
80.4138,115.6
80.4587,25
80.5221,699
80.5258,544.3
80.5355,97.1
80.5552,145.4
80.5592,522.9
80.5615,800.2
80.5656,860.4
80.5899,103
80.5973,127.3
80.5999,99.3
80.601,176.6
80.6091,137.8
80.6285,135.6
80.6317,708.4
80.6989,86.1
80.7377,18.1
80.7479,138
80.7602,17.4
80.7662,559.5
80.7784,174.4
80.8134,743.1
80.8221,535.8
80.824,496.6
80.8313,82.8
80.834,110.5
80.8515,83.4
80.9478,52223.8
80.9598,209.6
81.0172,128.9
81.0555,135.5
81.0673,17.7
81.0698,1320.3
81.0757,131.4
81.0892,335.1
81.1136,376.3
81.128,93.3
81.1415,660.5
81.148,1532.5
81.1499,347.3
81.1509,910.9
81.1517,482.4
81.1525,550.3
81.1539,1185.8
81.155,249.8
81.1571,194
81.1606,162.8
81.1628,96
81.2248,120
81.2421,18.5
81.2846,154.8
81.2881,852.5
81.2903,17.3
81.3101,139
81.3371,189.5
81.3437,315.1
81.4039,21.1
81.4084,80.8
81.4169,89.4
81.4273,171.1
81.4723,20.1
81.4778,17.2
81.4805,349.7
81.5012,120.7
81.5095,82.1
81.5782,125.6
81.5925,68.2
81.6036,146.6
81.6485,79.7
81.6519,271.2
81.6633,434
81.6638,192.7
81.6734,229.7
81.7027,203.4
81.7295,196
81.7754,280.8
81.7833,123.2
81.7872,120.2
81.8125,83.6
81.8263,20.9
81.8451,252
81.8736,623.7
81.8965,108.3
81.9207,404.3
81.9269,167
81.9387,83.3
81.9581,100.9
81.9779,262.9
81.9885,317.6
81.9951,518.3
82.0082,863.3
82.0267,276.9
82.0367,117.3
82.0422,75.1
82.046,91.5
82.0498,672.7
82.0549,747.1
82.0572,208.6
82.075,684.2
82.1367,151.3
82.1451,108.4
82.1478,120.9
82.1525,183.3
82.177,631.3
82.2012,111.5
82.2182,576.3
82.2273,112.8
82.2351,921.6
82.2401,20.9
82.2701,225
82.2945,254
82.3098,254.2
82.314,155
82.3181,214.4
82.3618,720.8
82.3795,96.5
82.3808,97.1
82.3848,21.6
82.3943,527.8
82.4722,72
82.4844,88.7
82.5137,77.7
82.5172,225
82.5206,848.8
82.5252,654.1
82.566,118.6
82.6013,165.4
82.614,78.1
82.6164,481.3
82.6256,106.5
82.6316,451.2
82.6326,175.2
82.6677,244.6
82.6757,342.3
82.6836,176.6
82.6957,451.8
82.7092,99.7
82.7209,107.6
82.7415,291.8
82.7506,17.7
82.7586,104.8
82.7681,592.1
82.7928,133.1
82.8208,90.9
82.834,21.8
82.8471,154.2
82.8503,93.3
82.8598,602.3
82.8681,721.3
82.8689,212.4
82.8717,625.1
82.8732,689.8
82.8766,174
82.883,17.1
82.8856,103.7
82.9081,173.5
82.9103,547.3
82.9448,15807.1
82.9555,180.8
82.9696,661.7
82.9928,123.1
83.0204,87.6
83.0214,592.6
83.0436,101.5
83.0571,200.9
83.0592,124.4
83.0809,347.7
83.0843,181.7
83.0856,130.2
83.1192,79
83.1246,217.6
83.1291,76.3
83.1672,662.1
83.2087,77.7
83.2124,97.9
83.2353,321.5
83.2395,140.3
83.2576,17.7
83.2651,325.1
83.2701,147.6
83.2709,526.8
83.2717,18.5
83.2735,277.9
83.2764,555.8
83.2809,228.4
83.2861,112.3
83.295,21
83.2962,16.4
83.2994,259.8
83.3014,141
83.3181,135.9
83.3207,845.1
83.3337,162.6
83.3497,119.3
83.3557,144.5
83.3633,109.7
83.3703,21.1
83.3892,342.9
83.4062,583.7
83.4151,166
83.4512,597.6
83.459,177.3
83.4739,160.4
83.4889,17.4
83.4937,271.4
83.5262,168.3
83.5576,238.4
83.5757,73.5
83.6057,22.6
83.6156,176.5
83.6291,157.8
83.6828,165.5
83.6841,217
83.6896,519.5
83.7024,20.7
83.7162,240.5
83.75,156.3
83.7729,17.1
83.7757,365.4
83.7971,129.7
83.8038,274.5
83.8197,171.3
83.8411,74.9
83.8903,370.2
83.8918,578.9
83.8969,120.9
83.9201,22.6
83.9236,17.8
83.947,238.5
83.9526,112.2
83.9747,80.5
83.9966,96.6
84.0123,165
84.0246,17.6
84.0408,114.2
84.0442,346.6
84.0488,583.8
84.0691,17.5
84.0807,89
84.0987,253.8
84.1107,141.2
84.1413,102.3
84.1477,66.4
84.1635,94.8
84.1763,72.5
84.1872,152.1
84.1912,101.2
84.1956,295.7
84.1985,106.8
84.2013,82
84.2112,103.3
84.2126,673.6
84.2361,149.1
84.2517,80
84.2896,148.3
84.3015,313.2
84.3219,77.9
84.3887,450.4
84.4492,920.2
84.4637,206
84.4868,116.4
84.4993,320.2
84.5013,332.2
84.5475,155.5
84.5487,82.2
84.5659,327.4
84.6154,84.8
84.6279,596.5
84.6396,278.5
84.6623,182.2
84.6706,301.4
84.7098,98.9
84.713,836.5
84.7195,406.4
84.7282,790.4
84.7499,974.7
84.7625,748.9
84.7789,101.5
84.7853,932.8
84.7995,254.7
84.8053,303.8
84.8159,17.2
84.8241,104.6
84.8295,291.7
84.8305,588.5
84.8363,256.6
84.8457,243.4
84.8558,403.8
84.9176,360.5
84.9278,196.3
84.9436,942.9
84.9535,204.7
84.9575,116.9
84.9596,26510.3
84.9865,210.4
84.9871,110.6
85.0164,150.9
85.0196,187
85.0283,3738.1
85.0452,148.5
85.0497,18.9
85.0553,119.2
85.0663,134.8
85.0745,219.3
85.0781,208.1
85.0923,132.5
85.1109,79.3
85.1146,656.9
85.1159,77.2
85.1753,111.7
85.1917,359.1
85.2476,439.2
85.2525,380.5
85.2569,168.9
85.2631,810.1
85.2684,154.6
85.2786,713.1
85.2806,963.8
85.2864,141.4
85.2917,16.3
85.2953,241.7
85.3147,399.2
85.3186,112.3
85.3446,94.9
85.3514,298.8
85.3632,218.1
85.3657,119
85.4186,569.4
85.4243,403
85.4384,672.6
85.5075,339.3
85.515,698.1
85.5419,375.7
85.5455,89.2
85.5465,156
85.5542,87.2
85.5758,148.2
85.5824,403
85.5858,166
85.6042,119.5
85.6431,154.3
85.6523,18.7
85.6639,142.5
85.6734,348
85.6773,583.7
85.6921,20.6
85.6991,85.8
85.7204,161.8
85.7378,172.5
85.7552,282.3
85.8272,244.8
85.8304,19
85.8423,305.3
85.8528,85.7
85.864,198.2
85.8695,77.3
85.8751,411.7
85.9247,564.6
85.9317,286.8
85.9461,532.5
85.9538,326.6
85.9563,16
85.987,244.4
86.0123,19.3
86.0154,158.4
86.0236,82.8
86.0293,1103.6
86.0411,178.6
86.06,42424.1
86.0697,653.1
86.0964,141699.8
86.099,853.2
86.1038,83.3
86.1665,19.1
86.183,199.5
86.1844,1000.2
86.1856,269
86.2048,271
86.2174,77.6
86.2623,74.4
86.2762,127.4
86.3014,627.8
86.3165,200.6
86.32,108.2
86.323,291
86.3346,69.2
86.3614,178
86.364,98.5
86.3889,91.3
86.4037,602.8
86.4103,1080.3
86.4285,297.7
86.4418,72.6
86.4446,137.3
86.4568,299.3
86.4646,129.9
86.4983,289
86.5052,336.6
86.514,356.6
86.5657,154.8
86.5684,494.8
86.5961,20.4
86.607,309.3
86.6645,316.6
86.6818,993.5
86.6867,507.2
86.7103,19.3
86.7142,195.9
86.8041,76.2
86.8182,236.1
86.8216,940.4
86.8352,429.3
86.8521,183.2
86.8652,1057.9
86.8884,86.1
86.9118,162.1
86.9141,80.4
86.9149,178.7
86.9701,16.4
87.0371,104.9
87.0443,414.6
87.0547,810.1
87.0888,121.3
87.0958,208.5
87.0998,2332.6
87.1471,209.6
87.1673,989.7
87.1827,107.7
87.1908,84.4
87.1981,93.9
87.2002,918.2
87.2011,242.6
87.2045,128
87.2139,181.8
87.2247,95
87.2262,82.9
87.2436,291.3
87.2563,193
87.2653,268.7
87.295,19.2
87.319,89.4
87.3282,164.8
87.3491,301.8
87.365,89.1
87.4292,156.3
87.4541,785.2
87.4553,283.3
87.4757,110.9
87.5185,274.8
87.5537,814.1
87.5885,302.5
87.6305,624
87.6477,146.2
87.6519,84.1
87.6737,303.7
87.7055,917.2
87.7223,237.1
87.7505,384.1
87.7596,117.1
87.7745,110.7
87.7862,339.2
87.7866,329.2
87.8122,19
87.8238,364
87.8296,19.4
87.8345,340.4
87.8447,91.8
87.8994,184.4
87.9242,347.3
87.9636,87.9
87.9933,123.1
88.0021,21.4
88.0134,80.4
88.0393,10198.8
88.0812,576.7
88.0947,172.8
88.1181,727.6
88.1268,240.3
88.135,614
88.1409,91.2
88.1859,130.3
88.1916,88.9
88.2078,106.8
88.262,25.5
88.275,367
88.2931,539.6
88.2956,641.1
88.3003,297.8
88.3495,719.3
88.3579,303.7
88.3715,1064.4
88.3759,236.4
88.3923,590.3
88.4031,156.1
88.4077,403.7
88.4251,100.5
88.4403,254.2
88.4421,65.2
88.448,172
88.4668,18.5
88.5145,86.7
88.5173,309.7
88.5199,98.8
88.5217,361.8
88.543,87.8
88.5482,79.6
88.5519,70.1
88.5569,74.5
88.5855,432.6
88.5992,651.5
88.6084,148.4
88.6291,75.2
88.6521,136.9
88.6784,154
88.7163,801.2
88.7462,319.9
88.7569,366.1
88.8005,431.8
88.8069,17.4
88.8164,307.5
88.8307,312.8
88.8462,349.9
88.859,99.3
88.8684,544
88.8805,268.9
88.9208,651
88.9549,434.2
88.9564,169.3
88.9852,200.9
89.0016,74.6
89.0025,92.6
89.0205,110.6
89.0585,16.4
89.062,294.4
89.0945,238
89.1163,113.3
89.1502,360.1
89.1608,81.2
89.1968,388.5
89.2129,164.9
89.2593,73.7
89.2617,81.9
89.2714,110.3
89.2885,675.6
89.3061,20.6
89.319,85.1
89.3214,172
89.3254,112.6
89.3653,340.3
89.3904,17.4
89.4029,1319.6
89.4154,92.4
89.4758,103.7
89.4933,389.1
89.5259,92.3
89.5578,99
89.5649,626.8
89.5828,94.5
89.5896,141.8
89.63,167.4
89.651,991.6
89.6656,139.1
89.6675,95.8
89.684,195.9
89.6884,552.9
89.6886,613.7
89.6891,252.1
89.7687,149.2
89.7708,24
89.7736,241.6
89.7978,320.4
89.8262,699.3
89.8387,546.1
89.8524,94.6
89.86,389.2
89.8675,82.8
89.8966,149.1
89.9017,18
89.9106,125.5
89.9735,111.7
89.9757,123.2
90.1109,93
90.1257,89.8
90.1423,102.4
90.1569,623.8
90.1842,765.6
90.2174,23
90.2363,291.6
90.2498,113.1
90.2655,510.8
90.2707,216.6
90.28,88.2
90.2888,163.8
90.3001,129.1
90.3812,186.9
90.4009,256.9
90.4541,342.1
90.4611,102.4
90.4832,833.7
90.4911,551.5
90.5023,264.5
90.5063,477.3
90.5209,174.4
90.5387,139.3
90.5772,150.8
90.6205,897.6
90.645,697.1
90.6916,195.6
90.6962,107.1
90.6967,324.3
90.7053,16.5
90.7413,221.8
90.7462,134.9
90.7498,855.4
90.7863,105.5
90.7958,115.9
90.8001,18.5
90.8109,318.2
90.8177,76.5
90.9405,1078.8
90.9478,22.1
90.9767,8292.6
90.9967,82.1
91.0262,415.4
91.0315,217.9
91.0456,16.5
91.0542,1686.3
91.0995,316.3
91.1046,258.4
91.1063,718
91.1092,747.5
91.1516,118.1
91.159,388.8
91.179,21.7
91.1888,809.9
91.1957,73.4
91.1969,252.8
91.2378,298.5
91.2501,188.5
91.2538,19
91.2592,589.9
91.271,24.3
91.2725,83
91.3204,123.5
91.3574,199.6
91.4028,115.1
91.4116,531.4
91.4368,19.2
91.438,66.2
91.4472,324.2
91.4642,161.8
91.4662,712.3
91.488,593.6
91.5072,286.1
91.5373,132.5
91.5561,375.7
91.5831,321.5
91.6015,370.1
91.6295,181.8
91.6496,395.4
91.6726,19.4
91.6774,519.4
91.6892,70.6
91.7074,551.8
91.7188,308
91.7542,622.9
91.7771,999.7
91.8186,281.3
91.8253,92.8
91.8434,70.2
91.8989,424.7
91.9083,225.3
91.937,405.3
91.9414,101.1
91.9481,341.1
91.959,125.4
91.9678,133
91.9759,491.1
91.9938,75.7
92.0337,18
92.0445,192.9
92.052,103.4
92.0806,101.8
92.0822,242.3
92.102,224.7
92.1204,127.8
92.1347,88.5
92.1475,158.2
92.2138,20.7
92.2146,97.4
92.2304,90.6
92.2321,29.7
92.2942,17.4
92.306,90.3
92.3148,142.1
92.3263,104.7
92.3483,360.8
92.3659,194.1
92.3731,17.9
92.3853,20.3
92.3862,239.3
92.3916,678.1
92.3981,16.2
92.3988,99.3
92.4116,110.1
92.4264,130.7
92.4802,263.9
92.5015,142.7
92.5201,324.6
92.5462,16.9
92.5694,204.1
92.5743,25.6
92.5859,118.8
92.603,78.1
92.6464,106
92.6554,93.6
92.6599,78
92.6767,710
92.6975,829.3
92.7181,128.4
92.7416,526.4
92.7471,221.4
92.7506,18.4
92.7528,353.7
92.7589,106.8
92.7717,94.9
92.7859,266.9
92.7965,172.9
92.8305,1052.1
92.86,125.3
92.8789,574.3
92.8967,928.2
92.9343,21.6
92.967,19.7
92.9683,84.9
93.0127,627.8
93.0161,330.9
93.0256,97.3
93.0543,369.3
93.0571,688.1
93.0699,21.5
93.0863,337.5
93.0914,213.9
93.0968,915.2
93.1068,279.3
93.1199,215.9
93.1346,272.1
93.1538,204.2
93.1608,364.3
93.1703,166.4
93.1876,340.2
93.1919,112.9
93.2101,955.6
93.2242,168.5
93.2395,88
93.2789,155.5
93.29,75
93.3137,360.2
93.3247,523.1
93.3421,103.7
93.3545,153.3
93.3606,65.6
93.3918,18.1
93.4301,108.4
93.4557,657.6
93.5218,78.4
93.5491,20.5
93.5728,213.5
93.5813,96
93.5864,123.4
93.6221,276
93.6422,137.8
93.6515,22.8
93.6576,1179.7
93.6607,19.6
93.6672,275.3
93.6946,590.2
93.698,105.7
93.746,180.2
93.7823,81.2
93.7879,89
93.7943,658.9
93.7968,466.8
93.7999,101.6
93.8154,802.9
93.8233,242.9
93.8432,472
93.8758,119.4
93.9007,245.9
93.9133,19.3
93.9268,116.7
93.9399,311.6
93.9667,76.8
93.9802,112.7
94.0035,177.6
94.0396,40.6
94.0413,78057.7
94.0503,130.7
94.0677,260
94.0745,821.4
94.0879,92.3
94.095,130.9
94.1072,404.9
94.1148,158.2
94.1295,145.2
94.1303,22.3
94.17,97.5
94.1948,177.6
94.2018,310.2
94.2142,505.6
94.223,227.3
94.2596,165.5
94.2769,175.1
94.2853,268.5
94.2969,82.6
94.3024,132.1
94.3311,106.5
94.3327,113.7
94.3482,881.9
94.3604,655.1
94.3796,335.1
94.3909,271
94.438,318
94.4484,353.8
94.4591,973.1
94.4854,469.2
94.5095,86.6
94.5152,18.7
94.5282,699
94.5407,258.4
94.604,81.9
94.6046,1125.4
94.6171,228.6
94.6221,426.2
94.6541,18.2
94.701,21.9
94.7354,99.7
94.7535,336.7
94.7635,20.3
94.7875,74.5
94.8092,181.8
94.8363,68.5
94.838,255.6
94.8542,621.3
94.8679,499.8
94.8811,133.6
94.8935,599.3
94.9347,116.5
94.9571,242.2
94.9713,611.1
94.9749,230.5
94.9819,553
94.9936,586.3
95.0066,85.5
95.0088,202.5
95.0143,78.5
95.0149,394.4
95.0358,73.6
95.0447,1825.7
95.0471,106.9
95.0492,483634.8
95.0526,37.2
95.0561,290.5
95.0626,114.6
95.0856,664.7
95.0951,19.1
95.1001,364.4
95.1299,154.7
95.133,214.4
95.1639,222.6
95.1968,117.9
95.2222,17.2
95.2253,281.7
95.2285,316.7
95.2394,132.6
95.2671,103.3
95.2931,86.9
95.3138,127.5
95.3414,724.7
95.3714,853
95.3924,105.1
95.4205,96.1
95.4229,335.5
95.4714,22.5
95.4931,596.3
95.5046,72.8
95.5395,168.3
95.582,814
95.5868,896
95.5908,376.3
95.6644,239.6
95.7224,668.6
95.7537,257.2
95.7637,888.9
95.7847,251.5
95.7929,94.9
95.807,311.3
95.8157,102.9
95.8486,648
95.8582,349.3
95.885,85.9
95.9211,345.6
95.9247,196.9
95.9523,283.1
95.9673,149.4
95.9753,24.5
96.0107,474.8
96.0525,24328.6
96.0998,642.9
96.2207,170.7
96.2254,71.7
96.2575,169.9
96.2675,233.5
96.2778,174.4
96.3008,85.5
96.3269,858
96.3421,202.7
96.3728,24.8
96.3882,558.4
96.4022,557.7
96.4213,108.2
96.4319,79.8
96.435,953.6
96.4974,381.6
96.5042,80.1
96.597,538.4
96.6375,88.3
96.6718,261.8
96.6745,307.5
96.6791,86.2
96.6869,663.1
96.7062,216.1
96.7095,258.3
96.7183,269.1
96.7219,88.1
96.7431,84.1
96.7623,68.9
96.7689,105.8
96.7829,440.5
96.7948,100.2
96.8254,625.1
96.8572,727.4
96.8606,380.2
96.8852,868.8
96.8884,265.6
96.9064,960.5
96.9069,970.6
96.9218,122890.9
96.9433,97
96.9573,85.8
96.967,352.2
96.9881,485.4
97.0076,140.2
97.0106,22.9
97.0534,47.4
97.0558,51.4
97.0647,24.1
97.0758,82.4
97.0793,656.4
97.1013,195.4
97.1451,232.7
97.1639,17.7
97.1882,558.7
97.1985,85.5
97.2002,226.5
97.2048,85.4
97.2201,680.1
97.3437,868.9
97.3643,577.2
97.3701,420.6
97.3884,112.3
97.4082,22.7
97.4115,19.2
97.423,420.2
97.4313,957.8
97.4765,145
97.4791,78.2
97.5344,20
97.6008,891
97.6141,620.6
97.6434,183.4
97.659,201.6
97.6769,348.6
97.6897,87.5
97.7002,866
97.7303,171.1
97.7748,109.7
97.7758,717.2
97.7778,571
97.7866,216.1
97.8097,502.5
97.8768,228.9
97.8931,19.1
97.894,119.5
97.9233,85
97.9652,75.2
97.9903,413.6
97.9912,637.6
98.0099,138.7
98.0263,145.6
98.0334,674.9
98.1188,119.7
98.1726,367.4
98.1865,175
98.2427,644.3
98.2991,540.2
98.3039,115.3
98.3239,100.9
98.3362,477
98.3406,410.2
98.348,708.3
98.3632,17.8
98.3794,74.7
98.4041,969.1
98.4053,174.9
98.4407,517.6
98.4423,123.3
98.46,20.1
98.4637,69
98.4686,550.4
98.4981,163.8
98.5313,206.7
98.5328,68.5
98.5642,162.3
98.6055,21.7
98.6124,335.5
98.6144,298.2
98.6193,97.4
98.6343,233.1
98.638,281
98.6428,967.9
98.6455,89.4
98.651,408.1
98.6514,491.4
98.7067,72.9
98.8469,816.9
98.849,605.8
98.8999,939.9
98.9112,916.6
98.9189,39774.6
98.9199,5283.1
98.9222,139.6
98.9279,344.4
98.9516,1017.7
98.9694,290.7
98.9753,24062
98.9841,21.3
99.0339,145
99.0918,112.3
99.0936,267.3
99.1194,338.6
99.1413,895.5
99.1526,103.2
99.2123,452.6
99.2284,256.6
99.3183,913.7
99.3215,282.3
99.3291,114.7
99.3353,196
99.3671,96.2
99.3761,104.2
99.3813,342.3
99.3931,220.2
99.408,469.8
99.4124,370.1
99.4593,104.8
99.5221,335.6
99.555,310
99.5559,97.3
99.572,259.1
99.601,301.9
99.605,119.1
99.6495,289.9
99.656,302
99.7101,348.6
99.7359,210.6
99.7545,613.9
99.7575,340.7
99.7698,106.7
99.7995,207.8
99.8152,21.4
99.8267,381.6
99.8452,22.3
99.8474,545.1
99.8965,304.3
99.978,696.2
100.025,72.3
100.0269,360.3
100.0595,211.1
100.0757,42.1
100.0852,97.4
100.1197,97.7
100.1357,76.4
100.1416,343
100.1477,101.4
100.1488,260.5
100.1684,78.3
100.2071,185.6
100.2196,119.7
100.2315,101.4
100.2681,153.8
100.2794,701
100.3248,194
100.3291,577
100.334,643.1
100.3873,129.4
100.42,237.9
100.4545,18.7
100.4692,924.7
100.5377,158
100.599,152.5
100.6138,29.6
100.7024,209.1
100.7035,187
100.7166,197.2
100.8017,116.7
100.821,255.8
100.8277,625
100.8518,210.6
100.8837,29.6
100.8973,725.3
100.9026,106.7
100.9169,391.6
100.9712,352
101.008,276.9
101.0472,2591.2
101.071,1282.7
101.08,637.6
101.1373,887.5
101.1502,747.1
101.1888,231.3
101.1971,106.5
101.1984,198.6
101.202,180.5
101.2346,367.2
101.2374,101.5
101.3148,270.6
101.3173,18.8
101.3275,220.3
101.3408,25.2
101.3818,1083.3
101.3869,103.3
101.4855,19.5
101.5113,204.5
101.5786,516.9
101.6047,96
101.6201,17.4
101.6255,541
101.6287,302.6
101.6384,634
101.6455,628.6
101.6471,347
101.6847,179.2
101.7389,576.4
101.7403,367.9
101.7522,69.8
101.7562,112.1
101.7802,650.7
101.8038,524.4
101.8664,75.9
101.8713,171.4
101.8769,799.6
101.9103,91.8
101.92,280
101.9375,364.5
101.9451,347.7
101.9573,212.9
101.96,324
102.005,399.8
102.0089,387
102.055,4708.7
102.0637,309.6
102.0756,117.6
102.1252,567.8
102.1282,601
102.1411,505.1
102.1545,102
102.1606,106.5
102.1746,399.2
102.2503,134.2
102.271,725.9
102.2778,127.1
102.2931,100
102.3392,24.4
102.3447,702
102.3682,73.2
102.4223,23.5
102.4301,182.8
102.4375,548.2
102.4673,149.8
102.4777,220.4
102.495,127.5
102.5244,75.3
102.5742,307.3
102.6278,156.7
102.6551,80.4
102.6566,120.2
102.6654,155.1
102.6745,164.6
102.6755,95.8
102.7032,252.8
102.7448,299.6
102.7506,398.6
102.7533,195.2
102.7597,406.3
102.7777,91.2
102.8137,97.7
102.8362,626.2
102.8381,82.6
102.8431,258.4
102.8444,570.1
102.8683,122.9
102.8896,16.5
102.8924,115
102.9219,767.5
102.9331,131.9
102.9629,17.2
102.9703,550
102.9729,339.2
103.0207,109.1
103.0369,93.8
103.0432,66.7
103.0543,230.6
103.0582,111.8
103.0954,279.6
103.1373,16.6
103.1484,104.5
103.1505,97.8
103.1684,77.6
103.1767,167.7
103.2135,199.2
103.2431,297
103.2774,104.1
103.324,1018.6
103.3405,21.3
103.348,116.6
103.3497,541.8
103.3828,122.1
103.4209,208.8
103.4593,100.9
103.4867,278.6
103.5036,293.7
103.5159,926.3
103.5317,127.8
103.5461,167.8
103.5476,136.6
103.5636,384.3
103.5684,281.7
103.6113,85.2
103.6139,243.4
103.6444,324.4
103.6749,120.2
103.6886,659.2
103.7035,272.1
103.7045,367.9
103.7661,99.9
103.7795,105.3
103.7811,530.2
103.8288,1003.2
103.8315,291.5
103.8462,918.1
103.8776,16.8
103.9194,221
103.921,200.8
103.9247,324.9
103.9489,90.8
103.958,945.5
103.9846,122.3
103.991,156.4
104.0702,164.9
104.076,18.5
104.1035,73.2
104.1071,557225.6
104.1332,18.8
104.1471,73.2
104.1536,138
104.167,534.5
104.1989,97.8
104.2113,801.4
104.219,244.9
104.2416,106.8
104.2547,129.2
104.2684,634.1
104.3426,302.6
104.4505,95.5
104.4554,299.8
104.4645,16.8
104.4791,1060.7
104.4961,339.3
104.507,376.9
104.5164,18.8
104.5192,103.5
104.5328,76
104.5639,107.7
104.6083,644.4
104.6324,18.4
104.6432,102.2
104.6804,752
104.8388,81.6
104.8967,21.5
104.9079,21.1
104.9135,728.9
104.9487,80.6
104.9634,116.8
104.9812,138.7
104.9924,6721.2
105.0035,53.2
105.0118,74.4
105.029,107
105.0349,386.8
105.0448,45170
105.0607,64.9
105.063,948.5
105.0666,272.3
105.09,102.9
105.1104,17924.4
105.1216,406.2
105.1307,315.4
105.136,364.8
105.1541,75.6
105.1719,352.7
105.2075,1114.9
105.2085,232.6
105.2128,21.4
105.2704,114.2
105.2722,20.4
105.3266,627.9
105.3331,216.3
105.3361,833.8
105.3732,616.8
105.3857,85.6
105.4245,361.4
105.4555,157.3
105.4581,340.6
105.4727,150
105.4895,601.1
105.492,174.7
105.4943,726.1
105.5353,759.9
105.5408,865.8
105.5568,849.4
105.617,175
105.6205,219.6
105.6387,70.4
105.6629,73
105.6677,86
105.7231,212.5
105.7465,306.1
105.7538,89.5
105.7668,113.5
105.79,173.2
105.8009,413.6
105.8105,113.5
105.8307,201
105.8322,952.1
105.8535,505.3
105.8581,201.6
105.8614,487.2
105.8708,75.6
105.8831,642.2
106.0056,297.8
106.0403,85
106.0417,259.4
106.0481,759.1
106.0621,147
106.0793,325.6
106.0892,174.8
106.1051,114.6
106.1123,569.9
106.1248,217.6
106.1305,124.8
106.1587,376.4
106.218,471.2
106.2412,80.6
106.2479,498
106.2724,96.6
106.2743,133.9
106.2933,74.4
106.3159,142.5
106.3175,108.4
106.3594,112
106.3616,183.7
106.368,921.4
106.371,70.2
106.4383,21.3
106.4404,333.7
106.4485,17.2
106.4665,103.9
106.4814,163.7
106.4831,513.5
106.4877,582.7
106.4911,170.4
106.5308,293
106.5462,248.2
106.5659,198.9
106.5788,103.6
106.6146,623.9
106.6415,390.9
106.6756,797.2
106.6971,215.1
106.703,110.1
106.729,205
106.7384,187.1
106.7422,966.3
106.78,87.7
106.8093,545.7
106.8311,729.6
106.8711,96.9
106.927,721.1
106.9507,1995.8
106.992,115.1
107.0023,243.8
107.0284,103.1
107.0345,198.4
107.0492,485.4
107.0593,859.5
107.0869,305.7
107.1041,433.5
107.1147,320.5
107.1361,1046.3
107.1404,154.2
107.1426,512
107.1661,350.5
107.1776,548.2
107.2065,99
107.2352,296.9
107.243,208.4
107.2778,66
107.3,548.6
107.3177,219.7
107.4598,268.5
107.4894,17
107.5094,108.4
107.5133,372.1
107.526,255.9
107.5336,175.6
107.5649,391.3
107.61,130.1
107.6481,74
107.6609,96.9
107.6757,19
107.6828,151.2
107.7219,146.9
107.754,94.3
107.7551,18.2
107.7582,84.4
107.7615,106.4
107.7911,118.8
107.9078,256.5
107.946,964.5
107.9854,17.9
107.987,367.2
107.9899,291.7
107.9939,19.2
107.9993,90.4
108.0274,390.3
108.0344,471.9
108.0507,648.1
108.0648,127.6
108.0892,534.2
108.1001,660.5
108.1685,89.5
108.2128,158.2
108.2327,191.2
108.2355,299.3
108.2482,77.2
108.251,208.7
108.2597,831.1
108.2906,106.1
108.2956,16.7
108.3343,252.6
108.392,369.9
108.4612,95
108.506,109.4
108.5271,120.6
108.6221,871.4
108.6233,73.7
108.6256,575.3
108.6303,332.1
108.6337,664.9
108.6428,88.4
108.6701,508
108.7365,180.9
108.7438,589.4
108.8701,251.5
108.9591,122.9
109.0649,80458.1
109.101,820.8
109.1149,157.1
109.1663,676.3
109.1708,22.1
109.2083,114.9
109.2377,234.7
109.2478,641
109.2491,17.2
109.2552,184.1
109.2957,194.3
109.3317,124.2
109.3403,18.5
109.4238,283.8
109.4394,463.5
109.4511,217.3
109.4964,139
109.512,172.1
109.5182,151.7
109.5651,75
109.5753,783.7
109.6044,519
109.6328,73.1
109.6335,423.1
109.6978,595.8
109.7152,17
109.7197,78.1
109.7393,595.2
109.8948,217.1
110.0041,118.3
110.0227,154.2
110.0345,81.4
110.0682,2974.1
110.0714,240.3
110.0756,17.7
110.0801,137.2
110.1473,287.6
110.2032,112.5
110.2221,200.5
110.2245,409.2
110.2315,491.8
110.2475,127.6
110.2564,936.5
110.2871,560.8
110.3002,16.6
110.3987,659.7
110.4263,913.2
110.4442,22.3
110.4663,85.2
110.497,19
110.5251,158
110.5278,108.2
110.5502,552.7
110.5624,111.9
110.5752,461.8
110.5858,18.8
110.598,20.5
110.6085,25.2
110.6623,695.7
110.7252,641.9
110.7263,557.3
110.7343,110.4
110.7778,149
110.8023,88.9
110.8037,18.5
110.8072,100.1
110.8258,107.9
110.8294,722.8
110.8872,109.4
110.9311,16.7
110.9337,624.3
110.9495,350.1
110.9637,134.9
110.9677,140
110.9765,781.9
111.0233,288
111.0442,317.4
111.0549,101.7
111.0581,128.6
111.0967,127.2
111.1139,20.2
111.1301,677.7
111.1806,23.8
111.2137,91.7
111.2625,265
111.2891,221.1
111.4142,283.2
111.4206,684.1
111.4752,23.3
111.5259,21.6
111.601,78.7
111.6241,322.1
111.6466,19.4
111.6853,18.8
111.693,163.2
111.749,73.9
111.7866,171.4
111.7881,121.3
111.857,15.8
111.8735,929
111.9238,646.2
111.9642,115.1
112.0401,616.4
112.0512,77.6
112.0588,255
112.0752,183.2
112.0787,96.6
112.1303,108
112.1314,310
112.1698,285.7
112.2377,23.2
112.2599,513.8
112.2795,286.6
112.3013,17.2
112.3108,335.2
112.3155,643.1
112.3357,22.6
112.4113,17.2
112.4139,639.9
112.4205,154.2
112.4667,72.2
112.4878,176.5
112.5013,136.8
112.5286,566.6
112.5414,716.4
112.6089,20.5
112.6202,214.6
112.6354,103.7
112.6466,68.5
112.6563,103
112.6594,120.9
112.7092,273.2
112.7509,20.8
112.8167,619.5
112.8283,238.5
112.8407,157
112.8502,99
112.8931,185.2
112.8959,282986.7
112.9289,135.7
112.9402,113.6
112.9508,371.9
112.9563,985.4
112.9619,429.2
112.9876,116.8
113.0252,665.8
113.056,616.1
113.0683,288.8
113.0756,364.1
113.0769,567.3
113.0824,389.4
113.0896,17.7
113.1755,312.3
113.1767,146.3
113.2051,83.5
113.2609,877.1
113.2991,728.5
113.3191,602.8
113.3217,870.3
113.3761,85.7
113.4029,301.5
113.4057,22.3
113.4117,164.8
113.467,109.7
113.4691,125.7
113.4785,312.1
113.4946,172.4
113.5062,110.9
113.5601,810.7
113.5635,874.8
113.5654,641.8
113.5722,305.7
113.5777,186.9
113.5842,189.3
113.6089,81.7
113.6199,84.8
113.6518,675.3
113.6672,726.2
113.694,109.5
113.7058,112.1
113.7101,651.3
113.7174,648.1
113.7727,306.4
113.7786,514.7
113.7906,77.8
113.9608,20.8
113.9857,569.8
113.9911,474.9
114.0045,219.4
114.0075,421.3
114.0203,18
114.0241,93
114.0359,295.9
114.0433,498.2
114.0551,62128.6
114.0663,104.7
114.0734,121.1
114.0849,524.1
114.0915,36.5
114.1038,531.1
114.1479,602.4
114.169,366.8
114.1883,313.6
114.2314,17.2
114.2581,388.5
114.2677,343.4
114.3571,100.6
114.3908,154.8
114.4056,127
114.4107,835.8
114.4323,110.2
114.4602,106.7
114.4647,138.2
114.4794,240.4
114.4859,505.4
114.5133,153.3
114.5282,77.9
114.5345,198.2
114.5407,611.6
114.5705,422.1
114.5738,344.8
114.5911,131.7
114.6064,92.1
114.6173,202.3
114.6592,18
114.6725,564.2
114.6776,956.7
114.6947,1338.6
114.7456,647.7
114.7471,111.8
114.7822,959.1
114.8367,228.2
114.8456,273.1
114.8929,88098.6
114.8993,281.7
114.9567,321.8
114.9762,402.1
115.0323,107.4
115.0584,691.1
115.0636,120.5
115.1144,756.5
115.1182,100.5
115.1453,21.1
115.1487,360.1
115.1554,277
115.1899,19.4
115.324,205.9
115.3963,647.5
115.4373,216.7
115.4649,196.5
115.4811,136.3
115.4835,256.1
115.4874,29.1
115.5275,271.5
115.5395,217.6
115.5868,147
115.6174,167.9
115.6187,18.3
115.7015,786.8
115.725,79.7
115.7304,210.6
115.741,161.7
115.7889,76.6
115.7906,627.8
115.7986,146.5
115.8154,203.7
115.8564,332.8
115.9165,75
115.9215,99.3
116.0227,67.3
116.026,786.1
116.0286,330.2
116.0338,316.1
116.0673,126.1
116.0707,1599.1
116.0857,647.9
116.1346,897.1
116.1929,21.1
116.1935,20.6
116.2422,101.1
116.2698,595.9
116.2908,124.5
116.3258,146.5
116.3329,123.2
116.3468,427.7
116.3868,18.2
116.4116,660.3
116.4128,252.3
116.4386,138.4
116.4698,156.7
116.4915,17.3
116.5009,277.3
116.5287,987.6
116.5438,300.6
116.5594,596.6
116.5702,76.1
116.5802,316.5
116.6227,76.1
116.6372,174.1
116.6406,337.2
116.6499,176.4
116.726,356.8
116.7532,732.3
116.7733,541.3
116.8037,18.5
116.8347,588.4
116.8911,8795.5
116.907,129.6
116.986,4931.2
116.9967,498.3
117.0136,560.2
117.0698,427.1
117.083,148.4
117.109,672.8
117.1168,130.5
117.1232,182
117.1253,261.7
117.1398,188.3
117.1446,339.8
117.1762,130.8
117.2044,135.4
117.2129,677.1
117.2483,656.5
117.2509,633.7
117.2742,524
117.2891,110
117.2937,238.4
117.3526,170.2
117.3575,446.7
117.3605,16.3
117.3783,505
117.409,351
117.4119,103.5
117.4678,354.6
117.5399,176.7
117.6658,120.1
117.6839,20.3
117.7015,452.8
117.8127,287
117.8255,333.7
117.829,28.3
117.8627,442.3
117.8987,980.4
117.9785,261.4
117.9798,885.4
117.9878,104.4
118.0381,138.8
118.0444,66.4
118.0475,616.7
118.0566,486.1
118.0664,139.6
118.0844,339.2
118.121,18.3
118.1224,265.5
118.123,348.2
118.1234,326.2
118.1269,555
118.1743,337.1
118.2162,76.6
118.2304,298.4
118.235,269.3
118.2452,528.9
118.2587,591.9
118.266,693.8
118.2782,18.5
118.3669,478.5
118.3819,299.6
118.383,149
118.3923,88.4
118.5385,464.2
118.5995,108.1
118.6153,74.8
118.6538,109.6
118.6596,265
118.6778,364.4
118.6858,91.6
118.7139,116.5
118.7689,133.6
118.7816,689.3
118.7869,278.8
118.7991,101.5
118.8215,311.4
118.84,214.3
118.8445,217.6
118.8523,78.5
118.951,775.8
119.0161,145
119.071,22.6
119.1199,90.7
119.1525,502.1
119.1773,102.4
119.1874,113.8
119.221,275.7
119.2392,309.4
119.2442,305.8
119.2496,93
119.2801,105.8
119.3367,519.7
119.3479,658.1
119.3601,19.5
119.4168,23.7
119.42,277.5
119.4479,85.1
119.4675,272.7
119.5161,17.8
119.5188,605.2
119.5354,75.9
119.5502,407.6
119.5884,307.3
119.6715,80.7
119.6872,518.3
119.7122,580.6
119.7843,78.9
119.7866,142.8
119.8424,144.3
119.8574,1063.2
119.9213,97.8
119.9545,165.4
120.0034,8610.3
120.0055,103.6
120.0739,159.1
120.0809,11898.1
120.1226,79.1
120.1279,132.5
120.1363,72.9
120.188,74.7
120.1907,94.6
120.2008,75.4
120.2189,571.5
120.2433,276.5
120.2452,17.9
120.3232,79.4
120.3257,73.8
120.3406,23
120.4469,88.4
120.4524,73.5
120.4653,86.2
120.5313,772.8
120.5585,114.1
120.5715,357.8
120.6207,646.6
120.6484,153.3
120.6644,179.6
120.6784,917.2
120.7235,402.6
120.747,538
120.7558,114.1
120.8449,234.9
120.8463,571.5
120.864,302.9
120.8643,300.7
120.8659,322.3
120.9331,197.1
120.9474,16.7
120.9519,510.9
120.9663,803
120.9686,127.3
120.981,161.2
121.0078,373.7
121.0185,202.3
121.0285,227.9
121.0367,411.7
121.0396,21.7
121.0474,84
121.0591,152.5
121.0875,76.4
121.1015,186.1
121.2306,180.5
121.2364,558
121.2625,878.7
121.2835,143.6
121.3343,84
121.3791,110.5
121.4085,357.8
121.4786,590.9
121.5553,294.2
121.5634,806.2
121.5876,1026.4
121.6798,255.9
121.7361,79
121.7408,657.1
121.7506,158.9
121.8026,91.1
121.8217,98.4
121.8573,170.5
121.9396,639.8
121.9571,17
121.9718,19.5
122.0052,127.1
122.031,228.6
122.0843,153.1
122.0858,270.5
122.0945,637.7
122.1216,316.7
122.3079,73.2
122.3142,16.8
122.4158,454.3
122.4216,21
122.4251,18.6
122.4338,715.7
122.4818,715.4
122.6085,99.2
122.6131,664.3
122.6418,432.9
122.7771,24.6
122.7877,251.7
122.8087,149.6
122.8164,114.1
122.8477,229.6
122.893,19.4
122.9097,163.9
122.9247,10277.7
122.9466,107.4
122.9667,863.6
123.0142,289.9
123.0195,88
123.0807,49.9
123.1171,20.7
123.1422,150.8
123.1485,115
123.1635,136.2
123.1818,906.7
123.2035,550
123.2082,70.3
123.2146,283.2
123.2178,16.9
123.2702,105
123.3079,655.3
123.3275,742.8
123.3585,253
123.3605,370.6
123.4485,664.4
123.4833,347
123.4985,349.3
123.5069,135.5
123.5394,73.9
123.5421,652.7
123.5448,138.5
123.5501,318.1
123.5957,317.9
123.659,350.7
123.6818,105.4
123.6857,404.6
123.6965,84.4
123.7174,367.2
123.7707,175.6
123.7734,575.9
123.7854,101.2
123.8342,141.2
123.8805,78.7
123.9144,264.2
123.9404,66.1
123.9605,378.2
124.012,247.6
124.0354,624.4
124.092,223.9
124.0955,146.9
124.1437,202.1
124.243,21.5
124.263,218.5
124.3212,142.4
124.3695,598.5
124.3721,149.5
124.3794,157.6
124.4261,694.5
124.4346,87.2
124.5127,30.5
124.5175,173.5
124.6017,169.7
124.6163,97.7
124.6542,827.9
124.6553,87.6
124.665,359.6
124.714,86
124.7357,595.6
124.7502,124.3
124.7588,253.3
124.7786,525.1
124.7871,74.7
124.7968,154.5
124.8618,202.8
124.9488,533.2
124.9852,114.5
125,5164.8
125.0058,307.5
125.0238,956.6
125.0391,245.7
125.0492,653.8
125.0599,98.3
125.0814,77.9
125.1076,794
125.1365,287.7
125.1403,601.4
125.1457,114.7
125.1731,108.5
125.1757,408.3
125.1864,344.3
125.2214,274.2
125.3732,109.3
125.3857,209.7
125.4159,16.7
125.4347,491.7
125.4623,348
125.5008,617.3
125.5555,88.1
125.6294,122.7
125.6458,606.2
125.6616,744.9
125.6638,330.5
125.7339,560.2
125.7755,134
125.7891,490.5
125.8049,139.3
125.8894,561.3
125.9187,20.7
125.9282,105.1
125.9295,123.7
125.9527,105.3
125.9842,523.6
125.9992,21.3
126.0073,153.1
126.0406,308.7
126.0581,399.2
126.0793,72.1
126.0891,1083.2
126.1134,339.2
126.1318,650.3
126.1792,976.8
126.1834,355.9
126.2145,320
126.2268,616
126.2357,283.7
126.249,115.9
126.2654,163.8
126.3082,87.9
126.3193,200.4
126.3224,374.6
126.3429,77.2
126.3708,326.2
126.3868,210.7
126.3967,360.9
126.402,145.9
126.4177,18.7
126.4889,335.1
126.492,373.7
126.4948,117.8
126.4988,25.2
126.5149,170.3
126.5502,504.8
126.6038,21.6
126.6314,17.9
126.6602,17
126.6728,94.8
126.6842,89.2
126.687,891.8
126.7124,315
126.7981,105.6
126.8835,620.4
126.917,287.2
126.9243,652.7
126.9521,621.3
126.9989,22.8
127.0478,24.4
127.1443,215.3
127.2027,84.6
127.2359,324.9
127.3439,80.4
127.4051,77.7
127.4838,729.4
127.5058,389.2
127.5621,767.4
127.6174,236.1
127.6707,107.8
127.817,17.4
127.8193,101.7
127.8273,136.4
127.8287,989.4
127.8767,895.5
127.8946,793.3
127.9273,216.3
128.028,277.8
128.0387,244.9
128.0471,247.8
128.1416,195.7
128.1679,100.8
128.1782,734.6
128.1886,242.7
128.195,103.8
128.3382,118.2
128.3467,565.9
128.3518,991.1
128.3546,260.7
128.3942,114.4
128.4022,17.8
128.4214,129.3
128.4391,353.7
128.4469,577.5
128.4527,801.5
128.4764,163.9
128.4807,17.6
128.4842,156.5
128.5322,163.3
128.5358,170.9
128.5493,104.5
128.5771,102.6
128.6436,710.3
128.6823,338.3
128.7125,148.4
128.8293,248.3
128.8753,87.1
128.8815,88.1
128.8964,226.9
128.911,775.5
128.9238,93.6
128.9304,19.2
128.9499,143.9
128.9871,119.9
129.0033,983.8
129.0134,353.5
129.0217,754.8
129.1024,1467.4
129.1161,18.2
129.1222,123.3
129.1743,75.6
129.2003,111.2
129.2269,364.2
129.3302,315.3
129.3513,112.3
129.3699,188.8
129.3883,93.6
129.4028,24.6
129.4057,143
129.4331,159.9
129.4606,179.6
129.463,204
129.65,185.5
129.6542,156.2
129.7034,148.6
129.7255,156
129.8066,258.5
129.8108,107.9
129.839,149.2
129.8442,312.5
129.9219,766.4
129.9401,74.6
129.9776,273.4
129.9881,19.4
129.9946,19.3
129.9968,588.2
130.0048,84.7
130.0408,100.9
130.0501,8283.3
130.0544,19.3
130.0707,137.9
130.0754,104.3
130.1277,117.6
130.1379,85.5
130.179,266.7
130.2356,172.2
130.2668,22.6
130.3083,303.5
130.3246,84
130.3279,157.9
130.3648,392.3
130.3797,353.5
130.4732,15.7
130.5326,340.6
130.5528,163.9
130.5767,106.7
130.5973,17.2
130.6254,109
130.6586,107.7
130.6694,203.2
130.6794,766.3
130.6995,146
130.7153,19.4
130.7251,22
130.7806,287.5
130.814,647
130.8488,587.3
130.8577,324
130.8795,119
130.9328,434.9
130.9652,38.1
130.9672,483.8
130.9723,250.9
130.985,247.1
130.9978,115.1
131.0068,234.7
131.0148,107.9
131.0328,108.1
131.049,20.4
131.0562,671.3
131.0618,356.4
131.0637,952.6
131.0672,106.6
131.095,310.4
131.1035,528
131.1939,151.9
131.2498,77.3
131.2581,319.8
131.291,117.9
131.3234,104.3
131.3328,124.8
131.3854,148.5
131.389,167.9
131.4065,130.1
131.419,1073.5
131.4442,105.2
131.459,95.7
131.5283,16.2
131.5481,17.6
131.5547,663.1
131.6437,927.4
131.6588,233.4
131.663,274.8
131.7134,786
131.7798,278.3
131.7896,590.5
131.8007,273.6
131.8396,285.6
131.8555,420.2
131.8576,419
131.8601,345.1
131.9368,197.2
131.9401,338.2
132.0034,33046
132.0055,177.6
132.0513,259.3
132.0577,89.9
132.0657,101333.8
132.0769,3419.9
132.0786,298.1
132.0962,891.9
132.1523,670.5
132.1932,18.3
132.2198,18.1
132.2438,353.9
132.3429,519
132.3446,17.9
132.3478,295.9
132.349,19.5
132.357,21.9
132.43,219
132.458,345.4
132.4637,96.9
132.5813,514.4
132.6695,182.3
132.6773,113.2
132.6794,205.8
132.7334,668.7
132.7372,22.1
132.8571,703.5
132.8636,215.4
132.9273,19.5
132.9581,26.2
132.9875,3403.8
133.0081,18
133.0691,2772.9
133.0733,120.4
133.0811,17
133.0974,13031.9
133.1014,19.5
133.1555,570.1
133.3031,126.5
133.3154,185.8
133.3214,120.3
133.3484,595.6
133.3587,95.2
133.3911,516.6
133.4211,113.8
133.4268,353.1
133.4404,455.6
133.5082,304.7
133.5222,164.9
133.5356,194
133.5664,18.3
133.6477,85.7
133.6594,157.4
133.7272,111.6
133.7492,150.8
133.7952,354.1
133.8275,114.9
133.9237,104.4
133.9477,141.1
133.965,81.4
133.9787,648.2
133.9936,352
134.0191,7374.5
134.0324,188.9
134.0786,607.8
134.0895,17.9
134.0921,325.5
134.1136,318.1
134.1592,114.8
134.2115,92.9
134.2362,317.1
134.2409,653.4
134.4897,199.6
134.4982,16.8
134.5093,156.9
134.5303,650
134.5758,123.8
134.6174,490.9
134.6879,835.7
134.6884,958.9
134.689,645.3
134.7103,93.4
134.7155,17.9
134.808,25
134.8116,116.1
134.8313,77
134.8473,265.3
134.88,332.9
134.9427,360.1
134.9695,104.6
134.9968,62.7
135.0031,127947.9
135.0203,212
135.0234,19
135.0391,575.9
135.0439,168.3
135.1026,317
135.117,65.7
135.1326,743.3
135.1485,90.8
135.1571,855.2
135.2208,19.6
135.2414,156.9
135.2616,473.9
135.3127,75.5
135.329,939.9
135.3683,320.5
135.3928,111.7
135.4744,847.9
135.5383,94.6
135.5476,84.7
135.5734,220.4
135.6784,1008.7
135.6944,100.3
135.7927,167.4
135.8048,159.6
135.807,323.8
135.8571,612.7
135.876,170.8
135.9058,108.9
135.9774,4500.5
136.0065,2432.1
136.0484,6257.9
136.0664,73.4
136.0713,344.6
136.0759,10333.4
136.1134,226.2
136.1859,155.2
136.1918,472.4
136.2115,400
136.3043,22.6
136.3314,173.9
136.3507,121.9
136.3614,126.9
136.3888,110.5
136.394,343.1
136.5032,158.5
136.5968,81.8
136.6266,82.7
136.6616,18.1
136.726,83.7
136.7992,259.2
136.8241,743.1
136.8305,17.7
136.874,16.7
136.9081,748.3
136.9264,112.3
136.9727,285.2
137.0023,206
137.0066,21.1
137.0178,699.1
137.0405,989.6
137.0819,953
137.0843,125.1
137.1758,137.1
137.2998,510
137.3797,578.1
137.3871,139.3
137.4068,84.4
137.4345,386.9
137.4723,117.4
137.4896,278
137.4982,730.7
137.5819,312.2
137.5892,335.9
137.7138,749.3
137.7738,504.9
137.7786,359.4
137.8335,131.7
137.8425,628.9
137.873,159.4
137.8822,182.4
137.9504,565.5
137.9617,367.2
138.0528,7277.6
138.0654,561.6
138.1096,306.9
138.123,210.9
138.1258,142.5
138.1748,815.4
138.1758,466.6
138.1765,249.3
138.2249,321.6
138.3588,182
138.3846,189.1
138.3874,679.5
138.3923,173.9
138.4491,555.8
138.4936,84.2
138.5,311.8
138.519,218.5
138.5448,662.8
138.5664,531.1
138.587,791.1
138.6166,86.3
138.6571,332.1
138.6904,132.5
138.707,17.2
138.7215,1001.3
138.7477,187.1
138.7811,948.8
138.7832,898
138.8074,951.5
138.8181,118.7
138.8487,22.6
138.8877,377.8
138.9067,2912.4
138.9094,95.6
138.9129,1075.3
138.9143,91
138.9285,167.1
138.9452,97.7
138.983,96.4
138.9854,273.5
138.9934,574.7
138.9961,859.5
139.0111,317
139.0159,156.7
139.039,225
139.0445,123.5
139.0916,301.6
139.1309,119.7
139.1853,673.3
139.2081,269.1
139.2124,107.2
139.2152,118
139.3466,95.5
139.3781,96.8
139.3861,686.3
139.4242,83.4
139.4373,239.5
139.4559,17.5
139.4565,17.2
139.4754,550.8
139.4978,17.9
139.5004,666.9
139.5664,459.9
139.6439,76.2
139.6626,75.5
139.6975,371.1
139.7522,194
139.7733,158.1
139.7871,613.1
139.8797,281
139.8958,324.1
139.9185,91.2
139.9717,423.9
139.9804,97
140.0007,111.6
140.0167,1028.8
140.0232,333.4
140.0482,110.1
140.0599,188.4
140.0686,924.1
140.1069,16.9
140.1592,132.4
140.1659,316.5
140.1802,106
140.2112,21.5
140.2319,374.4
140.25,495.2
140.2551,231
140.2938,475.1
140.2967,137.3
140.3248,331.5
140.3282,279.3
140.3339,81.6
140.3491,530.6
140.3681,276.4
140.4054,264.9
140.4741,134
140.5051,487
140.5362,686.6
140.5696,128.7
140.6029,328.3
140.6501,183.6
140.697,363.6
140.7093,176.6
140.7563,149.7
140.7683,19.8
140.7893,152
140.8086,340.5
140.8727,99.2
140.8854,626.4
140.9039,1011
141.0007,20987.5
141.0111,26.5
141.02,29.6
141.134,82.5
141.1427,181.3
141.1525,687.3
141.1961,90.1
141.2049,20.1
141.3085,345
141.3516,158.3
141.3608,24.5
141.4409,420.6
141.5652,217.1
141.5894,1162.9
141.6026,114
141.6057,710
141.6686,982.6
141.6794,246.7
141.6968,87.2
141.7225,112.1
141.8332,87.8
141.8676,113.8
142.0041,499
142.0477,656.5
142.0634,1232.7
142.0696,127.3
142.0739,31.7
142.0909,236.5
142.1854,650.7
142.2626,107.6
142.2806,353.8
142.2898,98.7
142.2921,679.9
142.3073,126.3
142.3219,470.9
142.3246,346.7
142.3895,189.4
142.4265,949.1
142.4561,81
142.5412,489
142.552,241
142.5885,598.8
142.6534,800.3
142.6926,24.2
142.732,254.9
142.8476,74.1
142.8481,72.6
142.892,118.5
142.9107,67.9
142.9711,609.6
142.9965,288.6
143.0191,2314.4
143.0668,207.5
143.0819,738.3
143.1286,163.8
143.1465,174.2
143.1964,386.1
143.2197,120.3
143.2294,287.6
143.265,290.2
143.2655,306.5
143.2662,132.2
143.3188,680.4
143.3414,509
143.3492,70.1
143.4734,1001.2
143.4826,338.8
143.5182,77.1
143.5663,212.6
143.5692,524.7
143.648,122.1
143.7245,264.2
143.8082,16.7
143.8124,665.3
143.8676,91.7
143.9076,272.7
143.9222,80.2
144.011,23.9
144.0187,373.1
144.0632,21.9
144.0674,473.5
144.1011,300.5
144.1074,295.3
144.1716,703
144.1741,165.7
144.2004,651.6
144.2302,675.3
144.2378,127.6
144.2397,127.8
144.3107,314.7
144.3211,20.4
144.3692,25.3
144.3791,141
144.4228,93.6
144.4842,17.5
144.5162,541.7
144.5847,921.8
144.5968,325.6
144.6291,453.3
144.6652,118.1
144.6814,119.4
144.6885,19.3
144.6978,918.8
144.7032,18.6
144.7284,100.9
144.7827,271.9
144.8237,101.7
144.888,201.9
144.9303,24
144.9719,79.4
144.9811,8992.2
144.9992,23.1
145.0862,506.7
145.1018,92.5
145.1133,317.8
145.1402,79.3
145.1892,385.7
145.2088,223.5
145.2135,332
145.2617,101.9
145.31,150.1
145.3299,18.5
145.4417,263
145.5804,1072.1
145.5932,137.7
145.6312,375.6
145.7477,671.9
145.7517,106.6
145.7548,128.3
145.8383,95.1
145.8682,94.8
145.8703,598.1
145.9396,117.9
145.9579,786.8
145.9704,293.8
145.9735,322.4
145.9771,1025.9
145.9797,190.9
145.9832,145.8
146.0128,4439.6
146.0191,20911.9
146.0429,112.9
146.0447,23.2
146.1051,168.2
146.1117,501.4
146.1631,940.8
146.2706,426.8
146.2798,479.9
146.2836,335.2
146.3891,127.3
146.4769,334.2
146.4825,81.8
146.5113,149.9
146.5857,280.1
146.6247,104
146.629,20.7
146.6364,108.8
146.654,617.6
146.6825,146.5
146.6913,969.3
146.8086,336.1
146.8134,117.2
146.8177,122.8
146.8357,317.4
146.9201,377.4
146.9252,130.8
146.982,153701
146.9908,345.8
147.0032,775.3
147.033,129.2
147.0767,60566.1
147.0993,944.9
147.1131,24709.9
147.1174,227.3
147.1587,111.9
147.2006,309.1
147.2105,378.6
147.2133,139.7
147.2291,16.8
147.2686,75.2
147.2767,275.4
147.2947,717.8
147.3673,474.4
147.3772,177.3
147.3836,244
147.3852,134.3
147.4282,267.6
147.4514,99.9
147.4614,347
147.4683,693.5
147.4803,23
147.4887,78.7
147.4935,591.1
147.4994,789
147.5616,134.2
147.6082,341
147.6149,298.4
147.6335,96.6
147.6414,152.1
147.6613,986.1
147.6855,158.8
147.696,118.1
147.7523,548.9
147.7888,414.6
147.901,99.5
147.9854,1354.3
148.0157,97.6
148.0225,18.7
148.1516,244.3
148.1896,1023.1
148.2479,527.2
148.3053,662.9
148.3358,635.3
148.3505,100.1
148.4205,190.5
148.4666,807.4
148.5258,509
148.5324,7831.5
148.5606,20.8
148.5773,593
148.5872,255.1
148.6163,184.9
148.6323,1035.2
148.6478,329.9
148.6972,845.9
148.6992,158.2
148.7292,857.6
148.7891,92.2
148.8224,183.4
148.8666,1058.7
148.8685,1010.7
148.8793,129.3
148.9357,375.2
148.9373,120.9
148.9615,2617
149.0028,24.5
149.008,19.8
149.0188,19281.7
149.0236,5562.9
149.0451,41.2
149.0476,80
149.0545,85.6
149.078,100.8
149.117,552.9
149.2505,294.1
149.3873,156.4
149.401,102.2
149.4231,81.3
149.4316,234.7
149.4647,266.2
149.5281,72.3
149.5674,146.9
149.5795,476.9
149.5808,504.1
149.5903,651.3
149.6117,82.5
149.6686,671.2
149.6763,646.3
149.6933,135.1
149.6983,643.4
149.7582,143.7
149.7748,267.7
149.7972,133.7
149.8331,95.5
149.9056,240.4
149.9428,73.9
149.9561,329.7
149.9931,4385.3
150.0141,3717.3
150.0271,58.3
150.0372,76
150.0667,197.9
150.108,82.8
150.172,149
150.1869,111.7
150.223,119.8
150.3519,315.6
150.3967,107.4
150.4103,217.5
150.4466,405.3
150.4538,103
150.52,573.9
150.5664,21.7
150.5968,251.3
150.6234,736.7
150.6501,655.5
150.6978,18.1
150.7131,117.3
150.7291,290.7
150.7449,220.9
150.7536,139.5
150.7878,19.7
150.792,112.5
150.859,1143.3
150.8825,256.3
150.9167,212.1
150.9621,413.9
150.9658,423.5
150.9771,63859.6
150.9843,142
151.0065,23.9
151.0482,3558.2
151.0548,102.7
151.2093,729
151.215,1108.7
151.2512,75.8
151.3312,140.4
151.3344,163.1
151.357,666.9
151.3896,115.8
151.4035,75.2
151.4496,750.2
151.4706,506
151.6726,401.5
151.6737,378.9
151.7179,187.9
151.7554,138.2
151.7649,227
151.7955,82
151.8257,183.6
151.8458,93.4
151.8606,92.3
151.8887,838
151.8913,25
151.9516,128.6
151.9638,490.4
151.9806,435.9
152.0224,4408
152.0322,2607.5
152.0657,349
152.13,761.8
152.2188,387.4
152.233,263
152.2486,179.7
152.2675,315.6
152.2985,527
152.3499,211
152.398,89.9
152.4087,16.6
152.4166,70.4
152.4948,240.3
152.5417,267.1
152.6455,334.1
152.7015,79.2
152.7229,76.8
152.7585,25.6
152.7779,75.3
152.8175,18.9
152.8314,106.3
152.8613,163.2
152.8839,116.1
152.8871,195.1
152.9274,238.7
152.9315,108.9
152.9753,2682.7
152.9775,22.4
153.0165,396.7
153.0356,269
153.0714,289.7
153.125,441.8
153.1648,97.8
153.2019,110.6
153.2417,130.6
153.3093,563.3
153.3578,606.5
153.3614,182.2
153.4122,83.5
153.4457,176.4
153.4593,717.7
153.5176,84.5
153.5499,103.1
153.6306,166.7
153.6692,24.4
153.7656,174.9
153.7854,20.8
153.7969,115.1
153.8031,1010.9
153.8386,756.6
153.8535,142.5
153.9699,315.3
153.9764,256.2
154.0011,116.1
154.0115,860.5
154.0389,621.7
154.059,6902.1
154.0887,1006.2
154.0947,624.1
154.1018,75.8
154.1412,175.9
154.2014,913.4
154.227,21
154.234,706.3
154.2423,914
154.3267,145.5
154.3546,313.5
154.4223,616.8
154.424,481
154.4276,113.4
154.4295,343.9
154.4329,24
154.4403,140.7
154.4475,316.6
154.4908,227.2
154.5285,530.7
154.587,366.1
154.5945,632.8
154.6131,329.2
154.6153,19.6
154.6189,163
154.6291,189.6
154.6911,147.6
154.7185,151.7
154.7714,689.3
154.7893,133.3
154.9077,55.1
154.9417,660.3
155.0062,162
155.0085,196.4
155.0157,184.5
155.0408,238.7
155.043,2399
155.0497,213.3
155.0543,3550.8
155.0821,559.6
155.15,260.2
155.2491,241.2
155.3726,18.9
155.4095,310
155.4452,317.2
155.4986,229.6
155.5092,79.3
155.5513,215.6
155.5913,119.8
155.5959,534.9
155.5978,223.5
155.6399,1045.6
155.7296,393.2
155.7619,366.2
155.8073,615.9
155.8771,592.7
155.8802,970.1
155.9238,251.2
155.9437,19.7
155.9706,395.3
155.9754,303.4
156.0324,805.8
156.0577,56.8
156.0771,27561.2
156.0854,626.3
156.2111,73.5
156.3268,106.6
156.3903,390.2
156.4059,679.8
156.4088,289.9
156.6232,497.7
156.6361,20.3
156.6503,91.9
156.6512,99.2
156.6533,172.3
156.7287,297.4
156.8,570.3
156.839,182.1
156.8485,421.3
156.8659,199.4
156.8728,175.5
156.8778,367.3
156.9343,1607.2
156.9405,168.2
156.9748,58.7
157.0333,532.6
157.0391,220.8
157.0652,879.6
157.0748,164.7
157.0975,205.6
157.1905,76.8
157.198,733.6
157.2056,651.1
157.2078,165.1
157.218,29.2
157.2549,150.1
157.3389,338.8
157.3943,947
157.4142,158.9
157.4351,175.2
157.4577,723.3
157.4663,171.2
157.4701,18
157.4962,239
157.6251,1004.2
157.7987,780.9
157.8008,214.1
157.8129,189.8
157.9585,135
158.0128,1319.7
158.0274,4452.8
158.0603,122
158.0835,672.8
158.0973,1037.8
158.1148,384.1
158.2045,142.3
158.2156,622.5
158.2532,76.4
158.2602,106.6
158.2788,672.9
158.2837,224.6
158.3191,149.3
158.4244,19.9
158.5046,195.4
158.5401,96.7
158.6047,162.3
158.6485,106.3
158.6975,100.6
158.7106,86.8
158.7199,131
158.7662,235.4
158.8145,404.2
158.8628,109.6
158.9282,937.7
158.9574,140.3
158.9593,586.1
158.9645,7787.7
158.9968,17252.7
158.9994,20.8
159.0115,23.9
159.0182,624.9
159.0282,615.9
159.0308,126.2
159.0805,103.3
159.1642,130.4
159.1686,83.5
159.2223,203.3
159.3382,222.7
159.3428,106.4
159.3482,159.6
159.3514,151.2
159.428,203.8
159.4327,129.3
159.4728,211.1
159.4839,658.9
159.5006,18.9
159.5715,97.7
159.5996,194.9
159.6072,17.5
159.6178,647.1
159.659,362.6
159.6884,486.6
159.7307,81.5
159.7566,156.4
159.7604,151.4
159.8211,153.3
159.8371,107.4
159.9062,367.8
159.9307,389.3
159.9532,283.2
160.0232,106.8
160.0349,12547.6
160.0608,100642.8
160.0637,21.4
160.1435,300
160.2768,954.7
160.3846,214.1
160.3918,483.6
160.4369,535.7
160.5456,387.1
160.5817,747.8
160.6811,409
160.6921,705.8
160.701,674.7
160.7681,20.1
160.8819,109.4
160.9138,153
160.9448,661.7
160.9918,323.5
161.0642,3259.9
161.0665,25.1
161.0838,674.3
161.1117,733.4
161.1253,251.7
161.1288,2381.1
161.2066,357.7
161.2536,205.1
161.2579,395.9
161.319,20.8
161.4687,484.3
161.4935,243.5
161.5234,184.3
161.6623,114
161.7579,74.7
161.7967,218.5
161.8025,168.1
161.8174,830
161.8383,271.2
161.8473,295.6
161.886,565.3
161.8908,695.6
161.8992,1021.7
161.9234,446
162.0133,263.1
162.0506,13392.9
162.1084,26.2
162.1314,658
162.1358,103
162.1785,20.3
162.2491,17.9
162.2691,197.8
162.2891,535.2
162.33,110.7
162.4206,120.4
162.4254,114.6
162.4953,140.8
162.5199,106.8
162.5293,616.9
162.6077,500.4
162.6089,368.7
162.6186,83.3
162.6758,255
162.7545,111.7
162.9024,98.6
162.9053,105.2
162.9434,88
162.9561,7391.8
162.9774,383
163.0156,1104.9
163.0346,970.7
163.0392,29.7
163.0426,310.6
163.1026,335.5
163.1082,181.5
163.1356,102.1
163.2191,180.1
163.3624,258.2
163.4353,156
163.482,260.6
163.6288,946
163.6389,680.6
163.6459,320.1
163.651,96.2
163.6551,196.3
163.6669,173
163.7295,529.3
163.7604,106.1
163.7706,83.4
163.9575,241
163.9734,317.7
164.0235,119
164.0298,10247
164.0823,128.2
164.1158,669.8
164.1542,77
164.2577,164
164.3641,617.5
164.424,184.2
164.438,502.5
164.4885,151.4
164.5864,414.1
164.5967,693.2
164.6225,278
164.6584,19.3
164.6845,98.9
164.692,183.2
164.7515,164.4
164.7896,72.8
164.7952,259.1
164.8465,419.6
164.9209,4435.9
164.9304,10282.1
164.9353,732.1
164.9375,296.5
164.9437,19.1
164.9929,8344.2
165.0015,700.1
165.0913,356.2
165.1928,119.9
165.204,102.6
165.3353,143.1
165.4375,131.8
165.4438,846.7
165.5224,432.7
165.6394,971.7
165.7116,101.1
165.7555,176.7
165.7615,650.5
165.7926,347.8
165.9128,196.5
165.9328,857.8
165.9672,463.5
165.9792,3729
165.9882,2597.1
165.9952,23.8
166.0022,95.7
166.0755,106
166.0784,145.3
166.0841,1033.9
166.1496,132.3
166.158,178.7
166.217,387.5
166.2433,112.9
166.2611,23
166.2733,959.4
166.2876,279.2
166.3292,85.7
166.3642,20.8
166.3974,251.3
166.4592,24.4
166.505,91.2
166.5182,170.3
166.6441,78.4
166.6533,299.9
166.6561,125.7
166.7171,114.7
166.7416,119.7
166.7442,235.8
166.7524,1102.8
166.7923,24.2
166.8322,191.1
166.8584,287
166.89,180.5
166.9309,249.1
166.934,19.7
166.937,124.8
166.9512,22069.6
166.9559,691.3
166.9633,1771.4
166.9662,230.1
167.0221,4549.9
167.0814,362.6
167.1463,99.9
167.1529,18.3
167.1585,218.8
167.2003,248.3
167.2385,137.2
167.2555,24.2
167.3319,102.2
167.3874,960.1
167.391,384.9
167.3969,198.1
167.4065,172.4
167.4278,163.3
167.4863,79.6
167.4988,149.7
167.5134,106.8
167.5407,362.5
167.5788,566
167.5925,22.7
167.6067,1004.8
167.6339,1118.5
167.7229,85.4
167.7267,121
167.7284,371.2
167.7783,428.3
167.8157,619.6
167.8605,543.4
167.9185,809.8
167.9947,4408.1
168.0447,112.7
168.0648,16.9
168.0725,167.1
168.1074,23.6
168.1372,71.3
168.1874,131.1
168.209,894
168.3062,110.6
168.3096,192.1
168.3413,121.8
168.3475,103.6
168.3586,22.9
168.4362,87.8
168.4441,163.5
168.4706,100.6
168.4779,97.9
168.4825,95.2
168.5241,349.3
168.5572,1084.8
168.5743,84.2
168.6006,17.6
168.6407,106.5
168.7845,85.8
168.8338,425.9
168.8845,158.9
168.9294,132.8
168.9493,614.2
168.9961,16.9
169.013,17.5
169.0342,20.8
169.0412,113.3
169.0588,69393.1
169.0654,760.2
169.0952,1402.7
169.241,88.1
169.3031,354.5
169.3104,274.6
169.3495,273.7
169.3681,227
169.4154,71.4
169.4841,17.3
169.4937,104.6
169.5375,401.2
169.5594,72.3
169.6042,962.6
169.7093,875.3
169.7243,19.2
169.7683,587.7
169.7969,341.1
169.8166,746.6
169.861,274.4
169.8732,165.9
169.9747,356.9
169.9862,582.1
170.0122,88.5
170.0266,479.7
170.0331,8999.2
170.062,1495.9
170.0928,5448
170.1048,180.1
170.1096,286.1
170.1622,149.5
170.168,289.8
170.2046,125.9
170.2312,241.6
170.2362,301.2
170.2584,19.8
170.2679,714.8
170.3015,529.9
170.3265,290.5
170.3474,84.7
170.386,101.4
170.4103,84.7
170.4552,244.4
170.458,17.2
170.4855,637.3
170.4944,108.3
170.5148,579.9
170.571,179.5
170.6087,312.4
170.6992,89.1
170.7151,156.6
170.7356,506.4
170.7598,259.7
170.764,521.5
170.7742,207.6
170.8111,159.6
170.8549,3054.7
170.8893,224.2
170.9108,603.3
170.9761,133.3
171.017,1641.8
171.0283,321
171.0965,391.5
171.1089,178.6
171.1474,130
171.1587,688.4
171.2161,108.8
171.248,96.8
171.2591,183.8
171.3013,146.5
171.3479,164.3
171.3551,561
171.3772,623.3
171.4394,189.1
171.5145,499.7
171.5922,328.1
171.6214,178.7
171.6377,103.2
171.6577,624.1
171.722,76.8
171.7423,20.9
171.8159,190.5
171.9048,79.9
171.9974,384.8
172.0038,165.3
172.0079,689.6
172.0286,837.4
172.0357,18
172.0919,120.1
172.112,127.2
172.1202,147.4
172.249,882.3
172.3037,142.5
172.3661,294.9
172.3964,281
172.4754,69.4
172.5754,532.9
172.5993,763.2
172.6167,220.9
172.6385,91.4
172.7558,293.4
172.8313,152.6
172.8518,1572.7
172.9422,72
172.9596,104.9
172.9809,93
173.0049,104.3
173.0271,308.3
173.0392,970.3
173.0763,557.1
173.0788,2513
173.0898,104.8
173.1029,214.1
173.1124,131
173.1734,172.1
173.1859,141.9
173.3077,196.7
173.3329,146.3
173.4108,239.9
173.4305,513.5
173.4754,672.4
173.5699,335.1
173.6156,572.4
173.6598,122.8
173.669,636.1
173.7156,166.4
173.7193,534.5
173.7274,165.5
173.7356,426.4
173.7424,18.3
173.8088,103
173.8773,114.1
173.9284,86.7
173.9605,146.5
174.0141,468.2
174.0304,17.8
174.0342,111.1
174.1137,323
174.1258,132.9
174.1703,533.1
174.2473,452.8
174.2731,19.9
174.2869,378
174.3176,234.5
174.3385,989.8
174.4641,485.8
174.5092,223.9
174.5366,98.1
174.584,23.8
174.6531,137.3
174.6644,18.7
174.7308,279.4
174.7676,116.4
174.8696,967.8
174.9027,190.6
174.9384,1852.6
175.0259,146.8
175.0346,480.3
175.0459,4196.7
175.0867,243.2
175.1194,77759.5
175.1238,82.5
175.1787,21.9
175.1814,252.7
175.2046,120.8
175.2408,1018.2
175.3731,102.4
175.4435,836.9
175.4558,117.4
175.4696,96.4
175.4719,71.9
175.4861,18.5
175.4961,88.7
175.5493,586.7
175.6875,100.8
175.7119,689.1
175.7558,204.3
175.7642,378.8
175.7729,497.8
175.8261,331.8
175.8561,83.9
175.8666,397.1
175.9923,103.9
176.009,4383.7
176.0226,211
176.025,145.7
176.029,724.4
176.0411,2349.7
176.0573,164.5
176.0663,15597.6
176.0968,154.5
176.122,855.8
176.1316,73.8
176.1361,27.2
176.1871,699.1
176.2482,75.8
176.4936,106
176.5525,168.7
176.5605,293.3
176.605,85.4
176.6865,102.9
176.7445,132.1
176.7485,293.1
176.7843,1008.4
176.8109,390.2
176.8701,23
176.9626,120.3
176.9929,1132.2
177.0252,5923.5
177.0425,308.8
177.0616,4080.3
177.0874,1192.4
177.1331,21.9
177.1526,27
177.1955,759.1
177.3258,243.3
177.3726,225
177.4885,166.9
177.5765,518
177.7529,800.6
177.8484,313.9
177.8593,261.5
178.0092,12223.8
178.0247,3848
178.0589,902.9
178.1184,187.6
178.1209,130.8
178.1357,149.8
178.142,80.3
178.1589,149.7
178.1883,290
178.2894,254.6
178.3074,1204.9
178.3458,196.7
178.3926,777
178.4332,107.4
178.4828,114.5
178.4984,762.3
178.5634,20.6
178.6444,872.7
178.7125,94.7
178.7451,150.9
178.7605,126.8
178.8921,531.4
178.9336,304.9
178.9643,1120.6
179.0411,210.4
179.0468,116.3
179.0981,18.6
179.1147,104.6
179.1335,292.6
179.1378,106.2
179.1438,19
179.1726,120.6
179.2696,431.5
179.2783,286
179.4414,123.6
179.4515,275.6
179.5288,80.4
179.5583,539.6
179.5849,363.1
179.6243,139.4
179.6677,124.5
179.6769,736.1
179.9331,87.3
179.9383,170.1
179.9802,115.7
180.0039,5562.5
180.0434,189.3
180.0774,207
180.0793,513.2
180.1157,753.2
180.158,299.6
180.1991,688.1
180.2931,606.2
180.393,16.5
180.4269,89.7
180.456,826.5
180.4883,20
180.5202,815.8
180.5242,673.5
180.5292,127.3
180.5446,159.7
180.5964,114.3
180.6719,631.9
180.7075,20.6
180.7828,162.1
180.8105,532
180.8137,18.3
180.895,2353.4
180.9043,6645
180.929,99.5
180.9428,142.6
180.9614,680
180.9668,559.5
181.0188,618.3
181.0653,9784.2
181.0822,83.5
181.1047,75.3
181.1774,668.6
181.2137,80.8
181.2723,24.9
181.2899,656.1
181.293,160.8
181.3037,306.2
181.3632,171.7
181.4268,177.9
181.4906,589.2
181.5191,17.5
181.5275,73.1
181.5316,234.5
181.6758,919.2
181.6929,389.7
181.8298,811.8
181.867,102.7
181.9868,76.1
181.9965,639.3
182.0429,41344.4
182.0979,664.4
182.1356,321.7
182.1392,17.6
182.231,851.6
182.344,166.7
182.615,195.7
182.6221,109.9
182.6275,19
182.6608,488.4
182.6791,126.1
182.7562,19.9
182.7813,88.7
182.8214,150.2
182.9028,51.4
183.0448,2422.4
183.0733,187.9
183.0989,222.8
183.1495,509.9
183.2051,82.4
183.238,78.2
183.2992,71.2
183.3573,179.4
183.3999,131.1
183.4473,129.3
183.4832,156.6
183.547,108.1
183.6977,20.7
183.7128,411.8
183.7182,324.6
183.8313,970.3
183.8722,614.7
183.9194,876.2
183.9576,196.7
183.965,1256.5
183.9977,339
184.0048,70.6
184.0375,469.7
184.0738,4239512.5
184.0807,173.5
184.0868,341.8
184.1095,451.7
184.1254,839.7
184.1364,92.2
184.1703,45.1
184.1827,2313.6
184.1962,26.5
184.2062,149.9
184.2294,144.6
184.2558,227.3
184.2696,925.1
184.3081,555.2
184.3143,275.3
184.3202,359.7
184.3298,165
184.6354,595.1
184.6382,647.3
184.6701,790.2
184.7131,105.5
184.7156,332
184.7553,183.9
184.7987,70
184.8142,175.5
184.9228,80.7
184.9999,517.4
185.0328,56717.9
185.0414,128.7
185.0708,7240
185.0771,190970.5
185.1628,17
185.1657,106.9
185.1841,535.1
185.2896,77.8
185.3128,236.6
185.3467,598
185.3831,23.2
185.4146,109.7
185.4784,654.2
185.5102,259.5
185.5298,74.8
185.5428,441.1
185.5495,20.6
185.5528,23.4
185.6159,901.5
185.6496,653.1
185.6744,186.4
185.7041,23.2
185.7576,16.8
185.7768,599.6
185.9018,309.5
185.9212,247.8
185.9544,157.8
185.9641,71.5
186.078,22499.8
186.0928,78.4
186.2032,20.8
186.2653,200.3
186.2693,18.5
186.2961,628
186.3426,292.1
186.5336,19.4
186.5397,23
186.5536,119.9
186.6069,89.5
186.6281,458.5
186.7392,678
186.8171,270.7
186.8385,311.5
186.8973,748.6
186.9126,904.1
186.9411,490
186.9463,184.4
187.0008,22.8
187.0307,898.1
187.0403,99.8
187.0458,322.7
187.0582,636.6
187.0667,79.2
187.0719,2077.5
187.0803,121.4
187.1085,712
187.1136,77.9
187.1965,703.6
187.3062,116.3
187.3453,99.5
187.3482,108
187.3725,125.4
187.5083,345.7
187.5498,670.8
187.5855,417
187.5964,97.4
187.6003,121.6
187.6124,102.3
187.6291,1162.6
187.6502,220.3
187.6624,80.8
187.7051,23.7
187.7185,673.8
187.7203,84.2
187.8774,323.8
187.9253,237.9
188.0237,153.3
188.0797,138.1
188.1088,22.6
188.1375,409.4
188.1921,172.2
188.2264,160.1
188.3315,202.7
188.3848,16.7
188.4688,149
188.58,245.8
188.6256,17.5
188.7492,120.7
188.7634,752.4
188.7717,154.5
188.7746,583.7
188.8779,851.6
188.9123,111.7
189.029,76.5
189.0529,1424.9
189.0615,5952.4
189.0838,178.8
189.0875,10398.7
189.1703,265.3
189.2067,83.3
189.272,18.4
189.3912,235.2
189.4301,325.4
189.4651,654.1
189.4896,207.9
189.7085,74.9
189.7174,216.1
189.7789,21
189.9044,130.3
189.9676,85.8
190.0258,179.7
190.2167,170
190.3511,338.9
190.3571,227.9
190.3783,16.4
190.4219,413.8
190.4993,30.3
190.5435,201.4
190.6221,220.5
190.6708,252.3
190.9447,80.7
191.0087,1739.1
191.0409,119477.4
191.0772,21047.4
191.135,99.8
191.273,674.5
191.2756,367.8
191.3117,109.2
191.3484,207.9
191.3647,553.1
191.3978,1007.6
191.4352,1023.1
191.7,116.7
191.7959,183.6
191.8043,116.1
192.0153,425.9
192.0403,7577.8
192.0442,4215.5
192.1016,82
192.1726,78.8
192.2307,584.1
192.261,253.9
192.3743,1047.2
192.5144,318.8
192.5259,166.4
192.5377,310.9
192.55,126.4
192.5715,127.9
192.5938,20.2
192.6574,101.1
192.6716,21.5
192.7998,91.7
192.8064,88
192.8089,166
192.8378,167.1
192.8936,19.4
192.9288,140.8
192.9622,858.9
192.9658,819.2
192.9683,200.5
192.9737,75.3
192.9993,2278.6
193.0357,1534.8
193.2484,194.8
193.4085,118.2
193.4569,180.8
193.484,76.1
193.5269,83.6
193.6224,227.9
193.6533,318.4
193.6603,108.8
193.6668,368
193.8652,110
193.9509,91.8
193.9806,73.4
194.0053,3706.9
194.011,93.7
194.1546,318.2
194.2011,881.3
194.2302,716.7
194.2344,866.8
194.254,323.3
194.2774,410.1
194.308,241.1
194.3494,19.7
194.3781,722.7
194.4125,377.5
194.4246,106.9
194.4499,97.9
194.6142,224.3
194.6746,102.1
194.7272,90.5
194.8347,22.6
194.9801,88.8
195.0424,452.5
195.0613,105.2
195.0903,329.4
195.0974,156
195.1173,211.2
195.1256,96
195.1483,181
195.1771,80.6
195.1936,214.2
195.2004,20
195.2137,78.3
195.2199,1095.2
195.2495,497.4
195.2868,161.4
195.3575,89.9
195.3999,362.5
195.4494,390.9
195.4695,19.3
195.4922,211.5
195.5865,125.7
195.6304,316
195.6807,17.6
195.6967,17.4
195.7688,98.1
195.9312,286
195.9377,357.1
195.9507,434.7
195.9745,23.4
196.0352,800.5
196.0795,109.3
196.1602,683.2
196.1702,542.1
196.2041,274.1
196.288,153.3
196.3102,133.1
196.5704,363.1
196.7086,836.8
196.7237,359.6
196.7425,209.4
196.845,636.9
196.8658,7264.3
196.8691,370.7
196.8756,671.1
196.8785,1284.8
196.9788,536.1
197.0767,349.6
197.1014,1183.7
197.1563,281.4
197.1939,80.8
197.2262,165.7
197.2583,108.7
197.2697,135.1
197.3021,128.4
197.318,358.5
197.4211,112.6
197.429,66.6
197.4321,98.3
197.4358,154.8
197.4976,179.4
197.5236,1175.5
197.528,739.6
197.5709,825.6
197.6276,213.6
197.6564,17.9
197.7211,201.8
197.8162,255.9
197.9135,190.3
198.0077,49.2
198.082,888.6
198.0856,4618.8
198.0894,616
198.1005,95.8
198.1438,83.9
198.1663,918.3
198.1858,7371.8
198.2057,1379.2
198.3119,76.4
198.324,376.6
198.3835,773.3
198.4046,22.4
198.475,972.7
198.5868,92
198.6318,17.4
198.6637,187.2
198.7001,177.2
198.838,350.6
198.8509,230.2
198.8583,537.9
198.8628,6900.6
198.954,480.2
198.9741,1056.4
199.0287,764.9
199.0396,146.1
199.0695,1865
199.0761,2514
199.0808,95.1
199.1089,336.9
199.1891,282.3
199.2806,18.8
199.3047,109.4
199.4516,92.5
199.5027,451.7
199.5334,157.6
199.5604,171.8
199.7209,20.6
199.7664,541.9
199.7996,969.8
199.8018,105.8
199.8415,943.1
199.8861,24.8
199.8918,84
199.9912,37422.2
199.998,247.3
200.0165,465.9
200.0203,209.5
200.0364,848.1
200.0413,7104.4
200.0687,729.4
200.0778,127.4
200.1055,665
200.1106,107.7
200.1504,6678.5
200.2308,382.6
200.2493,189.6
200.2905,132.6
200.2953,24.6
200.5148,214.7
200.6361,361.5
200.7518,26
200.779,138.2
200.7893,93.6
200.7975,112.4
200.8047,412.9
200.8416,566.5
200.8601,1913
200.9601,114.3
200.977,128.7
200.995,105.2
200.9979,19.6
201.0128,106.6
201.016,17.7
201.0554,280.9
201.0876,365.6
201.0911,159.5
201.0941,370.1
201.15,480.9
201.1882,229.4
201.206,365.1
201.504,768.8
201.5482,100.2
201.5557,154.6
201.6808,26.4
201.79,297.2
201.7968,111.8
201.8652,17.8
201.8674,16.6
202.0644,1205.8
202.0674,207
202.1314,79.1
202.2043,204.4
202.3012,640.1
202.3059,285.6
202.413,922.6
202.425,683.4
202.4371,93.2
202.4705,362.1
202.48,362.5
202.4991,17.3
202.5103,491.4
202.5177,19565.3
202.5268,406.1
202.6015,599.6
202.6049,97.8
202.7025,422.8
202.7196,178.9
202.7782,143.1
202.7856,120.4
202.801,248.1
202.8376,188.9
202.8521,107.7
202.8564,381.4
202.8886,672.8
202.9765,80
203.0173,484.1
203.0226,503.2
203.0532,2308527.5
203.0773,11616
203.1792,1061.6
203.2088,630.7
203.2357,477.6
203.2564,78.1
203.5642,200.3
203.6159,598.5
203.6991,145.6
203.7011,180.8
203.707,21.8
203.7579,466.3
203.7876,79.4
203.8516,202.4
203.9132,675
203.9466,23.5
203.9532,26.1
203.9582,604.6
204.0249,56649.1
204.0565,125509.2
204.0872,652.7
204.2006,90.8
204.225,132.6
204.2581,418.1
204.2648,249.6
204.3718,368.3
204.3944,101.8
204.4038,458
204.5523,377.3
204.5555,325.9
204.6509,577.1
204.6674,88.1
204.6914,23.6
204.8427,73.4
205.0023,570.4
205.0284,603.8
205.0574,20553.4
205.0842,85.2
205.2336,204
205.2395,176.8
205.3507,91.8
205.4067,731.3
205.5366,20.5
205.5519,80.3
205.576,97.2
205.5994,251.2
205.6913,255.5
205.7363,185
205.7779,619.7
205.8349,117.4
205.8411,284.6
205.8483,918
205.8566,311.1
205.9392,119.7
205.9987,964.8
206.0535,98.9
206.0789,112.8
206.3233,24.1
206.3265,497.1
206.3364,560.7
206.4161,98.8
206.4239,703.3
206.4739,108.1
206.5393,938.1
206.5916,326.3
206.7183,159.4
206.7529,221.6
206.7727,570.2
206.8194,121.5
206.8749,97.8
206.8946,19621
206.9743,96.2
206.9959,381.5
207.0037,240.6
207.0149,65110.1
207.0447,4961
207.0513,7056.8
207.0902,657.5
207.207,756
207.3173,262.2
207.3664,273.5
207.3941,83.2
207.479,324.9
207.5006,898.8
207.5323,219
207.5835,532.5
207.6559,147.1
207.6675,18.2
207.7844,305
207.9684,180.2
207.976,659.4
208.0183,2357.8
208.0253,195.9
208.0332,130.8
208.0555,954.7
208.2579,108.1
208.374,232.8
208.41,548.7
208.48,106.3
208.6725,19.1
208.7376,195.2
208.7552,109.6
208.8916,11070.6
208.9062,173.8
208.9361,620.1
208.9576,99.3
209.0129,1290.2
209.0442,18
209.0638,129.8
209.1105,886.7
209.1141,1039.5
209.222,162.8
209.3406,243.2
209.3469,95.8
209.3647,25.2
209.4125,874.8
209.4726,176.4
209.4859,20.7
209.5006,152.2
209.5885,124.7
209.7664,17.3
210.6808,91.4
210.741,341.5
210.772,208.3
210.85,18.7
210.8718,172.4
210.8884,465.3
210.9198,123.2
210.9442,639.3
211.0571,438.7
211.0696,1781.2
211.1851,3489.2
211.1876,3590.9
211.1954,20337.5
211.1977,25411.7
211.2007,28377.2
211.2039,30233.6
211.208,15715.5
211.2116,12933.7
211.2204,3786.4
211.358,179.2
211.4302,124.9
211.4778,223.6
211.8112,105.4
211.9569,375.8
212.0252,26.4
212.035,18.9
212.0746,74.8
212.1289,925.3
212.1361,199.7
212.178,103.2
212.3495,362.4
212.3635,718.9
212.4955,600.7
212.5078,175.2
212.6911,277.3
212.7242,639.6
212.8211,448.2
212.8396,1424.2
212.9242,135.3
212.9545,713.1
212.9715,242.9
212.9786,686.8
213.0308,446.6
213.0553,1149
213.0856,87.5
213.1866,118.6
213.2061,178.1
213.2133,195.8
213.2223,169.6
213.2423,330.7
213.2849,222.3
213.3968,20.7
213.4118,142.4
213.4441,18.9
213.5591,167.7
213.8227,423.9
213.9627,53.2
213.9852,476.5
214.0071,556.5
214.0105,319.4
214.0568,619.4
214.0595,2139.3
214.0688,436.6
214.0903,770.4
214.1024,243.3
214.1337,84.3
214.2271,74
214.2627,97.2
214.2795,766.9
214.3634,306.1
214.3697,1010.3
214.4094,82.3
214.4872,216.9
214.5133,284.5
214.6477,409
214.6522,882.2
214.7116,138
214.8367,2077.8
214.9182,145.2
215.0161,342.2
215.0345,308.6
215.0434,119.3
215.0939,28
215.1154,89.1
215.1625,526.3
215.2061,322.3
215.2443,689.9
215.3428,94.7
215.5466,380.3
215.5905,27
215.6051,395.4
215.6075,127.3
215.6255,376.4
215.658,85.8
215.676,23.9
215.7689,90.2
215.8492,692.3
215.9233,141.8
215.9386,506.7
215.9656,189.3
215.9863,178.3
216.0153,3754.2
216.0179,1426.4
216.0275,49.2
216.0861,21.4
216.0905,126.5
216.0966,815.6
216.1073,19.1
216.1327,122.8
216.2026,449.2
216.2297,170.4
216.2604,83.9
216.2723,591.8
216.3058,724.1
216.3396,73.4
216.3836,19.3
216.4073,169.4
216.4172,412.2
216.5362,526.2
216.5645,543.9
216.5996,256.1
216.6031,114.3
216.6246,122.8
216.7157,454.2
216.7327,101
216.7464,17.4
216.8575,256
216.9234,45409.6
216.9626,249.8
217.0186,119.6
217.0216,19.2
217.0565,376.8
217.1791,79.4
217.2094,681
217.213,184.3
217.2237,371.7
217.2485,285.4
217.2848,83.9
217.3623,418
217.4375,122.4
217.5145,90.1
217.587,167.9
217.6771,335.8
217.6985,1061.6
217.8081,89.6
217.8563,281.2
217.8713,133.9
217.9772,795.3
218.0158,27.7
218.0526,17.5
218.1105,542.6
218.1297,205.2
218.1522,69.1
218.4202,129.6
218.4445,179.8
218.5111,176.8
218.5447,166.8
218.5497,497
218.5599,633.9
218.6127,21.9
218.6287,541.6
218.6753,163.3
218.7407,19.6
218.8263,178.3
218.8541,163.3
218.8626,75.2
218.9205,13118
219.0181,3888.4
219.0272,1793976
219.0328,818.5
219.0347,710
219.0835,6968.8
219.0987,316
219.1318,147
219.1682,416.8
219.1725,23.1
219.1793,24.2
219.1978,110.5
219.2329,122.6
219.2568,81.9
219.3582,205.3
219.4078,315.4
219.4227,297.3
219.4396,1125.4
219.4546,131.5
219.5313,254
219.6425,561.8
219.7063,145.1
219.7316,151.3
219.8324,203.6
219.851,708.5
219.9138,167.4
219.9989,455.3
220.0179,117
220.0305,91838
220.0379,511.9
220.0593,178.9
220.0674,3558.9
220.0802,363.2
220.0948,122.8
220.1679,498.8
220.2186,383.4
220.2246,600.5
220.258,827.6
220.2703,495.8
220.2984,197.9
220.4178,132.9
220.4567,549.8
220.4944,20.8
220.4988,245.8
220.5031,616.2
220.5544,232.6
220.5698,219
220.7699,107.3
220.8498,75.4
220.9106,143
220.9348,22.1
221.0253,106383.3
221.0315,13137.1
221.0516,1668.5
221.085,210.8
221.0879,462.7
221.2194,179.6
221.2346,328.8
221.3115,255
221.3905,931.6
221.4075,577.8
221.4702,670.1
221.474,17.2
221.5436,17.6
221.6057,175.1
221.6942,985.8
221.727,25.4
221.7896,655.3
221.8983,126.4
221.9566,193.2
221.9644,165.1
221.9843,1535.2
222.0287,2893.5
222.067,426
222.2688,909.8
222.373,220.9
222.388,364.8
222.4856,736.4
222.5038,146
222.5053,148.4
222.5581,82.4
222.6409,977.8
222.6467,392.7
222.7484,161.8
222.7716,99.5
222.8686,14607.5
222.88,2161.6
222.8982,24.5
222.9713,23.8
222.9888,6087.1
223.0059,412.1
223.0274,81.7
223.0393,306.5
223.0645,698.6
223.1374,192.3
223.1474,115.8
223.159,90.6
223.371,80.6
223.5032,356.5
223.5102,207.3
223.612,846.5
223.6815,117.8
223.758,161.8
223.7707,169.6
223.8693,527.4
223.9537,81.9
223.9676,295.7
224.0748,377.8
224.2176,130
224.4103,20.4
224.4229,121.9
224.6753,87.4
224.679,871.6
224.7186,95.6
224.7448,104.4
224.8419,464.3
224.8654,6001.1
224.9291,22.3
224.9571,22.8
225.0359,339.8
225.0553,34792.1
225.0923,213.5
225.11,95.2
225.1298,20.4
225.3697,211.8
225.3893,117.5
225.4055,113.3
225.4606,20.2
225.4908,135.5
225.5055,101.2
225.8699,74.3
225.9359,339.2
225.9485,20.2
225.9529,26.6
225.9607,20.4
225.9808,146.2
226.0027,26.3
226.0069,2552.9
226.0249,5247.6
226.0458,5944
226.0591,148.2
226.0801,141.7
226.1503,161.2
226.1615,341.9
226.3096,85.1
226.4046,797.6
226.4085,227.2
226.5445,118.8
226.5887,662.7
226.6334,172.3
226.6377,591.5
226.7459,99.7
226.755,782.7
226.7848,86.4
226.8537,124.9
226.8757,372.2
226.9235,145.7
226.9521,27788
226.9765,368.2
227.0346,1680.9
227.0435,257.8
227.0796,921.8
227.087,157.3
227.162,614.4
227.2853,138.5
227.4354,85.8
227.5892,24.5
227.6526,23
227.7077,25.1
227.8914,218.3
227.9389,150.1
228.0009,279.5
228.0365,18.7
228.0818,75.4
228.1989,319.8
228.3045,134.5
228.3238,798.1
228.5196,409.2
228.537,126.7
228.5699,169.9
228.5874,1116.8
228.619,95.1
228.6698,272.3
228.7428,119.6
228.8376,526.7
228.8669,152.7
228.8749,368.6
228.8882,107
229.0163,183
229.1355,105.7
229.2133,353.3
229.257,312.2
229.3282,1160.1
229.336,154.3
229.3714,150.8
229.4312,86.8
229.4533,264.4
229.462,343.7
229.5891,325.5
229.6573,544.8
229.6787,865.8
229.7487,158.1
229.789,81.9
229.834,598.3
229.9591,855.4
230.0336,212.9
230.1105,193.1
230.1143,338.3
230.1473,19.9
230.7775,160.2
230.9648,287.3
230.9908,91.7
230.9949,77.6
231.0559,101.3
231.1058,516.4
231.1553,83.3
231.1662,99.9
231.1719,299.3
231.432,684.3
231.4516,206.2
231.5657,627.4
231.5733,156.5
231.6937,519.5
231.8255,272.7
231.8863,255.2
231.9958,363.2
232.1841,173.8
232.2214,303.9
232.2761,620.4
232.3511,104.1
232.3852,17.4
232.4902,372
232.6177,965.4
232.6227,361
232.6691,747.9
232.7443,280.8
232.7877,337.9
232.8974,31243.4
232.9289,22.5
232.9786,198
232.9799,202.2
233.0235,236.9
233.0309,103.5
233.0516,12841.1
233.0635,28.5
233.1133,101.4
233.1162,243.4
233.1692,23.6
233.5298,169.8
233.5976,950.9
233.8117,239.9
233.851,347
233.8789,22.3
233.9132,430.3
233.9681,28.9
234.2821,21.1
234.3453,338.6
234.4134,819.3
234.4975,687
234.5501,150.9
234.609,22.3
234.6361,147.4
234.6582,951.4
234.7794,111.2
234.8477,90.9
234.8519,141.8
234.8788,715.2
234.8943,6611.5
234.9007,694.5
234.92,243.2
234.9237,179.1
234.951,908.9
234.9822,5351.1
234.9902,396.7
235.0298,286.3
235.0575,1911.2
235.0674,3562.3
235.0932,16911
235.1446,133.3
235.1699,18.3
235.2436,167.7
235.2707,153.8
235.2856,407.7
235.371,301.6
235.4165,103.6
235.4734,385.2
235.5377,19.8
235.6315,90.2
235.6603,420.5
235.7279,141.9
235.7773,191.9
235.7877,299
235.8421,19.8
236.0171,127.9
236.0417,1265.5
236.0723,49284.2
236.0963,207.3
236.1169,341.3
236.1846,384.8
236.1965,376.6
236.2268,652.7
236.3731,740.2
236.4137,72.9
236.5747,355
236.6588,639
236.7152,242.8
236.914,647.2
236.9525,846.5
237.0133,365.4
237.0599,134.6
237.0756,1683.5
237.0877,818.4
237.1172,501.4
237.1964,591
237.241,117
237.3367,98.3
237.4218,81.3
237.6427,229.6
237.6595,337.4
237.7208,666.3
237.9641,18.6
237.9856,614.8
238.068,446.2
238.0797,17.6
238.2192,81.3
238.3727,738.1
238.3959,517.7
238.577,286.9
238.646,24.2
238.6985,102.6
238.7024,160.5
238.7423,21.2
238.7813,358.9
238.8341,108.4
238.8425,3878.8
238.8538,816.1
238.8627,275.8
238.8849,24.4
238.8985,166.9
238.9318,135.5
238.9501,19.8
239.0217,77.4
239.0508,433.2
239.0563,215.5
239.0646,287.5
239.0684,726.7
239.09,119.4
239.1381,328.9
239.1423,608.3
239.1467,521.5
239.1519,648.1
239.3034,108.6
239.3899,629.3
239.4046,111
239.4445,81.2
239.5166,81.2
239.5738,741.7
239.6196,608.7
239.8493,542.2
239.9382,217.3
239.9437,347.6
240.0177,19
240.0713,19
240.085,23.3
240.1006,1051.3
240.1269,661.9
240.1339,302.4
240.1381,125.4
240.1761,25.8
240.3184,176.1
240.3405,290.7
240.477,153.7
240.5016,118.9
240.5493,933.5
240.5935,129.5
240.5999,347.7
240.8392,1214.3
240.8736,670.2
240.9394,237.9
240.9554,960.9
240.9679,2300.8
240.9824,1110.9
241.032,932.2
241.0512,214
241.1119,615.7
241.1527,80.4
241.2836,593
241.3001,128.6
241.3161,296.2
241.4729,102.2
241.4921,521.5
241.597,211.6
241.6433,589.6
241.724,520.1
241.7496,17.5
241.7673,124.7
241.793,87.2
241.9434,951.3
241.9503,105.1
241.9801,69.1
242.0198,1316.2
242.0706,21.6
242.1686,128.7
242.4111,174.1
242.4678,669.6
242.7885,22.2
242.8009,219.3
242.8327,408.3
242.876,595.4
242.9262,13790.9
243.0067,23.6
243.0342,127.7
243.0535,456.9
243.0659,13617.1
243.3608,100.6
243.4721,179.4
243.5416,118.3
243.6418,92.8
243.7137,169
243.7619,351.7
243.8096,110.9
243.8253,601.7
243.8512,81.7
243.9276,301.9
243.9732,88.6
244.0132,304.5
244.0492,24.7
244.1176,20.4
244.1514,259.8
244.237,71.9
244.4201,308.8
244.4524,114.5
244.5138,19.7
244.6545,18.3
244.7866,89.7
244.8196,583
244.84,398.3
244.8713,4121.2
244.8745,577.3
244.8864,19.9
244.9138,115.3
244.9197,24.1
245.0065,24.2
245.0437,115
245.0599,780.8
245.1267,87
245.1354,585.3
245.142,270.1
245.19,97
245.362,191.6
245.4306,909.8
245.5532,88.4
245.6239,943.9
245.6774,196.1
245.7183,182.4
245.7445,584.6
245.769,288.8
245.7795,21.7
245.8356,18.8
245.9699,249.1
245.9849,105.9
246.0018,179.4
246.0113,91
246.1342,554.7
246.1567,449.7
246.1688,98
246.1956,855.1
246.344,486.6
246.347,85.8
246.5638,843.7
246.6652,335.8
246.7324,108.5
246.8222,273.1
246.8564,116.7
246.8681,749.4
246.8847,1048.4
246.9087,161.7
246.9309,24.8
247.0257,121.5
247.0374,293.3
247.0672,3368.6
247.0933,4749.2
247.1884,298.8
247.2198,21.3
247.2631,194.6
247.2667,76.2
247.2846,517.2
247.3246,109.6
247.3424,122.8
247.3541,180.6
247.8226,148.9
247.8957,23.4
247.9425,873.3
247.9886,830.6
247.9944,232.6
248.0329,278.6
248.0967,41.7
248.1161,244.8
248.1248,17071.5
248.2679,115.7
248.289,457.6
248.3022,673.8
248.307,272.7
248.3421,1092.8
248.4468,84.2
248.4568,109.8
248.4722,342.6
248.6049,132.3
248.685,303.9
248.8714,6699.4
248.9653,1123.2
248.9995,878.1
249.0165,1265.1
249.0619,10857.6
249.1592,566.1
249.1778,123.2
249.2199,670.7
249.2574,582
249.4408,238.5
249.5181,24
249.6801,114.4
249.7322,104.1
249.741,102.4
249.7699,118.1
249.8372,81.2
249.8501,248.4
249.8737,553.8
249.8819,237.4
249.9923,84.5
250.0518,21.9
250.0595,107.7
250.1559,294.2
250.4555,579
250.5751,341.4
250.7623,661.4
250.8686,786.4
250.9211,3798.3
250.9563,771.8
250.977,311.6
251.0011,121.3
251.0108,316.7
251.0155,222.7
251.0344,1626.9
251.0439,3759.6
251.0698,243.5
251.1209,297.5
251.1451,471.7
251.1649,132.1
251.2123,167.6
251.221,222.6
251.2561,125.9
251.449,104.2
251.5146,525.9
251.5264,363.8
251.5557,21.1
251.5756,399.7
251.5856,356.7
251.6094,80.5
251.6335,135.6
251.6379,279.1
251.6912,22.1
251.7515,373.9
251.7655,21.3
251.7766,280.1
251.8677,97.6
251.9207,140.7
251.9562,147.6
252.0357,856.6
252.0463,98961
252.0557,212.2
252.065,20
252.0705,119.4
252.2394,695.5
252.2782,84.5
252.2846,20.9
252.4115,294.8
252.4199,382.4
252.5783,236.3
252.9181,2152
252.9438,860.7
252.9582,134.8
252.9819,153.7
252.9979,54.3
253.0496,6558.5
253.0684,93.7
253.09,128.6
253.174,261.5
253.1993,171.4
253.2162,916.3
253.2823,18
253.3096,189.6
253.3143,121
253.4058,114.3
253.4611,216.8
253.5108,80.9
253.5519,385.7
253.6423,1123.2
253.7644,150.9
253.7983,199.9
253.8119,344.1
253.9009,699.8
253.9741,861.6
253.9992,221.1
254.0442,2611.3
254.1739,19
254.2907,645.1
254.3549,18.2
254.4478,512.6
254.5481,105.8
254.6083,312
254.6648,95.6
254.8246,7820.4
254.8928,120.4
254.9003,110.6
254.9974,25.8
255.011,238.6
255.0336,29176.5
255.0388,400.4
255.047,611
255.048,625.4
255.0965,842.3
255.1135,168.7
255.2974,94.2
255.4741,81.5
255.501,702.5
255.5173,81.8
255.5353,863.3
255.552,730.9
255.6868,204.5
255.7248,132.2
255.8044,145.1
255.8152,88.8
255.9316,895.6
255.9791,1269.6
256.0584,390.1
256.0897,105.4
256.098,82.4
256.1244,493.6
256.1308,361.8
256.346,143.9
256.3989,305.6
256.5254,391.4
256.6424,647.3
256.6932,161.1
256.7174,141.2
256.7876,23
256.8216,9058.5
256.898,28.7
256.9328,735.7
257.039,169.5
257.0493,9201.6
257.055,264.6
257.0654,766.4
257.0752,74580.1
257.1411,123.4
257.3217,17.4
257.3353,77.9
257.3944,620.1
257.5848,89.2
257.6438,399.3
257.7247,150.7
257.7959,1107
257.8255,105.4
257.8534,197.2
258.004,91.3
258.0281,46.1
258.0383,543.6
258.0696,164.2
258.0746,143.7
258.0786,2501.8
258.1108,21558.8
258.1372,648.9
258.1571,23.6
258.1824,335.2
258.1886,22.9
258.2593,23.7
258.3579,217.7
258.4001,397.6
258.4253,18.4
258.4702,202.3
258.523,428.9
258.6499,627.1
258.74,369.6
258.8186,5916.1
258.9009,724.4
258.9273,18.6
258.9343,425.6
258.9744,273.2
259.0233,159.6
259.0524,469.3
259.2812,110.3
259.3661,568
259.3716,652.6
259.4939,457.8
259.5143,1117.2
259.5333,140.5
259.6496,170.2
259.6572,119.3
259.6594,168.1
259.6604,168.1
259.7055,177.9
259.8228,245.8
259.8336,123.9
259.8584,225.1
259.9652,389.4
259.9855,217.1
260.1148,90.5
260.1417,180.5
260.1588,587.6
260.196,905.8
260.2959,145.3
260.3665,78.8
260.3729,406.6
260.587,145.2
260.6933,289
260.816,417.3
260.8453,1878
260.8641,732.3
260.8737,85.1
260.9498,13044.4
261.0144,672.2
261.0296,106.7
261.0468,684
261.0782,822.5
261.1509,240.3
261.2212,24
261.2876,18.8
261.4762,156.1
261.559,620.9
261.6413,19.7
261.7018,26.2
261.9214,774
261.9909,112.1
262.0575,21
262.0784,369.2
262.1617,322.6
262.3175,374.7
262.3257,25.6
262.3325,446.4
262.4262,316.7
262.4846,226.2
262.7268,81.3
262.8193,178.1
262.9471,2713.9
262.9799,689
263.0052,101.9
263.0858,2613.3
263.2034,400.3
263.2294,20.5
263.3852,102.7
263.4503,127.5
263.481,509.7
263.5773,88
263.6088,83.9
263.6944,289
263.8173,368.2
263.8353,25.8
263.8911,19.1
263.9144,572.2
263.9561,195.4
264.1948,94.3
264.2691,38
264.3677,166.6
264.3721,102.8
264.4683,387.8
264.5989,77.9
264.6958,374.7
264.713,105.7
264.7403,298.4
264.7838,20.1
264.8535,4760
264.8834,1213.8
264.9368,1294.4
265.0171,241.8
265.036,2425
265.0479,4869.9
265.0652,191.2
265.1569,996.7
265.1649,243.5
265.2065,91.8
265.3078,224.1
265.461,232.3
265.572,168
265.6031,933
265.6817,260.8
265.9632,196.6
265.9817,21.6
266.0567,748.1
266.2805,210.8
266.5164,156.3
266.6188,130.6
266.667,395.4
266.7362,1227.9
266.8505,5067.4
266.8949,3209.8
267.0145,501.8
267.0266,152.3
267.0472,139.1
267.0971,898.5
267.2194,123.3
267.2959,80.5
267.3042,400.5
267.3926,324.8
267.5634,237.2
267.6476,4781.8
267.6534,373.4
267.7203,151.9
267.7306,111.6
267.7908,536
267.8062,279.8
267.9218,280.1
267.9441,23
267.9493,109
268.0323,210.3
268.2388,246.3
268.3143,85.3
268.364,104.4
268.3716,141.5
268.4093,25
268.4331,141
268.5904,220.4
268.6118,106.9
268.7398,194.3
268.749,606.5
268.8476,1127.7
268.892,1908.7
268.9071,103.2
268.9555,94.6
269.0126,103.3
269.0325,690.7
269.0455,23786.6
269.0493,50957.1
269.0755,221.5
269.1405,23.3
269.2094,246.4
269.231,24
269.262,139.7
269.3823,22.8
269.4996,354.1
269.6389,588.3
269.7325,111.7
269.7646,173.8
269.7905,351
269.8828,976.7
270.0254,558.3
270.0479,31029.5
270.0528,241.8
270.0743,23.9
270.1454,1790.7
270.2301,275.1
270.3209,102.2
270.3684,81.3
270.3744,77.8
270.3805,83.7
270.4017,418.4
270.4781,206.5
270.5212,23.3
270.5857,154.8
270.5877,96.3
270.6304,550.1
270.7163,608.5
270.7633,155.2
270.7987,2349.5
270.9065,354.8
270.911,23.7
270.9167,611.8
270.9536,203
270.9786,19847.6
270.9934,151.4
271.025,236.5
271.0286,36.5
271.0319,342.3
271.0513,379.4
271.0649,119.2
271.0785,1376.7
271.0912,1187.1
271.1096,795
271.1288,965.7
271.1465,27.2
271.2084,176.9
271.2101,369.6
271.2115,326.8
271.2361,541.9
271.3844,138.6
271.4192,92.7
271.552,178.7
271.5857,334.9
271.5909,659.4
271.9655,439.5
272.0181,462.3
272.0435,125.5
272.0811,271.4
272.09,25.1
272.187,124.1
272.4123,18.9
272.4214,88.9
272.584,297.5
272.6154,133.7
272.6297,315.6
272.7337,654.2
272.7956,4346.8
272.8803,20
273.0164,487.5
273.0426,766.4
273.0493,6279.2
273.3245,454
273.4234,1000.3
273.4766,109.4
273.4871,95.5
273.5275,264
273.5537,173.9
273.6118,218.5
273.656,340.5
273.7511,175.2
273.7723,664.1
273.8537,118.6
273.9505,227.3
273.9624,97.6
273.9956,697.6
274.0285,126
274.0411,28.7
274.0697,138.2
274.093,2759.8
274.1925,738
274.235,509.1
274.2818,20.9
274.3068,446.1
274.4704,20.8
274.4974,114.8
274.5866,77.9
274.6212,806.9
274.6996,460.7
274.7861,350.6
274.793,2190.1
274.8018,666.4
274.9127,994.6
274.9656,1120.3
274.971,181.6
275.032,898.4
275.2057,155.9
275.2114,99.2
275.3307,25.2
275.3626,105.8
275.3923,641.2
275.5178,262.6
275.6358,23.4
275.7314,117.8
275.7843,616.6
275.7948,315.3
275.9007,730.3
275.9081,337.1
275.9404,914.7
276.0041,100.3
276.0652,19.6
276.0853,76.6
276.2171,527.6
276.2384,148
276.2767,289.3
276.3672,106.1
276.4235,158.9
276.5302,106.3
276.6944,291.5
276.7202,349.9
276.7897,415.3
276.8184,297.1
276.9238,8094.1
276.9868,1174.2
277.0717,123.6
277.1586,960.1
277.2079,17.6
277.2182,545.9
277.2931,961.1
277.3335,550.6
277.6414,119.2
277.7665,118
277.8911,88.7
278.0009,95.4
278.0197,458.7
278.0676,141.1
278.0915,332.5
278.2136,231.9
278.3899,109.1
278.488,17.8
278.5151,159.9
278.6926,201.6
278.8389,100.4
278.9118,118.7
278.9211,2154.1
279.0189,718.1
279.0573,48863.4
279.2116,399
279.2467,83.3
279.2531,561.2
279.2554,553.2
279.277,642.8
279.3641,120.8
279.4097,134.1
279.4314,431.7
279.7974,28
279.8158,117.5
279.8241,158.2
279.8336,728
279.8445,756.1
279.8567,295.4
279.8649,404.7
279.8677,349.1
279.8755,162.3
279.9552,230.4
279.9786,443.2
280.0166,227.6
280.0292,161.8
280.0603,523.7
280.0935,1892.8
280.1195,788.1
280.3349,22.4
280.4427,690.8
280.61,190
280.6159,1064.2
280.6393,999.4
280.6656,296.6
280.8275,2597.6
280.9002,81.3
280.9108,595.9
280.9632,463.9
281.0343,77
281.0522,68.7
281.223,898.9
281.3696,348.9
281.4178,332.3
281.4312,519.2
281.4492,17.8
281.4625,30.3
281.516,19.5
281.56,126.1
281.6187,243
281.6636,143.7
281.7936,118.9
281.8246,101.1
281.8634,85.6
282.004,133.1
282.0156,152.5
282.0566,91.3
282.0653,418.9
282.1385,20.5
282.3179,318.4
282.3778,981.6
282.4616,397.8
282.4875,641.8
282.5815,328.6
282.6857,149.2
282.8244,1348.8
283.0289,436.2
283.0675,377.7
283.0921,140.1
283.1779,103.2
283.265,21.7
283.3086,120
283.3653,124.8
283.7315,135.4
283.9402,495.2
283.9607,85.2
284.0522,70.8
284.0636,220.4
284.1224,872.7
284.1307,20.3
284.4148,408.9
284.5489,983.2
284.7807,650.6
284.8464,395.8
284.9054,119.9
284.9945,832.1
285.0093,122.1
285.0233,141.1
285.0402,77.6
285.0563,308.4
285.0671,22.8
285.0954,212.3
285.1242,4405.3
285.213,165.2
285.3162,227.2
285.3454,342.4
285.3965,79.8
285.4794,19
285.5761,1087.2
285.6279,173.2
285.7032,108
285.727,22.5
285.8081,24.2
285.9889,734.7
286.0073,353.2
286.0206,136.8
286.0502,20.5
286.097,118.5
286.224,953.3
286.2473,472.7
286.2679,211.4
286.3292,131.5
286.3883,121.7
286.5597,349.6
286.6726,108.6
286.7725,1343.4
286.7834,963.5
286.9527,6295.5
286.967,400.2
286.999,106.4
287.0075,783.4
287.0502,664.6
287.056,50568.8
287.0816,88.6
287.1394,1118
287.2281,978.6
287.2838,98.7
287.3574,1001.7
287.6298,643.6
287.6717,19.4
287.7801,625.8
287.8526,706.7
287.9525,372.6
288.0142,27.5
288.0261,485.1
288.0589,3166.5
288.0694,431.2
288.0855,124.2
288.1361,202.2
288.1564,9129.1
288.3292,1065.7
288.3443,253
288.4892,89
288.712,80.2
288.7696,1255.8
288.7821,396.3
288.8147,874.1
288.8223,2479.5
288.8389,5790.4
288.8428,5659.3
288.8455,5507.4
288.8561,14672.4
288.8614,15050.2
288.8675,17495.8
288.8724,20895.5
288.8781,21338.3
288.8866,24207.3
288.895,21538.5
288.8992,24031
288.9022,24132.4
288.9102,14089.1
288.9175,11346.4
288.9327,3850.1
288.9353,3249.3
288.9385,3165
288.94,3068.1
288.9465,1023.5
288.9534,519.5
288.9547,503.6
288.9668,1292.9
288.9961,30.8
289.0299,142.6
289.0628,380.1
289.1989,20.5
289.2123,122
289.2955,979.2
289.3053,123.5
289.3757,518.8
289.4251,80.4
289.5681,19.8
289.787,245.2
289.9407,232.9
289.9701,191.1
290.1015,66.7
290.106,80.9
290.3815,18.6
290.5009,103.7
290.5176,306.8
290.5434,179.6
290.679,20.3
290.7671,1115.8
290.7771,171.1
290.8559,453.6
290.8838,132.4
290.8948,164.8
290.9114,23.1
290.9395,1507.3
291.019,71.6
291.0274,4607.2
291.0499,109.8
291.1031,290.2
291.1885,853.5
291.1948,156
291.239,159.1
291.289,119.6
291.3157,337.2
291.3209,197.1
291.3509,750.8
291.4248,761.1
291.4496,230.7
291.5761,714.4
291.6008,170.2
291.6215,510.5
291.6516,327.7
291.6811,142.9
291.8273,525.7
292.0803,154.2
292.1033,1308.2
292.3073,131.8
292.3757,200.9
292.504,387.9
292.8149,153.6
292.8516,564.6
292.8841,85.8
292.898,1350.8
292.9413,887.4
292.985,168.6
293.0654,205
293.0731,4548.2
293.0989,367715.8
293.111,116.4
293.1797,10909.5
293.3945,21.4
293.4175,109.6
293.5482,744.3
293.554,154.6
293.7052,1025.2
293.8442,579.6
293.8553,366.5
293.8676,17.9
293.9179,341.1
294.0093,673.1
294.0187,625.1
294.096,206.4
294.1023,34139.7
294.1831,1177.8
294.2132,130.6
294.6817,174.2
294.7552,115.4
294.7994,208.6
294.845,1109.5
294.8996,1007.9
294.9362,428.3
294.9913,512.2
295.0271,372.9
295.0308,814.6
295.0603,101
295.0709,398.7
295.1031,1231.7
295.1953,44980.7
295.2289,310.1
295.7066,23.7
295.7178,169
295.8063,125
295.8258,366.6
295.9062,82.4
296.0322,159.2
296.0476,101.5
296.0736,87.6
296.1988,2504.5
296.3337,291.5
296.4792,282.9
296.5511,631.2
296.559,900.2
296.6769,139.6
296.8124,512.6
296.8583,548.7
296.8669,18.4
296.936,119.6
296.9883,267.1
297.1241,795.2
297.1585,675.6
297.1913,104.1
297.2997,108.5
297.3356,19.1
297.5459,17.8
297.6293,99.3
297.7122,436.4
297.7512,122.1
297.8995,22.2
297.9209,577.7
297.9909,18.6
298.004,95.7
298.043,20836
298.0898,149.7
298.1021,164.1
298.1905,426.6
298.3089,73.7
298.3484,651.2
298.4502,101.9
298.4786,141.1
298.6317,111
298.6365,194.3
298.696,18.2
298.705,180.6
298.7397,132.2
298.9871,188.8
299.0237,1794.2
299.0463,673.1
299.1399,9582.8
299.1968,4366.6
299.2836,91.1
299.4017,21.5
299.4931,240.7
299.6549,1179.8
299.6787,775.4
299.7918,609.6
299.913,303.4
300.0047,878.2
300.012,146
300.039,204.2
300.076,502.1
300.0824,87.8
300.1928,116
300.1963,47.4
300.2321,554.2
300.2572,97.2
300.2845,1088.7
300.3833,87.6
300.4384,338.3
300.6359,544.9
300.6489,310.6
300.6958,229
300.7139,101.4
300.8249,1070.2
300.8906,421.3
301.0393,29506.4
301.0764,32.1
301.1013,218.6
301.1121,122.7
301.1269,18
301.142,220.3
301.2123,8681.1
301.4846,17.8
301.5628,111.8
301.6842,107.7
301.7235,129.1
301.9945,85.3
302.0204,71.6
302.0307,101.2
302.0355,69.5
302.0647,4977.9
302.0735,69.7
302.1886,173.6
302.2031,891.2
302.2787,491.9
302.3005,262.9
302.316,171
302.3941,184.7
302.4184,410.1
302.5157,248.9
302.6512,123.1
302.6808,1207.8
302.6975,1288.2
302.8303,2198.6
302.9367,22.9
302.9439,595.7
302.9586,343
303.0007,596.3
303.0167,18.1
303.0245,1082.2
303.068,435.6
303.0764,405.6
303.0855,86.6
303.1476,761.1
303.1889,175.8
303.2176,634.4
303.2228,231.6
303.246,147.2
303.3396,1033.2
303.405,151.1
303.7041,790.1
303.9936,302
304.0183,126.4
304.0502,1006.7
304.0605,195.8
304.3706,1039.1
304.7049,169.3
304.9762,1868.7
304.9804,568.1
305.0413,325.3
305.1531,173.8
305.2334,4970.8
305.2455,1083.9
305.5195,156.4
305.6356,561.9
305.6468,124.3
305.9487,618.9
306.0198,130.4
306.096,77.9
306.4506,470.5
306.4586,104.2
306.4829,641.8
306.5394,163
306.7177,582.2
306.9584,595
306.9783,2282.3
306.9853,197.5
307.0509,430.1
307.1857,295.6
307.2066,19.6
307.3573,694.1
307.5666,358
307.6937,835.4
307.8021,185.8
307.8572,73.9
307.9686,72.8
308.0691,22.9
308.1573,513.9
308.4417,938.9
308.5376,442.3
308.558,101.8
308.6448,347.3
308.8328,275.8
308.8799,5772.1
308.9323,777.2
308.9554,506.4
308.9681,427.9
309.0075,452.3
309.0182,221.1
309.0382,5834.5
309.2765,148.4
309.3259,244.1
309.3316,196.6
309.3944,99.3
309.4094,1153.8
309.4435,231
309.538,79.4
309.6542,192.2
309.7694,112.6
309.7785,81.1
309.9616,129.3
310.3385,102.6
310.3519,20.6
310.3625,113.3
310.4244,287.6
310.6809,251.2
310.7457,111.7
310.8314,184.5
310.837,334.5
310.8768,2599.6
310.9052,1032.7
311.004,209.3
311.0212,19.7
311.0924,408.2
311.1402,292.5
311.2034,681.6
311.2588,976.5
311.7845,775
311.8949,78.3
312.0051,81
312.0414,1017.1
312.0927,284.2
312.1228,232.6
312.1599,160.6
312.2758,775.6
312.3164,141.4
312.365,1338.1
312.6502,129.8
312.8739,668
312.9128,737.2
312.9439,230.8
313.0024,90.7
313.1614,412.5
313.2748,67182.5
313.302,365.6
313.4293,26.4
313.4423,738.9
313.624,107.5
314.0154,217.1
314.0916,223.1
314.188,717.2
314.2782,10659.6
314.2861,177.6
314.3456,428.7
314.4955,111
314.5184,357.3
314.5463,96.9
314.64,270.3
314.6737,21.5
314.7435,413.8
314.775,92
314.7806,543.6
314.8376,6130.9
314.8561,402.3
314.9201,158.9
314.9997,6625.9
315.0048,1939.1
315.0314,107
315.0332,119.7
315.0349,114.2
315.0397,173.8
315.0437,179.4
315.0561,10908.7
315.0608,4154.4
315.0632,5899.2
315.0671,23213.9
315.0702,28322.8
315.0717,19309.6
315.0809,8880477
315.0889,19438.4
315.0912,18156.3
315.0932,11100.7
315.0954,8933.3
315.0973,7346.8
315.1051,4246.7
315.1112,1564.5
315.1133,1226.6
315.1152,1120.4
315.1218,280.8
315.1236,238.2
315.1326,193.8
315.162,6407.1
315.2296,537.6
315.2434,183
315.2601,310.7
315.3245,8355.5
315.3829,83.6
315.4868,503.6
315.4956,133.6
315.5803,157.3
315.6127,119.3
315.6201,1277.1
315.6352,212.8
315.8004,397.7
316.0533,70.1
316.0697,1579.5
316.0784,52641.5
316.0842,929084.5
316.1129,494.2
316.1344,92.1
316.196,152.5
316.2113,92.2
316.2487,697.8
316.2979,233.5
316.3966,79.1
316.6082,314.6
316.6251,208
316.7043,121
316.7067,103.1
316.7088,97
316.889,697.1
316.9134,391
316.9878,1150.5
317.025,663.2
317.0569,899.9
317.0657,2155.7
317.0848,107318.4
317.1491,388.6
317.1795,2061.3
317.2355,435.6
317.2486,283.5
317.2943,268.7
317.3445,135
317.3968,368.5
317.448,383.2
317.5092,683.2
317.5567,18.2
317.5825,22.6
317.6242,1217.9
317.7188,344
317.7686,165.1
317.8863,102.6
317.8943,178.4
317.9198,568.1
318.0884,10462.1
318.0954,91.3
318.3085,662.3
318.425,322.9
318.6207,209.2
318.7601,841
318.8045,653.9
318.8185,376.8
318.9028,875.5
318.9079,1151.7
319.0638,647.8
319.088,204.7
319.1259,334.3
319.1351,1068.9
319.168,157.2
319.1954,53206.5
319.4826,163.2
319.626,199.8
319.6328,103
319.7091,528.2
319.8054,114.2
319.8409,312.9
319.8467,87.5
319.9586,160.7
320.0125,184.5
320.0754,194
320.1227,117.8
320.1987,8340.3
320.2196,103.1
320.2595,2043.8
320.2744,96.3
320.5593,17.3
320.6048,161.5
320.7654,81.2
320.9206,289.3
320.9502,542.6
320.9546,142.6
320.9889,347.7
321.211,125912.1
321.2627,115.2
321.6674,180.8
321.7591,214
321.8113,188.3
321.9424,707
321.9936,83.6
322.0096,202.3
322.0199,166.9
322.073,173
322.1655,155
322.2144,17904.6
322.3554,362.8
322.3812,446.7
322.6405,111
322.691,79.1
322.8124,590.9
322.8962,343.5
322.9227,577.6
322.9372,117.4
322.9568,129.9
323.0137,26
323.0213,11157
323.0358,21.6
323.2263,4645.3
323.3044,212.2
323.5881,241.3
323.6142,93.9
323.6753,254.6
323.7067,207
324.0027,175.8
324.0064,143
324.5409,155.6
324.5914,2538.9
324.5946,2322.3
324.5985,2633.8
324.606,3258.5
324.6102,3950.3
324.6186,1277.5
324.6268,690
324.634,136
324.6362,138.2
324.6422,493.8
324.6522,182.8
324.6852,199.5
324.7478,359.8
324.8094,917.8
324.854,2970.5
324.9251,142.2
325.0028,911
325.07,1206.7
325.1833,90.2
325.2034,763
325.2125,17702
325.2529,93.2
325.3372,91.7
325.4093,509.6
325.5181,133.4
325.6353,86
325.7011,432.6
325.7562,19.3
326.0084,1093.2
326.2162,1746.9
326.2252,404.1
326.2771,183.1
326.5241,526
326.5475,17.3
326.5627,16.9
326.6464,23.2
326.711,107.1
326.7787,353.2
326.851,3048.4
326.9808,550.8
327.016,2815.1
327.0522,1333.3
327.0748,945.1
327.1352,637.4
327.2183,525.4
327.228,52863.3
327.2592,516.8
327.2672,677.5
327.2879,137.7
327.3279,161.6
327.3945,138.7
327.5789,102.9
327.5889,154.1
327.7682,24.5
328.1291,764.1
328.2315,7334.2
328.3846,232.4
328.4182,147
328.4269,498
328.4289,524.7
328.4345,1666.1
328.4455,290.2
328.4493,390.6
328.4523,308.9
328.4567,426.4
328.6363,20.2
328.6878,95.3
328.7328,660.9
328.9796,337
328.9994,307.1
329.0068,402.3
329.0966,1525.3
329.1815,572.5
329.3002,99.9
329.3143,184.9
329.3511,605
329.4362,75.8
329.5862,97.3
329.6658,118.2
329.9425,910.3
330.0595,173.7
330.0694,19.5
330.1257,185.5
330.2204,109.4
330.2635,117
330.3145,174.9
330.4103,17.1
330.4321,305
330.5785,312
330.6105,76.2
330.7545,370.3
330.8389,656.6
330.9009,159.1
330.9592,575.8
331.0202,1634.4
331.0461,158494
331.0549,1094492
331.0944,1028
331.1377,124.2
331.1441,108.5
331.2147,173.5
331.2915,117.8
331.6208,646.1
331.8822,669.1
331.9574,17.4
331.9922,379.9
332.0146,569.6
332.0489,11133
332.0583,100180.3
332.0923,101
332.0964,690.7
332.2964,17.6
332.3604,109.3
332.4103,18.7
332.4979,18.4
332.6161,119.6
332.6266,268.9
332.6867,174.9
332.9669,19.6
333.0046,819
333.0531,64970.6
333.0585,11514.4
333.2067,583.4
333.2308,269.4
333.2479,569.1
333.5296,121.6
333.7184,147.2
333.9359,150.6
333.9533,220.5
333.9992,362
334.0564,5201.1
334.091,80.8
334.1555,24.7
334.2982,169.3
334.5834,914.1
334.7523,137.2
334.7754,613.9
334.9168,307.3
335.0388,797.5
335.1095,144.8
335.1294,176.6
335.1993,155.1
335.7221,417.5
335.7811,252
335.8771,21.4
336.0861,644.2
336.2078,154
336.3978,619.7
336.4584,194.9
336.6508,281.4
336.8216,81.7
336.8576,447.1
337.0371,16302.6
337.0505,29463.7
337.0629,853938.8
337.1272,127.1
337.1449,352.8
337.275,10651.2
337.4292,984.5
337.4978,79
337.6507,789.3
337.7173,768.1
337.7948,884.9
338.0406,489.1
338.0506,971.1
338.0663,74623.7
338.2777,1042.5
338.405,1010.7
338.4336,196.5
338.4594,78.9
338.9484,667.1
339.0148,176.4
339.0392,3263.4
339.048,2238
339.0668,7132.6
339.253,528.7
339.2905,11989.8
339.4042,119.2
339.5741,171.2
339.9951,100.3
340.0687,86
340.2839,307.1
340.2942,848.1
340.5022,79.6
340.6423,106.5
340.6732,23.9
340.75,135.2
340.7816,412.1
340.8003,684.3
340.8299,659.8
340.8833,24.5
340.9326,128.1
341.0281,156
341.0501,545.1
341.1868,858.5
341.2014,153.4
341.3061,3114.1
341.3618,18.7
341.4378,554.2
341.4654,654.5
341.5651,346.2
341.6514,100.5
341.9393,395.2
341.9508,20
342.0165,21
342.0309,959.2
342.0693,42.1
342.1409,22.9
342.3061,337.8
342.3302,19.3
342.3588,82.3
342.7175,751.1
342.7281,791
342.9358,100.1
342.9894,773.3
343.1955,23412.8
343.2021,2002.2
343.6029,22.9
343.8913,81
343.9577,810
344.0212,854.8
344.0237,1074.9
344.0676,20.6
344.083,1051.3
344.199,1172.9
344.2329,101.9
344.2476,545.5
344.2659,430.3
344.4419,217.3
344.4628,20.5
344.5614,215.2
344.8732,665.4
344.9485,400
345.0621,110
345.076,101.2
345.2108,2081
345.3245,268.9
345.3477,24.7
345.6987,25.1
345.7471,312.1
345.7583,170.2
345.849,186.8
345.8523,394.1
345.9848,2475.3
346.0107,45.4
346.1243,446.2
346.2464,126.9
346.3123,106.8
346.3599,85.1
346.462,87.3
346.5084,18.4
346.5343,264.2
346.6848,488.6
346.7036,25.2
346.7607,1174.5
346.7838,115.9
346.8571,343.7
346.9762,957.2
347.0473,24.4
347.0629,147.1
347.127,316.8
347.1441,19.1
347.1754,128.2
347.2963,23.6
347.3967,129.8
347.4021,282
347.5862,204.2
347.6473,223.1
347.7257,111.6
347.7278,112
348.3175,263.8
348.6025,968.4
348.7654,610.2
348.8145,451.5
348.8578,440.1
348.8693,90.7
348.8864,202
348.923,974.4
348.9709,19.2
349.0329,261.7
349.2128,978
349.2424,760.3
349.4374,665.4
349.4623,620.6
349.4697,91.8
349.6788,167.1
349.8047,180.5
349.841,413.9
349.9852,104.1
350.0056,22.7
350.0196,1327.4
350.0243,184.3
350.0534,141.9
350.1213,619.7
350.2104,160.1
350.29,95
350.3696,313.5
350.4051,148.5
350.4657,78.6
350.4817,783.9
350.5131,471.7
350.572,425.6
350.6094,355.5
350.8992,946.5
350.9142,226.5
351.2677,17.7
351.3008,26.6
351.3647,258.7
351.5031,20.5
351.5152,87.2
351.6124,211.4
351.7006,587.2
352.0021,107.5
352.0329,337.4
352.0396,19.9
352.183,159.7
352.5317,519.7
352.5893,114
352.6612,320.4
352.8001,114.6
352.8114,154.6
352.8814,85
352.8837,101.4
352.887,68.4
352.897,758.8
353.028,197589
353.0369,233338.3
353.0793,152.8
353.2671,2066.4
353.2773,74.6
353.3323,434.8
353.3601,347.5
353.4428,98.9
353.4917,579.5
353.5048,459.8
353.8079,267.2
354.0246,182.4
354.0312,16005.2
354.0402,22386.5
354.2564,305.9
354.4346,121.1
354.6138,515.2
354.6431,282.1
354.9598,159
355.0127,2069.5
355.0352,13804.2
355.0707,485.6
355.1022,121.2
355.158,924.3
355.1945,243.3
355.4229,330.4
355.5968,21.6
355.7316,987.6
355.7971,190.9
355.8289,120.2
355.8536,107.3
355.8909,852.8
355.9162,82
356.0158,106.7
356.043,984.6
356.099,292
356.1147,188.4
356.1319,519.9
356.2398,314.2
356.3396,323.2
356.3486,988.7
356.6096,78.9
356.6878,273.9
356.8972,105.9
357.0095,908.8
357.0211,692
357.0666,19
357.1864,609.1
357.2726,355.1
357.2987,206.5
357.6085,606.9
357.6145,174.6
357.6277,243.1
357.6355,137.2
357.7556,730.9
357.979,27.2
358.0114,50.5
358.0227,20.1
358.1519,73.8
358.358,302
358.3773,320
358.5163,702.6
358.6295,26.8
358.8231,962.8
358.8536,804.1
359.0084,620.5
359.0325,21337.8
359.045,544519.9
359.1575,327
359.2237,133.9
359.3411,321.9
359.3767,272.7
359.3842,82
359.4055,361.1
359.4172,195.7
359.4436,142.9
359.4566,1083.1
359.4637,1069.6
359.4841,159.9
359.4969,1122
359.4998,1112.6
359.5047,1134.7
359.5172,371.8
359.5252,720.4
359.5406,73.9
359.5548,161.1
359.5908,90.6
359.609,743.1
359.6264,693.5
359.6691,378
359.6793,1049.5
359.7516,123.9
359.8276,143.1
359.921,201
359.9851,275.7
359.9896,254.1
360.011,26.9
360.0368,217.5
360.0483,47899.3
360.0785,748.1
360.296,483.8
360.3245,635.6
360.6108,342.1
361.014,1061.3
361.0212,7949.3
361.0322,983.6
361.0488,2372.6
361.1953,695.4
361.2752,3965.8
361.3014,112.6
361.3788,154.4
361.7287,19.7
361.7912,107.3
361.8534,223
361.8767,442.1
361.9428,766.5
361.9587,122.9
362.0655,77.1
362.1051,585.3
362.2056,256
362.2823,356.6
362.3157,306.1
362.3715,148.2
362.4282,224
362.579,118.1
362.6629,168
362.6908,293.1
362.871,76.9
362.8859,133.6
363.0945,260.9
363.2439,230.7
363.4513,27
363.501,179.8
363.9843,883.9
364.1978,480.6
364.4929,112.2
364.698,83.6
364.7618,282.1
364.8547,789
365.1068,1226.3
365.1785,200.7
365.2061,145.5
365.2367,104.3
365.2804,20.6
365.5179,121.2
365.6077,133.1
365.7628,1028.5
365.8289,879.9
365.9783,120.8
366.0598,1781.3
366.2337,77.2
366.359,20.4
366.7892,927.8
366.8677,695.3
366.9624,29
367.0851,176.3
367.1213,1127.5
367.1955,4043.1
367.2067,324.4
367.2444,383.5
367.5418,147.6
367.5744,366.5
367.5882,21.7
367.6566,251.3
368.0254,127.2
368.064,687.9
368.1154,162.6
368.1722,719.7
368.1991,123.4
368.9164,959.5
368.993,3245.5
369.0019,19749.6
369.0109,8037.7
369.0931,426.5
369.2416,1384
369.28,343.8
369.3033,143
369.3531,257.4
369.4108,208.2
369.5715,86.3
369.5903,105
369.6483,233.2
369.828,231.6
369.9396,141.6
369.9453,18.6
370.0077,500.9
370.0395,947.9
370.0466,129.4
370.2566,709.2
370.2932,186.1
370.5756,128.4
371.0101,126.1
371.1338,367.9
371.2292,600.2
371.4676,132.5
371.5268,960.5
372.0165,277.6
372.0678,4922.7
372.4254,860.1
372.4379,373.9
372.5656,818.5
372.7374,763.6
372.8193,99.1
373.0002,294.6
373.1121,178.2
373.2069,533.5
373.2139,754.5
373.5333,819.5
373.6923,23.5
373.7023,148.4
373.7288,114.8
373.804,124.7
373.8786,153.5
373.9873,19.7
374.0257,393.8
374.0647,176.6
374.1393,110.8
374.6023,342.3
374.6201,257.3
374.8477,85.2
374.9279,411.2
375.01,187902.3
375.0189,132819
375.0481,122.1
375.0796,158.5
375.256,18.2
375.6778,98.4
375.6849,243.6
375.8355,111.5
375.8662,184.6
376.0133,15004.9
376.0223,11668
376.1991,19.5
376.3671,778.2
376.5764,220.5
376.8476,86.4
376.9555,334.8
376.9949,2402.5
377.0173,5861.2
377.0373,74.7
377.0675,331.1
377.0777,176.9
377.0853,239.9
377.095,702.4
377.2154,21.3
377.2675,5026.6
377.6737,79.8
377.7891,18.1
377.9909,283.1
378.1042,121.1
378.1786,18.5
378.2065,164.7
378.3361,363.7
378.3746,768.4
378.6115,94.6
378.768,877.1
378.9057,18.9
378.9271,233.6
378.9503,140.4
378.9651,312.9
378.9915,73.5
379.0037,109.4
379.0525,202.9
379.1446,207.4
379.2831,49475.9
379.3389,24.4
379.3762,445.5
379.4336,18.7
379.7064,413.7
379.7877,99.5
379.8284,117.3
379.8364,332.3
380.0548,405.6
380.2864,9283.7
380.5088,829.3
380.5993,552.5
380.749,224.9
380.7713,500.1
380.8452,117.5
380.9907,85.1
381.0146,29536.4
381.027,297284.1
381.1507,119.9
381.163,163.3
381.229,16
381.3598,237.8
381.4535,144.8
381.6072,280.7
381.7574,162.9
381.8635,892.6
381.908,180.3
381.9494,383
381.9983,115.3
382.0158,199.4
382.0303,25983
382.0796,22
382.3122,357.1
382.5468,380.1
382.577,134.8
382.7423,129.9
382.768,727.3
382.8884,368.1
382.9748,746.5
383.0124,577.2
383.0315,407.3
383.0778,105.7
383.1041,126.6
383.1172,391678.4
383.3118,315.9
383.3458,350.9
383.4323,155.8
383.5135,100.8
383.8085,89.1
383.8692,301.7
383.9091,498.7
383.9535,131.9
384.0055,18.2
384.029,191.1
384.0725,887
384.0909,98.6
384.1205,44993.9
384.1834,18.4
384.4346,238.7
384.7648,1160.3
384.9108,294.9
385.0327,133.5
385.1232,1936.6
385.2152,21.7
385.2619,546.4
385.3185,105.8
385.3889,483.4
385.408,876.7
385.5092,186.2
385.7222,79.6
385.7305,182.2
385.9007,339.2
386.053,612.6
386.1352,326
386.3002,83.6
386.4072,135.6
386.7632,383.8
386.9259,205.1
387.0034,2387.5
387.0619,372.8
387.1486,948.8
387.4956,106.8
387.5579,124.7
387.5951,459.5
387.9031,192.3
387.9635,871.2
388.0419,962
388.0715,269.6
388.2003,179.3
388.6755,268
388.7131,612.7
388.7216,436
389.2112,775.1
389.4969,119.3
389.5563,96.8
389.7724,142.8
389.8576,356.9
389.9074,25.9
389.9297,116.5
389.9508,698.2
389.9746,2156.6
390.1871,29.9
390.4327,291
390.4686,620.8
390.4971,19.8
390.5457,93.8
390.6881,22
390.7102,438.7
390.7899,76
390.7998,1158.7
390.8648,473.8
390.8743,149
390.975,11951.7
390.984,24342.2
390.9929,11793.3
391.2491,580.8
391.2595,108.9
391.5314,156
391.9389,161.8
391.9966,371.9
392.1845,147
392.1964,18.9
392.2065,151.4
392.2091,152.1
392.2973,169.9
392.3451,344.4
392.6689,352.4
392.7968,2136.8
392.96,23.2
392.9675,77.3
393.2423,2583.3
393.4315,25.2
393.5301,515.9
393.7473,405.7
393.809,186.7
394.0523,550.1
394.0933,23.6
394.157,654.7
394.2265,24.5
394.2516,153.5
394.2698,180.5
394.522,803
394.5357,104.6
394.5541,75.3
394.602,116.6
394.7937,465.2
394.9929,24
395.2382,711.2
395.257,18565.9
395.3136,281.3
395.7402,114.9
395.9409,298
396.1011,99.8
396.261,839.6
396.2787,313.4
396.5365,109.1
396.7457,408.3
396.807,83.2
396.8705,115
396.891,102.4
396.9185,139.8
396.9921,219408.3
397.0009,80017.7
397.0415,20.7
397.2982,17.8
397.3833,92.3
397.5672,21.9
397.734,19.5
397.9058,284.2
397.9952,17255.1
398.004,4009.1
398.0327,81.2
398.0458,327.4
398.1136,680
398.243,10056
398.3675,354.6
398.3862,187.7
398.4629,106.9
398.5007,26.8
398.5965,168.1
398.6545,673.3
398.7417,1315.8
398.7626,4461.4
398.7901,169
398.8559,93.8
398.9099,120.9
398.9761,249
398.9997,761.5
399.1281,100.7
399.1425,386.8
399.2467,461.2
399.2643,1111.3
399.3943,784.7
399.6046,239.4
399.7704,2675.9
399.8284,189.3
399.8478,153.4
399.9894,486.5
400.0433,126.9
400.273,1313.1
400.3297,17.9
400.6741,323.7
400.7397,502.9
400.828,1079.4
400.8381,285.1
400.9848,828.2
400.9963,90.9
401.1805,521
401.2476,112.4
401.346,746.8
401.4288,25.1
401.5031,1026.5
401.789,188.7
401.8323,248.9
401.8456,357.3
402.0322,18.5
402.5454,223
402.685,667.9
403.009,277574.4
403.1913,296.7
403.3018,22.2
403.3403,109
403.4862,21
403.5231,107.2
403.7772,90.8
404.0122,22869.8
404.0407,164.2
404.1129,528.8
404.1486,20.3
404.4164,114.5
404.687,520.4
404.8849,337.1
405.0129,751.7
405.3445,170.1
405.3974,160
405.4101,787
405.7025,175.3
405.8736,456
405.9241,347.9
405.9484,723.4
406.2867,1115.9
406.3305,1324.9
406.4619,1224.6
406.7736,768.9
406.9856,470
407.061,306.4
407.092,255.7
407.3059,96.6
407.3337,219.7
407.7784,990.3
407.833,71.9
407.8661,1046.2
407.953,400.8
407.9687,659.7
408.0225,75.1
408.3083,1089
408.4433,18.8
408.5437,369
408.7704,790.9
408.9646,97.4
408.9851,4322.3
409.0842,124.4
409.1997,327.3
409.231,158.4
409.3308,526.7
409.7528,87.8
410.3231,128.1
410.444,21.6
410.4755,172.5
410.5853,191.2
410.6027,848.4
410.6856,739.6
410.7633,3541.3
410.8756,920.2
410.9035,199.8
410.9702,125.1
411.2395,266.6
411.2649,589.8
411.291,118.3
411.4961,893.7
411.5497,102.4
411.805,119.4
411.8868,1099.2
411.9264,99.2
412.0136,676.2
412.2017,264
412.2696,80.7
412.322,1359.8
412.4387,391.5
412.554,161.5
412.5713,109
412.6559,129
412.7667,139.1
412.8548,137
412.9069,88.6
412.9661,30423.1
412.9749,11238.5
413.1076,118.9
413.1397,134.2
413.1883,121.8
413.2676,6390.6
413.3255,100.4
413.3323,182
413.3982,179.5
413.5216,25.8
413.5722,251
413.6138,79.3
413.7805,658
413.9109,880
413.9282,779.4
413.9404,331.8
413.9707,1150.2
414.2352,192
414.2713,376.6
414.3301,153.4
414.3324,146.9
414.3587,108.8
414.3891,481.4
414.4854,382
414.6654,21.6
414.7174,20.9
414.8325,129.1
414.9446,84.5
414.9722,214.6
414.9989,2338.1
415.0654,176.1
415.2127,111.9
415.2239,2451
415.2838,1603
415.4359,187.3
415.6724,257.9
415.8314,17.4
415.9786,846.8
416.0398,381.8
416.136,16274.1
416.2151,29092.8
416.5314,833.3
416.6456,317.2
416.7698,389.1
416.8026,982.6
416.8304,19.6
416.8656,186.8
416.9108,269.5
416.9193,101
417.1388,638.9
417.2179,2297.6
417.3878,394
417.7494,81.8
417.9715,1011.9
418.0432,155.8
418.2204,591
418.279,21.6
418.6218,91.5
418.983,83789.4
419.1572,363.3
419.1718,165.4
419.1951,21.2
419.2226,401.1
419.2404,113.5
419.7688,261.1
419.7812,407
419.9863,5209.4
420.2051,101.8
420.3266,115.7
420.5759,631.9
420.7084,381
420.7336,199.6
420.753,118.8
420.7698,24.8
420.9129,84
420.9592,338.2
420.9814,2639.8
421.0249,144.4
421.2119,222.8
421.6039,306.3
421.6168,644.4
421.8795,92.7
422.0062,238.6
422.2071,960.2
422.2256,19.2
422.3516,387.1
422.6414,86.2
422.7483,440.6
422.9503,369.5
423.0691,166.7
423.09,638.4
423.1714,112.6
423.5023,22.2
423.512,19.9
423.585,1131.7
423.6021,205.2
423.6364,110
423.6799,958.1
423.6968,244
423.7758,239.6
424.3212,27.4
424.4508,369.3
424.5367,99.9
424.5863,111.5
424.6052,822.1
424.7288,333
424.8075,260.3
424.832,229.1
424.859,199.4
424.9029,815.7
424.9544,691
425.0722,1082.9
425.2138,198.5
425.504,125
425.7697,966.9
426.1286,692
426.1435,137.2
426.2414,270.3
426.2934,86.9
426.3598,1095.4
426.3925,348.8
426.5537,270.4
426.7352,220.1
426.7448,112.4
426.8112,96.3
426.8852,81
427.0738,82.9
427.159,1134.8
427.1783,321.9
427.3835,563.1
427.4172,83.1
428.0353,136
428.155,291.7
428.1818,138.3
428.2325,240.5
428.3158,111.9
428.3343,615.3
428.5336,18
428.7913,343
428.9322,719.8
428.9407,1790.2
428.9633,104.7
428.9811,356.3
428.9904,1228.5
429.0128,828.1
429.0208,106.1
429.0316,992
429.0897,191.4
429.223,139.3
429.2415,27.4
429.3236,641.5
429.5275,137
429.7548,383.4
429.9189,238
430.0486,80
430.0894,35.5
430.2135,21.3
430.2446,92.7
430.4109,140.6
430.6974,395.5
430.9255,74.4
430.9919,291
431.1975,193.3
431.2179,5876.7
431.2776,99.2
431.3211,366.2
431.3514,228.8
431.3897,120.2
431.4916,343
431.5656,22
431.6796,236.2
432.5143,122.2
432.6439,292.2
432.9497,542.5
432.9547,448
432.9698,308.9
433.1699,1105.9
433.1892,19.6
433.573,141.9
433.6528,124.7
433.68,826.1
433.9346,186.7
433.9743,147.6
433.9974,368.2
434.028,91
434.1593,116.6
434.6038,261.9
434.7294,269
434.7452,314.2
434.957,11216.6
435.0063,195.9
435.204,121
435.2553,18.5
435.3441,119.6
435.4057,450.5
435.4675,992.6
435.7065,323.4
435.921,614
436.1909,269.8
436.3741,27
436.5443,19.9
436.5525,152.4
436.7174,82.5
436.7869,104
436.8231,395.4
436.9174,328.4
436.9553,428.7
437.0313,679
437.0597,112.5
437.1671,92.2
437.2055,771.1
437.2858,128.7
437.4352,242.6
437.9618,1117.1
438.2084,769.7
438.4684,252.6
438.4815,1076.2
438.8087,107.3
438.8181,1009.7
438.9157,117.6
438.9317,286
438.9737,4840.9
438.9857,11053.6
439.1958,513.8
439.8814,129.9
440.6002,83.3
440.7051,360.6
440.7272,1146.5
440.8275,194.7
440.8477,814.7
440.9695,1835.2
440.9836,920.6
441.165,96.4
441.2311,360.1
441.2991,418.8
441.4026,731.7
441.4545,953.2
441.4902,21.6
441.5084,552.5
441.6418,360.9
441.8282,106.8
441.8407,184.9
441.9226,184.4
442.3249,229.7
442.7331,367.2
443.1455,1289.3
443.2545,2566.5
443.2802,23.6
443.3158,23.4
443.434,233.3
443.6723,553.8
443.6954,127.5
443.8246,444.7
444.0113,227.8
444.1189,571.9
444.3415,553.3
444.5705,121.9
444.5949,174.1
444.621,239.9
444.8732,253.9
444.8807,204.7
444.893,399.4
445.1102,584.6
445.1723,703
445.2333,4629.3
445.2507,911.7
445.3338,118.7
445.8246,20
445.9004,350.4
445.9307,21.2
445.9917,332
446.0965,18.9
446.1277,322.8
446.2749,306.6
446.3663,512.5
446.6164,82.7
446.6485,320.3
446.6733,433.3
446.6905,167.3
446.896,248.7
447.347,338.8
447.3614,340.5
447.378,228
447.8299,88.4
447.8677,546.1
447.9248,18.6
447.9338,172
448.0438,22.9
448.1362,136.2
448.1729,119.6
448.3642,171.2
448.4865,811.5
448.7596,519.7
448.9116,925.4
448.9335,3543
448.953,349.6
449.0012,417.3
449.01,20.3
449.1304,735.6
449.143,176.4
449.1551,1641.7
449.2831,84.9
449.9296,113.3
450.1586,326.6
450.4845,207.7
450.5987,728.1
450.6647,21.3
450.7474,979.6
450.7924,591.3
450.8028,572.7
450.8213,752.7
450.9941,558
451.1515,33.5
451.1682,950.8
451.5146,366.8
451.5957,224.5
451.797,290.6
452.1507,303.2
452.1835,503.2
452.7537,382.1
452.8382,114.8
453.004,24.2
453.1745,4862.4
453.2112,20.5
453.739,209.7
453.7875,328.6
453.7997,158.8
453.8729,299.9
453.9571,78.7
454.1914,102.9
454.2937,108.5
454.3913,737.4
454.4247,400.4
454.5382,202
454.5739,25.4
454.7231,681.4
454.7657,143.8
454.9508,50626.1
455.1008,545.4
455.1178,199.5
455.3631,202.6
455.8006,366.6
455.9547,1121.6
456.3239,170.1
456.4232,105.8
456.437,237.8
456.4842,103.5
456.7006,1145.5
456.7403,895.5
456.845,25
456.9479,12300.3
457.0301,146
457.1846,18.1
457.2339,26313.3
457.4805,314.4
457.4958,187.2
457.5212,375.2
457.6845,136.8
457.9582,961.3
458.0026,677
458.0236,641.3
458.0279,605.4
458.1318,354.3
458.2372,4358.5
458.2906,78
458.7127,191.6
458.9414,380.3
458.9627,3401
459.1929,572
459.2126,84.3
459.2496,728624.4
459.2868,385.9
459.343,319.1
459.5153,118.8
459.5399,123.1
460.067,304.7
460.1804,256.2
460.2528,143355.1
460.4561,1119.4
460.481,165.1
460.8688,746.8
460.9677,87620.4
461.2562,13340.6
461.3765,715.7
461.5459,647.8
461.6129,601.2
461.6551,328.6
461.6766,223.9
461.7852,491.6
461.8795,143.7
461.971,5344.3
461.9824,84.5
462.2752,128.5
462.4332,170.6
462.5091,398.9
462.5749,832.3
462.5851,109.4
462.6092,155.3
462.6393,584.6
462.7103,22.4
462.8019,79.1
462.9199,662.9
462.9444,641.1
462.9648,22055
463.0145,345
463.1582,78.9
463.2033,2236.6
463.2289,350.5
463.279,96.3
463.3285,953.5
463.4041,596.6
463.5225,394.5
463.7389,219.2
463.8052,20
463.8443,117.6
463.9706,995.9
464.562,119.9
464.5981,201.9
464.6724,83.8
464.7337,415.1
464.9797,10636.7
465.2892,584.7
465.476,1055.7
465.4935,173.4
465.8527,101.8
465.9621,125.8
466.0015,344.5
466.4638,136.3
466.7315,666.9
466.9547,342.1
467.1283,86.5
467.1802,643.6
467.4718,23.3
467.7619,121.4
467.9138,455
467.9923,203.7
468.0449,177.1
468.2423,86.8
468.3091,1178.9
468.428,169.7
468.5853,583.6
468.9476,439.6
468.9721,150.4
469.0691,103.5
469.1477,1270.8
469.331,21.1
469.3854,19.8
469.4236,384.7
470.2145,103.3
470.6816,105.8
470.8484,467.7
470.9247,15836.2
470.9365,337.8
470.9966,2315.6
471.2337,106
471.2466,122.5
471.2509,126.5
471.2865,3118.7
471.7344,326.3
472.0419,118.8
472.0632,119
472.1485,379.8
472.4173,368.4
472.7223,330.2
472.9217,5195.2
472.9579,378
472.9678,162.2
472.9774,160.4
473.1517,121.2
473.1808,814.9
473.2212,89.7
473.2652,7537.9
473.4791,179.1
473.4872,93.3
473.683,190
473.7161,626.9
473.811,395.3
473.8691,222.8
474.2514,253
474.3414,601
474.8003,352.1
475.2234,26721
475.2471,24.8
475.4506,276.5
475.9205,205
476.0935,426
476.2265,3724.4
476.3143,1585.6
476.6633,113.6
476.7575,402.6
476.7852,21.6
476.8197,387.5
476.8384,150.7
476.9247,160.6
476.9416,43983.4
477.21,753.5
477.2228,1916.7
477.645,283.9
477.8559,506.2
477.9451,1218.9
478.1548,98.1
478.2582,95.3
478.3304,59253.1
478.8392,141.9
478.9389,10332.8
479.0049,221.5
479.1948,93
479.1983,92.1
479.3338,11766.4
479.5154,663
479.644,173.4
479.7745,1570.3
479.8836,204.7
479.9273,19.6
479.9411,453.8
480.1588,190.8
480.2424,151
480.3456,1075.2
480.4654,341.7
480.5383,1031.8
480.5737,671.2
480.7228,26.9
480.9532,3366.4
481.009,512.7
481.0928,34.5
481.1492,690.6
481.2346,5028.1
481.2851,112.1
481.8291,25.6
482.311,334
482.3252,2002.4
482.3658,274.3
482.5789,23.3
482.644,133.9
482.6674,373.7
482.7817,240.3
483.02,232.6
483.2496,137297.6
483.2733,270.5
483.3073,86.9
483.3296,1080.3
483.4616,350.9
483.4999,221.1
483.7277,25.6
483.8231,83.8
483.8648,148.8
484.2529,28475.1
484.3141,117.3
484.4704,372.8
484.7261,315.9
484.7562,22.8
485.2365,109.5
485.2652,223975
485.5609,119.6
486.1631,21.6
486.1723,140.3
486.2094,221.9
486.2685,48664.9
486.7136,182.1
486.8232,110.3
487.0026,186.5
487.1534,32.6
487.199,99.3
487.2809,99745.7
487.3032,147.9
487.318,447.2
487.6932,202.1
487.7274,338.6
487.9726,97.1
488.0558,883.7
488.2543,342.2
488.284,21316.6
488.393,117.7
488.5149,307
488.6173,76.7
488.6846,279
488.792,19.4
488.8919,1199.5
488.949,347.4
489.0869,84.6
489.1273,941.5
489.2315,656.5
489.2441,256
489.2599,111.1
489.2781,353.2
489.2849,392.3
489.3108,173
489.3233,380.1
489.3558,534.3
489.3983,597.5
489.4628,93.2
489.699,236.1
489.7442,298
489.8543,760
490.2922,6958.3
490.4705,258.4
490.8937,16.8
491.0317,341.2
491.1247,574.4
491.1937,679.1
491.2494,321.2
491.311,429.2
491.3727,1221.9
491.6303,223.1
491.9717,81.8
492.4043,207.1
492.4732,352.5
492.5643,501.8
492.6193,175.2
492.6523,98.9
492.8416,800.5
492.9157,5834.3
493.1109,397.8
493.1991,92.8
493.3642,170.4
493.5464,129.4
494.0503,18.8
494.2241,473.4
494.2876,509.3
494.3253,11723.9
494.3606,626.1
494.375,278.3
494.421,972.6
494.4527,193.1
494.4732,930.9
494.5498,511.1
494.8339,98.9
494.8552,95.3
494.8832,1199.3
494.9133,959.6
494.9652,83.2
495.1471,33.9
495.24,375.4
495.3912,347.5
495.4907,19.8
495.5749,721.4
495.6256,291.2
495.7214,191.6
495.7912,168.3
496.2026,654.6
496.3411,516483.5
496.829,685
496.9322,399.4
496.9445,568.1
497.0527,132.2
497.1475,19.1
497.3444,123704.7
497.3571,80
497.3995,431.5
497.6774,554.8
497.6973,592.3
497.8536,107.9
497.8999,382.3
497.9663,618.7
498.0558,167.1
498.3471,5870.5
498.45,668.1
498.4679,21.7
498.5698,155.1
498.5867,81.3
498.7568,22.3
498.9288,622.9
499.1583,257.4
499.2234,3309
499.2432,132.2
499.2957,274.1
499.3506,1114.6
499.3881,176.1
499.5418,282.7
499.6435,22.9
499.9225,266.7
500.2742,116.6
500.2812,22.9
500.3147,1202.5
500.7507,221.6
500.875,761.2
500.9868,601.9
501.0654,124.3
501.1759,265.8
501.2391,9290.1
501.3026,173.7
501.3814,417.1
501.4701,223.3
501.8314,80.6
502.2418,1216.2
502.2935,2544.9
502.3299,12426.7
502.452,283.7
502.4954,111.7
502.9894,431.4
503.1087,54
503.1386,601.8
503.2009,324.5
503.2552,1408.4
503.3367,671.2
503.4984,330.7
503.5685,305.5
503.6017,178.1
503.8699,248.3
503.9412,358.4
504.3077,6800.1
504.3459,10232.6
504.5622,114.7
505.2339,2803.7
505.3483,1185.4
505.4056,88
505.8691,122.2
506.237,456.1
506.3618,4772.1
506.4859,360.1
506.5146,614.1
506.5958,1013.2
506.7799,225.5
506.892,3187.5
507.0508,215.5
507.2496,81855.9
507.6634,805.2
507.701,90.7
507.8312,1123.1
507.8901,131.9
507.976,429.2
508.1498,193.7
508.2529,13959.1
508.3298,267.5
508.4587,203.5
508.5387,253.4
508.5629,761.4
508.6326,24.5
508.7149,373.5
508.8891,1270.3
509.0059,6944.2
509.0443,28.1
509.2116,334
509.2651,20857.4
509.7452,128.5
510.1958,112.7
510.268,2510.8
510.3088,559.5
510.357,3097.4
510.3921,1052.2
510.6759,216.1
510.7399,621.5
510.7481,572.1
510.9045,722.5
510.9324,371.6
511.1205,19.9
511.4135,119.4
511.6402,355
511.6758,229.4
511.7417,153.4
512.3629,128.5
512.8202,564.5
512.9097,19710.9
512.9864,78.6
513.0773,252.5
513.3354,163.5
513.3593,156.5
513.601,400.1
513.7018,109.6
513.7157,126.1
513.7359,74
513.7617,111.5
513.9142,646.1
513.9452,657.4
514.016,196.3
514.3092,20.9
514.5605,22.8
514.882,83.1
514.9066,9227.1
515.0224,1578.7
515.0383,588.8
515.0893,109.8
515.1454,109.5
515.1625,660.9
515.2268,958.6
515.3107,359
515.3786,97.1
515.6431,370
516.0621,695.5
516.2819,992.6
516.3076,34060.9
516.4496,631
516.5756,1166.3
516.694,1003.9
516.789,362.8
516.8475,633.8
516.9018,475
516.9206,3554.5
517.0048,480.8
517.2101,408.3
517.3106,4153.2
517.4249,684.8
517.4697,334.5
517.484,18.7
517.5602,300.7
517.5779,721.1
517.6202,662.5
517.6323,255.1
517.687,307
517.8163,1035.9
517.9,71
517.9561,313.5
518.038,117
518.0512,132.5
518.297,550.4
518.3232,1117948.6
518.4218,207
518.7858,242.6
518.9264,29894.5
518.9508,78.4
519.0711,89.1
519.144,110.1
519.3264,261772.6
519.3881,123.1
519.6692,241
519.8416,431.3
520.0388,166.8
520.077,93.1
520.1348,354.6
520.26,92.4
520.2678,91.7
520.3304,26820.1
520.3411,91046.8
520.6058,114.6
520.9236,19317.8
521.3442,23032.3
521.4883,597
521.5634,247
521.6282,216.1
521.7599,346.9
521.8226,135.2
521.927,625.3
522.1502,85.2
522.2385,85.4
522.3567,161136.1
522.6459,79.7
522.735,81.4
522.7724,1280.6
522.8502,486.7
522.9205,738
522.938,7333
523.022,987
523.2231,3072.6
523.3601,41918.4
523.399,127
523.4131,231.7
523.7953,230.6
524.0087,1094.8
524.0318,26.2
524.2286,1145.5
524.3724,97832
524.486,193.9
524.5971,681.4
524.7609,131.7
524.9169,606.6
524.935,1352.9
524.9799,487.5
525.2827,144.5
525.307,25.4
525.3757,23095.5
525.7177,280.3
526.0898,1207.2
526.3095,322
526.3304,3914.6
526.3779,89.8
526.4767,274.6
526.4926,688.4
526.6423,17.5
526.7261,313.4
527.1603,128
527.1737,154.7
527.2922,237.8
527.6407,80.6
527.7771,352.4
527.801,331.4
528.04,19.9
528.1233,826.6
528.308,753.8
528.6193,69
528.7584,22.5
528.8164,369.7
528.8836,5125.4
528.9553,2932.7
529.0896,98.4
529.1665,198.1
529.2634,381.4
529.3712,291.8
529.4446,273.7
529.5464,674.3
529.7352,475.5
529.8178,90
529.9204,357
530.0642,323.6
530.0911,766.7
530.264,261.6
530.3227,1565.2
530.3601,2079.4
530.5019,227.1
530.7021,998.8
530.7509,108.6
530.7718,22.6
530.8809,6436.3
530.8913,566.5
530.9934,232.5
531.1341,663.5
531.2499,9977.2
531.3173,395.9
531.4018,17.5
531.4201,93.6
531.6127,73.7
532.2527,2736.9
532.2824,3999.6
532.3391,16796
532.9671,1429.3
533.0055,341.3
533.0207,318.6
533.1279,19.3
533.1452,106.2
533.1696,134.7
533.209,989.6
533.2646,2167.4
533.286,783.5
533.3428,904.5
533.4096,82.3
533.4799,186.5
533.815,82.2
533.8855,174.8
534.0962,1011.6
534.1632,1106.9
534.2972,195309.3
534.3192,371.8
534.421,182.4
534.5066,583.8
534.6492,120.2
534.8071,129.1
534.9004,14509
535.0548,197.7
535.1327,584.2
535.3007,47640.5
535.3466,20.5
535.5102,172.7
535.7432,599.9
535.7521,294
535.8978,96.5
535.9673,271.2
536.0378,172.5
536.0545,382.9
536.2415,20.5
536.2958,10023.8
536.3889,84
536.4158,355.3
536.8975,7260.7
536.9619,267.7
536.9824,135.4
537.002,117.2
537.1179,290.8
537.2985,918.7
537.4277,166.8
537.4421,85.5
537.8958,176
537.9836,358
538.0413,21.3
538.4332,119.4
538.5117,73.9
538.7307,305.8
538.896,751
538.9123,2225.6
539.0217,126.2
539.0376,164.8
539.5054,696.4
539.5852,123
539.5986,1015.7
539.6521,217.1
539.7459,249
540.0222,120.8
540.0416,103.7
540.1331,632.6
540.3056,2135.6
540.4542,188.1
540.4732,1028.6
540.7485,262.9
540.7932,853
540.851,336.6
540.9883,144.9
541.002,142.9
541.3299,120.1
541.41,303.5
542.1883,127.5
542.3233,177565.6
542.3569,110.5
542.4581,221.1
542.5432,191.9
542.8042,97
542.8831,167.3
543.099,387.5
543.2226,241
543.3267,46700.3
543.4044,788.3
543.4263,117
543.542,276.1
543.6282,372.8
544.0467,1101.2
544.2747,1708
544.339,340124.6
544.3731,164.2
544.5461,889.8
544.6421,507.5
544.7572,133.7
544.8567,484.9
544.9504,827.3
545.0975,156.2
545.1831,741.1
545.2781,362.2
545.3423,89640.3
545.5427,365
545.6985,657.6
546.0736,1007.5
546.2594,1141.6
546.3546,198769.9
546.4977,114.8
546.563,373.4
546.6345,115
546.8718,369.3
547.0273,260.1
547.1157,128.4
547.358,52261.3
547.5697,303.8
547.6294,129.2
548.2757,1080.5
548.2918,895.6
548.3042,508.6
548.3614,5697.6
548.3771,173.8
548.4977,386.4
548.6031,98.8
548.672,172.2
548.8513,83.5
548.8675,176.2
548.9041,151.4
549.0553,138.7
549.3156,176.5
549.5521,241.7
549.9901,650.9
550.0899,81.3
550.3249,176.2
550.3511,249.3
550.4155,101.8
550.5022,210.1
550.8288,148.2
550.8741,2530.5
550.9991,112.7
551.0654,168.8
551.1308,18.6
551.2639,24.9
551.3367,307.4
551.9661,20.7
552.1351,116.5
552.4115,107.7
552.6024,259.2
552.8714,599
552.9852,705.9
553.0988,341.8
553.1224,243.5
553.2145,68.2
553.3077,22.5
553.8217,80.4
553.9038,347.3
553.9306,995.3
553.9596,22.9
553.9798,438.4
554.1932,129.6
554.3393,164.8
554.8638,20
555.5038,88.1
555.5776,109.3
555.6668,807.3
555.9266,112
556.0078,439.8
556.2412,111.5
556.4244,120.8
556.5664,96.8
556.7026,242.7
556.7469,214.1
557.1956,656.2
557.2834,82.2
557.4888,667
558.2972,33502.5
558.6523,477.6
558.8896,27.4
558.9048,781.5
559.0196,144.7
559.0758,125.6
559.3006,6552.5
559.3793,362.1
559.9581,124.6
559.9755,137.7
560.0454,399.2
560.2939,1269.2
560.313,56871.8
560.6013,666.1
560.8096,19.5
560.8473,675.1
560.8729,117.8
561.0083,274.6
561.3163,14465.1
561.4134,1834.5
561.4674,81.5
561.6736,553
562.194,18.6
562.3107,1916.3
562.3284,28637.6
562.4245,370
562.4733,644.5
562.5344,21.7
563.0159,233.3
563.3317,5275.3
563.3952,168
563.5779,22.9
563.9843,186.8
564.0064,20.5
564.1608,101.7
564.3085,2161
564.5044,384
564.5252,131.4
564.5406,996.6
564.5732,1177.4
564.85,880.4
564.9717,158.6
565.0044,318.5
565.0478,291.9
565.1327,81.4
565.3263,125.6
565.7606,20.7
565.9699,220.9
566.0324,95.6
566.3233,86897.1
566.3716,24.2
566.4285,335.7
566.5639,171.5
566.6952,722.1
566.9653,2822.9
567.0894,135.1
567.1134,79
567.3266,21074.5
567.8818,99.4
567.9125,113.9
567.9389,236.2
568.0256,482.4
568.1237,191.6
568.1364,235.1
568.2472,1389.4
568.3391,30208.8
568.5147,565
568.6377,333.5
569.1183,146.5
569.1855,107.7
569.3184,141.6
569.3426,4590.4
569.5589,142.5
569.9783,375.8
570.0768,211.8
570.0832,221.2
570.2589,571.7
570.6593,112.2
570.8683,6040.5
571.0361,839.1
571.0799,377.3
571.3583,698.2
571.3731,698.6
571.542,267.1
571.8019,19.4
571.8409,117.8
572.0295,243.2
572.1042,214.1
572.2401,334.6
572.3704,1668.1
572.7544,1058.4
572.8659,3199.6
573.0023,1037.4
573.0584,23.5
573.1362,644.4
573.2049,319.1
573.6026,21.5
573.7046,132.9
574.4228,1233.9
574.8614,850.9
574.9981,641.8
575.2747,360.7
575.5047,7596
575.6376,178.1
575.7643,85.6
575.9757,166.4
576.1799,653.8
576.2819,11161.5
576.509,527.2
576.6223,26.4
576.8084,455.4
576.8855,9048
577.0455,310.4
577.0547,349.5
577.2422,204.7
577.2853,2228.1
577.4012,78.7
577.5197,69.8
577.561,102.6
577.8899,448.5
578.1437,199.8
578.2786,1694.6
578.3144,185.8
578.7406,558.6
578.8823,10821.6
579.02,891.8
579.2589,353.6
579.8824,129.1
580.0237,119.3
580.1191,21.4
580.3847,653.8
580.4018,78.9
580.4529,21.8
580.4813,857
580.6074,806.4
580.8802,2974.3
580.897,3043.9
580.9784,79.6
581.135,354
581.1788,402.5
581.355,269.9
582.0269,556.1
582.1086,125.5
582.198,659
582.2364,470.4
582.2639,29.6
582.2974,16290.4
582.3211,130.8
582.3401,953.1
582.3618,1832.4
582.4018,392.7
582.42,1039.9
582.5487,235.6
582.5837,82.4
582.8023,27.7
582.8962,1940.3
582.9556,323.9
582.9936,134.6
583.2333,1216.7
583.2564,6890.6
583.3011,4900.9
583.3868,86.5
583.4675,662.1
583.5448,403.8
583.5566,256.9
583.6416,79.6
583.7937,19.1
583.8723,614.2
583.8865,491.6
584.2585,2534.1
584.3128,3251.5
584.4067,88.5
584.6741,96.3
584.9153,342.9
585.2726,10603.3
585.3366,103.2
585.3766,18.8
585.5802,307.4
585.773,365.1
586.1251,19
586.1824,238.3
586.3099,1986.4
586.5596,133
586.8425,1706.4
586.9155,1233.8
586.9657,713.8
587.0064,338.1
587.1139,218.2
587.1672,140.8
587.4532,344.5
587.4817,81.6
587.5476,462.3
587.6151,813.2
587.6471,117.2
587.7894,549.5
587.8006,704.3
588.1496,842.7
588.3166,193.8
588.7421,461.4
588.84,1266.9
589.1925,367.8
589.3064,570
589.534,1140.6
589.6584,147.9
589.6683,181
589.7416,142.1
590.0121,694.8
590.028,115.5
590.3234,13767.1
590.6481,114.3
590.6753,198.8
590.8371,517.9
590.9268,826.5
591.1498,244.2
591.2732,336.4
591.327,766.5
591.3817,211.4
591.7556,111
591.9564,128.7
592.1924,133.6
592.256,433.1
592.3381,2071.7
592.3853,439.8
592.7646,217.9
592.8598,5140.7
592.8786,84.9
592.9287,595.5
592.9584,672.6
593.0673,815.2
593.1681,781.6
593.2494,21.6
593.4755,216.6
593.5424,81.8
593.6494,99.4
593.8102,144.8
593.9338,119.5
594.077,332.5
594.1904,143.8
594.4567,217.8
594.4693,86.2
594.6068,79.9
594.8225,201
594.8565,6174
595.1634,280.7
595.6019,675.6
595.9492,261
596.046,611
596.2744,92.6
596.3931,1023.3
596.711,318.3
596.7308,128.4
596.7641,125.4
596.8535,1163.2
596.8734,509.7
597.0672,662.7
597.0834,131.1
597.4545,6030.8
597.4871,9945.9
597.6742,331.3
597.7832,671.9
597.8682,122.7
598.2952,309.3
598.347,409.4
598.4548,1213.2
598.4717,240
598.4899,2627.3
598.5114,259.2
598.537,765.9
598.7894,863.6
599.0746,110.3
599.4657,2457.6
599.5039,8455.7
599.5691,266.1
599.7981,187.7
600.2824,1481.2
600.4372,432.4
600.507,1127.3
600.6171,259.1
601.0455,188.1
601.2618,1016.3
601.3334,108.6
601.3707,19.8
601.3788,18.1
601.5211,346.8
601.8119,171.1
602.0539,655.4
602.2967,518.6
602.7486,229.4
602.7965,261.4
603.1577,19.2
603.2246,23.3
603.2925,307
603.302,894.2
603.4679,1423.9
603.537,154.7
603.6663,97.3
603.922,706.3
603.9733,86.3
604.252,236.5
604.2957,551.5
604.7355,1093.2
604.8451,19.5
605.2358,768.9
605.561,206.7
605.711,1096.9
605.9071,996.8
605.9477,391.8
606.0509,253.4
606.2968,2069.5
606.3479,652.2
606.4751,25.4
606.5307,81.6
606.5504,430.1
606.6104,207.5
607.0851,184.7
607.172,2631.5
607.2865,124.3
607.33,171
607.4541,125.3
607.5216,223.3
608.1618,248.2
608.1772,180.3
608.4022,17.9
608.7866,136.6
608.8332,620.8
608.9806,130.1
609.0469,34.5
609.1058,410.7
609.6623,566.2
609.9522,300.3
610.0253,213.1
610.0838,173.8
610.5581,103.7
610.8305,690
611.4197,100.2
611.6786,453.8
611.7534,608.3
612.0929,198.2
612.1265,194
612.2697,396.8
612.2756,891.5
612.2796,855.3
612.529,424.7
612.6504,553.7
612.9582,188.8
613.3713,248.3
613.4628,357.8
613.6328,151.4
613.6993,1147
613.746,647.2
613.8558,410.7
613.9885,435.1
614.0685,22
614.2669,942.4
614.3338,88.8
614.7504,176.1
614.8111,527.4
615.4325,157.6
615.4596,811.5
615.4914,243.9
615.7589,814
615.8159,22.7
615.8786,728.9
616.2558,670.1
616.7808,369.9
616.8118,133.3
617.2973,715.2
617.4128,123.5
617.4769,4207.7
617.5684,106.4
617.6241,23.1
617.6571,265.6
617.673,258.5
617.8949,25
617.998,111
618.1407,1212.9
618.2731,138.1
618.4753,483.5
618.4881,18.3
618.7529,163.6
618.7823,1005.3
618.9111,219.1
619.0798,932.5
619.2476,309.9
619.3888,151.4
619.4585,177.2
619.492,4798.2
620.1321,858.6
620.2432,476
620.3185,24.3
620.4472,144.7
620.5418,623.1
620.6049,22.4
620.825,337.1
620.8425,326.6
621.0032,77.6
621.3961,27.4
621.4508,1646.6
621.4872,12194.8
621.6197,187.8
621.6346,127.9
621.7481,928.5
621.8988,98.6
622.2678,93.3
622.3473,137.7
622.365,472.7
622.4443,382.3
622.4576,1353.3
622.4905,4187.5
622.7565,130.3
622.8278,474.4
622.9674,100.1
623.1375,26363.7
623.1997,666.3
623.3886,255.3
623.4586,959
623.4763,401
623.5045,3500.7
623.7007,253.1
624.0038,406.5
624.1414,3973.4
624.1856,414.8
624.5072,690.9
624.5957,184.7
624.8756,326
625.1454,121
625.4946,331.8
625.6401,117
625.7698,703.4
625.8818,167.1
626.477,1093.5
626.5215,605.1
626.8023,191.2
627.0813,166.6
627.206,103
627.513,346.5
627.5362,771.6
628.08,207.9
628.2308,375.8
628.5339,395.3
628.5547,1000.2
628.721,399.1
628.7403,212.4
628.9834,661.4
629.1544,55468.7
629.2585,1072.3
630.0289,109.3
630.1581,10738.6
630.3374,322.4
630.5768,102
630.5943,328.4
630.6749,85.6
630.7242,217.9
630.9929,173.8
631.0887,121.6
631.1058,630.6
631.125,235.9
631.1291,223.8
631.1602,852.8
631.3404,266.9
631.3823,133.2
631.406,186
631.5631,278
631.8996,166.7
632.1916,575.4
632.2418,119.6
632.3055,81.9
632.4796,215.4
632.6668,86.4
632.7303,811.1
632.919,341.5
633.1084,308.4
633.7653,115
633.9441,22.6
634.0517,126.1
634.0897,136.1
634.8442,2819.7
635.2725,913.3
635.7217,117.6
636.8418,4313.7
637.0114,94.1
637.1434,243.8
637.2523,352.6
637.3498,21.7
638.3787,523.1
638.5842,311.3
638.8388,1221.3
638.9946,85.6
639.0053,437
639.1918,193.9
639.5121,23.4
639.5706,77.9
640.4276,192.4
640.445,27.2
640.6645,168.8
640.7175,257
640.8057,161.8
640.9829,161.6
641.1975,26.4
641.5127,32.7
641.6521,138.7
642.0018,218.8
642.2644,265
642.5313,173
642.8931,425.3
643.2675,674.2
643.3631,248.6
643.7295,320.3
644.0209,132
644.1488,75.3
644.1884,154.5
644.4435,94.6
644.5113,356.6
644.6861,343.5
644.7144,643.8
644.8038,476.6
644.8481,94.2
645.1193,23228.7
645.3997,120.7
645.4866,138.9
645.5706,166
646.1221,3147.2
646.194,919.4
646.332,434.2
646.43,1792.8
646.4799,113.3
646.5634,340.9
646.8013,112.8
646.9307,1343.7
647.0958,672.4
647.125,596.1
647.2777,555.4
647.3667,112.8
647.4615,876.2
647.5009,1118.6
647.5416,112.6
647.6142,23.7
647.9681,495.5
648.326,90.7
648.3637,176.8
648.4753,108.1
648.8855,449
649.1474,239.5
649.4961,413.9
649.5261,27.1
649.8987,168.3
650.177,606.9
650.4981,356.9
650.818,1554.7
650.9544,268.7
651.1365,67828.9
651.2096,84.3
651.3123,341.3
651.3422,186.5
651.3666,237
651.8278,290.4
652.0798,555.6
652.14,13418.6
652.2853,1584.5
652.8156,2318.7
652.9586,20.9
652.974,21.2
653.112,647.3
653.142,1009.5
653.444,233.6
653.6806,731.4
653.9781,319.8
654.54,498.8
654.5606,971.7
654.6265,632.1
654.6429,104.4
654.7978,18.2
654.8116,624.9
654.9067,945.9
654.9378,897.9
655.1221,175.2
655.1963,385.3
655.2836,21.9
655.5366,138.8
655.6118,84.8
655.6821,305.5
655.8441,380.1
655.9617,738.6
656.0435,119.6
656.1884,588.6
656.4797,368.5
656.4923,844.6
656.5307,194.4
656.5442,620.2
656.5903,589.1
657.3928,273.7
657.4246,1186.7
657.5444,246.8
657.5666,99.9
657.608,463.5
657.788,192.1
658.0631,481.5
658.1216,977.2
658.2105,246.4
658.8363,129.6
658.9322,1240.3
659.0084,111.9
659.0298,113.5
659.2869,1595.5
659.878,243.3
659.992,190.8
660.0476,314.7
660.1134,296.2
660.4015,23.6
660.5281,82.3
660.7486,18.9
660.8061,257.1
660.8357,379.9
660.8409,372.1
660.8501,256.8
660.8898,117.4
661.0845,10354.8
661.1241,583.3
661.9116,20.4
661.9399,412.8
662.0883,237
662.2943,871.3
663.343,297.8
663.4545,884.8
663.8072,276.1
663.9667,21.9
664.2409,439.4
664.4695,3887.6
664.8062,110.7
665.0628,100.4
665.1068,379.4
665.9073,81
666.1873,295.8
666.4853,9819.4
666.776,30.7
667.101,37196.3
667.1356,77.3
667.2244,155.3
667.4886,4100.5
667.6002,91.6
667.6207,141.7
668.1048,5581
668.1395,351.7
668.2653,1079
668.4474,748.8
668.4854,346.9
668.7887,644.9
669.0798,160
669.1074,1666.1
669.5511,824.1
670.1631,170.9
670.2741,338.2
670.5756,84
670.6347,282.3
671.3545,68.4
671.4391,1169.3
671.4732,841.7
671.5508,85.6
671.5966,19.8
671.8541,875.2
671.8909,105.6
672.2187,967.5
672.9579,678.5
673.1184,85060.4
673.629,295.4
674.1219,16085.2
674.2706,128.7
674.3508,410.2
674.5629,122.9
675.093,401.9
675.1232,1335.9
675.4045,345.6
675.5456,14193.7
675.5868,528.8
675.6587,246.9
675.8879,482.6
676.4728,195
676.5492,2766.1
676.8975,1080.6
677.3843,403
677.486,244.3
677.5504,89.6
677.5988,409.8
678.4515,262.9
679.1236,24.2
679.5356,137.2
679.6682,556.6
679.8779,614.8
679.9723,221
680.0977,391.7
680.299,473
680.3743,120.8
680.5946,385.8
680.634,372.4
680.7126,239.1
681.5746,351.7
681.7158,18.1
681.8703,120.7
681.9324,121.1
682.0654,309.7
682.285,123.2
682.2917,234
682.2979,227.7
683.0659,5857.7
683.2717,76.7
683.3122,134
683.7441,21.8
683.8756,1125.6
684.0027,113.4
684.552,413.5
684.6132,168.2
684.6898,82.3
684.8083,163.4
684.9141,1890.1
685.4379,10946.5
685.52,330.3
685.7293,912.1
685.9476,146.4
686.0658,220.7
686.1296,581.3
686.3744,134.5
686.4419,2557.8
686.4797,1011
686.537,443.9
687.277,177.6
687.296,684.1
687.6729,513.2
687.7889,343.2
687.8085,752.8
688.089,383.7
688.2394,108.7
688.5586,75.9
688.6113,115.4
688.7491,109.6
688.7664,451.9
689.0826,29446.7
689.1505,155.2
689.4574,18.9
689.5013,18.9
689.5156,367.1
689.5615,5497.6
689.6761,682.1
690.0243,396.1
690.0865,3617.7
690.2876,20.7
690.5663,308.9
690.5907,22.1
690.9029,645.8
691.0089,624.2
691.0172,605.8
691.0687,528.4
691.0879,397.4
691.3787,529
691.6078,170.6
693.1719,397.4
693.3001,18.7
694.5298,178.8
694.8011,746.9
694.8857,178.9
694.9362,312.5
695.1004,62723
695.3526,400.8
695.4134,27.4
695.4639,4979.8
695.5134,835
695.5412,22.8
696.104,11599.6
696.4149,74
696.4672,1103.5
696.8142,138.4
696.8441,127.7
696.8623,382.7
696.9493,371
697.0773,331.9
697.1065,675.1
697.5275,30640.9
697.5726,187.3
698.1668,90.5
698.413,112.6
698.5313,10430.2
698.6999,200.2
698.8017,882.4
699.0147,89.3
699.0318,82.2
699.4256,680.5
699.9008,126.2
700.2727,453.2
700.6009,796.3
700.6454,109.8
700.7176,92.6
700.7623,216.1
701.0239,126.5
701.1097,819.6
701.1565,175.4
701.412,432.7
701.5612,43494.1
701.7517,187.5
701.8745,243.6
701.9032,450.5
702.344,2486.7
702.5647,14684.8
702.7987,138.7
702.8721,102.7
702.9356,23.3
703.2348,390.6
703.348,476.8
703.5769,97867.4
704.0447,104.5
704.1649,856.9
704.5806,34492.1
705.0571,5117
705.1514,19.9
705.4576,473.3
705.4886,133.8
705.5833,4291.2
705.6657,142
705.7098,24.6
705.8364,83.5
705.88,730.6
705.9224,309.8
706.0616,223.9
706.4722,87.1
706.5408,1672.8
706.7528,712.2
706.9686,105.2
707.0129,649.2
707.0533,158.3
707.5404,319.8
707.6604,346.9
707.8397,84.6
707.9532,233.6
708.1585,880.2
708.2131,798
708.2703,18.7
709.0026,119.9
709.043,853.3
709.1534,149.1
709.2201,311.4
709.4626,76.1
709.6086,149.2
709.6732,20.2
709.9026,88.9
710.2524,161.1
710.3009,783.1
710.3443,118.1
710.4334,220.2
710.8207,252.5
710.8453,701.7
711.0641,22273
711.075,18692.6
711.319,146.4
711.5436,11131.1
711.6995,314
711.712,572.1
712.0525,558.7
712.0682,1610
712.3982,18.5
712.5303,428.9
712.7714,543.3
713.0518,104.5
713.0745,784.4
713.7346,89.1
714.0812,176.1
714.2596,837.8
714.4852,819.2
714.6004,213.5
715.6418,387.8
716.0163,29.4
716.0918,105.8
716.1787,246.3
716.3099,692.7
716.4485,289.1
716.7109,637.3
716.8718,104.4
717.0824,30995.2
717.3001,357.2
717.3739,494.9
717.5919,79.2
718.0861,4972.6
718.3848,802.8
718.4025,244.2
718.5812,241
718.6322,190.6
718.7145,1008.7
718.9021,268.6
719.0589,150
719.2098,233.7
719.403,471.8
719.4398,669.5
719.7587,829.8
719.903,139.1
720.0959,234.7
720.5231,303.8
720.5414,180.4
720.5922,303.5
720.6593,133.5
720.8712,127.3
720.9296,254.6
721.0135,560.1
721.0442,810.4
721.1446,85.8
721.4801,67581.1
721.602,105
721.6498,19.6
721.7447,78.5
721.8958,22.7
722.0447,1013.2
722.1151,413.7
722.2034,308
722.4833,27333.7
722.7647,359.5
722.9472,18.7
723.0969,17.9
723.3174,18.7
723.4964,24273
723.5433,65061.9
723.7146,650.5
723.8475,225.3
723.9979,85.1
724.0324,256.5
724.2699,285.9
724.2977,683.9
724.4977,5366.2
724.5469,23456.7
724.6273,543.1
724.6731,768.1
724.7453,343.3
724.7658,120
725.5591,130972.4
725.7025,260.3
725.8177,409.8
725.9405,19.5
726.093,269.4
726.2835,1440.6
726.5623,51125.4
726.7295,398.7
726.9511,557.6
727.0308,4080.8
727.2226,227.1
727.5223,385.7
727.5652,8072.9
728.013,432.5
728.0713,314.2
728.3178,430.8
728.5228,4813.4
728.5807,1359.2
728.6328,201.3
728.6643,801.1
728.9482,858.5
728.9771,360.6
729.4848,88.9
729.5248,1423.2
729.5927,14873.6
729.7329,362.9
729.7832,24.5
729.8788,158.6
729.9564,188.7
730.5403,6663
730.5961,1486.8
730.7585,130.3
730.8379,381
731.2662,98
731.3904,272.5
731.4978,142.1
731.5422,1025
731.6096,5185.4
732.556,92154.8
732.5846,90.2
732.6118,1633.7
733.0455,12632.5
733.0579,9741.1
733.5593,36015.4
733.6218,455
733.6532,619.4
733.7692,243.3
733.9821,344
734.0499,641
734.0579,580.7
734.1605,680.4
734.2782,137.4
734.4617,656.7
734.5728,8728
734.6677,121.1
734.7819,286.8
734.9497,110.5
735.1001,336
735.2313,279.5
735.3602,80.7
735.3917,685.8
735.5766,1722.5
735.6597,430.2
735.6945,409.3
735.8309,23.9
735.9398,382.5
736.2205,256.3
736.4755,22.8
736.8992,300.1
736.994,1050.1
737.074,248.6
737.4135,1078
737.4539,8806.5
737.8295,129.8
738.1891,232.1
738.2646,214
738.4546,2843.4
738.9396,646.8
738.9611,1695.5
739.016,690
739.0644,18566.3
739.2175,800.6
739.47,3061.1
739.5188,2538.7
739.6636,448.1
739.9525,309.6
740.066,784
740.4253,283.9
740.5216,1900.9
740.6362,123.8
740.8469,122.8
741.0213,26.5
741.0383,86.9
741.0659,494.4
741.1363,316.2
741.3098,674.1
741.3563,592.2
741.5333,12850.5
741.831,722.5
742.1929,202.1
742.3049,94.6
742.5372,4031.1
742.5782,1193.4
742.6035,20.3
742.6564,18.2
742.8667,1026.5
743.2383,631.9
743.4635,2874.7
743.5974,112.6
744.1219,469.4
744.321,401.2
744.373,614.3
744.4383,175.8
744.5554,3038.3
744.5927,2080.6
744.6641,752.6
744.7321,225.2
745.0469,235.5
745.4799,52504.9
745.5438,215.2
745.5592,1027.6
745.5949,337.3
745.7025,194.4
746.4387,139.4
746.4833,16329.9
746.5721,9462.9
746.6076,694.1
746.6372,18.8
747.1353,258.3
747.4963,12253.8
747.5412,630
747.5749,1093.2
747.6115,876.9
747.7322,20.2
747.8456,80.1
748.0157,132.6
748.4979,2708.3
748.5922,310.8
748.7774,707.9
749.0118,2711.7
749.5096,859.2
749.7729,335.1
750.2021,364.3
750.3175,21
750.4372,391.7
750.4952,389.7
750.5657,931.6
750.8269,17.4
750.8581,22.3
751.4199,590.6
751.533,426.5
751.5747,14356.9
752.4546,711.1
752.5222,14979.5
752.5795,4585.2
752.9578,96.9
753.527,3754.8
753.5915,6343.1
754.2617,108.5
754.5382,109599.7
754.5897,768.4
755.0275,6171.1
755.0399,6353.6
755.3409,509.2
755.4758,113.6
755.5415,43639.4
755.6948,382.9
755.7853,655.5
756.0285,560.5
756.1817,221.1
756.276,123.6
756.4399,185.7
756.4732,190.1
756.5561,55791.5
756.7269,707.4
756.7629,23.9
756.8569,348.2
757.0773,78.3
757.1542,292
757.2604,154.6
757.3064,21.6
757.5588,22783.6
757.6256,922.4
757.8132,413.6
758.1438,250.3
758.4794,738.4
758.5719,907255.1
758.6306,691.5
758.6424,649.7
758.9052,82.1
759.0273,381.7
759.5753,403646.6
759.6412,897.4
759.7877,508.5
759.8124,1027.7
759.8974,170.9
760.0803,128.3
760.2671,132.6
760.5882,538925.9
760.6405,40.5
760.7261,253
760.7335,249.9
761.0465,5863.5
761.2004,195.4
761.2939,218.3
761.3541,21.4
761.4538,5965.8
761.5443,287.2
761.5911,258100.8
761.9436,185
762.2609,583.4
762.594,59497
762.8808,91.3
762.8971,362.8
763.0327,107.3
763.3431,110.5
763.5969,6152.9
763.9191,97.7
764.4039,564.2
764.5596,1511
764.7178,84.3
764.8477,391.1
764.879,232.6
765.0949,186.1
765.3853,97.4
765.406,224.7
765.6004,1033.7
765.7034,952.9
766.1798,689.2
766.2277,173
766.3832,127.1
766.5391,3951.3
766.5766,24408
766.7778,129.3
767.2312,333.9
767.2723,143.7
767.5803,7842.9
768.4127,74.2
768.5546,13714.9
768.593,26838.7
768.9057,905.6
768.9233,199.6
769.0472,355.2
769.3031,215.1
769.4791,11886.3
769.5583,3923.1
769.5954,10013.9
769.7266,581.8
769.7927,584.7
770.4866,1467.8
770.5118,15240.3
770.5964,263
770.9945,4955
771.0224,607.4
771.397,139.1
771.4957,1977.1
771.6129,23.8
772.3795,182.9
772.5874,10543.1
772.7146,116.1
772.7548,229.3
772.8919,1026.2
773.0274,1019.4
773.2884,25
773.4491,227.2
773.4925,1040.5
773.5125,574.1
773.5914,2410.2
773.6283,186.9
773.6562,253
773.8261,103.9
773.8866,405.1
774.247,175.4
774.3079,127.6
774.3935,180.8
774.5091,239
774.6038,2586.8
774.7801,182.5
774.9942,562.2
775.3229,617.5
775.3664,78.3
775.5311,884.3
775.5765,1163.2
775.6062,656.8
775.8699,415.6
776.0796,640.2
776.3033,560.5
776.4232,108
776.523,3695.7
776.9646,389.4
777.0115,6903.3
777.2018,177
777.2191,402.6
777.2735,527
777.4198,90.6
777.5336,1208
777.5652,87.2
777.6342,116.9
778.0488,1395.4
778.3404,25.5
778.5384,61168.5
778.8929,328.1
778.9583,140
779.0478,828.8
779.5413,27254.1
779.6054,979.4
779.7076,394.3
779.7549,271.1
780.2548,268.3
780.554,906971.7
780.5943,133.4
781.1701,86.5
781.356,98.9
781.4399,211.7
781.501,696.1
781.5574,413789.2
781.6171,23.6
782.1859,522.6
782.5712,1019996.9
782.8188,104.1
782.8462,311.3
782.9581,217.3
783.0286,7127.6
783.1007,228.7
783.4518,73.3
783.5745,480811.6
783.6457,104.3
783.7443,258
784.2689,852.5
784.3649,289.5
784.5889,231844.9
784.6404,675.9
784.8406,81.3
785.24,251.6
785.3192,395.3
785.4635,469.1
785.5915,121429.5
785.6551,3198.4
786.5356,520.5
786.6039,175574.6
786.6582,1672.4
786.7878,18
787.6069,87188.9
787.6717,809.4
787.7719,557.2
787.9176,132.4
788.5595,15494.6
788.6066,9456.2
788.622,13788.2
788.674,335.8
788.8913,123.2
789.0606,699.5
789.562,4079.8
789.6231,8552.5
790.0466,1526
790.0916,844.5
790.5517,3624.3
790.5755,19183.1
790.6245,712.6
791.058,697.7
791.5492,2475.3
791.5781,8351.9
792.1941,462.1
792.2699,341.5
792.3588,883.2
792.5589,27.6
792.5921,7131.9
792.9823,919.8
793.0789,1318.9
793.2391,121.7
793.5959,308.4
793.789,948.1
794.3796,22.7
794.5118,5468.3
794.5341,2018.9
794.5702,8243.2
794.6083,30915.2
794.6557,137.1
795.2746,87.3
795.5011,835.8
795.577,478.8
795.6116,13375.9
795.6556,118.6
796.5279,120279.3
796.5874,8951
796.6156,636.1
797.0172,150.2
797.184,23.8
797.5314,55468.3
797.5888,860.6
797.693,289
798.3878,254.5
798.5441,62564.9
798.6027,506.7
798.8028,177.7
798.8897,155.7
798.9801,140.7
799.1954,328.4
799.2811,223.7
799.3723,140.5
799.4814,156.5
799.547,28961.9
799.6704,232.6
800.6726,663.8
800.7237,390.9
801.551,972.1
801.656,199.9
801.9216,193.5
802.0445,1092.7
802.5382,55506.5
802.643,115
802.7655,632.4
803.1322,261.4
803.542,21334.3
804.1131,1398.6
804.3327,650.8
804.554,601700.6
805.0096,153.9
805.031,1035.6
805.5573,280258.6
805.7098,471.7
806.0098,106.3
806.5714,328969.8
806.9307,156.2
807.0428,21.4
807.1132,440.6
807.1644,287.2
807.4399,1084.2
807.507,610.2
807.5743,172440.3
807.6373,620.3
808.0374,758.8
808.5872,197625
808.6417,692.5
809.4478,664.6
809.5081,744.4
809.59,103103.2
809.6562,372.3
810.0665,21.3
810.344,165.3
810.3987,115.5
810.5087,152.2
810.604,135395
810.6575,147.6
811.1702,392.1
811.6069,61709.4
811.6715,13406.9
811.84,397.7
812.3647,110.9
812.5619,1472.1
812.6218,13936.3
812.6749,3869.7
812.7708,19.2
812.8564,695
813.0073,93.6
813.0265,348.9
813.5655,118.1
813.6232,6090.7
813.6877,11186.7
813.7531,687.7
813.8014,108
813.9024,373.6
814.006,518.4
814.5747,3932.2
814.6902,4340.4
815.1611,17.6
815.188,373.3
815.5756,466.7
815.6927,151.4
816.2066,731.1
816.2338,529.3
816.3555,102.6
816.422,474.8
816.5435,411.6
816.5904,21245.2
817.4425,305
817.5934,6779.6
817.6986,115.7
817.8707,312.9
818.1022,519.3
818.5121,2624.1
818.5695,3508.3
818.6053,2028.9
818.6347,285.6
818.9952,1683.7
819.5706,1181.7
819.6105,290.1
819.8136,21.7
820.4182,268.3
820.528,84667.7
820.5935,158.6
820.6244,291.4
821.254,23.4
821.531,38514.6
821.655,121.5
821.7318,26.5
821.9319,301.8
822.2168,378.6
822.5453,22428.8
822.586,454.7
822.6459,466.3
822.8008,613.7
822.8536,174.6
823.4434,412.5
823.547,11320.9
823.8882,86.4
824.1098,217.1
824.1288,233.1
824.5599,13502.1
825.2549,78.8
825.5633,6484.5
825.9718,145.6
826.0906,95.5
826.2265,242.7
826.3089,768.8
826.4065,20.2
826.4418,848.3
826.5392,1252.8
826.5614,130.5
826.7319,308.5
826.9175,970.2
827.5034,77.8
827.5441,1357.1
828.4046,74.4
828.554,135235.1
828.608,114.2
828.8539,19.9
828.8819,731.3
828.9384,952.1
829.1288,176
829.3285,583.8
829.5575,66825.5
829.6994,1027.8
829.8245,1538.4
829.9498,2058.3
830.0841,1505.6
830.4465,102.8
830.5707,84619
830.6436,100.8
831.3518,803.9
831.5735,42641.6
831.6142,991.5
831.8359,180.1
831.9184,102.9
832.5861,88740.9
832.6325,252.7
832.857,91.8
833.0267,251.6
833.133,19.7
833.2736,169.6
833.5894,40392.9
833.653,4012.8
834.1049,112.6
834.1906,1143.3
834.6042,21486.4
834.6341,152.5
834.659,769.1
834.7997,20.6
834.8245,969.5
834.8786,228.6
835.0743,513.7
835.2209,357.7
835.3074,90.3
835.4015,32.4
835.4406,541.3
835.6067,13281.3
835.6704,3437.5
835.7214,277.7
835.7444,593.6
836.0245,333
836.0712,1329.2
836.2559,464
836.5754,574.2
836.6212,476.3
836.6712,248.4
836.7584,300.2
837.0279,671.6
837.1675,288.8
837.2049,152.3
837.3048,99.7
837.6211,825.6
837.7499,693.8
837.8546,18.5
838.0401,671.1
838.1165,475.7
838.2316,500.5
838.2553,506.3
839.3044,319.9
839.348,441.1
839.5869,1492.8
839.6754,902.6
840.3143,140.6
840.3527,185
840.5856,1186.8
840.7696,1468.3
840.7938,645.7
840.8354,20.7
840.8631,716.2
842.1624,412.5
842.2334,119.6
842.7786,533.3
843.0088,322
843.3279,224.9
843.9622,453.1
843.9978,190.1
844.3946,1112.7
844.5278,16622.6
844.8666,83.1
845.0839,256.5
845.1318,327.7
845.3668,20.1
845.5323,6256.7
845.5815,397.4
845.756,607.7
845.8129,23.2
846.3271,873.1
846.5438,7452.5
846.9709,20.1
847.0477,157
847.2975,185.7
847.5484,3197.5
848.5574,6084.4
848.6851,1172
849.0276,1496.3
849.1472,181.9
849.4276,120.2
849.5549,921.8
849.9577,114
850.0475,1965.3
850.1845,299.6
850.9397,134.6
850.9975,553.1
851.4617,111.2
851.6433,129.4
851.7798,965.2
851.893,355.2
852.0596,32.2
852.0853,374.1
852.3531,23.5
852.5932,770
852.6428,84.1
853.7992,510.6
853.8488,408.3
854.3292,1113.2
854.3888,213.1
854.4575,537.9
854.5708,2061.4
854.707,414.4
855.5359,29.9
856.305,122
856.585,3732.9
856.6628,1008.8
857.1464,137.1
857.4904,197.5
857.585,2015.5
857.8888,523.7
857.9323,323.8
858.0765,172.5
858.3242,404.1
858.5958,536.2
859.3649,484.7
859.5731,22.6
859.7493,396.6
859.8696,829.9
860.0376,558.1
860.0791,398
860.1597,146.5
860.2414,756.5
860.3713,390.2
860.5976,19
861.5528,20.4
863.5617,194.1
863.8013,921.5
863.9741,905.7
864.0839,485
864.1933,1593.7
864.2408,390.6
864.3731,120.8
864.4163,119.7
864.6641,125.1
864.8107,714.9
865.0961,25.3
865.3716,307.1
865.6025,586.3
865.7703,1044.9
865.8832,243.6
866.4865,257
868.2083,556
868.3267,957.5
868.4186,722.8
868.8766,690.7
868.9337,511.8
869.077,808.8
869.4429,774.9
869.5317,1004.6
869.5982,693.3
869.6412,1686
869.7013,2313.7
869.7698,3195.1
869.8007,3664.4
869.8387,1727.4
869.8621,1764.7
869.9065,6466.4
869.9536,2967.4
869.981,2418.3
870.02,1194
870.0476,421.6
870.0906,102.1
870.1502,104
870.2304,19.7
870.3609,138.7
871.0119,113.2
871.3035,164.1
871.6935,131
871.9216,1176.8
872.5404,1263.1
873.1468,98.5
873.7891,159.3
874.511,888.1
874.6198,267.6
874.771,671.5
874.8136,1452.5
874.9715,449.6
875.009,122.9
875.0927,341.2
875.1978,118.5
875.5394,246.9
875.9307,19.6
876.0995,100.8
876.1656,85.8
876.2092,1053.4
876.2721,126.4
876.334,299.1
876.718,203.1
878.0193,281.8
878.2558,643.9
878.2787,380.3
878.8247,607.8
878.9221,955.2
878.9844,406.1
879.4413,182.5
879.4669,1148.1
880.5742,568.1
881.3085,795.4
881.4271,19.1
882.1314,116.5
882.3809,637.4
882.4386,1012.3
883.4298,854.3
883.62,857.7
883.6425,1197.2
883.8196,189.4
884.0742,106.9
884.4264,178.4
884.5811,150.9
885.1199,165.5
885.4946,343.4
885.743,20.2
886.1369,106.4
886.241,37.1
886.6518,782.6
886.9928,118.5
887.81,504.1
888.2038,21.9
888.6135,105.6
888.8624,203.8
888.9441,518.8
889.209,114.9
889.4803,36.9
889.7302,80.2
889.7697,268.2
889.8389,397.8
889.8874,434.2
890.1702,91.7
890.5905,330.6
891.6738,260.2
891.7379,171
892.2698,20.4
892.5041,612.3
892.5721,646.5
893.3497,190.1
893.7814,115.3
893.8258,358.6
894.0991,309
894.2743,953.7
894.3488,443.5
894.4306,854.8
894.5913,165.6
894.6833,587.3
894.7846,1119.7
894.8418,151.4
894.9879,944.3
895.0044,1304.3
895.4325,460
895.5394,205.5
895.7527,19
895.7953,760.5
896.0036,165.5
896.5778,870.6
897.1564,191.4
897.7699,183.6
898.3737,1102.1
898.5193,146.4
898.9773,183
899.1185,175.7
899.4959,84.6
899.6088,1254.8
900.0521,529.7
900.3417,181.4
900.4988,645.3
901.2117,134.5
901.9911,88.2
902.3184,106.4
902.4555,332.7
902.7615,122.1
903.6803,618.8
904.0915,1624
904.5749,313.7
904.7201,444.3
905.1664,525.8
905.2027,311.4
905.3723,1013.8
905.6809,758.1
905.8593,789.1
906.0696,163.6
906.2196,2421.5
906.6029,20.1
907.3601,941.7
907.7643,611.8
908.052,159.5
908.0764,340.8
908.5939,1158.2
908.8466,826.1
908.9465,250.2
909.0142,86
909.1199,435.3
909.2468,122.7
909.5589,92.1
909.9991,115.6
910.7536,1040.9
911.2421,172
911.9336,193.8
912.335,200.3
912.7999,174.9
913.0212,731.4
913.0481,468.8
913.6072,396.3
913.6622,1081.5
913.7667,228.1
914.8449,703.2
915.5848,424.8
916.0507,160
916.4084,293
917.0294,18.3
917.0582,1317.1
917.2684,847.7
917.3463,203.1
917.5295,1539.1
917.5613,21.5
918.0992,122
918.2296,23.3
918.5031,102.7
918.6005,1187.2
918.7345,570.3
918.7651,1243.3
918.8263,1500.8
919.1093,196.9
919.1912,20.5
919.6987,737.4
919.8284,558.3
919.9659,21.7
920.0814,143
920.1885,1053.7
920.2131,1322.3
920.8342,686.7
920.9006,176.8
921.1614,171.4
921.9355,20.3
921.9808,676.7
922.1192,936.5
922.6676,22.5
922.9383,155.4
923.2563,30.6
923.4788,603
923.8466,803.7
923.8927,91.4
924.0361,768.8
924.8945,293.3
924.989,403.4
925.8504,343
926.6711,162.6
926.7116,152.6
926.7994,187.7
927.2623,301.3
927.6477,287.2
927.6772,229.2
927.7973,1092
927.9996,238.7
928.0305,590.1
928.1855,78.2
928.2613,245.4
928.7094,20.9
929.0079,620.2
929.3772,111.9
929.7783,1445.7
930.0234,872.2
930.6934,665.7
930.7743,105.6
931.1447,431.7
931.2634,18.2
931.352,837.5
931.5262,697.8
931.5869,204.4
931.7944,134.3
932.2063,90.9
932.701,1604.3
932.8219,335.9
933.1786,20.6
933.3908,918.1
933.4366,26.7
933.5757,133.2
934.2398,362.7
934.5656,605.4
934.7228,792.1
934.8261,737.7
934.914,550.1
935.6914,729.7
936.2418,145.7
936.4491,98.8
936.7917,1056.1
937.402,849.8
937.4939,96.7
937.9745,741.1
938.1005,17.5
939.0562,471.9
939.1916,1235
939.9574,18.3
940.1001,81.7
940.8259,780.1
941.0024,346.9
941.0582,24.5
941.2622,90
942.0291,150.2
942.0887,19
942.1761,134.5
942.5365,342.7
942.6552,702.3
942.6944,364.2
943.0047,86.5
943.0729,184.6
943.1698,199.1
943.2285,697.8
943.5095,1954.7
943.6671,704.6
943.781,1442.5
945.2745,202.5
945.6343,1015.9
946.0588,659.7
946.3684,247.7
946.6725,708.3
946.6879,731.3
946.7642,132
946.9077,86.1
947.1166,951.6
947.3656,909.7
947.5674,299.3
947.6778,300.8
948.0841,540.8
948.2238,665.2
948.3705,1610.6
948.48,107.5
948.7144,782.6
948.8694,2194.3
948.9407,1586.3
949.0192,703.8
949.0894,21.8
949.1709,21.1
949.3298,722
949.5097,352.3
949.9055,96.6
950.1026,134.4
950.1405,193.6
950.6483,20
950.8036,111.5
950.9332,248
951.0594,20.3
951.2631,183.7
951.4914,21.4
951.7399,172.6
951.8076,1225.7
952.4818,1504.6
953.2332,1149.8
953.9832,19.3
954.0414,488.3
954.8669,231.4
955.0071,437.9
955.1769,349.3
955.4091,1026.1
955.5608,21.2
956.0628,21.5
956.2868,275.2
956.5366,361
956.8783,1689.4
956.972,156.7
957.0017,22.9
957.5035,246.7
958.8192,955.8
958.9414,265.5
959.049,74.1
959.3675,83.8
960.0224,1253.1
960.5491,313.7
960.5909,292.5
960.9135,320.4
961.0476,597.8
961.1107,229.5
961.2025,1408.1
961.2905,719.9
961.6006,85.7
961.8776,721.3
962.1479,289.5
962.8124,19.1
962.9818,260.7
963.1247,120.6
963.5646,128.6
963.6277,216.9
963.7459,344.8
964.0489,231.4
964.2906,37.6
964.4416,795.5
965.0598,441.4
965.1424,235.3
965.17,1982.2
965.2072,2085.6
965.2526,123.1
965.2865,273
965.8312,994.7
966.1223,842
966.3157,1042.8
966.4974,369.6
966.5585,77.2
966.6204,893.4
966.6652,102
966.7402,271.9
967.0154,155.4
967.814,296.3
967.976,106.3
968.2637,355.5
968.4978,680.4
968.5636,545.7
968.6118,1633.4
968.7037,163.6
968.8127,123.9
968.9138,211.4
969.0997,1017.2
969.2541,510.8
969.5837,127.1
969.649,340.6
969.6853,91.5
969.9135,583.8
970.0165,1488.8
970.5025,91.9
970.6895,173.3
970.9703,300.2
971.0672,3987.9
971.0956,656.8
971.4908,567.2
971.5376,229.1
972.0904,107.8
972.8829,99.3
972.9982,114.8
973.3186,111.7
973.8277,109.2
974.0344,107
974.1489,940.4
975.0614,134.9
975.4441,2681.6
975.7719,656.9
975.8901,175.7
976.2407,519.7
976.6289,325.9
976.7952,698
976.9799,259.7
977.0374,243.7
977.2355,442.6
977.4636,505.9
977.8562,734
978.125,18.7
978.5366,1154.7
978.7718,936.8
979.7936,305.7
979.8586,335.2
980.0389,2520.1
980.1586,399.5
980.5725,364.6
980.7522,207.8
981.1691,114.3
981.2918,962.4
981.8932,257
982.4658,75.9
983.0246,524.8
983.1559,785.2
983.4602,224.1
983.7186,565.4
983.8835,886.2
984.0523,749.7
984.8353,612.2
985.2514,1105.2
985.2786,1222.2
985.3381,260
985.3762,307.3
985.9385,728.3
986.3365,515.3
986.3818,472.3
986.4153,139
986.7164,472.5
986.8741,1721.2
986.9775,1808.9
987.3543,113.7
987.7547,141.3
988.3665,185.4
988.777,623
989.2624,96.9
990.2145,125.2
990.32,375.2
990.7664,422.1
991.3257,236.8
991.7395,83.4
992.5743,526.4
993.1026,801.6
993.7399,239.5
994.2751,20.5
994.3864,769.7
994.5098,304.1
994.6613,710.1
995.4436,1800.2
995.5742,160.5
995.6721,238.6
995.7269,26.1
995.8608,176.8
996.2488,538.3
996.5815,115.5
996.7165,273.1
997.4641,739.8
997.7294,118
997.8994,190
998.1257,161.9
998.1521,768.3
998.4315,21.5
998.6928,121.9
999.1956,365.8
999.5515,568.7
999.6834,194.9
999.8816,939.1
