SPECTRUM - MS,
1638.RAW,
FTMS + p ESI Full ms [50.00-1000.00],
Scan #: 1-40,
RT: 0.01-1.96,
AV: 40,
m/z,Intensity

50.0015,159.2
50.0198,191.1
50.0302,305
50.0391,116.1
50.0435,233.4
50.0831,285.5
50.0843,15.8
50.0952,17.7
50.1042,78.3
50.12,190.8
50.1217,469.3
50.1286,887.3
50.1425,298.8
50.1658,265.9
50.1734,138.9
50.1901,303.5
50.1991,145.8
50.2057,500.4
50.227,14.9
50.2328,504.8
50.2556,158.1
50.2754,17.6
50.2999,493.1
50.3054,274.1
50.3191,16.8
50.3242,182.1
50.3435,238.6
50.3459,160.1
50.3552,663.3
50.3579,632
50.3761,106.8
50.3826,139.4
50.3896,16.7
50.4203,461.3
50.4231,91.6
50.4332,183.4
50.4346,74.3
50.45,84.4
50.4621,636
50.4655,102.2
50.4719,83.2
50.4729,126.8
50.4752,238.6
50.4785,192.6
50.4792,771.3
50.484,76
50.4906,633.6
50.5043,103.7
50.5056,499.6
50.5108,136.6
50.5495,95.2
50.5591,303.5
50.5724,96.2
50.5777,115.7
50.584,264
50.5912,100.8
50.594,154.4
50.6073,16
50.6075,177.9
50.6157,17.7
50.62,254
50.6235,401.9
50.6239,480.1
50.6309,300.3
50.6314,132.8
50.6418,842.5
50.661,122.3
50.675,123.3
50.6765,214.6
50.6955,162.5
50.6974,78.2
50.7058,66.6
50.7118,212.1
50.7262,13.6
50.7281,67
50.7376,116.5
50.7494,224
50.7516,147.4
50.7583,81.8
50.7655,19.1
50.7924,324.2
50.7981,242.1
50.8067,73.1
50.8253,160.7
50.8268,299.6
50.8315,238
50.832,239
50.8368,516.3
50.8445,132.3
50.8456,109.1
50.8517,213.1
50.8614,159.3
50.8696,601.7
50.8747,952.5
50.8792,531.1
50.8899,100
50.8902,107.2
50.8907,166.5
50.8996,143.9
50.9295,214
50.9345,519.3
50.9586,515.6
50.9688,170.2
51.0141,111
51.0206,463.7
51.037,752.4
51.0379,101.9
51.0544,73.6
51.055,601.1
51.056,532
51.0572,241.2
51.066,531.2
51.095,120.3
51.0971,96.5
51.0998,824.5
51.1017,433.1
51.1222,15.9
51.1291,17.3
51.1314,18.6
51.1468,175.2
51.1491,141.2
51.1781,107.2
51.1951,15.8
51.1975,116.5
51.2058,112
51.2099,16.5
51.2141,192.2
51.2194,15.4
51.2296,17.5
51.2306,84
51.233,586.3
51.2394,493.3
51.2494,105
51.2529,120.5
51.2569,558.3
51.2769,244.1
51.2834,105.9
51.2869,384.9
51.2874,17.1
51.3053,119.6
51.3099,156.8
51.3271,553
51.3471,17.7
51.361,509.7
51.3781,85.4
51.3831,121.3
51.3851,252.9
51.4069,109.5
51.4529,226.3
51.4577,16.1
51.4586,16.5
51.459,304.1
51.4613,75.1
51.4624,19.3
51.4644,573.8
51.4729,194.4
51.4833,241.2
51.4966,98.2
51.5035,1029.7
51.5059,83.5
51.5066,82.2
51.539,483.6
51.5452,613.6
51.5712,316.9
51.5842,162.4
51.5914,163.7
51.6056,16.1
51.6155,826.8
51.6168,81.7
51.6188,18.4
51.6417,484.3
51.6462,369.6
51.6554,85.4
51.6561,115.1
51.6656,183.6
51.6792,17.6
51.693,108
51.6963,597
51.7058,229.5
51.7098,299.8
51.7151,18.3
51.7466,535.8
51.7477,850.3
51.7737,191.2
51.7884,281.1
51.7959,76.2
51.8213,68.3
51.8463,73.2
51.8522,534.3
51.8551,104
51.8564,261.4
51.8576,141.1
51.8591,156.5
51.8874,177.9
51.8916,756.4
51.8927,550
51.8985,124.4
51.9041,95.6
51.9199,206.2
51.9302,193.3
51.9332,72.6
51.9452,502
51.9474,108.2
51.9485,677.9
51.9782,635.3
51.9806,461.1
51.985,101.8
52.0017,115.9
52.0048,206.3
52.023,86.7
52.0384,148.5
52.0439,202.3
52.0497,195.3
52.0557,174.8
52.0558,175
52.1133,488.2
52.1731,159.5
52.1897,305.3
52.1932,526.8
52.2252,239
52.235,512.8
52.2354,306.5
52.2471,560.6
52.2538,136.5
52.2549,268.2
52.2642,216
52.2691,127.5
52.2713,964.9
52.2848,82.2
52.2892,313.2
52.3097,16.8
52.3198,247.6
52.3289,119.8
52.3536,144.3
52.3578,84.2
52.3605,16.7
52.3645,211.6
52.3792,371.6
52.3845,845.5
52.4016,71.2
52.4096,225.3
52.4572,15.5
52.4784,761.4
52.4815,135.1
52.4873,72.8
52.488,526.4
52.4921,602
52.5162,108.5
52.5337,128.2
52.5355,518.5
52.5374,89.8
52.5434,340.7
52.549,16.8
52.5558,826.4
52.5584,574.6
52.5593,283
52.5769,728.3
52.5779,15.8
52.5819,215.2
52.607,124.2
52.6135,66.2
52.6155,485
52.6236,72.3
52.6482,76.9
52.6591,607.5
52.6767,128.9
52.697,329.5
52.6992,470.8
52.7181,567.9
52.7345,257.3
52.7377,293.7
52.7381,848.6
52.7392,208.2
52.7502,961.7
52.7556,250.9
52.7697,77.2
52.7755,17.8
52.7835,214.9
52.7895,15.8
52.7925,125.8
52.7937,124.5
52.7975,46.5
52.7988,48.4
52.7992,1359.9
52.8,2472.8
52.8007,173.5
52.8021,1187.8
52.8026,1256.4
52.803,634
52.8039,271.8
52.8044,516.8
52.8141,257
52.848,181.9
52.8544,140.9
52.8591,127.2
52.8734,16.4
52.8956,141.5
52.9026,79
52.9058,100.3
52.9118,192.9
52.9145,18
52.9175,96.7
52.9496,17.7
52.9506,230.3
52.9754,128.7
52.9817,126.9
53.0198,78.2
53.0231,624.9
53.0336,230.5
53.0401,117.9
53.0444,130.3
53.0532,97
53.0581,236.2
53.0598,330.8
53.0627,142.5
53.0717,78.8
53.0806,17.4
53.0867,525.3
53.087,482.5
53.1014,84.6
53.113,926.8
53.1136,551
53.135,364
53.1645,128.8
53.1692,222.8
53.1856,686.3
53.1949,20.5
53.1955,443.2
53.2,348.1
53.208,547.2
53.2152,594.7
53.2388,595.7
53.2471,503.9
53.2531,25.4
53.2674,253.6
53.2701,66.7
53.2758,175.3
53.2889,389.7
53.3272,251.2
53.3273,308.8
53.3313,210.5
53.3383,285.1
53.3453,127.7
53.3484,83.1
53.3613,238.6
53.3617,1008.2
53.3744,606.5
53.3786,134.3
53.4259,70.4
53.4369,159.2
53.4474,255.5
53.4663,599.3
53.4748,77.9
53.4756,189.4
53.4799,20.6
53.4879,835.4
53.5071,99.9
53.5098,260.5
53.5355,237
53.5404,577.5
53.5455,75.5
53.5668,96.9
53.5707,82.7
53.574,491.2
53.5792,15.9
53.5902,149.3
53.5911,149.3
53.6157,164.5
53.6213,269.4
53.6565,187.4
53.658,264.6
53.6595,20.5
53.6656,96.6
53.6848,78.2
53.6872,77.9
53.6964,625.1
53.697,73.1
53.7027,489.4
53.71,156.9
53.7114,565.6
53.7145,415.6
53.7266,68.6
53.7351,245
53.745,217.1
53.7462,252.9
53.7587,590.3
53.764,75.4
53.7657,151.8
53.7728,318.9
53.7807,83.2
53.7817,92.8
53.7998,108.1
53.8177,122.8
53.8242,218.6
53.8269,16
53.8468,71.1
53.8488,75.5
53.8526,325.4
53.9006,151.8
53.9028,250
53.9466,206
53.9523,214.1
53.9557,75.3
53.9599,81
53.9649,103.7
53.9756,1088
53.9901,125.3
54,94
54.0351,103.5
54.0381,293.3
54.0388,306.4
54.0518,559.7
54.0569,72.9
54.0788,205.4
54.0881,226.6
54.109,117.9
54.117,102.8
54.1205,82
54.1229,179.5
54.129,502.5
54.1338,108.4
54.1368,14.9
54.1378,18.5
54.1543,899.4
54.1613,460.3
54.1874,713.9
54.2079,868.7
54.2099,73.5
54.2282,68.1
54.2343,385.7
54.2631,141.6
54.2722,72.3
54.2766,17.1
54.277,217.9
54.2914,511.1
54.3063,164.8
54.3262,260
54.338,201.3
54.3407,16.2
54.3487,16.5
54.3515,625.8
54.3556,16.5
54.3611,90.7
54.3727,146.6
54.3835,187.8
54.4012,150.9
54.405,171.9
54.4157,19.3
54.4183,74.9
54.4314,87.5
54.4413,77.7
54.4473,129.4
54.4574,106.2
54.4666,508.6
54.4765,173.1
54.4789,16.5
54.4956,16.3
54.4961,152.5
54.5035,656.1
54.5073,208.9
54.5097,459.7
54.5235,87.4
54.5373,81.6
54.5387,196.4
54.5614,247.3
54.565,96
54.5686,17.3
54.6026,575.7
54.6307,339.2
54.6505,690
54.6608,151
54.6649,947
54.6707,94.2
54.675,116.1
54.6949,114.4
54.7079,81.9
54.7115,159.3
54.7201,80.3
54.7205,123.4
54.7347,120.4
54.7445,236.5
54.7546,95.6
54.7562,121.5
54.7895,132.3
54.8088,605.3
54.8114,18.6
54.8145,138.9
54.8284,98.1
54.8679,137
54.8689,280.3
54.876,95.8
54.8776,224.8
54.8788,200.5
54.8922,209.9
54.8934,72.4
54.9087,121.8
54.9606,176
54.9613,83.4
54.9651,76.6
54.9904,16.7
54.993,536.7
55.0134,159.8
55.0143,244.9
55.0184,97.6
55.0188,128.7
55.0301,135.3
55.0371,92.5
55.0561,158.6
55.0604,523.1
55.063,136.9
55.0672,322
55.0901,199.3
55.1189,18.9
55.1261,88.8
55.128,224.5
55.1448,75.9
55.1671,139.9
55.1775,17.9
55.1796,80.3
55.2238,535
55.2645,17.5
55.2783,421.8
55.2789,171.2
55.28,110.9
55.2934,482
55.2963,80.8
55.3079,232.2
55.3202,85.8
55.3299,108.3
55.3327,163.5
55.333,160
55.3593,234.2
55.3653,174
55.3736,16
55.3824,295.4
55.4025,17.8
55.4056,85.9
55.4303,591.8
55.4525,350.8
55.4729,251.2
55.4886,217.8
55.4904,326.1
55.5085,271.7
55.5161,757.6
55.521,167.9
55.5381,128.2
55.5457,192.9
55.577,136.8
55.5782,792.6
55.6055,352.3
55.631,349.2
55.6452,105
55.6488,669.5
55.6564,79.4
55.6607,140.1
55.6724,167.2
55.6892,20.2
55.6898,120
55.7005,80.3
55.7048,528
55.7109,269.1
55.714,74.3
55.7386,480.2
55.7407,310.8
55.7465,225.5
55.7504,385.1
55.7551,515.7
55.773,164.4
55.7821,16.1
55.8001,285.3
55.8028,193.8
55.806,224.4
55.8251,20.1
55.8374,512.3
55.8392,23.3
55.865,99.3
55.8719,568.9
55.8734,85.1
55.8812,16.4
55.8853,15
55.8888,610.8
55.8966,957
55.9126,145
55.9395,414.6
55.9456,557.3
55.9492,623.3
55.9504,453.1
55.9679,405.2
56.0153,133.7
56.0166,15.3
56.0218,82.9
56.0551,114.3
56.0574,225.8
56.0603,78
56.0677,168.9
56.0682,18.3
56.0701,109.2
56.0886,198
56.0918,17.4
56.1127,250.6
56.1147,100.6
56.1348,68.7
56.1704,116.8
56.1794,549.3
56.2695,804
56.3421,506.6
56.3741,75.8
56.4069,131.7
56.4207,89.1
56.4341,21.8
56.4451,311.1
56.4602,64.8
56.4685,254.1
56.4707,269.8
56.4887,637.8
56.4924,17.5
56.5004,152.4
56.5028,93.1
56.5161,15.4
56.5327,523.5
56.536,513
56.5403,537.6
56.5409,89.4
56.5606,17
56.5786,665.4
56.5864,16.9
56.5874,82.5
56.5937,123.2
56.6183,77.9
56.624,16.9
56.6471,216.8
56.6572,205
56.6613,660.6
56.6656,268.1
56.6708,16.8
56.6745,177.6
56.6866,15.7
56.689,155.6
56.715,148.1
56.7268,122
56.7502,159.3
56.7515,367.7
56.759,189.1
56.803,536.6
56.81,253
56.8171,19.9
56.8528,758.9
56.8536,294
56.8835,640
56.8942,193.7
56.9143,616.4
56.9318,123.4
56.9337,187.1
56.9686,229
56.9721,160.9
56.9741,107.9
56.9765,192.5
56.9827,117.6
57.0058,109
57.0191,100.7
57.0405,565.5
57.0721,548.5
57.079,199.2
57.0896,834.6
57.0957,98.3
57.0969,106.6
57.1036,129.8
57.1238,66.6
57.1346,530.1
57.1583,64.9
57.1601,651
57.1628,269.6
57.173,541.5
57.1756,96.4
57.1765,625.7
57.1768,328.3
57.1926,76.4
57.2008,374.5
57.209,87.2
57.2847,76
57.3313,531
57.3326,643.5
57.3412,105.7
57.3425,93.5
57.3439,580.5
57.3559,73.6
57.3698,685.2
57.3762,174.6
57.3885,134.2
57.3939,71.6
57.3952,511.9
57.4188,814.1
57.428,110.8
57.4351,155.2
57.455,289.5
57.4585,551.1
57.4758,96.4
57.4815,16.1
57.4818,15.9
57.4853,19.4
57.4918,96
57.5029,186.7
57.5091,223.5
57.5128,104.3
57.5229,73.1
57.523,73.4
57.5241,251.6
57.5324,174.8
57.5339,696.8
57.5466,662.4
57.5788,310.3
57.6124,554.2
57.6271,14.5
57.6437,17.8
57.6638,530.8
57.6673,80.4
57.6764,530.6
57.6807,227.2
57.691,148
57.6934,554.4
57.6987,289.7
57.7178,15.7
57.7216,218.6
57.7413,520.1
57.742,203.5
57.7674,15.9
57.7741,218.3
57.7816,17.3
57.7864,89.5
57.791,295.4
57.7927,88.5
57.822,157.3
57.834,75.3
57.8387,129.2
57.8569,349
57.8588,149
57.8822,17.7
57.8953,131.6
57.9097,174.2
57.921,545.9
57.9592,528.9
57.9637,90.5
57.9791,474.3
57.9815,20.1
58.0046,91.5
58.0077,606.4
58.0102,115.8
58.0353,241.5
58.0564,211.1
58.064,299.5
58.0713,429.9
58.0727,19.5
58.0847,76.6
58.0851,519.5
58.0949,112
58.0967,658.3
58.1178,538.5
58.1194,19.6
58.1215,123.1
58.1222,158.6
58.1728,17.5
58.182,498.1
58.192,18.8
58.2209,738.8
58.2348,99.3
58.252,968
58.2544,825.3
58.2921,491.8
58.2959,382.3
58.3038,283.3
58.318,101.9
58.3204,64.2
58.3431,204.1
58.3493,114
58.371,16.9
58.3872,86.4
58.388,514.1
58.3903,851.6
58.3962,634.2
58.4007,79.6
58.4159,109.3
58.4181,68.7
58.4226,522.1
58.4304,233
58.438,235.1
58.4475,283.4
58.4484,344.7
58.4577,102.4
58.4584,167.4
58.4824,702.1
58.4864,130
58.503,425.2
58.5062,75
58.5093,209.2
58.5426,19.1
58.5427,17.9
58.5589,372.3
58.565,559.1
58.5679,754
58.5712,86.6
58.5893,15.9
58.634,120.1
58.6346,138.8
58.6367,72.2
58.6375,67.8
58.6391,17.9
58.6416,275.3
58.6517,131.2
58.6828,301.8
58.6834,558.2
58.6928,294.5
58.694,206.6
58.7036,567.2
58.7302,275.5
58.75,203.9
58.7528,575.9
58.7565,336.2
58.7631,103.5
58.7644,238.3
58.7712,270.4
58.7931,21.3
58.796,588.4
58.811,300.8
58.8129,16.2
58.8277,17.7
58.8421,107
58.8454,446.7
58.8674,603.2
58.8983,125.6
58.9188,121.6
58.9201,638
58.9277,125.2
58.9511,95.3
58.9556,346.2
58.9604,142.9
58.962,340.7
58.9634,341.7
58.9684,322.6
58.9788,116.3
58.9873,632.7
58.9998,137.3
59.0137,105.1
59.0256,15.6
59.0467,113.9
59.076,531.6
59.0887,566.1
59.095,184.5
59.1041,121
59.1086,112.9
59.1112,129.1
59.1215,498.4
59.1424,421.6
59.1531,657.7
59.1647,315.2
59.1746,347.9
59.1761,335.4
59.1903,76.4
59.1941,392.7
59.2228,17.2
59.2285,159.5
59.247,553
59.3156,537.8
59.3193,539.4
59.3235,108.3
59.3316,16.2
59.3341,220.9
59.3391,265.6
59.3534,209.8
59.3543,275
59.3549,73.6
59.358,17.8
59.3726,583.4
59.3748,312
59.3754,106.2
59.3828,77.6
59.4038,196.3
59.4201,286.3
59.4223,676.9
59.4325,243.1
59.4346,18.7
59.4411,330.7
59.447,417.5
59.4485,336.8
59.4509,576.9
59.4612,225
59.4665,339.2
59.4676,110.6
59.472,149
59.4819,587.8
59.5106,76.3
59.5145,17.1
59.536,210.9
59.5479,201.6
59.5563,16.5
59.5739,632.9
59.5759,584.4
59.5789,160.7
59.5973,254.9
59.6049,456.3
59.6136,111.8
59.6326,151.7
59.6409,280.8
59.6422,17
59.6471,19.7
59.6535,225.7
59.6571,98.3
59.6697,134.9
59.675,510.6
59.6874,747.8
59.6885,77.1
59.6985,224.3
59.7052,230.6
59.7091,133.7
59.7259,279.5
59.7405,702.4
59.7539,17.3
59.7634,139.9
59.7659,251.5
59.7777,739.1
59.7794,378.2
59.7822,150.1
59.7878,608.6
59.7971,184.1
59.8011,82.1
59.8054,269.9
59.8088,227.4
59.8111,274.8
59.8578,154.4
59.8599,117
59.8664,94.9
59.8671,186.6
59.8799,114.2
59.9007,112.3
59.918,338.6
59.9256,287.1
59.9469,120.1
59.9506,87.1
59.9622,242.1
60.0141,130.7
60.0216,134.5
60.0269,647.3
60.0361,17.9
60.0424,552.5
60.0456,173.8
60.0524,145.3
60.0604,229.6
60.0629,142.9
60.0776,73.1
60.0804,848.6
60.0991,106.1
60.115,142.9
60.1307,311.2
60.1565,92.3
60.1597,74.6
60.1687,334.8
60.1766,522.7
60.1875,80.7
60.1977,71.2
60.2338,506.6
60.2531,156.2
60.2682,16.1
60.2717,76.6
60.292,16.3
60.3032,123.3
60.3212,385.6
60.3263,111.4
60.3267,15.7
60.3613,250.7
60.3622,309.5
60.3631,107.2
60.3682,74.4
60.3743,74.7
60.3803,139.3
60.4024,122.6
60.4032,114.3
60.4277,789.2
60.4567,997.1
60.4855,147.3
60.5016,604.4
60.5119,555.4
60.5165,87.2
60.5204,543.7
60.54,18.2
60.5434,445.7
60.5503,425.1
60.5538,17.5
60.5708,126.3
60.5735,619.2
60.5743,1055.7
60.5879,108.7
60.5903,452.3
60.6055,544.4
60.6246,68.7
60.6249,65.1
60.6256,67
60.6556,72.5
60.6719,217.4
60.6843,815.4
60.6953,200.7
60.6969,16.8
60.7017,548.8
60.7025,17.4
60.7097,390.2
60.7164,498.9
60.719,79.2
60.7303,637.4
60.7539,340.5
60.7774,790.3
60.7798,78.7
60.7853,17.5
60.7903,522.3
60.7982,15.5
60.8023,19.1
60.8179,74.2
60.8368,818.5
60.8531,336
60.8685,153.7
60.8756,87.2
60.8786,990
60.8881,410.6
60.8996,145.1
60.9214,93.9
60.9486,565.1
60.9677,15.4
60.9792,116.5
60.983,518.9
60.9907,275
60.9959,498.2
61.0014,107.1
61.0318,140.9
61.0411,119.9
61.0594,397.4
61.0674,589
61.1071,106
61.1716,436.4
61.1768,102.9
61.1866,170.3
61.1971,236.1
61.2388,123.7
61.2462,128.2
61.2523,214.8
61.281,119
61.2826,16.7
61.3389,369.8
61.3522,24
61.3555,107.4
61.3594,21.4
61.3652,130
61.3703,291.8
61.3787,143.9
61.3814,122.5
61.4002,16.7
61.4074,197.6
61.414,179.5
61.4193,77.4
61.4422,625.2
61.4442,193.1
61.4779,148.5
61.5298,146.4
61.5492,199.5
61.5775,189.9
61.5978,108.9
61.599,282.7
61.6147,100.9
61.6176,87.8
61.6413,312.1
61.6616,264.8
61.6684,92.4
61.6702,119.8
61.688,615
61.6961,75.1
61.6989,196.4
61.7099,547.6
61.7407,119.8
61.7469,16.4
61.7495,143.1
61.869,197.9
61.888,103.2
61.9021,117.4
61.9135,391
61.9361,498
61.9473,955.8
61.9525,817.3
61.9658,148.8
61.9729,173.2
61.9823,664.2
62.0289,248.8
62.044,428.8
62.0724,147.1
62.075,109.5
62.1214,165.3
62.1251,170
62.1395,331.6
62.1412,295.3
62.1419,161.6
62.1473,80
62.1548,705.7
62.1869,524.9
62.1981,441
62.2008,223.3
62.2021,244.3
62.2032,94.1
62.2054,318.5
62.2215,70.7
62.2346,281.8
62.2394,301.9
62.2591,279.3
62.2724,316.9
62.2932,159.5
62.2942,659.8
62.3054,118.2
62.3147,89.9
62.3169,121.4
62.3212,195.9
62.3342,85.6
62.3372,17.9
62.3529,16.7
62.3694,567.2
62.3839,188.3
62.3979,161.8
62.4215,74.5
62.4305,89.6
62.4523,1150.7
62.5175,200.3
62.5298,17.8
62.5391,103.7
62.5447,1091.9
62.5499,128.1
62.5504,16.1
62.5802,125.1
62.5822,555.5
62.6217,86.9
62.6376,164.8
62.6391,312.3
62.6486,118.3
62.6531,88.8
62.6557,160.7
62.6684,144.2
62.6892,135
62.709,170.5
62.7118,17.5
62.7225,108.9
62.7235,695.8
62.79,146.4
62.7928,69.1
62.8223,198
62.8344,351.7
62.8366,320.3
62.8506,327.6
62.8553,176.9
62.859,350.9
62.8743,538
62.8758,109.5
62.889,273.1
62.8967,81
62.8984,149.8
62.9352,587.4
62.9619,83.5
62.97,184.8
62.9714,84.1
62.9721,509.5
62.9773,234.1
63.0057,218.2
63.0142,271
63.0221,514.6
63.0342,337.4
63.0444,805.3
63.0655,212.7
63.0692,809.1
63.0821,77
63.0837,106.9
63.0864,122.1
63.0975,155.1
63.1034,17.5
63.1073,109.2
63.1087,1270.2
63.1236,125.1
63.1407,124
63.1683,217.3
63.1772,281.6
63.1792,390.4
63.1882,80.1
63.1896,20.4
63.2071,122.5
63.2154,185.4
63.2169,302.3
63.2201,132.7
63.2418,453.5
63.2456,16.5
63.2586,500.7
63.2805,81.9
63.2923,16.4
63.3091,82.7
63.3545,479.1
63.3764,539.1
63.4178,791.7
63.4329,306.3
63.4546,203.5
63.469,374.2
63.4728,163.3
63.4735,607.9
63.4743,142.8
63.476,105.8
63.4805,281.3
63.4848,715.6
63.4889,313
63.5112,145.6
63.5221,18.8
63.5292,85.4
63.5503,138.8
63.557,121.5
63.5611,119.1
63.5629,21.7
63.564,166.2
63.5689,228.1
63.5818,92.2
63.5875,677.9
63.5877,640.7
63.6302,693.5
63.6494,116.8
63.6556,269.3
63.7219,553.1
63.7286,98.2
63.731,102.9
63.7358,585.6
63.7481,221
63.7549,127.6
63.7703,227.9
63.7781,207.9
63.8002,198.1
63.8064,123.5
63.8087,114.3
63.8134,297.6
63.8155,131.1
63.8339,184.4
63.8559,18
63.8709,610.3
63.873,118.7
63.9276,546.6
63.9383,215.7
63.9402,81.1
63.9409,85.3
63.9663,227
63.9797,601.8
63.9975,90
64.0039,302.7
64.0048,213.4
64.0149,163.4
64.0164,162.5
64.0237,117.5
64.0359,98.2
64.0454,216.7
64.0479,958.3
64.0613,120.1
64.0739,721.9
64.0999,126.9
64.1041,213.2
64.1144,18.1
64.1271,377.9
64.1327,255.9
64.138,164.6
64.1604,88.2
64.1614,394.3
64.1673,189.5
64.1777,201.3
64.2061,161.7
64.2103,18.3
64.218,125.8
64.2208,329.5
64.2476,116.8
64.261,616.9
64.2875,156.9
64.2897,145.5
64.2968,314.8
64.3107,185.2
64.3232,184.8
64.3411,788.4
64.3472,16.2
64.3486,106.1
64.3586,200
64.3602,78.6
64.407,143.9
64.4081,256.2
64.4271,645.5
64.4289,460
64.4617,213.8
64.4677,21.2
64.4692,189.1
64.4788,280.9
64.5047,445.3
64.5233,263.7
64.5328,157.5
64.563,337.2
64.5653,80.3
64.5799,122.7
64.5885,599.5
64.5916,577.7
64.6108,253.6
64.6144,71.6
64.6177,18.3
64.6326,242.3
64.6455,225.3
64.6464,16.3
64.6539,17.3
64.6666,87.8
64.6673,124.8
64.6734,389.2
64.6786,84.7
64.6901,164.5
64.7074,18.8
64.7257,170
64.7508,148.1
64.772,127.9
64.7874,15.8
64.8242,187.2
64.8438,208.2
64.88,17.8
64.8826,96
64.8853,415.6
64.9083,90.1
64.9099,589.7
64.9228,18.7
64.9403,201.8
64.954,19
64.9587,536.8
64.9682,670.7
64.9708,239.5
64.9767,971.6
64.9896,169.4
65.031,86.8
65.0412,89.8
65.061,84.1
65.1014,137.2
65.1025,805.5
65.1063,235.9
65.1273,17.6
65.1482,117.6
65.1633,561.8
65.1743,113.5
65.1763,117
65.1912,190
65.1961,106.4
65.2012,549
65.2045,18
65.206,598.8
65.2076,788.2
65.2187,555.8
65.2348,141.7
65.2544,217
65.2822,400.4
65.2895,131
65.2959,96.9
65.2983,81.3
65.2999,81.4
65.3036,72.1
65.3175,66.9
65.3278,109.6
65.3394,20.1
65.3458,96.7
65.3499,547.6
65.3722,143.4
65.3788,481.9
65.3801,664.1
65.3978,134.8
65.4151,111.8
65.4194,127.9
65.4487,230.5
65.449,214.7
65.4492,148.8
65.4649,134.6
65.4798,210.7
65.4821,147.6
65.4933,163.7
65.5009,303.5
65.5042,878.4
65.5175,102.5
65.5265,749.2
65.5464,527.3
65.5476,793.2
65.562,155.2
65.5895,528.3
65.6019,115.7
65.6089,105.3
65.6308,82.1
65.6455,119.5
65.6506,331.6
65.6604,202.6
65.6682,235.1
65.6746,309.5
65.6772,393.5
65.6937,74
65.6953,259.7
65.697,475.2
65.699,569
65.7228,620.8
65.7252,287.5
65.7372,16.6
65.7479,838.7
65.7807,75.9
65.7998,19.9
65.8076,237.7
65.8256,548.1
65.9038,96.2
65.9099,89.8
65.9226,123.7
65.9281,79.2
65.9319,225.2
65.9553,280.1
65.9769,517.7
65.9791,160.6
65.9877,107.6
65.9964,822.9
66.0182,210
66.0211,117.3
66.0552,175.2
66.066,123.4
66.0816,73.5
66.1034,103.2
66.1099,300.8
66.1127,250.6
66.1248,226.6
66.1304,244.4
66.1341,370.8
66.1418,167
66.1444,442.4
66.1549,164.1
66.1554,186.5
66.1566,175.4
66.1671,111.7
66.1702,512
66.178,94.7
66.1785,885.1
66.188,145
66.1972,567.9
66.1991,16.4
66.2078,342.1
66.2133,328.3
66.2265,773.3
66.24,126.3
66.2456,297.2
66.2597,374.1
66.2614,740
66.2657,156.8
66.2684,757.2
66.2712,298.2
66.2739,91.6
66.2876,226
66.3031,118.6
66.3084,168.1
66.3106,253.6
66.314,74.4
66.3363,601.7
66.35,935.8
66.3537,153.5
66.3653,123.1
66.3702,395.1
66.3807,19.1
66.3918,76.5
66.4262,20.8
66.4397,328.4
66.4442,128.7
66.4583,142
66.4596,76.8
66.4808,109.6
66.4833,520.8
66.4916,412.3
66.4993,100.5
66.5004,144.1
66.5079,171.5
66.5272,538.7
66.5345,215.9
66.5405,93.9
66.5481,93.9
66.5518,566.5
66.5778,827.7
66.5993,128.3
66.6022,157.2
66.6052,309.4
66.6242,111.6
66.6245,102.1
66.661,344
66.6644,129.8
66.6734,304.6
66.6738,600.1
66.6824,67.5
66.6836,196.4
66.6855,153.7
66.687,715.6
66.6913,783.8
66.6976,169.8
66.7229,778.8
66.7288,749.8
66.7389,231.2
66.749,147.9
66.7497,105.1
66.7919,80.3
66.7978,84
66.8066,154.8
66.8086,289.7
66.8095,241.4
66.8275,542.9
66.8574,601.9
66.8648,582
66.8788,75.9
66.8833,156.7
66.8933,67.8
66.9316,408
66.9403,102.6
66.9426,150
66.9483,229.8
66.9611,106.1
66.9866,80
66.9913,538.4
66.9941,19.8
67.0326,216.7
67.0457,206.2
67.0509,519.4
67.054,99
67.0548,959
67.0621,284.9
67.0768,113.2
67.1233,129.4
67.1361,99.9
67.1492,574.7
67.1713,83
67.1819,17.7
67.1932,297.3
67.1937,105.7
67.2024,208.8
67.2302,656.7
67.2567,1100.4
67.2603,260.8
67.2675,201.8
67.2705,538.1
67.2964,19.6
67.3034,298.4
67.3087,176.3
67.3157,635.8
67.3183,569.6
67.3199,290.2
67.3273,595.8
67.3286,17.9
67.3393,16.2
67.3433,111.1
67.3444,483.6
67.3517,848.9
67.3541,556.9
67.3869,481.3
67.3884,17.5
67.393,234.8
67.404,18.6
67.4059,101.9
67.4184,93.4
67.4198,130.2
67.4212,399.9
67.438,15.2
67.4515,905.6
67.4552,275.1
67.457,221.2
67.4609,130
67.4885,207.1
67.5057,197.8
67.5128,113.3
67.5142,262.3
67.5151,155.7
67.5503,115.5
67.5552,112.9
67.5641,798.1
67.5768,149.2
67.5811,515.9
67.6011,17.6
67.6035,19.5
67.6769,254
67.6794,227.7
67.7078,130.2
67.7233,137.4
67.7254,73.9
67.7281,153.7
67.7994,76.4
67.8261,113.7
67.8288,141.7
67.8624,93.8
67.8773,232.7
67.8783,274.7
67.8847,81.2
67.8861,548.8
67.887,763.5
67.8993,488
67.9006,572.3
67.9195,79.4
67.9252,139.8
67.9322,126.6
67.9539,88
67.9561,18.5
67.9595,403.7
67.9663,16.5
67.9741,963.1
67.9793,283.6
67.9831,88.8
67.9849,155
67.9998,130.5
68.0136,309.2
68.0395,588.4
68.0399,894.4
68.0444,95.9
68.0914,94.8
68.1042,150.7
68.1186,93.3
68.162,295
68.1721,112.1
68.1747,185.9
68.1762,297.7
68.2012,132.7
68.2065,17.2
68.2299,137.2
68.2478,736.5
68.2614,228.1
68.2634,631.1
68.285,107.7
68.2885,175.3
68.2928,79.1
68.3024,117.5
68.3065,534.1
68.3686,816.6
68.3696,346.2
68.3868,160.1
68.4009,598.1
68.4489,92.6
68.4505,230.5
68.4534,21.4
68.4601,501.8
68.4654,121.6
68.4747,162.7
68.4795,583.5
68.4877,290
68.5006,109.7
68.5071,462.9
68.5184,23
68.5219,76.3
68.5293,411.4
68.5326,139.8
68.535,313.2
68.5359,167.1
68.5368,221
68.5711,301.5
68.5817,597.4
68.5843,79.4
68.6024,107.6
68.6093,229.5
68.6414,161.2
68.658,579.7
68.6633,482.8
68.6699,410.1
68.6821,79.5
68.7481,84.5
68.7616,529.2
68.7729,180.1
68.7736,408
68.7782,134.9
68.7959,17.8
68.8036,73.8
68.8303,193.8
68.8372,21.5
68.8485,15.1
68.8502,292.8
68.8594,82.5
68.8745,184.8
68.8946,122.9
68.8961,339
68.9067,16.4
68.9081,193.2
68.9372,18.6
68.9942,532.5
69.0106,582
69.0261,93.9
69.0645,99.2
69.0765,95.2
69.0839,809.4
69.129,212.6
69.1482,846.5
69.1641,165.5
69.201,318.3
69.2059,684.7
69.2099,586.2
69.2125,338.6
69.2475,686.2
69.2499,752.7
69.2662,79.4
69.2679,308.3
69.293,780.4
69.3084,1086.7
69.3143,767.1
69.3159,645.5
69.3264,92.8
69.3397,101.5
69.3539,18.3
69.3579,120.8
69.3594,189.5
69.3677,283.6
69.3763,722.6
69.3943,305.6
69.3959,92.4
69.4087,177.9
69.4311,207.1
69.4392,103.9
69.4395,124.3
69.4397,128.1
69.4413,16.9
69.4536,309.3
69.4592,152.6
69.4619,235.7
69.4635,370.9
69.4664,146.1
69.477,119.9
69.4805,157.6
69.484,841.7
69.504,177
69.5148,123.4
69.5192,233.2
69.5302,21.6
69.5388,146.6
69.5592,399.5
69.5616,189
69.5655,148.9
69.5995,177.8
69.6022,174.4
69.6123,110.2
69.6168,75.5
69.6375,629.7
69.6596,188.5
69.696,151.1
69.6993,563.2
69.7019,495.3
69.7027,556.2
69.7074,109.3
69.7109,101.7
69.72,171.6
69.738,80.3
69.7435,72.5
69.7899,93.2
69.8145,442.1
69.8268,75.9
69.8341,300.5
69.8416,232.9
69.8608,751.1
69.8648,619.1
69.8875,103.5
69.8957,316.4
69.8995,21.2
69.9141,84.9
69.9162,580.8
69.9212,120.8
69.9227,302.8
69.9243,86.8
69.9367,455
69.9442,166.4
69.945,365.8
69.9467,538.4
69.9597,145.3
69.9618,104.6
69.9659,658.8
69.9678,411
69.9809,85.6
69.9818,313.8
69.9858,125.1
69.9897,81.4
70.009,136
70.0106,103.4
70.0649,648
70.0725,96.8
70.0789,621
70.0801,505.2
70.0849,239.7
70.0863,18.6
70.0953,320.6
70.0991,889
70.1087,299.7
70.1097,329.1
70.1118,668.2
70.129,183.7
70.1788,519.6
70.257,91.1
70.2686,269.4
70.2694,614.8
70.287,283.2
70.2981,70
70.3378,87.6
70.3565,557.3
70.3665,119.4
70.3942,869.2
70.4052,202.3
70.4073,186.2
70.4368,151
70.4485,103
70.4498,18.6
70.4535,112.4
70.4692,19.3
70.4763,112.7
70.5264,880.5
70.5273,495.6
70.5903,455.4
70.6034,130.5
70.6058,620.3
70.6151,121
70.6182,350.2
70.6362,133.8
70.6521,76.1
70.6594,16.9
70.6699,18.2
70.6714,405.9
70.6762,126.4
70.6939,103.7
70.703,74.4
70.7074,83.3
70.7164,836.5
70.7354,112.5
70.7447,16.4
70.7531,1193.8
70.7573,84.8
70.7596,117.9
70.7653,330
70.809,277.9
70.8307,177.5
70.8349,584.2
70.8413,344.6
70.8588,564.7
70.877,16.1
70.8844,149.9
70.8969,77.6
70.9002,82.7
70.9179,339
70.9233,104.9
70.9253,470.2
70.9324,132.7
70.9399,391.7
70.9797,126.8
70.9873,20
70.9951,625.4
71.002,495.7
71.0052,20.2
71.0091,104.7
71.011,616.1
71.0245,666.5
71.0311,506.5
71.0504,443.3
71.0573,302.8
71.1353,142.9
71.1375,672.1
71.1428,612.5
71.1794,143.5
71.19,467.9
71.2575,577.4
71.2646,69.7
71.2683,166.3
71.2701,485.4
71.2995,94.8
71.3018,320.9
71.3122,606.2
71.3313,774.5
71.3319,98
71.3523,280.4
71.3602,107.4
71.3838,98.9
71.3916,82.5
71.4273,107.1
71.4432,160.9
71.4971,102.4
71.499,372.5
71.5004,151.8
71.5016,205.1
71.5021,530
71.5177,654.1
71.5303,98.4
71.5552,796.3
71.5659,800.8
71.5706,114.7
71.6015,121.8
71.6123,223.4
71.613,221.4
71.6273,120.1
71.6763,84
71.6896,138.1
71.7433,513
71.7749,205.2
71.8002,556.3
71.8067,148.7
71.8492,172.1
71.8504,112.4
71.8534,226.8
71.8616,160.1
71.8687,138.3
71.8843,241.9
71.8889,903.9
71.9071,96.7
71.9126,74.9
71.9205,403.6
71.9367,116.8
71.9617,93.8
71.993,328
72.0119,19.4
72.0182,129
72.0194,154.8
72.0214,16.2
72.0294,84.2
72.0655,164.9
72.0676,93.9
72.0684,914.8
72.0752,171.6
72.0806,304.9
72.0836,683.5
72.0965,570.1
72.1209,80.4
72.1233,502.9
72.1298,124.9
72.1387,185.4
72.1425,193.5
72.1586,477.1
72.1592,801.3
72.1933,133.6
72.2016,559.1
72.2022,840.1
72.2157,143.9
72.2168,225.4
72.2183,88.9
72.219,129.2
72.2194,103.8
72.2202,992.9
72.2209,109.1
72.2226,613.6
72.2236,880.5
72.2242,1983.8
72.2254,1120.7
72.2267,3397.2
72.2277,4239.7
72.2286,1540.8
72.2295,2203.5
72.2298,2062.8
72.2305,4017.3
72.2312,3509.2
72.2315,3690.8
72.2331,2768.5
72.2341,2121.2
72.2354,3710.2
72.236,3922.8
72.2374,4335.4
72.2387,1650
72.2394,2547.7
72.2404,1844.5
72.2411,2596.6
72.2422,735
72.2435,786.9
72.2441,1051.9
72.2449,2288
72.246,1589
72.248,551.3
72.2493,650.4
72.2772,104.2
72.2997,478.3
72.319,593.8
72.3236,79.5
72.3244,877.8
72.3446,529.5
72.3454,16.6
72.3519,99.3
72.3931,745.4
72.4058,609.5
72.4122,848.1
72.4162,180.4
72.4284,310.5
72.444,82.4
72.4504,174.1
72.4533,496
72.4542,442.6
72.4586,308.2
72.469,231.6
72.4779,267.7
72.488,168.4
72.5405,83.3
72.5453,500.8
72.5556,196.5
72.5591,629.3
72.5667,89.5
72.593,170
72.6172,210.6
72.6265,287
72.6431,84.9
72.6637,217.5
72.6839,597
72.6848,19.7
72.6895,92
72.6971,129
72.6983,185.9
72.6993,641.3
72.7038,112.7
72.705,767.9
72.7316,20.3
72.7366,263
72.7388,204.9
72.7411,70
72.7531,117.5
72.7607,601.4
72.789,16.2
72.7934,285.4
72.7973,186.7
72.8092,507.1
72.8151,85.5
72.8198,147.5
72.8314,949
72.8378,524.5
72.8381,708
72.8436,80.8
72.8507,416.1
72.8824,357.7
72.8842,656.5
72.8863,84
72.889,16
72.8927,543.1
72.9088,79.1
72.9255,17.4
72.9448,178.8
72.9673,163.6
72.9958,329.9
72.9964,500.6
72.9999,367.9
73.0061,242.8
73.0201,84
73.028,102.5
73.0323,580
73.0367,71.3
73.0452,157.3
73.0707,265.6
73.0799,174.7
73.0884,318.3
73.0937,106.3
73.1281,76.7
73.1294,169.3
73.1771,80.5
73.188,202.2
73.1982,607.2
73.2094,656.4
73.2135,78.2
73.2239,254.1
73.2344,69.3
73.2354,332.5
73.2625,299
73.2642,258.5
73.2806,95.4
73.2898,562.9
73.2976,74.1
73.3142,148
73.3198,534
73.3344,17
73.3411,117
73.3453,95
73.3484,208.9
73.3499,449.6
73.3541,266
73.3633,150.5
73.366,164.2
73.3996,212.3
73.4283,165.7
73.4343,337.8
73.4379,662.7
73.4419,240.4
73.4462,175.1
73.4979,212.8
73.5154,85.4
73.5313,395.3
73.5421,892.8
73.5498,371.7
73.5621,93.1
73.5817,100.2
73.5841,186.4
73.5889,198.5
73.5927,161.3
73.6092,115.8
73.6217,256.4
73.6281,439.6
73.6737,18.5
73.6835,195.4
73.6843,118.7
73.705,17
73.7084,113.4
73.7202,231.5
73.7246,106
73.7282,111.4
73.7669,215.6
73.7738,122.3
73.7782,121
73.8113,80.3
73.8322,16.1
73.8353,509.5
73.8419,552.5
73.8474,125.1
73.866,93
73.9196,103
73.9329,18.7
73.9541,194.8
73.9733,402.6
73.9803,312.6
73.9931,111.8
73.997,100.1
73.9982,122.9
74.0047,228.5
74.0465,599.7
74.0599,4291.1
74.0804,238.9
74.082,806.7
74.1078,89
74.1377,181.8
74.1748,461.4
74.1902,588.7
74.2062,190.9
74.2088,121.8
74.2246,600.2
74.2523,110.1
74.2637,529.9
74.2645,616.8
74.2711,121.1
74.2725,111.7
74.2783,453.1
74.2839,204.4
74.2955,340
74.3207,235.4
74.3234,105.2
74.3552,241.4
74.3598,232.8
74.3707,16.9
74.3917,151.3
74.41,571.5
74.4355,724.7
74.4375,104.4
74.4517,102.5
74.4544,512.8
74.4986,290.3
74.5336,71.4
74.5462,126.6
74.5954,799.7
74.6005,342.6
74.6045,295.4
74.6291,18.8
74.6447,192.6
74.6514,17.8
74.6538,16.8
74.6723,168.6
74.6975,493.1
74.7123,551.3
74.7133,388.5
74.7206,320
74.7304,159.9
74.7379,80.7
74.7489,272.5
74.7845,96.4
74.7983,854.4
74.8003,120.5
74.823,389.7
74.8371,251.3
74.8684,117.3
74.8731,239.8
74.8757,332.2
74.8823,22.2
74.8921,275.9
74.9233,19.8
74.9278,558.5
74.9377,153.2
74.9532,287.2
74.959,19.5
74.989,149.7
74.9964,78.2
74.9973,319.6
75.0018,17.1
75.0093,476.6
75.0117,87.7
75.0163,298.1
75.0204,676.1
75.0383,587.8
75.0437,517.6
75.0562,81.8
75.0862,419.5
75.0913,255.3
75.0944,249.9
75.112,597.6
75.1165,78.9
75.1249,71.2
75.1401,73
75.1421,999.1
75.1536,201.2
75.1725,92.2
75.1928,81.3
75.206,488.8
75.231,96.6
75.2352,206.1
75.2663,467.6
75.2718,99.9
75.282,114.3
75.2845,78.1
75.2876,79.6
75.3188,76.4
75.3451,189.5
75.3481,16.9
75.3756,271.1
75.3764,164.7
75.3799,218.1
75.381,504.5
75.3823,73.8
75.3962,284.4
75.4066,90.1
75.4116,803.3
75.4154,90.1
75.4273,309.5
75.4357,226.6
75.4474,972.5
75.4653,137.3
75.4937,770
75.502,186.7
75.5247,173.1
75.5291,766.3
75.5311,68.5
75.5472,145.2
75.5642,187.6
75.6158,18
75.6289,238.5
75.6309,93.3
75.642,75.6
75.6447,139.7
75.675,123.3
75.6769,361.8
75.6812,293.2
75.6971,491.1
75.71,109.4
75.73,150.8
75.7417,72.9
75.7452,102.2
75.8555,19.3
75.8921,646.1
75.8984,116.6
75.9258,252.8
75.9461,144.9
75.9548,814.7
75.9656,125
75.9975,842.1
76.0183,208.9
76.0554,292.1
76.0883,185.2
76.0889,113.4
76.1225,19.9
76.1377,124.6
76.149,96.2
76.1797,302.8
76.2137,76.8
76.235,733.6
76.2816,866.5
76.289,141
76.2962,119.5
76.3093,298.1
76.3159,78.8
76.3826,630.6
76.4146,586.6
76.4601,16.8
76.47,79.7
76.4934,367.7
76.5321,453.1
76.5719,492.7
76.5884,129.4
76.5939,173
76.5999,445.5
76.6459,90.9
76.6667,868.6
76.6748,18.1
76.6765,326.5
76.7027,266.3
76.7069,238.8
76.7285,520.1
76.7385,97.6
76.7398,156.1
76.7535,109.9
76.7955,69.2
76.8211,19.2
76.8277,169
76.8379,420.1
76.8525,18.6
76.8722,150.2
76.9093,93.7
76.9166,248.3
76.9249,822.6
76.9392,361.3
76.9536,128.5
76.9645,76.4
76.9809,598.3
76.9885,103.4
76.9905,728.3
77,311.2
77.0054,154.4
77.0221,98.5
77.0257,104.9
77.0332,154.6
77.035,625.8
77.0364,21.5
77.0384,136096.1
77.0637,246.3
77.1417,111.4
77.1476,282
77.1843,649.1
77.1931,146.9
77.2453,722.6
77.2467,136.8
77.2497,420.5
77.2581,144.8
77.2711,811.2
77.2815,139.7
77.2853,187.7
77.2932,1070.6
77.2979,20.2
77.3031,443.6
77.3503,187.7
77.3998,183.5
77.4079,541.7
77.4254,77.2
77.4412,86.9
77.4475,751.5
77.449,81.2
77.4526,116.3
77.477,18.8
77.4821,310.3
77.4873,157.1
77.4916,217.2
77.5066,399.8
77.5326,203.8
77.5382,223.2
77.5491,224.6
77.5818,347.3
77.5873,513
77.5958,204.2
77.5984,87.3
77.6873,115.2
77.6949,18
77.7194,346.3
77.7252,724.1
77.7366,186.5
77.7399,19.1
77.7423,88
77.8009,18.4
77.8016,141.7
77.8201,564.6
77.8306,159.5
77.8523,124.1
77.8676,129.8
77.869,304
77.8817,17.4
77.8934,169.5
77.9164,74.4
77.9173,528.9
77.9269,581
77.9278,842.6
77.9281,970.5
77.9283,871.6
77.9304,16.8
77.9357,16.2
77.9381,16.8
77.9434,153.6
77.9568,19.5
77.9722,148.1
77.973,287
77.9842,17.3
77.9882,621.2
78.0094,201.2
78.0286,127.5
78.0418,4445.5
78.0477,375.2
78.0577,582.2
78.0606,203.8
78.0811,153.3
78.0838,275.7
78.095,273.3
78.1039,114.4
78.1525,97.7
78.1919,164.7
78.2055,75.9
78.2173,296.1
78.244,115.8
78.2901,72.9
78.2933,105
78.332,125.4
78.3353,856.7
78.3746,753.2
78.4021,302.9
78.4036,103
78.4117,93.4
78.4298,494.5
78.4427,20.8
78.4441,85.4
78.4541,178.4
78.468,21.2
78.4858,73.1
78.509,108.7
78.5229,119.2
78.5327,309.2
78.5447,74.9
78.553,73.9
78.5651,524.1
78.5772,123.5
78.5917,160.6
78.5935,710.8
78.6068,17.3
78.6372,1358.2
78.648,78.2
78.6785,541.8
78.7291,287.1
78.7315,295
78.734,537.7
78.738,372.2
78.7955,921.6
78.8082,91.3
78.8831,77.9
78.8956,18.4
78.8963,17.8
78.9015,79.3
78.9316,149
78.9944,144.3
78.9969,189.2
79.0159,80.8
79.0281,166.1
79.0469,288.6
79.0541,2589.7
79.0887,129.3
79.1116,1021.4
79.1169,551.8
79.146,68
79.1493,154
79.1529,144.7
79.1737,120.2
79.223,79.1
79.234,115
79.2426,488.8
79.2519,158
79.261,84
79.2818,91.1
79.2968,835
79.3021,16
79.3037,373.6
79.3534,665.8
79.3611,102.7
79.3668,636
79.3781,299.3
79.387,18.1
79.3976,18.8
79.4459,570.8
79.4618,354.7
79.4728,116.9
79.4892,18.8
79.4927,609.8
79.5208,131.7
79.5262,88.4
79.531,699.9
79.5378,77.8
79.5459,200.1
79.6864,103
79.6894,340.1
79.6907,210.9
79.7262,119.1
79.7519,569.2
79.7602,76.4
79.7784,84.9
79.7799,639.7
79.7816,310.2
79.7864,678.6
79.8139,83.6
79.8393,140.1
79.8764,534.3
79.8876,219.3
79.9086,208.6
79.9279,821.1
79.9328,147.5
79.937,276.5
79.9663,229.4
79.9799,649.2
79.9834,79.3
79.9925,517.2
79.9971,305.7
80.0186,889.1
80.0249,251.1
80.031,147.7
80.035,447.9
80.0574,283.6
80.0615,202.6
80.0686,181.5
80.0965,250.8
80.1037,126.2
80.1293,254.5
80.1388,83.2
80.1488,330
80.165,82.6
80.2219,87.7
80.2307,544
80.25,164.6
80.2627,17
80.2714,119.2
80.3409,173.3
80.3463,165.5
80.3599,16.6
80.3961,145.5
80.3981,78.3
80.4081,249.2
80.4274,314.4
80.4638,302.3
80.4796,819.7
80.4952,866
80.5432,18.5
80.5689,127.5
80.6035,212.8
80.6207,310.2
80.6241,298.2
80.6261,338.3
80.6272,21.1
80.6371,342.3
80.6493,1011.5
80.6695,133.7
80.6755,170.7
80.7847,778.1
80.7916,355.8
80.7994,573.2
80.8214,884.7
80.8441,844.1
80.8896,524.1
80.9136,126.3
80.9233,133.7
80.9393,562.1
80.9414,17.6
80.9477,41941.5
80.9847,113.4
80.9855,156.5
80.9875,186.4
81.0132,231
81.0164,826.8
81.0178,534.5
81.0506,141.3
81.0683,73.5
81.0698,2632.9
81.0839,681.4
81.0854,223.9
81.0946,625
81.0959,575.7
81.1206,153.2
81.1436,16.6
81.154,332.3
81.1551,1825.4
81.1572,1877.8
81.1598,574.5
81.1612,86.1
81.1623,105.4
81.1934,623
81.1947,16.2
81.2141,227.8
81.2477,237.1
81.2533,110.2
81.2694,241
81.2889,497.8
81.2984,145.2
81.3089,18
81.3172,97.2
81.3352,16.7
81.414,208.4
81.4299,264.5
81.4309,91.6
81.4347,119
81.4553,86.1
81.4716,274.6
81.4824,149.2
81.4932,513.1
81.4954,99.7
81.533,553.8
81.5605,223.7
81.5716,413.4
81.6096,94
81.6168,215
81.6197,84.9
81.631,140.5
81.6628,158.1
81.6727,464.3
81.6979,240.6
81.7173,276.9
81.737,149.3
81.8188,257.3
81.8253,226.4
81.8266,305.6
81.8279,124.2
81.8536,516.3
81.8621,84.3
81.869,21.4
81.8835,151.3
81.8922,212.5
81.9006,303.7
81.9433,630.3
81.952,76.5
81.9581,128.6
81.9886,17.4
81.9949,343.2
82.0362,136.3
82.0767,84.3
82.0807,24.2
82.0908,121.6
82.1051,125.2
82.1069,319.7
82.1086,327.3
82.1396,87.5
82.17,144.4
82.1913,914.6
82.1927,217.4
82.2036,302.5
82.2711,159.5
82.2719,115.7
82.2765,384
82.2851,144
82.3113,22.5
82.3493,752.5
82.3625,573.1
82.3629,489
82.3755,126
82.4064,96.9
82.4156,85.7
82.4329,263.2
82.441,17.9
82.4501,214.8
82.481,325
82.4841,343
82.4857,20
82.4964,18.1
82.5099,76.9
82.5164,77.7
82.523,154.8
82.5302,123.8
82.5315,506.2
82.5391,126.5
82.5787,84.3
82.5868,1271.1
82.6001,87.3
82.6259,117.5
82.6482,150
82.659,179.2
82.693,20.5
82.705,91.3
82.7973,74.8
82.8094,260.1
82.8212,80.9
82.8355,18.1
82.8639,124.6
82.868,20.4
82.8721,166.4
82.8817,139.9
82.8855,236.1
82.8889,368.5
82.9032,296.5
82.9192,214.1
82.9448,13662.5
82.9627,74
82.9727,121.9
82.979,125.3
82.994,181.9
83.0044,715.8
83.0121,717.2
83.0463,260.6
83.053,152.4
83.057,482.4
83.0624,79
83.0807,134.5
83.0835,119.2
83.0854,56.8
83.097,325.1
83.1,91.9
83.1046,689
83.125,140.7
83.136,535
83.1381,111.4
83.1484,560.2
83.1839,683.5
83.2063,20.9
83.2386,133.8
83.2455,930.1
83.2684,162.3
83.2818,313.2
83.3166,593
83.3371,220.1
83.383,519.5
83.3964,137.4
83.4044,119.3
83.408,606.2
83.4256,491.1
83.4281,111.9
83.4408,259.6
83.4691,892.8
83.483,92.3
83.5351,334.8
83.5451,208.1
83.5676,562.6
83.5952,16.6
83.5995,338.3
83.6289,684.5
83.6339,17.9
83.6391,100.2
83.6426,202.8
83.6772,269.4
83.7278,152.7
83.7491,131.2
83.7626,165
83.7684,292.2
83.7771,184.3
83.7817,826.1
83.789,79.1
83.8545,82.3
83.8645,486.8
83.8958,298.8
83.9263,129.2
83.9321,21.5
83.9339,239.4
83.9528,449.3
83.9659,982.1
83.9727,99.2
84.0061,83.3
84.016,73.7
84.0443,1762.1
84.0545,146.1
84.0652,19
84.0699,17.4
84.0808,23
84.1032,133.8
84.1313,90.5
84.1384,79.8
84.1433,105.5
84.1709,92.7
84.1917,271.5
84.1984,625.6
84.2062,83.6
84.2094,313
84.2293,97.2
84.2474,223.7
84.2532,87.1
84.2548,18.1
84.2631,535.3
84.2666,541.8
84.2809,796.9
84.2953,107.9
84.3011,521
84.3226,107.7
84.3638,190.2
84.3695,132.5
84.3841,130.9
84.3938,121
84.4133,106.1
84.4174,705.2
84.4503,100.2
84.4869,73.6
84.5217,18.6
84.5225,546.2
84.5553,255.6
84.5872,92
84.5971,16.7
84.6059,111
84.6329,300.9
84.6336,303.2
84.645,158
84.6468,332.5
84.6881,367.5
84.6946,161.3
84.7082,18.3
84.7123,186.3
84.7222,510.2
84.7805,733.2
84.7902,823.1
84.8017,370.1
84.8329,16.8
84.8446,180
84.8545,557.4
84.8822,110.9
84.8961,144.7
84.9544,23.8
84.9596,24464.3
85.0102,183.4
85.0149,153
85.0209,515.8
85.0647,150.5
85.0688,102.5
85.0783,81.1
85.1133,90.8
85.1312,128.8
85.1431,852
85.1704,96.2
85.1959,682.1
85.2718,362.2
85.2914,65.8
85.2917,66.6
85.3025,71
85.3041,97.3
85.3336,119
85.3836,496.1
85.4007,289.9
85.4059,75.9
85.4111,256.1
85.446,449.9
85.4505,300.7
85.4674,111.3
85.4684,127.9
85.4705,577.4
85.5122,18.3
85.5757,110.6
85.5851,136.6
85.5948,343.3
85.621,16.7
85.6329,395.9
85.6455,239.4
85.6509,633
85.6631,1103.9
85.7183,789.7
85.7429,320.5
85.7705,103.6
85.7838,18
85.8338,17.7
85.8548,1014.6
85.8613,508.3
85.8808,83.5
85.8943,83.3
85.8995,101.3
85.908,17.1
85.9114,18.6
85.9257,229.1
85.9372,71.6
85.9638,193.3
85.9711,484.8
85.9864,131.8
85.9919,240.1
85.9945,89.6
85.9955,105.4
86.044,94.8
86.057,260
86.06,44629.9
86.0704,648.5
86.0779,326.7
86.0963,143222.8
86.1134,808.4
86.1384,249.5
86.1535,318.5
86.1654,334.3
86.1662,822.4
86.1702,129.6
86.1887,137.5
86.1934,144.2
86.1985,104.3
86.229,101.9
86.2621,326.2
86.2941,91.2
86.3013,566.7
86.3348,130.4
86.3663,130.4
86.4233,17.9
86.4346,626.5
86.4471,588.4
86.4517,223.9
86.4811,131.3
86.4957,22.6
86.5062,163.1
86.5508,504.3
86.5668,581.7
86.6244,71
86.6287,103.4
86.7047,108.2
86.7169,82.4
86.7377,118.1
86.7763,333.1
86.7872,16.2
86.7876,16.4
86.8083,162.8
86.812,203.1
86.8218,527.2
86.8481,329.5
86.8601,19.4
86.8758,18.8
86.8868,86.5
86.8914,713.1
86.924,18.3
86.925,142
86.9351,214.4
86.9369,516.3
86.9478,225.6
86.9579,235.1
86.9662,102.8
87.014,126
87.0483,124.9
87.0904,99.3
87.0912,95.5
87.0996,1295.4
87.1004,502.9
87.1309,109.1
87.1618,106.3
87.1623,71.1
87.1627,86.9
87.2401,160.5
87.2427,380
87.336,99.3
87.3601,669.8
87.3724,490.7
87.3934,235.9
87.4205,548.7
87.4272,108.1
87.4585,75.7
87.5059,110.8
87.5071,75.7
87.5298,297.7
87.5315,890.1
87.5511,286.1
87.5747,89.5
87.6073,165.9
87.6124,109.9
87.6437,18.8
87.6524,94.6
87.6639,739.8
87.6768,858.8
87.6931,743.1
87.7063,813.9
87.7201,366
87.75,504.9
87.7679,361.8
87.7748,221.2
87.7869,1006.4
87.8132,578.9
87.8193,94.2
87.8424,150.6
87.8862,70.2
87.9149,168.6
87.9281,274.1
87.9446,181.5
87.9506,502.9
87.9589,18.4
87.9905,831.7
87.9946,636.7
88.038,126.1
88.0392,10589.2
88.042,281.7
88.0541,169.2
88.0582,685.5
88.0621,131
88.0646,79.9
88.0832,331.9
88.0854,142.2
88.1301,108.5
88.1358,333.4
88.1401,110.3
88.1455,142.2
88.1819,524.1
88.2201,449.4
88.2241,234.8
88.2665,130.5
88.3064,18.1
88.3258,346
88.3345,150.8
88.3362,16.9
88.35,84.5
88.3529,129.4
88.4504,124
88.4974,665.9
88.5369,157.1
88.5393,83.1
88.5807,17.1
88.5995,330.6
88.6038,165.7
88.6651,181.7
88.672,558.4
88.6736,17.3
88.6775,91.4
88.7118,189.3
88.7333,83.9
88.7938,735.2
88.8034,159.4
88.8319,861.5
88.8347,289.4
88.8374,127.1
88.8435,96.9
88.8485,272.5
88.8678,234.3
88.8695,164.1
88.8734,216.2
88.8844,136.2
88.902,160.1
88.9106,116
88.9122,79.2
88.9193,111.3
88.9277,158.4
88.9459,775.7
88.9524,17.4
88.9538,626.8
88.9591,133.1
88.9675,166.4
88.9738,72
89.0193,112.3
89.0334,575.3
89.0364,685.3
89.0526,18.2
89.1011,164.1
89.1287,132.9
89.1376,16.4
89.1434,78.8
89.2128,217.1
89.216,917.2
89.222,162.9
89.2325,174.1
89.2455,121.6
89.2913,752.3
89.305,105.9
89.3117,108.6
89.3215,101.6
89.3252,352.5
89.3315,787.7
89.3735,126.1
89.402,589.9
89.4048,20.5
89.4163,303
89.4184,18.3
89.4568,244.4
89.4673,732.9
89.5062,19.3
89.5136,110
89.5314,96.4
89.5553,95.1
89.5606,159.6
89.566,115.3
89.5877,100.5
89.5938,143.6
89.6127,92.9
89.6359,574.7
89.6399,137.4
89.6458,206.9
89.6554,551.7
89.6609,20.3
89.6627,616
89.6672,76.2
89.6827,238.8
89.688,21.5
89.7068,877.6
89.7404,557.7
89.752,127
89.7702,222.6
89.8304,785.1
89.8713,76
89.8858,18
89.887,202.7
89.9058,159.7
89.918,133.7
89.919,82
89.9257,19.9
89.927,310.3
89.9587,158.8
90.0182,213
90.0484,516.5
90.0821,269.5
90.104,118.1
90.1044,124.1
90.1141,316.2
90.1215,89.3
90.1323,175.3
90.1619,581.8
90.1747,868.4
90.201,128.1
90.2118,16.5
90.2572,235
90.2689,81.8
90.3222,142.1
90.3239,160.5
90.3559,81.2
90.3877,213.6
90.4005,373.1
90.4086,222.1
90.4094,147.6
90.4191,82.9
90.4268,96.6
90.4291,232.2
90.4895,135.9
90.4958,78.2
90.5011,177.8
90.5447,660
90.5829,500
90.5865,18.8
90.589,316.2
90.6117,177.9
90.6288,97.3
90.6417,19.1
90.6534,585.6
90.6598,595.9
90.6603,754.7
90.669,156.7
90.6811,103.5
90.7038,282.2
90.7139,199.5
90.7294,247.2
90.7379,372.4
90.773,78.7
90.8164,93
90.8194,86.8
90.8224,19
90.8551,333
90.8567,250
90.8611,92.4
90.8837,123.5
90.9081,988.3
90.9214,243.7
90.9384,753.6
90.9427,86.9
90.945,110.6
90.9477,55.5
90.9496,16.9
90.9532,535.7
90.969,85.8
90.9744,20.1
90.9766,6704.7
90.9881,20.7
91.0035,152.4
91.0507,116.8
91.0542,2299.2
91.0862,18.2
91.0929,115.6
91.1338,117
91.1393,122.7
91.1964,222.5
91.2555,84.2
91.2735,92
91.3154,198
91.3198,775.4
91.3275,362.9
91.3582,162.8
91.3617,400.8
91.3839,517.3
91.3921,140.3
91.4114,86.9
91.4259,688.4
91.4296,84
91.4322,19.6
91.4608,580.6
91.51,130.4
91.5178,260.5
91.5576,106.8
91.5595,289.9
91.5614,577.9
91.5729,323.6
91.5997,70.9
91.6441,89.1
91.6819,291.1
91.7001,170.2
91.7399,149.7
91.7696,593.8
91.7847,226.7
91.83,79.9
91.849,147.1
91.8676,131
91.8716,112.9
91.9175,126.8
91.934,17.6
91.948,302.7
91.9567,19.3
91.9909,135.2
92.012,121.2
92.0269,76.8
92.0731,240.5
92.0903,345.2
92.0971,165.6
92.1414,101.6
92.1469,84.6
92.1508,86.3
92.1778,18.1
92.1795,455.9
92.2059,157.4
92.2087,512.9
92.2124,709.1
92.2186,745.7
92.2207,124.4
92.2261,533.6
92.2269,710.9
92.2418,245.1
92.2474,284.9
92.2556,214.1
92.2959,243.3
92.3708,149.5
92.3939,116.9
92.4118,94.8
92.413,18.3
92.4682,292.9
92.4822,227.2
92.4941,552.6
92.522,90.7
92.5333,298.7
92.5421,593.7
92.5683,611.6
92.5912,82.1
92.6074,289.9
92.6111,18.3
92.616,130.6
92.6205,613.1
92.6364,134.6
92.7355,1034.3
92.751,116.1
92.7605,577.7
92.7744,133.4
92.8209,227.1
92.8355,954.9
92.8515,158.5
92.8556,110
92.865,181
92.8676,18.5
92.8774,104.1
92.906,840.1
92.9894,304.1
93.0075,349.4
93.0105,671.4
93.0127,608.1
93.0257,256.1
93.031,118.2
93.0357,18.6
93.0899,241.1
93.0973,145.6
93.1141,313.7
93.1437,632.9
93.1444,21.8
93.1559,98.8
93.1667,18.9
93.1735,388.5
93.1868,16.9
93.1923,534.7
93.1977,886.6
93.226,462.1
93.2325,234.3
93.2351,130.8
93.259,331.4
93.2686,19.6
93.2819,23.1
93.3301,74.5
93.3388,147.8
93.3408,181.2
93.3641,1014
93.3838,227.1
93.4063,119.7
93.4189,551.6
93.4281,136.8
93.4361,308
93.4946,85.2
93.5017,112.6
93.5219,20.1
93.5377,593.6
93.5565,95.2
93.5745,207.4
93.5877,137.9
93.6109,358.8
93.6486,169.2
93.6831,243
93.693,114.3
93.702,222.9
93.7346,100.2
93.7355,221.2
93.7823,241.2
93.8318,118
93.8382,592.9
93.8444,828.6
93.8469,153.7
93.8499,175.3
93.8506,110
93.8598,672.2
93.8709,222.9
93.9352,219
93.9443,20.6
93.961,852.6
94.0199,580.5
94.0386,24.6
94.0397,436.2
94.0413,72982.4
94.0429,43.7
94.0466,380.8
94.0797,103.2
94.1391,881.9
94.1727,109.6
94.2192,215.5
94.2249,351.4
94.2486,357.8
94.2604,196.8
94.3014,717.3
94.3328,84.7
94.3438,139.6
94.3535,167.8
94.3571,114.5
94.3744,704.9
94.4193,522.8
94.4727,218.6
94.4877,105.8
94.5136,310
94.5215,543.8
94.5522,19.9
94.5796,572.5
94.6801,85.4
94.6838,122.6
94.7045,858.2
94.7504,167.1
94.7611,294.9
94.8005,543.1
94.8215,107.8
94.8256,212.3
94.8285,168.1
94.8357,103.1
94.8776,294.8
94.8781,246
94.8926,119.5
94.967,987.4
94.9688,23.1
95.0048,82
95.0392,20.9
95.0437,24.9
95.0447,1368.4
95.0464,51.7
95.0472,148
95.0475,192.9
95.0491,488440.1
95.0518,89.9
95.0625,35.8
95.072,219.7
95.0855,827.3
95.0983,397.7
95.0985,405.4
95.1683,239.9
95.1792,222.3
95.1884,296
95.2044,121
95.2127,208.6
95.2511,465.6
95.2603,319.4
95.2646,224.3
95.2802,18
95.3273,189.1
95.3291,776.7
95.3347,848.4
95.3643,280
95.3835,219.1
95.4086,17.2
95.4214,554.3
95.509,604.8
95.5208,19.1
95.5432,19.2
95.5811,98.2
95.5928,521.2
95.6139,283.1
95.6179,148.4
95.6719,632.7
95.69,85.6
95.6968,307.2
95.7034,174.6
95.764,197.7
95.7696,921.8
95.8293,127.6
95.8447,127.6
95.8463,195.1
95.8631,555.8
95.8807,624.7
95.8829,409.3
95.9011,18.7
95.9087,19.1
95.9142,275.3
95.9374,131.6
95.9442,1023.9
95.9505,598.3
95.9542,300.3
95.9876,392.5
96.0087,908
96.0126,144.3
96.0148,513.9
96.0404,226.9
96.0525,23154.7
96.0555,440.2
96.1026,84.5
96.124,891.6
96.1251,539.2
96.1423,152.3
96.1489,869.6
96.1631,179.2
96.1773,167.3
96.1827,79.1
96.2077,535.1
96.2134,19.9
96.2334,95.7
96.2479,102.3
96.2483,102.7
96.28,377.4
96.3047,340
96.3057,424.6
96.3512,119.3
96.3942,288.6
96.3983,24.6
96.4098,467.8
96.4589,159.1
96.5196,911.2
96.5311,214.8
96.5348,108.5
96.5685,165.7
96.5898,361.1
96.6178,222.9
96.6443,444.1
96.6558,146.8
96.6647,591.2
96.6678,153.7
96.6761,505.5
96.7178,107.2
96.7383,20.1
96.8017,535.6
96.8101,674
96.8274,905.5
96.8578,18.9
96.8801,244.7
96.885,17.6
96.8958,19.5
96.9037,18.3
96.9181,134.6
96.9218,139647.8
96.9318,263.9
96.9545,728.5
97.0065,130
97.0076,185.1
97.0106,23.6
97.0211,738
97.0533,100.9
97.0563,507.9
97.0805,287.9
97.0952,94.3
97.101,47.5
97.1137,102.4
97.1352,142.1
97.1473,18.1
97.1553,273.2
97.1817,248.6
97.2042,79.5
97.2355,92.9
97.2378,161.8
97.2628,278.6
97.2696,572.2
97.2948,81.1
97.3078,79
97.3411,17.2
97.3682,85.1
97.3754,281.7
97.3794,645.1
97.3802,107.6
97.3843,111.9
97.3862,329.3
97.4027,402.6
97.4102,612.7
97.4292,428.1
97.4504,442.2
97.4555,114.7
97.4847,594.5
97.4897,768.8
97.5059,327.5
97.5247,208.6
97.539,618.5
97.5507,457.5
97.5571,94.7
97.5726,88.3
97.5748,151.4
97.6453,332.5
97.6635,19.1
97.6706,22
97.7259,600.4
97.811,91.1
97.8553,296.1
97.8585,149.5
97.8669,1051
97.8889,430
97.8914,387.8
97.9055,82.7
97.9115,119.4
97.9165,318.4
97.9347,929.4
97.9368,150.2
97.9406,483.3
97.9609,79.4
97.9621,218.4
97.9886,17.8
98.004,783.4
98.0278,120.3
98.0672,155.9
98.1026,222.4
98.1257,215
98.1492,333.5
98.1741,135.3
98.1878,137.2
98.2081,639.8
98.24,151.8
98.2683,313.2
98.2866,143.2
98.3059,314.1
98.3316,270.4
98.3726,314
98.4296,20.4
98.4348,550.5
98.4451,136.6
98.456,582.4
98.4588,230.7
98.4619,254.1
98.4947,217.4
98.5169,199.1
98.5239,16.8
98.5501,442.8
98.5737,210.1
98.5828,657.9
98.6134,307.9
98.6602,78.9
98.6621,89.2
98.6644,102.8
98.6739,18.2
98.707,123.5
98.8363,119.9
98.8381,108
98.8756,127.1
98.9073,82.3
98.9188,43445.9
98.9199,4753.7
98.941,78.1
98.9699,180.6
98.9753,13844.2
98.9841,26.9
98.9878,590.5
98.9971,234.6
99.0161,173.3
99.0451,188.5
99.049,330.7
99.0576,426
99.0739,135.9
99.0916,21
99.1011,143.3
99.106,474.3
99.1335,17.4
99.1362,428.3
99.191,18.7
99.2584,635.7
99.2825,161.3
99.3185,20.5
99.3638,270.2
99.3948,82.9
99.4124,531.6
99.5089,102.1
99.5114,170.2
99.5298,640
99.5849,22
99.5959,319.8
99.6256,18.8
99.6697,547
99.6734,134.9
99.6982,439
99.7001,122.7
99.7176,115.2
99.7214,319.2
99.7455,281.9
99.7692,480
99.7829,86
99.7927,230.5
99.8068,283.4
99.8545,110.4
99.8822,432.5
99.9069,223.4
99.9182,989.1
99.9252,262.3
99.9432,520.9
99.9612,74.7
99.9897,621.9
100.0144,80.5
100.025,156.5
100.0365,567.2
100.0409,313
100.0526,314.3
100.0756,24.7
100.0801,552.2
100.0976,209.4
100.1063,115.1
100.1684,86.1
100.2498,878.2
100.352,153.2
100.3765,101.7
100.3972,139.7
100.4656,160
100.4678,128.2
100.4916,140
100.508,321.4
100.5095,157.8
100.5306,119
100.5628,17.5
100.5967,283.7
100.601,172.3
100.6406,465.6
100.6459,119.9
100.6473,127.4
100.7796,89.8
100.7917,20.4
100.8135,509.4
100.8236,109.6
100.8451,794.8
100.8554,756.5
100.8565,865.9
100.8695,576.9
100.9169,1438.2
100.9229,828.4
100.9283,84.8
100.9418,191.2
100.9792,123
101.0278,329.5
101.0304,16.6
101.036,152.3
101.0471,2736.4
101.0692,17.4
101.071,1419.7
101.0812,240.3
101.0821,234.3
101.1174,153.7
101.1304,519.3
101.1456,96.2
101.1985,525.4
101.2061,121.1
101.2193,129.8
101.2459,309.2
101.2709,507.5
101.2821,705.4
101.2863,712.6
101.3092,175.4
101.3219,94
101.3277,78.7
101.3888,92.9
101.4085,441.5
101.4198,194.1
101.4766,141.4
101.5225,85.4
101.524,254.4
101.5743,96.4
101.6264,343.6
101.6277,291.9
101.6507,18.6
101.6882,206.3
101.7108,164.7
101.7172,658.1
101.7446,178.4
101.7735,161.5
101.788,288.2
101.8635,229.8
101.8788,135.9
101.8848,838
101.8857,132.8
101.8949,77.1
101.9121,93.4
101.9218,535
101.9258,170.5
101.9787,387.5
101.9932,507.6
101.9991,116.2
102.0278,254.7
102.038,275.7
102.0527,84.3
102.055,5807.7
102.0639,561.3
102.0831,21.8
102.1092,18.3
102.1409,95.8
102.1461,113.6
102.1742,166.1
102.1849,538.2
102.1984,244.5
102.2284,175.8
102.232,480.9
102.2523,587.5
102.2533,223.5
102.2789,857.3
102.2998,736
102.3088,78.7
102.341,521.6
102.3424,123
102.343,193.4
102.3438,214.9
102.3793,134.1
102.4037,102.2
102.4469,158.5
102.4621,118
102.4748,83.3
102.5887,305.8
102.6189,355.1
102.6436,82.6
102.6984,202
102.7256,70.4
102.7427,218.3
102.7789,578.8
102.7849,597.7
102.7936,315.9
102.8181,317.7
102.8357,572.3
102.8612,391.2
102.876,542.6
102.8899,512.9
102.8926,80.4
102.9114,1021.7
102.9703,607.8
102.9868,19.3
102.9915,415.9
103.0105,407.9
103.0183,889.6
103.037,125.5
103.0543,1360.9
103.0811,153.8
103.118,290.5
103.1369,1021.7
103.1614,265.8
103.1644,259.9
103.1839,129.1
103.1903,85.5
103.2427,226.1
103.2521,142.8
103.2539,113.5
103.2884,97.5
103.2907,248.8
103.2985,113.1
103.3451,93.2
103.3608,108
103.3678,120.1
103.3776,142.1
103.4163,159
103.4253,94
103.4573,343.8
103.4643,141.2
103.5111,172.3
103.5616,221.1
103.5832,568.5
103.6011,105.7
103.6037,523.8
103.6393,872
103.6541,291.6
103.6573,101.6
103.6863,156.4
103.7102,87.4
103.7518,172.2
103.7534,804.6
103.7753,171.8
103.7774,302.1
103.8427,19.3
103.919,126.8
103.9586,552.2
103.9814,198.2
103.9846,149.2
104.0055,18.4
104.0075,171.8
104.013,996.7
104.0214,572
104.0303,233.4
104.0415,312.9
104.0569,93.5
104.107,629668.3
104.1597,160.1
104.1883,82.9
104.2268,92.3
104.2372,125
104.3217,94.1
104.3229,101.9
104.3248,123.1
104.3476,124.3
104.3688,574.1
104.3761,559
104.4282,78.9
104.4711,276.7
104.4852,156.3
104.4924,144.3
104.5001,116
104.5088,581
104.6599,93.3
104.6681,111.8
104.6963,586.1
104.7252,195.5
104.7495,174.7
104.771,499.5
104.8512,18.9
104.867,103.8
104.9079,73.2
104.9114,96.3
104.9128,299.9
104.9434,111.5
104.9634,86.3
104.9712,79.5
104.9923,1238.1
104.9962,129.9
105.0033,22.8
105.0155,325.7
105.0257,150.1
105.0384,215.7
105.0448,45546.2
105.0593,81.8
105.0633,123.4
105.0814,532.7
105.1104,23919.6
105.1181,79.4
105.1698,531.5
105.2155,179.2
105.2166,127.4
105.2289,126.2
105.3155,419.6
105.3477,19.4
105.3776,139.7
105.4096,294
105.4142,23
105.4164,303.7
105.4293,371
105.44,240.6
105.4524,134.8
105.4786,19.2
105.5131,1098.8
105.5329,256.9
105.5424,224.3
105.5858,18.4
105.6087,345.3
105.6288,579.8
105.6328,279.4
105.6479,310
105.6547,91.2
105.6909,130.7
105.7012,114.9
105.7036,88.6
105.7302,95.4
105.7568,222.1
105.7758,16.2
105.7855,281.8
105.7942,126.4
105.8248,98.5
105.8554,135
105.8681,813.2
105.8724,18.9
105.9134,487.8
105.9553,146.9
105.9588,101.4
105.961,362.1
105.9622,94.4
105.9765,127.8
106.0143,838.5
106.0417,21.9
106.0481,590.4
106.0559,229
106.1015,114
106.1071,583.1
106.1104,362.5
106.1346,500.1
106.1599,785.7
106.1914,166.1
106.1972,281.1
106.2272,730.6
106.2614,127.9
106.2643,175.6
106.2896,90
106.3137,73.8
106.3201,517.9
106.3268,86.1
106.3292,132.4
106.3343,111.1
106.3567,74.7
106.3981,16.5
106.4093,73.7
106.4161,144.3
106.4446,170.9
106.4812,147.3
106.4938,930.6
106.5476,17.4
106.5938,216.6
106.5998,148.9
106.6036,101.9
106.6327,143
106.6516,314.1
106.6585,268.5
106.6701,955.8
106.6828,106.9
106.7227,848.1
106.7553,118.6
106.7998,682.7
106.8081,161.3
106.8226,338.2
106.8847,1014.5
106.8912,23.2
106.9506,1742.9
106.992,64.2
106.997,91.3
107.0142,938.5
107.0178,304.6
107.019,160.6
107.0284,95.7
107.0409,468.6
107.0422,141.3
107.0492,673
107.0607,205.1
107.0819,328.3
107.0853,146.1
107.0931,220.6
107.118,534.3
107.1199,32.1
107.1305,246.8
107.1445,17.5
107.1706,308.7
107.1893,152.1
107.1939,129.7
107.2031,740.8
107.2275,237.2
107.2353,19.2
107.2384,141.7
107.2775,133.6
107.3224,999
107.3604,169.1
107.3665,591.2
107.4282,217
107.4661,91.8
107.4938,74.1
107.5003,185.9
107.5083,155.3
107.5196,178.1
107.5534,176.5
107.5703,128.6
107.5776,253.6
107.6128,128.3
107.625,643
107.6381,228
107.6533,242.2
107.6573,210.2
107.6604,789.5
107.6783,245.8
107.6835,83.8
107.6864,194.2
107.7563,278
107.7859,189.1
107.7922,232.4
107.875,168
107.8904,604.8
107.927,110.6
107.9483,89
107.96,17.1
107.9694,160.4
107.9813,100.3
107.9899,18.4
108.0244,496.3
108.0427,87.8
108.0439,290.4
108.0505,245.2
108.0527,19.8
108.057,20.7
108.0615,670.4
108.0658,732.3
108.0808,105.9
108.0872,18.3
108.1104,382.4
108.1309,201.5
108.1672,129.7
108.1779,571.4
108.1814,231.5
108.218,90.8
108.225,526.3
108.2406,111.7
108.2784,81.2
108.3083,91.7
108.3189,335.2
108.3524,311.6
108.3784,79.4
108.4126,528.4
108.4347,280.5
108.4663,88.7
108.4887,190.8
108.5444,272.2
108.5513,230.2
108.5852,143.6
108.6,636.5
108.6271,166
108.6365,128.7
108.6437,264.7
108.6665,95.1
108.6792,123.7
108.6902,18
108.7022,484.3
108.7116,658.2
108.7374,99.6
108.7689,660.8
108.7867,770.4
108.8065,80.2
108.8138,410.8
108.8217,195.9
108.8282,641.8
108.8492,365.2
108.8521,98.6
108.866,21.2
108.8984,18.2
108.9306,493.7
108.935,266.9
108.9502,18.3
108.957,18.7
108.9592,89.6
108.988,609.9
108.9909,20.2
109.0587,18.4
109.0617,22.3
109.0623,38
109.0648,79561.8
109.0668,57.2
109.1012,288.7
109.1143,77.4
109.134,309.5
109.1793,124.5
109.1821,545
109.2175,202
109.2677,112.9
109.2844,85.6
109.287,164.1
109.2912,297.3
109.2928,139.9
109.2966,135
109.3131,83.8
109.3369,16
109.338,173.4
109.4258,142.1
109.4281,279
109.4306,100.9
109.4457,87
109.4633,715.6
109.4987,20.1
109.5049,162.8
109.5445,74.5
109.547,17.4
109.5512,18.1
109.5643,208.9
109.583,511.1
109.5889,325.6
109.6217,117.6
109.626,191.8
109.6293,174.2
109.6379,474.6
109.6627,559.1
109.6774,181.2
109.6872,249.5
109.7913,121.8
109.8472,118.4
109.8653,132.4
109.8859,92.4
109.9234,101.8
109.9959,19.2
110.0192,138.1
110.0221,128.2
110.0253,381.5
110.0329,88.6
110.0474,139.7
110.0682,3490.5
110.0715,522.2
110.0746,77
110.101,530.3
110.1157,118.7
110.1363,18.3
110.1736,110
110.1856,80.8
110.2512,85.2
110.2792,286.2
110.2988,621.1
110.3083,356.8
110.3229,494.5
110.3249,223.7
110.331,330.3
110.3562,1036.2
110.3834,857.8
110.3976,92.9
110.4173,1169.4
110.4616,16.3
110.4765,313
110.4826,534.1
110.5184,679.9
110.529,196.3
110.564,216.9
110.5971,298.4
110.6879,123.4
110.6996,134.4
110.7293,111.5
110.7386,83.6
110.7513,333
110.7781,278.9
110.8167,17.3
110.8248,463.4
110.877,96.1
110.8888,76.6
110.9203,129.7
110.9717,198.1
111.0233,337.3
111.031,180.7
111.0441,375.6
111.0556,106.5
111.0595,602.4
111.0715,25.9
111.088,624.5
111.0958,95
111.0989,303.3
111.1165,897.9
111.1246,123
111.1263,566.3
111.1573,141.1
111.177,153.7
111.1821,97.3
111.1962,174.2
111.2022,520.4
111.2145,241.1
111.2642,611.6
111.3459,772.2
111.3574,235.4
111.3581,238.9
111.3681,19.6
111.3766,198.4
111.3803,100.5
111.3855,150.8
111.4115,97.6
111.414,119.3
111.4263,747.8
111.4279,593.6
111.4317,19.3
111.4736,207.2
111.4996,19.7
111.5223,89.9
111.5715,112.5
111.6546,215.2
111.6877,289.9
111.701,527.7
111.7264,297.9
111.7873,471.2
111.84,94.5
111.8557,115.5
111.8695,550.2
111.8762,174.9
111.8936,304.4
111.899,17.3
111.9087,154.3
111.9578,571.2
112.0006,153.7
112.0068,203.7
112.0105,111.1
112.0517,288.3
112.0733,100.9
112.0797,152.2
112.0922,208.5
112.0996,22.4
112.1173,20.6
112.119,97.9
112.1268,96
112.1494,106.6
112.1567,70.2
112.1692,262.2
112.1908,18.8
112.2108,132.5
112.2176,155.2
112.2222,18.4
112.228,646.8
112.2466,185.6
112.2992,19.8
112.301,318.3
112.3049,305.7
112.3272,176.2
112.3296,139.9
112.3652,169.5
112.4097,652.5
112.456,615.1
112.4695,168.6
112.484,73.9
112.5032,133.2
112.5119,302.2
112.5382,183
112.5557,153.8
112.5591,938.4
112.5655,356.3
112.5753,76.2
112.6107,151
112.6417,137.8
112.6446,18
112.6747,126.5
112.6799,639.8
112.6918,121.7
112.7223,18.7
112.7297,158.3
112.7453,552.2
112.7534,20.5
112.7557,557.1
112.7639,498.4
112.7844,627.8
112.7876,74
112.7894,146.7
112.7928,99.7
112.8111,17.6
112.8358,209.7
112.843,185
112.8892,17.8
112.8958,414886.4
112.9095,255.8
112.9198,223.5
112.9592,123.4
113.0028,345
113.0062,341
113.0117,159.6
113.0738,206.6
113.103,86.2
113.1087,153.6
113.1099,448.2
113.1131,25.3
113.1156,285.5
113.1265,575.6
113.1529,122.3
113.1633,293.2
113.2113,130.6
113.2144,79.9
113.2169,585.5
113.2386,152.2
113.2422,614.9
113.2797,231.3
113.3031,102
113.3139,118.1
113.3366,552.4
113.3591,108.8
113.3773,570.5
113.4687,114.4
113.4817,84.7
113.5081,103.8
113.5388,103.2
113.5567,195.7
113.606,92.1
113.6085,123.7
113.6207,205
113.6234,301.3
113.6837,79
113.6853,17.6
113.7146,237.3
113.7752,127.1
113.7781,195.8
113.7848,1039.9
113.7974,285.4
113.81,388.9
113.8123,914.2
113.8187,93.4
113.8237,843.1
113.8561,644.4
113.8988,254.4
113.9279,16.7
113.9692,190.8
114.055,66929.3
114.0662,897
114.0797,78.6
114.0914,22.4
114.0968,324.5
114.166,534.4
114.1761,230
114.1917,82.7
114.2167,223
114.2451,19.9
114.266,530.3
114.2885,74.9
114.3018,85.7
114.37,118.9
114.4785,194.5
114.5046,168.7
114.5515,265.3
114.5698,19.6
114.5978,684
114.7099,149.7
114.7166,817.9
114.728,176.9
114.766,115.5
114.8239,19.8
114.8586,498.4
114.8811,344.2
114.8869,144.7
114.8929,133001.9
114.9226,241.9
114.9369,614.9
114.9714,241
114.9847,91.6
114.9863,482.6
115.0081,630.2
115.0523,569.5
115.0584,1533.6
115.0866,945.8
115.0942,131.6
115.1393,615.5
115.2072,17.8
115.2168,16.7
115.2977,207.4
115.3016,102.1
115.3149,315.1
115.3294,477.9
115.3403,89.2
115.3419,123.5
115.4151,102.9
115.4362,87.4
115.4444,134
115.4708,20.1
115.4865,17.3
115.4923,86.1
115.5731,92.3
115.5962,512.7
115.6102,776.2
115.6118,127.6
115.6253,604
115.6985,785.7
115.7086,22.2
115.7304,99
115.7581,595.1
115.8212,110.2
115.8645,110.8
115.907,779.2
115.9102,374.4
115.9161,482.5
115.9628,191.4
115.9833,847.6
115.9998,20.3
116.0278,225.7
116.0358,294.5
116.0707,4899.5
116.0997,522
116.1084,266.7
116.1213,90.2
116.1389,559.1
116.1863,218.5
116.2342,170.6
116.2512,459.1
116.2927,413.9
116.3268,810.3
116.3529,294.4
116.3797,371.4
116.4325,235.8
116.4814,916.9
116.4867,121.5
116.4892,359.4
116.5031,617.2
116.5116,164.7
116.5385,687.6
116.551,279.1
116.5624,80
116.6703,1016.1
116.6834,182.4
116.6928,241.5
116.706,591.2
116.7087,309.8
116.7226,582.9
116.7569,472.9
116.7581,707.7
116.7769,558.7
116.7832,657.6
116.8417,124
116.891,13833.5
116.9554,481.4
116.9662,102.9
116.9711,208.9
116.9805,18.6
116.9831,551.9
116.986,2025.2
117.0218,448.6
117.0347,457.5
117.0653,500.4
117.0699,24.4
117.0842,197.5
117.0933,109.9
117.1057,212.1
117.1065,265.2
117.1442,325.9
117.1465,230.2
117.1497,279.3
117.2996,277.3
117.3246,90.8
117.3313,81.4
117.3575,16.4
117.3758,360.8
117.3927,311.5
117.3969,201.9
117.4455,125.9
117.4699,19.8
117.4931,278.5
117.5453,21.1
117.5779,76.4
117.609,244.2
117.6206,21.8
117.6499,523.5
117.7026,74.6
117.7218,429
117.7623,163
117.7716,321.1
117.8074,551.7
117.8129,79.9
117.8878,471.4
117.9385,313.3
117.9408,315.4
117.9754,104.3
117.9922,328.7
118.0063,534.4
118.0554,321.3
118.0649,259.9
118.136,421.4
118.1992,106.5
118.207,173.2
118.2216,147.6
118.2408,203.5
118.2505,108.5
118.2531,517.2
118.2851,19.6
118.3334,422.6
118.4044,146.6
118.453,566.5
118.4569,475.9
118.5304,257.3
118.5612,16.7
118.5766,112.6
118.6164,241.7
118.6435,198.3
118.6491,499.9
118.6673,18.1
118.6709,20.5
118.6934,868.3
118.7001,1077.1
118.7171,493.9
118.7213,162.1
118.7232,18.5
118.7658,95.9
118.7994,130.6
118.8024,503.9
118.8474,72.9
118.8746,130.5
118.8993,306.2
118.9008,103.2
118.9157,957.8
118.9514,282.4
118.9756,19
119.0189,22.2
119.045,900
119.1418,21.5
119.1675,377.8
119.2287,79
119.2575,740.4
119.2895,74.2
119.3033,316.7
119.3105,492.7
119.3783,103.9
119.3887,654
119.4168,112.4
119.4185,86
119.4324,129.5
119.4488,552.5
119.4541,78.7
119.4609,88.7
119.4744,200
119.5127,395.1
119.5201,150.6
119.5355,19
119.5575,18.3
119.5835,16.7
119.5889,614.1
119.6373,478.1
119.6882,575.1
119.6899,671.3
119.7025,78.4
119.7241,260.7
119.7362,18.5
119.7828,119.5
119.8134,16.5
119.8195,18.2
119.8325,122.3
119.8982,258
119.9644,118.2
119.9718,83.7
120.0032,4344.4
120.01,18
120.0183,206.3
120.0339,106.7
120.068,176.5
120.0735,184.6
120.0794,863.2
120.0809,22858.1
120.0948,583.2
120.1293,95.3
120.1778,98.8
120.2264,336.2
120.2347,222.4
120.3384,287.1
120.3543,79.3
120.3554,576
120.3964,18.8
120.4616,267.9
120.5191,524.8
120.5511,234
120.5864,221.3
120.702,609.5
120.7119,102.5
120.7387,268
120.7556,663
120.7595,278.1
120.8132,152.3
120.8187,110.8
120.8417,98.7
120.9008,482.8
120.9087,381.4
120.9311,82.8
120.981,149.6
120.9851,180.2
120.9937,87
121.0077,327.2
121.0245,148.1
121.0285,179.7
121.0397,20.4
121.0859,773.1
121.1013,59.2
121.1499,202.4
121.1701,19.3
121.2058,572.9
121.2076,837.4
121.2979,17.9
121.3386,21.8
121.3553,861.7
121.3952,370.1
121.4106,925.7
121.4687,318.1
121.4821,319.9
121.5322,156
121.5428,908.8
121.5514,18
121.5608,314
121.5715,222.9
121.631,84.6
121.6842,212.9
121.7684,82.5
121.772,190.5
121.7945,637.7
121.8353,272.1
121.8523,313.6
121.8558,761.6
121.8644,233.7
121.8681,137.2
121.8723,305.5
121.8836,17.6
121.8895,498.9
121.8948,783.6
121.8973,215.8
121.9002,177.2
121.9561,18.7
121.9808,496.8
122.0393,139.9
122.0747,18.2
122.0839,126.7
122.104,205.6
122.1061,654
122.1157,638.8
122.3198,18.5
122.3529,907.6
122.4044,19.4
122.518,693.1
122.5224,173.1
122.5279,19.3
122.55,17.4
122.5639,289.6
122.6875,802
122.6961,338.2
122.6995,180.4
122.7122,793.9
122.7451,339.8
122.7475,126.8
122.7829,691.2
122.7916,380
122.7984,473.5
122.8004,111.8
122.8199,100.4
122.8393,984.5
122.8769,207.7
122.9246,20721.6
122.9603,114.9
122.9667,889
122.9677,357.7
123.0341,523.9
123.0527,128.7
123.0604,161.8
123.0805,57.5
123.109,677.2
123.1462,183.9
123.1566,218.7
123.1765,17.8
123.2581,675.1
123.2675,177.3
123.2684,133.6
123.2783,789.1
123.3158,210.5
123.3216,115.4
123.3427,94.1
123.353,173.5
123.4285,269.4
123.5311,243.2
123.5462,181
123.6016,232.9
123.6339,918.5
123.6972,134.4
123.7272,80.9
123.8219,240.1
123.8345,538.9
123.867,148.8
123.9404,533.3
123.9553,502.7
123.9741,134.7
123.9943,17.6
124.0345,126.7
124.0369,202.8
124.0471,113.2
124.1337,16.8
124.1578,258
124.1642,192.2
124.2147,130.3
124.2304,178.6
124.2336,19.3
124.2733,184.6
124.2984,20.5
124.3135,107.7
124.3479,15.8
124.3902,857
124.4932,286.3
124.4981,480
124.5282,549.6
124.555,247.9
124.571,495.9
124.5897,117.7
124.5972,694.3
124.5998,114.3
124.635,116.7
124.7124,20.9
124.7429,116.6
124.7893,20.2
124.8052,143.6
124.8079,97.9
124.8147,165.8
124.84,531.5
124.863,328.4
124.8954,318.4
124.8977,227.8
124.9228,1298.9
124.932,186.8
124.9351,171.7
124.9564,165.2
124.9728,185.9
124.9863,586.9
125,6375.4
125.0057,305.7
125.0214,211.6
125.039,255
125.0412,289.8
125.0519,96.7
125.0598,43
125.0714,20.1
125.0725,111.1
125.1075,124.8
125.1223,507.9
125.1409,290.9
125.2929,545
125.2941,329.5
125.4015,629
125.4241,283.7
125.4436,19.2
125.4854,221.3
125.5098,636.3
125.5201,510.1
125.5344,102.9
125.552,124.8
125.5896,109.6
125.5933,293.4
125.6618,279.8
125.673,278.8
125.722,82.4
125.7326,77.9
125.7401,201.5
125.8269,120.7
125.8842,362
125.9659,115.2
125.9793,183.8
126.0008,128.1
126.0353,295.9
126.0549,241
126.0579,121.6
126.0585,132.2
126.066,16.8
126.0891,934.2
126.1089,159.1
126.1227,593.7
126.1661,109.5
126.1719,603.8
126.1803,676.7
126.1886,18.4
126.2164,133.9
126.2353,132.7
126.3054,17.9
126.3149,166.4
126.4172,218.6
126.4847,351.5
126.5073,83.6
126.5219,83
126.5768,691.9
126.5842,160.6
126.5926,188.2
126.5994,116.3
126.6012,76.4
126.6383,16.7
126.6402,221
126.6599,149.1
126.7638,668.1
126.787,574.8
126.7986,98.5
126.8113,650.8
126.8155,1136.2
126.8294,82.4
126.8313,120.2
126.8943,408.4
126.9047,534.7
126.9498,648.4
126.9624,282.5
126.9867,143.5
126.9918,121.4
126.9978,18.7
126.9999,19.5
127.04,128
127.0479,122
127.0684,162.6
127.0934,204.6
127.0982,490.9
127.0999,692.4
127.1632,318.9
127.2057,740.3
127.2074,631.2
127.2093,168.2
127.2157,67.6
127.2286,153.2
127.2335,111.5
127.2453,225
127.2909,80.9
127.3093,927.3
127.3304,156.6
127.4163,17.1
127.4296,555.1
127.4697,330.4
127.4751,206.5
127.5019,18.4
127.5071,231.5
127.5269,1093.5
127.542,717.5
127.592,19.8
127.6634,81.8
127.6906,368.6
127.7254,281.5
127.8006,170.9
127.8075,78.5
127.8476,371.6
127.8569,368.2
127.8588,337.3
127.8831,17.9
127.8946,111.1
127.9983,514.2
128.0021,381
128.0037,264.5
128.0299,172.9
128.0375,121.4
128.0402,867.1
128.0518,396.6
128.0646,69.8
128.121,218.4
128.1291,131.1
128.152,326.2
128.1561,82.8
128.1666,111.3
128.1686,107.5
128.2246,85.6
128.3646,694.2
128.382,104.4
128.3914,17.8
128.4013,584
128.4303,145.1
128.4414,314.7
128.4967,238.9
128.5071,879.5
128.5167,208.3
128.5347,777.1
128.5708,629.9
128.6412,144.7
128.6417,139.1
128.6668,139.3
128.6814,548.1
128.6898,17.8
128.7896,97.4
128.8048,576.8
128.839,20.4
128.8422,713.3
128.8564,928.1
128.8682,220.6
128.8735,286
128.8878,120.7
128.9553,118.1
128.9622,158
128.9794,229.5
129.0034,1089.2
129.0061,107.2
129.0453,181.7
129.061,834.1
129.1006,617
129.1023,1159.7
129.1427,602.5
129.1567,277.9
129.1581,20.7
129.1632,99.1
129.1971,82.1
129.21,811.9
129.2318,330.4
129.3217,372.4
129.3261,83.4
129.331,18.2
129.3516,237.6
129.3687,678
129.4103,139.3
129.4226,329.2
129.4347,623.1
129.5282,16.6
129.5433,236.7
129.5549,110.9
129.6378,17.1
129.6391,383.1
129.7828,123.2
129.8028,377.4
129.807,99.8
129.8704,595.5
129.9339,624.2
129.9443,227.5
129.9955,218.6
130.0069,17.3
130.0115,253.8
130.0262,582.3
130.0289,126
130.05,9164.3
130.1165,177.1
130.1418,230.1
130.1582,245.9
130.1753,876.9
130.2004,294.5
130.2271,93.6
130.2289,275.7
130.3179,85.9
130.346,106.4
130.3794,170.7
130.4658,131.4
130.5289,225.5
130.622,119.4
130.745,354.4
130.8243,82
130.8807,124.7
130.8838,81.3
130.9268,227
130.9367,162.6
131.0018,26
131.0196,19.3
131.0256,568.3
131.2047,77.1
131.2149,18.9
131.271,85.2
131.2834,99.1
131.3153,713.2
131.3314,333.5
131.401,104.4
131.4255,337.1
131.4404,311.7
131.4972,160.2
131.517,288.5
131.5321,105.3
131.5341,150.7
131.5438,127
131.555,340
131.5683,738.8
131.6969,19.5
131.7076,96.7
131.7126,97
131.7496,175.8
131.8097,158.5
131.8209,372.5
131.838,390.8
131.8739,125.6
131.9315,18.3
131.9843,169
132.0034,30865.8
132.0253,211.4
132.046,20.9
132.0596,107.8
132.0657,113473.5
132.0769,202.3
132.084,83.5
132.0906,216.1
132.1583,121.2
132.168,109.9
132.2017,218
132.2969,301.1
132.333,182.4
132.4027,141.3
132.4105,110.6
132.4551,112.8
132.4784,79.9
132.487,131.8
132.5046,166.6
132.511,95.1
132.5308,646.3
132.5345,148.7
132.5415,668.4
132.5484,191
132.5587,619.4
132.566,131.3
132.5822,594.4
132.585,660
132.6176,684
132.6443,150.5
132.6995,145.5
132.7042,579.4
132.7324,182
132.7891,348.7
132.7957,127.6
132.8059,119.8
132.8375,338.5
132.8482,18.8
132.8557,254.7
132.8718,20.6
132.8865,257.5
132.9029,20.4
132.9133,125.1
132.9141,216
132.9146,241.4
132.9639,82
132.9874,2466.8
132.9941,95
133.0545,19.1
133.0599,588.8
133.069,3369.2
133.0721,410.1
133.0772,158.4
133.0973,19402.7
133.1016,98.8
133.1425,19
133.1968,121.4
133.1988,118.9
133.2416,19.5
133.2701,174.9
133.2718,334.1
133.2988,202.2
133.3213,404.4
133.3233,158.3
133.3627,429.8
133.4391,451.2
133.4966,227.7
133.5184,114.7
133.6079,708.5
133.6629,95.8
133.6714,305.7
133.6869,21.5
133.7088,726.2
133.9725,21.9
133.9891,112.2
134.019,12791.4
134.1251,990.8
134.1336,310.1
134.153,260.9
134.1899,194.3
134.2198,128.1
134.2231,310.2
134.2375,91.5
134.2527,328.1
134.2647,16.3
134.2869,176.8
134.3399,19
134.445,101
134.4547,714.7
134.4637,595.1
134.4881,672.5
134.5336,342.1
134.6836,21.1
134.694,41.6
134.716,19.7
134.7449,125.7
134.7657,405
134.8009,330.7
134.8127,96.7
134.817,86.5
134.8621,253.7
134.8813,17
134.9703,79.4
134.9966,90.3
135.003,78830.7
135.0072,117.7
135.0348,268
135.0484,116.5
135.0694,149
135.1174,99.7
135.1376,227.5
135.148,416.8
135.1518,230.5
135.2133,72.9
135.218,572.4
135.3381,145.4
135.3473,450.7
135.4553,976.8
135.6785,221.3
135.692,174.3
135.6931,357.5
135.7062,545.6
135.7307,84.1
135.7886,177
135.821,91.7
135.8607,267.7
135.8884,833.5
135.9774,3448.2
135.9836,296.9
135.9962,124.2
136.0064,471.4
136.01,146.6
136.0197,21.5
136.0324,365.7
136.0483,6572.4
136.0759,15846.3
136.11,121
136.1806,371.3
136.2454,888.4
136.348,221.1
136.3983,108.1
136.4233,344
136.4333,693.8
136.4476,251.4
136.4532,207.5
136.5164,514.2
136.5179,90.5
136.5736,234.3
136.6144,301
136.6573,82.9
136.6699,20.4
136.6855,195.7
136.6879,88.1
136.7229,166.3
136.7287,577.7
136.7544,662.1
136.7855,206.4
136.8123,342.1
136.8224,283.3
136.8333,130
136.8825,350.9
136.8931,104.5
136.9266,291.9
136.9314,1674.6
136.9439,254.6
136.969,86
136.9959,239
137.06,43
137.0795,255.3
137.0829,164.4
137.2129,301.8
137.2203,602.4
137.2445,260.4
137.3179,187.6
137.3187,239.1
137.3193,248.2
137.4481,672.1
137.4655,137.1
137.4804,719.4
137.5204,80.6
137.5488,157.1
137.5785,122.7
137.6275,96.5
137.6478,19.8
137.6606,134.6
137.7005,86.4
137.7456,85
137.7558,127.1
137.7903,623.5
137.8443,217.4
137.8547,117.8
137.8715,286.6
137.9029,819.9
137.9251,286.8
137.9296,83.8
137.9595,344.3
138.0527,8447.5
138.0665,50.7
138.0698,91.5
138.1712,235.7
138.1882,18.9
138.194,386.4
138.1992,1189.4
138.2022,298.7
138.2244,861.7
138.3215,22.2
138.408,165.6
138.4373,115.8
138.4406,148
138.52,231.5
138.5806,917.1
138.6154,584.8
138.626,664.2
138.6298,887
138.6991,179.9
138.7098,142.2
138.718,836.7
138.7223,199.6
138.7765,85.6
138.7811,673.2
138.8381,95
138.8513,104.7
138.8827,19.2
138.9066,3132.6
138.9154,163.4
138.9195,107.8
138.9926,106.9
139.0492,217
139.0786,646.6
139.1043,209.2
139.1073,123.4
139.1262,83.9
139.1795,134.9
139.2549,19.6
139.2829,199.6
139.4595,175.3
139.4668,320.8
139.4868,208.4
139.5617,139.8
139.638,17.9
139.7334,120.2
139.772,154.1
139.8017,16.1
139.8217,134.9
139.9082,312.1
139.9638,17.5
140.0029,89.4
140.0167,1111.2
140.048,420.5
140.0684,2956.7
140.1009,562.3
140.1014,588.4
140.1021,303.8
140.1075,598.4
140.1448,361.9
140.2453,333
140.2735,85.6
140.3012,81.2
140.3265,111
140.344,19.1
140.3775,183.3
140.4664,85.1
140.5224,183
140.546,651.6
140.5708,87.1
140.5878,21.7
140.6072,1268.2
140.6828,22.1
140.7157,132.6
140.721,225.7
140.739,161.1
140.8053,261
140.8385,133.1
140.8501,602.3
140.9037,1234.2
140.9195,20.5
140.9503,376.2
140.9752,648
141.0007,22054.4
141.0166,16.3
141.02,24.4
141.034,123.5
141.1558,172.7
141.1704,79.3
141.189,103.9
141.2161,97.5
141.228,84.8
141.2327,345.6
141.2752,121.7
141.2898,230
141.3732,154
141.4374,103.6
141.4677,201.6
141.4836,105.3
141.492,17.5
141.4949,164.6
141.504,203.8
141.513,552.3
141.5289,672.3
141.5784,19.4
141.6205,252.1
141.6641,370.5
141.7116,380.5
141.7193,97.7
141.7233,160
141.7478,17.6
141.8086,20.2
141.8111,18.8
141.8409,124.1
141.8783,156.9
141.9061,618.5
141.9783,179.1
142.0001,27.8
142.004,388.1
142.0177,1157.1
142.0306,607.8
142.0351,134.5
142.0405,88.3
142.0738,45
142.1168,425.9
142.1333,129.9
142.1581,658.2
142.1598,551.2
142.1621,116.4
142.1765,108.4
142.2713,241
142.4161,662.1
142.433,858.8
142.5307,657.9
142.5533,97.2
142.631,20.1
142.6997,19.9
142.7286,403.7
142.7931,291.1
142.8227,265.4
142.9435,184.6
142.9559,123
142.9638,81.7
142.9847,96
142.9863,138.6
142.9888,19.6
142.9965,281.4
143.0025,240.9
143.0057,513.1
143.017,164.6
143.0195,92.7
143.0222,131.6
143.0454,174.2
143.0493,134.7
143.0729,1169.1
143.0819,589.6
143.0937,94.9
143.1194,614.6
143.1386,125
143.151,370.5
143.1538,19.1
143.2303,165.8
143.2985,628.4
143.3165,648.9
143.3211,185
143.3759,535.8
143.4339,124
143.4514,644.8
143.4607,615.9
143.4656,174.1
143.5,183.3
143.5077,21.6
143.5262,110.2
143.5978,232.9
143.6007,126.3
143.6565,154.7
143.6881,499.4
143.7348,196
143.741,85.2
143.749,118.8
143.7742,20.6
143.8343,19.4
143.8757,554.1
143.9271,19.7
143.9408,294.4
143.964,152.2
144.0635,24.8
144.0741,91.9
144.0959,528.6
144.1259,20
144.1273,769.3
144.2004,181.1
144.2352,118
144.2757,164.5
144.2812,91.9
144.3255,112
144.4024,86.3
144.4333,259.9
144.4731,20.1
144.497,144.2
144.5698,113.3
144.585,89.2
144.5919,111.1
144.6311,177.6
144.6695,237.1
144.7652,549.5
144.8033,732.5
144.8481,16.8
144.8843,481.9
144.9472,71.7
144.9659,244.2
144.981,5361.3
144.9949,107.2
144.9984,154.7
145.0024,573.1
145.0089,19.1
145.0865,183.4
145.1073,19.2
145.1599,332.5
145.211,571.2
145.2422,623
145.2465,535.3
145.2713,129.5
145.2878,550.6
145.3444,90
145.3816,324.9
145.4007,95.8
145.4131,154
145.4329,152.6
145.4356,603
145.448,765.1
145.4876,97.3
145.5161,128.1
145.6276,706.3
145.7021,79
145.729,786.3
145.7549,81.6
145.7733,19.8
145.7961,102.8
145.831,137.8
145.9258,135.3
145.9764,240.5
145.9857,535
146.0127,6991.1
146.0191,21097.6
146.045,117
146.0467,112.3
146.0658,737
146.0951,66.3
146.1498,87.8
146.1663,19.7
146.2022,112.2
146.2851,167.7
146.296,148.3
146.4041,17.3
146.4234,646.1
146.4294,1003.6
146.4317,888.4
146.4417,133.2
146.4569,335.1
146.4852,247.3
146.4898,209.8
146.5789,89.2
146.6044,84.6
146.6098,631
146.6235,99
146.6401,138.6
146.6497,151.3
146.6668,19.5
146.6914,123.8
146.7877,21
146.8297,21
146.8358,136.1
146.8985,94.7
146.9406,102.1
146.9451,310.3
146.9643,101.7
146.982,150198.6
147.0027,1062.9
147.0328,17.9
147.0513,163.2
147.0538,590.1
147.0679,94.4
147.0766,77343
147.0997,562.6
147.113,36711.3
147.117,146.7
147.1514,648.2
147.1591,319.4
147.2161,162.2
147.2885,19.5
147.2984,179.1
147.3245,129.5
147.3672,275.4
147.4041,133.7
147.4496,128.1
147.5259,222.6
147.5775,650.9
147.6509,149.7
147.6739,20.2
147.6959,18.8
147.7753,262.5
147.7923,621.5
147.8117,204
147.8491,923.2
147.857,240.5
147.8687,110.8
147.9494,87.7
147.9744,142
147.9773,104.9
147.9951,395.9
148.0375,147.5
148.0501,90.3
148.0801,595.4
148.1143,631.1
148.1164,1026.9
148.138,531.8
148.1576,172.6
148.3006,146.8
148.3184,93
148.3465,593.1
148.3729,117
148.3878,18.5
148.4444,256.9
148.4821,264.2
148.4932,851.7
148.5324,3474.5
148.5574,364.7
148.5867,196.3
148.6011,266.7
148.6074,88.3
148.6188,147.2
148.6274,313.1
148.72,132.4
148.7292,168.2
148.7875,505.1
148.7931,118.4
148.8225,881.9
148.8662,177.5
148.8891,146.6
148.8966,154.2
148.9357,485.8
148.9613,1935.2
148.9905,167.6
148.9964,17.2
149.0026,62.1
149.0101,938.7
149.0125,20.4
149.0186,2211.6
149.0235,5516.4
149.0346,272.5
149.052,148.6
149.0556,115.3
149.1204,224.4
149.1279,191.8
149.1327,25
149.2516,616.9
149.359,562.6
149.3656,448.5
149.3678,17.8
149.4773,116.8
149.4891,159
149.4962,148
149.4984,131.1
149.5057,569.9
149.5108,19.7
149.5436,90.7
149.546,370.2
149.6502,85.6
149.6656,433.9
149.6821,153.2
149.7091,166.3
149.7347,164.2
149.7559,243.7
149.7748,81.9
149.8632,289.7
149.8732,90.6
149.8989,244.6
149.9005,169.1
149.9668,919.9
149.9883,96.1
149.9929,8159.8
150.0025,285.4
150.014,3939.3
150.0268,27.2
150.0329,349.2
150.0656,115.9
150.0899,76.4
150.1196,78.1
150.1343,204.1
150.1362,919
150.1627,538.2
150.166,73.3
150.1897,533
150.2153,543
150.2381,790.8
150.2814,829.3
150.2867,163.5
150.3318,19.5
150.3442,82.8
150.3679,368.4
150.4877,535.7
150.4967,204.1
150.4987,353.6
150.5307,429.4
150.5583,100.6
150.5735,18.5
150.5864,169.4
150.635,700.4
150.6387,20.5
150.7317,29.2
150.7624,106.4
150.8007,89.2
150.8084,17.7
150.893,879.2
150.9114,291.1
150.9125,302
150.9149,483.4
150.9205,931
150.9249,305.5
150.9743,615.6
150.977,44364.5
150.9844,161.5
151.0224,344.9
151.0481,2357.3
151.0909,19.3
151.2603,98.9
151.282,108.9
151.385,238.8
151.4363,845.6
151.4585,254.2
151.5332,632.5
151.5542,81.1
151.561,23.2
151.6407,76.5
151.6523,207.1
151.7282,628.4
151.7451,534.2
151.8115,20.3
151.8401,16.8
151.9097,163.4
151.9224,25
151.9514,374.2
151.9591,876.2
152.0003,20.2
152.0223,5355.7
152.032,2672
152.0414,608
152.0707,20.7
152.2064,180.2
152.2325,85.2
152.234,533.9
152.2554,124.1
152.2615,17.3
152.3203,122
152.3721,133.2
152.4722,102.4
152.5004,18
152.5513,17.6
152.5623,783.6
152.6665,98.3
152.6998,130.2
152.7393,423.9
152.7757,135.3
152.8727,836.3
152.88,134.4
152.9589,20.6
152.975,1835.4
153.0312,682.5
153.0334,340.5
153.0343,233.8
153.0353,255
153.0838,626.8
153.1149,362.4
153.1275,17.5
153.1522,279.6
153.1576,209
153.1657,108
153.2141,533.4
153.2198,139.1
153.2831,224.8
153.285,327.8
153.3299,212.3
153.346,128.3
153.3654,107.6
153.4291,601.8
153.4521,89.2
153.5937,243.2
153.6255,101.5
153.6398,111.3
153.67,19
153.6803,288.4
153.772,100.9
153.7764,877.3
153.7843,461.5
153.7959,914.9
154.0113,1098.6
154.0266,432.9
154.0546,524
154.0589,575.3
154.0657,249.3
154.2096,807
154.2163,95.9
154.2475,20.9
154.3024,173.8
154.352,388.5
154.3854,18.1
154.388,147.6
154.392,123.5
154.4339,108.5
154.4384,967.9
154.4483,372.7
154.4517,345.2
154.5595,517.3
154.6073,216.9
154.621,114
154.6981,286.7
154.7441,214.7
154.8147,79.2
154.8497,585.2
154.8606,151.2
154.8849,82.5
154.9047,24.2
154.9076,86.6
154.9423,112.3
154.9997,322.7
155.043,1320.5
155.0493,283
155.0542,4052.2
155.2689,542.2
155.4522,114.2
155.4621,413.9
155.5004,307.1
155.5631,887.5
155.5919,79.7
155.6123,531.3
155.621,317.5
155.6468,172.5
155.7072,136.4
155.7651,794.8
155.7927,207.7
155.8074,102.7
155.8215,116
155.8374,130.6
155.8961,20.2
155.9429,185.9
155.9805,188.4
156.0424,2955.6
156.0576,21.9
156.077,54990.6
156.0885,184.3
156.1441,114.8
156.1721,100.1
156.1833,15.5
156.2049,353.3
156.2465,279.8
156.3383,19.9
156.3419,16.6
156.3863,212
156.4317,360.6
156.4461,169.8
156.465,90.4
156.4845,18.3
156.5138,219
156.5155,372
156.5219,197.4
156.5545,21.3
156.6188,137
156.6301,382.2
156.6423,114
156.8506,231.3
156.857,16.2
156.8851,243.6
156.9352,1007.5
156.9744,21.3
157.0296,125.6
157.0405,222.6
157.0603,136
157.0649,101.2
157.0804,440.5
157.0828,645.3
157.0846,311.9
157.0974,190.9
157.1625,335.7
157.2077,112.1
157.2245,357.6
157.2281,236.9
157.2611,628
157.2811,17.7
157.3175,203.6
157.3475,339.7
157.3609,101.3
157.386,903.6
157.4402,664.7
157.5067,97.7
157.6124,80.7
157.6227,18.9
157.7608,399.8
157.7897,1113.9
157.8542,660.5
157.9508,145
157.9738,294.9
158.0001,88.5
158.0128,904.7
158.0273,4448
158.0395,25.5
158.0939,113.6
158.1586,332.2
158.1649,98.8
158.1844,18.2
158.2063,18.1
158.2612,321.6
158.2883,81.6
158.3071,82
158.3558,128.8
158.3688,171.3
158.3732,952.3
158.4259,285.9
158.4279,618.8
158.4816,88.9
158.494,94
158.5601,18.6
158.6691,109.3
158.6845,709.2
158.7029,258.4
158.7546,114.1
158.7909,295.9
158.8588,89.3
158.8641,216
158.8991,498.1
158.9276,22.1
158.9293,94.9
158.9535,81.8
158.9644,8846.6
158.9842,294.8
158.9967,7249
159.0113,42.5
159.0306,84.6
159.0334,221.3
159.0543,379.6
159.0859,81.6
159.0933,161.7
159.1043,365.5
159.1103,86.7
159.1443,426.3
159.2108,673.1
159.2139,892.9
159.3088,575.7
159.3784,708
159.4345,162
159.5347,177
159.6107,114.9
159.6353,93.7
159.7626,17.9
159.7641,164.7
159.7648,166.4
159.7841,338.6
159.9431,648.7
159.9963,172.2
160.0231,55.4
160.0284,17.5
160.0348,14642
160.0607,115924
160.0731,103.5
160.0772,694.1
160.1676,116.4
160.191,249.2
160.1978,19.7
160.2131,1042.6
160.2467,140.5
160.2571,142.3
160.2618,22.6
160.2806,500.9
160.3262,21.5
160.3496,198.9
160.4036,866
160.4332,154.9
160.4644,525.1
160.4802,413.1
160.4962,553.6
160.5108,931.1
160.548,167.3
160.5575,188.6
160.5723,73
160.5768,81.5
160.6256,650.6
160.6367,315.5
160.7156,344.9
160.742,1044.1
160.7842,84.7
160.8041,19.4
160.915,138.5
160.9673,123
161.0092,104.5
161.0427,337.3
161.0551,135.8
161.0641,4748.8
161.1216,102.8
161.1329,122.5
161.2032,17.2
161.2668,346.1
161.3,80.7
161.3036,582.2
161.3604,584.8
161.412,144.5
161.4436,602
161.4497,91.4
161.4642,84.5
161.4937,262
161.5127,103.2
161.5249,346.4
161.5473,278
161.5632,80.4
161.5758,165.5
161.6066,207.6
161.6202,19.9
161.6287,87.4
161.6954,318.2
161.7076,154.6
161.7867,79.4
161.8141,628.6
161.8613,570.4
162.0504,15058.9
162.0647,293.6
162.1129,487.8
162.1256,246
162.1685,106.5
162.191,169.3
162.1992,499.7
162.2111,131.2
162.2515,199.3
162.3222,110.2
162.3351,16.8
162.3615,18.2
162.3679,278.2
162.3878,295
162.3898,79.3
162.4621,72.9
162.4961,340.4
162.5032,179.3
162.5717,119
162.5794,92.3
162.6564,250.2
162.6632,18.6
162.7009,582.9
162.7133,155.6
162.7224,16.7
162.7597,100.6
162.8111,139
162.8184,160.6
162.8449,894.8
162.9248,203.2
162.9485,103.5
162.9524,230.2
162.9559,3707.3
163.0157,1711.5
163.0319,320
163.0345,436.5
163.051,219.6
163.0517,259.6
163.0635,255.1
163.2375,317.6
163.3204,197.2
163.3378,99.3
163.3706,652.8
163.3855,152.2
163.4078,76.5
163.4787,76.9
163.6146,106.5
163.6164,642.6
163.6325,17.9
163.6594,910.4
163.6638,225.4
163.6771,963.2
163.7004,254
163.757,18.8
163.7926,137.8
163.8496,389
163.9052,326.5
163.9365,105.6
163.9517,124.8
164.0006,511.7
164.0234,1052.7
164.0297,14715.8
164.0826,19.3
164.1236,574
164.1513,290
164.1881,178
164.2166,830.5
164.2444,188
164.2623,182.3
164.3167,153.5
164.3413,279.6
164.3618,695.5
164.3738,145.3
164.3816,705.7
164.4062,20.6
164.4094,745.6
164.4437,128.3
164.4446,128.7
164.4672,273
164.4875,83.1
164.4971,16.1
164.5331,580.6
164.6211,546.9
164.6489,304.2
164.7181,326.3
164.7847,139
164.7872,147.6
164.8265,280.5
164.9208,6448.3
164.9303,11500.7
164.9353,627.2
164.9393,89.8
164.9721,183.4
164.9928,929.1
165.0452,320.7
165.0913,1094.8
165.1018,320.9
165.1979,230.2
165.2543,233.1
165.2855,119.7
165.3149,97.4
165.3684,92.8
165.3748,19.8
165.3854,117
165.4224,117.6
165.4952,88.6
165.5265,93.1
165.564,259.5
165.674,367.2
165.6948,510.2
165.7521,705.5
165.7558,68.6
165.8002,381.6
165.8417,18.8
165.9346,306.4
165.9637,153.7
165.9669,2109.4
165.979,3265
165.9881,5629.8
165.9953,61.5
166.0348,86.2
166.0394,117.2
166.0614,617
166.0961,111.7
166.1152,355.9
166.1342,340.5
166.1503,802.4
166.2137,351.5
166.2428,575.8
166.2568,450.1
166.2742,498.7
166.3453,610.5
166.3636,581.9
166.3722,74.9
166.3842,641.3
166.4063,395.8
166.5661,82.1
166.612,304.7
166.6646,86
166.6735,128.5
166.7113,124.1
166.8281,617.6
166.8419,77.1
166.9511,20285.9
166.9906,760.5
167.0222,6445
167.0603,223.6
167.076,156.8
167.0799,493.1
167.0868,677.7
167.0886,144.4
167.128,173
167.1486,146
167.1512,184.1
167.1956,195.9
167.2176,535.7
167.2224,1099.5
167.2504,105.5
167.2889,86.8
167.3289,651.1
167.4161,307.1
167.4854,108.7
167.4979,883.4
167.5319,538.8
167.583,262.8
167.6025,323.6
167.6055,703.9
167.6193,293.5
167.6752,543.1
167.68,306.4
167.7731,199.1
167.8261,77.4
167.8482,22.7
167.913,181.5
167.9414,709.5
167.9948,4277.9
168.0048,159.5
168.027,95.5
168.1409,97.1
168.1679,86.8
168.24,239.6
168.2467,530.3
168.2566,482.3
168.2655,555.1
168.5625,105.7
168.5718,188.9
168.654,113.6
168.6827,337.5
168.7251,115.2
168.7499,17.2
168.9341,625.1
168.9491,1467.8
168.9678,216.7
169.0124,109.2
169.0257,914.1
169.0587,68522.7
169.0651,1509.5
169.0951,2015.5
169.0975,783.4
169.1203,104.8
169.2835,171.8
169.4107,127.6
169.4195,119.7
169.4654,115
169.4778,462.1
169.4896,180.6
169.4968,137
169.5151,236.9
169.5428,119.5
169.5747,718.8
169.5896,20.7
169.6105,272.9
169.7273,279.3
169.7447,162.2
169.7465,519.2
169.8714,291.1
169.9714,114.6
169.9861,1714.1
170.0248,425.3
170.0329,2975.8
170.0619,1143.2
170.0676,18.1
170.0928,10551.4
170.0958,17.5
170.1007,406.4
170.1757,616.6
170.1783,264.4
170.1874,106
170.2117,82.9
170.2648,535.6
170.2774,193.1
170.3175,158.5
170.3488,19.3
170.3586,637
170.3724,168.1
170.3806,572.4
170.4484,137.3
170.4939,416.6
170.512,180.1
170.5585,709.2
170.5985,236.5
170.6192,131.4
170.6227,95.9
170.6328,211.7
170.6871,471.9
170.6994,19.8
170.7109,666.5
170.8267,552.5
170.833,264.6
170.8546,3838.5
171.0171,1181.1
171.0233,284
171.0282,448.8
171.0533,447.2
171.119,103.1
171.1346,789.2
171.1733,350.1
171.1775,216.6
171.1842,79.9
171.2269,330.4
171.2671,84
171.3023,20.2
171.3644,465.9
171.395,302.8
171.4574,82.1
171.4728,86.5
171.4848,182.6
171.5719,326.8
171.5843,209.9
171.6073,248.9
171.615,101
171.6746,102.7
171.709,282.4
171.7948,116
171.8063,190.7
171.8543,158.4
171.8624,133.2
171.9602,75.9
171.9712,186.2
172.0285,2462.5
172.0388,78.9
172.0517,391.4
172.0588,134.1
172.1017,84
172.1263,16.9
172.1314,182.3
172.3135,694.1
172.3655,205.6
172.3933,834.5
172.409,18.4
172.5254,179
172.5387,159.8
172.563,113
172.5809,216.1
172.7147,522.2
172.7533,562.9
172.8517,1964.4
172.8601,257.1
172.8868,86.9
172.9062,147.2
172.9673,275.9
172.9704,114.4
172.9807,226.6
172.9902,21.6
173.0247,212.8
173.0271,306.5
173.03,352.9
173.0483,248
173.0613,378.9
173.0727,116
173.0966,97.4
173.1323,224.9
173.1848,144.1
173.2977,100.5
173.3034,140.4
173.3698,18.2
173.3827,194.7
173.4708,353.8
173.534,884.9
173.5712,234.5
173.6424,721.1
173.7009,71.4
173.7385,91.1
173.776,660.1
173.8322,18
173.8371,119.8
173.8397,101.5
173.8941,68.3
173.9158,201.7
173.9341,674.6
173.999,18.8
174.0306,22.1
174.1094,933.7
174.144,85
174.1617,716.6
174.1677,18.5
174.2328,736.8
174.5498,117.4
174.5647,68.2
174.6046,687.7
174.6082,18.8
174.7246,92.2
174.791,125.4
174.7933,549.7
174.8017,90.9
174.8293,91.7
174.8622,384.2
174.8982,1113.2
174.9384,3817.1
174.9855,24.1
175.0206,75.6
175.0237,106.2
175.0345,2731.8
175.0458,4259.8
175.0486,990.6
175.0814,822.7
175.0867,229.4
175.1051,100.2
175.1193,116004.5
175.162,589.5
175.1979,300.6
175.3132,241.8
175.3443,86.9
175.3545,968.2
175.454,97.9
175.4969,619.4
175.5271,16.4
175.6024,134.7
175.6159,86
175.629,249.4
175.6529,119.8
175.6841,158.1
175.7105,537.3
175.7361,262.6
175.7799,116.9
175.8104,563.4
175.8499,284.7
175.9727,174.5
176.0087,3363.8
176.0661,21543
176.0859,734.5
176.1033,1560.8
176.1195,834.6
176.1226,1850.1
176.1265,139.1
176.1479,994.9
176.1542,945.5
176.1598,17.9
176.1718,310.1
176.1837,391.9
176.2898,159
176.4276,865
176.4814,322.3
176.4963,122.4
176.5854,146.8
176.6721,648.9
176.6909,222.3
176.7405,162.3
176.7485,1111.6
176.8106,121.4
176.839,108.4
176.9205,19.2
176.9682,135.3
176.9929,1742.4
177.025,2928.7
177.0614,5575.3
177.0695,804.8
177.0836,125.4
177.0873,661.1
177.1027,280.3
177.1231,261.3
177.3066,1052.2
177.3692,90.2
177.4134,263.7
177.4561,140.6
177.4608,312.2
177.5598,220.7
177.5773,291.4
177.6819,515.6
177.7432,816
177.7454,319.4
177.7839,20.2
177.8826,361.8
177.9228,102.3
177.9387,124.8
177.9677,17.6
177.99,168.1
178.009,12958.6
178.0246,8180.8
178.0591,3660.9
178.0805,80.1
178.1052,320.9
178.1098,103.7
178.1651,18.1
178.2372,397.4
178.3112,188.5
178.3283,611.9
178.3805,544.7
178.4128,133.2
178.483,342.2
178.6112,699
178.6178,93.9
178.6836,111.5
178.7529,19.1
178.7788,375.7
178.7925,72.7
178.7956,386.6
178.8161,244.6
178.8316,19.2
178.8521,392.8
178.8576,84.4
178.9608,599.4
178.979,101.7
179.0497,88.5
179.0975,337.6
179.1247,230.8
179.1414,81
179.1941,479.9
179.3266,84.2
179.4343,82.4
179.4771,456.6
179.5656,138
179.7428,479.6
179.7494,147.1
179.7636,335.1
179.8417,128.4
179.9112,77.5
179.9132,180
180.0037,9379.1
180.0632,17.2
180.0683,380.2
180.0796,586.6
180.1671,245.9
180.441,318.4
180.4512,223.5
180.4943,749.8
180.5233,236.8
180.5439,19
180.569,667.5
180.6824,829.3
180.6999,206.5
180.7515,640.1
180.7815,881.1
180.8948,2676.4
180.9042,6617.3
180.9577,1861.8
180.9773,315
181.0365,291
181.0653,12470.1
181.0728,696.2
181.0904,925
181.1163,255.9
181.1389,21.6
181.2812,20
181.292,754.2
181.3121,103.1
181.3683,473.4
181.4373,98.5
181.5067,21.4
181.511,24.7
181.6091,287.5
181.7146,108.6
181.9177,628.6
181.9965,91.1
182.0016,17
182.0158,30
182.0428,43520.3
182.0759,167.4
182.129,611.8
182.2314,247.1
182.2823,184
182.3331,17.8
182.3778,529.1
182.4229,166.2
182.4555,105.4
182.5611,187.1
182.6554,876.3
182.6832,155.8
182.828,86.9
182.8967,650.2
182.9022,174.4
183.0021,419.3
183.0411,512.4
183.0448,2312
183.0773,17.5
183.0982,171.3
183.2085,19.6
183.2642,487.7
183.3227,848.7
183.3878,185.4
183.4394,83.1
183.4503,142.6
183.5028,137.5
183.5309,911.4
183.6211,538.8
183.6782,99.8
183.6837,154.5
183.7158,219
183.7331,78.3
183.8836,17.6
183.9101,803
183.936,74
183.9572,364.3
183.9651,361.3
183.9873,912.4
184.0309,21.4
184.0376,436.2
184.0575,76
184.0653,314.3
184.0737,4168483.8
184.1099,667.9
184.1698,59
184.1826,1855.6
184.2119,425.1
184.279,171.6
184.3119,523.5
184.4589,17.4
184.5057,17.1
184.5604,86.8
184.5915,160.9
184.5977,20.7
184.6871,178.3
184.7115,130
184.7436,306.3
184.7567,694
185.0327,71983.3
185.0707,9305.3
185.0771,188327.1
185.2207,265.5
185.2389,465.9
185.2544,280.2
185.3006,82.5
185.3047,179.9
185.3096,155.2
185.4378,18.3
185.4477,672.4
185.4883,571.2
185.5728,109.6
185.5841,95.2
185.6019,17.2
185.6343,126
185.664,224
185.714,181.2
185.7289,294.9
185.7596,221.9
185.8129,890.8
185.8201,639.4
185.9601,1252
185.9724,129.9
185.9925,401.9
185.9987,367
186.0315,319.5
186.0361,1228.4
186.0588,148.7
186.078,26240.3
186.1744,346.8
186.2126,170.6
186.2869,536.6
186.318,220.5
186.3796,303.5
186.5909,471.9
186.6976,114.9
186.7482,87.1
186.7532,711.8
186.7834,171.6
186.9123,2073.9
186.9278,670
187.031,2207.4
187.0456,294.3
187.0578,514.8
187.0718,2314.8
187.0851,522.6
187.108,1773.8
187.1201,82.7
187.1406,614.2
187.186,118.9
187.1915,576.1
187.2455,256.7
187.2602,147.9
187.3245,17
187.3519,82.2
187.3671,108.5
187.3861,19.3
187.4038,164
187.4273,481.3
187.4559,676.4
187.4761,551.7
187.5061,99.1
187.7878,337.7
187.9356,131.3
187.9588,213
188.0324,96
188.079,249.2
188.2119,682.9
188.2369,118.5
188.3576,121.4
188.3717,267.2
188.4307,121.8
188.5394,284.3
188.5416,211.8
188.6742,487.7
188.6998,172.6
188.7041,172.9
188.7075,18.8
188.7181,121.2
188.8114,707.1
188.837,206.3
188.8854,590.6
188.8911,18.3
188.9258,195.4
188.9347,209.9
188.9447,793.2
188.9574,500.9
189.0444,366.8
189.0615,3051.9
189.0874,11964.7
189.214,98.3
189.2525,18.3
189.2883,208
189.2921,749.1
189.3114,100.2
189.3176,16.8
189.3901,602.1
189.4113,149.9
189.4404,124.5
189.4607,203.4
189.5003,604.2
189.5493,577.8
189.6775,275.7
189.7482,669.7
189.7624,73.1
189.8522,84.9
189.9673,128.1
190.0319,116.7
190.0909,114
190.1661,283.3
190.1703,863.3
190.1802,520
190.2104,177.2
190.2824,329.4
190.2891,349.3
190.4732,87
190.5721,169.6
190.6834,118.1
190.7264,127.6
190.7664,208.7
190.8146,110.5
190.8454,278.1
190.8476,118.3
190.9124,1541.6
190.9449,79.4
190.9707,148.9
190.9974,114.6
191.0085,2829.1
191.02,19.5
191.0408,136580.2
191.0771,26767.2
191.1022,84.5
191.1077,119.3
191.219,267.3
191.2438,18.9
191.257,224.1
191.3586,171.9
191.3657,18.5
191.3884,318
191.4206,75.3
191.4241,144.8
191.602,151.5
191.6826,550.4
191.7068,676.2
191.8073,596.3
191.8496,223.2
191.8961,324.3
191.9541,707.3
191.9685,74.5
191.9826,343.2
191.985,759.9
191.9951,20.2
192.0269,953.1
192.0402,11750.8
192.0442,3076.7
192.0547,127.5
192.0808,777.3
192.1188,142.5
192.2118,201.9
192.2878,178.1
192.3503,103.6
192.4192,755.9
192.5,103.6
192.5787,632.9
192.5971,84.2
192.6195,145.9
192.6275,360.3
192.7,976.6
192.7595,84.2
192.858,555.3
192.9002,450.8
192.9033,111.1
192.912,160.4
192.9721,247.8
192.999,3054.9
193.0354,4084
193.0448,612.4
193.1158,20.4
193.1932,294.8
193.2294,780.1
193.2549,208.4
193.3061,112.1
193.3094,113.6
193.3463,234.2
193.3865,299.1
193.4418,121.5
193.5354,383.5
193.8128,97.4
193.9151,266.9
193.9627,546.9
193.9985,1648.2
194.0054,2082.2
194.0106,931.9
194.0217,377
194.0328,758.5
194.0398,90.4
194.0478,18.8
194.1062,85.7
194.1328,258.9
194.1545,42.4
194.2352,145.3
194.3316,662.9
194.3625,119.8
194.4177,92.7
194.4949,427
194.5222,840.8
194.5251,242.9
194.5415,628.7
194.5586,441.3
194.6139,132.7
194.6458,382.9
194.7816,137.5
194.8676,321.1
194.9378,22.1
194.9736,737.6
194.9833,120.8
194.9884,534.4
195.0446,436.7
195.1642,73.8
195.1731,18.8
195.1866,120
195.2152,19
195.2195,122
195.2478,164.8
195.2804,697.5
195.2955,18.9
195.4096,16.7
195.4481,16.9
195.454,500.2
195.5199,645.2
195.5494,405.7
195.5646,701.4
195.6022,305.7
195.6449,20.6
195.6642,317.5
195.69,247.3
195.6967,624.1
195.6992,367.8
195.7143,659.1
195.8177,780.7
195.8564,451.3
195.8853,599
195.9217,78
195.9381,260.1
195.971,24
195.974,20.2
195.9778,412.9
195.984,423.3
195.9944,129.6
196.0689,93.5
196.0771,807.5
196.0797,91.9
196.1701,445.6
196.205,77.4
196.2344,87.9
196.3199,768.4
196.412,89.5
196.4249,631.6
196.5273,251
196.5934,694.8
196.6077,152.8
196.613,603.3
196.6304,625.6
196.6834,519.1
196.6961,466
196.7192,542.3
196.7905,157
196.7998,73.2
196.8129,17.4
196.8655,5615.1
196.8783,676.6
196.9119,134.9
196.9264,169
196.974,359.5
196.9773,102.4
197.0196,21.9
197.0239,284.8
197.0273,126
197.1014,575
197.1072,80.3
197.1741,22.1
197.2001,18.9
197.2219,710.9
197.2889,815
197.3279,335.2
197.3333,959.3
197.3444,16.4
197.4484,97.2
197.4917,100.4
197.5187,544.2
197.5222,19.2
197.5712,101.7
197.5898,140.4
197.6125,132.2
197.7374,116.8
197.7463,608.6
197.7915,23.4
197.8071,343.4
197.895,75.9
197.9659,32.7
198.0076,23.3
198.0706,300
198.0855,7321.4
198.1071,936.1
198.1857,8212.1
198.2887,74
198.3743,155.9
198.5569,294.6
198.5795,181
198.588,73.3
198.5924,159.4
198.6126,19.2
198.6934,157.5
198.7366,335.4
198.8627,5627.1
198.9626,123.1
198.9686,698.4
198.9742,74.9
198.9776,571.1
199.0134,759
199.0353,132.1
199.0695,719.8
199.0758,2838.8
199.0807,96.1
199.0915,374.8
199.1149,645.4
199.1891,269.6
199.2326,659
199.2996,157.9
199.3053,146.1
199.3443,320.9
199.3486,330.6
199.3643,297.5
199.3695,626.3
199.4137,219.9
199.566,199.6
199.729,572.9
199.8585,81.3
199.913,81.8
199.9249,126.3
199.9504,102.7
199.9911,37249.1
199.9963,41
200.0411,13511
200.0662,604.6
200.0802,108.7
200.1541,11729.6
200.1574,4115.2
200.2038,304.5
200.2556,335.6
200.3642,171
200.3679,668.3
200.4325,153.3
200.4467,17.2
200.5539,146.1
200.5605,203.6
200.6309,19.6
200.6398,145.9
200.7155,159.5
200.752,82.4
200.7639,937.2
200.7761,123.1
200.8598,1811.3
200.8828,124.2
200.9147,18.5
200.994,161.3
201.0553,1522.7
201.0809,203.3
201.0875,298.6
201.1054,199.6
201.2091,336.8
201.2784,222.2
201.4186,167.8
201.5481,18.4
201.5529,72.9
201.5918,113.8
201.719,337.5
201.7827,92.1
201.8341,352.5
201.8615,569
201.8811,103.4
201.9341,477.3
201.9706,131.8
201.9798,167.7
202.0481,2309.6
202.2139,346.8
202.2214,605.4
202.2243,298.4
202.3062,826.9
202.3262,486.7
202.3786,173
202.4387,303.5
202.4503,84.3
202.522,26589.6
202.5437,544.4
202.607,203.2
202.6898,119.4
202.7411,551.3
202.7656,822.6
202.8262,132.5
202.8865,627.6
202.9795,710.4
202.9956,26.7
203.0324,889.4
203.0531,1124214.5
203.0631,131.3
203.0772,10186.7
203.1303,257.4
203.3458,16.5
203.5085,143.7
203.7697,98.5
203.7855,19.9
203.8593,288
203.9463,54.4
204.0248,55544.6
204.0564,57073.8
204.0681,98.1
204.0715,162.6
204.0741,287.4
204.081,20.1
204.0871,1272.9
204.0912,144.1
204.1065,184.9
204.1229,889.9
204.1998,107.4
204.2384,458
204.2934,134.9
204.3054,118.4
204.3189,365.7
204.3624,85.6
204.4398,113.2
204.4578,364.1
204.4674,112.3
204.521,82.7
204.6524,93.9
204.6836,131.8
204.6947,1018.5
204.7818,549.7
204.7899,299.4
204.7973,101.7
204.8388,250.1
204.9455,546.3
204.9956,26.9
205.0279,267.2
205.0573,8702.1
205.084,118.4
205.0964,88.1
205.1054,992.1
205.1176,1099.1
205.194,101.9
205.218,19.2
205.2777,579.3
205.2889,172.8
205.2951,277.8
205.3179,198.3
205.4436,18.8
205.5614,157.9
205.6527,102.9
205.6689,79.8
205.6913,653.1
205.7064,161.2
205.7674,20.3
205.8233,166.9
205.8807,456.4
205.906,461.5
205.964,19.6
205.9722,579.7
205.997,125.4
206.0554,813.3
206.0655,110.6
206.0724,839.8
206.1744,560.5
206.2354,18.7
206.2913,468
206.3047,518.1
206.3245,125.2
206.3663,88.1
206.4006,235.7
206.4571,281.9
206.5713,673.1
206.6335,108.7
206.7082,22.9
206.7978,178.5
206.8029,262.9
206.8944,16338.5
206.9825,2503.2
207.0147,88527
207.03,121.3
207.0447,2969.1
207.0512,12617.4
207.3467,584.1
207.4411,367.7
207.4482,305
207.4837,95.2
207.4932,294.1
207.6522,254.1
207.6599,640.7
207.6716,16.9
207.778,233.4
207.8435,155.1
207.9103,129.7
208.0085,600.3
208.0141,2014.5
208.0181,2167.9
208.033,126.7
208.171,452.5
208.184,381.9
208.3073,183.5
208.3956,22.1
208.4095,235.2
208.4222,155.1
208.5282,22.3
208.7158,286.7
208.7739,148
208.8636,263.7
208.8721,950.6
208.8836,23.6
208.8914,10170.3
208.9553,19.1
208.9821,154.3
209.0128,1816.1
209.0492,126.6
209.0597,845
209.0688,559.3
209.1402,691.7
209.1613,183
209.1752,375.6
209.1815,191.9
209.2642,120.1
209.2746,160.6
209.3509,133
209.4732,351.4
209.5215,293.5
209.5618,89.5
210.7577,839.9
210.8474,115.7
210.9359,388
210.9813,86.1
211.0569,924
211.0695,1765
211.1783,448.1
211.1894,4148.3
211.1952,12323.4
211.1996,11159.5
211.2026,19570.2
211.2088,22863.9
211.2126,34881.7
211.2186,12969.7
211.2263,86.6
211.2398,832.4
211.251,110.2
211.4137,167.9
211.4334,175.4
211.4624,80.8
211.4794,117.1
211.494,784.5
211.9031,18.1
211.9477,691.1
212.0121,349.4
212.0255,21.2
212.0468,832.1
212.0556,1049.5
212.0745,112.9
212.0901,129.5
212.1023,337.2
212.1295,284.2
212.2083,82.7
212.2183,626.2
212.262,207.1
212.3006,596.3
212.3753,80.4
212.3826,156.9
212.4035,575.8
212.4198,306.8
212.4726,71.7
212.5173,575.2
212.5744,555.9
212.6697,452.6
212.6897,169.4
212.7746,113.1
212.7879,311.9
212.8396,1864.3
212.8447,510.7
212.8645,17.7
212.8754,678.6
212.8825,481.2
212.9459,192.6
212.9498,285
212.9789,822.6
213.018,796.3
213.0551,2024.8
213.0754,2013.9
213.1801,103.1
213.2207,185.9
213.2882,111.1
213.3736,252.1
213.4065,902.2
213.4734,216.5
213.4744,213.1
213.5778,500
213.6917,326.6
213.825,110.4
213.9249,147
213.9624,66.7
213.9662,74.6
213.9851,599
214.0189,18.9
214.0593,7640.3
214.0747,26.7
214.0902,914.9
214.0952,813.6
214.1296,22.1
214.2035,243.9
214.2896,170
214.3829,216.1
214.4427,244.9
214.5182,130.4
214.5466,91.8
214.7223,94
214.7275,18.9
214.7782,495.1
214.787,70.4
214.8366,1954.5
214.8579,161.5
214.8914,100.9
214.9104,157.3
214.9183,56.4
214.9863,147.2
214.993,619.6
215.003,156.3
215.0199,896.5
215.0484,95.8
215.0706,139.1
215.0817,19.6
215.0934,114.9
215.1162,140.8
215.1678,339.8
215.2077,627.2
215.2225,85.4
215.3246,973.9
215.3371,293
215.3511,614.2
215.3593,114.3
215.3876,615.1
215.4091,88.9
215.4572,580
215.4824,415.9
215.6139,123.9
215.693,22.2
215.7005,79
215.7058,92.8
215.7538,498.8
215.7881,473.3
215.8574,542.5
215.9275,149
215.9653,240
215.9838,80.1
215.9924,130.2
216.0151,9613.5
216.0281,21.4
216.0854,173.3
216.097,80.9
216.1478,907.2
216.1525,18.9
216.272,78.4
216.3459,228.7
216.3859,133.2
216.4995,110
216.5074,76
216.6863,18.1
216.7491,128
216.7897,338.5
216.9232,43946.3
216.9732,195.9
216.9804,145.8
216.99,607.5
217.0125,20.6
217.0189,32.6
217.0567,189.9
217.0667,297.5
217.081,356.8
217.0939,72
217.1054,83.8
217.2033,82.3
217.3383,610
217.3877,362.4
217.4045,99.6
217.4471,371.2
217.4733,422.3
217.577,19.3
217.5803,129.7
217.7187,1028.6
217.7375,103.4
217.7646,632.1
217.7846,163.7
217.916,311
218.0069,49.7
218.0156,61.7
218.022,1212.6
218.0509,111.2
218.152,62.8
218.2527,82.4
218.3569,428.9
218.382,19.4
218.3962,160.8
218.4656,77.7
218.5743,129.7
218.6637,173.8
218.9044,442.4
218.9203,9358.7
218.9326,106.6
218.9883,429.2
219.0271,1310790.1
219.0509,125.1
219.0664,608.2
219.0833,12990
219.104,833.4
219.1187,186
219.1296,317.4
219.1644,626.6
219.2564,92.3
219.4483,227.5
219.4661,144.7
219.5511,456.9
219.6499,76.4
219.6707,630.9
219.7135,113
219.8073,88.3
219.8173,264.7
219.939,82.6
219.9988,392.1
220.0304,66441.4
220.0374,349.6
220.0586,18.3
220.0674,9437.2
220.1136,19.6
220.1597,582.9
220.1677,459.7
220.2877,865.3
220.3686,155.2
220.3893,680.7
220.395,18.2
220.434,430.3
220.719,209.9
220.732,216.7
220.7765,466.1
220.9193,974.5
220.9732,126
221.0252,77880
221.0314,11953.2
221.0514,3316.7
221.0848,121.4
221.0877,317.7
221.1805,161.5
221.2249,159.5
221.271,85.5
221.3261,89.8
221.4192,171
221.434,127.8
221.5022,87.7
221.5722,96.2
221.5941,787.1
221.6183,431
221.6386,177.3
221.7214,557.5
221.8101,88.4
221.8353,74.9
221.845,86.7
221.8494,78.6
221.9431,96
221.9569,361.2
221.9708,863.4
221.984,3211.1
222.0021,232.4
222.0283,1493
222.0479,189.5
222.077,138.4
222.1151,922.4
222.22,17.7
222.4221,162.2
222.483,18.8
222.4919,125.6
222.5597,110.6
222.5742,251.5
222.7771,377.4
222.8026,244.2
222.8574,310.9
222.8613,918.9
222.8684,15089.7
222.8796,1406.6
222.9117,108.4
222.9381,116.4
222.9655,120.4
222.9888,11970.7
223.025,1146.9
223.0372,1872.4
223.1941,345.3
223.3093,543.2
223.3969,165.5
223.4463,196.4
223.5457,120.3
223.7796,401.3
223.7935,892.7
223.8896,176.4
223.9549,217.7
223.9688,20.1
223.9819,105.8
224.0073,634.5
224.0299,17266.9
224.2245,17
224.3515,660.6
224.5,120.6
224.634,566.2
224.8653,8010.7
224.8971,178.6
224.9707,817.3
224.9866,360.7
225.0441,81.8
225.0552,40222.5
225.0851,699.2
225.0907,487.8
225.1394,505.6
225.1755,144.1
225.1792,17.6
225.3784,737.8
225.3918,167
225.3969,123.1
225.4859,235.1
225.5679,645.2
225.663,126.2
225.672,162.5
225.6834,87.7
225.8186,178.6
225.8497,175.6
225.9079,174.9
225.9522,50.6
226.0025,113.6
226.0068,1934.4
226.0246,9339.6
226.0456,5595.3
226.0588,477.3
226.0964,694.5
226.2453,157.6
226.2861,165.5
226.4936,373
226.5081,135.8
226.5501,930.2
226.5592,417.8
226.6764,69.6
226.7595,670.1
226.7626,444.1
226.7739,397.5
226.8122,591.6
226.8345,195.8
226.8622,437.5
226.9195,97.8
226.952,32622.5
227.0345,1859.5
227.0383,21.5
227.0665,323.6
227.0792,1679.6
227.0869,185.7
227.0963,171.3
227.1284,23.2
227.1367,178.7
227.2946,20.8
227.3505,119
227.4523,111.2
227.5002,590
227.5608,1012.1
227.5736,144.2
227.6561,75.4
227.6915,126
227.7074,167.3
227.7421,230.6
227.7664,392.3
227.8083,259.4
227.8897,20.2
227.9642,103.2
228.0011,435
228.0811,805.5
228.0956,156.4
228.097,192.5
228.0981,153
228.3227,219.4
228.3704,85.1
228.4055,124.6
228.4584,265.2
228.5372,115.2
228.63,526.5
228.7059,418.2
228.7595,794.4
228.8135,448.8
228.8847,628.7
228.992,1837.6
229.0491,205
229.0529,72.2
229.0683,236.8
229.0962,222.8
229.121,986.4
229.1373,825.7
229.1735,585.1
229.2363,322.4
229.3258,543.8
229.3278,615.8
229.3477,781.7
229.3522,209.3
229.4655,206.1
229.5239,279.1
229.547,137.4
229.6357,499.5
229.6793,597.5
229.7241,552.3
229.7324,128
229.7508,224
229.7758,306.9
229.8674,184.3
229.9575,243.5
230.0194,340.6
230.0337,223.6
230.037,17.6
230.0805,333.5
230.0881,97.7
230.114,465.1
230.1309,354.3
230.1448,190.4
230.1638,973.4
230.1934,118.5
230.2289,106.5
230.292,127.9
230.3817,588.6
230.5279,244.8
230.5586,277.2
230.5749,631.8
230.6039,238.1
230.7398,221.5
230.7763,700.8
230.8248,923.9
230.9027,229.4
230.9908,84.7
231.0844,860.6
231.126,621.6
231.1989,682.9
231.2748,200.4
231.3372,137
231.3477,157.9
231.3966,93.7
231.5313,135.8
231.6358,677.2
231.6856,1014.5
231.7839,104.5
231.8066,110
231.8238,336.9
231.8995,94.3
231.9893,365.9
231.9957,288
232.1195,261.8
232.2054,342.1
232.3322,701
232.3388,99.5
232.3649,649.2
232.5215,383.2
232.5476,133.6
232.5943,116.7
232.8972,30634.1
232.9216,20.5
232.9287,19
232.9372,557.5
232.9858,1689.7
233.0515,10398.6
233.0704,20.2
233.1139,168.5
233.1926,103.5
233.3071,18
233.3615,18.4
233.5675,721
233.6076,109.7
233.6591,80.1
233.7793,105.6
233.8289,100.8
233.9178,88.1
233.9388,150.1
233.9623,18.3
233.9997,123.1
234.0883,262
234.1159,121.7
234.3944,79.9
234.4061,174.1
234.4152,111.5
234.441,265.7
234.5788,19.8
234.6158,328.6
234.8208,683.6
234.8662,651.6
234.8942,8176.8
234.9822,1670.3
234.9976,131
235.0573,6038.6
235.0671,2214.8
235.0931,20043.2
235.1078,321
235.2039,672.3
235.2809,17.5
235.3749,202
235.4725,706.2
235.4786,273
235.5043,92.7
235.5149,255.5
235.8934,213.2
235.9104,276.6
235.9803,319.1
236.0413,5685.5
236.0722,41241.2
236.0967,105.8
236.1087,114
236.116,96.2
236.149,879.5
236.2242,78.6
236.2518,132.1
236.3045,194.2
236.3106,169.7
236.3593,138.1
236.4292,124.2
236.5231,275.6
236.6182,18.3
236.7022,131.4
236.8143,83.6
236.9697,115.3
237.0278,305.8
237.0525,811.9
237.0754,1772.8
237.0987,111.8
237.2031,82.9
237.2215,89.4
237.2275,166.2
237.3809,151.4
237.4937,89
237.6951,320.7
237.7403,166.8
237.7791,305.2
237.8128,242.1
237.8237,360.6
237.8375,194.4
237.9031,89.5
237.9155,229.6
237.9278,661.5
237.9313,917.6
238.0101,121.2
238.0132,416.4
238.0478,384.9
238.068,433.4
238.0804,170.7
238.188,20.1
238.2102,187
238.2645,292.3
238.2752,469.7
238.2921,390.2
238.3849,121.1
238.4209,160.5
238.5952,343.2
238.6767,88.3
238.7687,116.1
238.7729,169.4
238.8136,103.9
238.8423,5674
238.8537,930.8
238.8567,125.5
238.8638,580.4
238.9758,81.3
239.0492,428.7
239.0549,164.9
239.0649,289.2
239.0684,1528.9
239.0722,22.9
239.2103,23.9
239.2149,227.1
239.3239,171.8
239.4691,131.4
239.509,158.8
239.5473,300.7
239.5512,958.6
239.6656,159
239.698,94.3
239.7829,250.4
239.7891,149.3
239.935,176
239.9398,655.5
239.9965,237.5
240.0039,9866.3
240.0315,633.7
240.0402,697.1
240.0556,202
240.0999,2264
240.1069,204.4
240.1215,86.6
240.1287,483.4
240.1411,107
240.184,209.8
240.1905,114.3
240.2198,331.7
240.343,18.7
240.3778,104.3
240.3907,1040.9
240.4018,930.5
240.4059,403.6
240.5447,539.1
240.7929,542
240.8248,218.3
240.8393,1290.3
240.9552,1264.3
240.968,892.2
240.9849,594.7
241.0527,231.1
241.1051,463.6
241.1529,18
241.1899,80.7
241.2611,230
241.313,865.5
241.3216,335
241.3454,1081.1
241.5133,577.8
241.5772,173.4
241.6448,231.7
241.7522,18.5
241.7618,344.8
241.8538,22.2
241.886,356.8
241.9801,38.1
241.9987,2145.5
242.0195,3612.6
242.0558,95.9
242.1245,371.6
242.1687,168
242.2265,750.9
242.2347,344.8
242.2734,18.2
242.3066,348.1
242.3218,154
242.4761,665.6
242.4993,576.8
242.521,19.7
242.5947,17
242.7576,814.3
242.7662,599
242.7895,225.4
242.7982,235.1
242.837,349
242.8574,87.2
242.9026,135.3
242.9084,917.9
242.9261,15861.2
243.0006,184.8
243.0069,168.5
243.0147,488.3
243.0537,5757.6
243.0658,16082.4
243.1673,96.5
243.2159,86.5
243.2391,87
243.2476,19.3
243.4476,516.9
243.4914,91
243.5645,79
243.5905,17.7
243.5987,1146.5
243.7063,657.1
243.7252,922.5
243.7671,22.1
243.7886,342.7
243.8394,258.7
243.8475,82.2
243.8934,138.1
243.9197,89.5
243.9732,149.6
244.013,307.6
244.0634,334.6
244.0726,134.2
244.1469,122.4
244.1901,132.6
244.1989,134.7
244.3366,152.4
244.4968,18.7
244.5447,565.4
244.5574,18.7
244.7487,100.3
244.7627,506.7
244.8456,155.2
244.8605,628
244.8712,5761.3
244.9245,1015.3
244.9324,670.5
245.0102,457.8
245.0142,18.8
245.0642,169.7
245.0823,93.4
245.1731,844.4
245.2135,157.6
245.2211,227
245.2617,426.9
245.2695,83.9
245.297,80.9
245.3783,153.3
245.5425,113.2
245.5573,186.1
245.6143,693.4
245.8262,115.8
245.8595,216.8
245.8894,898.7
245.8937,814
245.9745,99.2
246.0018,154.9
246.0554,175.7
246.0884,920.1
246.2248,153.1
246.3413,78.2
246.5651,347.3
246.6212,198.9
246.6769,78.2
246.7543,124.6
246.8685,702.5
246.9092,317
247.0166,292.4
247.0374,1689.8
247.0533,112.3
247.0585,1492.9
247.0672,2229
247.0931,5391.9
247.1271,96.1
247.2165,652.3
247.2235,127.7
247.3031,171.7
247.3204,524.1
247.7101,19.8
247.8177,89
247.878,346.3
247.9312,389.2
247.9399,311.9
248.096,168.1
248.1248,24011
248.1434,348.8
248.1964,676.9
248.3863,679.2
248.5394,434.3
248.6026,86.8
248.655,108.3
248.7933,175.3
248.856,154.6
248.8712,10299.1
248.9602,1367.1
248.9891,81.9
248.9992,1041.9
249.0166,1651
249.0487,483.8
249.0617,14011.9
249.1079,208.7
249.1282,263.4
249.3375,108.7
249.429,114.6
249.4417,543.6
249.4969,85.2
249.5258,168.5
249.6813,82.3
249.7894,19.1
249.8439,313.2
249.8865,144.9
250.0648,433.4
250.0708,617.9
250.1204,639.9
250.1814,328.9
250.1858,205.6
250.2395,98.3
250.3061,192.7
250.3924,191.3
250.5068,115.7
250.6322,691.6
250.6355,86.1
250.6934,614.4
250.8681,1286.6
250.9206,2513
250.9405,119.1
250.9562,400.8
250.9654,631.5
250.9819,17.9
251.0014,75.9
251.0345,851.9
251.1033,276.5
251.1324,284.7
251.1802,157.8
251.2835,870.5
251.333,178.7
251.5099,764.8
251.5332,648.3
251.5773,762.1
251.5847,82.3
251.62,18.2
251.6512,823.2
251.7155,490
251.8293,82.1
251.8724,17.4
251.8861,218.5
252.0371,202.5
252.0462,100670.2
252.0976,539.7
252.2239,489.7
252.3056,113.8
252.4282,175.1
252.5693,152.5
252.5861,177.1
252.6248,680.3
252.6941,93.9
252.7123,122.7
252.9176,536.4
252.9878,159.5
252.9981,68.3
253.0171,385.7
253.0495,6453.3
253.0532,700.3
253.0676,92.7
253.0752,121.9
253.0797,147.8
253.3278,434.7
253.4044,116.6
253.4069,121.1
253.4246,225
253.4883,87.8
253.5083,363.3
253.6151,81.8
253.6274,198.7
253.658,301.6
253.7025,298.3
253.7342,440.7
253.7418,406.6
253.7481,302.2
253.9283,217.3
254.0439,4238.9
254.0702,31.7
254.3082,554.3
254.3134,197.9
254.3704,267.6
254.391,80.4
254.4015,665.4
254.4964,19.8
254.5576,206.6
254.6878,87.7
254.6926,901.6
254.7448,370.9
254.7576,94.3
254.8161,1190.1
254.8243,6391.3
254.8844,338.1
254.8946,23.9
254.9973,19.3
255.0335,29715.2
255.0383,757.3
255.0472,1246.3
255.1891,816
255.2318,166.1
255.2946,208.9
255.3059,149.7
255.3605,770
255.6086,856.6
255.6736,296.9
255.6986,160
255.7384,91.2
255.7649,196.8
255.9227,671.1
255.9785,1807.5
256.0015,117.1
256.0269,864
256.0588,86.4
256.1878,86.3
256.2903,934.6
256.3405,307.8
256.3856,422.6
256.4974,182.7
256.5074,238.5
256.5513,343.9
256.6727,293.7
256.7875,236.9
256.8139,687.5
256.8216,8462.3
256.836,78.7
256.8792,206.9
256.886,711.6
256.8992,118.7
256.9562,87.4
257.0339,105.8
257.0492,7317.3
257.0658,940.6
257.0751,73465
257.2448,71.3
257.3196,701.9
257.3912,522
257.4967,114.2
257.5324,20.6
257.549,627.5
257.5942,346
257.6318,613.3
257.7617,365.2
257.9,119
257.9039,759.9
257.9931,416.9
258.0306,76.1
258.0747,172.5
258.0784,2384.4
258.1061,365.9
258.1108,29886.8
258.2691,147.9
258.3092,107.9
258.4937,732.9
258.7113,362.6
258.7193,873
258.7763,865.9
258.8184,3881.2
258.9001,3199.2
258.9714,706.9
259.0777,29.3
259.1034,166.2
259.1149,168.7
259.1903,82.7
259.3864,268.9
259.4948,117.6
259.5219,701.4
259.6882,222.7
259.7358,128.3
259.7805,104.9
259.8914,401.4
259.9729,113.2
260.0175,55.3
260.0293,22.4
260.061,81.6
260.1334,368.8
260.3494,759.2
260.3679,164.1
260.408,649.6
260.4258,223.5
260.4469,215.2
260.4775,85.5
260.5808,775.9
260.5931,399.8
260.7146,103
260.8154,397.2
260.8337,825.3
260.845,773.9
260.8695,977.4
260.9496,4994.9
260.9735,314.6
260.9866,126.7
261.0465,366.6
261.0814,94.7
261.2604,1053.9
261.2622,1108.2
261.2643,905
261.3129,536
261.3392,129.2
261.4328,324.7
261.4348,301.5
261.4364,306.6
261.4408,356.3
261.4498,156.1
261.56,89
261.8471,86.1
261.8741,282.1
261.8866,136.7
262.0093,733.1
262.0697,487.1
262.0825,3152.1
262.1166,156.8
262.192,226.5
262.2474,93.6
262.4133,1022.5
262.4516,212.9
262.5672,650.1
262.5969,167.8
262.6258,92.2
262.6368,102.1
262.6697,83.8
262.7919,495.4
262.9462,402.9
262.972,441.9
262.9924,280.9
263.0272,231.3
263.0321,1154.8
263.0856,2767.8
263.124,136.7
263.238,1358.7
263.3333,287.1
263.4951,122.7
263.6136,20.3
263.6257,567.9
263.8465,266
263.9039,715.9
263.9441,161.6
264.0434,843.4
264.2691,23.4
264.4276,637.2
264.4523,267.1
264.4674,222.9
264.6325,636.9
264.6341,620.5
264.6354,606.3
264.6915,334.2
264.7153,226.7
264.7592,147
264.8452,1283.8
264.853,3574.9
264.9339,2442.4
264.9731,445.9
264.9888,221.2
265.0168,311.3
265.0357,7390
265.048,3390.3
265.0643,125.4
265.1248,541.5
265.1655,242.8
265.2011,429.3
265.2188,169.4
265.4863,561.7
265.4939,79.5
265.5084,283.3
265.601,743
265.632,83.2
265.8485,108.9
265.9791,21.1
266.173,193.9
266.1857,612.7
266.3617,457.9
266.4268,614.4
266.5128,145.2
266.6412,458.4
266.6995,328.5
266.8064,97
266.8502,4106.4
266.8944,395
266.933,381.5
266.9832,145.9
266.9974,747.3
267.0139,193
267.0219,20.8
267.0471,207.9
267.3363,129.9
267.4146,1160.6
267.4204,147.1
267.6473,1053.3
267.6559,431.7
267.6939,127.6
267.7759,485
267.7857,154.5
267.9455,665.5
267.9662,366.9
267.9953,20
268.0323,179.9
268.0508,86.8
268.0684,193.2
268.1432,925.9
268.22,188.9
268.413,224.7
268.7233,20.2
268.8354,659.4
268.848,463
268.8545,904
268.8801,223.5
268.8917,834.6
268.9032,193.8
269.0012,1024.9
269.0127,96.5
269.0304,102.6
269.0365,279.5
269.0455,22781.6
269.0492,51624.1
269.0735,87.7
269.0953,246
269.244,98.8
269.3802,87.7
269.8291,606.1
269.9602,202.5
269.9946,808.7
270.0254,481.4
270.0479,32106.8
270.0615,81.9
270.0648,21
270.081,119.8
270.1457,1329.2
270.2105,217.4
270.2288,132.4
270.3315,20.9
270.3821,190.7
270.422,153.4
270.5245,308.5
270.6084,816.9
270.6719,886.5
270.7984,3202.4
270.9716,249.9
270.9785,11936.8
271.0245,492
271.0517,617.5
271.0781,465.8
271.0909,1816.3
271.1002,340.8
271.218,165.2
271.4624,23.2
271.5155,110.9
271.5533,154.8
271.6055,652.1
271.6688,126.1
272.0437,101.2
272.0809,301.1
272.0904,24.7
272.111,19.4
272.1424,95.2
272.1684,154.7
272.2241,83.4
272.2793,380.7
272.2906,20.3
272.3029,612.9
272.3767,142.9
272.4055,322.2
272.4936,845.9
272.5049,527.1
272.5601,124.5
272.6607,148
272.7096,20.3
272.7155,183
272.7759,97.1
272.7954,5032.9
272.9567,712.4
272.9697,122.8
273.0491,5806.7
273.0964,21.6
273.1412,23.9
273.1459,208.5
273.1488,170.8
273.1637,360.7
273.2107,231.4
273.3999,253.5
273.481,17
273.6149,411.7
273.7716,165
273.9217,152.9
273.9684,130.6
274.0181,850.4
274.0406,77.1
274.0697,129.9
274.0928,2927.7
274.1002,21.4
274.1952,683.3
274.4564,812.1
274.594,750.9
274.701,1119.4
274.7927,1922.1
274.8708,263.1
274.9272,139.4
274.9289,193
274.9393,137.6
274.966,136.5
275.1552,159.9
275.1825,95.1
275.1944,132.8
275.2797,267.5
275.2918,980.9
275.2979,118.8
275.3885,369.8
275.4161,415.9
275.4591,330.5
275.468,114.6
275.5506,167.6
275.7066,124.7
275.7201,20.1
275.7341,192.2
275.7387,252.6
275.7468,235.2
275.9542,1121
276.0038,99.6
276.0852,146.1
276.1234,314.4
276.1566,93.9
276.1982,235.1
276.2896,204.4
276.3883,456.1
276.5343,235.3
276.6166,898.6
276.6326,201.7
276.6395,260.3
276.6752,291.4
276.6976,115.3
276.7281,111.6
276.8238,563.8
276.8255,507.4
276.8275,584.1
276.869,89.3
276.8792,432.5
276.9236,5480.1
276.929,801.4
276.9557,273.3
276.9861,340.6
277.029,131.8
277.2901,361.9
277.4527,576.5
277.4754,653.4
277.6032,683.3
277.6101,332.1
278.0005,23
278.0196,524.9
278.1155,631.2
278.1595,19.4
278.2405,326.6
278.3153,95.6
278.331,93.8
278.3372,583.9
278.498,107
278.55,183.5
278.8027,522.9
278.818,204.4
278.8237,283.2
278.8553,372.4
278.9063,245.4
278.9203,698.7
279.0572,48647.7
279.0725,18
279.1367,130.5
279.3448,261.3
279.4365,84.7
279.6837,187.1
279.6848,188.3
279.7544,673.6
279.8257,629.1
279.8327,320.3
279.8485,21.6
279.9377,114.4
279.9846,412.2
280.0131,626.2
280.0163,257
280.0199,219.8
280.0504,17.9
280.0603,1013.7
280.0724,125.6
280.0921,898
280.1336,107.5
280.2335,615.6
280.3559,1360
280.4482,151.6
280.6906,824.7
280.7011,194.9
280.7109,125
280.8274,2140.3
280.9626,469
280.9803,618.5
281.0102,656
281.0521,166.9
281.152,255.3
281.3089,775.1
281.4532,151.3
281.5118,660.2
281.8694,896.5
282.015,152.9
282.0653,522.4
282.1327,99.4
282.1379,21
282.4531,591
282.4814,250.4
282.5099,676.6
282.6691,127.6
282.7539,120.5
282.7551,117.8
282.772,147.6
282.8242,1359
283.0286,1644.6
283.0691,20.8
283.0899,149.7
283.132,389.2
283.1419,21.5
283.161,262.5
283.4528,221.3
283.6583,173
283.7054,170.6
283.7151,279
283.734,795.2
283.7566,256.6
283.9078,232.6
283.9751,913.3
284.0509,25.6
284.0637,171.7
284.09,193.2
284.2602,557.3
284.2947,126.9
284.4397,449.5
284.8266,210.8
284.8474,22.4
284.8627,693.1
284.9027,138.8
284.9388,102.2
284.9636,239.6
285.039,21.7
285.1445,252.9
285.1495,142.8
285.158,158.5
285.1798,206.6
285.2077,89.4
285.2336,816.2
285.2646,598.5
285.3046,122.5
285.3066,259.8
285.3076,252.6
285.355,323.6
285.7391,180
285.8897,296
285.9775,169.3
286.0205,164.8
286.0971,74.1
286.1691,19.8
286.3601,270.6
286.4534,269
286.5021,215.9
286.5189,611.8
286.6256,951.2
286.6858,934.5
286.7723,1981.7
286.8551,172.8
286.8927,120.6
286.9525,4139.7
286.9988,116
287.0559,48096.8
287.1358,594.3
287.3201,104.8
287.3794,84.3
287.6684,176.2
287.7624,760.4
287.9656,115.8
287.972,89.4
287.9973,1025.9
288.0144,23.2
288.0236,192
288.0592,2299
288.0854,143.8
288.1563,35439.5
288.167,92.2
288.1853,131.4
288.2537,570.3
288.418,245.3
288.4534,19
288.5446,340.3
288.6334,257.8
288.7386,337.2
288.7621,374
288.7695,3947
288.8602,727
288.8663,640.8
288.8727,1777.8
288.8785,2705.4
288.8822,2182.5
288.8884,3880.5
288.8915,4708.8
288.8995,9183.3
288.9053,15572.8
288.9125,14684.9
288.9181,18628.1
288.9226,20318.6
288.9286,17352.1
288.9313,18209.8
288.9357,16171.7
288.9428,25458.9
288.9488,21753.7
288.9564,15240
288.9617,14275
288.967,7328.2
288.9755,6735.4
288.9805,4962.6
288.9877,4530.6
288.9925,3223.6
288.9994,949.2
289.0076,667.8
289.0617,170.5
289.0889,19
289.1072,316.6
289.113,300.4
289.1593,838
289.2784,125.2
289.3553,363.7
289.4817,24.2
289.5209,574.3
289.6546,914.1
289.6864,92.4
289.9149,241.2
289.9216,85.8
289.9307,542.9
290.1001,274.3
290.1734,269
290.3109,96.6
290.3731,154.6
290.4508,713.2
290.4918,101.4
290.6496,111.8
290.7364,369.2
290.7663,425.3
290.8032,715.4
290.8098,21.8
290.8556,341.5
290.8672,328.8
290.8807,548.1
290.9945,46.6
291.0274,6534.2
291.0382,151.9
291.1759,176.5
291.2374,581.6
291.5507,115.7
291.5806,89.2
291.8057,19
291.8106,95.1
291.8417,453.6
292.0015,21.2
292.0327,945.9
292.0803,191
292.1036,1460.7
292.1679,593.1
292.1826,197.2
292.2787,538.7
292.2838,184.9
292.3044,223
292.3933,206.3
292.4708,227
292.5473,116.7
292.6198,611.4
292.8802,177.3
292.9404,666.1
292.9574,113.4
293.001,387.9
293.008,113.7
293.0104,118.8
293.0728,3779.5
293.0897,171.1
293.0988,478084.8
293.1796,2966.9
293.2044,124.2
293.4117,115.7
293.5425,81.3
293.5623,529.7
293.7163,521.5
293.7242,16.8
293.9945,408.4
294.0956,312.8
294.1022,42631
294.1444,158.2
294.1515,573.7
294.2209,100.3
294.2975,130.2
294.3832,254.8
294.401,154.5
294.7486,259
294.7964,1136.7
294.8029,146.4
294.8926,532.6
294.9777,17.8
294.9915,1546.3
295.0312,2322.7
295.103,2438.8
295.1952,25914.9
295.2193,792.5
295.3142,155.3
295.6423,20.9
295.6988,577.1
295.7201,357.7
295.8035,125.3
295.834,197.3
295.9321,18.2
295.9531,671.1
296.1988,1830.1
296.2238,745.3
296.3171,733.8
296.3553,248.2
296.4349,84.7
296.4463,112.3
296.4792,104.7
296.5714,119.1
296.58,554.2
296.8117,19.1
296.988,235.2
297.241,142.9
297.2805,127.4
297.3065,20.5
297.3183,20
297.4393,207.2
297.514,89.5
297.5752,332.2
297.704,153.1
297.9631,679.7
298.0429,22888.1
298.0551,161.5
298.0623,783.6
298.2403,300.7
298.3364,85.1
298.3766,94.8
298.6002,106.2
298.7543,550.1
298.7738,18.2
298.8038,255.8
298.8169,583.6
298.8182,573.9
298.9869,185.5
299.0184,130.9
299.0235,5399.3
299.0466,658.8
299.0702,279.6
299.1397,7096.6
299.353,108.4
299.4282,633.1
299.5005,109.8
299.6564,850.5
299.7141,951.8
299.7502,91.4
299.806,150.3
299.8578,787.9
299.8808,217.3
299.8975,115.5
299.9217,17.8
299.952,18.7
299.9663,752.7
300.0387,282.5
300.0495,312.8
300.076,495.5
300.1172,121.3
300.1439,297.5
300.1469,623.3
300.1721,121.8
300.1885,305.1
300.1972,27.7
300.3142,115.4
300.4334,357.3
300.4962,948.1
300.587,530
300.773,707.5
301.0019,397.5
301.0392,25389.4
301.0692,173.9
301.0793,236.8
301.0928,104.8
301.1019,398.7
301.1422,213.4
301.1567,843.8
301.2121,3130.3
301.259,234.5
301.5293,479.7
301.7356,541.8
301.814,19.6
301.8379,177.1
301.9383,113.4
302.0205,41.2
302.036,58.3
302.0542,332.2
302.0646,5102.4
302.0742,29.4
302.0853,252.8
302.2028,84.9
302.2255,560.3
302.3504,20.4
302.4317,231.4
302.4474,287.6
302.6779,169
302.6892,105.3
302.6962,84.8
302.7024,384.4
302.7078,206.4
302.715,656
302.7194,140.3
302.7253,936.1
302.7465,347.5
302.8299,1534.4
302.9308,204.1
303.068,462.1
303.0761,510.2
303.186,770.7
303.2174,1078.9
303.3177,122.7
303.3288,215.1
303.356,911.9
303.3879,226.6
303.4276,113.6
303.4999,127.1
303.5681,367.8
303.604,450.5
303.6719,286.3
303.9076,97.5
304.0361,317.3
304.0458,118.1
304.0604,252.8
304.0689,26.6
304.1001,89
304.2954,160.7
304.3467,477.9
304.624,226.8
304.6653,20.6
304.6726,301.6
304.6751,298.3
304.705,134.4
304.7432,876.5
304.7874,21.5
304.8261,835.1
304.8963,1289.3
304.9127,557.6
304.9759,400.7
305.0132,592.6
305.2196,147.2
305.2337,19.5
305.2465,719.3
305.3348,249.7
305.4793,727
305.6488,96.5
305.7104,174.5
305.7962,17.9
305.8321,124
305.8891,205.4
305.9754,694
306.0146,105.3
306.068,1066
306.0961,142.7
306.3269,243.3
306.3424,100.9
306.4018,103.1
306.4077,125.7
306.4824,161.1
306.5287,131.8
306.5345,733.7
306.5612,651.6
306.7137,937.7
306.8326,167
306.8721,162.4
306.9579,1114.6
306.978,898.7
306.9939,421.8
307.0293,98.3
307.145,286.4
307.3287,383.6
307.4875,113.5
307.5657,92.9
307.6655,260.2
307.7929,111.4
307.8242,345.4
307.879,618.5
308.0462,102.8
308.1483,299.1
308.3043,877.3
308.6876,265
308.8018,234
308.8795,2255.9
308.9119,264.7
308.9596,260.9
309.0069,353.4
309.0382,7051.6
309.0828,2256.9
309.1222,251.5
309.1433,692.1
309.1772,216.6
309.2569,137.2
309.2852,75.8
309.4265,895.2
309.6808,176.5
309.7365,116.5
309.7499,138.8
309.9971,879.4
310.0534,263.5
310.1477,336.1
310.1559,86.5
310.2403,150.2
310.2613,998.8
310.3177,373.5
310.635,99.9
310.8764,2530.9
310.8834,213.8
311.0039,186.7
311.1302,207.5
311.2583,641.1
311.4115,712
311.6577,575.9
311.6648,918
311.7669,651.3
311.78,399.9
311.8137,92.9
311.8564,89.9
311.9309,87.2
312.0417,695.7
312.0826,20.5
312.3005,20
312.3499,91.9
312.3735,92.1
312.4534,165.9
312.4974,644.6
312.6025,214.1
312.6117,246.2
312.7483,180.5
312.8594,1096.4
312.899,142.3
312.9769,266.7
313.0026,73.3
313.0124,218.9
313.0305,95.7
313.0504,126.2
313.1581,370.2
313.2241,921.1
313.2746,63518.4
313.2955,16.7
313.6158,690.3
313.7007,1039.7
313.8364,18.1
313.9783,21.6
313.9841,726
314.0152,175.9
314.0327,355.9
314.086,156.5
314.0916,223.7
314.278,10771.2
314.4167,17.9
314.447,154.6
314.5407,18.6
314.676,96.6
314.7126,125.9
314.7803,426.2
314.7966,196.7
314.8377,5907.3
314.9012,114.7
314.9885,785.1
314.9999,5779.7
315.0415,205.8
315.0482,537.6
315.0559,11100.7
315.0582,5418.4
315.0636,7425.3
315.0671,23811.2
315.07,32686.9
315.072,19055.1
315.0808,9914418
315.0891,23194.4
315.0912,16831.8
315.0965,9231.9
315.1007,6597.9
315.1026,5241.9
315.1046,3729.2
315.109,1495.9
315.1158,185.6
315.1217,261.6
315.1236,142.8
315.162,6916.8
315.2185,624.6
315.2375,82.5
315.2507,254.7
315.315,85.9
315.3242,7584.5
315.4343,876.4
315.4864,420.7
315.5144,157.5
315.577,697
315.62,673.1
315.6466,585.7
315.7304,130.1
315.808,939.6
315.8127,634.9
315.8401,372.4
315.865,124.6
315.9037,101.5
316.0344,852.2
316.0535,74.8
316.0682,1920.3
316.0782,50555.5
316.0841,1047605
316.1118,1030.8
316.231,18.1
316.3424,95.1
316.3658,16.9
316.4407,236.3
316.8128,96.1
316.9286,171.7
317.0003,354.7
317.0052,459.9
317.057,1215.2
317.0656,2846.2
317.0847,118573.1
317.1812,581.1
317.3965,95.4
317.5486,78.3
317.7728,257.3
317.7825,178.5
317.8653,497.6
317.9382,142.2
318.0822,17.8
318.0882,12163.3
318.2398,23.9
318.3666,127.9
318.5387,137.3
318.6745,178.1
318.7103,741.4
318.793,62
318.8036,1364.3
318.8658,17.8
318.8734,647.4
318.9088,391.5
318.9527,600.2
319.1953,58354.8
319.3277,110.7
319.3629,279.1
319.4926,203.9
319.9023,124.4
320.0323,198
320.0752,185.6
320.1206,81.6
320.1455,123
320.1986,7331.5
320.2593,1706.1
320.455,96.3
320.5355,597.7
320.6969,344.1
320.8011,429.4
320.9723,92.2
321.029,274
321.1864,139.7
321.2109,68265.9
321.2622,93.6
321.3832,19.8
321.5009,216.3
321.5158,158.6
321.6501,227.9
321.7348,633.8
321.798,111.3
321.9076,223
321.931,191.4
322.0098,238.3
322.0484,18.7
322.1253,107.7
322.1666,118.7
322.1926,24.4
322.2142,10116.1
322.3758,120.1
322.4533,17.6
322.7878,122.3
322.8121,558.2
322.9243,528.7
322.9929,170.3
323.0212,12168.8
323.0368,357.2
323.2265,3194.7
323.2436,673.5
323.3301,193.6
323.341,538.9
323.4492,272.9
323.6123,285.4
323.6607,147.6
323.7043,647.8
323.8535,197.2
323.9331,562.8
324.0059,112.6
324.0254,902.4
324.037,213.9
324.1678,988.7
324.2059,108.8
324.24,90.2
324.3618,19.6
324.4252,493.4
324.489,78.2
324.5362,123.9
324.5651,94.6
324.6086,454.9
324.6171,4245.6
324.6257,5990.2
324.6319,2114.2
324.6372,1505.9
324.649,144.4
324.7916,246
324.8094,471.9
324.8535,1077.4
324.8951,305.4
324.8998,141.5
325.0029,1913.6
325.1556,102.5
325.1894,186.2
325.2123,9388.1
325.3007,515.1
325.3844,940.2
325.7032,430.4
325.7242,537.8
325.8811,273.4
326.0053,86.6
326.0317,509.8
326.0974,103.4
326.1099,570.6
326.1268,275
326.1685,110.2
326.2056,667.5
326.3242,337.2
326.3821,119.4
326.3946,19
326.4225,150.3
326.611,19.5
326.8035,873.5
326.8509,1646
326.8798,18
327.016,4487.3
327.0526,2863
327.1945,903.4
327.2279,22617.5
327.3429,312.5
327.5892,839
327.6499,346.9
327.9686,321.6
328.1046,111.8
328.2313,1984.3
328.4335,265.9
328.4446,23.6
328.4615,241.9
328.4659,146.7
328.4784,632.2
328.7579,565.7
328.7769,296.7
328.9256,161.1
329.0833,141.6
329.0965,3655.3
329.1195,106
329.234,622.4
329.3087,86.2
329.3307,999.1
329.4216,84
329.4428,132
329.5448,166.3
329.6133,826.7
329.8244,129.2
330.02,114.3
330.0381,410
330.0596,187.8
330.1114,610.7
330.1691,506.7
330.4274,516.1
330.5547,17.8
330.6612,763.2
330.8363,18.1
331.0124,354.8
331.0204,1503.3
331.046,162827.9
331.0547,1451847.5
331.1033,106
331.1432,429
331.2407,19.1
331.2626,417.3
331.3671,357.4
331.4663,86.5
331.5941,116.7
331.729,570.4
331.7694,381.2
331.7911,113
331.8854,18.5
331.9032,122.8
332.0488,11170.8
332.0581,126952.8
332.3138,21.7
332.3943,153
332.5557,19.2
332.5985,172.8
332.7316,110.9
332.9013,147.3
332.9634,787.6
333.0043,113.5
333.0529,84864.5
333.0583,14884.7
333.2479,157.6
333.3077,115.2
333.3376,195.8
333.3504,81.9
333.4409,118.2
333.4848,115.4
333.5123,164.9
333.6112,86.5
333.6289,515.7
334.0563,7222.2
334.0636,97.4
334.091,114.9
334.1828,568.3
334.4899,77.7
334.6691,242.6
334.7081,139.8
334.9588,986.8
335.0388,1208.7
335.2969,424.7
335.3807,971.2
335.5733,143.7
335.8663,233.6
336.0673,154.2
336.0753,147.9
336.1136,201
336.3385,109.6
336.5085,21.9
336.5308,116
336.7189,110.3
336.7676,137.9
336.7794,958.4
336.9976,85.6
337.0287,224.5
337.037,15454.9
337.0503,28902
337.0628,813488.8
337.0772,153.2
337.1146,740.6
337.199,221.7
337.2749,16785.6
337.6011,103.1
337.7662,692.1
337.8475,573.2
337.8772,705.9
338.0501,239
338.0661,72546.8
338.0984,116.9
338.1408,312.8
338.2784,856.4
338.3829,258.3
338.4922,120.1
338.5289,500.6
338.5734,576.7
338.7744,17.6
338.8205,477.7
338.9986,308.4
339.0388,2244.4
339.0477,1974.7
339.0666,6370.3
339.0844,132.8
339.2238,354.2
339.2389,77.6
339.2517,5773.2
339.2904,14560.6
339.3885,123.9
339.4326,94.4
339.5257,124
339.7338,344.4
339.7544,144.2
339.8101,19.4
339.8306,266.7
339.9084,21.1
339.9751,417.7
340.0444,110.8
340.073,111.5
340.0808,243.7
340.2934,863
340.4091,172.9
340.5571,117
340.7406,219.4
340.7833,407.9
340.9318,352.2
341.019,21.1
341.0273,358.8
341.1219,86.3
341.306,9763.5
341.4839,82.6
341.5106,76.9
341.5474,92
341.5859,126.2
341.704,396.1
341.7226,666.1
341.7837,106.3
341.9369,599.4
341.9723,728.6
342.3394,326
342.4277,16.4
342.4517,121
342.5822,219
342.5978,86.9
342.6255,145.6
342.6338,118.8
342.8238,331
342.95,197.2
342.9899,888.8
343.1546,396.5
343.1954,11837.2
343.3206,477.2
343.3595,347.1
343.5047,341.2
343.5526,160.5
343.5718,808.4
343.6903,218.7
343.7201,20.4
343.7272,83.5
343.7563,449.3
343.8849,604.3
343.9861,115
344.2149,133.8
344.6342,95.3
344.7366,541.6
345.1399,329.5
345.1727,328.7
345.2113,1503.7
345.2678,73.5
345.2958,857.9
345.3345,105.7
345.513,115.3
345.5312,20.7
345.5406,326.8
345.6067,894.5
345.649,84.1
345.673,505.5
345.7421,401.6
345.8151,334.4
345.97,123.1
345.9848,1112
346.0108,37.4
346.0388,440.1
346.1655,649.9
346.4462,705
346.6567,154.7
346.8511,833.3
346.9136,86.9
347.0139,677.8
347.048,430.4
347.1659,355.2
347.2241,702
347.2898,253.9
347.3333,658.5
347.4453,80.9
347.4612,312.3
347.5043,92.4
347.7895,267.4
347.9016,22.4
348.0021,447.2
348.028,372.3
348.1751,299.6
348.1933,127.5
348.5849,19.4
348.7728,157.3
348.9906,329.4
349.0185,123.7
349.0595,346.9
349.1466,21
349.2479,94.2
349.3607,231.3
349.4405,226.3
349.8259,480.9
349.8926,173.2
349.9109,331.6
349.9533,635
350.0187,1170.1
350.2289,1192.9
350.4622,107.8
350.5557,342.2
350.5726,152.4
350.6158,76.6
350.6999,142.1
350.8121,497.2
350.8933,24.4
350.9044,162.4
350.9394,178.4
351.0773,684.4
351.1212,800.2
351.3786,941.1
351.4007,514.6
351.4198,150
351.4354,231.5
351.5721,237
351.5784,227.2
351.6979,82.1
351.7464,574
351.91,263.5
351.9283,617.4
351.9757,360.4
352.0465,22.2
352.0813,610.8
352.0958,92.6
352.2292,1024.1
352.6263,92.1
352.6761,725.7
352.7946,1154
352.9035,21.4
352.9674,656.8
352.9865,535.7
353.0279,194999
353.0367,268112.9
353.0593,91.2
353.0668,161.8
353.1081,81.5
353.1232,170.7
353.3189,255.4
353.3378,120.7
353.4328,278.9
353.5331,20.3
353.6075,18.4
353.7289,253.8
353.7376,233.2
353.9154,476.2
353.9564,24.8
353.9895,118.3
354.031,15436
354.0401,25038.2
354.2193,299.9
354.2692,169.4
354.4755,785.2
354.5152,21.7
354.5569,431.4
354.6846,96.1
354.8703,95
355.0126,1636.3
355.0351,15630.6
355.0712,189.9
355.1591,444.3
355.2167,998
355.2629,365.9
355.2865,174.3
355.3553,140.8
355.4492,138.9
355.9447,1019.3
356.0159,120.5
356.2068,20.4
356.2346,107.8
356.6267,167.2
356.6639,164.7
356.682,348.5
356.7053,580.1
356.8871,716.6
356.8932,1034.1
356.9772,355.5
357.0094,999.4
357.0203,91.3
357.3531,122.4
357.4103,18.8
357.4439,80.3
357.5679,252.1
357.6023,594.4
357.6162,122.6
357.6318,866.9
357.6444,264.5
357.6558,227.4
357.6761,166.1
357.8075,21.7
357.9498,115.7
358.0097,100.5
358.2232,642.8
358.5117,371.7
358.5699,614.5
358.6862,223.6
358.7213,736.2
358.8494,323
358.9069,144.2
359.0081,589.7
359.0324,21145.9
359.0448,478517.2
359.0724,709.4
359.1961,255.2
359.2562,651.7
359.3365,391.8
359.3694,301.2
359.4029,76.5
359.4385,189.5
359.4469,288.3
359.4512,505.2
359.4595,475.6
359.4616,472.9
359.4869,2192.1
359.5033,232.5
359.5052,255
359.5222,813.5
359.5673,718.8
359.6372,89.5
359.653,83.5
359.7005,253.1
359.766,623.3
359.8535,909.8
359.8652,355.8
359.9195,106.7
359.9825,17.5
360.0123,23.6
360.0358,830.6
360.0481,43836.2
360.1261,17
360.2108,23
360.2165,319
360.2885,137.4
360.3246,315.3
360.424,469
360.5168,214.8
360.5313,121.5
360.7618,107.3
360.8192,180.4
360.887,790.9
360.9024,235
360.9312,18.4
361.013,420.2
361.0209,6306.5
361.029,379.3
361.0486,2741
361.0947,21.2
361.1057,657.2
361.1594,213.2
361.2751,1683.7
361.3093,125
361.3286,590.2
361.4288,171.5
361.5686,409.4
361.6038,20.1
361.7067,146.6
361.9883,636.5
362.2217,127.4
362.2398,533
362.3919,92.6
362.6524,96.8
362.6894,18.1
362.7777,124.4
362.8491,450.6
362.9266,963.1
362.963,106.1
362.9927,599.3
363.0134,119.5
363.0403,543.7
363.132,917.6
363.2205,700.3
363.3658,737.7
363.4457,676.4
363.4882,97.2
363.6826,165.1
363.7154,19.8
363.8716,655.8
363.8978,242.2
363.9228,585.3
363.9982,22.2
364.4103,149.9
364.5668,623.5
364.6058,194.8
364.6118,21.9
364.6525,138.8
364.7093,194.7
365.0613,1004.8
365.1062,462.3
365.1563,133.6
365.1647,124.7
365.2097,323
365.2685,18.9
365.4646,372.5
365.5673,88.7
365.6104,340.9
365.6694,80.7
365.7268,149.1
365.7366,19
365.7513,163.2
365.8163,106.4
366.044,415.1
366.1402,344.4
366.1491,499.1
366.183,119.8
366.1954,184.9
366.4815,18.9
366.4859,103.1
366.9136,458.6
367.012,558.2
367.1218,121.4
367.1952,1334.5
367.2654,151.7
367.312,78.3
367.332,350.6
367.3477,170.8
367.807,19.9
367.9248,657.1
368.41,802.6
368.5635,87
368.9132,899.3
368.9283,1000
368.9672,90.6
368.993,5524.3
369.0019,24395.7
369.0107,10315.7
369.023,278.4
369.0587,20.4
369.2006,124.9
369.2084,94.9
369.2671,114.6
369.3203,544.1
369.353,51.3
369.8801,332.2
369.9783,142.6
370.006,109.8
370.0137,200.9
370.0695,127.2
370.2049,928.1
370.4764,218
370.5335,392.8
370.627,154.7
370.6454,104.2
370.7481,856.1
370.8009,83.3
370.9049,94.6
370.9627,541.7
370.9895,918.2
371.0433,1043.4
371.1464,267.5
371.1845,427.9
371.4691,131.5
371.6745,318.5
371.7316,150.8
371.7933,84.5
371.8151,176.7
371.8238,121.3
371.91,589.6
371.9703,1001.3
372.0025,788.8
372.6168,149.7
372.69,111.8
372.7391,348.8
372.815,105
372.858,615.5
372.9222,1064.7
372.9528,98.3
373.0286,886
373.4726,367.6
373.4745,391.5
373.4783,225.3
373.6772,116.4
373.718,739.3
373.7306,166.2
373.7848,564.5
373.9088,90.7
374.0591,117.1
374.2056,90.2
374.3619,440.5
374.6181,282.5
374.7362,408.7
374.8421,887.8
374.9766,980.7
375.0099,177137.9
375.0187,144787.4
375.0631,84.2
375.1151,153
375.1302,243.6
375.1573,232.3
375.1941,281.8
375.3275,630.9
375.5537,311.1
375.7452,18.2
375.8018,110.2
376.0027,354.2
376.0132,13076.4
376.0221,11372.4
376.0948,812.4
376.3616,537.2
376.395,20.2
376.5674,18.2
376.5743,225.7
376.6923,145.5
376.7167,208.6
376.7624,351.3
376.9949,1913.7
377.0084,82.4
377.0172,7830.3
377.276,135.1
377.846,108
377.8972,561.4
378.0191,193.6
378.0598,20
378.1469,79.1
378.229,91.1
378.3354,270.5
378.3947,186.6
378.4414,123.4
378.7864,343.8
378.923,19.6
378.9587,113.5
378.9915,52.7
379.0241,137.2
379.0594,506
379.0759,861.7
379.0965,241.3
379.3255,102.5
379.3386,25
379.3701,85.9
379.4426,123.3
379.5001,94.3
379.5141,532.5
379.7478,287.1
379.8129,649.1
379.9684,135
380.3699,120.7
380.4185,242
380.5487,183.2
380.5843,283.8
380.6294,167.6
380.7708,427.7
380.9899,35.9
381.0143,27213.2
381.0268,253403.3
381.0381,650.2
381.3041,671.3
381.5167,106.6
381.5339,78.7
382.03,22714.8
382.3367,253.1
382.4851,709.9
382.5411,117.5
382.6725,563.3
382.7678,966.1
382.8318,167.3
382.8935,95.7
382.9992,97.5
383.012,1468.9
383.0306,618.2
383.0511,83.4
383.0981,313.9
383.1171,153434.1
383.6624,105.1
383.8195,484
383.8423,272.4
384.1204,18622.3
384.2315,261.5
384.5065,18.3
384.7655,463.5
384.9226,208.6
384.9808,25.8
385.0021,719.9
385.0935,594.2
385.1838,77.3
385.2421,628.6
385.5874,278.7
386.1513,665.8
386.2289,101.4
386.3433,188.5
386.9795,76.8
387.0338,113.4
387.273,19.6
387.5044,99.6
387.532,200.7
388.0248,167.8
388.3331,267
388.4201,162
388.5372,106.6
388.5541,75.5
388.7044,135.4
388.7129,956
388.8763,627.1
388.9014,127.8
388.9623,256.1
389.0205,19.4
389.0414,133.5
389.1539,426.1
389.2301,152.1
389.3313,379.6
389.4579,261.9
389.6575,164.3
389.8777,18.9
389.9236,519.8
389.9545,1023.5
389.9746,1525.2
390.0379,844.7
390.1807,73.2
390.409,21.3
390.4594,208
390.5312,20.4
390.5855,233.3
390.7086,98.9
390.7778,563.8
390.7992,419.5
390.8613,159.7
390.8738,279.1
390.883,469.7
390.8957,375
390.975,14425.8
390.9838,31166.2
390.9927,16410.7
391.0152,21.6
391.2395,87.8
391.2685,252.8
391.2906,133
391.3416,250.5
391.5972,108.7
391.6761,19.5
391.7482,252.5
391.8189,107.5
391.8319,355.8
391.8769,134.7
391.9871,368.5
391.9962,254.4
392.0302,276.2
392.2622,210.3
392.5909,224.3
392.6706,529.3
392.7701,659.1
392.7968,1298.2
392.9588,76.1
392.9691,274.4
392.9914,394.2
393.0807,202.1
393.2293,210.4
393.2987,35.8
393.3166,133.3
393.384,91.1
393.3937,138.3
393.5166,21.8
393.5511,108.3
393.7555,306.4
393.8279,212.6
393.8679,401.6
393.9993,1048.8
394.0944,666.6
394.3179,351.1
394.352,587.3
394.394,557.9
394.6772,638.1
394.7003,528.6
394.737,123.6
394.793,965.8
394.9562,24
395.2459,150.1
395.4785,569.6
395.6415,143.6
395.8002,932
395.9273,1122.3
396.2705,174.1
396.4018,158.3
396.426,80.8
396.4475,545.1
396.5256,20.2
396.6215,101.1
396.6306,133.5
396.7033,134.8
396.744,477.1
396.7814,549.5
396.8017,124.3
396.9458,276.1
396.9549,1177.9
396.9919,214424.7
397.0007,78419.6
397.0108,189.1
397.0843,165.3
397.2045,18.1
397.7008,76.5
397.7109,527.9
397.7383,107.8
397.7937,108.2
397.8003,224
397.8657,305.5
397.9951,18093.2
398.0039,4862.4
398.2043,1345.8
398.2423,5792.5
398.4775,135.5
398.4842,102.1
398.5014,771.6
398.5885,155
398.7192,285.5
398.742,2101.5
398.8407,364.1
398.8946,234.9
398.9196,157.4
398.9766,114.9
398.9996,2127.5
399.0738,397.7
399.1831,232.5
399.262,675.2
399.6421,595
399.8364,278
399.855,230.6
399.9447,680.5
399.9733,268.6
400.2524,87.9
400.534,203.3
400.6582,17.6
400.7387,1182.9
400.8288,440.8
400.8788,111.2
400.9726,22.5
400.9847,964.1
401.0324,90.7
401.0867,151.5
401.1002,17.7
401.1066,20.9
401.3967,74.7
401.4494,364.5
401.6379,599
401.669,474
401.9424,18.6
401.9541,18.2
401.9742,95.8
402.0043,83.3
402.049,189
402.0791,224.2
402.1231,150.2
402.1601,507.4
402.1735,969
402.4113,176.2
402.4725,338.5
402.4933,249.6
402.5367,99.8
402.7309,183.3
402.787,83.9
402.975,227.5
402.9951,376.6
403.0087,284925.6
403.1267,592.1
403.1504,978.5
403.2158,208.9
403.4762,17.9
403.514,104.3
403.5445,341
403.5657,682.3
403.8182,90.4
404.0121,25456.3
404.1121,931.8
404.1462,295.8
404.3414,156
404.4369,170.3
404.4489,21.7
404.5325,849.2
404.5395,85.1
404.5678,90.8
404.8427,626.6
404.8706,92.2
405.0136,3487.3
405.3441,95.4
405.3523,723.2
405.4192,424.8
405.5065,160.2
405.6483,519.9
405.8103,113.2
405.948,1155.6
405.9973,457
406.0688,175
406.3303,1176.7
406.3528,92.2
406.3732,940.6
406.5686,529.3
406.6313,267.7
406.7734,809.3
406.8305,1123.3
406.9118,91.5
406.9543,294.3
406.96,289.7
406.9868,76.8
407.0778,91.9
407.2867,233.3
407.3333,208.4
407.3799,311.8
407.4674,85.2
407.5631,1066.7
407.75,168
407.9352,180.1
408.4963,549.6
408.5145,17.9
408.6966,141.6
408.7707,1492
408.8796,82.2
408.9758,198.1
408.9852,3399.9
409.0262,127.4
409.0846,848.3
409.1588,290.1
409.2135,334.7
409.6628,121.7
409.8276,326.6
409.8697,611.3
409.9218,342.9
409.9823,130.9
409.9928,119.6
410.0163,961.6
410.5548,226.6
410.7687,500.9
410.843,563.5
410.9705,85.1
411.0657,166.7
411.0848,317.3
411.0944,423.2
411.2482,100.6
411.3236,342.3
411.3926,164.8
411.5853,201.3
411.8226,110.9
411.9377,83.8
411.9866,677.8
412.0216,624.1
412.0713,563.4
412.2908,568.7
412.322,1758.6
412.4781,196.2
412.5127,931.5
412.9658,36156.4
412.9747,14177.3
413.0622,903
413.0972,738
413.1615,191
413.267,5024.7
413.2973,18.4
413.3257,277.3
413.3832,812.2
413.6088,539.1
413.6424,561.9
413.7674,180.4
413.9686,1329.3
413.9763,313.1
414.1606,154.8
414.2705,503.2
414.5473,229.9
414.6528,235
414.7158,363.3
414.7727,1216.3
414.7911,566.8
414.9318,252.4
414.9717,198.7
414.9983,3214.2
415.0704,25.2
415.1918,1005.6
415.2233,1657.5
415.2648,614.4
415.3801,81.4
415.3897,256.8
415.5565,87.7
415.5646,1152.2
415.5962,261.7
415.6445,723.1
415.6845,121.2
415.7211,173.9
415.7979,152.3
415.8052,355.4
415.9699,38.4
416.1362,10253.8
416.2151,44571.1
416.5374,243.3
416.5715,178.7
416.6058,87.9
416.8017,671.1
416.8513,287.3
416.9532,20.9
417.0302,632.8
417.144,314.7
417.2184,3404.3
417.2508,889
417.2647,395.6
417.2926,103.7
417.4781,191.7
417.6716,126.6
417.8572,18.5
417.9804,235.2
417.9954,135
418.0634,347.3
418.1578,582.4
418.2803,18.6
418.6512,97.8
418.7164,246.9
418.9827,91897.3
419.0509,74.8
419.5166,85.7
419.5238,370.7
419.6075,142.8
419.8549,469.2
419.9734,92.3
419.9861,6251
420.1329,97.7
420.1401,213.6
420.6121,678.9
420.8615,142.6
420.9584,26
420.9807,3471.4
421.1448,125.9
421.4315,682
421.5668,309.8
421.723,346.1
422.1218,237.6
422.1578,410.2
422.2996,381.6
422.701,200.8
422.7488,549.2
422.796,19.6
423.1115,77.9
423.3687,109.8
423.6824,127.7
424.0367,93.4
424.0977,85.9
424.1389,580.7
424.2673,16.6
424.3617,130.8
424.4285,96.4
424.4481,141.9
424.7661,102.5
424.8475,376.1
425.187,208.9
425.4039,369.9
425.4185,503.5
425.7234,20
425.7834,598.6
425.838,620.6
425.9604,126.2
425.9695,151.7
426.4151,376.3
426.5195,184.6
426.5819,167.9
426.6238,102.1
427.087,640
427.1049,109.8
427.2926,166.9
427.4185,125.9
427.4465,293.3
427.4781,97.6
427.5255,584.4
427.6662,150.4
427.8293,306.1
427.8362,329
427.9299,584
428.0611,118.4
428.0853,234
428.4421,97
428.9093,496.7
428.9397,1797.4
428.9919,34.6
429.0031,359.4
429.0171,765
429.0296,130.5
429.0367,271.5
429.0525,452.8
429.09,126.1
429.1872,121.8
429.2412,27.7
429.406,101.3
429.5515,584.7
430.4225,98.1
430.4684,1205.4
430.6669,195.2
430.6705,197.2
430.7332,389.4
431.0673,114.7
431.2182,5073.7
431.2292,882.1
431.3008,17.7
431.5353,225.7
431.5628,125.6
431.5791,561.4
431.767,109
431.8625,373.4
431.9949,630.6
432.0479,266.4
432.2289,18.4
432.5318,293.9
433.0005,140.9
433.0442,335.6
433.1173,968.1
433.1541,89.1
433.201,136.5
433.3637,335.6
433.4365,84.4
433.5309,123.8
433.5558,171.2
433.6207,266.6
433.8101,347.5
433.8234,21.1
434.3085,206.4
434.678,17.9
434.7289,328.4
434.9018,146.4
434.9569,19432.1
435.0461,150.5
435.1504,161.5
435.246,605.8
435.3697,384.4
435.6891,646.7
435.8612,158.5
435.9072,123.9
435.9593,550.6
436.0278,89.8
436.1802,119.7
436.2975,207.8
436.3732,90.8
436.6689,375.5
436.6827,463.7
436.7637,141.6
436.8951,127.1
437.0693,92.6
437.0804,176.3
437.1029,91.9
437.2067,640.2
437.2611,140.3
437.4335,174.7
437.5029,132.6
437.5376,176.6
437.5474,84.6
437.595,673.2
437.7315,85.3
437.7435,83
437.8178,361.3
438.0685,820.8
438.1938,325.4
438.2201,128.1
438.2295,153
438.7958,146.6
438.8971,84.3
438.9736,4191.6
438.9854,3031.3
439.2044,174.9
439.2245,693.8
439.2428,19.1
439.3001,344.8
439.3682,214.3
439.5196,121.1
439.57,472.8
439.7658,595.7
439.9704,20.2
440.0572,214.7
440.0768,79.7
440.3952,827.5
440.5759,86.7
440.637,175.1
440.7539,867.5
440.8147,877.3
440.9715,2098.7
440.9996,815.2
441.2988,234.5
441.3506,392.2
441.4429,144.4
441.5147,181.7
441.6938,753.3
441.8316,485.6
442.0389,513.1
442.3025,21.3
442.3202,106.3
442.598,150.1
442.6387,261.4
442.6595,23
442.7226,307.3
442.9372,170
442.9933,18.6
443.0797,415.9
443.145,574.3
443.2546,2359.6
443.3176,74.6
443.3337,796.1
443.4464,254.5
443.487,164.8
443.6814,99.5
443.7276,546.7
443.8507,212.5
444.0202,99.3
444.7492,85.7
445.1135,299
445.2333,3467.5
445.2698,2788.6
445.5203,158.3
445.7245,157.5
445.8398,354.9
445.9376,660.5
446.1442,474.6
446.2367,270.3
446.4909,636.1
446.505,112.2
446.5574,1056.3
446.5858,108.9
446.6718,1124
446.7248,319.6
446.7669,267
447.1028,90.2
447.5307,583.3
447.5505,25.3
447.5758,755
447.5957,805
447.7322,127
447.8028,174.2
447.9148,414.2
448.2118,213.3
448.2534,220.2
448.5105,125.4
448.6688,425.2
448.7058,145.6
448.7162,893.8
448.8141,291.1
448.9336,4659.8
448.9622,190.6
449.0024,1446.7
449.0369,499
449.1088,205.7
449.1552,1688.5
449.4679,87.7
449.4897,171.9
449.742,578
449.8077,600.8
449.8375,608.6
449.8585,21.3
449.8746,132.7
449.9387,631.6
450.1584,303.1
450.3158,18.7
450.3516,339.5
450.5574,86.3
450.5665,116.2
450.6555,199.3
450.6838,385.2
450.8498,108.1
450.9302,1429.8
451.1512,114.9
451.1797,379.1
451.3604,19.4
451.467,154.1
451.5016,225.9
451.5614,155.3
451.7617,99.3
452.0312,152
452.348,19.8
452.3885,492.4
452.7321,22.6
452.7554,17.4
452.9543,700.6
453.1052,344.1
453.1749,728.1
453.3987,531.8
453.7021,144.9
453.7498,93.4
453.7587,350.3
453.8833,104.9
454.173,200.3
454.4585,162.4
454.7373,21.8
454.9083,161.7
454.9506,40031.9
455.1388,19.5
455.1798,18.1
455.9535,1853.1
456.1441,555.6
456.5285,694.6
456.5805,104.7
456.7004,840.8
456.83,296.6
456.9041,304.3
456.9478,8481.9
456.9565,699.7
457.1886,674.5
457.2337,15258.6
457.3823,121.2
457.7385,636.3
457.7763,361.9
457.9506,594.5
458.0141,88.4
458.0831,172.9
458.2373,1950
458.3154,131.7
458.3628,677.3
458.3923,670.6
458.5438,453.2
458.7953,461.5
458.9626,2737.7
459.01,803
459.0526,109.8
459.1608,258.2
459.2493,631902.8
459.2883,120.2
459.3681,231.8
459.6211,174
459.8599,104.6
460.0147,169
460.2526,131753.1
460.2658,913.2
460.2786,19.9
460.5224,104.8
460.6944,114.8
460.7706,457.3
460.9674,84958.9
461.1006,211.4
461.1595,136.5
461.2557,6501
461.3827,604.4
461.4433,19
461.477,197.3
461.4938,201
461.662,230.8
461.7168,289.5
461.7355,90.8
461.8488,610.8
461.9224,215.1
461.9705,4649.7
462.1384,115.4
462.2385,174.3
462.5031,285.5
462.7588,88.6
462.9644,20520.5
463.0524,933
463.0716,147.3
463.1314,941.5
463.2058,1234.4
463.4465,17.3
463.507,100.8
463.5333,17.9
463.8366,180.2
463.968,551.1
464.0715,379
464.1104,153.4
464.3865,136.3
464.524,116.5
464.6171,137.2
464.7733,126.9
464.9793,10738.6
465.1374,314.9
465.23,20.1
465.396,607.5
465.4952,112.1
465.7098,84.3
465.7733,794.8
465.8218,140.8
465.9035,98.2
465.9821,1183.8
466.0152,104.3
466.2603,135.9
466.3036,134
466.3233,312.6
466.428,85.6
466.4985,606.9
466.5607,548.2
466.7307,1101.3
466.847,529.1
466.9688,475.6
467.0712,638.2
467.0861,217
467.2585,19.6
467.4077,133.3
467.4265,97.6
467.4931,121.5
467.6827,595.1
468.1595,558.8
468.3106,1776.9
468.3382,142.9
468.5709,408.1
468.8523,424.5
468.9087,534.9
469.1426,22.6
469.1541,155.6
469.3298,27.8
469.347,369.6
469.6595,261.7
469.7016,19.3
469.7496,301.3
469.7649,278.1
469.9149,594.2
470.1122,907.2
470.2963,132.1
470.4342,614
470.539,179.5
470.5673,20.1
470.836,291.4
470.8784,277.2
470.9247,17933.1
470.9558,796.3
470.9965,3854.4
471.0475,637.8
471.1169,648.9
471.1874,126.2
471.2863,718.5
471.3654,78.1
471.4909,638.6
471.5077,307.7
471.751,100.2
471.9103,546.6
471.9271,844.5
471.9412,347
472.1045,381.9
472.2038,932.2
472.2477,321.5
472.3438,217.7
472.3857,742.7
472.4334,203.9
472.6604,320.4
472.7046,505.7
472.7148,500
472.9214,6539.4
472.9348,190.2
472.9479,642
472.9701,592.8
472.9751,602.2
472.9851,331.1
473.0011,1695.1
473.1521,581.8
473.1652,214.3
473.2649,8851.5
473.3071,409.1
473.3999,123.2
473.4565,236
473.7177,578.6
474.5731,169.1
474.6147,116.5
475.1911,236.9
475.2233,32136.9
475.3435,1006.1
475.3889,90.5
475.4916,628.7
475.7157,106.6
475.8159,175.3
475.8306,364.5
476.1761,133.9
476.2274,4523.5
476.3741,203.1
476.7223,200.8
476.8603,184.1
476.8658,185.9
476.9414,44001.1
477.076,118.1
477.1405,586.9
477.1653,726.4
477.298,154.3
477.3364,177.9
477.4474,23.6
477.8493,709.2
477.912,351.4
477.9448,3076.3
478.0014,166.4
478.3301,45637.5
478.668,123.9
478.79,555.8
478.8741,228.3
478.905,156.5
478.9389,11419.9
479.006,394
479.0282,125.9
479.1184,89.6
479.2544,173.7
479.3335,7946.9
479.9433,416
480.0652,328.3
480.1739,194
480.2035,99.9
480.228,794.9
480.2377,334.8
480.3138,531.4
480.3293,82.1
480.3383,715.7
480.3459,1012.1
480.373,83.6
480.3955,143.1
480.5493,131.9
480.7689,88.2
480.9529,2447
481.0396,112.1
481.0954,755.6
481.1076,19.5
481.166,195.7
481.1871,166
481.2342,2692.3
481.4859,623.8
481.5264,19.3
481.5456,122.2
481.9489,316.6
481.9612,19.8
481.9802,177.6
482.3234,841.4
482.3372,197.7
482.3936,958.9
482.5206,17
482.5242,16.7
482.5371,115.8
482.8423,383.2
483.0466,19
483.1164,19.9
483.1581,243.2
483.2143,126
483.2494,215458.6
483.2672,597.1
483.2762,800.6
483.4862,173.1
483.54,562.9
483.7239,659
483.8241,379
484.018,119.1
484.1182,659.9
484.2526,46513.2
484.7606,86.3
484.9179,554.4
485.265,181863.7
485.9095,161.7
486.0785,84.5
486.2683,43417.8
486.3705,666.5
486.6487,319.6
486.8445,308.8
486.8987,1288.4
486.9694,866.2
487.0765,200.1
487.133,867.8
487.1533,52.3
487.2806,152168.5
487.4746,400.3
487.6744,186.9
487.6982,629.2
487.8938,91.3
488.0149,203.9
488.284,32762.2
488.4176,266.7
488.4949,84.7
488.7882,343.3
488.8946,443.1
489.0866,45.3
489.133,21.9
489.1574,170.4
489.1698,332.4
489.1857,976.1
489.2064,355
489.2239,1131.2
489.2433,111.2
489.2596,92.5
489.2859,1338.6
489.3014,1640
489.3406,165.8
489.4559,220.5
489.5437,536.7
489.5894,172.7
489.6151,23.9
489.7018,803.3
489.7127,83
489.8134,115.7
489.8568,328.7
489.9521,129.2
490.1581,93.3
490.1734,738.1
490.2783,19.6
490.2916,6352
490.3136,825.7
490.3711,539.5
490.5768,699.9
491.0833,20.7
491.2697,238.1
491.3716,3450
491.4722,84.7
491.6757,635.3
491.7474,386.8
491.8919,334.7
491.9176,359
492.1386,358.2
492.394,121.8
492.4387,734.6
492.8266,18.4
492.9154,7846.7
493.4857,147.5
493.6991,331.5
493.7179,86.7
493.778,128.1
493.9826,136.8
494.1142,269.2
494.2907,326.6
494.3252,9202.5
494.5328,120.2
494.55,356.3
494.726,148.2
494.9126,2613.9
494.9318,108.4
495.1547,590.2
495.1813,315.8
495.1941,139.1
495.3051,110.4
495.3256,1488.6
495.4263,649.1
495.6321,136.3
495.6997,338.9
495.8267,423.5
495.8635,578.8
496.1189,442.1
496.2986,527.5
496.341,659044.3
496.5767,165.6
496.6788,312
496.9208,132.5
496.9314,1009.1
497.0196,234.4
497.2531,619.2
497.2939,91.9
497.3443,161853.4
497.5182,842
497.5621,214.7
497.9815,317.2
498.0193,344.9
498.2752,489.7
498.3473,13409.5
498.5415,991.2
498.7627,124.8
498.857,97.7
498.9202,178.3
499.0213,1123.8
499.2233,9887.5
499.2457,644.8
499.4573,923.2
499.5927,142
499.9135,82.6
499.9244,107.7
500.2264,2342
500.3472,98
500.5032,378.6
500.667,128.2
500.7952,128.9
500.9912,138.5
501.2149,925.5
501.2391,7506.2
501.3589,99.6
501.5015,19.2
501.5343,215.7
501.5631,106.4
501.6257,827.1
501.7184,817.6
501.7633,285.1
501.8058,243.2
501.9432,115.2
501.9562,655
502.046,806.5
502.1882,409.6
502.2428,666.2
502.2818,88.6
502.3305,21542.4
502.3986,372.8
502.4069,22.6
502.6427,130.3
502.6806,358.5
502.8945,82.5
503.0839,208.8
503.1098,23.2
503.2547,7723.8
503.3328,1251.2
503.658,120.6
503.8879,568.6
504.0632,547.8
504.257,2187.8
504.3072,9155
504.3452,8064.3
504.5246,106.1
504.6041,93.7
504.6743,241.8
505.0896,285.6
505.1352,115.2
505.233,715.3
505.3466,723.5
505.388,92.2
505.643,163.4
505.9387,156.2
506.2646,1344.7
506.3055,140.9
506.3619,4758.2
506.4741,83.8
506.8499,87.4
506.8927,3649.6
506.9594,604.4
507.048,80.5
507.1866,177.9
507.2493,39795.8
507.3448,1080.5
507.3643,407.9
507.4159,239.5
507.4717,252.8
507.6868,349.8
507.9319,529.8
507.9508,291.2
508.0109,590.9
508.1232,129.4
508.2529,6736.2
508.3781,1294.3
508.4226,356.1
508.5101,124
508.5432,576
508.577,132.9
508.6004,646.4
508.7627,264.7
508.8883,1035.3
509.0058,5182.1
509.0396,718.4
509.2649,18065.6
509.3506,306.4
509.3825,1163.4
509.9478,80.6
510.0266,369.5
510.1655,81.3
510.2683,2841.7
510.3562,10704.1
510.3927,144.6
510.4998,344.1
510.743,128.6
510.7796,187.6
510.904,647.4
510.9756,172.1
511.0416,213.4
511.0689,91.1
511.0984,224.9
511.125,51.3
511.1832,21.3
511.2313,331.6
511.4619,210.9
511.567,91.2
511.7115,278.2
512.0265,726.1
512.1404,163.4
512.2234,622.4
512.5542,96.7
512.6503,163.8
512.6907,19.2
512.7122,338.5
512.9092,16482.5
513.1878,505.2
513.384,147.5
513.9126,427.4
514.0433,125.7
514.0562,137.6
514.3862,319.9
514.5955,135.3
514.6584,418.2
514.8812,712.7
514.9069,7732.7
515.8526,94.3
515.9246,98.1
515.9837,384.8
516.2189,279.3
516.2484,112.7
516.3072,16044.9
516.4238,20.8
516.6548,500.1
516.7665,89.4
516.8454,279
516.9018,732.2
516.9211,2470.2
517.0995,741
517.311,3799.8
517.4533,324.7
517.7661,241.3
517.8379,210
518.0977,113
518.3229,1114440.5
518.3476,109.8
518.4502,634.2
518.5351,97.4
518.6683,565.5
518.9261,27971
519.3263,266214.8
519.4246,312.7
519.56,96
519.6891,361.3
519.7369,269.5
519.7748,453
519.8979,276.9
519.9293,1331.3
520.1328,408.8
520.2957,249
520.341,212976.3
520.3596,635.1
520.4401,375.8
520.8523,19.3
520.9232,18979
520.9538,468.8
520.9939,87.8
521.2321,597.3
521.3444,55280.8
521.6285,205.8
521.6717,109.8
521.791,20.3
521.8118,232.7
521.9271,1185.9
521.9835,354.2
522.177,597.2
522.2155,149.1
522.2577,896.9
522.2925,121.6
522.3201,103.5
522.3566,204346.4
522.6265,549.4
522.6476,256.1
522.7275,90.6
522.7804,95.6
522.8671,96.6
522.9207,1932.5
522.9381,7149.8
522.9677,111.1
523.0299,130.3
523.1096,364.6
523.2234,723.1
523.2503,625.9
523.3362,226.3
523.3599,51691.6
523.7826,131.8
524.0507,154.1
524.0733,229.8
524.0951,209.8
524.1067,112.2
524.2629,336.1
524.3723,202930.8
524.857,335.7
524.9348,1373.7
524.9795,436.5
525.2688,108.2
525.3757,55906.9
525.57,83.2
525.6355,948.6
525.673,96.8
525.9812,288.4
526.0024,28
526.331,864.1
526.3785,1746.1
526.5694,355.3
526.732,71.9
526.7389,84.4
526.9067,265.2
526.9424,102.8
526.9823,127.7
527.0459,154.1
527.1909,239
527.2949,18.9
527.3852,194.4
527.4958,125.4
527.8083,643.9
527.9704,180.8
528.0442,178.1
528.2517,182.8
528.5804,87.5
528.6006,250.3
528.8833,8280.6
528.9545,3000.5
529.1659,358.8
529.2096,292
529.2924,90.7
529.4902,311.3
529.5019,99.9
529.7453,179.1
529.9982,110
530.1285,86.4
530.3594,5277.7
530.4587,90.8
530.5758,113.3
530.8803,3906.6
530.9165,703.6
531.0432,19.4
531.2172,177.2
531.2499,8192.9
531.2796,648.8
531.3236,679.8
531.4513,105.8
531.715,374.7
531.7496,18.5
531.8836,647.9
532.0587,101.8
532.2354,18.3
532.2812,2430.6
532.3387,18883.3
532.4438,124
532.5481,322.5
532.727,179.3
532.844,18.3
532.9665,3169.3
533.0483,889.4
533.2629,1296.3
533.3249,19.4
533.3415,1849.6
533.424,21.3
533.5024,162.9
533.9158,18.9
534.1868,825.5
534.2969,254521.2
534.3171,1408.6
534.4572,268
534.8511,95.6
534.8999,17836.4
535.0038,563.3
535.1294,497.8
535.3003,66651.3
535.3428,135.6
535.4407,675.7
535.6237,247.6
535.643,475
535.7124,390.9
535.8271,231.7
535.9023,482.5
536.2698,121.2
536.2955,13489.5
536.3774,86.7
536.4102,732.6
536.537,22.8
536.6102,267.1
536.8975,10065.1
537.0199,235.4
537.0945,164.6
537.2984,2642.6
537.4779,138.9
537.9001,520.5
538.1083,197.8
538.1281,159
538.4093,740.5
538.6643,19.2
538.8949,2725.1
538.912,1356.4
538.9328,520.3
539.0057,19.9
539.204,124.8
539.3077,524.6
539.42,300.6
539.4352,161.7
539.5694,87
539.6623,279.4
539.7122,96.5
539.963,89.6
539.9865,174.7
540.027,291.5
540.1239,225.2
540.3065,2468.8
540.505,116.2
540.5395,140.8
540.7935,20.5
541.2068,103.9
541.4423,262.6
541.5013,373.8
541.6158,104.3
542.1862,261.7
542.323,331310.7
542.4763,795.2
542.4931,809.8
542.5415,187.2
542.6915,141.6
542.7442,187.2
542.7552,234.5
542.7794,86.5
543.0993,92.4
543.3264,83547.6
543.341,18.6
543.4027,2134
543.5923,100.1
543.6113,343.5
543.7224,623.8
544.2742,1544.1
544.3387,332603.8
544.51,657.6
544.6848,18
544.7019,100.3
544.7433,282.2
544.8557,427.6
544.9491,731.3
545.021,22.5
545.1259,126
545.139,572.1
545.1604,126.6
545.3421,83116.4
545.3861,109.3
545.4184,1939.5
545.4441,230.7
545.575,22.9
545.7526,120.7
546.1935,19.9
546.2416,21.4
546.258,1186.6
546.3544,308380.3
546.428,286.6
546.527,161
546.6364,133.4
546.7037,24.2
546.7777,126
546.8546,614.3
546.8683,191.3
546.9744,18.8
547.3576,82320.4
547.9925,22.9
548.0053,463.1
548.3127,2240.5
548.361,10301.1
548.551,122.9
549.1827,150.9
549.4511,92.5
549.5105,151.7
549.5935,231.5
549.6822,19.2
549.7149,551
549.7845,112.2
549.9045,585.4
549.9332,816.8
549.9456,112.4
550.0617,663.9
550.0915,288.8
550.6703,87.2
550.8535,324.7
550.8736,2382.4
550.9419,146.2
550.9999,238.8
551.0381,363.1
551.4177,239.8
551.5347,148.8
551.5571,22.7
551.7161,1162
551.7966,316.3
551.9633,119.9
552.7205,18.6
552.8714,2113.7
552.9203,922.6
553.0749,149
553.1256,307.3
553.2403,118.7
553.2773,87.4
553.4286,519.3
553.6401,161.1
553.6888,904.8
553.7258,268.7
553.7706,660.9
553.9864,19.4
554.2678,259
554.4068,88.6
554.4347,822.6
554.9506,208.3
555.0561,460.8
555.5307,648.8
555.6546,110.9
555.9541,160.4
556.2749,1378.5
556.8598,115.2
557.0536,215.5
557.2208,119.6
557.3055,22
558.1864,367.4
558.2971,86528.1
558.3279,154.7
558.3451,550.3
558.463,24.7
558.4945,372.9
558.8038,155.1
559.1193,20.6
559.1944,89.7
559.3003,19951.8
559.4663,959.1
559.4899,82.8
559.8707,318.5
560.0215,138.7
560.2952,2371.8
560.3126,76651.7
560.3939,1098.3
560.7609,968.3
560.7741,294.9
560.7934,117.5
560.919,1191.8
561.1611,285.6
561.316,17407.6
561.4139,7885.3
561.5323,177
561.8646,581.4
562.061,393.5
562.3125,2520.7
562.3282,65577.9
562.3578,21.4
562.5977,123.9
562.884,169
563.3314,16094
563.4158,501.9
563.4296,9621.7
563.4501,986.1
563.5278,652.3
563.657,411.1
563.8261,147.9
564.0865,644.3
564.2136,249.5
564.3259,1730.7
564.4326,990.4
564.5435,995.3
564.7605,122.8
564.85,735.5
564.926,297.6
565.1311,288.9
565.7444,247
565.9493,176.4
565.9844,325
566.1861,187.3
566.3013,146.3
566.3231,57755.7
566.606,202.4
566.7293,137.2
566.7445,312.5
566.8466,716.5
566.9055,276.2
566.9645,1284.8
567.1655,141.9
567.3262,10625.3
567.563,98.8
567.6837,139.3
567.7239,238.7
568.2474,1150.7
568.3387,31442.6
568.3805,82
569.1135,108.2
569.133,22.7
569.2753,215.4
569.3423,6672.6
569.411,910.9
569.4472,322
569.511,890.3
570.1557,306.3
570.2585,607.4
570.2934,117.1
570.3163,128.8
570.3332,571.7
570.3556,1872.9
570.4566,95.3
570.4763,165.3
570.8302,402.5
570.8674,3800.2
570.9226,79.9
571.0599,402.3
571.1393,228.9
571.1534,107.2
571.2435,615.6
571.2756,299.7
571.5912,326.9
571.8757,347.3
572.3333,596
572.3528,20.7
572.3709,2082.1
572.4224,129.5
572.8389,18.3
572.8648,4147.2
572.9854,83
573.2855,25.8
573.5079,188
573.751,103.9
574.1311,267.4
574.1696,180.3
574.2844,1573.8
574.416,131.3
574.5091,198.4
574.8616,503.9
574.9785,407.2
575.0631,982.3
575.2987,21.3
575.3435,1022.3
575.3685,633.6
575.3802,253.4
575.4428,645.3
575.5052,10007.6
575.6699,424.6
575.8381,133.9
576.2818,12557.1
576.5074,1703.2
576.7432,770.1
576.8847,9960.2
577.1308,106.7
577.2847,2625
577.5187,118.2
577.7071,174.1
577.7944,537.2
577.8878,457.2
577.997,305.2
578.0442,93.9
578.2799,889.4
578.3581,173.8
578.5838,102.3
578.8819,8461.3
579.2573,289.2
579.4027,935.1
579.4237,574.8
579.6032,374
579.8566,414.8
580.059,110.4
580.2338,127.2
580.3024,114.7
580.3232,159.1
580.8376,171.4
580.8788,1703.8
580.8964,2941.9
581,918.2
581.0118,89.8
581.5336,600.6
581.7885,202.2
581.9211,207.6
581.9364,319.3
582.0587,799
582.0935,127.8
582.1939,212
582.2217,1951.3
582.2531,22.7
582.2698,593.8
582.2974,14457.4
582.3136,1098.9
582.3207,620.3
582.3397,286.3
582.3789,828.9
582.3956,109.5
582.4411,22.8
582.5716,285.1
582.6878,88.1
582.7832,836.4
582.8188,25.2
582.8935,1697.9
583.1477,255.9
583.2565,2766.1
583.3013,3661.1
583.5722,687.5
583.8932,246.3
583.9118,126.7
583.9374,102.5
583.9599,151.1
583.978,115.8
584.01,660.2
584.0397,266.9
584.1382,148
584.3132,4311
584.4819,308.8
584.9888,96.3
585.2722,2935.4
585.3169,684.8
586.0233,433.4
586.2772,168
586.3106,7637.5
586.4373,268.8
586.5775,152
586.679,681.2
586.7712,173.6
586.8417,2872.1
586.8979,440.7
586.9133,671.5
587.0036,623.9
587.1356,380.1
587.1804,141.4
587.3123,350
587.3319,1000.2
587.3793,152.5
587.7074,615.2
587.7613,81.6
587.8873,118.8
587.9717,157.5
588.1781,363.3
588.3155,1173
588.6076,244.5
588.7717,145.8
588.8385,2958.5
588.9125,461.8
588.9687,651.6
589.0818,351.4
589.2197,205.7
589.495,127.3
589.6574,153.6
589.8765,93.8
590.0102,1208.2
590.0489,123.8
590.3235,12832.9
590.8365,472.2
590.9241,583.3
590.9416,136.9
591.0084,650.9
591.1383,691.8
591.3276,961.4
591.7468,21
592.1333,597.8
592.2567,405.8
592.338,907.3
592.5215,492.7
592.6347,382.5
592.7689,93
592.8158,98.6
592.8587,5106.1
593.0192,575.1
593.3065,1086.4
593.8626,863.6
593.8755,345.4
594.1391,131.3
594.6805,367.6
594.7743,126.6
594.8115,87.3
594.856,7512
594.9884,103.9
595.0099,209.8
595.1366,158.7
595.67,190.3
595.8971,157.5
595.9192,327.1
596.1269,364.6
596.2699,164.2
596.7118,550.4
596.8527,1606.2
596.8713,1178.4
596.9409,777.8
597.3148,563.5
597.4474,2735.1
597.4681,418.3
597.4869,9394
597.6925,180.9
597.7704,411.2
597.939,98
598.1413,90
598.1911,365.6
598.4507,618.7
598.4567,1141.9
598.4615,1418
598.4889,1771.9
598.5191,344.4
598.6897,20.4
598.8375,142
598.8678,970.9
598.9052,221.8
599.1627,114
599.4661,2659.4
599.505,2101.3
599.5658,593.6
599.7101,150.2
599.8191,621.5
599.9534,562.9
600.2829,1456.1
600.472,244.5
600.6941,485.2
600.7726,709
601.1638,225.2
601.1985,690.6
601.2878,157.5
601.3011,328.8
601.3123,589
601.4905,498.2
601.7812,672.5
602.0644,110.6
602.2852,832
602.2978,1443.3
602.6502,121.8
602.7017,557.9
602.7748,340
602.8871,415.3
602.8914,477.6
602.8995,323.5
603.4807,142.2
603.5374,153.9
603.6502,114.7
603.7238,371.6
603.802,618.9
603.9243,105.3
603.9414,703.7
604.0766,106.2
604.3142,877.3
604.5467,163.2
604.6399,111.8
604.8139,385.9
605.1882,342.8
606.1909,188.5
606.2973,1949
606.5419,83
606.692,656.8
606.9009,1174.3
607.1721,4560
607.2285,608.2
607.2555,701.1
607.4353,198.5
607.5391,83.9
608.1734,228.8
608.211,1103.1
608.8332,1403.2
608.9898,138
609.0511,515
609.4636,627.1
609.5237,181.6
609.9633,608.1
609.9918,226.7
610.0574,553.1
610.4653,447.7
610.6919,142
610.8302,1611.7
610.9463,185.2
611.1775,211.2
611.6148,359.9
612.1684,444.3
612.2343,132
612.2716,18.3
612.3281,720.1
612.4914,417.5
612.5889,20.5
612.8866,440.9
613.1008,981.8
613.1411,877.2
613.4507,494.2
613.4721,182
614.3405,749.5
614.4402,20.5
614.4837,434.8
614.6022,147.2
614.7484,301.9
614.8452,1012
614.9745,1080.3
614.9957,19
615.1276,18.3
615.2478,96.3
615.4618,1280.9
615.5456,21
616.2006,193.5
616.6166,86.6
616.692,272.5
616.792,724.4
617.1552,117.3
617.4544,22.6
617.4767,32334.1
617.5063,262.6
617.8995,119.2
618.3373,203
618.4803,8322.9
618.5125,25.2
618.6194,745.9
618.7016,357.7
618.8643,169
619.1825,605.6
619.4375,190.3
619.4925,39680.3
619.7584,671.7
619.796,87.6
620.1701,184.9
620.4564,568.3
620.4959,12166.8
620.6245,182.5
620.8106,612.5
620.9989,350.3
621.2029,21.8
621.3268,101.6
621.4,222.4
621.4565,2985.9
621.4869,8105.3
621.5788,18.8
621.7328,697
621.9289,135.2
622.1042,276.6
622.1532,200.1
622.23,115.5
622.2494,103.8
622.33,88.2
622.4749,715.4
622.8086,1028.8
623.1372,30014.3
623.4697,225.7
623.4884,1652.5
623.4986,1749.1
623.5019,1811.9
623.8325,219.5
623.9582,103.2
624.1409,5162.6
624.3455,128.4
624.3826,298.6
624.4701,347.2
624.4994,229.5
624.6824,90.5
624.7411,90
624.784,229.4
624.8192,201.5
624.8491,129.9
624.8765,98.7
624.9231,474.9
625.1422,228.9
625.1914,342.8
625.2523,491.4
625.4461,135.6
625.4833,115.6
625.5011,155.7
625.5919,597.4
625.6778,221.8
625.9885,310.1
626.3284,761
626.4117,259.9
626.4937,171.4
626.7263,655.5
626.7401,129.4
626.8367,20.6
626.8819,87.1
627.2381,188.8
627.4734,685.8
627.4774,639.9
627.5366,211.8
627.6397,444.4
627.7222,755.3
627.854,483.1
627.9626,326.8
628.0809,107.4
628.1936,18.8
628.5449,217.1
628.8245,606.8
628.8693,203.7
629.1273,85.3
629.1541,64844.9
629.3827,19.1
629.4091,157.4
629.537,300.3
629.6062,92.9
629.8867,22.9
630.1576,12207.1
630.4476,194
630.8262,183.8
630.988,724.7
631.0728,108.6
631.1598,1404.3
631.5951,20.2
631.711,20.7
631.952,108.6
632.0285,967.8
632.5165,173.8
632.552,277.8
632.6295,141.6
632.7834,351.2
633.058,98.6
633.2246,206
633.3524,159.5
633.3757,105.5
633.4259,302.5
633.451,885.1
633.6067,128.5
633.9415,167.9
633.955,118.3
633.9891,94.1
634.0105,700.8
634.1405,100.4
634.188,87.8
634.6178,292.8
634.6332,137
634.8434,2409.7
634.9618,139.5
635.0037,705.4
635.3346,772.9
635.4657,2134.6
635.6694,209
635.7419,576.8
636.1539,21.2
636.7598,151.8
636.8407,3117.6
637.0446,136
637.1065,357.8
637.2415,100.2
637.48,277.8
637.7681,548.8
638.445,628.2
638.6876,466.2
638.7601,689
638.8377,1216.9
638.9416,912.1
639.577,85.3
640.0287,82
640.3461,783.3
640.4996,87.5
640.7136,901.2
640.7324,18.3
640.8522,363.5
640.8859,561.4
640.9717,88.7
641.1733,110
641.3941,117.3
641.4912,748.8
641.5935,801.1
641.6735,101.3
641.6847,641.1
641.907,90.8
642.0725,116.2
643.116,143.3
643.4423,167.4
644.0962,260
644.1145,673.8
644.2546,90.1
644.8959,94.4
644.9882,1228
645.119,25848.1
645.2062,558.7
645.3088,517.8
645.3186,722.9
645.4228,25.1
645.4572,199.4
645.5499,440.3
645.9883,957.6
646.1226,4184.2
646.4287,955.6
646.7772,139.7
646.7985,472.7
647.0947,548.3
647.1246,273.9
647.4343,1452.4
647.4669,191.7
647.6759,18.3
648.11,518.3
648.1914,148.4
648.3892,329.1
648.9267,163.2
649.1161,594.5
649.2052,119.2
649.4881,194.1
649.5809,241.3
650.2509,125.5
650.2689,95.7
650.391,186.8
650.5203,585.3
650.6996,19.2
650.8176,1690.3
651.1361,71492.1
651.2013,901.1
651.4714,802
651.5863,151.4
651.6658,100.8
652.1055,563.2
652.1398,14117.2
652.2335,630.2
652.5454,773.3
652.6482,373.3
652.6775,331.6
652.684,351.3
652.6891,274.2
652.8162,2304.7
653.1119,757.6
653.1432,1471.1
653.1941,957.9
653.9041,105.7
653.9654,360.6
654.0588,99.6
654.3877,112.5
654.4247,308.4
654.4935,456.8
654.5955,129.7
654.622,414.9
654.6537,1540.7
654.6791,699.9
654.8119,1483.5
655.1959,94.1
655.5596,319
656.3651,523
656.4721,229.4
656.7072,763.6
656.9878,111.2
657.0831,567
657.8825,459.5
657.9864,643.8
658.1676,87
658.4134,555.9
658.6137,176.8
658.8943,999.7
659.1182,243.1
659.209,168.1
659.528,115.6
659.6038,19.4
659.7172,82.7
659.7627,312
660.0075,105.3
660.0523,104.1
660.0725,135.2
660.2805,551.4
660.3912,98.8
660.4511,120.2
660.8027,422.7
661.0842,16429
661.1519,729.4
661.2869,185.5
661.4591,231.6
661.6906,246.1
661.7465,861.7
662.0874,1073.2
662.5487,658.4
662.6798,103.5
662.787,412.8
662.831,154.4
662.8985,485.9
663.4548,782.6
663.509,989.5
663.6285,21.4
664.0112,909.6
664.1371,373.3
664.1453,708.3
664.2383,788.8
664.3852,150
664.4695,4119.6
664.5948,105.8
664.6043,175.2
664.8837,253.7
665.1067,21.5
665.3505,164.3
665.473,1638
665.598,178.9
666.486,7229.2
666.5494,587.2
666.8846,155.4
667.0065,19.9
667.1007,38707.2
667.3661,967.4
667.6797,195
667.7938,385.3
668.1042,6000.2
668.3775,86.6
668.4065,152.3
668.5428,166.9
668.7536,127.1
668.7754,109.3
668.7889,488.4
668.8476,130.6
669.0162,993.9
669.1072,493.7
669.1525,394.1
669.2452,21.7
669.4035,234.9
669.4962,2058.8
669.6913,99.4
669.9082,473.6
669.9912,132.9
670.6494,147
670.7201,502.3
670.9359,174.3
671.2646,86.7
671.4252,870.5
671.9161,382.7
671.9731,301.5
671.9974,146.8
672.1632,94.4
672.2662,101.4
672.3154,110.2
672.4507,579.3
672.655,175.2
672.8355,23.9
673.0386,173.7
673.118,76470.8
673.2054,88.3
673.4441,617.8
673.5274,1916.9
673.941,860.6
673.9618,20.2
674.1218,17009.8
674.3617,137.5
674.4503,741.4
674.4676,341.9
674.4907,511.4
674.8943,597.6
674.9606,249.8
675.0947,377.8
675.1224,547.1
675.2321,188.5
675.3517,151.7
675.4471,118.7
675.5454,14130.9
675.736,98.7
675.8304,355.8
676.0413,702.1
676.0981,109.1
676.1329,340.5
676.2733,351.8
676.5487,3123.6
676.5924,230.4
676.9409,138.2
676.9685,318.2
677.0369,120.1
677.4129,368
677.759,214
677.9161,578.6
678.5133,800.5
679.2415,959.8
679.307,732.7
679.4396,80.3
679.5807,307.8
679.6835,726.2
679.9049,217
680.2292,222.6
680.2898,112.3
680.4976,255.3
680.7128,166.4
680.8934,140
680.9388,953.2
680.9729,162.6
681.0368,743.2
681.0849,914.9
682.0656,439
682.0958,217
682.1646,116.7
682.4199,99.2
683.0656,10701.3
683.2612,814.5
683.4512,881.1
683.5488,20.3
683.6999,736.1
683.9086,93.8
684.1801,230.6
684.4767,449.2
684.4889,479.7
685.3742,97.9
685.3808,127.9
685.3883,124.5
685.4374,9488.8
685.4648,212.9
685.5124,183.6
685.7663,242.9
686.4414,1490.6
686.9656,634.3
687.2505,620
687.3026,179.3
687.3188,87.3
687.3959,178.9
687.5706,83.1
687.8337,200.7
688.1427,264.3
688.2521,177.5
688.9454,1519.2
689.0822,30569.6
689.278,563.8
689.5607,3286
689.7129,105.2
689.7279,337.9
690.0863,3541
690.1485,113.6
690.1929,95.2
690.34,257.4
690.5435,165.1
690.7788,375.8
691.088,652.9
691.3103,476.4
692.0047,91.7
692.162,275.4
692.2661,304.4
693.0188,87.4
693.3133,426.8
693.3709,404
693.4504,625.2
693.9984,164.9
694.6031,123.3
694.6887,603
694.7998,1303.4
694.842,206.9
695.1002,54335.3
695.5117,3641.4
695.5756,19.4
695.7076,634.5
695.7986,288.3
695.8106,265.9
695.9329,1385.4
696.0442,691.5
696.0661,114.3
696.0864,85
696.1041,9294.5
696.1786,187.4
696.3235,19.8
696.5158,1574.9
696.6994,821.1
696.7974,668.6
697.1059,100.1
697.5274,29604.8
697.7486,574.6
697.855,464.8
697.8792,93.3
697.9535,630.3
698.2138,125.2
698.2357,22.7
698.3132,383
698.376,89.8
698.5312,7432.6
698.9623,19.3
698.9961,493.2
699.4153,918.8
699.7413,398.8
699.7628,141
699.962,932.8
700.0546,90.5
700.1991,897.9
700.3212,309.3
700.4646,1236.9
700.9261,113.7
701.2363,573.4
701.2556,102.5
701.4135,679.3
701.5611,40162.7
701.9123,824.7
701.9476,20.7
702.0892,313.8
702.2389,718.4
702.32,181
702.3437,6254.7
702.4148,289.8
702.5645,13866.6
702.6856,279.9
702.7692,685.8
702.8383,669.2
702.88,21
702.956,281.1
702.9848,277
703.2538,744.9
703.3475,1435.5
703.5768,89209.1
703.7169,674.6
703.7996,162.8
703.8151,320.4
703.9631,760.3
704.3531,1010.8
704.5225,669.7
704.5583,151.2
704.5803,32829.1
704.6385,152.5
704.8108,172.5
704.8674,347.4
705.054,7982.2
705.2108,165.8
705.5828,1784.7
705.9052,105.3
706.0532,416.3
706.2158,610.6
706.2805,475.8
706.3169,259.4
706.4815,530.1
706.5633,801
707.6086,622.5
707.8204,23.3
707.9683,452.4
708.1127,294.3
708.2024,86.4
708.2405,200.1
708.2588,92.6
708.6473,669.8
709.5628,533.4
709.7526,113
709.9039,116.9
710.0913,580.5
710.1708,134.1
710.2589,86.9
710.4865,172.4
710.606,357.1
710.7728,1057.9
711.0637,17528.8
711.0755,17559.8
711.1116,783.1
711.1671,450.1
711.3867,87.3
711.4397,81.1
711.5426,6025.5
711.6315,277.5
711.7954,422.5
712.0778,2460.2
712.2762,96.8
712.4443,18.4
712.5466,2083.6
712.6962,261.5
712.8438,1588.8
713.0475,136.8
713.0697,131.9
713.5001,1373.2
714.0888,557.5
714.5042,819.7
714.7912,159.1
714.9044,176.2
715.1563,546.9
715.3512,148.6
715.3987,117.4
716.0119,123.7
716.231,256.4
716.7478,99
716.795,1131.2
716.9354,199.7
717.0822,25984.9
717.1077,398.1
717.2086,875.6
717.5889,589.3
717.7011,225.5
718.0855,3706.7
718.1652,128.3
718.462,933
718.5411,244.9
719.0894,163.2
719.4954,291.6
720.0198,116.5
720.0381,234.8
720.3879,142.4
720.4238,367.7
720.5749,804.7
720.9986,176.9
721.0196,82.9
721.2116,261.7
721.2743,701.1
721.4256,445.7
721.4799,60337.4
721.6207,248.2
721.7158,588.8
721.9821,85
722.1542,679.2
722.2799,446.8
722.4827,25818.4
722.6909,897.7
722.8057,866.5
722.9471,540.3
723.0623,249.6
723.2093,706.2
723.4949,6315.8
723.543,44937.6
723.6044,856.4
723.8432,671.3
724.279,739.7
724.3449,129.2
724.499,1462.6
724.5463,20147.4
724.614,143.9
724.6631,22.2
724.6789,114.7
724.8507,87.7
724.9222,87
724.9554,134.8
725.0702,219.6
725.3004,340.9
725.3323,590.4
725.5589,88206.6
725.8319,502.9
725.9821,92.4
726.0002,20.1
726.0689,24.2
726.1582,158.7
726.3884,617.9
726.5621,32657.3
727.0303,5668.2
727.1919,77.9
727.4079,617.9
727.5651,4490.6
727.6793,20
727.7093,178.8
727.7217,230.3
728.0397,111.3
728.2328,269.4
728.4146,187.2
728.5235,1355.7
728.5731,92.5
728.9715,20.4
729.0422,661.2
729.1291,113.3
729.3504,116.7
729.5925,12494.2
729.651,210
729.6714,170.4
729.989,466.4
730.5402,9107.8
730.6025,529.1
730.7475,96.2
730.8253,878.3
731.0758,165.9
731.1746,145.8
731.288,124.1
731.4629,705.7
731.5433,3068.8
731.6086,5621.3
731.656,98
732.0464,811.3
732.4102,21.1
732.4253,108.3
732.556,29214.8
732.6117,1589.9
732.7878,262.2
733.0454,10688.1
733.0575,10636.1
733.2077,86.5
733.5599,10537.8
733.7191,645.3
733.7919,328.3
733.8132,362.8
734.061,451.5
734.0817,18.1
734.1078,144.5
734.3502,98.9
734.572,5340
734.597,147.7
734.9605,190.8
735.1014,237
735.5748,1980.6
735.7497,329.5
735.7672,921.6
736.0803,140.1
736.2416,118.4
736.3485,207.9
736.4153,315
736.5587,400.5
736.7328,607.9
736.8804,183
737.1511,380.4
737.4537,9540.6
737.6634,297.6
737.7773,131.4
738.071,109.7
738.2236,117.5
738.3779,19.3
738.4556,3425.9
738.9508,550.7
739.0151,1552.9
739.0424,1116.4
739.0643,13955.1
739.4522,81.6
739.4702,867.3
739.517,6140.2
739.574,1079.3
739.8686,927.9
740.0672,502.3
740.3182,114.7
740.4886,657.5
740.8132,376.8
741.1321,127.3
741.4121,277.9
741.5335,7441.4
741.643,608.6
742.038,608.4
742.3091,237
742.5362,5659.9
742.5771,11787.2
742.6242,356
742.9959,994.3
743.0666,309.7
743.1605,361.8
743.4595,127.6
743.5114,86.1
743.5338,185.7
743.5806,919.5
743.6047,151
744.1155,249.9
744.3058,119.7
744.5553,7982.6
744.5926,11514.4
744.7191,294.4
744.7652,18.5
744.7949,144.5
745.098,149.2
745.1214,197.1
745.3696,93.7
745.4264,223.1
745.4798,24617
745.5956,3180.1
745.7434,106.4
746.3255,357.4
746.4825,8654.3
746.5257,256
746.5717,1784.2
746.6084,3940.2
746.6658,600.5
746.8467,109
747.047,771.2
747.1503,90.9
747.1695,230.2
747.496,11285.6
747.574,1057.5
747.6122,773
747.6536,121.1
747.7871,88.5
748.0399,285.6
748.1475,1230
748.2271,550.8
748.4989,4515.7
748.6151,671.4
748.9269,92.7
748.9343,109.7
749.0149,1551.8
749.0811,399.5
749.5109,3760
749.6533,925.6
750.1149,146.2
750.3244,224.6
750.36,346.1
750.4165,682.2
750.4491,81.5
750.8566,591.7
751.4344,150.9
751.5756,8094.4
752.0129,529.8
752.5214,15722.3
752.5774,1219.8
752.8507,637.7
752.9885,613.9
753.4402,651.9
753.526,2652.7
753.5905,3516.1
753.6795,145.6
754.5383,33014.8
754.8354,904.5
754.9108,364.2
754.9837,94
755.0279,4262.3
755.0393,5486.2
755.0758,20.2
755.1359,137.4
755.1862,335.5
755.4394,855.7
755.5418,11874.1
755.9929,932.8
756.2644,902.1
756.4097,340.2
756.5278,241
756.5556,53863.8
756.7316,341
756.9945,670.1
757.5183,376.4
757.5593,22389.6
757.624,1185.4
758.0969,147.6
758.2347,115.5
758.5717,1114434.4
758.8203,374.5
759.4049,297.2
759.5751,495119.1
759.6394,843.9
759.842,768.3
760.3384,163.1
760.5885,300885.7
760.7025,116.8
760.8191,1593.8
761.046,3262.6
761.1262,21.8
761.4469,495.9
761.5912,145331.1
761.7443,18.2
762.101,187.2
762.3469,144
762.5278,20.4
762.5938,29926.5
762.9076,90.9
762.9559,17.1
762.9841,894.4
763.0517,141.6
763.1753,318.8
763.3895,89.4
763.4848,486.3
763.5114,125.4
763.5971,2018.6
763.7929,721.9
764.2319,202.5
764.5585,764.2
764.602,346.4
764.9751,1744.9
765.1175,92.2
765.494,106.5
766.4879,893.1
766.5149,581
766.5386,3779
766.5762,26922.3
766.6075,580.7
766.7924,123.1
767.3411,96.8
767.3761,177.5
767.5402,1439.7
767.58,10461.6
767.814,154.1
768.2065,412.4
768.3686,115.9
768.4957,1131.4
768.5322,482.1
768.5546,3628.7
768.5924,39641.8
768.6262,126.3
768.696,1013.8
769.0344,166
769.4794,7718.6
769.5959,20182.3
769.6464,627.2
769.7543,392.8
770.4867,781.5
770.5719,306.2
770.609,7631.3
770.6483,95.6
770.8228,631.8
770.9941,9785.7
771.1299,1172
771.1774,149.5
771.4654,135.9
771.4878,707.9
771.4978,919
771.6115,2080.9
772.0286,103.4
772.0977,174.3
772.3761,1182.8
772.4466,150.5
772.4546,152.1
772.4654,149.7
772.5307,453.6
772.5876,16254
772.6214,778.7
773.1705,181.8
773.5111,107.8
773.5913,5226.9
773.6291,96.2
773.6569,80.7
773.7524,354.8
774.1409,86.8
774.1733,209.8
774.2013,120.4
774.3149,932.4
774.5161,962.8
774.5343,132.9
774.6059,1508.5
774.802,149.1
774.8158,113.3
775.3185,77.8
775.4578,184.3
775.6068,447
775.6678,742.1
776.2757,280.2
776.5218,2015.9
776.6453,542.2
776.7617,541.3
777.01,5929.6
777.1382,641
777.466,595.5
777.5431,1493.4
777.8519,188.6
777.9457,530.8
778.0469,1155.9
778.3241,601.5
778.4879,245.1
778.538,43376.7
778.7849,311.4
779.0524,964
779.2289,176.5
779.2653,293.9
779.3036,19.2
779.3426,1033.8
779.5412,16983.8
779.844,690
780.109,716.8
780.5537,820056.9
780.5931,129
781.3296,108.6
781.5571,353641.7
781.6276,197.3
782.0791,685.3
782.2533,461.8
782.5714,624510.1
782.6113,120.9
782.9109,737.7
783.0282,4872
783.4014,96.1
783.5746,298571.9
783.6764,100.3
783.6934,282
783.7324,624.5
784.521,1629.7
784.588,326751.7
784.7539,93.7
785.0774,86.5
785.2761,983.5
785.3378,809.5
785.591,163764.8
785.6548,7894.5
785.7343,124.1
785.7582,288.3
785.8893,1240.2
786.1366,172.9
786.487,138.8
786.6036,273578.5
786.6575,1747.6
786.9651,768.9
787.0474,90.5
787.0742,117.6
787.1507,291.4
787.6067,132243.5
787.6724,822.8
787.9444,354.3
788.4216,702.9
788.5594,9198.6
788.6069,23475.7
788.6223,9208.8
789.033,103.4
789.0771,756.4
789.1395,113.6
789.5607,3053.3
789.6239,5242.5
790.0477,894.7
790.2468,518.5
790.575,21417.5
790.6151,339.3
790.7734,193.1
790.8871,19
791.055,896.8
791.2065,100
791.2696,18.6
791.5773,8597.3
791.6605,1174.8
791.8245,19.9
792.5507,2176.1
792.5926,13610.1
792.8311,142.2
792.989,714.5
793.1193,373.5
793.3973,90
793.5943,3802.5
794.0332,461.2
794.2395,598.5
794.5126,2724.7
794.5699,8255.7
794.6082,42281.7
794.7262,1090.2
794.7734,626.1
795.0283,141
795.1859,1190
795.2061,2053.7
795.2323,1420.2
795.2864,220.7
795.4198,699.6
795.5169,421.9
795.558,292.4
795.6115,21696.2
796.0292,659.9
796.3074,560.9
796.5275,152723.2
796.5874,4903.6
796.6257,4882.5
796.7503,390.8
796.835,680.7
796.9169,758.4
796.9903,349.3
797.1339,567.7
797.5309,61381.8
797.5921,278.1
797.6276,1665.8
798.0205,19.2
798.3351,124.3
798.4889,170.3
798.545,32574.6
798.9475,312.6
799.0003,429.2
799.1796,544.3
799.4916,1039.5
799.547,13656.9
799.5737,89.7
799.67,123.7
799.7277,1198
800.1036,1001.3
800.1698,250
800.4572,222.2
800.6124,20.8
800.666,315.3
800.6736,389
800.6962,625.9
801.0541,1012.8
801.2361,448.5
801.5442,771.1
801.613,422.6
801.7966,19.1
802.3177,774.9
802.5382,26286.7
802.5836,314.1
802.6761,609.8
803.1595,48.7
803.3638,615.5
803.4312,1464.1
803.4752,508.9
803.5414,12582.1
803.9165,1182.7
804.5537,337455.4
804.6347,318.3
804.8186,912.2
804.9966,20
805.4958,618.6
805.5571,156534.4
806.3152,875.4
806.5078,752.9
806.5708,357484.2
806.8082,206.9
806.8939,692.5
807.0499,99.9
807.1302,98.9
807.5739,173317.2
807.6397,1250.1
807.8851,289.5
808.5868,212838.9
808.9364,326.1
809.5897,113422.8
809.8182,375.1
809.9216,677.2
810.3399,103.4
810.4182,239.1
810.6039,111272.4
810.8265,1021.3
811.1679,295.6
811.4692,81.3
811.555,26.9
811.6068,57294.1
811.6711,10417.3
812.0497,95.5
812.0601,90.5
812.4733,894.9
812.5625,616.6
812.621,25408.9
812.6741,2213.9
812.7586,631.9
813.0357,108.5
813.4008,229.7
813.6232,13393.6
813.6869,7658.2
813.7263,793.9
813.9391,945.1
814.0026,150.7
814.086,115.6
814.5722,1871.1
814.6256,387
814.6905,2773.4
814.9341,361.7
814.9703,282.4
815.2627,135.1
815.3424,184.1
815.6308,604.7
815.7458,209.2
815.8248,787.4
815.9785,887.7
816.0406,117.4
816.3264,270.5
816.3946,170.4
816.5907,22522.4
816.7677,114.5
816.8249,525.2
816.9013,382.9
816.94,948.1
817.5934,9084.4
818.0216,388.6
818.1775,814.9
818.5105,2093.1
818.5706,823.7
818.6084,4599.5
819.6118,277
820.4481,162.7
820.5276,60024.2
820.5867,239.7
820.6243,2679.8
821.0723,694
821.3481,283.5
821.531,24579.2
821.6321,999.6
821.6917,279.9
822.2474,885.8
822.2831,651.4
822.3254,696.8
822.3547,959.3
822.4206,627.7
822.4573,680
822.5438,30917.1
822.6399,125.7
822.6925,125.3
822.8439,19.7
823.0177,999.1
823.0628,134.4
823.1366,20
823.2235,180.3
823.4987,600.3
823.5465,16485.5
823.6466,259.4
823.8779,1003.2
824.1253,125.2
824.5597,25291.4
824.6789,126.6
825.2023,83.7
825.4614,123.9
825.5626,6493.2
826.4306,1119.1
826.5408,145.6
826.5706,150.5
826.6416,287.9
826.6944,998.7
827.1529,605
827.5756,204.7
827.9912,274.7
828.5538,107729.3
829.5572,53003.3
829.6973,423.4
829.7222,1115.4
829.8741,21
830.5705,58893.2
830.7047,591.5
830.759,17.2
830.8577,301.5
831.356,274.3
831.5004,85.5
831.5736,28977.9
832.2209,633.4
832.5861,73655.2
832.6323,479
832.957,634.3
833.0674,464.2
833.3994,610.6
833.4647,242
833.5891,36401.8
833.654,1174
834.2095,584.9
834.5472,474.3
834.6033,34567.3
834.9858,406.8
835.1946,719.9
835.3989,307.2
835.5279,372.1
835.6058,12372.1
835.6708,109.4
835.6898,105
835.7133,364.2
835.7683,350.2
835.9729,218.8
836.1102,114.1
836.5714,705.6
836.6219,1440.6
836.8745,264.2
836.9909,1202.9
837.3162,771.2
837.4026,632.9
837.5788,1030.1
837.623,1581.4
838.2133,390.9
838.2612,19.6
838.4066,174.6
838.5115,1464.6
838.5732,128.3
838.7272,902.7
838.8515,97.9
839.1818,88.9
839.3902,26.2
839.5123,938.7
839.8636,660
840.2399,1694.6
840.2712,1076.2
840.5341,172.2
840.5897,370.6
840.7014,797.1
840.7822,167.1
840.851,1367.7
840.8976,726.7
841.1821,18
841.6365,1195.8
841.8304,20.5
842.7238,597.1
842.9284,711.5
842.9822,642.7
843.4791,364.5
843.498,631.8
843.8001,112.9
843.834,230.2
843.951,21.2
844.3645,278.8
844.5272,17718.9
844.5881,892.8
844.7498,125.1
844.982,118.8
845.3022,182.3
845.4896,156.3
845.5311,4307.4
845.6854,956.4
845.7565,161.2
845.8975,376.3
845.9435,673.6
846.2066,429.3
846.372,18.4
846.544,4164.7
846.5972,494.4
846.8853,528.4
846.9284,127
847.2067,21.1
847.2424,907.3
847.3056,4061.3
847.7875,482.8
847.9758,181.9
847.9952,868.2
848.5591,6885.6
848.5792,942.7
848.693,2798.9
848.8259,124
849.1595,20.8
849.4089,19
849.5532,1102.3
849.8439,695.2
850.5272,84.4
850.6993,956.3
851.1409,478.3
851.3613,157.7
851.4751,307.8
851.5634,195.3
851.7666,251.9
852.0781,134.2
852.5487,1014.4
852.8451,268.3
853.0324,280.9
853.1045,95.2
853.1432,589.7
853.2413,155.7
853.348,192.1
853.518,886
853.8622,308.8
854.0618,281
854.2707,19.9
854.5706,4435.5
854.6146,388.3
854.8483,18
855.2475,1523.7
855.5699,403.1
855.6056,84.9
855.7792,181.1
855.854,219.1
856.0577,550.4
856.3942,176.5
856.5088,321.9
856.5853,6216.4
856.7594,661.9
856.8531,289.5
856.9714,87.7
857.1989,184.8
857.4926,118
857.5884,1595.5
857.7766,145.6
857.8865,136.9
858.0118,289.9
858.1534,282.6
858.2477,94
858.6797,133
859.6106,157.7
859.8145,535.4
860.0323,1672.5
860.1366,146.5
860.1806,399.6
860.257,359.9
860.5444,633.5
860.5874,363.6
861.2736,613.4
861.3483,48.6
861.4226,704.5
861.528,1089.7
861.5607,753.6
861.7458,118.5
861.8169,1514.7
862.1055,662.3
862.2629,24.4
862.3183,202
862.4359,342.8
862.6088,258.8
862.6897,368.1
863.1019,477.9
863.2634,345.4
863.5612,546.5
863.7122,157.9
863.9053,121
864.4309,357
864.7707,410.1
865.3878,368.5
865.7332,860.5
865.8011,554.6
865.9949,546.5
866.0239,575.7
866.226,242.4
866.4243,19.3
866.5581,363.8
866.7039,92.1
867.1746,146.5
867.4785,955.1
867.8458,21.1
867.8617,20.6
868.271,22.8
869.2282,527.5
869.308,139.6
869.4092,1359
869.4463,245.4
869.5309,630.1
869.5489,172.5
869.5731,632.1
869.6227,2295.6
869.6406,2220.8
869.6768,1451.4
869.7091,563.6
869.7405,2989.5
869.7853,2650.6
869.8118,2093.2
869.8446,4362.5
869.884,3439.5
869.912,2016.2
869.9479,1914.2
869.9638,2203.4
870.0057,1398.7
870.0242,629.8
870.0476,1677.2
870.1113,777.4
870.182,137.5
870.2428,443.8
870.4594,766.6
871.1044,182.4
871.1873,534.3
871.304,87.9
871.413,24.1
871.47,1112.2
871.5935,107
871.9089,23.1
872.071,2055
872.1747,124.4
872.3832,165.5
872.8613,2863.8
873.1862,352.5
873.3472,257.5
873.6617,1405.4
874.0278,229.3
874.0691,655.2
874.2645,990.9
874.6591,492.5
874.7012,87.8
874.7302,333.9
875.0051,225.8
875.2085,84.4
875.3531,628.3
875.5645,604.5
875.6184,1699.4
875.6413,111.6
875.6991,267.5
875.8588,89.9
876.0873,727.3
876.2722,412.4
876.343,212.8
876.4501,829.7
876.6806,84.2
876.7667,122.5
877.0376,1785.6
877.3654,386.1
877.4109,1920.1
877.6489,242.9
878.0225,942.3
878.9683,86.9
879.1839,18.5
879.6965,725.4
879.9383,385.6
880.4753,226.5
880.5937,292.8
880.7906,364
881.0238,18.2
881.1072,109.1
881.6603,1310.9
881.7862,996.1
882.0097,309.4
882.0823,931.9
882.2002,85
882.4452,172.4
882.9791,1241.6
883.0103,99
883.3446,20
883.3797,753.1
883.8139,961.8
883.9383,18.9
884.1602,2018.5
884.2171,131.4
884.8094,1004.7
885.2219,489.5
885.4859,94.3
885.529,168.2
886.0936,438.4
886.3719,1206.3
886.4103,611.3
886.6039,234.5
886.7165,746.3
887.1253,420
888.1972,604.4
888.5721,479.6
888.8332,2455
889.1069,180.5
889.1895,245.3
889.4876,548.6
889.5628,693.4
889.6899,635
889.839,242
889.9908,134.6
890.0707,1332.9
890.2258,235.8
890.7772,302.6
891.4814,231.5
891.5108,157.3
891.5959,809.6
891.7073,646.7
891.8465,151.3
891.9428,129.5
892.1484,354.5
892.7041,28.4
892.879,597
893.2769,19.8
893.3156,379.9
893.4068,2953.3
893.4832,193.3
893.8029,82.4
894.106,130.9
895.0682,973.8
895.2834,195.3
895.714,368.4
896.3317,19.3
896.4403,1904.1
896.4725,751.3
896.9305,22.7
897.1694,1112.8
897.6606,132.5
897.7043,146.5
897.8061,109.4
897.8515,176
898.1168,849.9
898.8095,293.3
898.9222,206.4
898.9964,317.6
899.0466,387.5
899.0746,1801.6
899.2475,346
899.3278,592.9
899.4683,18.7
899.7229,182.4
899.9246,366
900.863,91.2
901.1065,329.8
901.5019,614.8
901.9701,398.7
902.4671,180.9
902.7159,172.6
903.1989,977.7
903.5121,779.1
904.1612,330.9
904.4464,130.7
904.5989,130.5
904.6313,323.1
904.7026,670.1
904.7436,206.8
905.3337,798.5
905.3926,217.8
905.9088,405.5
906.1853,262.5
906.5538,111.1
906.7137,1490
906.8403,119.1
907.2083,545.5
907.3897,18.7
907.6695,2719.5
907.8979,662.6
908.2444,1022.3
908.2927,910.9
908.617,525.8
908.6684,150
909.1855,1877.4
909.6187,118.5
910.1433,101.8
910.2717,84
910.3564,163.5
910.5687,401.1
910.9287,142.7
911.0553,977.9
911.4439,431.8
911.6715,94.5
911.7221,980.3
911.9932,82.7
912.6555,239
912.8608,253.1
913.935,358.4
914.032,19.4
914.4826,140.2
915.1822,307.2
915.3838,194.2
915.7104,506.2
915.778,148.2
916.2407,95.2
916.3856,113.9
917.917,95.3
918.0499,660.1
918.1905,203.1
918.4745,970.3
918.6394,222.2
919.0223,260.1
919.2834,367.4
919.3503,652.6
919.5833,583.9
919.621,98.6
919.8139,830.3
919.8771,281.7
920.9351,191.7
920.9555,117
921.0548,81.7
921.164,577.1
921.3388,2027.9
921.5134,802.8
921.7622,952.8
922.3372,906.7
922.4819,381.2
922.7309,18.8
922.8303,752.1
922.9754,84.1
923.07,621.7
923.3272,242.1
923.3872,326.9
923.4146,736
923.5956,1030.8
923.6338,165.5
924.5232,142.4
924.97,1725.9
925.1935,874.1
925.2771,590.8
925.4604,411.1
925.8706,17.9
925.9358,788
926.7187,93.7
926.8306,113.1
926.9759,620.5
927.187,626.1
927.4298,568.6
927.4673,111.7
927.6792,84.9
927.8696,20.9
928.0891,238.7
928.1221,265
928.5006,629.4
928.5925,944.7
928.6329,492.7
928.7566,242.3
929.0095,1695.4
929.2348,847
929.7173,231.8
930.614,550.7
931.5638,20.6
931.655,709.5
931.8423,152.7
932.2493,131.2
932.7906,419.5
933.1876,671
933.3728,646.1
933.5244,364.7
934.0155,1300.4
934.079,267.3
934.3336,342
934.4421,109.4
935.1073,266.7
935.1437,1257.6
935.4731,19
935.6034,18
935.9054,259.8
936.0207,941.1
936.3499,24
936.5985,496.1
936.8951,1616.3
936.9988,177.3
937.0279,1379.4
937.0706,300.8
937.1113,886.9
937.2115,90.4
937.8753,1855.1
938.0755,241.2
938.1951,315.9
938.8018,408.9
938.8804,626.7
939.1582,601.1
939.4902,585.2
939.7238,178.9
939.92,247.1
940.1978,139.7
940.4238,678.2
940.5695,611.5
940.8377,121.7
941.7941,310.1
941.9326,1425.6
942.035,91.5
942.6914,498.5
942.7551,243.1
942.8829,117.4
943.0292,19.3
943.1949,128.3
943.2286,231.4
943.6689,675.3
945.408,184.2
945.5288,541.9
945.8518,247.4
945.9029,93.9
945.9381,512.1
946.0023,794.7
946.2242,251.8
947.5014,1276.6
947.5617,668.5
947.6038,98.9
948.0052,721.7
948.5148,1403.3
948.8058,747.9
948.8327,671.2
949.1652,815.1
950.0448,182.6
950.1223,19.5
950.1486,327.5
950.2434,231.8
950.4125,717.1
950.5685,374.2
950.8537,1393.4
950.9808,634.5
951.0508,727.3
951.1509,319.2
951.6498,735.5
952.3191,593.5
952.509,495.4
952.6715,261.2
952.7981,823.6
953.0873,111.4
953.2554,226.3
953.6108,374.7
953.7834,380
954.0416,277.3
954.3502,949.6
954.3843,317
954.5135,513.1
954.5728,658.4
954.7014,906.2
954.846,105.7
955.3797,19.4
955.4994,1001.1
955.5363,90.8
955.7984,2929.5
956.2195,689.2
956.2757,895.9
956.7561,134.9
956.8685,898.8
956.9821,88.4
957.2852,229.3
957.8245,752.2
958.2521,139.9
958.4328,2305.9
958.4927,941.2
958.762,180.6
958.9297,214.2
959.1064,232.7
959.4355,1076.4
959.5073,1587.5
959.7826,1292.6
960.6987,976.4
960.9492,136.9
961.7098,640.6
961.8656,2119.5
962.165,718.4
962.4192,217.5
962.5356,606.8
963.1579,1030.2
963.7273,386.8
964.3828,687.3
964.467,424.7
964.6055,435.4
965.2086,447.6
965.2757,590.7
965.3216,394.1
966.1709,123.7
966.3768,644.9
966.4952,415.4
967.1773,706.1
967.3845,217.2
967.4157,626
968.03,137.3
968.1519,223.8
968.3844,126.5
969.2299,543.1
969.2738,529.8
969.7527,905.7
969.9545,296.2
970.304,1718.7
971.1545,872
971.2861,139.4
971.4013,478.5
971.4676,1418.6
971.6294,303.5
971.7907,543.1
972.2148,1095.8
972.3596,1585.8
972.4067,144.1
972.7618,1881.8
972.8059,694.9
974.0251,355.1
974.5855,546.1
974.9299,161.4
974.985,161.2
975.2128,353.2
975.2669,18.3
975.3272,249.9
975.4382,1146.2
975.462,1058.4
975.9601,627
976.35,370
976.7106,623.1
977.1823,626.8
977.3838,565.8
977.4756,102.8
977.5997,907.2
978.3214,234
978.3539,599.4
978.6064,384.5
978.7926,109.8
978.9723,1327.9
979.1156,1103.2
979.3233,86.9
979.5223,259.2
979.6125,824.4
979.7771,1842.2
979.8357,815
979.9376,1566
980.5651,237.7
980.7862,687.4
980.837,176.9
980.9331,886.6
981.2316,139.8
981.6742,483.1
982.1193,613.3
982.6382,664.3
982.6673,188.2
983.7444,21.8
984.0026,1150.2
984.2219,20.3
984.309,893.2
984.5196,99.3
984.6763,17.9
984.9919,632.6
985.0546,707.1
985.1594,132.5
985.3001,155.3
985.4306,183.1
985.6244,672.3
985.7081,1288.1
986.0847,154.2
986.3882,554.5
986.4992,94.5
987.1944,217.2
987.2757,1082.1
987.7531,228.2
987.9008,783.6
988.0921,605.9
988.7634,277.9
989.1856,364.5
989.7773,102.9
990.2247,1051.6
990.4515,1239.2
990.6002,261.1
990.82,224.1
990.8701,898.9
990.9346,200.1
991.5674,200.3
991.6776,1827.8
992.0662,231.2
992.2466,247.8
992.3589,199.3
992.6858,85.1
993.0408,896.8
993.773,285.8
993.8326,910.6
994.0636,1213.7
994.831,193.8
995.1688,301.5
995.5226,447.7
995.9449,1524.5
996.5486,1662.2
996.9571,157.6
997.2764,359.2
997.367,355.7
998.4082,269.2
998.4848,683.6
999.2127,165.4
999.2834,676.1
999.4505,264.9
999.4788,758.5
999.511,182.8
