SPECTRUM - MS,
1707.RAW,
FTMS + p ESI Full ms [50.00-1000.00],
Scan #: 1-40,
RT: 0.01-1.97,
AV: 40,
m/z,Intensity

50.0196,123.9
50.0442,315.4
50.047,89
50.0655,75.7
50.0751,461.7
50.0832,393.4
50.1346,159.2
50.1528,336.1
50.1561,142.4
50.1627,569.7
50.2031,576.2
50.2197,82.4
50.233,666.8
50.2344,220.8
50.2372,272.6
50.2432,200.9
50.2492,210.5
50.2642,228.8
50.2655,83
50.2726,596
50.2818,589.2
50.3027,308.2
50.3084,246.2
50.3352,16.5
50.337,72.9
50.3569,173.7
50.3784,509.8
50.3932,248.9
50.4099,140.4
50.4176,474.9
50.4331,590.5
50.4386,119.2
50.4693,153
50.471,128.1
50.4871,111.8
50.5124,364.9
50.5365,166.6
50.592,404.8
50.5947,610.4
50.6012,154.3
50.6039,80.9
50.6102,231.1
50.6178,308.1
50.6195,130.3
50.6229,221.6
50.6273,211.4
50.6351,182.4
50.6435,80.3
50.6457,16.2
50.6517,317.9
50.6526,514.1
50.6612,93.7
50.6648,136.7
50.7003,269.8
50.7023,386.4
50.7193,590.5
50.7237,16.1
50.7384,122.8
50.7458,99.9
50.7541,175.2
50.7647,283.2
50.7686,93.9
50.7733,17
50.7935,126.6
50.8015,731.3
50.8116,120.9
50.8243,88.9
50.8271,281.1
50.8469,379.5
50.8482,71.3
50.8529,521.7
50.8629,95.5
50.8639,557.4
50.8805,103.7
50.881,228
50.887,235.2
50.8954,527.1
50.8982,113.1
50.9051,338.4
50.9392,596.9
50.943,98.2
50.9471,124.8
50.9598,85.8
50.9667,15.5
50.9847,507.5
50.9886,161.6
50.9949,108.1
51.0004,256.7
51.0047,17.6
51.005,415.7
51.0077,217.7
51.0126,115.8
51.0334,102.2
51.0589,125.7
51.0753,106.1
51.1045,498.8
51.1088,291.7
51.1194,734.4
51.1256,95.2
51.1275,297.6
51.1353,270.5
51.1357,17.9
51.1449,72.2
51.1477,852.8
51.1599,82.7
51.1632,297.2
51.1685,557.8
51.1859,16
51.189,118.4
51.1939,83
51.1973,356.8
51.2117,219.5
51.2294,290
51.2319,583.4
51.247,134.8
51.2856,146.1
51.2957,320.6
51.2992,297
51.303,165.1
51.3268,496.2
51.3359,18.4
51.3636,229.3
51.391,742.4
51.3999,91.4
51.4239,589.3
51.4434,87.8
51.4484,312.2
51.4568,278.8
51.4686,16.8
51.4701,78.7
51.4831,142.7
51.4883,661.8
51.5017,554
51.539,383.9
51.5665,148.6
51.5752,338.8
51.5775,109.7
51.5977,275.9
51.6014,322.4
51.6266,104.5
51.6387,159.1
51.6659,285.3
51.6661,357.4
51.6676,143.2
51.6686,285.4
51.6783,107.7
51.7071,604.2
51.7461,376.2
51.7669,193.4
51.7793,187.1
51.7977,504.3
51.8096,95
51.8098,97.9
51.8347,83.5
51.8467,139
51.8916,104.1
51.8995,164.7
51.9169,387.8
51.9177,432.2
51.9307,183.8
51.9688,83.9
51.9737,770.2
51.9777,317.3
51.9929,100.1
52.0035,86.7
52.008,158.8
52.0088,76.5
52.0091,670.7
52.0185,102.7
52.0407,135.1
52.0443,319.3
52.0527,724.7
52.0538,601.9
52.0561,314
52.0679,431.7
52.074,406
52.0765,189.4
52.087,93.5
52.0973,192.4
52.1163,791.8
52.1294,255.4
52.1404,162
52.1441,266.4
52.155,111.5
52.1607,82
52.1755,16.2
52.1984,128.5
52.2107,678.9
52.2164,151.5
52.2216,117.2
52.2262,103.1
52.2319,335.5
52.2346,93
52.2477,73.9
52.249,149
52.2828,622.1
52.2991,17.3
52.3081,139.7
52.3117,487
52.3381,96.5
52.3628,190.7
52.375,95.6
52.3796,214.8
52.3847,393.9
52.3953,161.4
52.4238,83
52.4354,136.5
52.4414,770.4
52.4473,109.9
52.4743,99.4
52.4989,314.7
52.5035,113.1
52.5131,144.7
52.5285,591.6
52.5319,199.8
52.5437,670.8
52.5541,80.1
52.5576,79.5
52.581,325.6
52.5993,351.1
52.6064,620.2
52.6124,100.4
52.6475,562.4
52.6519,304.6
52.6618,331.2
52.6795,16.3
52.6864,104.7
52.6889,107.6
52.7114,343.2
52.7221,155.5
52.7385,205.7
52.7473,165.9
52.7531,467.3
52.7695,795.2
52.7708,656.3
52.779,206.4
52.7952,76.1
52.7983,222.8
52.7986,266
52.7989,310.1
52.7995,305.8
52.8004,1646.2
52.8015,1526.8
52.8023,3198
52.8031,360.5
52.8036,2025.1
52.8044,1773.6
52.8049,1214.6
52.821,531.1
52.835,154.3
52.8556,74.6
52.8674,112.8
52.8919,93.8
52.8923,447.4
52.8954,597.4
52.9046,189.6
52.9053,123.8
52.9281,620.5
52.9312,17.4
52.9359,106.4
52.9382,445.9
52.9389,635.4
52.9439,15.9
52.9871,233.2
52.9913,286.1
52.998,227.1
53.0404,83.5
53.0414,285.6
53.0602,91.8
53.0685,597.1
53.0749,784
53.0778,118.9
53.0786,354.8
53.0961,377.5
53.1063,323.5
53.12,505.1
53.1289,165.5
53.1314,469.3
53.1398,224.2
53.1508,178.1
53.1757,19.4
53.1857,394.4
53.2073,72.6
53.2258,341.3
53.2265,142.2
53.2454,202.5
53.246,290.6
53.2528,121.1
53.2682,631.7
53.2742,19.7
53.279,413.4
53.2817,67.8
53.2834,253.8
53.2926,93.5
53.3023,186.9
53.3089,16.5
53.3329,17.2
53.341,102.3
53.3563,318.8
53.361,91.3
53.3796,452
53.3849,483.7
53.3906,255.5
53.3934,15.6
53.3998,260.2
53.4145,352.6
53.4178,639.1
53.4207,116.8
53.4376,84.8
53.4414,77.3
53.4429,648.3
53.4502,463.9
53.4554,152.3
53.4588,200.9
53.4655,316.1
53.4737,1196.8
53.4803,193.8
53.491,193.7
53.498,210.1
53.5105,314.3
53.5115,376.3
53.5268,71.7
53.5271,148.1
53.5387,80.5
53.5478,131.5
53.5505,134.5
53.5573,163.2
53.5637,94.4
53.5656,118.8
53.6004,381.9
53.6048,193.4
53.6064,203
53.6079,133.9
53.6086,287.6
53.6243,319.9
53.6275,581.2
53.6317,441.9
53.6617,575.1
53.6943,78.4
53.7024,111
53.7076,89.8
53.7215,610.2
53.7257,333.2
53.7338,307.8
53.7345,710.9
53.7544,541.8
53.7692,265.9
53.7823,122.3
53.785,90.3
53.787,1108.5
53.7997,18.4
53.8014,102.5
53.802,110.9
53.8057,16
53.8464,156.3
53.8489,122.9
53.8496,113.3
53.8622,264.5
53.8659,740.2
53.8701,136.3
53.8794,88.4
53.9066,223.6
53.9168,138
53.9179,169.4
53.9203,97.3
53.9448,91.2
53.9545,639.9
53.9669,121.6
53.9716,214.8
54.0028,486.3
54.0057,202
54.012,245.6
54.0204,552.7
54.022,393.1
54.0384,333.3
54.0546,93.2
54.0679,148.2
54.0703,190.7
54.0786,65.2
54.0847,313
54.1016,17.8
54.103,221.4
54.1107,342.1
54.1123,88
54.1141,563.5
54.1426,143.2
54.1468,19.1
54.1479,155.1
54.1657,422.9
54.1778,78.3
54.1952,104.2
54.2046,103.4
54.2109,394.4
54.2116,443.3
54.2376,330.7
54.2512,280.9
54.2568,84.1
54.2653,367.6
54.2921,16
54.304,90
54.3055,626.3
54.3367,225.1
54.3437,266.4
54.3811,309.2
54.3982,268.8
54.4002,211.6
54.4025,120.6
54.4259,75.5
54.4336,123.9
54.4528,422.2
54.4531,252.5
54.4761,198.2
54.5498,171.9
54.5507,272.5
54.5742,196.2
54.576,136.5
54.5873,185.1
54.6198,81.6
54.6232,18.8
54.6241,435.1
54.6257,102.7
54.6266,79
54.6401,691.9
54.6421,139.7
54.6441,18.9
54.6571,125.9
54.6602,335.1
54.6692,72.1
54.6764,83
54.678,17.3
54.6783,294.4
54.6812,780.3
54.6967,188.9
54.6977,379.9
54.7073,277.5
54.7288,450.2
54.7468,17.7
54.7506,191.9
54.7564,17.5
54.7601,80.5
54.7686,606.9
54.7736,480.1
54.7912,249.3
54.7917,464.2
54.7933,148.7
54.8159,206.4
54.8275,170.4
54.8533,72.1
54.8673,446.5
54.8808,317.8
54.8841,151.2
54.892,407.6
54.9034,138.4
54.9162,484.7
54.9218,66
54.9381,117
54.9412,260.8
54.945,115.3
54.9468,73.3
54.95,358.8
54.9596,136.5
54.9644,388.8
54.9755,483.3
54.9843,234.1
54.987,113.9
55.0016,73.9
55.002,468.3
55.0196,17.6
55.0206,206.6
55.0355,764.2
55.0363,79.4
55.0434,191.3
55.0478,99.7
55.0494,100.8
55.0641,211.9
55.0668,95.6
55.0695,64.9
55.1013,126.5
55.1184,266.1
55.1221,684.9
55.1316,125.2
55.1435,86
55.1512,78.8
55.1548,233.1
55.1559,126.9
55.1792,72.3
55.1885,126.2
55.2004,727.2
55.2062,118.6
55.2151,828.3
55.2155,140.6
55.2313,206.3
55.2393,159.8
55.2557,161.1
55.2727,347.2
55.2737,359.5
55.2773,276.4
55.2918,283.7
55.296,190.9
55.3046,205.3
55.3152,343.5
55.3484,17.8
55.3635,91.5
55.3674,216.5
55.3685,105.7
55.3767,97.1
55.3819,120.9
55.4077,143.9
55.4106,72.6
55.4227,793.9
55.437,110.1
55.4388,315.6
55.4498,693.1
55.4589,281.1
55.4932,612.5
55.5088,167.9
55.5511,103.4
55.575,90.4
55.5753,347
55.6205,295.1
55.6211,282.4
55.6321,240.5
55.6369,475.7
55.6855,164.8
55.6864,72.9
55.6901,588.6
55.6967,630.9
55.6975,530.7
55.6984,84.1
55.7063,167.9
55.7477,174.2
55.8105,261.2
55.8315,88.6
55.8357,91.3
55.8473,427
55.863,199
55.873,502.3
55.8836,328.1
55.8914,202.2
55.9109,16.6
55.9138,456.4
55.9418,264
55.9463,103.9
55.9496,245.2
55.9522,811.3
55.9871,133.2
55.9988,226.5
56.0146,182.1
56.0302,208.6
56.0342,150.9
56.046,143.3
56.0489,329.1
56.0508,206.5
56.0692,401.3
56.079,303.9
56.0812,17.1
56.0842,83.1
56.1006,90.6
56.1219,326.5
56.1297,207.5
56.1614,185.5
56.1735,88
56.1745,207
56.1846,20.1
56.1864,336.1
56.1968,721.5
56.2028,15.1
56.2344,767.4
56.2368,131.3
56.2397,75.4
56.2421,265.7
56.2453,100.2
56.2621,111
56.2872,88.2
56.3008,317.3
56.3037,322
56.3181,405
56.332,126.6
56.3378,175.8
56.3431,14.7
56.3471,17.4
56.3504,75.3
56.3528,129.9
56.3794,112
56.3819,360.9
56.3928,218.6
56.3969,175.3
56.407,83.5
56.415,104.8
56.4166,602.8
56.4207,85.3
56.43,134.3
56.4489,333.9
56.4496,110.1
56.45,369.4
56.4691,107.8
56.4704,716.9
56.4789,81.6
56.4906,352.6
56.5008,299.3
56.5048,186.6
56.5052,108.8
56.5154,529.3
56.517,483.4
56.5575,15.5
56.5772,477
56.5882,115
56.591,19.5
56.5944,229.8
56.6015,113.5
56.606,368.4
56.6114,102.5
56.6129,420.7
56.6288,213.2
56.6431,204.5
56.647,14.7
56.662,76.3
56.7126,81.6
56.7169,70.1
56.7183,221.7
56.7461,193.2
56.7489,139.6
56.75,235.8
56.7554,104.9
56.7608,78.6
56.77,781.2
56.7861,225.6
56.7874,121
56.7983,105.2
56.8058,154.2
56.813,108.6
56.8197,428.3
56.8206,117.5
56.8302,117.3
56.8349,144.5
56.8395,84
56.8417,742.7
56.8579,471
56.8622,201.1
56.8635,205.5
56.9168,98.5
56.9212,17.9
56.9223,111.5
56.9364,647.1
56.9588,79.7
56.9723,17.8
56.9734,90.4
56.9812,75.3
56.9889,660.2
57.0175,290.6
57.0474,118
57.0563,71.5
57.0604,739.6
57.0647,174
57.0843,178.6
57.1147,124.2
57.1277,516.6
57.1382,424.2
57.161,15.7
57.1882,259
57.2091,204.8
57.2098,823.6
57.2334,18.4
57.2387,127.3
57.2677,77.8
57.2701,177.2
57.2774,156.5
57.279,15.9
57.2794,209.7
57.2871,479.1
57.3133,145.3
57.3241,429.8
57.3278,162.4
57.3395,207.1
57.3437,21.2
57.348,17.4
57.3742,111.3
57.3799,76.4
57.4206,236.9
57.4233,16.9
57.4251,428.5
57.4338,14.8
57.4394,552.3
57.442,127.6
57.4547,127.2
57.4564,147.8
57.463,121.4
57.4831,111.9
57.4874,218.6
57.5014,81.6
57.5019,510.7
57.5089,742.3
57.5117,94.1
57.5198,666.5
57.5458,112.3
57.5526,107.5
57.5563,319.2
57.5574,285.3
57.5666,216.2
57.5976,68
57.6022,89.4
57.6179,96.6
57.6206,528.4
57.6374,133
57.6494,187.3
57.6716,104.8
57.6954,78.5
57.7128,329.1
57.7134,379.6
57.7206,81.7
57.7211,84.6
57.7259,297.4
57.7453,173.3
57.7489,368.2
57.7619,78.3
57.773,177.9
57.7776,138
57.7992,99.4
57.8224,751.5
57.8317,392.6
57.8525,128.1
57.8718,299.6
57.8844,200.3
57.8904,15.1
57.9004,133.7
57.9377,16.4
57.9657,104.1
57.9903,218.3
58.0277,67.6
58.0313,427.3
58.0532,492.5
58.0623,417
58.1113,614.9
58.1117,135.3
58.1271,201.5
58.1285,91.4
58.1308,743.2
58.165,83.4
58.1776,411
58.2003,470.5
58.2028,379.4
58.2283,16.1
58.2455,122.3
58.2771,181.2
58.2861,783.6
58.2917,17.5
58.3087,72.3
58.3307,118.8
58.3599,122.7
58.3683,421.5
58.4017,93.8
58.4042,131
58.4124,115
58.4128,91
58.4234,400.4
58.4373,715.7
58.4482,66.3
58.4623,19.9
58.4731,126.6
58.4743,105
58.4761,86.2
58.5029,227.3
58.5068,131.3
58.5203,297.9
58.5473,151.6
58.5614,444.5
58.571,237.9
58.5714,77.2
58.5735,171.7
58.6055,142.2
58.6087,161.1
58.6192,126.6
58.6198,178
58.6228,129.2
58.6266,346.5
58.6374,271.7
58.6415,205
58.6423,22.8
58.6462,93.3
58.6549,72.1
58.6623,707.4
58.6658,359.7
58.6774,89
58.6871,702.9
58.701,140.9
58.7053,177.8
58.7291,140.4
58.7438,97.9
58.7518,157
58.7579,446.6
58.762,181
58.7736,153.9
58.7809,223.2
58.7827,221.9
58.7875,119.3
58.7885,288.9
58.7911,402.6
58.7975,73.4
58.8035,16.4
58.8068,426.6
58.8092,164.9
58.812,84.1
58.8172,170.4
58.8296,169.6
58.8305,677
58.8406,18.3
58.8441,77.6
58.8669,239.5
58.8885,446.4
58.889,117.3
58.9002,17.2
58.9131,160
58.9391,254
58.9445,141.1
58.9459,363.9
58.9492,92.7
58.952,419.1
58.9625,111.1
58.9736,119.4
58.984,715.1
59.019,264.4
59.0257,339.6
59.0695,109.6
59.1093,79.6
59.1202,271.2
59.1564,258.4
59.1658,18.5
59.167,178.6
59.1825,395.5
59.1855,89.7
59.1883,118
59.201,253.4
59.2023,175.7
59.2048,411.1
59.2085,74.7
59.2109,17.2
59.2142,390.9
59.2154,316.9
59.2265,192.6
59.2287,887.7
59.2488,366
59.2645,246.8
59.2704,158
59.2708,69.9
59.2876,146.6
59.3012,136.4
59.3269,426.1
59.3322,122.3
59.3757,186.2
59.3911,249.5
59.4006,89.7
59.4039,323.7
59.4152,523.1
59.4176,73.9
59.4194,447.1
59.4221,148.7
59.4252,440.9
59.436,558.6
59.4622,370
59.4635,229.1
59.4814,872.4
59.4899,87.6
59.493,305
59.5082,85.3
59.5222,87.4
59.5236,388.9
59.5323,77.7
59.5363,137.4
59.5407,366.1
59.5691,15.5
59.5812,324
59.5931,337.7
59.5963,535.2
59.6178,146.4
59.6193,184.4
59.6462,117.7
59.6502,547.3
59.6561,577.7
59.6595,77.8
59.6607,94.5
59.6731,261.1
59.674,79.9
59.6779,229.4
59.6832,78.6
59.6908,367.2
59.7226,99
59.7504,197.5
59.7588,72.1
59.777,259.4
59.8054,212.8
59.844,463.1
59.8595,105.6
59.8653,148.6
59.8893,105
59.9026,14.9
59.9187,335.2
59.9222,100.5
59.9234,18.3
59.9275,176.5
59.9297,142.4
59.9334,258.4
59.9421,73.9
59.9512,17.4
59.9632,168.2
59.9727,88
59.9732,465.7
59.9883,77.9
60.0278,109.8
60.035,450.8
60.0389,209.6
60.0468,97.6
60.0487,657
60.073,170.7
60.0886,507.6
60.1035,277
60.1055,101.3
60.1178,87.5
60.1196,178.2
60.1289,495.1
60.1345,228.4
60.1557,109.1
60.1661,85.4
60.1902,647.8
60.199,75.2
60.2065,551.6
60.2326,415.4
60.2426,77.8
60.268,244.1
60.2855,366.4
60.2861,295.8
60.2998,127.9
60.3021,16.6
60.3142,135.8
60.3232,81.2
60.3302,18.3
60.3332,870.1
60.3348,863
60.3426,193.5
60.343,186.3
60.3563,110.3
60.3584,233.1
60.3612,16.9
60.3627,85.3
60.3759,485.4
60.384,136.5
60.3902,310.7
60.3953,207.8
60.4134,297
60.4288,89.4
60.4464,16.4
60.4521,86.9
60.4555,198.5
60.4996,414.2
60.5339,133.2
60.5357,16.5
60.5444,77.8
60.5458,123.1
60.5522,63
60.556,419.5
60.584,847.8
60.5879,86.9
60.5997,20
60.602,18.4
60.6025,80.2
60.6244,16.8
60.6346,135.8
60.6355,827.3
60.6412,187.4
60.6549,131.4
60.658,212.2
60.6677,338.3
60.6706,157.3
60.6753,111.8
60.6809,404.8
60.6811,327.1
60.6846,238.3
60.7001,464.3
60.701,16.4
60.7391,345.7
60.7399,460.9
60.744,433.5
60.75,21.1
60.7587,170.7
60.7663,147.3
60.7725,150.5
60.7749,16.7
60.7876,462.8
60.7981,17.8
60.8052,183.9
60.8095,186.6
60.8295,71.1
60.8348,71.6
60.8392,88.4
60.8441,304.2
60.8477,166
60.8765,437.5
60.8798,166.4
60.8974,369.9
60.9096,96.8
60.9336,18
60.9361,280.2
60.9612,234.5
60.9665,73.7
60.9752,123.2
60.9794,313.7
60.9805,167.7
61.0481,180.4
61.0661,114.2
61.0806,89.8
61.1403,156.2
61.1669,430.8
61.18,150.5
61.1965,210.3
61.2152,571.6
61.2214,598.3
61.2439,73.9
61.2478,21.1
61.2591,264.1
61.2868,288.4
61.2897,185.7
61.2908,99.9
61.301,120.8
61.3169,643.4
61.3173,166.4
61.3282,552
61.3369,100.6
61.3405,459.4
61.3488,324.3
61.3511,327.9
61.3554,78.1
61.3558,277.6
61.3574,285.4
61.3939,294
61.4092,78.1
61.4263,111.4
61.4299,72.8
61.4305,138.4
61.4442,367.2
61.4471,116.2
61.4587,962.8
61.4891,98.6
61.5017,77.7
61.5494,128.1
61.5543,354.5
61.573,134.8
61.5764,187.4
61.5776,170.8
61.5835,600.7
61.5863,257.2
61.5902,808.5
61.5932,369
61.6478,132.4
61.6639,95.2
61.6689,134.4
61.6762,382.8
61.6914,85.4
61.6967,564.5
61.7077,428.8
61.7217,110.6
61.7725,383.8
61.7778,503.4
61.7862,323.1
61.8296,129.3
61.8684,157
61.8732,459
61.8863,120.2
61.8904,83.2
61.9043,457.8
61.9104,106.9
61.9235,188.4
61.924,685.6
61.9244,88.1
61.9265,216.1
61.9676,153.5
61.9685,150.8
62.0039,16.4
62.0117,87.2
62.0124,856.5
62.0264,140.6
62.0338,17.3
62.0416,354.7
62.0469,120.6
62.0521,388.7
62.0561,167.3
62.0684,242.1
62.069,357.2
62.0826,99.1
62.0901,433.7
62.0913,107.5
62.1145,480.4
62.1171,221.1
62.1199,74.3
62.1279,531.3
62.1434,270.7
62.1524,233.9
62.1535,86.5
62.1553,285.1
62.1678,96.7
62.1695,86.8
62.1899,417.5
62.195,18.4
62.1955,823.7
62.2176,266.4
62.2225,189
62.2248,145.3
62.2313,17.4
62.2492,18.8
62.2499,16.9
62.2511,594.6
62.2699,128.7
62.2976,263.4
62.3216,142.5
62.3294,191.2
62.3483,163.9
62.3571,292.5
62.3795,184.4
62.38,422.3
62.3836,105.2
62.3995,76.4
62.4007,16.9
62.4047,703.1
62.4158,450.5
62.4179,85.5
62.4195,18.7
62.4229,163.2
62.4451,564.3
62.4765,653.8
62.5016,122.9
62.5046,437.7
62.505,76.1
62.5068,106.1
62.5133,151.1
62.5144,283.1
62.5241,23.7
62.542,180.9
62.5446,89
62.5474,213.8
62.5499,99.3
62.59,176.9
62.6025,409
62.6399,17.7
62.6429,167.6
62.6621,469.1
62.6739,273.6
62.6835,76.2
62.6879,142.1
62.6932,84.6
62.7137,212.9
62.7274,146.1
62.7513,152.1
62.7636,236.3
62.7806,18
62.7837,134.2
62.7899,119.4
62.7996,331.6
62.8337,118.5
62.8385,105.4
62.8412,324.1
62.8571,743.1
62.8693,102.6
62.8705,337.3
62.88,78.9
62.9042,166
62.9223,191.9
62.9315,94
62.9514,191.6
62.9587,89.6
62.9881,132.4
62.9938,735.6
62.9953,94.6
63.0112,84.5
63.0216,239.5
63.0511,626.7
63.0871,467.2
63.0956,142.7
63.1183,353.8
63.1281,674.1
63.1319,116
63.1738,392.2
63.1809,164.1
63.188,18.3
63.1961,203.8
63.1971,122.3
63.2377,269.3
63.2408,81.7
63.2615,179.5
63.288,145.7
63.2918,82.3
63.2933,244.2
63.3061,94.6
63.3071,86.7
63.3096,717.7
63.3168,196.2
63.3205,85.2
63.321,20.1
63.3444,134.6
63.3473,560.8
63.3864,93.8
63.3892,18
63.4018,15.8
63.4075,388.7
63.4088,206.6
63.4136,21
63.4156,200.1
63.4208,76.1
63.4219,195.4
63.424,756.9
63.4289,567.4
63.4309,80.8
63.4563,325.9
63.4633,125.4
63.4978,102.8
63.5022,223.5
63.5093,214
63.5106,135.9
63.5179,100.7
63.5475,499.5
63.5592,169.5
63.5613,466.7
63.563,289.8
63.5671,107
63.5781,298.6
63.5876,730.3
63.5948,298.6
63.5989,140.9
63.6124,669.5
63.6803,341.1
63.6828,162
63.6887,101
63.6894,15.5
63.6945,17.5
63.7017,84.2
63.707,84.2
63.7129,69.7
63.729,169.3
63.7312,539.9
63.7371,84.5
63.7386,151.4
63.7411,499.5
63.7438,141.2
63.7464,147.1
63.7487,18.8
63.7527,131.6
63.7616,17.8
63.8065,162.8
63.83,770.2
63.8391,163.2
63.848,529.5
63.852,116.7
63.8833,148.2
63.8867,81.7
63.9126,17.2
63.9156,261.9
63.9247,123.2
63.9319,521.9
63.933,17.5
63.9712,131.6
63.9961,94.8
63.9997,1014.5
64.0091,253.4
64.0411,188.2
64.042,95.3
64.0878,152.6
64.0892,351.9
64.0925,143
64.0959,278.1
64.0983,152.3
64.0992,420.1
64.1077,16.2
64.1092,115.8
64.1231,95.6
64.1244,659.7
64.1296,404
64.1552,158.9
64.1717,415.8
64.1789,362.1
64.1896,89
64.1903,349.3
64.1919,177.8
64.1947,549.7
64.2021,16.9
64.2323,125.4
64.2538,392.8
64.2562,867.5
64.257,92.8
64.2635,102.6
64.2808,888.5
64.309,95.3
64.3512,128.5
64.3781,155.7
64.3857,230.5
64.3864,84.7
64.4187,79.2
64.4269,81.8
64.4293,135.5
64.4373,76
64.4721,15.5
64.4853,17.9
64.4873,379.7
64.5067,184.9
64.5856,16.8
64.6046,510.9
64.6094,377.7
64.6534,90.4
64.6592,292.4
64.6599,341.4
64.6636,78.5
64.6792,120.6
64.6859,191.4
64.711,345.8
64.7171,218.6
64.7309,212.8
64.7361,197.3
64.7863,86.6
64.7976,275.9
64.8007,91.1
64.8055,287.3
64.8167,76.7
64.8234,88.7
64.8319,85.7
64.8626,20
64.8743,125.9
64.94,72.5
64.9572,75.7
64.9583,407.4
64.9726,15.5
64.991,223.7
64.9942,515.5
65.0151,649
65.0194,471.2
65.0294,291.8
65.0316,26.8
65.0377,294.2
65.0559,18.5
65.0676,233.3
65.0717,211.3
65.074,93.6
65.0909,505.7
65.0986,16.1
65.1139,131.7
65.1273,151.9
65.14,389.3
65.1446,18
65.1456,190.3
65.1469,119.9
65.16,290.3
65.1736,114.5
65.1801,197
65.2016,245.4
65.2071,377.3
65.2159,76.9
65.2314,575.3
65.2352,253.4
65.243,91.6
65.2675,83.6
65.2997,191.7
65.3098,71.4
65.3298,363
65.3432,447.9
65.3442,18.6
65.348,505.9
65.3487,307.2
65.3765,610.3
65.3853,87.5
65.3931,112.5
65.403,599.7
65.4089,230.5
65.4464,202.1
65.4709,106.5
65.4743,273.3
65.4833,18.5
65.4902,93.1
65.5034,167.7
65.5042,313.2
65.5098,69.7
65.512,837.6
65.5147,363
65.5199,432.1
65.533,359.6
65.5333,295.5
65.534,155.8
65.5459,146.9
65.5557,201.3
65.5595,20.7
65.5652,143.4
65.5852,159.8
65.6099,96.2
65.6166,157.6
65.6174,86.1
65.6279,225.7
65.6374,83.5
65.6441,118.1
65.664,622.6
65.6716,504
65.68,103.4
65.6953,362.8
65.7246,216.2
65.7325,363
65.7385,461.7
65.745,507.5
65.7546,363.4
65.7634,16.7
65.8002,127.9
65.818,156.6
65.8365,99.3
65.8616,204.7
65.8655,578.9
65.8719,157.3
65.8725,110.4
65.91,217.7
65.9153,626
65.9348,95.5
65.9662,240.9
65.9888,400.4
66.0061,76.2
66.022,770.5
66.0434,84.3
66.0556,81.9
66.0643,84.7
66.0718,130.5
66.0761,17
66.0823,77.7
66.0853,153.9
66.122,378.3
66.1608,101.7
66.1818,133.1
66.1884,221.5
66.1965,270
66.2045,397.7
66.22,280.8
66.2217,495.4
66.2255,472.1
66.239,262.9
66.2407,18.9
66.244,119.7
66.2459,199.8
66.25,337.2
66.2575,117
66.2605,159.2
66.2763,522
66.2875,160.3
66.3094,85.5
66.3146,353
66.3175,162.5
66.3285,300
66.3375,158.5
66.3382,17
66.3518,376.7
66.386,80.7
66.3984,224.3
66.4215,133.9
66.4239,17.5
66.4314,412.8
66.448,175.9
66.4686,544.5
66.4908,19.2
66.4925,187.5
66.5095,133.4
66.5839,300.5
66.6251,687.3
66.6359,579.7
66.6925,82
66.712,418.1
66.7134,89.4
66.7284,283.6
66.7289,75.9
66.7352,769.3
66.7421,151.9
66.7483,134
66.7624,436.8
66.763,85
66.8083,170.5
66.8212,603.3
66.8581,211.7
66.8626,438.4
66.8672,223.2
66.8693,164.7
66.8893,107.1
66.8927,136.1
66.9094,617.6
66.9127,83.6
66.9317,116.7
66.934,77
66.9392,91.5
66.9406,351
66.9438,151.1
66.9494,169.6
66.9499,233.1
66.9958,80
67.0048,123.7
67.0541,182.8
67.0687,217.9
67.0806,723
67.0934,168.5
67.0948,135.5
67.0972,280.4
67.0998,87.7
67.1037,388.9
67.1119,82.2
67.125,18.3
67.1319,119.5
67.1437,67
67.1443,185.4
67.1746,82.2
67.1764,727.7
67.1873,113
67.2225,20.1
67.2331,265.8
67.2441,959.5
67.2532,288
67.2539,86.3
67.2636,530.9
67.2849,15.9
67.2886,296.3
67.3007,79.1
67.3125,463.4
67.319,77.4
67.3423,290.8
67.3602,83.1
67.3815,614.6
67.3995,440
67.4118,115.9
67.4418,659.2
67.4521,128.7
67.4554,185.6
67.4637,476.3
67.4938,422.5
67.5131,220.6
67.5342,298.9
67.5408,104.6
67.542,830.1
67.5453,17.4
67.5609,78.9
67.5695,118.2
67.5834,253
67.5979,188
67.6112,235.1
67.625,736.1
67.6521,87.3
67.6576,683.1
67.6702,216.5
67.6735,294.7
67.6855,303.9
67.6994,328
67.7091,127.3
67.7137,462.2
67.7336,179.3
67.7686,236.6
67.7858,119.5
67.7952,345.8
67.7974,17.1
67.8087,196.6
67.8199,89.4
67.834,367.4
67.8595,74.7
67.8666,84.9
67.8797,78.5
67.8827,132.7
67.893,527.5
67.9023,728.3
67.9105,727.6
67.9363,74.3
68.0173,85.4
68.0401,336
68.0517,18.1
68.0569,344.2
68.0763,175
68.1289,178.2
68.1313,16.6
68.1347,78.1
68.1368,324.8
68.1509,148.5
68.1701,175.5
68.1746,697.4
68.1755,371
68.1953,314.6
68.2012,284.5
68.2033,89.4
68.2038,144.7
68.2058,315.4
68.2172,81.6
68.2316,178.3
68.2582,376.4
68.2623,111.5
68.292,490.7
68.3162,113
68.3423,560.4
68.3527,818.3
68.3595,683.9
68.3627,18.9
68.3647,373
68.3758,388.8
68.3847,470.2
68.3878,116.4
68.3931,166.5
68.4104,437.1
68.4161,465.2
68.4165,691.4
68.4253,19.2
68.4304,866.5
68.4347,15.2
68.4429,266.9
68.445,22.1
68.49,492.6
68.5122,18.3
68.5134,311
68.5239,297
68.5333,202.4
68.539,20.1
68.5806,232.3
68.5878,229.5
68.6335,132.9
68.6444,157.9
68.6509,401.9
68.6516,103
68.6548,97.1
68.6676,393.1
68.6818,157.7
68.6979,88.9
68.7276,178.1
68.7327,379.4
68.7499,231.5
68.7857,496.2
68.7941,17.5
68.8146,95.6
68.8357,354.2
68.8424,90.4
68.8458,105.1
68.8532,364.6
68.906,430.7
68.9144,372.2
68.918,532
68.9271,18.3
68.9294,91.8
68.932,263
68.9498,117.7
68.9781,766.9
68.9835,339.1
69.0325,544.7
69.0411,501.6
69.0505,683
69.0616,19.2
69.0913,360.8
69.0999,766
69.1214,510.4
69.1553,344.3
69.1672,86.6
69.193,195.7
69.1949,507.8
69.2025,168.7
69.2096,202.3
69.2247,84.6
69.2365,17.6
69.2655,195.6
69.2678,82.3
69.2844,82.1
69.2966,109.2
69.2993,389.3
69.3184,143.4
69.3316,17.6
69.353,310.9
69.3597,166
69.3817,368
69.387,81.6
69.388,736.8
69.4047,377.7
69.4186,558.1
69.4328,106.7
69.4797,128.7
69.517,74.4
69.5442,418.9
69.5698,86.7
69.5948,88.2
69.6148,126.7
69.6229,150.5
69.6308,90.8
69.6548,18
69.6688,81.2
69.6704,18
69.7025,17.2
69.71,686.3
69.7124,101.9
69.7691,274
69.7965,436.8
69.8041,145.8
69.8148,658.6
69.8307,498.2
69.8409,247.4
69.8635,86.6
69.9272,76.4
69.9299,79.2
69.9411,15.3
69.9582,397.3
69.9637,202.3
69.9647,614.1
69.9732,163.7
69.9814,155.5
69.985,143.1
70.0149,569.9
70.0345,16.7
70.0446,81.3
70.0601,128.1
70.0609,83.9
70.065,759.7
70.0917,548.7
70.1508,69.6
70.1559,550.2
70.1642,337.6
70.1676,135.9
70.1707,771.2
70.1808,114.3
70.2074,145.4
70.2684,301.6
70.2937,96.8
70.3179,165.2
70.3275,15.2
70.3332,19.7
70.3456,206.8
70.372,481.1
70.3755,259.1
70.3856,104.3
70.4157,728.3
70.4168,524.7
70.4291,456.2
70.4608,130.8
70.47,430.4
70.4801,18.7
70.5015,285.6
70.5137,480.6
70.526,330.9
70.5311,342.3
70.5977,489.8
70.6082,213.3
70.6137,109.6
70.6336,392.5
70.6395,18.1
70.6404,585.1
70.6552,692.8
70.6599,183.2
70.6635,314
70.7198,621.9
70.7231,705.8
70.7236,15.9
70.7317,136.2
70.7462,17.1
70.7469,168.2
70.7768,426.1
70.7876,403.3
70.7953,398
70.8331,76
70.8483,138
70.8862,518.4
70.899,16.8
70.9015,197.8
70.9045,123.8
70.9102,250.2
70.9219,154.9
70.9475,118.1
70.981,97.9
70.9905,71.4
71.0031,96.9
71.0049,542.8
71.0371,154.8
71.0491,351.4
71.0618,70.6
71.0727,177.1
71.0897,17.8
71.0914,665.8
71.096,16.1
71.1101,593.3
71.1229,391
71.1306,155.6
71.1352,155.1
71.1493,175.2
71.1657,88.9
71.1839,97.2
71.1848,567.7
71.2028,18.1
71.2169,139.2
71.2422,386.8
71.2442,84.9
71.2603,401
71.2612,86.6
71.2683,214
71.2965,90.2
71.314,347.6
71.3163,142.8
71.3199,17.9
71.3604,128.7
71.3982,79.4
71.4094,121.1
71.4137,239.4
71.4249,74.7
71.4278,149.8
71.4696,460.3
71.4722,399.5
71.4769,394.1
71.4818,180.5
71.4938,145.2
71.4991,347.1
71.5059,610.7
71.5125,345.9
71.5264,96.8
71.538,218.9
71.5622,87.9
71.5677,603.1
71.574,320.7
71.5789,134.5
71.5821,881.9
71.5897,711
71.5931,211.1
71.5987,710.6
71.6207,475.5
71.6666,309.4
71.7137,82.4
71.7241,400.9
71.7404,824.3
71.7425,118.5
71.766,938.7
71.8076,22.8
71.8419,326.3
71.8656,78
71.9321,366.1
71.9339,567.3
71.9665,92.9
71.9937,1013
72.0028,76.3
72.014,75.9
72.0185,364.8
72.0209,91.9
72.0512,174.1
72.0806,924.8
72.0872,20.3
72.115,269.2
72.1175,20.4
72.1181,200.7
72.1259,87.6
72.1339,554.5
72.1385,91
72.1482,471
72.1767,472.6
72.1949,105.8
72.2107,222.8
72.2136,732.9
72.2149,361.4
72.2155,139.3
72.217,174.9
72.2188,109.6
72.2197,220
72.2214,721.9
72.2227,1052
72.2237,819.7
72.2241,952.8
72.2243,964.3
72.2252,1034.4
72.2258,1176.3
72.2262,677.2
72.2277,2110.3
72.229,3082.4
72.2299,1749.2
72.2312,3361.4
72.2322,3076.6
72.2328,3291.5
72.2338,3181.8
72.2344,2156.1
72.2351,3332.4
72.2358,6540.2
72.2372,2249.9
72.2385,950.7
72.2401,2504.7
72.2412,1523.9
72.2419,736.2
72.2439,548.7
72.2443,919.4
72.2473,545.2
72.2554,347.1
72.2811,81.7
72.2954,159
72.3055,350.7
72.3106,277.9
72.3345,17
72.3372,17.2
72.3733,86.7
72.3876,18.9
72.4323,166.4
72.4688,547.9
72.472,135.3
72.5175,15.6
72.5279,92.3
72.5346,196
72.556,151.1
72.5573,84.6
72.6138,156.9
72.6177,16.9
72.6368,156
72.6448,218.8
72.6478,15.3
72.6527,84.1
72.6566,20.2
72.6933,386.5
72.7365,168.1
72.7385,98.5
72.743,183.7
72.7461,353.9
72.7557,242.5
72.794,91.8
72.8556,112.9
72.8575,144.2
72.859,602.1
72.8608,76.6
72.9092,585.3
72.9202,694.9
72.924,386.3
72.9483,459.2
72.9522,133.8
72.9633,77.9
72.9861,126.5
72.9875,463
73.0087,75.4
73.0224,190.6
73.0279,225.2
73.0304,477.2
73.0322,350.3
73.0347,91.3
73.0447,753.7
73.0762,466.5
73.0798,781
73.0957,133.6
73.0997,16.7
73.1097,180.2
73.1332,139.7
73.1424,456.8
73.1496,138.2
73.1534,118.6
73.1684,430.1
73.1818,118.7
73.2131,380.1
73.2328,151.2
73.242,401.9
73.2496,185.8
73.2775,589
73.2863,197
73.2882,561.7
73.299,205.1
73.3034,15.9
73.3174,448.3
73.3188,116.6
73.3542,731.9
73.3637,518.4
73.3707,87.8
73.3714,138.8
73.3837,78.2
73.4127,158.8
73.4341,282.1
73.4459,390.9
73.4629,486.9
73.4652,82.6
73.5186,16.9
73.5224,79.8
73.5297,17.2
73.5302,187.2
73.5508,599.7
73.5853,73.5
73.5874,703.5
73.5969,120.3
73.6027,149.9
73.6364,16.7
73.6381,327.7
73.6697,324.5
73.6765,89.2
73.7025,378.9
73.742,881.6
73.7494,90.5
73.757,336.1
73.7634,620.5
73.8269,77.7
73.8362,19.5
73.8474,207.2
73.8704,236.2
73.8721,17.6
73.8768,170.5
73.8827,349.9
73.8878,109.8
73.8915,91.6
73.8924,126.6
73.9025,132.9
73.9253,118.5
73.9297,334.7
73.9321,88.2
73.9465,223.7
73.9818,710.3
73.9895,198.7
74.0184,99
74.0417,17.6
74.0462,329.1
74.0599,4041.3
74.0631,15.8
74.0757,91.8
74.0879,94.1
74.0923,595.7
74.0933,18
74.0962,272.2
74.1317,78.3
74.1634,108.4
74.1805,502.6
74.2075,475.5
74.2113,128.9
74.2265,372.4
74.2461,83.1
74.2805,475
74.2965,17.8
74.3035,385.6
74.3095,79.5
74.3297,88.1
74.342,176.2
74.3498,237.9
74.4004,273
74.4112,907.8
74.4151,357.4
74.4176,76.4
74.433,17.9
74.4474,399.7
74.4497,89.2
74.4522,580.2
74.4611,112.7
74.4644,828.3
74.4687,115.4
74.4995,191.4
74.5026,82.5
74.5113,169.7
74.5391,249
74.5478,134.4
74.5563,156.7
74.5648,555.8
74.6022,166.3
74.6085,772.7
74.6234,627
74.625,75.3
74.6261,505.9
74.6381,340.6
74.6597,508.8
74.6637,430.6
74.6676,279.6
74.6711,360.3
74.6752,17.5
74.6923,178
74.7122,102.8
74.7434,78.8
74.746,65.9
74.7563,151.4
74.7828,897.2
74.7854,19.7
74.7961,328.1
74.81,84.6
74.8156,17.3
74.8175,90.6
74.8196,138.3
74.8273,451.8
74.8292,200.4
74.8554,132.9
74.8582,759.2
74.8645,124.9
74.8799,198.7
74.8828,458.4
74.89,77.3
74.899,207.2
74.9008,767.3
74.9379,103.8
74.9577,217.3
74.9704,120.4
74.9728,86.8
74.9769,253
74.9817,407.5
74.9922,153.1
75.0172,206
75.0403,76.3
75.0422,18.7
75.0565,302.7
75.0674,129.9
75.1342,98.6
75.1365,179.2
75.1433,119.7
75.1477,116.3
75.1561,369.1
75.1736,93
75.1948,203.2
75.2002,21.1
75.254,277.9
75.2565,17.4
75.2718,74
75.2829,19.5
75.2949,17.3
75.2959,17.6
75.3607,401.1
75.3674,535.3
75.3708,172.7
75.4014,115.8
75.4151,270.4
75.4157,100.1
75.4335,92
75.4425,18.7
75.472,190.2
75.5433,19.9
75.5456,160.7
75.5487,83
75.5611,145.5
75.6361,115.6
75.6631,134.4
75.6766,129
75.7094,84.8
75.7323,18.2
75.7328,174.5
75.7553,111.9
75.77,216.5
75.7755,75.3
75.7804,713.2
75.8253,841.2
75.828,237.8
75.8288,339.2
75.8515,212.2
75.8797,135.2
75.8827,495.7
75.9761,351.3
76.0241,208.5
76.0423,141.1
76.0762,361.3
76.0787,159.1
76.1162,17
76.1451,518.7
76.1599,154.1
76.1658,428
76.1929,641.1
76.2259,432.2
76.227,332.4
76.2295,290.1
76.2475,614.1
76.261,102.2
76.2694,326.1
76.2816,142
76.288,363.4
76.2905,748.9
76.2947,381.7
76.3174,169.8
76.3324,188
76.3589,81
76.4123,80.4
76.4391,18.7
76.4518,316.5
76.473,487.6
76.4793,429.3
76.4838,417.1
76.4978,122.4
76.5022,138.7
76.5111,105
76.5181,323.3
76.5272,99.4
76.532,203.6
76.5327,78.2
76.5698,202.3
76.5716,21.8
76.6079,112
76.6153,434.2
76.6214,142
76.6269,194.1
76.6637,529.6
76.6661,226.3
76.6767,566.5
76.6873,451.3
76.69,553.1
76.7436,388.6
76.7528,336.4
76.7555,262.1
76.8005,451.2
76.817,113.3
76.8466,146.7
76.8975,88.3
76.9166,17.6
76.9362,489.4
76.943,328.3
76.9629,181.8
76.9723,18
76.987,160.8
76.9944,122.8
77.0216,85.7
77.0311,209.8
77.0318,137.1
77.0348,484.3
77.0358,403.5
77.0376,219.5
77.0384,137806.3
77.055,101.7
77.0747,95.9
77.0961,92.6
77.1175,75.2
77.1261,127.8
77.1414,87.7
77.1426,242.1
77.1433,166.9
77.1697,92.4
77.172,78.6
77.1746,133.2
77.2176,88
77.2313,16.4
77.2403,100.4
77.2511,205.1
77.2704,811.7
77.2826,17.7
77.3252,72.6
77.3447,85.3
77.3711,128.5
77.3765,90.7
77.3874,708.9
77.4116,84.1
77.4189,91.2
77.4554,100
77.4619,579
77.4656,342.1
77.4698,631
77.4978,698.3
77.5064,158
77.5236,141.4
77.5308,89.5
77.5497,121.6
77.5573,99.9
77.5736,240.8
77.5758,549.8
77.5856,20.8
77.6117,725
77.6282,18.9
77.6732,18.3
77.6833,235.4
77.7353,81.5
77.7391,16.3
77.748,79.8
77.7486,363.4
77.7748,81.6
77.7793,473.5
77.8156,540
77.8251,207.6
77.8727,581.7
77.8895,21.1
77.8986,191.2
77.8996,85.5
77.9263,551.4
77.9427,152.3
77.9443,78.8
77.945,75.8
77.9664,223.5
78.0114,446
78.0268,348.3
78.0418,5338.1
78.0476,682.5
78.0539,175.3
78.0578,112.9
78.0747,19.8
78.0784,78
78.136,541.5
78.1389,82.6
78.1539,83
78.1625,97.6
78.1842,199.2
78.1865,91
78.1926,94.7
78.2487,77.5
78.2545,17.1
78.2795,506.3
78.3112,559.8
78.3138,16.4
78.3194,89.4
78.3454,20.1
78.3586,72.8
78.4084,134.2
78.4138,903
78.4252,135.5
78.4405,99.4
78.4599,226.6
78.4802,19.3
78.6069,394.7
78.6281,216.9
78.6564,89.9
78.6599,113.5
78.6809,368.9
78.69,371.1
78.692,485.3
78.7575,120.7
78.7826,635.4
78.839,283.9
78.8632,88.4
78.8801,87.2
78.892,118
78.8924,121.7
78.9081,431.5
78.9158,128
78.976,143.8
78.9779,113.6
78.9797,156.5
78.9858,80.9
78.9969,134.3
79.0281,299.7
79.0322,18.4
79.0541,2905.9
79.0795,83.1
79.104,164.6
79.143,16.6
79.1466,320.2
79.1888,742.1
79.1949,72.9
79.2161,182.8
79.2168,176
79.2264,1255.5
79.2506,572.8
79.2828,168.4
79.3101,113.8
79.3122,171.6
79.3194,286.4
79.3285,246.3
79.3814,277.9
79.3827,79.4
79.3928,21.6
79.439,549.2
79.4646,469.9
79.4692,179.2
79.4706,17.3
79.486,97.6
79.4881,149.9
79.539,102.8
79.5726,219.8
79.5792,352.1
79.5825,132.9
79.5959,79.7
79.6181,219.3
79.6554,700.3
79.6706,138.7
79.685,440.1
79.7776,84.6
79.8139,76
79.8317,94
79.8421,121.1
79.8443,136.8
79.8944,530.7
79.9411,352.2
79.9502,102.5
79.9517,113.2
79.956,123.4
79.9622,720.9
79.9633,101.1
79.9703,450
79.98,169.3
79.9806,215.2
80.0054,383.4
80.0063,428.9
80.071,142.9
80.0739,387.8
80.0789,89.8
80.0867,386.4
80.0908,686.3
80.1145,164
80.1268,85.4
80.1347,140.6
80.139,281.8
80.1711,484.9
80.182,94.3
80.1913,102.8
80.2062,685.9
80.2155,108.7
80.2401,205.5
80.2457,555.6
80.2737,485.5
80.2822,223.3
80.2949,284
80.3294,153.8
80.3521,118.4
80.363,85.3
80.37,203.4
80.3811,17.8
80.3845,18.4
80.3937,274.9
80.4251,89
80.4404,375
80.4464,18.4
80.4569,97.6
80.5038,396.7
80.5198,448.4
80.5497,488.6
80.5691,85.1
80.586,17
80.5872,84.1
80.5912,78.5
80.6018,72.5
80.6039,532.9
80.6073,374.3
80.6141,311.3
80.6367,317.2
80.6444,628.9
80.6468,16.8
80.6505,1080
80.6716,497.2
80.6772,457.4
80.7029,101.6
80.706,790.6
80.7144,367.1
80.7358,258.7
80.7438,400.6
80.7554,117.4
80.8082,530.9
80.811,19.7
80.8152,107.2
80.8173,113.2
80.8239,675
80.8286,197.4
80.8418,120.6
80.8531,19.4
80.8662,378
80.8913,276.1
80.8967,17.6
80.9167,771.5
80.9384,341.9
80.9477,52983.8
80.9491,83.3
80.9571,352.1
81.0207,298.5
81.0361,15.9
81.0519,158.2
81.0698,1162.6
81.0903,242.3
81.0913,763.6
81.111,208.4
81.117,168.9
81.1443,335
81.1488,16.2
81.1528,1006.9
81.153,975.1
81.1543,407.7
81.1565,1596.5
81.1572,222.3
81.1596,18.8
81.1608,112.4
81.1667,77.7
81.1961,630.6
81.2189,627.4
81.2256,339.6
81.2315,397.9
81.2375,100.9
81.2401,82.3
81.2433,197.6
81.2573,387.8
81.2749,136.1
81.3122,135.1
81.3323,411.9
81.3607,378.7
81.3911,537.5
81.3981,266.8
81.4923,270.7
81.4925,269.1
81.4988,585.8
81.5042,582.3
81.5295,143.3
81.5396,84.9
81.5458,18.1
81.5473,142.2
81.5658,75.1
81.6247,143
81.6471,637.8
81.6572,637.2
81.6586,339.6
81.6638,279.4
81.6834,176.3
81.7254,189
81.7261,216.8
81.7409,86.2
81.7455,86.8
81.7474,427.3
81.7505,79.7
81.7651,122.8
81.775,141.7
81.7892,90.5
81.7969,380.3
81.8447,16.2
81.8585,294.7
81.8925,19.9
81.9366,807.7
81.9464,23.2
81.9657,18.9
81.979,16.3
81.9872,736.5
82.0388,534.5
82.0526,680.2
82.0732,25.5
82.1027,21
82.1145,68.3
82.124,574
82.1639,118.8
82.1759,769.2
82.1982,540.8
82.2008,232.8
82.2032,505.1
82.2044,101.6
82.209,19.4
82.2207,96.2
82.2211,104
82.2466,715.5
82.2835,84.9
82.2863,483.3
82.3092,137.5
82.3163,94.4
82.3197,510.9
82.329,210.4
82.3297,90.9
82.3411,21.1
82.3577,110.4
82.3764,188
82.4039,552.6
82.4184,89.1
82.4337,246.1
82.4663,746.9
82.4697,126.4
82.5199,266.3
82.5744,386.1
82.58,163.9
82.5821,18.4
82.5855,386.2
82.5862,174.3
82.6091,86.3
82.6224,96.2
82.6264,139.6
82.6289,226.3
82.6427,219.6
82.6529,103.5
82.671,205.3
82.6917,263.8
82.695,84.8
82.6967,144.3
82.7142,286.2
82.7189,147.9
82.7571,514
82.7735,397.1
82.8018,642.8
82.8068,601.5
82.8159,507.8
82.8274,76.6
82.8755,328.1
82.8777,369.9
82.8815,77.6
82.8968,762.6
82.9095,522
82.9249,169.2
82.9448,16085.5
82.9523,155.2
82.9717,118
82.9865,141.2
83.013,595.1
83.0192,17.3
83.0232,205.2
83.0272,18.6
83.0297,122.5
83.053,284.2
83.0853,808.1
83.1159,554.7
83.1212,16.7
83.1266,78.3
83.1771,542.9
83.1781,737.4
83.1953,135.7
83.1963,134.1
83.2041,369.2
83.2236,17.9
83.2265,217
83.2302,320.1
83.2363,175.8
83.2438,150.1
83.2972,258.5
83.3439,272.1
83.3832,104.8
83.4634,95
83.4831,81.1
83.5056,78.9
83.5217,72.5
83.5397,204.5
83.555,310.1
83.5715,570.9
83.5985,79.2
83.6736,557.5
83.6924,344.6
83.7064,122.3
83.7672,17.7
83.7747,310.5
83.7818,86.8
83.7962,181
83.8126,147.5
83.8219,119.6
83.8302,675
83.8418,476
83.8704,762.1
83.9096,227.9
83.9269,129.4
83.9413,80.1
83.9663,74.7
84.0041,148.6
84.0079,89.7
84.0443,1251.6
84.0807,105.3
84.1005,488.2
84.1015,281.7
84.1127,92.6
84.1135,107.3
84.1262,17.6
84.1387,113.4
84.1413,292.3
84.162,143.5
84.1654,80.9
84.1946,162.2
84.1973,194.3
84.1983,302.9
84.2,246.4
84.2475,121.8
84.2488,147.1
84.2518,85.2
84.269,81.3
84.2697,69.5
84.271,343
84.3251,290.2
84.3318,112.9
84.3366,459.8
84.3602,130.9
84.3904,89.9
84.4786,474.7
84.4944,19.6
84.5044,212.5
84.5284,295.8
84.5316,570.1
84.538,132
84.554,598
84.5615,226.4
84.5643,111.4
84.5695,639.5
84.571,18.4
84.5751,357.3
84.586,18.4
84.6099,126.8
84.639,95.5
84.6438,419.2
84.6627,336.6
84.6879,404
84.6971,744.9
84.7022,17.9
84.7481,756.5
84.7753,108.4
84.8114,355.3
84.8468,285.3
84.8526,118.3
84.859,82.3
84.8737,116.7
84.9219,130.3
84.9298,189.6
84.9335,267.2
84.9596,24303.9
84.9761,19.5
84.9816,144
85.0044,16.2
85.0283,884.2
85.0369,20.2
85.0419,599.8
85.0456,350.2
85.0512,540.3
85.0762,88
85.0849,16
85.1546,86.2
85.1891,202.8
85.1982,94.1
85.222,224.2
85.2403,101.8
85.2414,750.4
85.2436,195.7
85.2499,82.2
85.2503,83.4
85.2896,639.9
85.3316,392.1
85.3412,825.5
85.3504,110.5
85.3617,666.9
85.3626,401.8
85.366,74.1
85.3847,374.1
85.3858,339.5
85.3975,73
85.4208,702.2
85.4452,122.4
85.4556,146.8
85.466,81.7
85.4673,17
85.4788,535.3
85.5034,127.4
85.5076,114.6
85.5225,197.9
85.5253,104.7
85.5315,128.8
85.5617,449.2
85.5651,153
85.5661,322.4
85.5823,180.3
85.5976,20.9
85.607,16.1
85.6169,535.3
85.6278,469.7
85.6281,437
85.6294,491.1
85.6356,97.4
85.6527,186.2
85.6847,81.1
85.687,391.2
85.6872,396.3
85.6876,317.4
85.7025,124
85.7135,154.6
85.7418,422.2
85.7883,200.6
85.792,143.8
85.7952,17.5
85.7973,106.8
85.8297,181.9
85.841,80.6
85.8656,136.1
85.8667,332.1
85.8778,118.4
85.9013,365.3
85.935,127.9
85.9363,424.6
85.9733,365.5
85.9867,796.8
85.9916,82.1
86.0584,438.7
86.06,45678.2
86.0723,575.2
86.0795,20.6
86.0861,1063.5
86.0964,122507.1
86.1152,20.4
86.142,105
86.1461,136.6
86.1484,16.7
86.164,88.8
86.1882,136.8
86.1911,882.2
86.1919,289.6
86.217,18.4
86.239,750
86.2597,16.2
86.3144,164.6
86.3394,384.1
86.3532,93.6
86.3746,172.7
86.3849,360.4
86.4297,746.7
86.4369,237
86.4632,265.5
86.4942,217.2
86.4956,756.9
86.5515,178.4
86.5752,122.3
86.5786,115.2
86.6017,174.5
86.6029,93.9
86.6057,713.2
86.634,123.2
86.6396,729.1
86.6456,235.9
86.6648,80
86.671,89
86.6848,476.2
86.7007,115.3
86.7172,16.6
86.7371,156.7
86.7498,94.8
86.7979,845.1
86.8255,384.5
86.8525,175.7
86.8702,296.2
86.9328,266.7
86.9374,76.2
86.9609,103.2
86.9645,115.1
86.9813,455.4
86.9834,141.2
86.9922,114.8
87.0078,163.7
87.0186,193.2
87.0412,350.4
87.0534,544.6
87.0726,351.1
87.0816,845.5
87.0998,2204
87.1117,116.9
87.1574,465.8
87.1812,93.8
87.1929,222.9
87.1999,738.1
87.2051,371.5
87.218,17.4
87.2288,177.9
87.257,105.3
87.2635,77.2
87.2797,164.8
87.2967,586.3
87.3891,343.1
87.3923,379.5
87.4054,257.6
87.433,248.2
87.4385,731.4
87.4526,92.4
87.4759,350.9
87.4833,703.8
87.4848,17.6
87.4852,17.4
87.4987,182.4
87.5236,18
87.5618,137.3
87.5646,407.5
87.5941,186.7
87.6091,198.7
87.6161,98.6
87.6503,356.3
87.6541,212.9
87.6832,375.9
87.6932,353.2
87.7229,160.2
87.7279,328
87.7341,145.2
87.7579,100.6
87.7623,175.8
87.7924,635.6
87.8008,85.8
87.8446,358.8
87.8611,82.6
87.8755,86.9
87.8809,747.3
87.9078,185.7
87.9206,19.1
87.924,16.9
87.9366,81.4
87.9379,440.4
87.9406,196.3
87.9734,391.6
88.0393,11367.7
88.0492,110.1
88.0512,211.8
88.0584,245.5
88.061,275
88.094,509.9
88.0989,450.5
88.1039,352.1
88.1174,86.1
88.1583,261.1
88.1643,91.9
88.171,88.8
88.1793,611.6
88.2219,139.2
88.2282,540.8
88.2606,548.8
88.2898,376.6
88.3076,129.4
88.321,916
88.3441,227
88.3509,375.9
88.3609,90.9
88.3669,185.4
88.3775,721.1
88.406,119
88.4133,319.6
88.4229,89.2
88.4335,578.9
88.4422,211.7
88.445,388.5
88.451,681
88.4539,130.9
88.4564,148.7
88.4995,447.3
88.5389,119.6
88.5406,86.6
88.5736,204.9
88.5802,97.9
88.6237,177.9
88.6584,266.3
88.6867,194.7
88.7546,178.8
88.7832,439.4
88.8229,697.4
88.8326,123.4
88.838,260
88.855,147.8
88.8618,127.5
88.8705,126.5
88.8768,129.7
88.9302,86.4
88.9421,479.9
88.9587,272.8
88.9849,439.4
89.0346,135.5
89.0364,143.6
89.0431,154
89.0553,456.5
89.0563,232.2
89.0587,461.9
89.0885,75.5
89.1009,110.2
89.1281,165.5
89.1573,502.1
89.1808,206.2
89.1931,728.7
89.1966,19.9
89.203,149.4
89.2096,133
89.2222,457
89.2596,369.8
89.2625,436.8
89.2918,88.8
89.2968,577.2
89.3017,262.5
89.3198,519.2
89.359,135
89.3642,262.5
89.3661,101.8
89.3726,19.3
89.3908,214.8
89.4025,20
89.4105,19.6
89.4155,323.5
89.4218,159.3
89.428,755.9
89.4389,131
89.4927,95.9
89.5003,19.3
89.5349,93.3
89.5967,140.4
89.6632,85.6
89.679,143.1
89.7095,132.1
89.7199,204.2
89.7444,18
89.7484,140
89.803,117.1
89.8043,91
89.8145,757.2
89.8242,260
89.8721,113.6
89.8771,481.4
89.9099,353.8
89.9378,149.5
89.9396,190.7
89.9415,17.1
89.9799,656.1
89.9831,138.9
90.011,849.4
90.0175,187.7
90.0207,82
90.0747,472.8
90.0929,20.3
90.1135,120.1
90.1239,19.3
90.1263,88.8
90.1273,203.7
90.1294,825.7
90.1317,533.7
90.1554,798.3
90.1585,20.8
90.1742,17.9
90.2271,750.8
90.229,147.1
90.2587,92.8
90.2673,18.6
90.2989,119.6
90.3118,675.2
90.3151,87.5
90.3732,113.6
90.3781,276
90.3991,69.6
90.4178,135.2
90.44,293.5
90.4552,16.6
90.461,18.7
90.4846,94.2
90.4859,431.1
90.4936,609.8
90.5512,15.8
90.5566,18.3
90.5611,401.8
90.5614,446.9
90.5618,331.5
90.5744,413.1
90.6182,180.5
90.6217,431
90.6295,327.8
90.6386,154.3
90.6449,197
90.6699,83.3
90.6849,102.2
90.6989,85.8
90.7023,24.3
90.7299,258.5
90.7329,112.9
90.76,19.1
90.7665,311.1
90.7732,88.2
90.7849,214.8
90.7935,1005.6
90.8459,101.4
90.8483,93.5
90.8491,416.3
90.8614,279.3
90.8671,443.7
90.8765,137.7
90.8779,76.5
90.8818,255.8
90.8856,635.3
90.8876,190.8
90.9466,90.1
90.9477,67.7
90.9622,87.2
90.9766,7259.5
90.9848,768.9
91.0322,17.7
91.0404,149.9
91.0542,2259.5
91.1201,87.7
91.142,401.9
91.1858,164.5
91.2264,126.3
91.2268,327.9
91.227,317
91.2363,101.4
91.2374,115.7
91.2383,560.9
91.3196,75
91.3357,207
91.3611,88.8
91.3668,788.2
91.3702,286.1
91.3788,226.6
91.3802,79.7
91.4682,625.7
91.5009,133.5
91.5127,116.9
91.5495,88.6
91.5587,142.3
91.5591,129
91.5979,479.9
91.61,349
91.6926,106.4
91.706,731.4
91.7113,329.1
91.7514,186.1
91.7772,426.2
91.7998,151.4
91.803,112.7
91.8291,442.6
91.8365,20
91.851,191.1
91.8761,372.7
91.8776,515.5
91.9506,154.2
91.9525,18.6
91.9814,189.6
91.9919,218.8
92.0305,563
92.0576,25.8
92.0688,16.2
92.0711,91.5
92.1192,133.3
92.2133,726.2
92.262,19.1
92.2758,481.8
92.2788,120.3
92.2927,110.7
92.314,180
92.3173,381.9
92.3327,363.9
92.3496,141.4
92.357,88
92.3615,221
92.3637,150
92.365,77.1
92.3706,555.9
92.3927,115.2
92.4248,394
92.4325,143.3
92.4425,582.5
92.458,191
92.4614,388.4
92.4835,882.8
92.4876,417
92.5141,516
92.5295,89.8
92.5396,319.5
92.5541,604.4
92.5578,264.5
92.582,567.5
92.6417,192.2
92.6552,300.1
92.6608,415.3
92.6656,19.5
92.6903,271.9
92.6953,181.5
92.7181,125.4
92.7784,466.9
92.7944,73.1
92.7992,92.5
92.7999,16.6
92.8198,123.9
92.8387,109
92.886,290.8
92.8887,72.2
92.9035,137.5
92.9443,19.2
92.9784,92.1
92.9825,156.6
93.0127,614.9
93.0438,567
93.0574,23
93.0698,268.2
93.0718,241.8
93.0729,123.5
93.0985,135.7
93.1031,121.8
93.1463,394.2
93.2308,537.7
93.2363,659.6
93.2432,423.6
93.2521,84.5
93.2574,535.4
93.299,127.3
93.3055,572.9
93.3319,262
93.3353,217.7
93.3563,210.9
93.3637,108.4
93.3857,318.8
93.424,17.3
93.4306,195.8
93.4322,163.1
93.4343,16
93.4443,105.5
93.4694,86.6
93.5078,287.9
93.5158,124
93.5205,102.8
93.5326,117.7
93.5845,86.9
93.5883,90.3
93.6133,168.4
93.6267,620.2
93.6464,90.6
93.6747,288
93.7328,544.5
93.748,904.8
93.7695,21.5
93.7877,99
93.8006,84.6
93.8647,233.6
93.8925,82
93.9083,173.2
93.96,502.5
93.9662,469.6
93.996,147
94.0184,18.3
94.0239,24.4
94.0384,17.4
94.039,26.1
94.0413,76537.9
94.0426,68.4
94.0442,103.6
94.1076,187.5
94.1215,147.6
94.1242,102.1
94.1296,167.3
94.1381,294.5
94.1415,179.1
94.1762,186.5
94.1871,785.7
94.2186,350.3
94.2488,755
94.2771,275.8
94.2783,178.6
94.2876,140.5
94.2892,125.5
94.3042,110.7
94.3053,118.2
94.3316,407.1
94.3543,75.5
94.4098,100.6
94.4595,204.2
94.4859,226.7
94.5147,609.7
94.5164,596.3
94.525,116.1
94.5277,85.4
94.5334,137.5
94.5347,76.4
94.5358,166.5
94.5383,263.8
94.5494,225
94.5692,338.5
94.59,582.4
94.5947,160.7
94.622,16.8
94.6344,179.6
94.6358,298.9
94.643,878.9
94.6562,501.7
94.7172,812.8
94.7349,270.7
94.754,155.9
94.7749,442.6
94.8152,399.7
94.8325,172.5
94.8419,301.1
94.8477,132.2
94.8901,91.2
94.9085,458.9
94.9122,406.4
94.9131,286
94.9288,321.2
94.9767,176.8
95.0011,158.7
95.0096,19.4
95.0157,501.9
95.0273,182.3
95.0351,17.3
95.0357,125.9
95.0447,2685
95.0462,51
95.0465,58.6
95.0467,60.9
95.0491,488170.6
95.0511,166
95.0518,57.1
95.0626,44.7
95.08,91.3
95.084,72.6
95.0854,674.9
95.0892,390.9
95.1365,950.5
95.1385,20.4
95.1446,111.3
95.1593,455.8
95.1849,145.8
95.2062,204.3
95.2712,130.3
95.3066,527.5
95.3109,374.4
95.3251,106.6
95.3277,224.1
95.3337,181.6
95.3752,241.4
95.3776,173
95.4452,339.1
95.4648,191.9
95.4686,76.9
95.5044,97.8
95.5118,161.6
95.5127,73.4
95.5163,172.7
95.5434,76.2
95.5502,109.6
95.5696,68.1
95.6085,581.4
95.627,474.2
95.6279,286.6
95.6479,117.5
95.6627,91.4
95.6744,128.4
95.677,539.1
95.6786,173.8
95.718,169.2
95.7385,304.2
95.7487,150.1
95.7494,90.8
95.7598,22.8
95.7639,113.8
95.8061,346.9
95.8175,893.7
95.8961,343.4
95.9135,18.5
95.9275,97.9
95.9698,147.2
96.0311,73.2
96.0326,89.1
96.0377,293.8
96.0525,24103.7
96.0555,34.5
96.0716,124.9
96.0999,128.8
96.1089,219.1
96.1513,738.1
96.1568,110.4
96.1622,21.7
96.1931,105.9
96.2125,16.3
96.2438,69.2
96.2876,197.5
96.3874,877.9
96.4634,869.3
96.4939,165.2
96.524,164.5
96.5683,361
96.6154,174.1
96.621,16.7
96.6391,531.3
96.6541,107.4
96.6583,154
96.6709,321.7
96.7004,89.4
96.7136,101
96.7551,93.7
96.774,459.5
96.8387,169.5
96.8544,158.9
96.9203,100.3
96.9218,146428.8
96.9417,19.5
96.9474,126.6
96.9572,240.4
96.959,19
96.9607,433.7
96.966,87
96.9734,397.4
96.9829,82.9
96.9923,136.8
96.9996,283
97.0048,108.1
97.0076,176.1
97.0095,759
97.0106,53.5
97.0534,105.7
97.0559,61.2
97.0723,105.8
97.0761,135.6
97.1012,59.7
97.1138,87.1
97.121,78.3
97.1255,157.5
97.1472,412.7
97.1675,166.1
97.1718,81.3
97.1756,130.3
97.1779,174.8
97.1806,308.1
97.2199,646.9
97.2795,233.1
97.2941,272.6
97.3348,83.2
97.3465,185
97.3668,84.3
97.3847,85.4
97.3877,366.5
97.4057,148.6
97.4792,16.4
97.5063,119.2
97.5551,136.2
97.5944,811.7
97.6067,371.6
97.6082,153.3
97.6215,132.4
97.6846,93.4
97.7252,94.1
97.771,555.2
97.7889,504.5
97.843,98.3
97.9177,90.9
97.9203,114.4
97.9294,146.3
97.9334,89.1
97.9504,247.2
97.9743,242.3
97.9815,102.1
98.0113,20.3
98.0138,80.9
98.0788,626.7
98.0839,19.2
98.0861,73.2
98.1079,89.1
98.1268,142.3
98.1391,860.1
98.1926,85.8
98.2068,196
98.2108,303.6
98.2121,20.4
98.2302,104.4
98.2379,135.2
98.2689,138.3
98.3555,18.2
98.3686,640.4
98.3804,76.8
98.3986,342.3
98.4089,75.3
98.4093,82.7
98.4221,424
98.4264,325.2
98.4399,106.3
98.4479,20.1
98.469,297.4
98.4704,75.3
98.4711,104
98.5602,470
98.576,98.5
98.5938,472
98.611,17.8
98.6133,16.5
98.6167,518.4
98.6174,464
98.6423,202.3
98.6792,376.1
98.6851,239.3
98.726,77.4
98.7316,625.8
98.7439,174.7
98.7934,126.3
98.7992,106.2
98.8025,83.4
98.8032,168.3
98.8114,122.6
98.8179,205.7
98.8683,712.7
98.87,90.6
98.9188,45253
98.9198,6896.7
98.933,73.8
98.9434,368
98.9472,465.5
98.9753,18118.1
98.9842,194.4
99.0481,220.3
99.0618,426.6
99.0903,101.7
99.0991,125.9
99.1026,105.5
99.1718,108.2
99.1928,640.3
99.2143,237.6
99.2147,238.3
99.2453,17.8
99.2553,271
99.2843,17.2
99.2914,156.9
99.3266,82.3
99.338,546.8
99.3395,17.3
99.3642,533.8
99.3665,176.7
99.3865,1096.5
99.3926,108.1
99.4133,259.8
99.4152,581.5
99.466,475.4
99.5158,18.1
99.5362,716.5
99.5957,551
99.6231,89.6
99.6355,162.3
99.641,18.1
99.6927,97.8
99.6932,148.1
99.6936,123.1
99.7648,131.5
99.8081,268
99.8251,588.8
99.8341,113.9
99.8363,974.4
99.8529,103.4
99.8735,74.5
99.9063,17.4
99.9134,432.4
99.9163,19.8
99.9272,342.1
99.9536,881.5
99.9726,96.7
99.9857,314.4
100.0042,293.8
100.0078,343.9
100.0274,189.2
100.0552,83.7
100.056,207.9
100.0757,104.6
100.0889,86.9
100.0947,442.7
100.0978,646.5
100.1576,102.9
100.17,115.1
100.1715,271.1
100.1784,641.1
100.1852,263.1
100.2164,678.8
100.2192,97.2
100.2282,408.8
100.2287,360.7
100.2293,494.2
100.2536,171
100.2661,235.6
100.2923,249.6
100.3308,99.7
100.3664,85.2
100.3695,206.1
100.3933,573.4
100.465,172.8
100.4685,17.4
100.4791,291.2
100.5328,83.8
100.5411,172.1
100.556,779.4
100.5899,515
100.6057,158.4
100.6116,76.8
100.6356,124.4
100.6387,734.6
100.7108,343.4
100.7396,18.2
100.7667,851.8
100.7703,83.6
100.8116,118
100.8184,212.3
100.8279,190.6
100.8325,366.4
100.8418,75.7
100.8659,112.6
100.9158,361.6
100.917,1570.6
100.9371,130.6
100.9637,754.5
100.9948,103.5
100.999,110.3
101.0083,46.4
101.0159,23.3
101.0472,2787.6
101.071,1530.8
101.0768,18.4
101.092,142.1
101.1103,262.7
101.1138,310.7
101.1486,164.3
101.1734,172.4
101.1889,79.8
101.2098,114
101.2165,281.8
101.2381,142.9
101.2507,664.5
101.2682,421.5
101.2757,354.5
101.2792,199.9
101.2864,94.7
101.2933,101.1
101.2994,183.9
101.3519,556.7
101.3889,431.1
101.4077,508.9
101.4613,264
101.4783,148.1
101.494,342.2
101.4984,346.7
101.5152,17.8
101.5297,85.8
101.5336,157.6
101.5876,112.4
101.6038,167
101.6125,98.4
101.619,97.4
101.6426,305.8
101.7786,16.3
101.8092,203.8
101.8125,123
101.8217,639.2
101.9009,700.4
101.9217,17.3
101.9276,17.5
101.9337,79.3
101.9408,81.2
101.9507,75.6
101.9652,743.4
101.9927,226
102.0113,398.6
102.0322,239
102.0454,219.2
102.0493,140.1
102.055,6688.7
102.0748,18.6
102.1526,119.4
102.1605,210.3
102.1802,89.6
102.1899,319.1
102.2281,234.4
102.262,89
102.2833,314.1
102.3174,135.8
102.3235,784.9
102.3432,214
102.3758,144.9
102.4042,745.4
102.4251,141.2
102.4701,318.5
102.4899,300.3
102.5207,276.3
102.5636,368.9
102.583,133.9
102.6032,302.4
102.6166,188.6
102.6282,571.8
102.6748,185.6
102.7315,191.3
102.8265,438.7
102.8554,232.9
102.8979,920
102.9268,81.5
102.9703,631.2
103.0046,730
103.006,20
103.0445,121.3
103.0535,282.5
103.0583,82.3
103.0599,85.4
103.0782,109.8
103.1069,18.3
103.1489,348
103.2178,90.3
103.2256,186.5
103.2289,20.4
103.2713,528.1
103.3232,867.4
103.3433,79.6
103.358,115.5
103.3701,476.4
103.3918,273.4
103.3951,227.1
103.4048,387.9
103.4059,271.8
103.4156,134.1
103.4489,261.9
103.522,17.1
103.5263,256.2
103.5578,152.3
103.5701,350.9
103.6061,757.4
103.6178,533.2
103.6431,420.1
103.674,114
103.7538,205.4
103.7784,252.5
103.8058,609.2
103.8129,475.3
103.8332,182.8
103.8383,204.4
103.8742,103.8
103.893,701.9
103.9131,428
103.9677,361.9
103.9756,94.1
103.9775,74.6
103.9834,333.3
103.9856,168
104.0149,150.3
104.0183,89.7
104.107,569423.1
104.1705,76.2
104.1715,74.7
104.1733,175.7
104.1747,18
104.2165,155
104.2372,82
104.241,496.8
104.2518,118.5
104.2732,83.5
104.282,97.6
104.2889,163
104.3373,90.9
104.3391,331.7
104.384,86.2
104.396,440.4
104.4213,550.5
104.4622,200.3
104.4881,102.2
104.4943,74.3
104.5053,124.9
104.5659,410.9
104.5693,221.2
104.5865,151.6
104.5972,219.4
104.6219,114.7
104.6392,785.1
104.6505,109.3
104.7106,600.7
104.7188,177.1
104.7198,181.6
104.7207,78.8
104.7243,267.2
104.7337,137.3
104.7357,236.5
104.7389,793.3
104.7724,127.6
104.8202,886.5
104.8376,172.7
104.8457,77.7
104.8536,145.6
104.8625,304.3
104.8802,93.4
104.8885,72.9
104.913,507.6
104.9634,98.8
104.9754,193.9
104.9923,1652.4
105.0079,442.3
105.0259,18.6
105.0448,45214.9
105.0462,81.1
105.0543,81.9
105.1075,109.7
105.1104,21067.3
105.127,170.8
105.1745,472.8
105.1772,697
105.1833,343.6
105.1994,89.5
105.21,133.1
105.2218,486.2
105.2298,390.2
105.2409,129.8
105.2454,125.2
105.3025,119.5
105.3213,705
105.3396,163.2
105.3427,360.6
105.3458,850
105.3581,21
105.3982,336.9
105.4246,75.4
105.4407,646.9
105.4682,380.5
105.4692,701.9
105.5441,18.2
105.5641,124.6
105.5988,19.4
105.7087,134.6
105.8055,444
105.8186,84.3
105.8374,419.5
105.8656,771.2
105.8839,135.8
105.9093,275.3
105.9295,697.5
105.9805,448.6
105.9894,129.3
106.005,399.7
106.011,72.2
106.0302,173
106.0481,941.8
106.0694,401.1
106.0788,800.8
106.083,463.6
106.1063,18.2
106.1526,86.1
106.1652,19.7
106.1823,121.6
106.1877,222.9
106.2079,85.5
106.2952,146.1
106.3351,162.8
106.3415,282.7
106.3668,80.3
106.3972,220.9
106.461,87.7
106.5169,267.8
106.5609,133.8
106.582,18.5
106.6023,191.6
106.6697,484.4
106.7004,106.4
106.734,87.5
106.7436,429.8
106.7502,100.6
106.7784,223.5
106.788,137.5
106.7967,123.8
106.8281,510.3
106.883,133.7
106.9311,255.4
106.9507,2737
106.9881,128.6
106.9919,284.2
107.0051,114.3
107.0287,163
107.0294,267.1
107.0321,705.3
107.0492,721.7
107.0636,88.4
107.094,133.3
107.0967,91.3
107.1346,756.7
107.2113,301.1
107.2338,73.9
107.2579,751.9
107.2942,17.3
107.2968,93.6
107.3518,142.6
107.3625,693.8
107.4178,298.5
107.455,214.7
107.4627,306.8
107.4732,287.6
107.5279,248.2
107.5307,475.2
107.5932,83.8
107.6282,374.1
107.6677,497.9
107.6843,218.9
107.6911,122.9
107.7998,262.8
107.8112,144.4
107.8447,114.4
107.8596,408
107.8643,92.8
107.8715,289
107.9633,601.3
107.9816,107.3
108.0163,242.1
108.0524,19.4
108.0615,16.8
108.1023,468.3
108.1124,135.9
108.1383,139.7
108.1432,180.5
108.1497,736.6
108.1561,144.1
108.1878,107.6
108.2425,300.8
108.3208,19.2
108.3281,135.4
108.4005,134.3
108.436,87.8
108.4383,206.2
108.4622,82
108.465,447.7
108.4693,468.6
108.5066,226.7
108.5238,275.6
108.5465,138
108.5479,260
108.5702,94.7
108.5907,519.8
108.6154,186.4
108.6387,19.3
108.6422,98.6
108.648,213
108.6843,174.9
108.7278,445.1
108.8024,79.4
108.8423,177.7
108.8743,296.8
108.886,268.9
108.939,124.7
108.9719,169.6
108.9768,20.1
109.0079,120.1
109.0299,19.4
109.0632,60.2
109.0649,82158.2
109.0909,525.6
109.1012,81.4
109.1097,306.5
109.1133,153.1
109.1355,722.1
109.1692,154.1
109.1722,131.2
109.1749,204.9
109.2091,881.1
109.2194,83.5
109.2384,230.9
109.2809,137
109.3267,346.8
109.3393,81.4
109.3621,340.7
109.4286,819.4
109.4445,293
109.4554,312.7
109.482,313.8
109.5348,17.7
109.545,288.7
109.5901,699.4
109.6146,686.8
109.6412,167.2
109.741,117.8
109.8045,166.6
109.8188,16.2
109.8396,673.4
109.8719,291.9
109.884,76.7
109.9097,140.7
109.9186,87
109.951,168.3
109.9718,86
110.031,131.5
110.0341,21.9
110.0474,205.3
110.0682,3429.7
110.0779,432.6
110.1715,985.9
110.2102,79.1
110.2538,131
110.2846,109.3
110.3353,82.5
110.3891,119.6
110.3923,683.4
110.5078,77.5
110.5813,225.3
110.5862,20.1
110.5962,93.1
110.6061,94.2
110.6774,651.7
110.6998,807.4
110.76,428.6
110.7688,156.4
110.7728,15.8
110.8159,133
110.9162,321.6
110.9262,78.5
110.9336,326
110.9558,130.6
110.9692,260.8
110.9715,142.2
111.0025,477.2
111.0111,280.4
111.0233,323.6
111.0342,233.9
111.0441,369.6
111.0511,82.7
111.0771,781.9
111.1097,335.3
111.1168,523.7
111.1279,270.5
111.1686,489.6
111.2098,157
111.2482,167
111.2625,184.8
111.265,81.9
111.2891,334.7
111.3518,366.3
111.4256,178.6
111.5139,1007.4
111.5267,796.2
111.5292,86.6
111.5437,405
111.5634,759.1
111.6963,365
111.7037,94.9
111.7351,167.1
111.7689,114.6
111.8126,342.6
111.8746,240.1
111.9431,431.9
111.9729,146.2
111.9909,132.4
111.9923,749.6
112.0106,249.4
112.0316,19.1
112.0402,776
112.0446,83.4
112.1099,94.8
112.1163,96.8
112.1482,357.7
112.1541,125.5
112.1554,389
112.2038,328.8
112.2346,149.7
112.3042,125
112.3204,164.8
112.3593,188.4
112.3667,693.4
112.4137,347.3
112.4482,413.1
112.4865,465.4
112.4895,85.7
112.493,422.4
112.4943,175.5
112.4976,87.2
112.5079,81.5
112.5384,129.5
112.548,118.5
112.5985,72.4
112.6162,252.9
112.6296,95.4
112.703,104.4
112.709,139.8
112.7376,74.7
112.8049,482.4
112.8074,160.6
112.8116,317.6
112.8271,97.2
112.8811,75.4
112.891,78.3
112.8958,403122.6
112.8976,639.8
112.9122,270.4
112.9191,97
112.9207,469.5
112.9253,536
113.0008,747.6
113.0317,344.1
113.0451,215.9
113.0539,195.9
113.0995,217.8
113.103,765.3
113.1308,283.3
113.1468,294.2
113.149,127.1
113.1565,133.8
113.1898,80.2
113.2253,704.2
113.2442,135.4
113.2466,144.8
113.2864,81.9
113.3076,381.8
113.3168,782.3
113.3423,121.8
113.361,288
113.4166,585.4
113.4635,339.9
113.5178,229.2
113.5408,218.5
113.5744,87.2
113.602,181.1
113.608,105.8
113.6311,92.5
113.6435,121.9
113.6529,77.5
113.6898,85
113.7004,94.9
113.7168,207.1
113.7364,81.8
113.8418,266.7
113.9146,80.2
113.922,137.1
113.9729,135.9
113.984,134.3
113.9965,320
114.0073,219.6
114.0495,795.1
114.0551,68140.1
114.11,81.4
114.1235,143
114.2166,343.9
114.2778,439.8
114.284,16.3
114.307,288.2
114.3256,425.2
114.3314,102.5
114.3661,159.1
114.3731,16.8
114.4046,252.6
114.4138,116.8
114.536,17.2
114.5479,605
114.5701,18.4
114.6456,103.9
114.711,263.2
114.731,133.5
114.7443,150.7
114.7736,173.9
114.7881,83.4
114.8442,86.6
114.8929,124495.2
114.9084,310.2
114.9442,80.8
114.9571,114.2
114.9601,17.8
114.9676,17.9
114.9727,92.9
114.9933,411.3
115.0585,2136
115.0726,146.7
115.1304,22.1
115.1463,16.9
115.238,437.3
115.2864,165.4
115.3339,448.9
115.337,92.4
115.3458,448.9
115.3713,112.2
115.3856,131.6
115.3942,249.9
115.3993,331.9
115.4464,539.5
115.4863,207.7
115.4977,187.8
115.5604,90.4
115.6081,583.2
115.6942,762.4
115.7233,397.5
115.757,16.4
115.7845,17.4
115.881,161
115.8931,563.3
115.8979,17.9
115.906,290.5
115.951,106
115.9724,20.9
115.9784,538.7
116.0707,5088.3
116.1209,129.5
116.1768,107.8
116.2161,325
116.2196,379.6
116.2232,114.8
116.2767,565.9
116.3788,100.9
116.3914,95.7
116.3959,125.3
116.4395,406.6
116.5089,699.7
116.5392,586.3
116.5702,463.8
116.5969,193
116.6948,88
116.7316,309.4
116.7405,87.8
116.7751,151.8
116.7776,639.9
116.7899,377.4
116.8521,618.9
116.8535,194.9
116.8635,1004.8
116.8797,621.4
116.8865,232.2
116.891,14820.8
116.9646,178.1
116.968,142.4
116.974,94.1
116.986,2945.5
116.9884,18.6
117.0231,88.8
117.0376,144.1
117.0391,873.5
117.0699,28.6
117.1182,122.4
117.1233,81.9
117.1288,82.3
117.1357,534.6
117.1665,167.2
117.2338,484.3
117.2591,233.6
117.2643,243.9
117.283,17
117.3232,93.8
117.3548,72.6
117.368,155.4
117.3732,86.7
117.3853,238.2
117.396,104.9
117.4118,815.3
117.4266,16.8
117.4294,186.9
117.4904,152.8
117.5173,803.7
117.5488,187.1
117.5642,796.5
117.6444,86.2
117.6505,214.9
117.652,200.1
117.6957,385.2
117.7527,79.3
117.8013,661.4
117.8197,229.6
117.8419,454.8
117.8988,142
117.9252,471.3
117.9359,246.4
117.9457,135.6
117.9684,18
118.0293,79
118.0345,20.1
118.0862,556.5
118.1321,131.8
118.1685,302.6
118.2507,16
118.3312,407.8
118.3547,253.7
118.3564,225.9
118.3886,21.7
118.4153,231.7
118.474,745.8
118.4807,238.4
118.5539,327.3
118.5583,20.2
118.56,77
118.5724,514.1
118.638,148.2
118.6403,88.4
118.6562,89.9
118.6697,108.9
118.6822,20.2
118.6856,342.6
118.689,639.1
118.6907,699.8
118.6964,351.8
118.7167,18.8
118.7261,439
118.7917,122.6
118.809,133.1
118.8374,443.4
118.8397,402.9
118.8855,137.1
118.9159,95.7
118.9669,460.6
118.9791,24.8
119.0035,228.5
119.018,410.2
119.0366,225.7
119.0564,787.9
119.1716,134.9
119.2051,141.4
119.2384,672
119.2565,17.5
119.2929,165.2
119.3658,152.7
119.3779,220.3
119.4353,257.8
119.4576,729.5
119.4901,575.4
119.5033,18.9
119.5174,164
119.5309,340.2
119.6112,79.8
119.6717,161.8
119.6928,133.7
119.7581,18.1
119.7709,765
119.7752,518.6
119.8605,222.5
119.9297,95.8
119.9481,17.7
120.0034,3555.5
120.0429,587.3
120.0656,511.8
120.0809,13865.2
120.0908,18.6
120.2199,168.2
120.2215,120.5
120.2341,162.3
120.2757,19.2
120.2787,142.6
120.3798,166.6
120.4218,605.9
120.4634,773.8
120.4688,157.3
120.5192,1427.4
120.5633,764.8
120.5815,433.8
120.6103,343
120.617,100.9
120.6205,744.9
120.6303,206.3
120.6635,363.2
120.6702,95
120.6952,380.1
120.7186,143.7
120.7927,601.8
120.8227,124.9
120.8452,247.6
120.8669,776.1
120.9142,641.6
120.9381,383.3
120.9396,130.7
120.9511,85.5
120.9665,631.2
120.981,168.6
120.9976,145.6
121.0007,379.7
121.0076,465.1
121.0104,181.6
121.0181,18.9
121.0286,719.8
121.0361,20.5
121.0397,26.8
121.0458,223.7
121.0504,82.7
121.0648,22.8
121.0843,511.7
121.1013,47.4
121.2097,19.2
121.234,381
121.2381,188
121.2809,221.6
121.4869,16.3
121.5052,396.6
121.5235,558.1
121.5694,612.1
121.573,126.2
121.7023,734.2
121.7606,152.7
121.7859,149.5
121.7887,145.6
121.8016,758.5
121.8487,94.7
121.8689,350.6
121.8863,855.6
121.8972,98.5
122.1255,251.9
122.1318,296.4
122.1618,621.7
122.1659,197.5
122.1921,746.7
122.1967,19.1
122.2017,389.4
122.2065,96
122.2141,20.6
122.2465,166.5
122.2516,139.7
122.2641,241.7
122.3998,173.1
122.4062,334.5
122.4114,87
122.4627,18.2
122.4939,161.7
122.5154,78.3
122.5251,81.7
122.5475,153
122.5586,245.6
122.6353,646.3
122.6918,137.7
122.7292,334.1
122.7453,208.7
122.766,176.2
122.7704,94.2
122.7776,336.8
122.7816,902.3
122.8176,433.7
122.8201,79.5
122.8898,87.1
122.9148,89.6
122.9246,16082.8
122.9405,108.8
123.0322,152.7
123.0448,410.6
123.0596,86.9
123.0686,300.5
123.0804,62.3
123.1168,183.5
123.1547,403.2
123.2541,309.9
123.2772,21.6
123.3334,89.8
123.3426,17.8
123.3486,88.4
123.3821,86.5
123.3845,174.8
123.4537,18.5
123.462,441.1
123.4708,429.2
123.5143,407.7
123.5845,225
123.6562,286.1
123.7003,538.5
123.7121,90.8
123.7308,756.6
123.7359,18
123.7379,100.6
123.8105,854.6
123.8611,152.3
123.8843,544.2
123.8894,467.5
123.949,102.3
123.989,745.5
124.0095,352.8
124.0114,99.4
124.0351,182.9
124.0392,19.7
124.1007,209.3
124.1096,733.5
124.1102,519.5
124.1201,17.9
124.1282,131.2
124.1325,244.2
124.1515,371.7
124.1596,88.2
124.19,1080.4
124.2021,474
124.2334,124.2
124.3225,430.1
124.3763,97.5
124.3865,524.7
124.3951,100.8
124.4226,328.4
124.4234,414.4
124.4238,375.2
124.4495,755.1
124.4631,173.7
124.5196,74.2
124.5258,741.1
124.5447,365.6
124.5865,98
124.5958,647.9
124.6045,482.4
124.6298,86.4
124.6451,16.7
124.6619,135.4
124.6686,95.9
124.673,80.3
124.6977,418
124.7297,282.8
124.7615,380.9
124.7797,506.2
124.7821,106.2
124.8078,561.9
124.8139,780.9
124.8621,83.6
124.8717,88.9
124.8858,129.8
124.909,723.8
124.9227,414.8
124.985,277.1
124.9899,166.8
124.9952,569.4
124.9961,573.4
124.9999,8727.8
125.0057,318.8
125.0366,110.2
125.039,285.6
125.0529,257.9
125.0598,175.8
125.0963,21.4
125.1076,126
125.1161,307.5
125.1194,111.1
125.1664,112.5
125.209,407.8
125.2143,106.1
125.2187,584.8
125.2535,92.3
125.2747,286.4
125.3142,114.7
125.4149,17.2
125.4237,91.5
125.4643,202.1
125.4672,75.5
125.4865,186.4
125.5233,550.7
125.5306,568.4
125.5461,602.2
125.6073,469
125.6084,232.3
125.6287,230.2
125.6349,162.7
125.6453,349.2
125.669,144.1
125.7086,304.2
125.7284,342.8
125.7641,236.8
125.958,95.9
125.9731,17.2
125.9852,18.8
125.9864,193.7
126.0008,171.2
126.0163,85.7
126.0302,20.9
126.0348,331.6
126.0569,100.6
126.0637,94.8
126.0896,128.3
126.2517,127.6
126.2584,232.4
126.35,91.4
126.378,82.2
126.4021,137.9
126.5458,347.1
126.5748,17
126.5925,127.5
126.6078,377.9
126.6108,101.6
126.6367,268.6
126.6588,145.4
126.698,115.6
126.7415,125.6
126.77,635.6
126.7819,253.6
126.7893,19
126.8795,158.8
126.9137,132.3
126.9603,196.4
126.9709,757.9
126.9888,163.5
126.9911,88.7
126.9993,116.6
127.048,80.3
127.0583,283.5
127.1241,527.1
127.1514,237.5
127.1961,184.3
127.2775,19.1
127.31,16.8
127.3273,281.5
127.3628,798.8
127.3848,82.6
127.3918,176.8
127.4057,728.4
127.4837,475.8
127.5224,300.2
127.5827,547.2
127.6093,830.5
127.6123,125.6
127.6222,136.9
127.7428,610.9
127.7575,243.6
127.7633,21.2
127.7699,95.6
127.7884,309.3
127.8225,154.8
127.9016,19.2
127.9798,168.6
128.0119,73.5
128.1122,95
128.1158,584.6
128.1188,589.8
128.1522,579.3
128.2302,21
128.301,189.2
128.3316,114
128.3812,562.4
128.4173,154.2
128.4259,121.4
128.4585,612.7
128.508,142.8
128.5518,227.9
128.5649,480
128.6584,310.7
128.6932,249.9
128.6982,328.1
128.7272,143.8
128.7435,97.4
128.7661,403.5
128.9018,504.9
128.9042,17.4
128.9842,457.7
129.0035,809.6
129.0604,21.3
129.0721,295.9
129.1025,830.1
129.1468,118.6
129.1734,96.8
129.1862,96
129.1919,505.1
129.2094,475.2
129.2687,178.6
129.2728,259
129.3326,306.5
129.392,507.1
129.3966,134.7
129.4063,176.7
129.4336,279.6
129.4755,190.8
129.4953,91.8
129.5246,883.7
129.5465,119
129.6272,164.3
129.685,559
129.8445,78.9
129.8608,128.7
129.9052,87.5
129.937,79.4
129.9456,131.5
130.0094,212
130.05,7366.1
130.0675,115
130.146,723.7
130.2004,88.7
130.2287,111.8
130.2655,248.7
130.2867,358
130.3246,235
130.4286,210.6
130.4366,87.2
130.4631,365.7
130.4777,80.4
130.4897,184.3
130.4941,73.8
130.5401,485.1
130.5765,92.1
130.6867,115.6
130.7136,84.1
130.7674,551.9
130.7688,138.8
130.783,464.7
130.7851,153.6
130.8079,108.8
130.8369,591.4
130.8447,331
130.8495,206.1
130.9013,661.2
130.9098,120.8
130.9831,18
131.0105,114.2
131.0188,130.7
131.0687,19.3
131.115,346.5
131.1548,18.3
131.2157,145.5
131.2946,362.2
131.3234,198.4
131.3677,188.9
131.3876,515.6
131.3903,105.3
131.4107,191.6
131.4236,624.9
131.4387,774.6
131.4613,313
131.4955,864.9
131.5672,120.7
131.6586,174.1
131.6688,380
131.6928,92.4
131.7574,360.6
131.7897,433.8
131.8424,82.5
131.931,738.1
131.9857,17.3
131.9924,306.9
131.9962,83.9
132.0034,29672.2
132.059,101.4
132.0614,97.6
132.0657,116897.9
132.0684,172.1
132.0771,1046.9
132.1129,91.4
132.1527,346.8
132.2267,139.5
132.2309,643
132.2437,144.9
132.2867,23
132.3242,798.6
132.3317,574.9
132.3871,558.7
132.3989,304.9
132.4183,845.7
132.422,24.1
132.4278,197.5
132.4707,601.1
132.4924,201.6
132.5374,152.1
132.5527,103.1
132.5651,435.2
132.6306,172.2
132.7252,197.5
132.8053,618.5
132.8413,76.8
132.8834,181.7
132.8965,567.9
132.9031,649
132.9306,176.8
132.9424,376.7
132.9855,137.3
132.9873,3595.7
133.019,588
133.0234,300.3
133.0691,3510.3
133.0936,88.4
133.0973,15190.6
133.1431,186.5
133.1514,351.7
133.2037,118.1
133.2316,142
133.2409,157.4
133.2876,70.5
133.3202,685
133.3364,472.3
133.3517,136.1
133.3825,17.2
133.5338,18.8
133.5376,82.9
133.5554,75.5
133.6392,352.2
133.6597,91.3
133.6826,451
133.7065,237.7
133.8058,17.4
133.8117,18.1
133.8374,19.3
133.9125,425.7
133.9445,197.9
133.9887,589.5
134.0128,135.3
134.019,12631.2
134.0494,517.1
134.052,93.9
134.0862,82.3
134.0962,799.6
134.1144,595.6
134.1227,107.3
134.133,190.5
134.1514,135.9
134.2336,136.8
134.2497,177.8
134.2541,84.2
134.3147,84.2
134.3339,149.1
134.4573,238.4
134.4685,17.4
134.5321,17
134.5498,774
134.5581,18.7
134.5702,137.9
134.6194,369
134.6403,387.1
134.6973,88.2
134.7339,209.4
134.7464,734.6
134.8335,173.1
134.8355,90.9
134.8477,231.1
134.9703,143.4
134.9907,201.2
134.9967,67.6
135.003,78502.7
135.0141,159
135.0786,176.4
135.0898,396.7
135.117,52.4
135.1187,104.6
135.1258,157.7
135.1409,528.8
135.2421,256.2
135.3523,175.1
135.3562,602.9
135.3788,142
135.3927,390.9
135.4642,132.5
135.4877,145
135.4904,420.3
135.5106,192.1
135.5407,79.2
135.5717,193.1
135.5843,92
135.5889,463
135.6009,96.8
135.65,23.8
135.7154,90.1
135.7543,94.2
135.8183,238.1
135.838,129.4
135.8428,171.3
135.8472,597.1
135.8559,97.7
135.8993,130.3
135.9078,207.6
135.9179,162.5
135.9693,96.2
135.9773,2849.7
135.9965,20.9
136.0483,5016.5
136.0591,164.4
136.0621,43.5
136.0759,12973
136.1128,526.9
136.1218,130.1
136.2203,496.4
136.2547,392.7
136.294,150.9
136.3253,360.3
136.348,361.3
136.3546,96.6
136.3692,340.7
136.4804,241.8
136.4845,164.6
136.5231,97.2
136.5309,382.3
136.5845,89.2
136.6947,167
136.7493,231.4
136.79,148.5
136.8432,224.8
136.8904,17.2
136.9056,232.2
136.9151,223.2
136.9183,312.8
136.9266,91.2
136.9315,1709.4
136.9418,121.6
136.9813,21.6
137.0313,212.5
137.06,24.4
137.0889,399.1
137.1463,115.2
137.1566,121
137.1654,90.4
137.2223,138.7
137.2358,149.3
137.2374,126.4
137.2542,538.2
137.2795,20.2
137.2981,292.6
137.3148,330.3
137.3655,691.4
137.3702,221.7
137.3971,347.6
137.3998,79.3
137.4332,172.4
137.449,106.1
137.4944,77.2
137.4979,171.7
137.513,353.8
137.5145,218.7
137.5489,190.6
137.6161,139.6
137.6301,327.1
137.692,209
137.7011,17.3
137.7075,352.7
137.7145,181.8
137.7499,192.5
137.8174,83.8
137.8181,81.1
137.8461,571.7
137.8494,295.3
137.8534,100.7
137.8641,131
137.9091,174.6
137.9822,18.7
137.9911,1196
137.9959,348
138.0527,8763.9
138.0662,24.7
138.0686,382.3
138.0945,145.8
138.1138,134.9
138.1283,17.7
138.1495,183.8
138.1658,87.7
138.1832,184
138.1869,139.2
138.1987,17.7
138.2031,277.6
138.2336,128.9
138.2476,799.3
138.3067,630.8
138.313,781.5
138.3481,219.1
138.3808,412.5
138.395,19.9
138.4214,20.1
138.4769,19.6
138.484,127.1
138.4893,214.4
138.5055,86.7
138.5164,240.1
138.5449,314.2
138.5845,621.8
138.5958,388.7
138.6017,183.5
138.7418,263.9
138.8111,547.1
138.8593,114.1
138.8804,678.9
138.8892,1097
138.9067,3265.5
138.9467,367.4
138.9646,73.2
139.0111,148.7
139.085,106.6
139.0933,246.7
139.1724,205.4
139.2195,144.7
139.2267,76.6
139.2407,81.4
139.3689,225.4
139.4036,19.5
139.409,101.2
139.4257,138.4
139.4343,535.8
139.5381,464.2
139.6502,198.1
139.709,121.9
139.7265,156.9
139.7271,166.4
139.7278,83.1
139.7646,239.8
139.8926,92.1
139.9217,331.4
139.9254,297.5
139.9398,143.2
139.9566,672.4
139.9886,590.6
140.002,90.7
140.0167,1024.5
140.0578,98.6
140.0684,4135.8
140.1169,95.9
140.2222,19.1
140.2849,240.4
140.3217,635.8
140.3335,18.6
140.3485,85.3
140.4051,497.3
140.4121,238.9
140.4986,138.6
140.5158,468.6
140.6017,146.3
140.6398,85.7
140.656,135.8
140.697,273.6
140.7139,88.6
140.7223,544.1
140.85,279
140.8693,331.7
140.9001,594.8
140.9037,2192.2
140.9261,18
140.9426,761.1
140.9803,76.6
140.9983,161.7
141.0007,22738.3
141.0159,19.7
141.0178,256.8
141.0337,191.1
141.1023,576.4
141.1847,208.9
141.2204,20.1
141.2502,180.9
141.2625,199.4
141.3175,91.2
141.3269,614.3
141.3483,347.2
141.3577,616.3
141.3793,18.8
141.4408,348
141.4417,108.7
141.4803,631.2
141.4863,418.1
141.5207,159.7
141.5231,19.9
141.5277,787.4
141.6158,307
141.638,139.6
141.7071,182.4
141.7451,675.1
141.7871,427.8
141.851,811.3
141.8853,171.6
141.9096,173.2
141.9227,20.1
141.9757,185.2
142.0041,549.3
142.0177,641.2
142.043,153
142.0478,601.4
142.0499,142.1
142.0739,64.3
142.1456,74.2
142.1721,546.4
142.2342,90.9
142.2545,349.1
142.2984,146
142.3101,382.4
142.3122,201.6
142.3637,376.7
142.3834,578.4
142.4004,152.8
142.4785,157.6
142.5026,172.4
142.599,452.3
142.6109,17.1
142.6203,95.8
142.6484,112.2
142.665,270.8
142.6769,137.6
142.7177,953
142.7369,146
142.7584,511
142.8157,321.4
142.8469,80.8
142.8648,549.4
142.8944,108.6
142.9169,431.7
142.9483,270.9
142.9585,19
142.9965,298
143.0192,804.8
143.0573,790
143.0816,356.7
143.0837,153.2
143.101,255.8
143.114,83.9
143.1225,95.3
143.1314,19.2
143.1764,105
143.2197,20.2
143.3058,195.8
143.3187,20
143.3209,329.7
143.3959,168.8
143.4067,351.9
143.4271,222.6
143.447,160
143.4637,167.6
143.4774,264
143.4796,18.9
143.4896,684.3
143.5121,86.3
143.5407,77.9
143.5441,78.2
143.5688,85
143.5819,130.3
143.5958,20.7
143.6211,297
143.6298,173.2
143.7236,81.9
143.7918,107.6
143.7932,20.6
143.8661,244.2
143.8708,173.6
143.903,195.8
143.9197,186.5
143.9326,150.6
143.9969,104.2
144.0107,27
144.024,448.2
144.0855,89.4
144.1505,417.6
144.1831,333.6
144.1933,85.7
144.1946,531.6
144.2161,142.8
144.2907,125.4
144.3579,578.9
144.3701,22.4
144.3779,287.8
144.3938,144.7
144.4024,84.1
144.465,91.8
144.4699,289.2
144.4938,396.2
144.5258,16.6
144.5262,16.2
144.5379,431.2
144.5499,162.7
144.5608,234.5
144.5644,379.3
144.5713,122.4
144.5911,441.9
144.5938,334.4
144.6045,143.3
144.7019,710.1
144.7506,17.8
144.7533,414.5
144.8423,82.9
144.8516,20
144.857,159.3
144.8609,453.7
144.8747,20.3
144.9044,114.1
144.9332,782.1
144.981,1107.6
145.0161,349.6
145.0329,18.9
145.0472,362.1
145.131,90.2
145.1646,103.8
145.1685,163
145.1897,92.3
145.1968,132.9
145.217,18.8
145.2493,367.6
145.2896,221
145.2916,387.4
145.4844,135.7
145.5774,20.9
145.6145,422.2
145.6724,493.4
145.7149,219.1
145.733,204.1
145.7807,355.3
145.7924,744.4
145.862,104.5
145.9103,209.7
145.9572,719
145.9831,418
145.987,18.1
145.9924,213.4
146.0127,7631.7
146.0191,21829.5
146.0495,243.6
146.0954,158.3
146.0959,169.2
146.0969,106.2
146.0994,806.7
146.1064,20.2
146.1307,145.9
146.1671,305.3
146.1734,652.4
146.2529,234.9
146.2746,18.9
146.2885,168.7
146.2944,735.2
146.3112,295.7
146.3312,305.7
146.3821,106.8
146.5237,20
146.5259,491.3
146.5311,140
146.5667,186.6
146.5764,790.3
146.6744,147.5
146.7652,19.7
146.8332,695.4
146.9778,261.3
146.982,131085.6
147.0333,526.3
147.0767,46748.4
147.081,188.4
147.113,22921.6
147.1171,381.6
147.2256,148
147.2421,713.7
147.2451,355.3
147.2801,15.9
147.2917,16.8
147.3542,16.9
147.5044,149.5
147.5143,398.1
147.5169,86.4
147.5279,127.7
147.5526,577
147.604,357.3
147.6374,543.9
147.6393,491.3
147.6783,501.2
147.7145,193.9
147.7294,189
147.7777,157.7
147.7869,185.2
147.803,396.3
147.8132,91
147.8679,174.4
147.8788,94.3
147.9008,720
147.9341,84.9
148.0071,380
148.16,18.3
148.1651,91.3
148.1665,140.7
148.1725,76.2
148.1773,271.1
148.1808,411.3
148.2349,138.8
148.2559,182.7
148.2579,132.4
148.3331,121.5
148.4238,306.3
148.4516,477.6
148.4889,102.4
148.4983,393.6
148.5324,4772
148.5436,16.7
148.5633,723.3
148.5721,101.4
148.5817,472
148.6259,270.4
148.6625,250.3
148.6782,1188.4
148.6861,712.9
148.6963,90.8
148.7374,98.4
148.7906,83.5
148.8975,831.7
148.9436,82.7
148.9614,3378.6
149.0028,29.8
149.0187,3969.8
149.0236,6003.9
149.045,24
149.0613,356.1
149.0727,491
149.0782,19.7
149.0894,613.5
149.1645,85.8
149.1751,387.8
149.1935,256.3
149.2374,20.2
149.2735,43.2
149.3263,197.1
149.3913,200.9
149.4407,18.6
149.4483,127.5
149.5627,290.6
149.6039,391.9
149.6148,147.5
149.6635,172.5
149.6946,241.1
149.7442,88.9
149.7765,417.8
149.8122,19.6
149.8671,136.6
149.8797,169.1
149.9426,360.2
149.993,6335.6
150.014,5129.4
150.027,91.9
150.0522,400.4
150.2092,157.7
150.2387,400.6
150.2821,282.1
150.3623,83.7
150.3773,23.2
150.4489,111.5
150.5206,253.4
150.5445,136.1
150.5706,197.3
150.5947,214.6
150.6452,446
150.6477,369.3
150.6607,184.9
150.6739,103.2
150.7631,92.9
150.8029,88.7
150.8369,303.9
150.8637,258.5
150.8662,198.1
150.8756,238.4
150.8823,114
150.9199,489.5
150.9398,736.6
150.9732,621.2
150.9771,45774.9
150.9843,131.6
151.048,2374.3
151.1753,901.1
151.1998,609.4
151.2073,189.6
151.2347,168.5
151.3076,193.6
151.3717,281.4
151.4831,525.6
151.5204,138.6
151.5545,175.1
151.5925,186.2
151.607,262
151.6674,219.8
151.6848,590.3
151.7225,147.1
151.774,456.3
151.8324,790
151.9156,278.3
151.9303,616.5
151.9426,332.1
151.9635,116.3
152.0223,5472.9
152.0304,141.4
152.0321,2448.7
152.0361,816.6
152.0559,20.6
152.058,201.9
152.2015,19.1
152.2287,353.7
152.2736,72.5
152.2933,411.1
152.3296,138.2
152.3774,20.7
152.3783,17.4
152.4191,208.4
152.4758,19.7
152.5186,244.8
152.5276,253.8
152.5332,192.9
152.5676,423.6
152.5756,95
152.6067,239.1
152.6507,789.7
152.6631,359.1
152.668,205.7
152.699,492.8
152.7094,17.8
152.7375,72.7
152.7561,92.1
152.7705,815.2
152.8156,100.3
152.8768,160.3
152.9336,19.1
152.9751,2539.4
152.9799,100.2
153.0339,134.1
153.1614,212.5
153.2283,662.5
153.2668,154.7
153.4645,141.8
153.4939,19.7
153.5181,344.9
153.524,161
153.5256,440.6
153.5832,775.7
153.6061,18.8
153.6182,496.4
153.6739,218.3
153.6778,469.1
153.8121,107.4
153.8146,88.2
153.8849,463.3
153.9069,360.3
153.9361,230
153.9765,80.4
153.9915,113.6
154.0114,1290.2
154.0267,1192.2
154.0594,1410.9
154.0671,119.5
154.0761,18.2
154.096,227.9
154.1093,95.7
154.1332,608.9
154.1972,151
154.2449,186.9
154.2908,873
154.294,409.4
154.305,99
154.339,422.3
154.4248,171.2
154.4361,144.2
154.4411,487.5
154.4446,20.5
154.4505,1281
154.455,309.4
154.4612,129.4
154.4882,163.2
154.5533,86.5
154.6313,447.5
154.6802,95.7
154.7151,107.9
154.7898,541.3
154.8333,137.1
154.869,153.4
154.8808,425.8
154.8904,638.1
154.9077,36.6
154.9389,215.5
154.9418,80.8
154.9602,949.6
154.9752,732.8
154.993,335.7
155.007,170.4
155.0138,89.8
155.0221,20.8
155.0237,424.7
155.0348,222.1
155.043,914.1
155.0496,120.7
155.0542,3997
155.0793,589.3
155.1906,393.7
155.2239,472.1
155.2392,107.4
155.2659,129.2
155.3638,310.5
155.3735,107.9
155.417,223.8
155.425,219.5
155.4586,565.1
155.4682,287.7
155.4854,291.7
155.5869,697.4
155.6088,359
155.7065,370.6
155.7107,78.7
155.7472,139.5
155.7536,108
155.7773,139.3
155.793,18.2
155.8455,18.3
155.8662,443.8
155.8691,505.7
155.915,680.7
156.0268,90.2
156.0336,508.8
156.0425,3815
156.0481,18.3
156.0576,52.5
156.077,61498.6
156.08,84.8
156.0899,338.7
156.1358,88.6
156.1826,90.1
156.1843,17.6
156.3064,206.5
156.3125,601.8
156.3452,505.3
156.4428,87.7
156.5634,406.3
156.6087,102.3
156.6758,662.4
156.6799,306.7
156.715,497.2
156.7608,202.6
156.7836,274.7
156.7881,19.1
156.837,357.4
156.8778,383.7
156.9,210.6
156.9746,46.1
157.058,22.7
157.0652,106.8
157.0805,1814.5
157.0974,183.9
157.101,359.1
157.113,359.6
157.1981,279.5
157.1999,648.9
157.2532,170.5
157.3304,661.3
157.3353,286.8
157.3884,113.2
157.3949,157
157.4084,273.7
157.4224,333.2
157.5333,249
157.5519,488.3
157.5863,176.8
157.6026,168.7
157.6636,249.1
157.7103,83.3
157.7204,440.9
157.7584,38
157.7615,232.7
157.7653,86
157.7967,160.6
157.8248,137.7
157.8993,331.1
157.9391,431.7
157.9422,99.3
157.9706,19.1
157.9999,19.9
158.0073,219.2
158.0129,352.6
158.0273,5502.5
158.0997,402.8
158.1358,94.7
158.2044,196.7
158.2057,928.2
158.2928,120.8
158.3406,97.4
158.4383,312.5
158.6279,16
158.7008,95.4
158.7543,166.9
158.7654,23.8
158.7865,138.6
158.792,518
158.8088,17.9
158.8628,236.5
158.8858,108.1
158.9279,1468.1
158.9589,258
158.9644,9693.8
158.9733,230.3
158.9968,10166.9
159.0114,27.6
159.0307,210.6
159.0498,281.4
159.2166,138.2
159.2454,99.3
159.2697,72.1
159.3545,551.3
159.3942,193.2
159.4707,137.1
159.4934,19
159.5727,273.1
159.6609,90.8
159.7108,140.2
159.7833,268.5
159.8528,188.9
159.9024,531.7
159.9115,177
159.9251,211.8
159.9716,184.4
159.9747,747.9
160.0231,106.1
160.0318,260.4
160.0348,22753.3
160.0498,100.4
160.0608,116932.7
160.0695,156.9
160.1096,171.4
160.2977,100.7
160.3667,180.7
160.3845,94
160.4784,112.2
160.5173,414.5
160.5241,166.9
160.5659,317.8
160.5747,16.8
160.5778,355.2
160.6113,192.9
160.6496,87.1
160.684,18.2
160.7067,738
160.7094,94.5
160.7619,105.6
160.7803,680
160.8193,277.5
160.8916,197.2
160.9193,443.3
160.9719,133.4
160.9781,77.9
160.9908,23
161.0189,365.4
161.0641,5140.6
161.0964,21.1
161.1273,103.1
161.133,23.7
161.1366,280.3
161.1472,500.2
161.1578,278.5
161.3271,777.9
161.3348,111.7
161.3875,480.4
161.3955,841.6
161.4062,19
161.4533,207.9
161.4816,670.7
161.5049,17.5
161.556,135.5
161.567,100.6
161.5744,572.6
161.5848,162.9
161.6178,477.3
161.6444,109.1
161.716,222.3
161.7431,174.8
161.8018,345.5
161.8154,346.7
161.8405,242.3
161.8689,925.5
161.948,783.4
161.9557,139.5
161.972,282.6
162.0448,312
162.0504,20681.9
162.0652,93.9
162.1125,644.5
162.1266,90.1
162.1622,445.3
162.1783,89.7
162.2932,305.5
162.329,337.9
162.3479,125.3
162.3917,18.7
162.4096,78.9
162.4133,107.5
162.5544,73.1
162.6664,726.6
162.7204,621.6
162.7433,150.6
162.7991,17.8
162.814,185.6
162.8408,214.1
162.844,207
162.8757,236.4
162.8946,171.7
162.956,5585.9
162.9826,112.6
163.0157,4149.9
163.0394,23.6
163.0893,86.8
163.2339,176.7
163.2433,76.4
163.2454,95.1
163.256,327.1
163.5041,15.8
163.5047,16.1
163.5929,112.5
163.6328,348.9
163.6614,142.9
163.6658,224.3
163.6719,211.8
163.677,122.9
163.7597,438.1
163.7812,526.4
163.7905,290
163.9363,872
163.9492,553.3
164.0235,756.4
164.0298,14843.3
164.0671,466.1
164.0962,488.1
164.105,615
164.1939,19.6
164.2034,406
164.2473,148.4
164.2797,297.2
164.286,185.4
164.2921,324.1
164.3005,561.7
164.3614,169.5
164.3756,86.4
164.434,444
164.5399,85.1
164.6498,159.3
164.667,445.1
164.6728,257.5
164.7012,85
164.7184,17.3
164.7211,97
164.7495,291.7
164.867,17
164.8958,190.8
164.918,21.4
164.9208,4545.9
164.9303,22818.2
164.9354,2686.8
164.9705,122.7
164.9928,1845.1
165.0165,147.2
165.0286,418.9
165.0309,97.3
165.057,111.3
165.0633,266.3
165.0914,1731.1
165.1636,365.1
165.2214,120.1
165.281,18
165.3374,96.3
165.35,640.4
165.4296,22.1
165.4903,180.6
165.4988,87.3
165.5293,121.8
165.5378,277.8
165.6547,157.5
165.6673,323.3
165.7193,204.4
165.7412,145.1
165.7646,129.7
165.7725,17.7
165.81,17.2
165.885,222.1
165.9085,219.4
165.9265,120.3
165.9671,2055.3
165.9791,2933.3
165.988,3045.9
165.9952,18.8
166.0241,266.7
166.0542,256.4
166.1135,461.4
166.1441,101.7
166.3231,165.7
166.3279,403.6
166.3356,148.2
166.3726,74.8
166.3826,251.7
166.4382,707.7
166.4517,85.2
166.4704,92.5
166.4753,540.6
166.4973,182.5
166.5623,499.8
166.6252,179
166.7186,593.8
166.7757,477.5
166.7789,976.4
166.7878,171.9
166.7989,148.2
166.8197,86.7
166.8772,97.6
166.9257,119.1
166.9511,16687.9
167.0221,4365.1
167.0614,79.1
167.0891,17.4
167.1338,364.9
167.1692,169.5
167.185,767.6
167.188,80.1
167.214,19.8
167.2574,111.3
167.2811,544.2
167.2999,199.1
167.3029,422.1
167.3652,148.6
167.3846,231.7
167.3978,127.3
167.4668,94.3
167.498,325.1
167.5036,148.2
167.5888,185.1
167.6065,132
167.6551,120.8
167.6624,17.5
167.7494,769.8
167.8072,640.5
167.8096,137.8
167.8938,85.3
167.916,491.2
167.9423,169.6
167.9947,4829.5
168.004,274.7
168.0062,643.2
168.0165,93
168.0478,719.4
168.0865,264.2
168.104,389.7
168.123,87.1
168.1448,323.9
168.1987,668.3
168.2419,107.2
168.2576,150.1
168.3309,355.6
168.3674,118.9
168.4044,418
168.4285,79.7
168.4506,146.5
168.5033,452.8
168.5861,86.4
168.6382,186.5
168.6595,387.2
168.8253,291.6
168.8705,86
168.8774,138.4
168.8808,875.3
168.8928,121.7
168.8973,266.1
168.9491,1434.6
168.9557,426.8
169.0245,196.8
169.0587,51726
169.0614,21.6
169.0651,1245.5
169.0767,744.3
169.095,1159.2
169.0974,1145.3
169.1578,17.8
169.1955,492.8
169.2915,188.4
169.2989,271.8
169.3202,176.2
169.3992,526.8
169.424,20.5
169.4338,265.7
169.4516,135.2
169.5743,964.5
169.6116,91.3
169.6272,106.8
169.6301,91.2
169.6451,967.5
169.7999,122.5
169.8402,130.1
169.8786,89.7
169.9862,1177.3
170.0065,96.4
170.0273,462.1
170.033,3451.2
170.0621,651.1
170.0678,138.6
170.0928,406
170.1162,158.2
170.1305,188.4
170.1499,245.3
170.1544,637
170.1825,223.4
170.2219,352.8
170.2437,257.1
170.3036,615.5
170.3859,807.3
170.3952,187.2
170.4597,201.4
170.502,267.1
170.517,147.7
170.529,118.4
170.536,338.2
170.5453,107.3
170.5555,818.9
170.7125,459.1
170.7429,118.4
170.766,238.7
170.8547,4714.3
170.9612,94.7
171.0171,959.3
171.0282,358.3
171.0408,319.8
171.0446,78.1
171.0738,719.8
171.1321,272.4
171.2017,186
171.2109,793.6
171.2607,144.1
171.2841,80.1
171.324,136.5
171.3652,477.9
171.4282,383
171.536,525.1
171.5597,526.8
171.635,177.5
171.6529,17.6
171.7583,19.5
171.8168,90.6
171.8344,81.4
171.8892,85.7
171.9732,201.4
172.0199,19
172.0258,144.3
172.0285,1835.3
172.0349,184.7
172.0656,100.1
172.0992,518.2
172.1357,117.9
172.1994,497.1
172.2112,113.2
172.3641,109.9
172.431,812.7
172.4565,197.2
172.4588,409.1
172.4942,453.5
172.5977,189.2
172.6555,435.7
172.6982,96.5
172.7404,606.4
172.8424,131.8
172.8517,2354.6
172.9045,251.3
172.9137,660.9
172.9731,136
172.9966,147.1
173.0125,95.1
173.0271,423
173.0447,628.9
173.0482,285.3
173.065,263
173.1355,91.7
173.1405,156.9
173.1495,18.2
173.1955,19.6
173.216,93
173.2261,139.1
173.3491,140.1
173.4336,321.7
173.4694,111
173.4755,349.5
173.5622,118.3
173.6923,125.5
173.7056,178.6
173.7226,141.9
173.7343,167.2
173.7386,770.1
173.812,201.9
173.8485,92.4
173.9605,137.7
173.9631,338.3
173.981,438
174.0148,272.4
174.0304,27.7
174.0592,762.4
174.1287,127.3
174.2473,123
174.3333,358.7
174.3525,373.5
174.4172,96.9
174.4306,91.6
174.4585,177.6
174.4897,87.6
174.5539,80.6
174.5678,360.2
174.642,331.4
174.6436,369.3
174.7116,84.5
174.7428,229.1
174.8075,733.4
174.8353,92.2
174.8418,19.6
174.8492,420.1
174.8761,145.2
174.9344,329
174.9385,2725.6
175.002,767.1
175.0181,133.5
175.0345,8999.5
175.0458,3755.9
175.0659,359.6
175.1095,170.2
175.1194,104766.9
175.1706,96.7
175.1943,90.6
175.2184,138
175.2315,76.1
175.2879,565.1
175.2942,217.3
175.3546,701.8
175.3648,482.4
175.3688,425.2
175.4526,869.8
175.4622,170.6
175.5412,17.6
175.5442,18.5
175.5808,135.5
175.6035,369.8
175.6177,802.9
175.6312,87.4
175.6964,140.2
175.7959,94.9
175.8103,115
175.8199,453.4
175.8555,823.9
175.8716,20.3
175.905,185.6
175.9874,190.8
176.0089,10167
176.0317,100.2
176.0565,18.7
176.0662,33663.8
176.0843,137.4
176.1034,1347.8
176.1113,155.7
176.1227,2651
176.1922,122.6
176.2698,88.2
176.2835,695
176.4064,722.6
176.4459,191.8
176.5509,115.4
176.5664,837
176.5869,454.4
176.664,17
176.7196,174.8
176.752,336.9
176.8027,275.9
176.8592,153.8
176.9928,1824
177.0074,20.1
177.0252,3493.6
177.0324,163.4
177.0515,396.9
177.0615,4557.2
177.0696,544.4
177.0875,1281.6
177.1647,127.3
177.2742,155
177.3922,108.9
177.4424,130.1
177.445,18.9
177.4636,227.9
177.607,428.2
177.6111,581
177.7807,387
177.7849,121.9
177.8484,155.7
177.8716,704.6
177.8849,381.1
177.9034,119.9
177.9181,479.1
178.0091,12822.7
178.0245,12032.7
178.0591,5008.6
178.141,802.4
178.1997,508.9
178.2205,107.2
178.2944,325.1
178.2984,113
178.4183,765
178.448,282
178.4632,158.3
178.5184,175.8
178.5561,94.8
178.6033,113.5
178.6367,345.5
178.6979,747.3
178.7274,230.5
178.7538,567.7
178.7868,170.3
178.8146,142.8
178.8593,83.2
178.8684,188.1
178.8818,670.3
178.8997,167.4
178.9179,99.2
178.9908,742.6
179.0003,119.5
179.051,102.4
179.0855,486.3
179.1007,429.9
179.1234,121.7
179.2126,737.1
179.2298,173.3
179.2866,245.9
179.3244,306
179.3688,90.5
179.4577,224.3
179.4918,124.6
179.5109,94.3
179.5521,150.4
179.7188,203.8
179.7829,171.6
179.859,251.3
179.8998,84.2
179.9374,107.5
179.9464,77.2
179.9787,223.5
180.0037,8924.8
180.0276,19.3
180.049,669.3
180.0513,241.7
180.1558,174.8
180.1602,175.9
180.2179,125.9
180.2273,178.9
180.2363,439.1
180.3336,170.9
180.3867,99.6
180.4099,143.8
180.5138,113.5
180.519,152.5
180.5304,99.5
180.5453,200
180.5779,106.8
180.6779,301.5
180.6871,376.9
180.71,289.9
180.7667,214.2
180.7876,89.6
180.8721,499.6
180.8948,3515.7
180.9043,13193.3
180.9096,777.4
180.9529,128.6
181.0082,474.2
181.0267,891.3
181.0653,11342
181.1459,259.7
181.2112,21
181.2376,443.5
181.2465,679.8
181.3078,241.2
181.3912,111.1
181.4955,227.4
181.5263,199.7
181.53,121.1
181.6559,849.4
181.9617,505.4
181.9675,253.5
182.0157,26.4
182.0273,78.3
182.0428,42399.1
182.0615,103.7
182.0732,102.4
182.0809,294.8
182.0923,227.7
182.1218,16.3
182.2356,121.7
182.346,94
182.4011,717
182.461,313
182.5598,277.6
182.5866,150.2
182.6215,550.3
182.6352,101
182.6662,566.3
182.7144,81
182.8139,586.5
182.8653,89.7
182.8691,17.3
182.8774,19.8
182.9047,452.9
182.9968,91.1
183.0075,87.6
183.0174,89.2
183.0297,172.9
183.0382,568.3
183.0448,3880.9
183.0646,242.1
183.0986,102.3
183.1765,127.9
183.2011,105.7
183.3345,284.4
183.4958,16.9
183.665,149
183.7244,152.6
183.7721,538.5
183.8385,20.2
183.9124,125.7
183.9308,100.5
183.9652,1932.7
184.0375,674.2
184.0657,495.7
184.0738,4207684
184.0799,1449.4
184.1099,1057.1
184.1164,140.9
184.1701,47.4
184.1825,1488.8
184.1961,692.6
184.289,162.1
184.319,236.8
184.3351,82.7
184.4707,107.3
184.5253,203.4
184.5394,306.2
184.5442,172.3
184.5575,86.7
184.5633,83.2
184.5828,19
184.5874,381.2
184.6631,225
184.6734,414.5
184.7075,804.9
184.7551,229.5
184.9216,474.6
184.9667,647.4
184.9997,697
185.0327,53827.2
185.0707,10500.4
185.0771,195643
185.0876,153.4
185.1581,453.5
185.3382,363.5
185.3558,398.2
185.4087,381.1
185.4111,108.6
185.432,88.5
185.4848,86.7
185.4891,661
185.5283,293.8
185.5879,215.9
185.6377,200.2
185.6608,74.4
185.7149,924.8
185.7902,140.4
185.836,743.5
185.8465,103.3
185.8501,228.8
185.8742,157
185.8854,91
185.9107,121.3
185.9605,546
185.9963,234.7
185.9986,734.7
186.0361,1147.4
186.0616,99.5
186.078,28711.3
186.1034,115.7
186.2839,588
186.3565,81.7
186.5553,95.2
186.5812,663.3
186.6249,473.2
186.7167,127.2
186.8031,261.2
186.9125,5041.4
186.9359,139.2
186.9706,17.7
187.0309,3522
187.0554,245.1
187.0582,5944.4
187.0718,2318.3
187.1082,7658.7
187.1731,101.2
187.1859,726.6
187.2088,133.4
187.2656,340.4
187.2869,82.2
187.2891,192.6
187.3156,121.5
187.3739,111.3
187.3812,21
187.3919,83.7
187.4091,88.5
187.4428,236.9
187.4685,171.5
187.497,452.1
187.7556,159.3
187.7805,84.3
187.7833,521.4
187.9583,104.2
188.1745,86.1
188.2214,226.1
188.2573,539.2
188.2998,172.8
188.304,156
188.3185,597.6
188.3258,123
188.3496,191.7
188.4779,226.5
188.5167,168
188.5577,107.9
188.605,286.5
188.6091,18.9
188.6429,109.1
188.722,401.7
188.8058,223.1
188.8094,99.5
188.8167,282
188.8473,745.4
188.994,92.9
189.0615,3828.6
189.0875,10965.9
189.1177,137.9
189.1477,135.8
189.1736,189
189.3597,617.3
189.43,17.3
189.4414,117.6
189.4862,195.7
189.5605,19.1
189.5831,219.6
189.6129,362.5
189.6171,99.8
189.6334,133.4
189.639,19.9
189.6559,93.7
189.6673,95.4
189.9005,490.6
189.97,530.6
190.1682,151.4
190.2372,18.2
190.5132,391.2
190.6092,17.8
190.62,19.3
190.7385,542.2
190.7417,20
190.904,744.3
190.9125,1508.4
190.9447,107.5
191.0085,7577
191.0408,105194.8
191.0772,18703.8
191.168,557.3
191.1707,109.1
191.2059,483.1
191.425,312.9
191.4442,172.5
191.5138,513.5
191.6217,148.4
191.6612,92.8
191.6744,412.4
191.7106,125.1
191.7466,444.3
191.8864,239.8
191.8931,153.3
191.9308,18.5
191.9828,1626.8
191.992,200.3
192.0402,15390.6
192.0442,2566.4
192.1911,124.3
192.2376,138.9
192.3116,207.1
192.3377,222.2
192.4214,18.4
192.4666,305.5
192.5124,464.8
192.5487,741.7
192.5504,403.1
192.6344,582.9
192.7095,89.9
192.742,236.5
192.7427,214.4
192.7553,825.1
192.7697,105
192.811,218.3
192.88,222.2
192.9365,576.3
192.9616,422.3
192.999,1563.3
193.0067,531.4
193.0354,1216.3
193.0419,438.3
193.1497,252.2
193.1889,81.1
193.3261,26.5
193.4972,199.1
193.6581,850
193.6611,153.6
193.7227,126.1
193.7613,120.3
193.8157,423.3
193.8675,325.6
193.8975,151.2
193.9351,95.5
193.9748,149.5
193.9937,521
193.9985,924.4
194.0054,616.7
194.0107,722
194.0229,663.1
194.033,1322.9
194.0876,313.3
194.1203,155.4
194.1372,135.4
194.1544,61.4
194.1584,95.6
194.2619,186.6
194.2856,490.4
194.4118,412.8
194.4258,152.4
194.5474,198.8
194.6138,492.7
194.6742,214.6
194.6811,262.8
194.7524,547.6
194.8093,596.9
194.818,138.9
194.8841,18.1
194.8874,96.2
194.9154,97
194.9232,162.2
195.0128,81.5
195.0268,228.6
195.0373,803.5
195.0446,568.4
195.0959,154
195.1512,735.6
195.241,133.3
195.2648,153.9
195.2951,620.7
195.3111,288.8
195.3407,117.9
195.3714,90.8
195.378,106.7
195.5103,92.5
195.6687,659.8
195.6962,162.5
195.8194,198
195.8274,534.5
195.8489,80.8
195.9604,21
195.9672,79.3
195.978,1133
195.984,167.1
196.0796,116.5
196.082,226.8
196.1017,124.2
196.1435,18.6
196.1701,278.4
196.2591,303.3
196.3855,859
196.4235,392.6
196.4269,637.3
196.4854,148
196.5079,165
196.527,17.2
196.5306,322.4
196.5372,20.6
196.6689,353.3
196.7738,17.8
196.8328,109.2
196.8656,5005.1
196.869,730
196.8755,414.8
196.8784,3873.6
196.9781,17.2
197.0148,448.1
197.0236,666.8
197.0333,112.8
197.0875,204.7
197.1014,2828.7
197.1106,292.5
197.2149,286.8
197.2731,113.5
197.3059,19.1
197.4005,876
197.4146,94.3
197.4178,235.3
197.4698,473.2
197.4923,112.8
197.4981,101.3
197.5049,188.6
197.5547,80
197.6122,209.3
197.6389,688.5
197.6585,95.9
197.7134,90.4
197.8645,605.7
197.907,602.4
197.9301,386.8
198.0072,128.4
198.0198,18.3
198.0854,8182.2
198.0895,791.8
198.1007,313.2
198.1488,830.3
198.169,174.6
198.1858,7714.4
198.2137,81.6
198.2879,187.5
198.2982,142.8
198.3537,70.7
198.3793,918.6
198.4138,461.2
198.4319,18.8
198.5165,153.4
198.5221,222.6
198.5605,91.6
198.5796,165.6
198.586,662
198.6045,143.3
198.6818,92.2
198.7346,21.2
198.7402,401.3
198.8346,128.1
198.8626,5939.9
198.8901,82.2
198.9335,181.1
198.9479,18.2
198.9599,396.1
198.9693,147
198.9741,65.4
199.0394,102.2
199.0696,273.7
199.076,3072.2
199.0807,127.2
199.1548,223.9
199.1657,130.3
199.1892,290.6
199.2475,437.7
199.2959,129.2
199.3305,366
199.4096,19.2
199.4165,517.2
199.4306,183.7
199.5947,286.4
199.6068,105.4
199.707,90.1
199.7606,18.5
199.8175,74.8
199.9648,790.9
199.9681,354.6
199.9911,36993.6
200.0021,215.3
200.0086,506
200.019,448.8
200.0412,15060.4
200.0752,421.8
200.109,183.5
200.1567,12677.8
200.1662,112.7
200.2342,302.7
200.2375,230.1
200.241,151.1
200.2425,136.6
200.2433,145.3
200.2763,115.3
200.4366,427.4
200.4387,95.7
200.445,339.4
200.4728,385.4
200.479,260.9
200.5148,79.9
200.5234,139.9
200.5518,16
200.5836,224.2
200.7333,122.1
200.744,117.8
200.8599,527
200.9011,178.7
200.9821,943.8
201.0022,447.5
201.044,352
201.0551,795.3
201.0875,667.4
201.1127,838.2
201.1526,226.9
201.1581,548.5
201.1961,20.1
201.2002,313.4
201.221,25.4
201.2378,126.5
201.3215,232.8
201.3744,18.6
201.4433,17.3
201.5768,240.6
201.5926,141
201.6101,107
201.6629,87.6
201.744,21
201.7531,221.5
201.8071,607.1
201.8652,18.5
201.9339,597.2
202.0934,466.4
202.1829,116.9
202.2039,405.6
202.2256,382.6
202.2868,103
202.458,87.1
202.5151,910.2
202.5202,16276.4
202.5491,116.4
202.584,172.6
202.6028,93.9
202.8265,397.7
202.875,123.4
202.9271,331.2
202.9624,446.4
202.9707,120.9
202.9958,35.8
203.0322,2561.1
203.0531,1275039.1
203.0651,867.6
203.0772,9909.5
203.1707,725.6
203.2363,17.9
203.2805,19.3
203.3295,616.8
203.334,141.8
203.4148,83.4
203.4173,169.8
203.4445,946.9
203.4655,81.3
203.5017,504.6
203.5363,89.2
203.6266,220.1
203.6368,19.1
203.7784,104.6
203.896,200.5
203.9359,241.6
203.9659,473.1
203.9731,519.4
204.0249,56117.1
204.0334,389.9
204.0423,592.8
204.0565,63963.2
204.087,405.2
204.2476,20
204.2503,217.9
204.2798,90.4
204.3097,746.2
204.3581,727.6
204.4519,110.1
204.4787,385.7
204.4914,382.3
204.5014,210.7
204.5124,438.8
204.5569,502.4
204.5679,17.1
204.6305,678.2
204.7223,474
204.8016,744.3
204.81,465.8
204.8512,485.8
204.8897,600.6
204.9855,106.5
204.9957,21.4
205.0028,92
205.0141,386.7
205.0243,536.1
205.0281,327.5
205.0574,8750.2
205.0688,2725.8
205.084,66.6
205.098,833.7
205.2686,79.9
205.3728,854.6
205.3764,20.2
205.3898,120.7
205.4441,220.5
205.4735,19
205.5469,558.4
205.6505,170.2
205.6813,219
205.8556,166.2
205.908,90
205.9499,115.9
205.9543,83.4
205.9727,307.9
205.9917,209.8
206.0025,18.5
206.0254,107.5
206.0969,511.7
206.1142,210.1
206.1538,17.2
206.1972,19.6
206.2084,226.5
206.2963,454.8
206.3227,141.7
206.3691,487.8
206.3957,103.5
206.4255,209.4
206.4463,282.9
206.4678,475.6
206.5165,17.8
206.5932,142.9
206.5999,156
206.6178,87.4
206.7122,276.5
206.7624,498.5
206.8054,464
206.8378,681.4
206.8613,588.1
206.8944,15362.4
206.9295,300.8
206.9348,526.7
206.9825,3258.8
207.0148,68620.7
207.0229,590.6
207.0446,4142.8
207.0512,7809.2
207.0584,80.2
207.1179,353.4
207.1644,1068.4
207.2227,256.4
207.2952,20.1
207.4002,110.1
207.4588,383.3
207.7824,222.9
207.8319,442.6
207.8584,234.4
207.9052,915.7
207.9407,171.7
207.9465,91.6
208.0141,2028.7
208.018,1503.6
208.0678,233.1
208.0807,113.6
208.2234,89.5
208.256,506.4
208.3084,186.7
208.4573,134.5
208.735,228.7
208.7655,185.5
208.8357,306.8
208.8914,10534.5
208.9141,562.7
208.9374,370.6
208.9382,390
208.9467,368.4
208.9556,24.5
208.9649,144
208.9737,630.5
209.0128,1957
209.0263,23
209.0443,117
209.1223,937.8
209.1527,340.8
209.1853,90.4
209.234,92.1
209.2528,763.4
209.2906,178.2
209.3385,131.5
209.3768,362.4
209.392,681.2
209.4305,179.6
209.4454,180.2
209.5093,25.6
209.5377,81.7
210.7106,147.5
210.7565,155.2
210.8196,327.5
210.8591,98.5
210.889,455.5
210.9344,445.9
210.9371,699
210.9524,613.1
210.9726,230.5
211.0382,168.2
211.0569,877.9
211.0696,2369.3
211.1179,543.3
211.1885,201.5
211.1926,1650.7
211.205,29592.1
211.2077,33377.3
211.2162,8677.3
211.2439,366.7
211.4541,363.2
211.6881,141.7
211.6967,20.2
211.7899,761.5
211.7987,270.3
211.8282,16.9
211.9758,105.9
212.0018,316.5
212.0141,21.1
212.0745,110.3
212.0809,138
212.1348,143.8
212.1633,376.1
212.2662,152.6
212.2785,413.6
212.2933,20.5
212.3527,150.3
212.4018,119.1
212.4756,321.6
212.5034,88.1
212.5736,90.1
212.7681,822
212.8179,368.4
212.8394,3188.5
212.8828,136
212.8982,917.9
212.9026,636.6
212.9789,648.7
213.0427,425.6
213.0472,150
213.0553,1139.6
213.0756,522
213.0954,181.5
213.1418,86.8
213.1554,17.8
213.1895,85.6
213.2611,293.2
213.2946,17.1
213.4071,177.8
213.4157,528.4
213.6278,21.3
213.6606,126.8
213.7312,316.6
213.7937,390
213.9626,27.9
213.9851,514.9
214.0065,1224.3
214.0384,108.5
214.0594,8608.6
214.0755,143.7
214.0902,1260.2
214.1885,335.3
214.1923,460.7
214.2201,351.8
214.2258,92.5
214.3597,79.3
214.4131,104.7
214.4278,82.5
214.5311,92.4
214.5607,90.9
214.571,134.3
214.6516,543.8
214.6792,166.5
214.689,17.4
214.7562,182.6
214.8364,1603.4
214.8616,153.7
214.9028,477.3
214.9108,458.6
214.9183,1094.3
215.0216,379.4
215.043,153.9
215.0936,123
215.1697,402.5
215.1863,282.5
215.2375,484.3
215.3277,22.5
215.4078,462.4
215.4489,170.8
215.5169,211.6
215.547,572.2
215.5628,369.8
215.7517,405.4
215.7619,164.3
215.8016,601.5
215.8549,782.6
215.9582,20.8
215.9806,21.2
216.0152,10960.2
216.0216,316.9
216.0749,109.9
216.1272,175.4
216.1471,90.8
216.318,158.1
216.4261,507.8
216.451,553.5
216.4681,303.7
216.6848,499
216.7065,159.4
216.7651,218.5
216.7825,223
216.8816,382.6
216.9233,41355.9
216.9515,18.2
216.9848,28.3
216.9936,691.7
216.9995,259.3
217.004,218.3
217.0191,21.8
217.0824,357.9
217.1956,96.8
217.2109,126.2
217.3881,183.4
217.4112,128.2
217.4302,19.5
217.5077,25.3
217.5672,462.7
217.6099,144.9
217.6193,105.8
217.6336,513.3
217.6604,136.4
217.6797,118
217.6887,124.6
217.7982,233.3
217.8458,483.2
217.8902,125.3
217.9037,84.1
218.0027,88.8
218.0069,28.4
218.0159,24.1
218.0191,538.5
218.0527,20.1
218.0916,117.9
218.1523,69.6
218.2606,181.8
218.2691,125.1
218.2812,144.5
218.2905,175.3
218.4052,87.8
218.4097,429.8
218.4359,80.5
218.4615,92.1
218.5672,89.3
218.5783,145.7
218.5868,178.4
218.6905,125.5
218.7,1022.9
218.7469,1025.8
218.8633,208.2
218.8717,146.9
218.8757,126.1
218.9204,10661.7
219.0182,1230.2
219.0271,1366446.8
219.0341,545.3
219.0834,9919.4
219.1134,136.6
219.1465,234.8
219.2028,24.2
219.367,19.7
219.393,113.9
219.5504,197.6
219.6175,829.7
219.6242,417.4
219.8149,349.7
219.8296,368.7
219.9989,419.8
220.0217,284.2
220.0305,72372.4
220.0378,1870
220.0674,11197.2
220.1634,591.4
220.1678,501.5
220.4473,442.5
220.4615,115.8
220.5407,92.3
220.5934,373
220.7403,90.5
220.7709,417.2
220.7985,119.4
221.0253,84701.9
221.0315,10491
221.0427,1588.3
221.0515,1851.1
221.088,817.9
221.186,186.7
221.3198,315.5
221.3588,16.1
221.4723,174.5
221.6047,90.3
221.7096,87.3
221.7707,298.1
221.8022,185
221.9133,517.5
221.9439,331.2
221.9567,332.8
221.9843,2659.7
222.0284,1426.4
222.109,143.2
222.2727,382.5
222.3555,484.9
222.3657,827.3
222.3935,314.5
222.4737,90.4
222.5151,793.6
222.835,112.6
222.8684,15603.3
222.8797,1162.6
222.8892,1272.8
222.9838,203
222.9887,8337.3
223.0111,20.5
223.0147,417.3
223.0246,610.6
223.0285,165.6
223.0384,158
223.1398,858.3
223.1558,137.2
223.2214,299.8
223.2344,317.2
223.4367,138.4
223.4595,304.1
223.6022,92.6
223.7113,526.5
223.7738,394.3
223.8699,166.4
223.8829,435.1
223.9538,83.4
224.0301,842.1
224.1274,573.8
224.38,143.5
224.4706,687.3
224.6205,172.7
224.8654,8172.6
224.8766,318.6
224.8889,168.5
224.9655,142.7
225.0139,99.1
225.0553,34631.2
225.0854,542.9
225.156,466.2
225.1626,81.6
225.2482,822.1
225.4551,577.8
225.4992,413.9
225.5076,479.9
225.6899,156.1
225.7051,118.2
225.8019,22.6
225.8487,84.4
225.874,388.1
225.9128,147.5
225.9634,97.7
225.9875,487.5
226.0026,114.7
226.0067,1992.2
226.0172,227.7
226.0247,7399.4
226.0456,8029.2
226.0584,112.8
226.1355,488.6
226.1649,93.3
226.3217,231.5
226.3291,19.8
226.3913,18.4
226.5052,131.8
226.546,89.6
226.6182,194.6
226.7517,176.5
226.7923,621.2
226.8021,560.8
226.8828,187
226.9521,34389
226.9716,716
226.997,566.3
227.0345,2632.4
227.0614,438
227.0798,1009
227.0869,176.6
227.0889,91.6
227.09,90.4
227.3313,175.4
227.556,21.2
227.601,88.5
227.6094,21.7
227.6845,86.3
227.75,321.8
227.8767,93.8
228.001,1553
228.0118,313.8
228.0165,289.5
228.0225,651.2
228.1,387.3
228.142,103.5
228.237,463.4
228.2443,475.8
228.2686,21.1
228.4454,91.5
228.4817,239.8
228.497,718.4
228.5442,385.8
228.5575,419.8
228.568,94.9
228.6803,209.6
228.6879,674
228.7028,145.3
228.8129,418
228.8207,87.5
228.8647,153.6
229.018,212
229.0506,145.2
229.1105,455.6
229.1524,837.2
229.1734,76.8
229.2336,83.4
229.2533,96.2
229.3585,83
229.3654,283.1
229.4063,17.5
229.412,285.2
229.4403,148.1
229.4561,321.7
229.5177,126.8
229.526,17.5
229.5294,146.4
229.6312,190
229.6878,89.2
229.7878,200.1
229.9575,141.6
230.0334,723.5
230.0737,154.4
230.115,547.6
230.2706,159.4
230.2746,18.8
230.4021,628
230.45,640
230.5551,165.1
230.6558,247.3
230.711,185.8
230.7272,285.9
230.7455,898.8
230.7638,19.2
230.8108,485.9
230.8498,21.7
230.88,137.1
230.9257,350.7
230.9457,113.5
230.9908,80.1
231.0028,309.3
231.0685,83.8
231.1652,533.5
231.225,137.1
231.3339,634.1
231.4824,236.1
231.6767,341.8
231.8217,341
231.845,382.5
231.9593,91.4
231.9958,306.7
232.0094,563.5
232.0149,484.6
232.3906,89.5
232.4519,91.6
232.5143,92.7
232.5617,129.9
232.6631,19.4
232.7827,157.2
232.8162,476.1
232.8312,90.3
232.8804,613
232.8973,35787.4
232.9376,144.4
232.986,1601.8
232.9949,19.9
233.0515,10553.5
233.0782,261.9
233.0817,511.3
233.1038,97.5
233.1079,17.6
233.2896,145.4
233.3119,178.4
233.4229,347.4
233.4369,100.7
233.4849,107.3
233.5563,198.1
233.6109,928.8
233.7216,99.5
233.8099,162
233.8294,17.5
233.9572,87.2
234.0352,108.7
234.0544,243.9
234.0693,173.3
234.0895,111.8
234.1005,330.7
234.109,107.7
234.1451,151.2
234.4937,466.7
234.5172,77.4
234.5526,151.3
234.616,105.7
234.6469,338.2
234.6776,178.6
234.7274,663.3
234.7965,791.4
234.8421,20
234.8941,8257.3
234.9162,75.6
234.9546,318.2
234.9821,2009.1
235.0573,4880
235.0673,3161.5
235.0778,317.4
235.08,319.3
235.0931,21643.5
235.119,411.8
235.1386,139.6
235.1637,354.7
235.1932,168.2
235.2467,269.9
235.259,128.7
235.4008,646.6
235.433,83.3
235.6645,156.1
235.6884,412.4
235.6945,728
235.7078,21.5
235.7592,171.1
235.8258,244.1
235.8757,439.6
235.9132,156.9
236.0258,541.9
236.0415,4901.1
236.0722,46073
236.0966,98.9
236.1392,238.6
236.1698,292
236.185,152.1
236.2097,93.8
236.4798,147.6
236.5125,116
236.5167,196.9
236.6423,18.7
236.682,103.9
236.7097,22.2
236.7387,101.9
236.8803,662.6
237.0756,1264.4
237.0828,273.6
237.0989,151.8
237.1125,437.4
237.3256,115
237.3408,401.6
237.3464,333.4
237.45,212.4
237.501,362.2
237.6213,92.6
237.6495,786
237.8034,607.7
237.8171,192.4
238.068,524.8
238.0782,24.3
238.0952,103.5
238.2961,19.7
238.3014,18.5
238.4744,96.1
238.6215,617.3
238.6421,90.8
238.6753,582.7
238.8424,4454.4
238.8537,916.9
238.8755,79
239.0506,587.3
239.0645,1803.1
239.0686,1049.1
239.0827,167.5
239.0889,437.5
239.327,114.3
239.4202,280.1
239.4398,243.3
239.4962,164.8
239.5244,97.6
239.5907,133.8
239.5977,139.7
239.6911,445.8
239.7025,485.6
239.7813,193.9
239.8361,102.3
239.8563,306.2
240.0287,446.8
240.1002,3285.7
240.3793,131
240.3856,450.2
240.4254,751.3
240.4894,19.8
240.5672,244.5
240.5895,142.5
240.6336,163
240.7199,426.6
240.7613,123.4
240.8163,122.8
240.8394,1767
240.9508,407.3
240.9552,1427.1
240.9678,1222.1
240.9843,171.5
240.9938,176.3
241.3145,20.3
241.3207,95.4
241.4446,93.8
241.4965,233.1
241.5949,525.9
241.6729,92.8
241.7145,227.6
241.76,124.6
241.8489,18.3
241.9802,99.6
241.9844,18.6
241.9985,572.7
242.0036,435.7
242.0196,3062.4
242.035,175.5
242.092,86
242.1863,92.9
242.3139,79.6
242.4542,193.9
242.5534,394.3
242.629,94
242.8076,292.6
242.9056,221.6
242.9261,16694.6
242.9412,20.5
242.9833,419.5
243.0055,215.9
243.0336,149.2
243.0538,6691
243.0659,14437.4
243.2403,147.6
243.2571,23.7
243.2918,803.9
243.3087,103.5
243.5106,162.6
243.7568,186.5
243.7763,294.1
243.7834,136.2
243.8761,83.5
243.9733,133.3
244.0131,926.1
244.3278,515.1
244.4491,434.4
244.4916,18.1
244.5992,429.5
244.6097,93
244.6234,135.1
244.645,26.1
244.7053,174.9
244.7616,141.8
244.7877,816.2
244.8505,758
244.8672,1018.1
244.8713,9249.8
244.9499,196.7
245.016,21.1
245.3871,217.7
245.57,752.9
245.685,303.4
245.9224,381.5
245.9698,139.1
246.0016,194.3
246.0111,47.9
246.1715,226.9
246.3601,81.6
246.3845,170.9
246.4065,162.6
246.5052,117.5
246.7763,85.3
246.779,76.8
246.802,371.2
246.8072,111.6
246.8685,1914.2
246.9002,495.8
246.9309,146.8
247.018,158.7
247.029,823.6
247.0672,1591.6
247.0931,6380.1
247.1273,127.3
247.2871,425.6
247.2924,311.8
247.3305,445.1
247.4131,235.7
247.4771,496
247.4929,767.3
247.5755,130.2
247.6302,640.4
247.7355,256.3
247.8174,344.3
247.8625,622.4
247.8795,793.6
247.9,73.3
248.0968,64.3
248.1248,7733.5
248.189,101.4
248.2949,70.5
248.3144,101.7
248.3178,90.7
248.4544,84.4
248.5122,340.2
248.7596,470.2
248.8519,350.1
248.8713,9346
248.9601,4375.8
249.0167,2470.3
249.0525,19.5
249.0618,12239.3
249.0819,105
249.1132,780.3
249.1545,83
249.177,84.3
249.1813,931.5
249.5787,113.1
249.6018,113.6
249.6783,89.4
249.7337,177
249.8051,122.4
249.8315,124.8
249.8849,394.4
249.9288,19.1
250.0327,18.5
250.065,832.9
250.0946,122.7
250.1156,22
250.1259,80.3
250.1993,352.1
250.2319,546.8
250.5398,201.8
250.7754,18
250.8687,885.3
250.9208,2396.7
250.944,328.9
250.9532,97.6
251.0011,75.3
251.0346,781.2
251.0442,112.6
251.2386,130.8
251.3126,90
251.35,170.6
251.3791,137.5
251.4424,121.4
251.5349,152.2
251.7155,501.7
251.801,898
251.8367,254.8
251.9255,21.5
251.9782,129.3
252.0302,21.2
252.0372,171.4
252.0462,96964.4
252.1287,175.4
252.1335,339.4
252.1406,441.7
252.1474,18.8
252.1511,210
252.176,227
252.1791,109.4
252.1876,719.3
252.2223,259.1
252.2449,868
252.4789,98.6
252.7002,79.7
252.7093,191.4
252.7244,393.2
252.729,90.4
252.8438,374.3
252.8453,559.3
252.8466,475.5
252.8505,392.9
252.8862,124.6
252.9139,472.3
252.9534,228.8
252.9978,28.7
253.0078,93.4
253.0494,5644.6
253.0808,129.5
253.1158,78.1
253.1986,219.9
253.4117,649.2
253.5654,110
253.5975,232.6
253.7873,92.9
253.8076,969.8
253.825,137.3
253.9115,776.4
254.0031,573.5
254.0426,1465.5
254.0442,1518.5
254.0704,26.9
254.2159,151.7
254.4039,198.8
254.5084,110.6
254.6439,353.2
254.654,153.6
254.7425,375.3
254.8056,97.7
254.8164,976.5
254.8244,7017.4
254.9004,1160.5
254.9309,97
255.0335,24362.6
255.0471,1271.5
255.0836,149.8
255.1258,98
255.2498,501.5
255.262,1104
255.3057,754.7
255.359,20.7
255.4437,19.8
255.5859,310.1
255.6234,225.6
255.7,113.1
255.7079,258.8
255.727,685.5
255.8363,585.6
255.9334,107.7
255.9602,87.4
255.9836,22
256.047,98.9
256.0589,147.3
256.0671,202.7
256.0778,18.9
256.1273,431.1
256.2614,82.6
256.3244,74.2
256.3413,142.3
256.4612,1070.6
256.4948,486.2
256.6663,414.6
256.6737,429
256.6904,646.2
256.7034,130.9
256.8131,470.3
256.8214,11871.9
256.9295,664.2
257.0448,107.5
257.0492,9230.5
257.0659,1852.7
257.0752,66898.2
257.087,241.8
257.1596,82.7
257.213,416.9
257.2447,95.2
257.2513,70.5
257.272,311
257.3668,170.9
257.3718,113
257.3758,198.9
257.5655,22.5
257.6545,193.3
257.6907,605.4
257.714,102.7
257.7612,176.1
257.9107,301.9
257.9662,98.3
258.027,155.1
258.0689,149.7
258.0747,183
258.0786,3484.6
258.1109,28906.2
258.1778,91.3
258.2216,20.7
258.2647,86.6
258.3126,463.6
258.3187,460.2
258.3837,311.9
258.4045,377.4
258.4766,402.7
258.575,475.7
258.579,188
258.6369,286.7
258.6601,299.9
258.7349,201
258.7361,217.8
258.7378,110.8
258.7975,412.7
258.8186,4700.1
258.9003,1404.7
259.0548,96.3
259.0649,433.4
259.4071,243
259.4293,18.4
259.4971,143.7
259.5277,505.4
259.5356,515.8
259.5499,332.3
259.5552,74.8
259.7754,128.4
259.8802,157.2
259.8834,145.8
259.9595,316.8
259.9666,311.8
260.0175,67.7
260.0211,19.3
260.0268,21.4
260.1134,492.2
260.203,706.4
260.2108,145.9
260.2629,91.3
260.3431,205.1
260.415,201.1
260.4767,416.5
260.5167,83.9
260.8385,729.8
260.8453,1575.8
260.8697,20.7
260.91,141.7
260.9497,7467.8
261.033,90.3
261.0462,551.6
261.256,19.4
261.3116,412.7
261.3629,165.4
261.4896,613.2
261.5842,149.6
261.6315,282.8
261.6859,925.1
261.7632,194.6
261.9712,455
261.9829,130.5
262.0141,208.4
262.0826,2864.9
262.2092,152.6
262.2152,216.4
262.2177,267.2
262.2533,231.1
262.5702,328.1
262.607,88.3
262.6215,19.9
262.7489,337.9
262.7767,343.9
262.7899,802.6
262.8325,875.5
262.908,310.1
262.9195,545.3
262.9464,985
262.9595,176.8
263.0472,102.6
263.0861,2482.6
263.3408,356.7
263.4875,18.4
263.6345,19.1
263.8528,159.9
264.0213,421
264.0701,19.4
264.2515,297.8
264.2954,123.8
264.3523,188.2
264.406,773.2
264.5122,372.7
264.853,5941.1
264.9342,6288
264.9523,213.6
264.9632,203.2
265.0085,139
265.0168,267.4
265.0357,8988.9
265.048,5357.7
265.0653,242.8
265.0751,314.5
265.0852,82
265.1395,22.9
265.2652,323.3
265.2864,138.2
265.3604,113.2
265.4218,957.3
265.4315,269.9
265.5509,100.7
265.568,426.3
265.5788,93.8
265.6055,123.5
265.626,243.8
265.7251,220.4
265.7388,328.9
265.7684,430.3
266.0198,189.7
266.1344,522.1
266.4027,119.4
266.4706,376.1
266.5021,961.6
266.6495,201.9
266.8088,103.8
266.8448,916.2
266.8504,6041.4
266.8948,2154
266.9306,130.3
266.978,95.7
267.0137,73.7
267.0186,108.5
267.0366,166.7
267.0436,96.1
267.093,721.6
267.1637,2090.4
267.1697,182.5
267.1933,123.5
267.3301,907.7
267.4284,116.4
267.5013,192.4
267.5403,655
267.6477,1930.2
267.7017,952.4
267.8896,74.2
267.9019,692.9
267.9832,96.1
268.004,228.8
268.0323,211.3
268.0573,323.1
268.068,162.8
268.2574,198.2
268.3377,305.7
268.3433,222.8
268.3883,154.9
268.4326,568.9
268.4901,93.5
268.5295,193.7
268.8475,1087.6
268.8921,1098.8
268.9305,95.7
269.0122,115.8
269.0163,103.1
269.0298,103.1
269.0348,393.2
269.0454,22931.8
269.0493,44912.1
269.0743,330.2
269.0896,185
269.1,453.2
269.168,752.2
269.1847,122.2
269.2564,78.7
269.4682,331.3
269.6879,136.3
269.7381,880.2
269.7509,78.9
269.9279,109.9
269.9819,839.4
269.9895,285.1
269.9944,879.3
270.0254,563.8
270.0347,343.9
270.048,32940.1
270.1455,1022.7
270.2743,438.7
270.279,19.8
270.2997,84.6
270.3662,839
270.5338,310.8
270.5527,91.3
270.5736,904
270.6077,630.5
270.6266,225.5
270.6422,923.3
270.7234,102.1
270.7983,4152.3
270.8166,484.1
270.8623,356.3
270.8847,167.8
270.9785,10338.1
271.0081,375.2
271.0247,467.4
271.0283,21
271.0515,942.5
271.0782,327.9
271.0908,3529.7
271.2333,87.9
271.2915,564.9
271.3668,127.2
271.5163,126.5
271.5789,86.3
271.7009,258.3
271.775,142.4
271.9656,535.8
271.9799,165
272.0435,524.7
272.0809,393.9
272.2307,377.7
272.2769,256.3
272.4336,786
272.4591,287.1
272.4784,394.5
272.6665,178.1
272.68,105.7
272.7823,82.7
272.7955,4770
272.8322,126.7
272.8797,110.7
272.967,168.8
273.0224,479.1
273.0492,6131.2
273.0815,21
273.1101,147.4
273.3989,208.3
273.4643,305
273.4817,556.7
273.5153,25.7
273.5356,199.1
273.6116,178.6
273.6501,86.4
273.676,168.4
273.7637,577.5
273.8327,547.6
274.0698,190.9
274.0926,1840.4
274.2162,104.9
274.3914,277.4
274.4844,119.5
274.5404,132.1
274.6768,88.4
274.687,322.1
274.7927,1835.7
274.8205,164.8
274.8506,304.4
274.8572,165.9
274.8784,424.5
274.8796,419.8
274.8817,303.3
275.0186,112.9
275.1082,466.3
275.1409,481.3
275.1829,333.9
275.2037,430.1
275.213,162.5
275.2296,837.3
275.4641,156.4
275.6212,232.2
275.6689,223.6
275.6792,302.7
275.9438,121.6
275.9782,240.1
275.9949,921.8
276.0039,120.5
276.0321,970
276.0854,78.4
276.1183,185.1
276.1391,123.3
276.2038,386
276.216,564.1
276.2732,588.9
276.3233,502.8
276.3713,141
276.3862,258.1
276.5233,245.5
276.6568,721.6
276.9238,3150.6
276.9508,23.8
277.0291,121
277.0683,840.4
277.0767,17.7
277.2234,755.1
277.227,179.6
277.3828,150.3
277.4154,23.3
277.4516,24.2
277.5068,716.3
277.6222,18
277.775,428.2
277.8519,166
277.8773,129.9
278.001,28.5
278.0196,512
278.0577,86.7
278.083,641
278.1036,158.2
278.1858,801.4
278.3343,359.1
278.3462,238.9
278.3726,309.9
278.6144,602.3
278.6313,160.4
278.6389,436.5
278.6831,637.4
278.8728,217
278.925,534.8
278.9882,595.4
279.0016,178.6
279.0572,44997
279.1185,835.9
279.2286,325
279.5051,179.4
279.5252,557.4
279.5372,144.4
279.6821,195.5
279.7145,122.1
279.8027,277.9
279.8384,852.4
279.8478,166.9
279.8769,339.9
279.8817,147
279.9459,345.1
279.9654,564.2
279.9742,800.7
279.9759,984.3
279.978,655.5
280.0166,269.8
280.0605,787
280.0752,449
280.0925,1106.7
280.2604,19.2
280.2967,23.2
280.4403,141.3
280.6565,132.5
280.827,2451.1
280.8385,411.6
280.8491,520.7
280.9441,959.2
280.9626,484.5
281.0096,398.4
281.022,22.2
281.03,85.1
281.0346,96.8
281.0519,150.5
281.1821,325.3
281.3209,1048.8
281.4057,144.6
281.6214,145.9
282.0152,177.9
282.0245,96.1
282.0508,20.4
282.0652,665.9
282.1384,64.2
282.2308,368.1
282.2776,790.3
282.4029,561.3
282.4346,18.6
282.4891,20.9
282.6079,413.3
282.6459,783.8
282.7448,200.6
282.8245,1878
282.8355,415
282.8445,441.2
282.8611,795.4
282.9052,22.8
282.9269,206.7
283.0092,135
283.0143,244
283.1079,17
283.1765,22.4
283.2061,22.7
283.4149,213.3
283.4507,79.4
283.5399,118.6
283.5676,99.8
283.6402,19.3
283.7278,94.6
283.7495,248.2
283.8787,90.8
283.9887,499.9
284.0529,29
284.0636,1133.2
284.1109,159
284.2663,19.6
284.3539,20.7
284.3795,307.8
284.425,509.5
284.6006,739
284.6963,93.6
284.7028,88.3
284.8212,407.2
284.8652,477.5
284.9275,376.6
284.9571,21.7
284.9664,451.7
284.9873,112.6
285.0406,111.9
285.0509,164.7
285.067,22.2
285.2459,149.8
285.2693,22.7
285.3353,378.1
285.3745,447.2
285.403,257.3
285.4523,581.6
285.5392,371.6
285.5565,264.1
285.6053,335.6
285.6834,19.4
285.6869,264.7
285.7154,201.5
285.8551,144.7
285.9448,209
285.9809,401.3
286.0204,127.1
286.0374,215.7
286.0426,32.1
286.0967,132.5
286.5461,508.6
286.6651,587.3
286.6699,297.4
286.7209,201.2
286.7726,2005.6
286.9313,326.2
286.9529,4790.9
286.9741,149.9
286.9989,104.3
287.0486,186.7
287.0559,49087.4
287.101,774.9
287.1323,85.9
287.1365,147.1
287.1428,129.6
287.1635,408.7
287.1832,331.6
287.25,155.4
287.3455,354.6
287.3685,134.8
287.4393,377.5
287.5394,208.1
287.7458,730.3
287.7511,522.5
287.7964,292.2
287.9719,219.9
288.0145,29.9
288.0591,2055
288.0854,202
288.1563,38811.7
288.2092,490.7
288.2846,190.8
288.4451,199.4
288.6337,768
288.6543,75.3
288.6832,181.1
288.7169,86.7
288.756,241.2
288.7696,3103.9
288.7904,112.5
288.816,248
288.831,187.8
288.8369,274.6
288.8384,277.9
288.8459,419.6
288.8579,1102.6
288.8634,1644.4
288.8686,1903.9
288.8731,2192.5
288.8776,3267.2
288.8812,3616.2
288.8827,3462.5
288.8923,6169.6
288.8949,7092.8
288.9057,13530.3
288.9093,12254
288.9182,16603.3
288.9253,20882.5
288.9319,21196.1
288.9355,21635.9
288.9425,20843.4
288.9446,20361.8
288.9485,21273.8
288.955,13385.8
288.9604,12263
288.9622,11855.5
288.9734,5900.6
288.9789,3609
288.984,3606
288.9905,1475.5
289.0014,123.1
289.0097,120.8
289.062,26.1
289.1267,89.5
289.1595,1245.1
289.1637,360.4
289.2018,81.1
289.2953,580.9
289.5015,399.4
289.5106,848.3
289.5376,468.6
289.5638,145.5
289.6231,770.7
289.6607,85.4
289.9185,18.9
289.9332,659.7
290.101,54.8
290.1368,309.7
290.1487,80.4
290.2118,133.5
290.2139,127.4
290.271,92.5
290.2957,847.4
290.3252,335
290.3387,179.9
290.5654,744.6
290.6085,774.1
290.699,877.6
290.7176,89.1
290.7666,1098.9
290.9185,174.9
290.9952,22.5
291.0205,132.4
291.0272,4176.5
291.15,451
291.497,725.2
291.5077,315.1
291.6326,839.2
291.6424,191.1
291.658,81.4
291.6834,306
291.7052,153.7
292.0783,158.9
292.1037,697.8
292.129,388.4
292.2046,178.9
292.274,169.9
292.3487,128.7
292.3863,772.8
292.5052,185.6
292.5853,101.1
292.776,764.8
292.8972,545.2
293.0729,3996.2
293.0988,399525.2
293.1545,110.9
293.1698,634.8
293.18,2814.4
293.3782,108.7
293.3936,782.6
293.4892,141.7
293.6605,620.9
293.7918,551.7
293.9246,346.7
293.993,564.7
294.0124,116.1
294.0959,387.9
294.1022,34861.1
294.2132,374.3
294.4476,205.1
294.5573,249.5
294.6492,115
294.8683,724.5
294.9073,220.9
294.9913,490.8
295.0312,1554.8
295.091,102.7
295.1031,2752.6
295.1954,28889.7
295.2863,799.4
295.4094,87
295.6914,258
295.8358,138.7
295.8417,18
295.9327,109.9
295.9425,656.4
295.9515,440.7
295.987,321.7
296.0096,322.7
296.0378,725.2
296.0505,621.2
296.1071,89.3
296.1992,245.9
296.2657,225.6
296.295,774
296.423,120.7
296.4692,702.4
296.5386,206.8
296.6111,165.4
296.6931,450.5
296.6969,452.8
296.748,140
296.8176,187.3
296.8224,423.9
296.843,882.3
296.8618,199.4
296.9108,806.9
296.988,228.2
297.0075,22.9
297.1113,76.6
297.1414,80.9
297.1596,355.9
297.1791,99.1
297.2245,17.6
297.3395,139.6
297.3441,226.5
297.3639,134.5
297.4068,389.7
297.4223,113.1
297.5045,396.6
297.6514,358.9
297.7856,149.6
298.0258,1863.8
298.0339,127.7
298.043,20739.9
298.2577,227.2
298.2958,866.6
298.3435,226
298.6841,125.7
298.6918,17.8
298.7016,408.4
298.7504,901.6
298.7943,88.5
298.9259,16.7
298.9659,454.4
298.987,220.5
298.994,152.6
299.0236,3643.4
299.0463,702.5
299.1023,569.2
299.1398,7723.7
299.2241,144.2
299.4369,390.4
299.5305,125.5
299.7631,278.7
299.8188,644.1
299.916,239.7
299.9378,176.5
300.027,222.5
300.0389,291.5
300.0496,30.5
300.0641,174.6
300.0761,476.4
300.1006,415.4
300.1967,56.6
300.2299,276.1
300.4246,374.2
300.6621,133
300.7936,88.8
300.859,486.3
300.8746,109
300.8843,127.6
300.9623,84.2
301.0301,3148.3
301.0392,25782.7
301.1017,308.6
301.142,352.8
301.2123,3004
301.2589,389.5
301.3155,154
301.3345,18.1
301.3701,102.7
301.3887,582.5
301.5942,749.4
301.7699,373.1
301.7744,669
301.8714,93.9
302.013,805.1
302.0207,97.7
302.0344,224
302.0426,115.6
302.0646,5284
302.074,21.9
302.1246,264.4
302.1457,253.8
302.1944,467.2
302.3086,291
302.3281,439.2
302.4263,323.3
302.6157,483.1
302.676,795.3
302.6939,777.3
302.6959,716.9
302.6982,796.3
302.7024,257.7
302.7082,240.9
302.7173,742.6
302.7297,223.3
302.7394,231.4
302.83,5527.1
302.8553,546.9
302.9263,996.9
303.0285,154.4
303.0679,565
303.07,554.1
303.075,920.3
303.2177,2627.1
303.4219,231.9
303.478,109.2
303.5191,277.6
303.5257,22.4
303.5923,105.4
304.0603,204.4
304.0796,17.9
304.2035,180.7
304.2398,505.8
304.2902,228.1
304.3186,162.9
304.4347,17.7
304.5108,19.4
304.5558,315
304.7345,112.5
304.7443,385.4
304.8183,153.2
304.8274,2191
304.8582,519
304.9398,764
304.9651,174.8
304.977,140.1
304.99,442.7
305.0977,78
305.1265,441
305.367,211.4
305.433,423.1
305.4911,21.5
305.5872,83.2
305.6612,148.9
305.7659,18.8
305.7943,87.5
306.0249,137.6
306.0433,20.1
306.096,101.8
306.1092,149.2
306.1774,257.1
306.2626,107.3
306.4129,183.3
306.5057,148.5
306.5998,189.2
306.6472,99.7
306.6697,79.9
306.7618,17.4
306.9586,567.9
306.9668,521
306.9776,1698.8
307.0659,472.9
307.1436,472.6
307.2675,151.2
307.2828,102
307.3335,629.7
307.3955,170.5
307.5554,133.7
307.6064,204.6
307.6321,672.4
307.724,178.9
307.7317,365.4
307.7655,153.5
307.9581,903.2
308.0757,18.1
308.2339,132
308.3261,210.5
308.8798,2581.4
308.9207,282
309.0069,369
309.0383,6800.6
309.0831,3764.9
309.1774,215.7
309.2681,150.7
309.4399,1011.4
309.5734,198.2
309.6298,167.1
309.9046,249.9
309.9474,255.5
310.0414,363.2
310.065,112.6
310.327,320.3
310.5005,188.8
310.6692,291.4
310.8251,20.6
310.8767,3233.2
310.984,188.1
311.0037,822.9
311.0871,380.5
311.1294,324.8
311.2086,85.7
311.2127,216.8
311.2591,1100.2
311.4102,145.5
311.4649,611.6
311.4842,130.5
311.5214,20
311.6879,346.2
311.9511,20.2
311.9643,308.3
312.0418,1959
312.1309,215.5
312.541,19.2
312.6684,169.9
312.7069,109.3
312.788,188
312.8591,535.2
312.8734,695.5
312.8886,674.2
312.9228,272.9
313.0026,61.5
313.0188,24.7
313.0555,245.9
313.1309,19.4
313.1353,354.8
313.1548,354.1
313.1739,135.8
313.2173,153.3
313.2747,55328.2
313.4424,88.5
313.4574,515.6
313.5482,460.6
313.69,124.5
313.8798,391.6
313.9373,420
314.0153,250.6
314.0918,168.2
314.0999,18.2
314.2428,160.5
314.278,5749.2
314.3269,175.9
314.4298,385.3
314.5201,291.8
314.5467,21.9
314.603,425.5
314.6674,643.9
314.6746,193.2
314.6841,211.8
314.7706,20.9
314.7805,565.5
314.8377,6307.1
314.9013,286.6
314.9538,140.3
314.9998,5715.7
315.0145,208.7
315.0181,265.4
315.033,24.2
315.0394,222.7
315.0457,566.4
315.056,11011.1
315.0582,5593
315.061,5587.6
315.0639,6869.7
315.0671,22237.8
315.0701,31742.8
315.0717,18802.5
315.0808,9197016
315.089,23051.6
315.0911,16747.8
315.0933,10822
315.0951,9937.2
315.0987,7635.9
315.107,2871
315.1091,2516.8
315.1134,1117.4
315.1177,319.5
315.1193,279.2
315.1255,548.1
315.1475,141.6
315.1491,130.8
315.1559,346.9
315.162,6247.3
315.194,109
315.261,341.3
315.3244,8000.3
315.3873,441
315.4774,375.9
315.4866,458.1
315.6117,114.3
315.7506,18.5
315.8169,407.5
315.9088,230.2
316.0013,542.2
316.041,307.3
316.0536,78.2
316.0687,1690.9
316.0783,49163.9
316.0842,971474.9
316.099,612.3
316.1277,260.1
316.2082,19.2
316.2719,111.4
316.3677,178.4
316.7953,357.2
316.9152,226.8
317.0126,139.5
317.0572,442
317.0657,2758.1
317.0847,113848.8
317.1081,142.4
317.1145,176.7
317.1796,643.5
317.2214,95.3
317.458,162.1
317.5146,209
317.5613,21.6
317.5756,17.5
317.6849,79.4
317.688,79.9
317.8018,571.8
317.8288,418.8
317.8546,149.6
317.9872,650.1
318.0882,10306.7
318.1334,144.3
318.2069,137.5
318.2879,236.3
318.3829,21.9
318.8042,2697.9
318.8277,890.4
318.9528,309.2
319.0388,189.6
319.0986,406.7
319.1954,50461.3
319.2179,172
319.2252,792.2
319.2752,213.6
319.3168,296.6
319.3796,374.4
319.6231,196.8
319.786,777
319.9944,455.9
320.0754,200.3
320.1987,6909
320.2409,114.3
320.2593,1998.1
320.478,80.8
320.758,349.3
320.8015,1695.6
321.0012,401
321.0827,284.2
321.0898,279
321.1824,19.1
321.2111,52031.4
321.2628,131.2
321.6895,523.2
321.8444,167
322.0096,263.5
322.0468,532.3
322.1168,90.1
322.2144,7728.9
322.3716,77.1
322.4045,158.3
322.636,169.9
322.703,282.7
322.8122,358.6
322.8792,246.2
322.8966,110
322.9323,1229.3
322.9523,436.1
322.9879,572.8
323.013,24.6
323.0212,11594.7
323.197,650.9
323.2265,3131.9
323.3695,97.7
323.379,88.8
323.4993,18.7
323.5202,434.9
323.818,202.2
323.9887,125.9
324.0053,99.6
324.3796,277.3
324.5933,743.2
324.6033,1540.4
324.6128,3833
324.6198,8101.8
324.6734,257.7
324.8091,549.1
324.8534,1323.5
324.9004,160.1
324.9197,801.1
324.9903,394.2
325.0038,611.6
325.0276,36.4
325.0571,930.7
325.1202,198.3
325.2124,4933.3
325.3268,339.3
325.3414,494.9
325.6699,152.4
325.6818,794.1
325.7761,110.5
325.8328,370.5
325.8387,101.1
326.0052,47
326.0617,87
326.1286,175.3
326.2465,276.9
326.2723,140.1
326.4483,117.1
326.6521,22.1
326.8506,2110.8
326.9032,87.2
326.9453,175.2
327.0161,2805.3
327.0412,88.6
327.0525,1454.3
327.228,11275.7
327.2454,578.8
327.3789,321
327.3915,234.8
327.4347,169.4
327.523,873.8
327.539,400.7
327.6927,134.8
327.7261,180.2
327.7596,209.8
327.7684,18
327.9133,19.9
328.0301,95.4
328.1563,145.1
328.1843,155.2
328.2311,1380.8
328.4379,153.1
328.4439,528.8
328.4673,386.6
328.473,729
328.6117,217.4
328.6533,818.3
328.7067,102.3
328.7569,309.4
328.769,135.4
328.8208,350.2
328.9361,340
328.9425,325.1
328.9685,125.2
329.0402,238.4
329.0967,2114.8
329.1057,20.9
329.4032,230.9
329.4972,109.5
329.5551,104.5
329.617,663.8
329.6792,188.4
329.7232,103.3
329.733,264.1
329.7402,897.5
329.7912,151.4
329.9982,391.5
330.0596,246.1
330.2045,499.4
330.2848,565.1
330.3581,76.2
330.4524,239.4
330.5035,111.9
330.5958,363.9
330.5971,374.9
330.6144,23.7
330.7548,903.7
330.8919,81.6
330.9588,141
330.9895,22.8
330.9997,429.8
331.0204,1401.7
331.0461,158802.4
331.0548,1311585.3
331.1297,234.3
331.2333,95.4
331.2573,503.7
331.2812,95.8
331.3176,267.3
331.4585,218.8
331.5202,766.7
331.6636,682.8
331.6969,98.8
331.7104,16.4
331.9608,358.5
331.9864,309.1
332.0072,325.6
332.0487,10746.5
332.0582,117649.8
332.1091,250.5
332.1447,101
332.4005,84.8
332.4273,459.6
332.4835,20.8
332.5854,481.2
332.6878,89.8
332.74,105
332.8409,962.2
332.9336,78.7
332.9862,22.5
333.0051,638.2
333.0439,500.7
333.0529,76774
333.0584,13239.1
333.2448,229.4
333.2694,97.4
333.2975,631.4
333.3364,227.1
333.3984,199.9
333.5403,889.1
333.5465,149
333.6184,78.3
333.6296,317.4
333.6871,175.2
333.7654,146.9
333.9763,340
334.0445,154.7
334.0563,7178.8
334.0628,424.3
334.0911,86.9
334.0978,96.9
334.1824,430.5
334.4759,531.5
334.5752,161.3
334.6366,164.5
334.7178,489.1
334.7749,21.2
334.9927,170.3
335.0388,741
335.1156,20.4
335.1264,82.1
335.2543,142.1
335.3241,84.7
335.3793,146.5
335.4368,141.7
335.4696,589
335.4888,143.9
335.5608,166.5
335.5714,771.3
335.7197,440.9
335.7388,106.7
335.8457,19.1
335.9204,279.5
336.0087,507.2
336.0359,388.6
336.0422,92.8
336.116,188.9
336.3412,92.1
336.6556,800
336.6758,20.7
336.8335,351.4
336.9208,236.6
337.037,12073.7
337.0504,24706.2
337.0628,793056.3
337.2746,15333.5
337.3391,821.7
337.4879,485.8
337.7641,85.1
337.8239,463.8
337.9644,224.6
338.0507,602.1
338.0662,70448.1
338.1702,146.5
338.3064,118.4
338.3432,24.6
338.3978,19.6
338.6353,206.6
338.785,539.2
338.8897,87.4
338.9215,445.5
338.935,537.3
338.9593,217
339.0243,155.5
339.0391,2326.2
339.0479,1152.5
339.0667,6512.4
339.1276,842.5
339.1979,250.3
339.2755,219.7
339.2905,7860.2
339.3225,309.5
339.344,748.4
339.5094,99.1
339.5442,243.8
339.6309,388.3
339.8849,349.4
339.9284,19.6
339.9766,18.6
340.0391,129.2
340.0708,16.9
340.2022,597.4
340.2753,228.3
340.8574,98.9
340.8698,21.4
340.9382,325.5
340.9875,528.1
341.0192,21.2
341.0314,891.8
341.1113,291.9
341.306,7115.9
341.3392,695.9
341.3455,100.5
341.4417,621.9
341.5272,84.7
341.7526,146.8
341.8115,576
341.8305,202.1
341.8565,156.2
342.069,24.8
342.4102,107
342.5079,22.9
342.5344,134.6
342.5577,133.2
342.7074,133.4
342.8246,402.1
342.9903,1131.8
343.0124,551.9
343.1955,17817.3
343.3087,225.5
343.3619,18.7
343.5187,322.4
343.5568,411.7
343.7127,316.6
343.732,96.5
344.1988,836
344.4315,141.8
344.4878,129
344.939,115.8
344.9932,274.9
344.9969,323.6
345.0696,144.2
345.0856,174.4
345.1079,347.6
345.211,2139.8
345.4279,1062.3
345.4938,553.3
345.5743,190.9
345.599,85.9
345.6835,95.4
345.7394,565.4
345.9022,19.6
345.9278,166.9
345.9474,19.6
345.9723,279.9
345.9846,606.2
346.0337,319
346.0828,294
346.1053,144.5
346.1702,215.9
346.1787,614.3
346.3253,167.5
346.4065,186.7
347.0018,365.9
347.0609,80.9
347.2567,574.7
347.2966,137.5
347.3548,692.1
347.667,348.1
347.6889,18.6
347.7387,225.4
347.8333,424.6
347.8993,131.6
347.9399,269.3
347.9895,521.8
348.3507,409.1
348.3911,274.6
348.5826,163.4
348.6477,22.9
348.6872,90.8
348.7526,746.6
348.8156,513.6
349.0161,18.2
349.0376,110.4
349.0674,420.7
349.1233,611.4
349.1702,465.7
349.2765,218.6
349.3458,344
349.383,349.5
349.5102,136.9
349.5124,193.6
349.6768,90.8
349.6891,19.7
349.7016,410.1
349.8074,340.3
350.0193,904.4
350.2642,502.5
350.3824,286.4
350.4301,195.5
350.5807,163.9
350.8563,90.1
350.8685,235.4
350.8819,439.6
350.8993,495.9
351.0412,361.3
351.1289,115.1
351.1484,316.5
351.1721,576.6
351.2177,899.8
351.4963,129.8
351.5024,124.4
351.5424,381.7
351.5524,401.7
352.0486,21.5
352.0656,680.4
352.4091,20.4
352.5996,115.2
352.6085,584.4
352.6338,551
352.6462,80.6
352.7301,338.7
352.8992,662.5
352.9477,93
353.0279,175797.9
353.0368,246646.8
353.1849,146.6
353.2323,452.4
353.5538,176.4
353.6463,85.7
353.8047,215.6
353.8159,93.1
353.9548,491.8
354.0311,14055
354.0402,23178.5
354.0853,393.9
354.1921,219.4
354.2005,805.1
354.235,717.6
354.251,559.3
354.3037,133.3
354.342,424
354.6078,120.8
354.7694,115.5
354.7788,21.1
354.7867,105.7
354.896,480.6
354.9218,18
355.0125,2059.8
355.0351,14880.2
355.071,256.6
355.0765,122.4
355.3209,374.2
355.41,267.7
355.4398,147.5
355.816,98.3
355.86,367.1
355.8825,138
355.9569,19.4
356.0155,135.8
356.0377,124.2
356.0708,21.3
356.1065,365.2
356.1307,20.4
356.1485,236.8
356.1892,182.1
356.2894,133.7
356.476,208.7
356.851,74.9
357.0094,1002.9
357.0207,303.2
357.0595,366.3
357.0867,109.3
357.1559,104.4
357.2969,430.2
357.3035,88.2
357.3182,89.2
357.3461,450.6
357.4614,143.5
357.5777,289
357.618,138.4
357.6266,125.1
357.638,608.5
357.6581,1280.6
357.6637,938.4
357.6724,156.5
357.8551,405.5
357.9676,89.4
358.01,30.4
358.5999,111.6
358.6592,466.8
358.7179,327.5
358.9249,603
359.0083,631.2
359.0324,16478.5
359.0449,458680.5
359.0713,120.2
359.1407,172.2
359.1575,151.4
359.1844,118.3
359.2272,116.4
359.3337,251
359.3462,518.7
359.3711,902.5
359.4078,783.2
359.4187,787.6
359.4333,442.4
359.4416,247.1
359.4536,863.9
359.4653,482
359.4853,113.2
359.5048,872.1
359.5239,19
359.53,630.1
359.7248,454.2
359.7403,128.2
359.8603,215.4
359.8909,424.1
359.9334,320.4
359.9487,204.3
359.9958,181.6
360.0123,24.5
360.0315,759.3
360.0483,41089.5
360.0678,318.6
360.0729,374.7
360.087,19.6
360.1948,570.7
360.3248,254.9
360.5931,97.3
360.7245,216.2
360.7888,451.2
360.8236,175.2
360.8272,167.5
360.8305,144.3
360.8402,645.9
360.9106,82.1
361.021,5581
361.0288,295.9
361.0488,3040.2
361.133,180.9
361.2459,90.5
361.2752,1147
361.2982,340.9
361.3282,83.2
361.4777,251
361.5314,379.2
361.6507,359.8
361.7885,509.6
361.807,133.3
361.8942,269
362.0006,376.6
362.0315,20.8
362.0589,216.4
362.5091,353.2
362.738,19.3
362.7856,526.9
362.9112,569.5
362.9705,127.2
363.069,133.6
363.0843,121.7
363.1057,100.7
363.5893,430.3
363.6416,658.1
363.7182,150.7
363.794,19.9
363.8778,255.2
363.9339,22.1
363.9473,127.7
363.9959,395.8
364.1012,183.6
364.3373,301.3
364.3713,243.3
364.6272,612.7
364.8743,83
364.9444,98.5
365.0004,100.5
365.1067,2779.9
365.1289,500.2
365.3777,168.1
365.5678,90.1
365.5967,85.1
365.7141,92.9
365.7632,143.9
366.2107,184
366.2388,166.9
366.3846,93.2
366.4667,25.3
366.6533,898.5
367.0081,96
367.0135,384.7
367.0395,829.7
367.1222,889.2
367.1425,336.3
367.1956,1909.6
367.3017,579.9
367.634,80.5
367.6976,103.3
367.7076,103.1
367.8497,94.8
368.1322,428
368.4932,372
368.5775,196.4
368.6274,690.1
368.7634,510.4
368.9927,3576.8
369.0018,22497.1
369.0108,8429.9
369.0518,329.5
369.0838,173.5
369.1667,88.4
369.2091,858.4
369.3522,26.8
369.5043,107.8
369.5609,95.3
369.6037,18.6
369.8494,552
369.891,284.6
370.0058,510.3
370.0134,183.1
370.1704,240.2
370.1889,139.8
370.2727,168.9
370.4063,97.3
371.0421,631.8
371.0789,578.2
371.0982,411.9
371.4654,20.1
371.775,159.5
371.8835,164
372.0606,83.8
372.2873,21.3
372.3526,345.3
372.3645,798.5
372.4485,94.9
372.6114,171
372.6295,142.6
372.7395,559.8
372.7773,433.8
372.8787,387.2
372.8922,123.4
373.0486,234.9
373.1379,956
373.4176,341.4
373.5148,199.7
373.6323,220
373.6378,658.8
373.8232,696.2
373.988,508
374.1199,373.7
374.1479,113.2
374.3806,112.9
374.6151,109.8
374.7982,94.6
374.8816,77.6
374.9973,504
375.01,171422.9
375.0188,129848.4
375.1905,161.5
375.2605,134.7
375.3768,97.2
375.4387,219.2
375.4905,126.6
375.5544,473.5
375.7606,768.4
375.7989,683.3
376.0133,11874.9
376.0223,11490.8
376.0544,154.4
376.3577,1647.2
376.3652,1069.8
376.4283,18.5
376.584,18.7
376.6183,150.6
376.6863,17.9
376.995,1737.5
377.0173,7167.1
377.0611,776.4
377.1074,588.5
377.2876,618.7
377.415,233.1
377.4806,174.4
377.5079,339.9
377.5459,858.4
377.6115,396.6
377.7501,82.2
377.7723,160.1
377.795,149.2
377.9253,416.2
377.9969,83
378.0874,19.7
378.1496,90.9
378.1967,204.3
378.2581,84.2
378.3354,258.2
378.3692,291.1
378.4058,76
378.5239,117
378.5677,90.5
378.6278,85.2
378.6932,102.2
378.7597,533.8
378.9012,785.6
378.9719,304.2
378.9916,95.1
379.2315,133.2
379.2612,95.5
379.3387,22.9
380.0035,190.9
380.0489,21.6
380.0631,640.7
380.0957,422.1
380.1756,914.7
380.1963,17.3
380.2831,17.9
380.7241,224.3
380.7374,114.4
380.7715,537.3
380.8121,165.9
380.8467,97.8
380.9602,507.6
380.9901,62
381.0144,18156.3
381.0269,244040.3
381.1476,202.6
381.2076,216.3
381.4189,176.3
381.5859,312
381.8014,143.4
381.9629,497.3
381.9978,17.2
382.0302,21123.4
382.0931,763
382.1262,502
382.2214,233
382.2788,147.3
382.63,99
382.6393,23.6
382.6571,199.1
382.7677,2202.4
382.8112,21.2
382.8359,254.7
382.9191,19.7
383.0155,596.7
383.0301,90.5
383.1171,184959.2
383.3863,199.6
383.4063,129.8
383.636,77.2
383.6907,21.1
383.9364,614.5
384.0279,134.5
384.0665,383.7
384.109,375.9
384.1204,20312
384.3363,84.3
384.4416,814.9
384.4511,568.9
384.64,91
384.6741,324
384.7646,448.7
384.8905,720
384.9956,585.1
385.0384,349
385.0578,76.7
385.1209,895.6
385.1695,394.9
385.3687,324.6
385.489,93.1
385.5732,320
385.5979,88.6
385.7079,89.6
385.9785,94.8
386.1612,24
386.4021,633.3
386.4468,143.7
386.6608,79.9
386.6914,187.7
386.7575,644.3
386.9956,144.4
387.0039,781.1
387.0286,17.9
387.1337,1053.5
387.2625,404.3
387.4187,88.5
387.5679,210.2
387.6819,101.6
388.0414,219.8
388.4672,234.1
388.5554,413.5
388.6295,650.6
388.7123,1115.2
388.8373,199.4
388.8483,356.7
388.9644,158
389.0299,207.8
389.1482,337.5
389.265,170.4
389.4043,224.8
389.5255,107.1
389.5556,173.8
389.6152,226.5
389.7162,133.5
389.8195,79.3
389.917,191.5
389.939,275.3
389.9749,827.8
390.0987,121.9
390.21,369.4
390.4468,129.1
390.7103,451
390.7993,1008.6
390.874,649.7
390.8909,565.5
390.9082,1793.1
390.9306,1075.7
390.9749,15212.1
390.9839,29316.3
390.9929,14934.7
391.0344,204.7
391.0665,284.1
391.0905,553.8
391.2258,622.6
391.2359,527
391.2856,756.8
391.4305,138.4
391.6429,393.3
391.6997,192.1
391.7141,177.8
391.7727,375.7
391.9588,75.3
391.9689,362.3
391.9779,348.3
391.997,106.5
392.2333,102.3
392.3972,19.9
392.6248,146.7
392.6371,303.4
392.7674,471.3
392.7777,79.4
392.7971,1269.8
392.8717,220.9
392.9519,85.7
392.9587,21.7
392.9813,145.2
392.9907,194.9
393.0934,91.7
393.2809,223.9
393.3035,669.1
393.3166,138.1
393.3984,219.7
393.4485,79.8
393.4591,116.6
393.5679,417.3
393.6385,86.8
393.7264,435.9
393.8104,785.4
393.9713,93.7
394.0982,208.5
394.1913,242.3
394.2816,82.5
394.3097,91.6
394.3503,153.1
394.4945,167.1
394.5494,19.9
394.6196,258.3
394.6608,458.7
394.7329,117
394.77,438
394.7935,584.2
394.9431,162.5
395.0329,349
395.0471,17.6
395.0556,382.1
395.3239,127.6
395.3671,180.4
395.408,180.3
395.6344,581
395.8272,139.8
395.8298,143.7
395.8575,323.3
396.0363,865.1
396.4856,19.8
396.5319,351.3
396.6335,542.9
396.7665,300.8
396.9919,198783.1
397.0008,79090.5
397.0632,285.8
397.0884,20
397.1068,533.8
397.1304,137.4
397.1822,92.4
397.2342,605.4
397.449,179.5
397.4798,116.1
397.5208,742.1
397.6064,235
397.6602,185
397.8978,454
397.9951,16495.7
398.0041,5235.4
398.0895,130.5
398.1193,1778.9
398.2426,7965.9
398.3492,87.4
398.5229,124.1
398.7152,799.6
398.7418,1938.2
398.7635,1059.8
398.8261,344.4
398.9398,354.6
398.9681,272.6
398.9764,125.3
398.9989,1812.7
399.0365,646.3
399.1136,294
399.1239,172.9
399.2455,392.2
399.299,81.3
399.7725,481.1
400.0968,505.1
400.2279,425.9
400.2781,179.5
400.3563,202.2
400.4166,507.4
400.5489,649.7
400.6842,647.7
400.739,1315.1
400.8021,78.4
400.8125,124.7
400.9726,25.5
400.9846,1265.7
401.0156,614.2
401.0693,785.1
401.2521,566.4
401.3456,759.7
401.3589,280.2
401.4459,374.6
401.4894,78.2
401.7363,218.6
401.821,201.3
401.9414,168.5
402.2334,366.8
402.3629,18.3
402.3999,529.7
402.4624,310.3
402.5062,166.9
402.6032,607.4
402.8253,479.4
402.8325,154.3
402.8952,197.1
402.9165,79.2
402.9686,304.5
402.9786,191.9
403.0088,253009.1
403.7042,280.1
403.7979,88.7
404.012,22579.4
404.0273,19.5
404.0554,215.4
404.2126,227.2
404.4341,134.9
404.4696,82.3
404.6034,145.7
404.7031,933.3
404.8771,848.1
404.8895,741.3
405.0127,1472.2
405.051,175.5
405.3977,155.5
405.4461,135.9
405.5253,429.6
405.621,110.2
405.6996,396.1
405.7379,85.2
405.7825,366.3
405.87,113.3
405.9479,250.1
406.0048,224.2
406.0471,319.7
406.1006,96.9
406.1522,701.3
406.3303,1057.2
406.3477,148.3
406.4342,347
406.5153,205.4
406.5518,172.7
406.7723,1396.4
406.8271,584
406.8716,144.1
406.8886,99.4
406.9494,710.6
407.0472,22.4
407.1612,172.2
407.3338,186
407.4258,615.9
407.5175,858.8
407.6416,127.2
407.655,106.7
407.7174,77.5
407.7316,187.4
408.0858,492.8
408.1389,254.3
408.4049,396.7
408.4415,443.9
408.6839,354.8
408.7715,1411.7
408.792,135.5
408.9854,4307.8
409.0583,30.8
409.0842,258.6
409.1901,511.7
409.2887,153.7
409.3475,137
409.4787,90.7
409.5731,385.2
410.1955,171.4
410.5565,877.6
410.5764,113.5
410.7675,905.2
410.8393,134.7
410.8749,106.6
410.9279,77.8
410.9706,92.9
411.0459,297.2
411.1825,561.7
411.2238,106.8
411.3062,94.6
411.4445,135.4
411.5956,174.8
411.6303,18.8
411.6745,150.7
411.8571,377.5
411.9345,814.2
411.9491,918.8
412.2404,135.9
412.3042,154.1
412.3223,1284.4
412.3485,99.3
412.4055,201.1
412.5069,120.9
412.5685,19.5
412.7196,373.7
412.7614,732.9
412.8534,671.8
412.9002,636.6
412.9659,35606.5
412.9748,13701.6
413.2673,3931.3
413.2759,282.3
413.3254,295.2
413.4383,440
413.6289,183.5
413.7203,121.3
413.9685,346
414.0664,451.7
414.112,108.9
414.1516,200.4
414.1586,223.2
414.1708,92.9
414.2715,1368.8
414.7376,109.3
414.7884,425.3
414.8562,252.3
414.9785,295.8
414.999,1281.8
415.1486,352.3
415.2231,810.3
415.2733,292.2
415.5072,232.4
415.6195,122.7
415.9544,476.4
416.1135,123.9
416.1252,645.4
416.136,9756.9
416.2152,17853.8
416.3425,333.6
416.457,21.8
416.5801,110.5
416.6289,96.5
416.7087,211.2
416.7908,82.2
416.8114,332.2
416.972,519.6
417.064,18.3
417.1376,624.2
417.1761,617.9
417.218,1286.6
417.4693,799.2
417.4826,174.2
417.5695,241.3
417.8883,326
417.8966,245.5
418.1113,134.4
418.1729,320.7
418.3755,380.6
418.6918,492.1
418.8058,22.8
418.9828,86458.3
419.0716,819.6
419.2557,806.3
419.2659,511.2
419.4136,528.5
419.5292,92.8
419.5404,455.3
419.5932,306.6
419.7575,295.9
419.8593,388.1
419.9434,393.6
419.986,4115.2
420.0234,519.4
420.0536,452.2
420.0784,178.5
420.2504,90.9
420.3327,124.7
420.362,115.6
420.419,386.7
420.5025,89.6
420.5297,547.5
420.5689,564.7
420.7953,923.8
420.9584,721.8
420.9812,3036.1
421.2057,19.8
421.2139,16.3
421.4886,134.8
421.9222,192.9
422.2917,172.2
422.3039,78.3
422.5509,236.9
422.7253,105.5
422.8156,254.3
422.8739,261.3
422.9038,18
422.9592,959.2
423.071,880.3
423.2058,558.9
423.3354,609.8
423.6539,189.2
423.7023,85.9
423.7769,123.6
423.8128,94.7
423.8439,92.1
424.205,751.9
424.3429,738.5
424.4699,102.7
424.7816,385.8
424.8836,773.8
425.2018,159.1
425.4844,89.8
426.1822,129
426.3444,828.9
426.3527,356.8
426.6255,655.5
426.7472,388.5
426.8319,776.6
426.9314,263.7
427.1465,232.5
427.182,233.8
427.228,880.6
427.2852,17.5
427.4359,91.4
427.5787,89.4
427.7189,569.7
427.8043,19.2
428.0274,87.1
428.0672,249.1
428.0771,719
428.0996,526.8
428.94,2536.6
428.951,175.9
428.9723,25.5
428.9982,434.3
429.0135,889.1
429.0473,466.9
429.0817,325.3
429.0898,190.5
429.3185,347.7
429.4369,88
429.527,1137.3
429.5707,161.4
429.6045,776.4
429.8028,377.4
429.9501,365.7
430.097,134.3
430.1596,146.3
430.2442,497.3
430.4971,394.2
430.6182,182.4
430.7325,105.1
430.7431,403
430.7902,529.8
430.9041,266
431.0036,144.3
431.0416,728.1
431.1268,232.6
431.2182,15346.6
431.2382,18.2
431.2577,205
431.2775,1279.9
431.4552,96.6
431.5841,21.6
431.7847,138.1
431.9491,87
432.1173,258.4
432.1404,1032.2
432.2222,495.2
432.441,295.7
432.4784,604.2
432.5769,122.3
432.6347,123.7
432.8171,93.3
433.0552,155.6
433.1366,526.6
433.1961,85.6
433.5575,140
433.8664,442.2
433.9749,360.4
434.6024,93.4
434.6796,119
434.7023,131.1
434.7873,94
434.8775,199.9
434.916,102
434.9568,14774.4
435.0994,153.2
435.1093,475.5
435.6174,297.3
435.8641,77.2
435.982,20.1
436.1119,114
436.2217,822.2
436.5782,88
436.6078,201.7
436.6269,94.1
436.6439,87.1
436.7197,322.6
436.7986,446.7
436.8235,472.6
436.955,1096.3
437.0437,80.6
437.2057,639.8
437.2181,132.7
437.4716,223.5
437.5273,156.4
438.3608,179
438.3876,18.9
438.6041,675
438.6478,91.6
438.7861,312.4
438.973,2859.5
438.9856,4256.7
439.2257,101.6
439.2437,609.4
439.26,382.6
439.4205,21.6
439.5197,157.4
439.5499,20.3
439.7257,19.6
439.7893,19.2
440.3858,79.8
440.5776,853.7
440.7262,1024.9
440.7505,590.8
440.8538,489.9
440.9697,634.2
441.2664,143.3
441.2987,263.7
441.473,99.8
441.4929,361.4
441.7072,96.6
441.9798,17.6
442.041,101.6
442.0566,416
442.088,90.3
442.0937,84
442.2409,125.4
442.2544,141.5
442.3023,43.4
442.4962,87.3
442.6109,22.2
442.7234,1372.4
442.7387,789.6
442.8248,75.9
442.911,133.7
443.0858,100.9
443.1008,84.1
443.1234,200.9
443.198,287.5
443.2558,908.7
443.3883,102.7
443.5698,100.3
443.6,521.7
443.6672,113.1
443.8271,230.7
443.9366,300.2
443.999,563.1
444.027,85.3
444.1401,392.8
444.2676,95.1
444.5038,354.3
445.0255,249
445.0432,862.4
445.2337,3195.6
445.2698,1058.8
445.5255,19.6
445.6512,139.3
445.8485,216.7
445.8679,155.6
446.0518,256.3
446.1103,18.8
446.1593,299.5
446.2023,112.7
446.2264,547.3
446.5453,235.1
446.6709,367.3
446.8713,194.8
447.3456,85.6
447.4602,243.4
447.5878,829.1
447.9584,23
448.0486,402
448.2617,140.5
448.4156,402.7
448.6683,422.9
448.6956,81.7
448.7038,112.8
448.9337,4743.7
449.0032,83.2
449.1551,1612.9
449.2274,228.5
449.2745,320.4
449.3605,102.5
449.3834,131.3
449.4401,126.1
449.7098,506.7
449.8103,86
449.9985,769.7
450.1281,646.9
450.1585,347
450.2547,226.2
450.3332,688
450.4106,543.8
450.6315,19.8
450.6659,317.9
450.6959,485.7
450.7546,617.2
450.7993,353
450.9308,2183.5
451.1508,156.3
451.2352,329.8
451.3251,576.4
451.3803,729.7
451.3906,418.1
451.5855,491.1
451.6463,188.9
451.9492,90.5
452.1384,118.4
452.2666,292.7
452.3619,219.2
452.7193,82.2
452.8594,169.2
452.8828,166.8
452.9509,21.8
453.0888,98.4
453.1656,371.4
453.2424,134.5
453.2838,300.9
453.4013,173.4
453.4879,833.5
453.575,18
453.6219,917.2
453.9458,490.6
453.9678,542.9
454.0255,526.6
454.0715,265.4
454.1455,74.5
454.7053,481.5
454.7883,87.1
454.8201,130.4
454.9392,287.2
454.9507,41956.7
455.0771,536
455.1916,671.1
455.2933,217.7
455.7039,234.3
455.7747,18.8
455.7837,288.7
455.8233,443.1
455.8864,180
455.9542,1598.4
455.9999,235.1
456.1558,20.8
456.3203,665.4
456.3892,942.5
456.5139,93.8
456.5235,681
456.5706,19.7
456.7417,812.8
456.7835,584.8
456.9478,10096.6
457.1686,678.3
457.2337,18234.3
457.2801,365.5
457.3031,321.5
457.7135,94.1
457.7871,144.4
457.8523,155.6
458.2363,1326.1
458.2788,469.3
458.6594,231.9
458.8174,373.1
458.8361,123.9
458.9633,996.5
459.1438,401.3
459.2494,535968.4
459.3892,686.7
459.4323,770.6
459.4521,141.9
459.9066,177.3
460.0403,329.3
460.1345,17.5
460.2311,158.2
460.2527,109547.5
460.454,96.5
460.5252,91.9
460.7828,613.4
460.9501,273.3
460.9675,77155.9
461.2558,7908.7
461.6264,477.9
461.7328,157.2
461.7668,833.3
461.9711,5137.7
462.0939,97.6
462.1317,85.2
462.1737,140.2
462.5159,580.9
462.9644,19522.5
463.1527,362.4
463.2915,153.7
463.3993,509.8
463.4865,354.3
463.5826,393.3
463.757,500.9
463.9689,460.3
463.9997,83
464.3013,450.5
464.3638,701.2
464.4633,576.5
464.5153,439
464.6256,538.4
464.6437,433.4
464.6606,326.7
464.7445,91.1
464.7738,403.5
464.9625,562.2
464.9795,10700.2
465.01,304.8
465.121,23.3
465.2493,103.5
465.3406,197.8
465.3786,256.2
465.4689,221.9
465.7371,170.1
465.8711,130.8
465.9028,333.2
465.9689,204.7
466.5187,201.2
466.6299,92.3
466.6517,163
466.7171,138.8
466.7296,398.1
466.8816,128
466.9024,335.6
466.9292,133.5
466.9479,169.6
467.0005,192.7
467.0403,122.9
467.1063,88.2
467.4243,22.3
467.552,873.7
467.9677,404.7
468.1922,104.5
468.2255,76.3
468.3098,6089
468.403,421.7
468.5157,235.9
468.6228,109.7
468.7352,425.5
468.8107,241.4
469.0314,102.1
469.0786,238.2
469.1429,21.3
469.3124,230.3
469.3904,480.5
469.4808,855.1
469.5319,109.3
469.676,93
469.6868,739.1
469.7694,117.1
469.8202,168.6
469.9137,19.4
470.1602,239.9
470.1706,287.8
470.3254,161.3
470.4562,20.3
470.7547,503.1
470.9245,17824.2
470.9965,3534.9
471.1311,112.1
471.1587,218.3
471.2497,1674.3
471.452,699.6
471.4919,20.2
471.6704,83.3
471.7663,96
471.9278,663.7
471.947,22.2
472.0229,176
472.1157,390.2
472.2315,103.9
472.3889,873.6
472.7398,87.6
472.7629,755.3
472.8157,196.4
472.9048,374
472.9224,5339.9
472.9694,163.6
472.9765,292.3
472.9847,495.2
473.0013,451.5
473.031,180.1
473.116,148.5
473.1497,452.4
473.2652,6192.9
473.5191,171.2
473.5663,196.4
473.6613,380.8
473.7326,498.4
473.8539,90.8
473.8768,115.7
473.9807,299
474.0998,114.6
474.1234,125.2
474.9282,249.6
475.0111,84
475.1368,348.5
475.2233,23877.5
475.2443,578.5
475.3622,240.5
475.3671,218.7
475.4353,333.6
475.808,510.8
475.8388,440
476.0016,280.1
476.2266,3771.8
476.2783,351.8
476.4119,553
476.4766,78.1
476.5863,174.4
476.8453,91.4
476.8951,548.1
476.9264,756.3
476.9415,41021.1
477.023,128.7
477.222,720.8
477.2754,94.5
477.2968,333.2
477.3399,18.3
477.6033,449.1
477.6914,372.2
477.9444,2398.7
477.9949,245.9
478.1481,18
478.2922,989.1
478.3303,46144.4
478.4426,123.4
478.8364,122.1
478.9386,10471.2
479.0033,476.2
479.1488,278.3
479.2567,613.1
479.3333,7896.4
479.3874,126
479.4956,342.5
479.6267,544.7
479.6591,89.7
479.7017,178.5
479.8086,218.5
479.8684,928.7
479.9415,1051.5
480.3473,773
480.3579,88.8
480.4694,198.2
480.5579,400.1
480.8895,156.8
480.9531,3352
481.0921,78.9
481.2335,5425.9
481.2888,275.4
481.4625,175.1
481.6004,88.1
481.7079,660.6
481.7336,75
482.0528,662.7
482.2353,548.3
482.3255,2662.9
482.435,333.6
482.5285,119.5
482.7485,401
482.9279,410
483.0593,228.5
483.1264,444.4
483.198,127.1
483.2494,181975.9
483.433,160.7
483.4472,373.5
483.509,118.1
483.8064,151.5
483.8928,468.1
484.0064,522.4
484.1618,19.8
484.2528,41017.5
484.414,132.7
484.5244,409.4
484.6124,164.3
484.68,841.4
484.7779,128.9
485.2651,117643.5
485.452,526.9
485.4546,513
485.4619,358
485.8725,548.4
485.9299,342.5
485.9904,27.3
486.1041,506.6
486.1318,126.7
486.2025,93.9
486.2684,27143.5
486.7801,142.9
486.8983,1102.6
486.9696,503.4
486.9816,151.6
487.0559,176.9
487.1521,40.2
487.1762,98.1
487.2225,432.3
487.2807,120774.3
487.4073,843.6
487.5027,393.6
487.7094,125.3
487.9286,299.9
488.0668,106.8
488.284,28779.8
488.3452,143.3
488.4403,332.2
488.6535,296.2
489.0853,45.1
489.1408,100.4
489.1637,231.6
489.2043,946.3
489.2265,193.2
489.2374,143.2
489.2517,24.5
489.2712,123.4
489.2871,1439.7
489.2986,358.5
489.3162,957.9
489.3564,18.7
489.4638,118
489.4957,116.5
489.5473,90.1
490.0096,88.9
490.0883,198.9
490.2356,578.7
490.2917,17882.7
490.3135,300.4
490.5733,841.7
490.6532,337.3
490.7034,279.3
490.9063,19.5
491.2108,75.8
491.2953,1917.3
491.3733,103.4
491.4678,252
491.4938,145.5
491.5768,245.8
491.8126,922.5
492.1585,397.9
492.4604,511.7
492.5568,147.6
492.7542,487.6
492.895,505.9
492.9153,6633.8
493.0073,1137.7
493.0225,841.6
493.2442,681.2
493.5483,154
493.5626,390.8
493.635,18.1
493.6693,280.3
493.7271,21.9
493.9179,578.8
494.1154,349
494.1596,194.7
494.3254,13900.8
494.4087,124.8
494.6495,80.6
494.7468,129.8
494.9123,2133.3
494.9686,298.1
495.1196,18
495.3754,303.5
495.4374,141.5
495.7157,310.2
495.7238,280.6
495.9063,77
496.0425,345.6
496.094,140.3
496.341,520634.2
496.4236,556.9
496.4536,146.1
496.5248,104.1
496.5323,148.4
496.6722,90
496.9315,921.4
497.3443,129173.5
497.4042,327.5
497.4574,563.1
497.5807,785.7
497.703,650.6
497.9479,23
497.9597,241.2
498.045,141.4
498.0674,320.1
498.3475,10075
498.6784,548.3
498.7378,150.8
498.9013,620.7
499.0061,19.7
499.2235,7365.3
499.2718,275.6
499.4685,414.3
499.564,501
499.5839,97.6
499.6819,113.5
500.0721,107.1
500.4582,277.7
500.5933,201.1
500.682,327
500.7437,162.7
500.9436,524.3
501.2389,6450.8
501.3581,17.5
501.4243,382.3
501.4402,103.5
501.5192,108.5
501.7695,399.3
501.7969,122.1
501.8227,88.8
502.1389,18.2
502.1583,777.6
502.3298,18142.5
502.473,115.6
502.5401,139.8
502.8705,680.6
502.9883,812
503.0312,222.4
503.0347,202.3
503.2069,798.4
503.2545,4202.7
503.3332,1276.6
503.5032,24.6
503.8035,949.2
504.0348,504.5
504.1036,93.4
504.2449,604
504.3074,8288.9
504.3451,8583
504.3861,657
504.9485,604.1
505.0217,382.1
505.0365,140.8
505.234,1679.1
505.3111,1080.8
505.3481,394.1
505.5404,441.1
505.6285,161.2
505.8945,221
505.9105,333
505.9615,628.6
506.0344,456.6
506.0453,474.4
506.0801,240
506.2306,598.3
506.2655,1242.4
506.2948,116.6
506.3619,7784
506.5042,598.3
506.5988,377.7
506.6862,238.9
506.8926,2765.4
506.9304,656.3
506.9478,211.8
507.2494,36514.3
507.3377,169.1
507.3617,700.1
507.4174,452.8
507.656,236.2
507.6817,117.8
508.2527,6806.2
508.3794,149.5
508.4639,125.2
508.5436,136.7
508.6999,121.8
508.7872,90.8
508.8894,1706.7
509.0057,3255
509.2503,210.5
509.265,13544.8
509.2811,343.7
509.4457,649.4
509.6447,157
509.8893,260.8
510.2129,229.4
510.2683,2209.3
510.3567,7662.2
510.4445,183.9
510.4856,927.4
510.5721,190.6
510.7538,174.7
510.9045,1215.7
510.9191,875.3
511.1102,22.2
511.1248,30.7
511.2071,110.2
511.4471,210.9
511.7049,17.3
511.801,348.8
512.0138,869.2
512.1066,201.6
512.4141,349.2
512.6735,383.8
512.834,430.4
512.9094,18356.5
512.9965,511.8
513.256,278.3
513.699,114
513.8844,111.7
513.9132,833.5
513.9613,165.1
514.1098,142.1
514.1571,143.7
514.359,145
514.607,102.7
514.8148,145.1
514.9066,9685.9
515.022,451.1
515.1325,371.3
515.1488,319.6
515.4905,124.5
515.5379,871.9
515.6069,412
516.052,19.3
516.1487,143.4
516.1876,95.9
516.3072,24153.3
516.6566,353
516.9032,524
516.9191,849
516.9576,170.3
517.3105,4996.9
518.0565,78.9
518.1524,127
518.323,902443.7
518.3409,652.9
518.5091,80.5
518.5988,744.5
518.6544,485.3
518.7573,19.5
518.9262,29303
518.9461,880.7
518.9657,19.3
519.0172,201.6
519.028,612.7
519.1849,679.5
519.3263,211293.5
519.3473,84.1
519.7125,485.7
519.7639,229.9
519.9294,1673
520.169,122.3
520.2441,89.7
520.2819,1358.2
520.3411,168093.7
520.3752,98.3
520.7471,137
520.9232,16374.3
521.0036,267.4
521.0519,18
521.3322,857.5
521.3444,40342.2
521.9281,608.5
522.0288,646
522.2583,1116.3
522.3567,134129.3
522.3943,136.4
522.9204,1492.8
522.9381,7555.5
522.9675,1210.1
523.1383,95.9
523.1713,96.2
523.36,33598.9
523.6653,91.9
523.8796,348.1
523.9401,347.5
523.9595,385.5
524.0445,91.1
524.0751,138
524.09,494.6
524.0962,468
524.1034,793.5
524.1337,159
524.2256,113.6
524.2554,262.1
524.3723,158888.2
524.9347,974.3
524.978,545.6
525.3756,40068.6
525.5393,438.2
525.6403,145.4
525.7059,94.3
525.8962,98.8
525.9407,410.6
526.0246,458.3
526.3008,250.3
526.3296,3116.1
526.3785,2489.7
526.4869,85.5
526.5354,213.6
526.6623,92.1
526.6851,325.6
526.7332,163.4
526.9503,780.4
526.9942,251.6
527.0236,137.5
527.1601,550.2
527.3444,531.7
527.3497,295.7
527.3865,135.2
527.5095,274.3
527.7092,624.1
527.7919,183.2
528.0599,522
528.4286,805.9
528.4986,116.5
528.8296,463.7
528.8835,8604.7
528.9541,1498.2
529.541,525.5
529.5974,229.9
529.8124,195.8
529.8878,257.3
529.9829,129.4
530.0638,472.9
530.3534,338.9
530.4462,282.5
530.663,119.4
530.781,148.1
530.8806,4197.2
530.937,523.2
530.952,377.9
531.0371,185.8
531.2311,309
531.2501,6477.5
531.4278,638.9
531.4409,443.6
531.9207,163.1
532.0364,394.2
532.091,106.2
532.1104,88.2
532.2815,4236.2
532.3387,13567.6
532.3747,1038.2
532.5034,87
532.6587,21.9
532.7481,236.4
532.7643,136
532.8775,385.6
532.917,1660.8
532.9429,98.6
532.9664,764.3
533.0418,82.4
533.079,443.9
533.0996,97.5
533.3421,788.9
533.6532,162.2
533.6974,495
533.8145,82.1
533.8391,643.8
534.1603,248.5
534.297,215988.7
534.3172,2041.4
534.4084,89.3
534.4713,73.9
534.499,118.7
534.6492,79.9
534.7939,79
534.9,15882
535.1464,163.8
535.24,243.7
535.3004,50018.9
535.3475,574.4
535.5462,183.4
535.5837,419.6
535.7291,93.6
535.7641,94.8
535.8864,153.5
535.9029,1143.6
535.9385,179
536.0294,526.8
536.2956,11407
536.3196,489.1
536.3618,519.5
536.4826,96.9
536.5869,670.8
536.6157,114.4
536.8973,8675.3
536.9899,495.9
537.0155,140.3
537.1124,180.6
537.4447,376.4
537.4857,221.6
537.5697,421
537.657,371.4
537.6659,88.5
537.679,381.6
537.9008,468.2
537.9868,148.8
538.0162,87.5
538.2726,248.1
538.3998,87.5
538.5909,218.1
538.7499,684.9
538.8943,2045.9
538.9129,1618.2
538.9339,2959.6
538.9845,854.5
539.5705,302.4
539.5839,229.5
539.6332,253.4
539.8169,179.9
540.2483,208.8
540.3069,2089.7
540.564,202.9
541.1642,87.5
541.3878,729.5
541.4137,345.6
541.5385,22.7
541.9403,166.6
541.9889,189.3
542.1232,241.4
542.3231,265655.1
542.9932,448.7
543.1686,798.4
543.2452,394.5
543.3265,72043.1
543.994,615.2
544.2731,719.6
544.3388,216792.2
544.4231,274.5
544.468,428.2
544.8128,90.8
544.8567,2508.3
544.9309,385.1
544.9502,1369.8
545.1517,286.5
545.3422,55413.4
545.3667,194.8
545.4475,144.6
545.5952,288.9
545.6708,98.1
545.7349,683.1
545.8711,551.6
545.8828,117.3
546.1281,188.3
546.1667,573.5
546.1964,402.6
546.3544,244300.1
546.5526,206.6
546.5903,315.5
546.7675,132
546.7929,185.7
546.8371,234.4
546.8539,396.1
547.3578,64613.4
547.3904,153
547.5678,424.2
547.7973,90.2
548.1992,101.3
548.3118,1888.6
548.3604,6474
548.3764,699.2
548.4083,694.3
548.9183,137.1
549.4124,390.6
549.4322,453
549.4546,743.2
549.6692,487.5
549.7708,167.5
549.9634,104.5
550.29,371.4
550.4359,173.7
550.4497,412.2
550.495,524.4
550.6163,397
550.8741,2561.3
550.9898,324.2
551.0306,90
551.0661,118.3
551.8727,340.2
552.113,77.1
552.5393,97.5
552.6004,356.4
552.6123,21.3
552.8526,589.5
552.8715,1373.8
553.049,424
553.6871,155.2
554.3737,94.2
554.6928,357.1
554.7012,373
554.8185,599.8
554.8287,88
554.9084,465.6
554.913,462
554.919,351.1
554.9849,733
555.6569,224.6
555.6765,19.1
555.773,20
555.8233,248.4
555.9582,318.6
556.9784,31.5
557.1161,838.8
557.4401,105.4
557.9914,260.1
558.2759,101.2
558.2971,62549.8
559.1407,410.4
559.3005,14897.1
559.3926,94.3
559.8057,104.1
559.9883,684.5
560.2962,736.8
560.3128,52901.6
560.4187,151
560.9246,714.7
561.0329,98.2
561.2262,129.9
561.3161,9057.6
561.3985,163.3
561.4141,1355.4
561.4545,424.1
561.4949,275.7
561.541,135
562.0126,839.6
562.3096,1428.1
562.3283,48446.7
563.0743,979.4
563.1412,154.1
563.2306,139.7
563.3317,11549.6
563.746,191.9
563.8758,450.9
564.2778,21.2
564.308,3763.4
564.3284,751.9
564.5174,452.5
564.8458,187.4
564.9483,86.5
565.1305,118.7
565.6932,769.4
565.7491,845.9
565.8436,94.8
565.9323,19.4
566.3233,46034.9
566.5871,191.7
566.9632,947.9
567.014,403
567.0576,452.2
567.2117,193.9
567.3266,13082.8
567.3848,119.6
567.4099,459.9
567.5324,232
567.7057,284.2
567.8398,136.5
567.9029,140.3
568.0256,409.2
568.0431,210.6
568.1449,283.2
568.3389,24744
568.4196,18.8
568.5074,571.4
568.8906,376.9
568.9496,17.6
569.2692,83.3
569.3425,6595.4
569.6787,18.7
569.7082,144
570.1869,895.5
570.3541,478
570.463,92.3
570.5522,329.4
570.781,127.3
570.8223,83.5
570.8684,5647.2
571.0598,568.6
571.1437,20.3
571.1808,182.2
571.1948,493.6
571.2935,94.2
571.4816,396.5
571.5419,136.8
571.6679,94.5
571.895,695.4
571.9966,89.6
572.251,342.2
572.3707,592.5
572.8653,3827.4
572.9133,337.3
573.0945,174.3
573.2925,153.2
573.3493,124.2
573.4424,102.9
573.7078,471
573.8512,17.4
573.9552,197.8
574.0747,207.1
574.2421,363.9
574.2841,1209.3
574.4441,426.1
574.581,119.3
574.8036,199.3
574.8616,1544.3
574.9758,648.7
575.0941,244.8
575.2883,671.5
575.5048,9030.6
575.731,304.5
575.8451,19.8
576.0959,128.4
576.1694,18.6
576.2817,9181.1
576.2958,733.1
576.4356,131.2
576.5072,407
576.5406,142.5
576.8617,442.2
576.8851,11027.6
576.9701,375.9
576.9926,478.8
577.0557,229.2
577.2847,1076.1
577.4377,125.5
577.4673,237.1
577.8233,112.5
578.0327,136.2
578.2797,1530.5
578.3107,90.8
578.5193,446.4
578.54,21.7
578.6145,127.9
578.7928,98.2
578.8819,8147.9
578.9583,85.5
579.0806,128.9
579.2874,18.6
579.9459,188.7
580.0286,133.4
580.2936,843.9
580.3039,108.6
580.4548,95
580.7318,105.1
580.8797,1746.8
580.897,2793.3
580.9845,757.9
581.01,358
581.0327,85.2
581.3884,316.5
581.5129,523.8
581.5734,217.5
581.5869,170.2
581.7017,284.3
581.7144,80.3
581.7346,175.8
582.0331,698
582.0394,594.1
582.18,249.5
582.2207,237.3
582.2528,671.4
582.2649,190.9
582.2968,13241.7
582.3133,604.5
582.331,152.8
582.3513,653.2
582.3678,278.6
582.5557,249.7
582.6285,243
582.8941,1509.4
582.9694,224.1
583.0589,19.4
583.2243,135.1
583.2574,4485.3
583.301,2339.1
583.7747,320.8
583.9099,745.3
583.9136,846.4
583.9227,806.2
583.9313,907.8
583.9524,1919.9
583.9689,261.7
584.2606,609.1
584.3129,2954.6
584.429,89.9
584.4578,125.2
584.5699,334.6
584.8437,91
584.9301,95.8
585.0849,353.6
585.272,3429.1
585.425,100.3
585.4414,131.5
585.5727,168.5
585.6951,217.1
586.2752,555.3
586.3113,6991.4
586.7763,79.5
586.8425,1981.5
586.9143,865.8
586.9886,207.2
587.0021,1564.3
587.3782,93
587.5266,325.6
587.6533,813
587.8446,361.8
588.0926,18.9
588.2302,242.6
588.5736,21.8
588.839,2793.5
589.5683,397.9
589.6977,538.6
589.7577,822.1
589.913,166.7
590.0112,412.9
590.1013,489
590.1968,693.4
590.212,617.9
590.2253,237.2
590.2859,248.3
590.3233,8429.6
590.3785,143.3
590.5468,127.1
590.6461,347.6
590.784,458.8
590.8366,682.9
590.8846,18.8
591.0955,669.9
591.1905,23.9
591.3272,2105.4
591.4573,247.4
591.49,325.4
591.5521,261.5
591.7609,398.2
591.8487,654.4
591.9652,112.4
592.0603,80.6
592.2567,943.6
592.3392,3458.1
592.6571,240.8
592.8592,7686.8
592.9414,19.2
593.0195,315.3
593.42,454.6
593.5865,236
593.7317,22.2
593.9047,160
593.9745,101.2
594.2724,119.8
594.4529,591.1
594.6968,94.9
594.8561,6957.9
594.9978,135.6
595.3355,147.5
595.5859,121.2
595.6557,412.7
595.7665,932.7
596.0983,171.2
596.1674,170.9
596.2309,428.1
596.3483,369
596.4357,356
596.4584,488.2
596.557,101.1
596.6304,324.9
596.651,659
596.6877,92.1
596.7257,80.4
596.8304,978.9
596.8531,2369.5
596.8722,611.5
596.8942,604
597.0201,19.5
597.0431,593.3
597.1112,119.2
597.1211,19.1
597.293,177.6
597.4502,4239.1
597.4867,10299
597.6845,103
597.766,1067
597.8729,889.7
597.9152,539.5
598.1914,96.1
598.2451,827.5
598.4684,249.7
598.4897,1671.7
598.8155,536.4
598.8681,1071.9
598.9503,83.7
599.3265,153.7
599.4699,591.1
599.5035,2049.4
599.603,177.1
599.691,174.4
599.8016,808.5
599.9371,348.1
600.2827,373.7
600.6083,405.4
600.6434,855.5
600.9655,535.3
601.0568,91.9
601.1937,466.7
601.4597,142
601.521,979.6
601.7388,201.5
601.7639,777.3
602.1321,195.2
602.2689,791.8
602.2977,1560.4
602.4286,599.2
602.6601,150.5
602.8122,846.9
603.0833,169.3
603.5376,367.2
603.5971,95.1
603.8795,406.1
604.244,191.9
604.7467,176.4
604.8468,472.3
605.2398,1275
605.3087,112.6
605.4048,445.6
605.4848,130.1
605.548,147.1
606.0576,20.8
606.1149,552.6
606.2972,564.4
606.4815,816.2
606.6261,303.1
606.9634,166.4
606.9894,350.7
607.0634,416.7
607.1721,5544.8
607.2815,420.3
607.6215,95.8
608.1752,937.5
608.8325,1606.6
609.0057,236
609.0208,579.4
609.1813,328.4
609.2727,715.7
609.5125,177
609.8435,678.8
609.9753,413.3
610.1115,818.4
610.2812,146.7
610.3087,762.4
610.3503,18.2
610.8296,1455
611.4078,508.3
611.8062,489.8
611.9023,108.6
612.8291,498.7
613.8569,774.7
614.205,252.7
614.7443,245.5
614.9031,428.6
614.9783,19.9
615.0734,723.8
615.2408,391.5
615.2863,362.1
615.4605,488.4
615.5978,89.6
616.5535,19.6
616.6015,260.3
616.762,140.9
617.0686,165.4
617.3992,443.6
617.4769,7484.5
617.9051,704.3
617.9603,225.6
618.4307,273.5
618.4898,287.9
618.8819,578.5
619.0096,338.1
619.0455,105.9
619.111,889.5
619.2788,760.8
619.4436,252.3
619.4746,314.3
619.4927,2566.2
619.5098,90.3
619.64,87.5
619.9654,657
620.3364,194.3
620.7252,122.1
620.7751,622
620.8993,109.1
621.2461,785.5
621.4567,1805.4
621.4868,6760.9
621.5733,848.6
621.7048,304.6
621.9956,287.8
622.1889,357.2
622.6784,1010
623.1374,32427.9
623.2643,401.5
623.4587,210.3
623.4747,1427
623.5046,823.8
623.6744,362.4
623.9322,175.9
624.1411,5408.9
624.9481,110.9
625.1414,135.9
625.1463,133.3
625.1527,141.8
625.3624,312.4
625.477,456.8
625.5202,1363.5
626.099,350
626.3172,181.3
626.3658,21.9
626.4512,22.6
626.9238,172.9
627.3394,94.8
627.399,102
627.4252,234.3
627.5365,765.3
627.6036,21.5
627.707,104.3
627.7318,137.9
627.8368,22.4
628.0645,20.6
628.2368,94.3
628.5128,117.9
628.5386,27.7
628.7393,402
629.0488,21.2
629.1543,70732.6
629.6565,109.9
630.1581,14780.1
630.3683,147.4
630.6515,122.7
630.8783,531.8
630.9664,387.3
631.1365,96.7
631.1594,1174.5
631.5764,597.4
631.6625,120.6
631.9066,119.8
632.0624,363.5
632.1191,507.3
632.1319,172.1
632.2217,20.5
632.2696,21
632.4616,516.4
632.4859,100.1
632.5877,90
632.9362,785.7
633.1007,329.8
633.1077,301
633.1127,230.2
633.2102,94.4
633.3452,100.7
633.5147,21.9
634.0289,688.6
634.508,596.6
634.5664,459.9
634.71,213.6
634.8025,236.1
634.8434,2736.7
635.0296,20.9
635.1476,124.3
635.6458,311.2
635.8399,247.9
635.9899,888.2
636.0053,159.2
636.082,1469.9
636.1748,115.6
636.2513,101
636.3034,954.4
636.3881,1024
636.4542,107.7
636.8416,3621.7
636.894,84
637.1885,442.3
637.2082,87.2
637.2397,771.2
637.3467,183.8
637.4585,137.4
637.6286,554.2
638.5498,188.9
638.5929,86.2
638.7843,98.9
638.838,1496.3
639.2062,288.5
639.6066,155.7
640.0509,501.7
640.4281,156.5
640.4904,454.7
640.5214,252.8
641.1372,873.8
641.2899,842.1
641.4499,190.2
641.759,242.5
641.892,137.6
642.3603,96.4
642.4349,314.1
642.5038,88.9
642.7739,231.5
643.3052,174.3
643.3681,305.9
643.4709,821.2
643.7532,18.8
643.8142,91.6
644.2002,94.4
644.837,84.3
644.8747,148.1
644.9709,465.2
645.001,88.5
645.1191,26574.7
645.192,827
645.262,167.4
645.3202,580.9
645.7008,148
645.7166,98.6
645.8397,182.9
645.908,121
646.0925,94.1
646.1229,3543.5
646.2268,100.1
646.2777,519
646.4292,1214.8
646.4595,258.1
646.5376,107.4
646.5792,85.9
646.6735,155.7
646.9308,1060.8
647.0559,169.8
647.0957,788.9
647.1201,347.7
647.3172,154.7
647.4522,477.2
647.4586,657.3
647.4639,673.6
647.4809,123.8
647.5081,1561.7
647.5387,378.2
647.937,581.6
648.0141,160
648.1847,491.6
648.4487,609.6
648.4921,105.5
648.6491,222.2
648.8328,169.1
649.1164,558
649.471,220.6
649.4915,258.8
649.7677,794.3
649.9967,110.7
650.084,538
650.1757,101.4
650.6433,267
650.8174,2174.1
651.1363,72125
651.3132,151.4
651.4429,190.5
651.4864,312.6
651.5534,181.8
651.7083,630.4
651.7841,145.5
651.8317,432.4
651.9645,758.6
652.1398,13077.6
652.4248,451.4
652.7192,208.7
652.7477,187.3
652.7613,433.5
652.8143,3120.1
653.0035,431.5
653.1123,1099.9
653.1421,1128.4
653.2538,934
654.1158,112.5
654.321,273.6
654.678,1749.3
655.0267,17.8
655.0775,829
655.1412,211.3
655.3561,143.5
655.7238,278.8
655.9432,769.9
656.2272,105.5
656.5073,116.9
656.7148,524.5
656.905,89.6
657.3049,550
657.4133,433.5
657.4806,338.1
657.9711,554.3
658.1112,458.6
658.1898,147.4
658.3482,22.1
658.4297,1228.1
658.5415,110.2
658.6109,141.3
659.0646,244.1
659.0909,21.3
659.2894,1006.1
659.7397,191.2
659.8938,372
660.0164,775.8
660.3335,100.2
660.3851,91.8
660.506,770.3
661.0842,12178.5
661.2672,208.7
661.4742,424.6
662.0704,178.8
662.0877,1302.7
662.1796,308
662.2356,151.4
662.4797,109.9
662.8829,134.8
663.2752,23.4
663.2999,165.9
663.3493,23.8
663.3731,404.7
663.4567,1235.1
663.5468,129.5
663.9519,20.2
664.2589,92.5
664.3207,86.9
664.4084,193.7
664.4686,3297.6
664.6705,20
665.4273,20.6
665.473,1009.5
666.1022,124.8
666.3024,18.4
666.4853,6293.3
666.7778,179.6
667.1009,37091.8
667.1377,199
667.5103,575.4
667.6609,590.1
668.048,20.6
668.1051,5528.2
668.6051,168.9
668.6251,559
668.6411,95.5
668.7885,915.9
669.0839,254.2
669.1078,806.2
669.2752,166.2
669.4963,1108.9
669.5729,383.7
669.7379,106.3
670.1068,110.5
670.2345,199.5
670.2829,162.7
670.4017,108.4
670.6433,101.2
670.6798,179.4
671.0774,79
671.142,687.7
671.1798,245.5
671.3498,385.8
671.6255,331.2
671.781,709.5
671.9843,741.7
672.121,251.4
672.1548,77.5
672.2512,716.8
672.4477,461.5
672.5053,725.2
672.8256,757.5
672.9471,1167.6
673.0358,328.7
673.1182,78341.5
673.3207,19.4
673.3373,133.1
673.4892,459.4
673.5291,1037.8
674.0986,141.2
674.1218,13819.4
675.0954,1404
675.1238,1518.8
675.169,382.7
675.199,208
675.5456,16763.9
675.8219,130.7
676.2198,198.4
676.5485,4679.8
676.6943,498
677.281,591
677.6895,206.6
677.7737,144.6
677.8813,19.8
677.968,252.6
678.1,362.3
678.1826,583.6
678.6419,347.5
678.9567,363.8
679.868,290
679.9846,175
680.0614,742.8
680.2406,94.3
680.4456,1147.3
681.1548,20.8
681.5545,281.5
681.689,432.3
682.0673,671.2
682.1035,20.6
682.5606,81.2
682.8422,494.9
682.9398,123.4
682.9994,117.8
683.0352,98.1
683.0653,9047.6
683.1196,782.3
683.4138,193.5
684.0812,126.4
684.4833,87.6
684.6816,154.2
684.7104,213
684.9191,111.9
685.4375,12216.7
685.6167,163.8
686.356,25.1
686.4064,410.9
686.4419,632.5
686.7917,97.9
686.8557,365.3
686.9247,19.7
687.3693,447.8
687.3791,397
687.4908,346.2
687.5808,18.6
688.3445,109.7
688.4123,555.3
688.4302,263.9
688.6877,762.6
688.7807,337.5
689.0823,27846.7
689.2059,132.3
689.5331,139.4
689.561,2234.7
689.7513,632.6
689.8271,254.1
690.0872,2697.6
690.096,2755.2
690.1467,156
690.6616,252.3
690.6957,390.9
691.0625,208.7
691.091,485.5
691.1426,19.8
691.1956,969.7
691.235,17.4
691.6226,318.9
691.9907,82
692.095,109.7
692.7709,87.9
693.0779,405.3
693.3262,89.9
693.4082,426.2
693.6096,164.2
693.7064,516
693.8049,376.8
694.0468,133
694.1772,108.7
694.9295,238.9
695.1003,52011.9
695.4165,145.7
695.5121,2863.1
695.6997,351
696.1039,9084.2
696.3813,89.5
696.7074,652.3
696.7954,444.7
696.8508,239.3
696.8793,98.1
696.918,288.7
697.0139,94.1
697.0355,113.6
697.0761,165
697.1091,394.5
697.2439,124.9
697.25,111.7
697.2646,224.5
697.5056,618.1
697.5273,29491.2
697.642,630.7
697.6976,394.4
697.9442,91.9
698.4729,140
698.5309,6332.6
698.641,18.1
698.7897,866.3
699.1856,379.1
699.2447,117.2
699.4778,724.4
699.5342,751.5
699.7688,392.3
699.8528,152.7
699.9584,118.6
700.3726,108.4
700.4894,1057.8
700.5136,345.2
700.5911,187.7
701.3795,445
701.4111,1639.7
701.4944,941.1
701.5613,34097
701.7472,173.2
701.7968,280.5
702.0144,18.8
702.3434,2323.9
702.565,9214.9
703.0116,500.6
703.0181,435
703.0291,329.3
703.2345,130.6
703.4179,204.6
703.4503,552.5
703.577,60079.8
703.8175,106.6
704.0059,355.7
704.0997,192.8
704.444,252.8
704.4891,121.4
704.5248,2207.1
704.5804,23202.5
704.6766,19
704.732,131.8
704.8115,81.8
704.8546,394
705.0277,434.4
705.0566,6090.8
705.3099,84.3
705.5827,4504.2
705.6179,379.8
705.6777,443.2
705.854,811.4
705.9393,361.2
706.0242,33.1
706.0507,439.2
706.5403,3889.8
706.793,603.8
707.0422,107.2
707.2795,117.6
707.5324,1107.3
707.7628,444
707.8844,156.1
708.7362,22.7
708.8352,415.8
709.4175,533.9
709.4335,249.3
709.5885,156.5
709.6791,27.5
709.7484,607.9
709.8163,155.8
710.2233,149.8
710.2886,403.7
710.3967,288.5
710.7224,102.6
710.773,1152.3
711.0639,17458.1
711.0752,19428.3
711.1148,87.3
711.5434,5873.8
711.8082,462.1
712.0762,1542.5
712.2351,390
712.4732,178.5
712.5465,2184
712.6277,24.5
713.0015,20.2
713.0493,95.7
713.1712,18.2
713.5016,2162.2
713.6619,140
713.8751,819.7
713.9149,100
714.013,91.4
714.0884,88.7
714.6031,103.5
714.7782,739.6
714.9743,446.1
715.0363,142.8
715.4448,455.3
715.5151,193.2
716.078,196.9
716.297,17.7
716.4762,85.5
716.9799,304.3
717.0822,24700.3
717.585,164.3
717.7671,138.2
717.8104,333.6
717.8751,154.3
717.9084,100.3
717.974,811
718.0855,2765.4
718.1557,411
718.1825,292.2
719.4634,3180.2
720.1267,689.5
720.3422,506.4
720.4814,176.4
720.7199,18.4
720.7392,264.4
720.8967,448.4
721.1738,519.5
721.2439,424.5
721.3513,338.2
721.48,53833
721.6958,635.7
722.1369,130.8
722.3082,392.3
722.4829,19000.6
723.3616,330.6
723.4958,5393.2
723.5433,37240.7
723.7357,261.4
724.5001,1587.7
724.5467,13704.7
724.6263,134.6
725.2089,260.5
725.3236,385.8
725.5261,127.2
725.5591,66224.3
725.7113,80.3
726.5068,3124.5
726.5625,24551.2
727.0342,3441.4
727.2628,23.2
727.5086,83.7
727.5648,2310.6
727.5792,987.9
727.8219,279.9
727.9567,360.3
728.0447,603.9
728.5234,4617.3
729.0532,824
729.5269,1611.2
729.5928,5312.9
730.0796,216.8
730.2106,100.6
730.2732,534.4
730.426,710.9
730.5401,19755.6
730.5973,720
730.6737,33.4
730.8749,104.9
730.9787,210.4
731.0497,76.8
731.1954,492.5
731.2424,518.7
731.3754,214.9
731.5011,861.7
731.5439,5403.7
731.6078,4195.1
731.8048,206.4
732.556,58164.8
732.6825,566.8
732.8095,89.6
733.006,96.8
733.046,8654.8
733.0572,10388.6
733.5595,20801.7
733.7322,95.8
733.963,795
734.0498,707
734.2577,557.1
734.3976,83.4
734.5728,3693.1
734.6029,683
734.9275,88.2
735.0623,146.6
735.1314,315.2
735.1537,368.7
735.5004,184.3
735.5755,292.4
735.6391,948.9
735.8691,726.3
735.9164,486.6
736.6013,650.4
736.6205,181
736.7107,176.6
736.7527,408.7
736.7706,187
736.8305,290.9
736.9294,16.5
736.9745,346.5
737.067,352.1
737.454,9715.7
737.5344,747.9
737.6203,358.8
738.0291,848.4
738.0926,186.4
738.1811,460.4
738.32,150.9
738.458,1897.4
738.4842,83.4
738.8028,126.9
738.8995,114.9
738.9359,597.2
739.0077,143.8
739.0642,13471.4
739.1255,98.6
739.7333,629.9
739.8635,154.7
740.0669,1024
740.271,285
740.3184,720.9
740.5228,821.7
741.0727,347.5
741.4062,105
741.5332,5099.5
741.5599,139.5
741.5867,112.7
741.8213,254.1
742.3492,929.3
742.412,105.6
742.5372,1014.8
742.5771,8193.2
743.0046,427.6
743.0951,160
743.4634,1344.2
743.5189,192.8
743.5809,1006
743.9775,99.6
744.1027,360
744.4659,1175.4
744.5548,3838.2
744.5924,6156.9
744.7806,83.4
744.7993,103.1
745.0327,973.3
745.0504,549.1
745.4802,29993
745.5334,180
745.5582,628.1
745.5956,1255.2
745.888,229.4
746.234,153.8
746.3695,575.3
746.4486,159.1
746.4835,11458.4
746.55,250.2
746.5719,3955.3
746.6085,546.4
746.7578,150.4
746.9358,107.5
747.1616,692.7
747.3054,137.3
747.4955,8759.1
747.5278,184.7
747.549,279.3
747.5752,599.4
747.6324,540.1
748.4987,1869.2
748.7255,197.6
749.012,1826.8
749.5119,2839.9
749.787,452.4
750.1741,130.1
750.19,594.6
750.2709,134.9
750.3577,140
750.5125,783.3
750.5629,416.2
750.7128,869.1
751.1028,85.9
751.3942,181.8
751.5748,2707.3
751.7023,116.2
751.8161,129
752.1263,379.8
752.1646,609.8
752.2533,26.2
752.4659,344.3
752.5221,21284.6
752.7581,460.8
752.8842,112.4
753.1004,94.5
753.1849,668.5
753.5254,7968.1
753.5887,1458.4
753.8618,148.4
754.2894,693.5
754.323,172.7
754.3414,920.6
754.5383,56593.4
754.7865,349.1
755.0289,3778.4
755.0396,5949
755.542,22190.4
755.642,116.9
756.2717,383.5
756.556,69497.8
756.6806,135.4
756.815,18.7
757.0386,192.6
757.1344,148.1
757.2398,99.3
757.3535,152.2
757.5594,30979.6
757.6234,873.8
757.6656,193.1
757.7357,92
757.861,163.2
757.9799,359.5
758.2159,23.3
758.5718,951192.9
758.8035,415
759.1805,98.3
759.5752,428358.3
759.6386,1594.2
759.6719,297.1
760.4302,272.8
760.5886,280386.2
760.6418,170.2
761.0462,3619.5
761.4539,2044.9
761.5413,310.9
761.5912,138509.8
762.293,861.6
762.4079,91.2
762.5938,28646.7
762.7139,139
763.1242,20.6
763.2306,193
763.2632,184.8
763.3601,19.2
763.4777,701.1
763.5973,2009.6
763.9247,116.6
764.2358,387
764.3833,80.9
764.4675,83.3
764.5588,2445
764.8218,571
764.8581,436.4
764.9748,523.1
765.0317,103.1
765.2336,137.7
765.3701,783.4
765.5861,330.3
765.9192,131.5
766.1775,185.7
766.3368,144.5
766.4318,282
766.5108,441.4
766.5381,5977.6
766.5761,16712.5
766.7503,118
767.0035,484.2
767.0432,208.3
767.176,118.6
767.265,302.3
767.4383,222.3
767.5804,6162.1
768,148.2
768.1165,132.7
768.261,104.3
768.4981,702
768.5558,3419.9
768.5926,30564.1
769.1784,533.2
769.3939,247.1
769.4804,6124.8
769.5572,959.8
769.5954,12383
770.188,159.6
770.2655,91.3
770.4799,1222.6
770.5125,4406.6
770.5718,2601.2
770.6097,1960.7
770.7459,801.3
770.9935,5510.1
771.0486,333
771.0916,115.2
771.27,184.1
771.3555,208.6
771.4968,869.5
771.5148,1512.9
771.5726,515.5
771.6134,670.2
771.7201,128.5
771.9964,835.2
772.5878,13213.7
772.6415,188.3
772.7251,97
773.0061,171.6
773.0241,583.7
773.4055,173.7
773.5121,503.4
773.5909,5589.6
773.6528,303
773.7321,335.3
773.8528,93.5
774.1099,593.1
774.4926,409.9
774.6035,982.1
774.8283,435.6
774.934,921.5
774.9997,170.9
775.2708,101.3
775.2969,187.5
775.4203,504.1
775.6063,843.7
775.7173,122
776.1411,426.5
776.4028,128.5
776.4479,245.1
776.5226,8459.8
776.607,369.1
776.7681,438.9
777.0098,3969.2
777.2858,178.6
777.3266,132.2
777.5271,1825.2
777.7609,764.9
778.0459,1005.9
778.5381,58670.7
778.5882,847.3
778.6507,535.3
778.9434,98.8
779.0667,291.8
779.3967,171.2
779.5417,26110.2
779.5815,129.1
780.1733,582.8
780.2325,20.2
780.2983,221.9
780.3943,723
780.5539,703731.1
781.0843,192.8
781.3653,96.1
781.4988,101.7
781.5574,321190.4
781.6204,180.8
782.29,587.1
782.5716,670729
782.7625,93.3
783.0282,4835.7
783.1357,212
783.1674,150
783.416,252.2
783.4481,23.9
783.5747,316927.4
783.8671,154.4
784.0413,19.2
784.4476,881.6
784.5297,97.7
784.5883,300514.9
785.2169,286.6
785.392,100.6
785.5912,144690.5
785.6559,4107.7
785.8286,332.9
785.9936,105.5
786.1997,21
786.5336,118.8
786.6037,280706.3
786.6574,1638.1
787.29,114.8
787.6068,138651.5
787.6729,728.6
788.273,293.9
788.5597,6193.6
788.6066,21589.8
788.6224,12923.1
788.6721,93.4
789.051,391.1
789.5456,2115.3
789.6235,6385
789.9143,23.6
790.4509,18.4
790.5448,2026.5
790.5751,13994.9
790.6255,1042.2
790.9961,343.4
791.053,943.6
791.183,621.1
791.4691,382.8
791.5589,608.8
791.5775,5030
792.0835,147.9
792.257,148.7
792.3988,145.9
792.5572,582.9
792.5924,6781.2
793.5536,837.7
793.5957,2418.8
794.2147,378.1
794.5116,4203.4
794.5709,4620.6
794.6083,27936.7
795.3697,79.5
795.4958,754.8
795.5164,2248
795.5711,514.8
795.6115,12041.7
795.6473,85.5
795.6768,92.9
795.8429,1037
796.1532,247.1
796.2645,146.4
796.3678,475
796.5276,113515.5
796.5875,6489.3
796.6251,3775.8
797.5312,52003.1
797.5915,244.5
797.627,933.9
798.5445,25237.3
798.6048,1562.3
798.6671,105.3
798.9789,138.3
799.2515,178.6
799.5468,10359.2
799.6374,144.8
799.6712,1095.5
799.9627,196.2
800.5291,574.3
800.6244,891.4
800.6677,158.2
801.1852,436.5
801.2748,112.6
801.5059,141.1
801.5417,1386.9
801.5904,307.9
801.6855,424.3
801.7037,376.1
802.1969,250
802.5063,1307.1
802.5382,58588.6
803.058,396.8
803.0934,582.2
803.1542,196.4
803.2829,265.2
803.5416,22157.7
803.7087,97.4
804.3231,90
804.554,366494
804.6072,517.9
804.6768,554.3
804.9342,664.3
805.5573,179434.7
805.6448,220.9
806.0272,428.9
806.1241,598.9
806.571,315748.2
806.6068,78.6
806.6539,121.7
806.9915,543.3
807.4208,327
807.4936,593.4
807.5742,159474.8
808.2978,198.5
808.5868,245046.5
808.6244,259.5
809.0432,18.4
809.2857,241.8
809.5899,117432.1
809.6557,521.5
809.6837,667
810.3905,184.7
810.528,801.1
810.6039,141714.8
811.2073,23.7
811.3437,273.3
811.6067,72578.3
811.6712,5609.4
811.9627,599.6
811.9927,105.4
812.4865,195.1
812.6211,26881.3
812.6732,1267.6
812.7051,147.3
812.8972,507.5
812.9596,215.5
813.0166,671.7
813.3874,370.4
813.6228,15371.4
813.6872,5665.1
813.7575,138.7
814.2035,434.4
814.3049,719.4
814.3717,79.1
814.4452,97.6
814.5578,223.7
814.5751,988.8
814.624,743
814.6901,1715
814.7739,150.4
815.1415,702.4
815.1704,587.7
815.1915,109.9
815.4179,872.1
815.5045,104.4
815.5689,269.5
815.7041,246.8
816.412,377.7
816.59,11060.9
816.6418,523.9
817.0037,334.8
817.1509,552.8
817.412,23
817.593,3330.8
817.629,464.1
817.9365,532.1
818.18,137
818.512,8085.4
818.5486,106.4
818.5781,267.8
818.6088,1827.8
818.7384,132.8
818.779,256.1
819.2813,116.9
819.5161,380.6
819.5865,422
819.9589,182.9
820.0852,798.8
820.4156,92.4
820.4478,149.1
820.5279,63017.7
820.5788,553.4
820.6241,96.8
821.0844,666.7
821.4827,93.2
821.5313,26965.2
821.6553,163.2
821.8227,17.7
822.0471,929
822.376,169.2
822.4077,483.4
822.5444,30570.8
822.6058,191.9
822.7406,1059.3
823.0506,98.5
823.4549,760.4
823.5473,12109.8
823.6396,216
823.7948,192.1
823.8524,383.7
824.2323,249.5
824.265,245.2
824.2949,678.2
824.3226,1055.4
824.5597,23827.7
824.7718,105.6
824.947,176.9
825.0849,194.5
825.1708,142.7
825.5625,6134.9
825.5983,289.4
825.6936,772.5
825.8025,570.7
826.5384,3010.5
826.5633,1086.6
826.6677,587.5
827.0533,854.6
827.412,24.3
827.9273,100.1
828.4262,578.8
828.5538,105825.3
828.8167,129.3
828.8318,463.3
828.9677,136.3
829.1043,462.5
829.1332,224.7
829.5574,49174.3
829.6487,939.6
829.8204,171
830.0066,676.3
830.2633,274.1
830.5706,67823.7
830.6215,159.4
831.0163,184
831.1699,91.1
831.5734,34453.9
831.8979,844.6
832.0989,149.6
832.2204,17.8
832.4471,88.1
832.5863,70268.9
833.0696,522.9
833.0874,162
833.2905,430.7
833.589,36905.1
833.6543,90.5
834.4338,88.4
834.6037,32087.6
835.0788,254.9
835.2726,411.3
835.3516,496.6
835.6061,19160.9
835.6688,599.7
835.7104,214.3
835.7566,273.7
835.7798,559.8
836.1249,112.4
836.5288,137.3
836.6204,6640.7
836.6709,111
837.4136,343.5
837.623,606.8
837.6519,111.1
837.7297,329
838.5117,1796.1
838.5765,124.6
840.0505,280.2
840.0793,679
840.5198,908.4
840.8475,532.6
840.8769,208.4
840.914,326.6
841.5662,102.1
842.0659,327
842.4072,220
843.3567,423.5
843.8597,341.4
844.4168,218.8
844.5277,18038.1
845.1729,507.7
845.5306,3763.6
845.64,95.5
845.6567,235.7
845.9056,867.4
846.5436,7467.3
846.765,483.2
846.8666,277.1
847.1363,175
847.1983,291.9
847.4515,1995.9
847.5482,2471.9
847.9627,194
848.1433,238.3
848.4388,812.9
848.5587,8537.1
849.3731,122.5
849.5236,452.8
849.5612,2172.8
849.7804,444.4
849.9611,19.2
850.3219,501.1
850.5701,1021.9
851.325,18.2
851.4143,268.6
851.6267,294.2
851.7735,127.6
851.8011,284.1
851.9817,138.1
852.1134,541
852.1406,781.7
852.2062,450.8
852.4247,93
852.5871,207.5
852.998,150.6
853.882,331.5
854.57,4880.4
854.6368,152.6
854.7464,860.6
855.8242,1003.8
855.8491,94.5
855.9392,414.3
856.0873,509.3
856.2939,498.6
856.5854,6389.3
856.8801,276.9
857.3769,103
857.5585,89.7
857.5903,2282.2
858.6039,230.4
859.653,398.2
860.0257,144.1
860.1317,123.8
860.4108,240.7
860.6971,148.4
861.8923,136.3
862.3157,96.4
862.5115,764.3
862.5355,154.1
862.7043,731.9
863.0788,302.3
863.1427,21
863.3728,128.2
863.7139,174.3
863.8116,110.6
864.2116,722.9
864.2693,21.5
864.8258,886.4
865.5127,146.3
865.7681,294.4
866.2298,170.8
866.5948,101.7
866.9234,1354.1
866.9784,773.2
867.2384,107.7
867.328,240.3
867.3864,111
867.9615,18.3
868.5415,82.8
868.629,309.9
868.9232,149.2
869.2631,206.9
869.4172,90.5
869.489,933.7
869.5321,158.5
869.5537,314.4
869.6341,1980.8
869.66,1111.8
869.7008,902.4
869.7256,787.2
869.7715,3429
869.8012,4557.7
869.8363,3533.5
869.9068,2835.1
869.9529,992
869.9789,793.9
869.9967,806.5
870.0222,507.4
870.1303,295.3
870.2026,270
870.7415,323.5
870.9551,161.8
871.5121,763.7
871.5743,84.5
871.6096,392.1
871.7122,160.9
872.0201,165.4
872.4676,667.6
873.2171,211
873.4021,343.8
873.5628,98.3
873.5981,153.1
873.6429,141.2
873.7087,535
873.8106,22
874.055,458.1
874.0925,103.9
874.6219,818.3
874.6983,180.4
875.1708,529.5
875.2246,172.9
875.611,373
875.6415,160.2
875.7199,302.2
876.4597,156.1
876.6016,161.1
876.7173,213.8
877.8202,179.5
877.8852,22.5
878.0043,19
878.122,107.9
878.6121,21
878.9153,501.7
879.382,104.6
879.4264,169.7
879.5185,151.9
879.712,18.8
880.1665,822.1
880.3702,87.7
881.1567,185.6
881.2599,534.6
881.2951,142
881.6016,135.4
881.6412,219.1
881.8842,170.7
882.0082,19.1
882.5169,109
882.6085,648.8
882.6532,24.3
883.0427,138.4
883.098,186.9
883.4712,111.5
885.7002,95.8
887.3382,134.2
887.9335,998.3
888.1689,269.1
888.4193,118.7
888.5417,79.4
888.6276,505.8
888.985,1369.2
889.8107,417.7
890.4365,287.9
890.5966,391.7
890.8122,969.5
890.8442,92.1
890.9023,297.1
891.6747,1028.1
892.491,311.6
892.8536,296.7
893.3032,569.4
893.8723,396.6
894.221,329.8
894.3437,220.1
894.3762,543.5
894.5644,168
894.6048,641.9
894.7959,313.7
895.6012,138
896.174,88.6
896.8314,248.8
897.2861,265.8
898.0336,776.8
898.2123,114.1
898.269,634.5
899.2286,149.8
899.6685,390.1
900.3906,858.7
900.7543,94.1
901.2411,105.5
901.4175,108.3
901.5769,308.3
901.7854,644.1
902.034,295.3
902.5863,710.5
902.6301,395.4
902.8609,798.1
902.9489,350
903.3162,20.2
903.3794,392.5
904.1405,682.3
904.2629,386.8
904.4278,187.5
904.7502,24
905.0563,3212.9
905.3877,19.4
905.7102,568.1
906.0355,19
907.3376,105.7
907.6958,403.8
907.7178,20.4
907.8929,166.8
907.9147,23.2
908.8874,178.7
908.9383,306.1
909.117,117.4
909.67,122.1
909.6863,148.1
909.6923,149.6
910.8131,646.5
910.8993,98.7
911.176,287.2
911.2073,147.8
911.2366,88.5
911.6169,483.8
911.9841,150.8
912.2301,664.3
912.3565,373.5
912.4865,153.2
912.5114,379.3
912.6784,336.9
912.9806,234.7
914.4104,436
914.4559,665.8
914.6048,156.3
914.9741,206.6
916.0616,482.9
916.9177,820.6
916.9617,351.5
917.0213,484.8
917.1362,410.4
918.0953,927.9
918.6644,795.5
918.7878,276
919.1003,101.2
919.7808,761.6
919.8919,98.7
920.0295,928.4
920.1318,687.9
920.9379,754
920.9922,18.6
921.5167,22.7
921.8221,90
921.9364,96
922.1381,144.2
922.255,195.7
922.8751,426.6
923.1236,135.4
923.3601,606.8
924.7688,1025.2
925.189,1046.3
925.599,480.9
927.2748,235.4
927.5406,436.2
928.1613,152.7
928.3824,257.1
928.733,276
928.8073,661.7
928.9359,634.9
929.4151,1515
930.3573,97.3
930.4711,22.9
931.1812,119
931.2483,124.8
932.0875,306.4
932.2315,107.9
932.3086,1009
933.3437,498
933.6681,153.4
933.738,893.6
934.1943,1619.2
934.4378,193.6
934.4686,278.3
934.6024,451.2
936.0904,85.6
936.9136,141.6
937.1033,81.4
937.5044,674.9
937.6202,174.8
937.9066,215.3
938.0046,397.5
938.1592,151.4
938.3267,651.1
938.7121,338.2
939.4564,131.2
939.5015,204.2
939.5555,149
940.5044,967.6
940.6509,138.9
940.8021,233.7
941.5636,253.3
941.6465,520.2
942.048,168.9
942.3972,233.6
943.2286,611.1
943.2595,91
943.5648,19.2
943.7844,230.8
944.2532,180
944.4138,120.8
945.5168,769.6
945.5501,324.6
946.1913,801.9
946.6275,218.8
947.0237,297.5
947.0885,112.2
947.2471,639.3
947.7962,198.3
947.9396,199.2
948.0431,236.1
948.1913,483.7
948.2216,883.5
948.3343,352.9
948.5161,226.1
948.6099,265.7
948.9085,170.3
948.97,203.8
949.1535,783.1
949.1756,861.4
949.5017,242.2
949.6183,1409.2
949.9023,270.6
950.1122,197.6
950.1504,440.7
950.1892,198.8
950.2215,388.4
950.4817,827.5
950.6251,182.3
950.6557,685.8
950.7569,402.9
950.9071,184.6
951.1859,211.3
951.2356,722.7
951.9064,113.1
952.2392,22.8
952.2717,92.2
952.5447,1007.8
952.8166,193.6
952.9254,604.7
952.9848,749.7
953.4631,456.3
953.5054,83.3
953.6612,576.1
954.2332,265.7
954.3716,208.3
955.3044,98.4
955.3845,159.3
955.5807,394.6
955.6058,185.6
956.5918,83.2
957.8007,658.4
958.0118,172.4
958.0772,92.4
958.1529,128
958.2809,563.6
958.5736,179.9
958.6167,144.1
958.8879,753.8
959.1203,567.7
959.1851,226.6
959.4222,166.4
959.5623,290.3
959.663,535.6
960.2225,224.6
961.0559,312.5
962.1016,1994.6
962.5634,341.3
962.9075,362.3
963.2599,87.9
963.3542,203.2
963.554,875.6
965.0731,109.5
965.1841,168.5
965.2115,493.6
965.2475,137.1
965.3728,370.1
965.5939,313.2
965.7782,403
965.8505,154.9
966.4519,234.3
966.5723,782.8
967.7182,130.7
968.0015,264.3
968.0351,1263.8
968.3867,339.8
969.5531,228
969.9381,536.6
970.5536,1127.8
970.7649,181.2
971.0233,85.7
971.073,440.9
971.7315,207.9
972.1999,517.9
972.6706,122.5
972.7102,216.2
973.5915,588.3
975.8582,724
976.0748,182.5
976.3526,21
977.6401,20.2
977.8127,194.3
977.9383,108
978.9278,19.6
979.1241,99.8
979.1886,282
979.702,326.1
979.7984,91.6
979.9126,842.2
980.5648,387.3
980.9013,577.6
980.9656,140.9
981.0578,421.1
981.3888,886.1
981.8732,750.5
982.1488,77.5
982.2966,99.4
982.5297,862.1
982.6651,208.5
982.7992,514.7
983.1844,394.2
983.602,224.4
983.8913,366.3
984.3115,751.3
984.4392,529.5
984.5163,219.7
984.8864,86.7
985.1304,349.2
985.495,223.5
985.9756,126.9
986.2727,296.3
986.4724,810.3
986.5832,158.1
986.8215,594.3
987.1907,512.2
988.1968,130.5
988.6585,833.9
989.5955,842.5
989.7994,95.7
990.2964,102.2
990.4779,388.9
990.6838,793.3
991.0384,252.5
991.5197,377.1
992.5607,88.6
992.6059,822.9
992.6652,85
992.8936,662.8
992.9188,335
993.3568,199.3
993.7582,88.4
994.2874,124.6
994.3272,282.8
994.4068,1417.2
995.177,464
995.9846,147.6
996.5537,106.7
996.5979,138.9
997.5029,373.1
997.5853,19.8
997.8598,241.8
998.0058,158.5
998.7434,473.4
999.0789,487.9
999.2244,394.5
