SPECTRUM - MS,
1773.RAW,
FTMS + p ESI Full ms [50.00-1000.00],
Scan #: 1-40,
RT: 0.01-1.97,
AV: 40,
m/z,Intensity

50.012,465.5
50.0256,557.1
50.0261,75.9
50.0329,343.2
50.0392,209.4
50.0732,166
50.1114,319.2
50.1267,221.8
50.1269,114.6
50.1313,100.4
50.1466,273.1
50.1594,109.4
50.1618,317.9
50.1638,21.4
50.1677,429.8
50.1719,201.9
50.1909,17.6
50.2023,80.3
50.2067,68.7
50.2136,180.7
50.2171,133.9
50.2225,17.8
50.2451,283.5
50.2745,156.2
50.327,105.1
50.3613,178.3
50.3648,96
50.3988,59.3
50.4078,74.6
50.4139,332.3
50.4222,579.7
50.4355,278.5
50.4553,119.7
50.4565,90
50.4683,18.4
50.4803,86.6
50.4877,86.5
50.5016,381.2
50.5044,653.3
50.5275,105.6
50.5356,19.8
50.5474,96.8
50.5654,15.3
50.5821,597.5
50.6037,433.6
50.6051,374.6
50.6094,186.7
50.6145,105.1
50.6155,394.4
50.6303,20.2
50.6307,418.7
50.6555,22
50.6676,325.1
50.6778,382.1
50.6834,164
50.688,395.8
50.7079,381.9
50.7223,99.3
50.7239,88.1
50.7467,263.9
50.7556,85.6
50.7565,99.7
50.7571,17
50.7679,113.5
50.7776,174.4
50.8172,117.7
50.8382,81.2
50.8451,299
50.8485,361.7
50.8714,193.3
50.8979,16.7
50.8993,304.1
50.921,21.4
50.9244,94.3
50.9347,16.7
50.9393,81.4
50.9517,97.6
50.9537,95.3
50.9903,311.7
51.0138,97.3
51.0368,112.9
51.0428,93.8
51.0487,212.6
51.08,331.9
51.0855,138.2
51.0895,375.2
51.0896,347.8
51.0961,16.3
51.1121,78.9
51.1226,15.8
51.1426,200.3
51.1603,229.3
51.1753,94.1
51.1874,71.1
51.1967,79.3
51.2112,78.8
51.2787,458.7
51.2859,87.4
51.2921,124.2
51.3034,380.9
51.312,292.6
51.3166,167.6
51.3203,109.7
51.3265,94.9
51.332,180.8
51.3449,82.2
51.3501,116.9
51.3589,224.3
51.3821,142
51.3943,328.3
51.4122,75
51.4244,428.1
51.4434,18.3
51.4441,93.5
51.4479,183.6
51.4596,81
51.4682,456.7
51.4862,202.1
51.4948,17
51.5001,97.8
51.509,170.9
51.5257,256.2
51.5391,186.7
51.5492,55
51.5687,172.2
51.5854,94.1
51.595,92.7
51.5972,120.9
51.5991,74.9
51.6098,269.8
51.6162,195.1
51.6177,296.6
51.625,302.1
51.6324,574.1
51.641,81
51.6474,307.1
51.6498,388.4
51.6642,79.7
51.6688,59.4
51.6701,562.7
51.6925,16.3
51.6946,334.3
51.7049,445
51.7128,113.5
51.7509,132.6
51.7535,175.8
51.7541,72.7
51.7657,503.7
51.7694,402.5
51.7788,81.3
51.7802,80.3
51.7846,228.4
51.7854,284.7
51.7868,230.5
51.8063,334.4
51.8066,783.5
51.8179,90
51.8432,250
51.8452,15.5
51.8718,541.3
51.8903,555.3
51.8962,474.1
51.9148,15.3
51.9301,264.1
51.9334,445.1
51.9569,519.6
51.9646,197.9
51.9659,457.9
51.9819,99.5
51.9927,20.4
51.9934,325.7
51.9996,15.4
52.0278,321.7
52.0413,16.6
52.0441,17.1
52.0541,94.6
52.0809,74.2
52.0874,103.9
52.1423,300.2
52.1448,81.8
52.1961,189.2
52.2195,248.3
52.2352,226.8
52.2676,582.6
52.2756,112.4
52.2758,111.5
52.276,129.5
52.3066,126.9
52.3081,77.8
52.3115,87.5
52.3133,87.4
52.3172,97.3
52.325,85.2
52.3425,512.5
52.36,165.2
52.3884,77.4
52.3904,233.3
52.4005,288.4
52.4035,73.2
52.4675,322.9
52.469,61.4
52.4852,182
52.5048,257.2
52.5073,482.6
52.5104,94.5
52.5129,313.8
52.5577,379
52.5622,71.2
52.5686,209.3
52.6018,85.5
52.6152,196.3
52.6186,121.4
52.6241,93.8
52.6454,77.3
52.6518,332.9
52.6599,102.2
52.6629,116.1
52.6667,16.9
52.675,18.3
52.676,81.3
52.6841,704.3
52.6845,476.2
52.6927,86.3
52.6934,18.2
52.7459,83.3
52.7872,188.7
52.7953,313.8
52.7961,544.9
52.7966,176.8
52.7976,542
52.7987,2400.6
52.7991,976.6
52.7997,2826.4
52.8001,1168.5
52.8007,1156.2
52.8011,182.6
52.8015,233.8
52.8023,646.5
52.8348,17.3
52.8462,294.3
52.8545,388.4
52.858,336
52.8583,108.7
52.8675,81.8
52.8737,69.6
52.8963,86.3
52.9215,16.4
52.922,189.5
52.9525,389
52.9594,88.9
52.9648,92.4
52.9695,387.3
52.9709,244.3
52.9775,349.8
52.978,201.7
52.9802,24.4
52.9877,242.3
52.993,19.3
53.003,204.2
53.0157,202.2
53.0201,237.7
53.0231,114.1
53.0425,121.2
53.0439,300
53.0952,98.7
53.1161,340.4
53.1169,379.6
53.1344,551.4
53.151,15.3
53.1756,107.6
53.1849,84.4
53.1943,90.9
53.1989,89.4
53.2003,621.5
53.205,15.9
53.2059,169
53.2101,93.9
53.2129,192.4
53.2261,76.2
53.2414,369.4
53.2447,306.9
53.2519,73.2
53.2567,341.6
53.2626,99.8
53.2652,18.4
53.267,490
53.2686,126.8
53.2774,78.2
53.2833,122.5
53.288,429.8
53.2882,639.2
53.293,368.3
53.3048,245.6
53.3134,498.9
53.3182,274.6
53.3298,279.5
53.3428,109
53.3567,525.9
53.3728,115.2
53.4065,634
53.407,86.1
53.4077,79.9
53.4453,87.8
53.4594,17.5
53.4639,410
53.4654,78.1
53.4765,97.2
53.5027,454.3
53.5111,298.1
53.5334,82.5
53.5769,15.4
53.5889,70.8
53.6007,17.5
53.605,60
53.6074,382.4
53.6194,91.7
53.6291,671.4
53.6689,344.8
53.709,520.5
53.7189,16.7
53.722,79.1
53.7303,74.6
53.7338,261.3
53.7505,98.9
53.7588,644.2
53.762,231.9
53.7658,18.6
53.7707,238.7
53.7903,147.8
53.7948,80.1
53.8132,193.9
53.8168,85.4
53.8222,177.7
53.8852,92.5
53.8987,17.4
53.9207,138.1
53.945,277.5
53.9598,450.3
53.9708,201
53.9775,181.5
53.9908,254.7
54.0066,202.9
54.0214,94
54.0242,74.1
54.0475,350.2
54.0792,77.9
54.0997,105.5
54.1033,233
54.1067,98.8
54.1207,360.9
54.1271,14.9
54.133,18
54.1587,123.8
54.1606,139.1
54.1678,102.9
54.1758,343.3
54.1783,16.8
54.1855,220
54.201,179.6
54.2046,82.2
54.2118,266
54.2248,110.6
54.2279,88.2
54.2531,96.3
54.2579,95.4
54.2745,162
54.2823,267.4
54.3012,79.7
54.3094,18.4
54.3301,383.3
54.3331,80.2
54.3401,136.3
54.3495,210.6
54.3954,97.5
54.4106,387.1
54.4129,263.5
54.4193,17.6
54.42,17.6
54.4406,155.9
54.4516,19.9
54.4556,560.2
54.4651,17.1
54.4724,394.6
54.4742,395
54.4915,93.2
54.4932,129.5
54.5021,243.5
54.5243,252.5
54.5295,395.5
54.5352,218.9
54.5364,535.3
54.5389,92.2
54.5758,384.8
54.5995,89.3
54.6393,102.5
54.6485,90
54.6536,395.9
54.6772,17.3
54.6778,266.9
54.6984,202.3
54.7266,314.4
54.7364,174.6
54.7525,79.4
54.77,359.2
54.7908,139.5
54.8058,631.4
54.8099,553.9
54.8108,164.8
54.8305,202.3
54.8367,128.3
54.8391,94.9
54.8412,230.5
54.8504,82.3
54.8595,147.5
54.8684,196.9
54.8825,144.1
54.8834,365.3
54.9125,260.2
54.9148,327.6
54.9198,150.8
54.929,17.4
54.9933,570.4
55.0093,326.7
55.0137,80.2
55.0154,336.5
55.0369,100.5
55.0406,225.2
55.0454,237.1
55.0465,304.9
55.0655,78.4
55.0672,534.4
55.0904,15.4
55.1089,307.8
55.1188,350.2
55.1232,75.4
55.1325,151
55.1381,119.1
55.1528,662.3
55.1676,98.9
55.1727,78.2
55.1759,198.9
55.2017,384.9
55.2057,590.4
55.2098,442.8
55.2139,109.8
55.2231,552.8
55.2253,100.7
55.2277,379.1
55.2294,80.9
55.2316,829.2
55.241,525.3
55.2628,450.6
55.2667,378.5
55.2731,271.2
55.2795,99
55.2807,104.7
55.347,367.1
55.3614,269.6
55.3747,158.8
55.3984,310.8
55.4132,78.3
55.4201,403.1
55.4272,125.5
55.4313,128.2
55.4353,147.3
55.4541,104.1
55.4843,286.1
55.4881,106.6
55.4923,68.2
55.5087,557.9
55.5123,130.7
55.5215,110.8
55.5245,95.4
55.5266,329.2
55.5404,129.8
55.5737,66.9
55.5798,15.6
55.5838,128.1
55.588,838.6
55.5952,106.9
55.6164,18.6
55.6191,292.7
55.6241,243.6
55.6363,337
55.6451,123
55.6692,290.8
55.6801,17.7
55.6853,543.6
55.6861,118.8
55.6907,150.9
55.7166,153.5
55.7463,304.4
55.7475,367.9
55.7738,297.5
55.8047,157.1
55.8069,203.8
55.8248,391.8
55.8267,543.3
55.8401,74.4
55.8421,589.3
55.8451,519.1
55.846,69.7
55.852,527.7
55.8554,326.1
55.8615,393.5
55.8687,89.8
55.8819,150.2
55.8912,114.5
55.8941,87.2
55.8947,383.2
55.9097,337.3
55.9155,174.9
55.9189,299.2
55.9816,198.5
55.986,497.3
56.0036,618.6
56.0074,634.9
56.0089,18.1
56.0197,131.2
56.0283,438.5
56.0466,677.4
56.0499,689.5
56.0585,425.7
56.065,17.5
56.0667,347.1
56.07,172.6
56.073,284.4
56.112,470.2
56.1175,534.3
56.1282,62.9
56.1308,520.1
56.14,300.1
56.1913,98.5
56.2058,323
56.2144,392.2
56.2399,300.9
56.2431,73.2
56.2443,464.7
56.2518,78.2
56.2878,123.2
56.2994,16.2
56.3045,133
56.3226,570.9
56.3256,96.3
56.33,106.9
56.3449,78.5
56.3604,96.8
56.3722,598.4
56.3748,123.2
56.3839,748.3
56.3863,165.2
56.3979,97.6
56.3996,135.5
56.4169,190.7
56.4211,370.3
56.4283,86.2
56.4288,716.8
56.4299,72.7
56.433,15.1
56.4445,143.9
56.4555,16.6
56.4636,83.2
56.4807,15.8
56.4917,106.3
56.5012,561.2
56.5126,553.8
56.5275,118
56.5391,317.3
56.5499,315.5
56.5514,392.8
56.5638,213.6
56.5745,96.2
56.5775,16.1
56.5799,84
56.5805,314.4
56.5902,90.6
56.6256,463
56.6273,60.6
56.6323,15.1
56.6427,163
56.6447,699.1
56.6545,85.1
56.6828,350.9
56.6945,16.5
56.6957,304.3
56.7338,116.7
56.7377,634.8
56.7491,86.2
56.7512,90
56.7858,15.9
56.7995,81.7
56.8025,167.5
56.8039,68.5
56.8079,526.2
56.8145,77.9
56.8164,15
56.8203,551.2
56.823,173.7
56.8338,188.3
56.838,199.5
56.8381,198.6
56.845,316.4
56.8512,429.4
56.8574,103.2
56.8635,111.3
56.8659,79.7
56.8699,327.9
56.8732,62
56.8759,336.5
56.8852,217.5
56.8957,103.6
56.9021,17.4
56.9026,275.4
56.92,106.6
56.9287,180.1
56.9383,290.9
56.9396,77.2
56.9471,230.7
56.953,394.3
56.972,112.2
56.9899,90
56.9945,63
57.0094,689.8
57.0195,78.3
57.0242,16.9
57.0297,562.1
57.0374,81.8
57.0451,20.4
57.0472,69.2
57.0545,354.3
57.0564,547.4
57.0772,110.6
57.0972,427.3
57.1129,124.3
57.1135,17.3
57.123,412.5
57.1355,17.4
57.1368,522
57.188,189.8
57.193,121.3
57.2037,94
57.2152,77.2
57.2167,661
57.2397,741.1
57.2578,17.3
57.2621,205.9
57.2627,143.9
57.2652,547.4
57.2787,89.7
57.2876,106.5
57.2924,181.5
57.298,517.8
57.307,308.5
57.3076,203.9
57.3208,273.8
57.3225,367.6
57.3339,308.3
57.3469,128.9
57.3533,108.9
57.3913,87
57.3972,77.5
57.4176,75.7
57.4201,252.1
57.4423,77.4
57.4443,291.9
57.4661,529.4
57.4696,18.3
57.4807,454.8
57.4869,79.3
57.4888,315.8
57.4905,188.7
57.5084,191.3
57.5339,513.4
57.5476,16.9
57.5503,403.8
57.5592,169.5
57.5683,406.5
57.6299,16.7
57.6428,304.6
57.6492,67.7
57.659,126.7
57.6598,148.9
57.6637,84.1
57.6837,114.7
57.6902,15.1
57.696,15.9
57.7345,331.5
57.745,337.2
57.756,63.3
57.7599,83.4
57.7698,204.6
57.7703,231.3
57.7782,137
57.7826,169.6
57.7882,110.4
57.7917,16.1
57.7924,82
57.818,110.6
57.8338,89.3
57.8364,15.8
57.8524,552.7
57.8589,18.4
57.8715,80.3
57.8741,213.6
57.8823,212.9
57.8997,149.4
57.9066,139.4
57.9094,175.9
57.9253,446.2
57.9307,16.6
57.9376,183.4
57.9502,199.3
57.9555,15.9
57.9706,152.6
57.9715,82
57.979,18
57.9959,162.8
57.9997,356.6
58.0335,377.6
58.0573,499.6
58.0757,102.1
58.0794,82.2
58.121,151.1
58.162,284.5
58.1667,487.6
58.1731,282.3
58.1841,243.6
58.186,127.2
58.1875,19.9
58.1916,513.3
58.1994,138.9
58.2067,70.8
58.2072,174.4
58.2116,405
58.2351,150.6
58.3199,370.6
58.3395,174
58.3422,76.1
58.3449,284.8
58.3517,632.2
58.3648,509.5
58.3659,76.2
58.3672,93.8
58.3676,185.4
58.3959,198.7
58.3979,114.5
58.4002,541.6
58.4122,16.4
58.4441,338.7
58.4505,80.4
58.4571,18.2
58.4619,393.5
58.4649,600.5
58.4859,339.8
58.4921,682.8
58.4935,572
58.4954,171.8
58.4964,598
58.5077,166.5
58.5124,449.5
58.5176,181.2
58.5306,630.1
58.5463,161.1
58.5483,260.9
58.5514,303.3
58.5568,22.1
58.5645,18
58.5712,597.7
58.5776,487.6
58.5779,15.4
58.5953,265.2
58.6,166.8
58.6092,590.9
58.6122,312.8
58.6226,557.7
58.6269,183.5
58.6488,190.4
58.6496,306.2
58.6636,553.2
58.6864,332.4
58.6916,331.6
58.7127,78.8
58.7184,574.9
58.7215,233.8
58.7301,143.3
58.7376,201.9
58.7543,172.2
58.7632,366
58.7757,71.6
58.7808,18.6
58.7852,87
58.7977,93.5
58.8128,14.9
58.8197,550.3
58.8327,139.1
58.8494,81.1
58.8617,119.1
58.8671,155.7
58.8776,99
58.8798,103.3
58.8827,249.2
58.8998,87.9
58.9161,315.8
58.945,582.4
58.9469,452.9
58.95,331.2
58.9758,275.8
58.9979,265.5
59.0064,148.3
59.0075,458.8
59.0082,324.4
59.0127,307.8
59.0292,310.8
59.0389,270.6
59.0449,161.6
59.0641,76.2
59.0689,184.6
59.0853,318.6
59.0876,199.3
59.1096,259.7
59.1257,181.3
59.1292,158.9
59.1447,135.6
59.1707,474.7
59.1713,93.4
59.1781,78.7
59.191,540.2
59.1999,78
59.2098,101.3
59.2172,572.3
59.2235,595.8
59.2256,77.2
59.227,226.7
59.2295,195.6
59.2389,192
59.2667,594.1
59.3153,101.7
59.3434,103.2
59.35,416
59.3528,129
59.3837,217.1
59.4028,85.5
59.4047,110.8
59.4063,123.1
59.4132,122.6
59.4203,167.1
59.4333,95.8
59.4584,81.5
59.4734,18.9
59.4802,235.7
59.5356,76
59.5429,15.4
59.5611,336
59.5799,386
59.589,138.6
59.5973,16.9
59.6017,276.2
59.6277,80.2
59.6404,238.3
59.6445,514.8
59.6586,119.4
59.7029,134.3
59.7152,178.7
59.7218,121.4
59.7222,168.7
59.7303,92.3
59.7511,119.4
59.7605,186.2
59.762,78.8
59.7625,20
59.7658,90.4
59.7759,123.6
59.7974,87.9
59.8122,120.7
59.8216,223.3
59.8233,378.4
59.8284,320.3
59.8347,110.8
59.859,110.2
59.9242,120.2
59.9616,73.6
59.9642,17.2
59.9682,138.9
59.9721,86.2
59.9737,441.2
59.9776,237
59.98,323.8
59.9894,106.6
60.0123,204.7
60.0128,385
60.048,746.6
60.051,16
60.059,567.2
60.067,204.2
60.069,99.3
60.0809,316.7
60.0977,60.5
60.1065,96.5
60.1084,290.1
60.1617,394.2
60.1636,287.6
60.1674,221.4
60.1917,258.3
60.2038,77.8
60.2152,18.6
60.2174,103.4
60.2241,700.6
60.2386,88.7
60.2416,367.9
60.2517,15.5
60.2563,175.3
60.2617,94.5
60.2656,180.9
60.2987,184.5
60.3173,322.5
60.3269,641.2
60.336,17.5
60.3414,591.4
60.3556,663.4
60.3576,377.4
60.4065,391.5
60.4084,93.9
60.4155,307.6
60.4248,104.8
60.4259,268.7
60.4399,261.9
60.4539,355.8
60.4579,177.6
60.4779,18
60.4923,88.3
60.4983,172.7
60.5013,19.7
60.506,283.4
60.5072,276.5
60.5148,16.6
60.5196,67
60.5201,339
60.5264,83.7
60.5486,201.7
60.5564,149.2
60.5585,257
60.567,254.1
60.578,202.8
60.5809,219.9
60.5897,16.4
60.5978,358.4
60.6709,327.2
60.6832,191.3
60.7309,90.8
60.7584,101.3
60.7618,71.9
60.7687,91
60.7718,197.7
60.794,569.4
60.7971,61.1
60.8109,264.1
60.8171,93.9
60.8269,112.3
60.8377,309.8
60.8394,248.9
60.8527,379.5
60.8539,615.6
60.8543,72
60.8567,382.2
60.8746,408.8
60.9102,855.6
60.9129,226
60.9504,184
60.9544,348.1
60.9552,277.6
60.9577,160.9
60.9835,76.6
61.0125,268.4
61.0307,168.9
61.0458,116.3
61.0492,96.3
61.0568,82.8
61.1133,79.3
61.1165,454.6
61.124,124.7
61.1279,290.3
61.1444,84.1
61.1484,342
61.1491,19
61.1766,179.6
61.1881,694
61.2105,211
61.2321,265.9
61.239,168.4
61.248,18.6
61.2619,85.4
61.2752,99.7
61.3021,159.3
61.3202,65.2
61.3216,547.6
61.3579,163.5
61.3797,465.1
61.3973,125.7
61.4071,666.6
61.4075,82.6
61.4282,335.1
61.4578,111.8
61.4726,99.4
61.4835,212.6
61.5101,61.1
61.5244,71.8
61.5285,99.3
61.5325,326.9
61.5543,394
61.559,658.2
61.5686,596.3
61.5694,500.1
61.5711,18
61.5743,537.6
61.5789,370.8
61.592,64.9
61.5936,18.1
61.6461,204.9
61.6702,84
61.6959,180.6
61.6972,154.7
61.7019,79
61.7099,533.3
61.7206,322.7
61.7221,232.2
61.7293,522.2
61.7353,584.6
61.7429,151.9
61.7587,332.4
61.801,71.5
61.8108,359.1
61.8155,280.1
61.8358,106.7
61.837,465
61.853,211.5
61.878,135.8
61.8871,18.4
61.8929,240.6
61.8992,236.1
61.9031,130.9
61.9326,15.6
61.9762,390.1
61.9956,312.2
62.0115,168.5
62.0203,91.5
62.0451,211.7
62.0503,82.3
62.0513,678.1
62.0652,106.1
62.0724,279.6
62.1439,505.9
62.154,478.5
62.1683,94.9
62.1691,304.8
62.1746,310.1
62.2008,172.5
62.2063,122.9
62.2129,524.7
62.2223,89.1
62.2419,18.6
62.2722,122.9
62.2911,328.3
62.2973,87.4
62.2975,112.9
62.2977,112.5
62.3078,672.3
62.3246,143.7
62.3342,140.5
62.3349,90.8
62.3436,103.1
62.3577,354.2
62.3849,120
62.4009,647.1
62.4257,643
62.4449,111.9
62.4475,98.8
62.4682,19.5
62.4918,643.3
62.494,328.4
62.5201,16.6
62.5252,103.5
62.528,328.7
62.5462,164.2
62.5466,128.8
62.5542,18.3
62.564,270.6
62.5743,19
62.6105,93.1
62.6173,187.7
62.6292,239.2
62.6402,143.3
62.6476,173.7
62.6569,245
62.6614,554.9
62.6679,19.1
62.7061,734.4
62.7105,132
62.7269,471
62.7432,134.6
62.7497,164.2
62.7797,17.3
62.7885,360.5
62.7988,17.1
62.8034,395.9
62.825,298.9
62.8257,196.4
62.8317,130.3
62.8363,620.1
62.8436,69.4
62.8613,399.5
62.8675,112.2
62.881,17.9
62.8847,111
62.8904,17.7
62.9046,343.1
62.9149,167.6
62.9253,100.9
62.9411,16.4
62.9476,686.7
62.9673,538.5
62.9681,93.5
62.971,16.4
62.9839,278.2
62.9878,82.1
63.0253,17.3
63.0419,770.3
63.0432,129.2
63.0474,567
63.06,121.4
63.0733,95.6
63.0796,89.6
63.0829,693.7
63.0897,324.9
63.1088,145.6
63.1175,69.4
63.1203,344.3
63.1436,150.1
63.1593,282.4
63.1728,97.3
63.1754,220.9
63.184,117.2
63.1917,472.3
63.2334,260.2
63.2356,187.7
63.2551,155.3
63.2682,82.7
63.2709,154.6
63.2813,204.8
63.284,576.6
63.3058,93.5
63.3072,93.9
63.3307,16.5
63.3445,345
63.3478,199.6
63.3918,213.8
63.4067,20.9
63.4101,218.6
63.432,310.9
63.465,538.6
63.4733,101.7
63.4828,16.8
63.4857,490.3
63.4989,15.1
63.5103,634.6
63.5338,79.7
63.534,96.9
63.5342,91.6
63.5348,94.4
63.5364,86.6
63.5398,356.3
63.5503,241.1
63.5566,359.7
63.5604,84.1
63.5895,558.1
63.5989,386
63.6349,430
63.6427,119.8
63.6461,194.2
63.6758,85.3
63.6781,744.7
63.6805,455.6
63.7001,76.4
63.702,188.3
63.7099,80.5
63.7494,93.3
63.7658,92.7
63.7936,289
63.7946,82.3
63.8055,320.5
63.8173,406
63.8454,16.3
63.8543,457.2
63.8726,86
63.8945,18.5
63.908,176
63.932,438.3
63.9565,147.1
63.9608,141.3
63.9791,108.2
63.9805,354
64.0025,358.7
64.0132,136.2
64.0167,173.4
64.0204,99.9
64.0295,104.8
64.0362,267
64.038,300.4
64.0432,580.4
64.0469,374
64.0509,106.1
64.0545,768.4
64.0575,423.5
64.0702,605.2
64.0786,16.1
64.0854,126.8
64.0923,236.7
64.1021,119
64.1095,18.4
64.1227,17.1
64.1318,232.5
64.1406,14.4
64.1441,512
64.1478,15.9
64.1814,137.1
64.2076,753
64.2096,479.8
64.2383,65.4
64.2402,129.3
64.251,115.7
64.252,20.1
64.2769,255.6
64.2935,88.7
64.2943,359.6
64.3148,119.7
64.3225,18.7
64.3258,656.7
64.3506,69.2
64.3666,431.2
64.3704,376.5
64.3824,116
64.3842,203.8
64.4108,405.4
64.4243,244.2
64.4269,75.6
64.4429,353.5
64.4681,81.5
64.4752,381.5
64.4775,450.6
64.479,162.3
64.4863,82.6
64.5068,146.5
64.5497,172
64.5519,104.6
64.5693,306.8
64.5766,111.5
64.581,115.7
64.5893,105.1
64.5948,339.1
64.6302,21.9
64.6448,107.3
64.6463,114.7
64.6628,342.2
64.6672,192.6
64.683,568.5
64.6842,246.9
64.6888,17.7
64.6905,169.6
64.6942,146
64.7254,109.5
64.7345,110.4
64.7442,431.8
64.7449,401.4
64.7478,279.6
64.7523,317.4
64.7772,651.9
64.7887,200.8
64.7916,208.6
64.8318,22.1
64.8325,234.9
64.84,109.6
64.842,506.1
64.8493,154.6
64.8597,93.1
64.8635,109.3
64.8659,598.5
64.8793,510.7
64.8961,262.5
64.8981,197.8
64.899,165.1
64.8998,129.4
64.907,16.5
64.9141,17.9
64.9173,341.1
64.9421,550.5
64.958,193.3
64.9599,280.4
64.9781,334.1
64.9882,492
64.9921,127.3
65.0091,255.9
65.0137,135.5
65.0253,178.8
65.0293,15.9
65.0357,108.3
65.0556,572.2
65.0592,74.2
65.0639,16.6
65.0671,202.9
65.0746,268.4
65.0813,162.9
65.0884,292.1
65.0983,116.1
65.1035,287.7
65.112,234
65.1156,469.3
65.1374,91
65.1809,127.3
65.1892,159.8
65.194,231
65.1967,318.6
65.2018,350.9
65.2032,245.8
65.2049,412.7
65.2563,208.9
65.2731,352.6
65.3113,308.3
65.3237,280.6
65.3244,194.3
65.341,78.1
65.3536,408.5
65.3562,346.3
65.3611,85.7
65.3774,16.8
65.3944,20.6
65.4145,90.6
65.4396,213.3
65.4529,621.4
65.4659,86.9
65.4668,80.4
65.4959,384.9
65.4996,71.7
65.5016,118
65.5307,350.1
65.5457,498.1
65.5477,17.2
65.5512,462.4
65.5893,298.1
65.6269,17.2
65.6549,160.8
65.6598,155.4
65.7061,221
65.7151,395.1
65.7249,17.9
65.7358,92.2
65.738,171.3
65.7398,228
65.7543,78.7
65.7636,130.5
65.7864,202.8
65.8089,141.2
65.8195,129
65.8317,102.4
65.8368,918.3
65.8377,17.2
65.8415,109.1
65.8472,99.1
65.8544,119.2
65.8568,352.3
65.8648,322.3
65.8699,68.8
65.8921,369.3
65.9223,129.2
65.9609,316.7
65.9627,338.4
65.9736,290.5
65.9851,79.3
66.0005,431.2
66.0023,100.2
66.0346,167.9
66.0353,114.1
66.0401,17.1
66.0436,94.3
66.0504,174.6
66.0533,531.6
66.074,123.2
66.0949,367
66.0988,15.5
66.1282,155.8
66.1318,202.9
66.1379,80.4
66.142,538.5
66.1592,309.6
66.1722,695.5
66.2035,651.8
66.216,105.6
66.2185,58.2
66.2268,109.4
66.2566,102.4
66.2846,170.6
66.2973,120.9
66.3282,76.6
66.3305,102.5
66.381,143.1
66.4164,128
66.4186,194.6
66.4274,352.6
66.4408,516.2
66.4637,97.7
66.4689,164.7
66.4834,361.9
66.4921,102.2
66.4923,146.3
66.5025,754.2
66.512,412.8
66.5179,623.3
66.5263,115.1
66.528,255.4
66.5316,584
66.5437,465.2
66.5478,116.5
66.5523,424.3
66.5784,105.3
66.5871,90.7
66.6051,113.9
66.6219,90
66.6267,129.7
66.6716,64.8
66.6941,153.3
66.6979,15.8
66.6982,15.1
66.6994,115.3
66.7255,462
66.7471,468.6
66.761,326.7
66.7708,152.7
66.7869,117.5
66.7907,136.4
66.7971,14.5
66.8045,395.5
66.8065,89.9
66.8226,159.4
66.8323,266.4
66.8353,305.4
66.865,69.3
66.8657,17.2
66.8854,109.5
66.893,233.9
66.897,190.9
66.9288,463.3
66.9315,69.5
66.9355,20.5
66.979,20.7
66.9867,101.3
67.01,178.6
67.0158,251.5
67.0301,303.1
67.0319,17
67.0329,346.8
67.0451,89.9
67.054,104
67.063,592.5
67.0684,84.7
67.073,78.6
67.0734,102.5
67.0736,73.6
67.0773,80.3
67.112,310.5
67.1388,371.7
67.1441,433.7
67.1755,349.8
67.1798,260.8
67.1845,109.9
67.2091,93.4
67.2221,109
67.2351,652.9
67.2447,162.6
67.2492,176
67.2508,62.1
67.2551,593.9
67.2673,123.2
67.2761,81.3
67.2783,637.6
67.2989,436.7
67.3066,507.7
67.308,102.3
67.337,318.8
67.3506,19.3
67.3536,595.2
67.3546,257
67.3571,123.7
67.3606,20.1
67.3745,102
67.3912,94.4
67.4093,142.5
67.4128,126
67.4199,475.2
67.4213,235.4
67.4366,403.6
67.4415,103.1
67.4457,351.4
67.4696,629.4
67.4842,73.9
67.4926,313.9
67.5122,147.4
67.5297,547.8
67.5331,370.6
67.5752,369.8
67.5785,360.5
67.5837,116.2
67.6035,18.6
67.6145,78.3
67.6328,171.9
67.6389,94.8
67.6626,296
67.6833,289.1
67.7043,158.6
67.7056,81
67.7219,87.8
67.7231,492.5
67.7287,548.1
67.7308,455
67.7415,73.3
67.7425,292.1
67.7669,169.4
67.7687,98.8
67.7707,146.8
67.7817,226.8
67.7822,199.6
67.7844,480.9
67.8,19.6
67.8011,162.6
67.8203,108.1
67.8346,261.1
67.8563,218
67.8602,206.7
67.8606,205.1
67.8761,86.9
67.8958,116.8
67.8993,99.2
67.909,147.9
67.9174,97.6
67.9216,84.5
67.9583,258.6
67.9644,738.8
67.9708,608.8
67.9801,159.8
67.995,98.6
67.9983,110
68.012,601.5
68.0141,185.7
68.0154,533.1
68.0567,171.3
68.1026,123.7
68.1216,18
68.1306,258.7
68.131,84.6
68.1579,362.6
68.1592,22.2
68.1655,328.3
68.1688,312.8
68.1874,645.1
68.1974,245.6
68.2053,510.2
68.2259,79.8
68.2414,319.8
68.2479,319.5
68.2577,15.6
68.2651,18.5
68.2792,114.5
68.3045,112.4
68.3109,113.1
68.3121,317.6
68.3289,460.8
68.3378,106.8
68.352,75.1
68.3681,16.9
68.3908,89.1
68.3976,18.1
68.4067,120.6
68.4183,267.2
68.4239,198.2
68.4308,436.4
68.4324,123.1
68.4549,101.2
68.472,414.7
68.4744,92.3
68.5676,489.2
68.5718,104.2
68.5732,82.3
68.5742,346.5
68.5818,84.7
68.5835,100.8
68.638,348.5
68.6867,78.1
68.6969,144.6
68.711,176.4
68.7121,17.7
68.757,440.5
68.7717,18
68.7751,683.3
68.7818,189.8
68.7981,329.8
68.8002,20.4
68.8082,169.2
68.8143,799.1
68.8274,213.1
68.8381,17.8
68.8572,611.5
68.8832,375.7
68.8911,80.3
68.8925,333.7
68.9031,130
68.9052,18.6
68.9311,246.4
68.9339,393.2
68.9486,16.3
68.9524,17.7
68.9579,17.6
68.9729,16.8
68.9844,380
68.985,142.6
68.9862,100.3
68.9886,105.2
69.0066,126.7
69.0092,392
69.0136,357.2
69.025,514.3
69.0332,189.3
69.0481,260.4
69.0498,309.8
69.0549,119.2
69.0573,367.5
69.0621,339.1
69.0723,666.3
69.0751,679.9
69.1169,99.4
69.1303,638.5
69.1327,92.8
69.1341,17.2
69.1477,107.5
69.2104,106.3
69.2131,100.9
69.216,173.2
69.2189,82.3
69.2411,17.7
69.2507,78.6
69.2704,18.4
69.2968,707.8
69.298,76.9
69.3006,623.2
69.3226,77.5
69.3241,171.8
69.3277,97.1
69.3333,308.8
69.336,370.1
69.3424,76.1
69.348,18
69.3533,192.8
69.3579,385
69.3626,16.9
69.3652,201
69.3878,742.1
69.4405,109
69.459,125.9
69.4674,202.7
69.4777,417.9
69.4794,251.7
69.5084,20.8
69.5109,85.4
69.5113,95.6
69.545,335.7
69.5609,492.7
69.5828,571.4
69.5924,106.9
69.6015,304.3
69.6022,369.4
69.6384,599
69.6491,162.8
69.6565,21.7
69.6573,126
69.6814,488.6
69.6834,168.9
69.6836,170
69.7074,193.8
69.7117,285.8
69.7181,535.7
69.7309,97.1
69.7423,365.5
69.7467,66.1
69.7487,86.2
69.7703,360.3
69.7765,176.6
69.7874,93.3
69.7885,69.9
69.7902,17.3
69.7963,644.3
69.8106,182.6
69.8161,100.4
69.8247,216.7
69.8409,76.6
69.8563,103.8
69.8687,338.2
69.8764,487.9
69.8805,18.2
69.8974,178
69.8982,16.5
69.9013,80
69.9132,335.6
69.9558,717.8
69.9971,452.7
70.0386,628.4
70.0397,106
70.043,86
70.0435,72.3
70.0485,116.3
70.0532,110.8
70.0592,578.4
70.0642,507.7
70.0649,2061.8
70.0667,709.9
70.0675,109.3
70.0676,110.1
70.0974,153.4
70.1265,369.8
70.1396,185.3
70.1745,108.8
70.1917,175.5
70.2023,100
70.2106,122.6
70.2361,16.4
70.242,86.8
70.2493,91.5
70.2583,89.3
70.2672,77.5
70.2801,131.5
70.3026,114.8
70.3121,90.3
70.3144,157.2
70.3255,655.8
70.336,130.3
70.344,274
70.3457,371.8
70.3613,165.8
70.3643,112.4
70.3681,16.9
70.3687,145.7
70.3965,95.2
70.409,247.1
70.4217,524
70.4285,783.7
70.4432,250.4
70.4659,639.5
70.4783,100.5
70.4864,16.8
70.5216,115.4
70.546,234.8
70.5497,77.8
70.5512,18.8
70.6168,96.6
70.6246,128.8
70.6271,365.8
70.643,118.2
70.6549,574.9
70.6842,123.9
70.6871,126.3
70.7121,17
70.7693,86.5
70.7848,111.5
70.8144,71.2
70.8197,99.5
70.8231,148
70.8237,17.4
70.8326,19.4
70.8401,179.8
70.8475,160.1
70.8889,113.1
70.8971,258.7
70.9161,115.8
70.9343,94.7
70.9352,299.5
70.9405,398.8
70.9648,94.6
70.9738,116.9
71.0037,122.7
71.0081,99.7
71.0328,725.8
71.039,409.9
71.0438,122.9
71.0732,78.1
71.0885,275.8
71.1046,462
71.1164,91.4
71.1269,78.1
71.1689,22.3
71.1723,363.5
71.179,544.1
71.2054,245.2
71.2225,335.6
71.2521,113.9
71.2605,116.7
71.2663,16
71.2725,62.6
71.2859,232.1
71.2964,528.7
71.3028,70.8
71.3072,185.8
71.3117,86.7
71.3206,611.2
71.3411,675.6
71.3516,317.4
71.4057,19
71.4179,80.2
71.4187,83.8
71.4209,278
71.4551,98.1
71.4774,16.6
71.4855,19.4
71.5265,296.7
71.5296,167.7
71.53,412.2
71.5321,17.8
71.5332,562.7
71.5341,347.6
71.5599,112.5
71.5862,18.8
71.5971,193.6
71.6536,132.8
71.6771,437.8
71.719,435.4
71.7537,91.7
71.7607,130.3
71.7871,330.2
71.791,72.4
71.8004,17.7
71.8025,369.4
71.8161,368.8
71.8211,19.1
71.8232,336.4
71.8249,15.3
71.8501,110.3
71.8953,191.3
71.896,645.3
71.9262,260.2
71.9499,152.3
71.9559,227.8
71.9822,121.2
71.9827,88.8
71.9955,123.7
72.0236,601.4
72.0312,401.3
72.0806,153
72.0817,266.1
72.0903,112.8
72.0948,123.1
72.1111,664.3
72.1341,527.3
72.1479,17.7
72.1566,118.5
72.1744,418.3
72.1943,112.4
72.2122,441.4
72.2132,272.8
72.2136,270.6
72.2147,210
72.2159,308.7
72.2176,851.3
72.2192,663.3
72.2204,310.3
72.222,395.9
72.2235,1044
72.2247,1545.4
72.2254,1147.1
72.2263,905.4
72.2267,962.8
72.2276,2524.3
72.2283,2060.3
72.2287,2491.2
72.2299,2387.9
72.231,1890.6
72.2312,1873.2
72.2319,1691
72.2325,2071.1
72.2333,1878.4
72.2336,1970.2
72.2341,2180.2
72.2347,3640.1
72.2356,4639.7
72.2374,4045.6
72.2385,2832.4
72.2397,3539.6
72.241,1145.9
72.2415,2199.6
72.2423,1709.6
72.2429,1383.6
72.2461,471.5
72.2476,20.4
72.2682,101
72.2686,171.5
72.2794,104.3
72.2832,359
72.2841,72
72.2939,201.5
72.3005,16.3
72.3175,110.8
72.3274,747.4
72.3394,307.3
72.3877,435.4
72.3894,17.3
72.3923,274.2
72.3992,19
72.4102,157.5
72.414,17.1
72.4207,90.4
72.4362,127.9
72.4492,539.7
72.4579,79.7
72.4684,80.8
72.4732,595.4
72.4804,665.3
72.4844,308.4
72.4953,350.7
72.5059,101.2
72.5108,85.2
72.5184,219.1
72.5266,738.1
72.5337,151.3
72.5406,632.5
72.5539,221.2
72.5726,219.5
72.6158,112.3
72.6624,80.6
72.664,85.5
72.6837,114.7
72.6906,124.8
72.7003,217.5
72.7136,15.6
72.7334,646.1
72.7461,164.4
72.7577,200.3
72.7805,523.6
72.7973,379.8
72.802,113.9
72.8177,278.6
72.8396,406.7
72.8436,140.7
72.8837,316.4
72.8857,140.9
72.8884,83
72.9129,163.1
72.93,102.9
72.9328,209.4
72.9489,82.4
72.9655,82.7
72.9859,354.9
73.0024,207.5
73.0073,136.9
73.0185,586.3
73.0222,18.1
73.0345,416.7
73.0476,78.1
73.0499,93.9
73.0541,93.6
73.0694,297.4
73.0747,430.5
73.0966,136.4
73.1049,94.3
73.1205,17.4
73.1443,347.3
73.145,601.6
73.1528,487.3
73.1578,79.6
73.1694,351
73.1768,328.2
73.1934,524.4
73.2015,92.3
73.205,154.4
73.2061,538.4
73.2153,438.7
73.2202,87.5
73.2244,71
73.2319,64.4
73.2447,110.3
73.2598,305
73.2692,175.7
73.2698,519.8
73.2734,17.7
73.3017,215.8
73.3106,183.1
73.3168,83.9
73.319,75.9
73.3373,163.8
73.3427,447.5
73.3434,734.1
73.3512,303
73.3533,601.5
73.3627,90.1
73.3795,110.9
73.3962,299.9
73.4628,321.5
73.4714,589.4
73.5086,82.2
73.5234,99.4
73.5279,405.6
73.5307,547.4
73.5327,222.1
73.5396,127.9
73.555,17.1
73.5814,86.1
73.585,581.3
73.5957,221.3
73.6112,91.2
73.6174,202.5
73.6316,560.7
73.6558,115.2
73.6565,257.1
73.6699,175.7
73.6744,102
73.6804,128.6
73.684,449.3
73.7151,126.4
73.7286,774.4
73.7407,125.2
73.7485,105.9
73.762,265.6
73.7692,211.9
73.7818,99.6
73.786,132.9
73.7968,391
73.8136,372
73.824,270.2
73.8265,104.1
73.8374,129.3
73.8499,99.7
73.8731,221.8
73.8763,273.8
73.9046,198.3
73.9148,253.9
73.9338,303.5
73.9387,17
73.9585,88.5
73.9897,151.8
74.0114,106.6
74.0163,112.3
74.0188,80.1
74.0492,655.8
74.0599,5582.4
74.0785,81.6
74.0858,346.4
74.087,128.6
74.0906,84.5
74.0999,341.1
74.1025,17.4
74.1094,108.5
74.1181,85.6
74.121,482.2
74.1263,488.1
74.1419,172
74.1519,661.7
74.1796,323.1
74.1973,419.1
74.2035,181.2
74.2223,617.5
74.2403,103.6
74.254,676.6
74.2578,106.5
74.2708,17.6
74.2766,109.1
74.3082,102.2
74.3172,104.6
74.3345,523.7
74.3395,300.1
74.3449,162.5
74.3656,16.4
74.3765,17.2
74.3852,15.6
74.3876,282.3
74.3926,362.3
74.3961,85
74.4089,273.2
74.4238,392
74.4254,372.5
74.4321,87.4
74.433,89.5
74.4364,16.9
74.4463,16.3
74.4536,211.7
74.4553,320.7
74.4599,174.9
74.4766,397.5
74.4803,291.3
74.4886,92.4
74.4897,199.8
74.5095,193.2
74.5387,243
74.5699,181.7
74.571,280
74.6025,263.7
74.6236,90.7
74.6433,73.1
74.6461,328
74.66,245.4
74.6699,88.2
74.6789,154.9
74.7145,97.8
74.7222,145.8
74.7736,125.6
74.8254,604.9
74.8323,77.8
74.8345,224
74.8509,98.3
74.8607,717.8
74.8789,489.5
74.8798,332.9
74.888,132.9
74.8979,209.7
74.9159,295
74.9174,340.1
74.9194,161.5
74.9249,17.6
74.95,116.6
74.9778,257.5
74.9842,107.9
74.9925,120.8
75.0142,126.1
75.0301,87.3
75.0348,175.6
75.0395,418.8
75.0525,17.5
75.0607,263
75.0647,107.5
75.077,90.5
75.0814,193.7
75.106,18.5
75.1148,17.4
75.1185,165.5
75.1223,152.6
75.1277,640.3
75.1719,397.9
75.179,20.6
75.2286,283.6
75.2377,82.5
75.2467,487.2
75.2692,213.2
75.2746,92.8
75.315,525.9
75.3424,161.4
75.382,16
75.3882,106.5
75.3912,487.1
75.4197,459.9
75.4281,179.7
75.4325,19.5
75.4402,103.2
75.4459,20.4
75.4503,89.7
75.4733,92
75.4835,76.6
75.4991,173.5
75.5047,225.1
75.5176,174.6
75.5197,18.1
75.5402,386.4
75.544,276.2
75.5835,242.6
75.5879,201.8
75.6026,97.8
75.6069,19.2
75.6284,364.6
75.6576,302.6
75.6951,147.3
75.7166,506.3
75.7368,265.1
75.7482,107.6
75.7729,468
75.8121,230.5
75.8263,223
75.8265,223
75.8328,159.9
75.8472,184.3
75.852,331.7
75.8577,130.2
75.8595,80.9
75.8619,143
75.8756,105.9
75.879,100.9
75.8932,268.3
75.9172,446.3
75.9836,303
75.9903,306
76.0258,142.8
76.0261,142.4
76.0331,148.7
76.0484,132.5
76.0527,81.3
76.0974,86.4
76.0981,187.7
76.1037,172.1
76.1058,100.5
76.1218,183.5
76.1269,17.3
76.1577,604.4
76.1795,79.5
76.1895,106.3
76.1901,135.4
76.2153,114.1
76.2227,181.3
76.2252,107.2
76.2429,200.1
76.2549,96.9
76.2645,89.5
76.2767,174.3
76.3018,636.3
76.3398,424.5
76.3436,534.7
76.3526,125.4
76.3718,109.6
76.3734,528.5
76.4441,73.5
76.4481,357.7
76.4562,270.2
76.4783,240.1
76.5229,17.5
76.5321,122.1
76.539,119.1
76.54,159.3
76.6009,61.6
76.6338,18.7
76.6346,393.8
76.635,349.7
76.6736,184.6
76.6787,692.5
76.6793,117.9
76.7049,415.5
76.7559,275.9
76.7575,92.4
76.808,425.5
76.8123,276.3
76.8151,70.4
76.8156,493.4
76.8179,602.9
76.8577,540.8
76.8628,313
76.8828,75.1
76.8974,18.2
76.9111,393.5
76.9181,429.5
76.9637,18.9
76.985,416.7
76.9854,347.1
77.0015,248.6
77.0044,130.9
77.0103,113.1
77.0337,15.2
77.0349,400.6
77.0385,138138.6
77.0486,201.1
77.0813,384.5
77.0958,17.4
77.0972,213.6
77.1283,98.6
77.1738,229.6
77.1783,155.1
77.1789,95.1
77.1817,358.5
77.1857,511.9
77.189,677.7
77.2322,488
77.2407,199.2
77.2926,315.8
77.3097,79.9
77.3118,115.8
77.3299,99.3
77.3317,214.3
77.3505,84.1
77.3975,158.3
77.3992,290.2
77.3998,93.2
77.4132,126.1
77.4337,203.6
77.4643,18.7
77.5159,284.1
77.5289,88.5
77.5631,477.8
77.5652,545.2
77.5702,220.9
77.5742,158.8
77.5784,19.7
77.5961,97.1
77.6637,528.6
77.6643,21
77.6666,104.7
77.6837,17.5
77.6891,316.6
77.6948,62.8
77.6989,239.5
77.7002,429.9
77.703,210.6
77.7215,136.5
77.7268,19.3
77.7361,317
77.7473,74.9
77.8016,104.7
77.8338,91.8
77.8389,203.3
77.8566,175.5
77.8776,108.7
77.8909,310.9
77.928,209.7
77.9471,100.2
77.9505,489.4
77.9839,107.3
77.9918,17.5
78.0213,352.9
78.0232,345.6
78.0327,152.9
78.0418,4933.1
78.0439,291
78.0469,81
78.0506,18.2
78.1086,91.9
78.1156,149.5
78.1569,286.6
78.1627,331.5
78.1765,341.2
78.2171,213
78.2291,234.3
78.2581,451.2
78.2841,97.1
78.2987,655.9
78.3136,533
78.3223,943.5
78.3397,472.5
78.3652,200
78.3799,251
78.445,332
78.4549,430.3
78.4574,729.4
78.461,219.7
78.4694,149.3
78.4848,103.2
78.4949,206.8
78.5136,126.6
78.5399,606.3
78.5433,602.9
78.5615,286.6
78.5674,19.3
78.5781,90.7
78.6319,466.6
78.6632,356.5
78.6703,114.4
78.6971,493.7
78.7082,177.6
78.7244,96.4
78.7267,120.5
78.7341,538.4
78.7374,117
78.7421,282
78.7587,401.2
78.759,388
78.7593,424.2
78.8606,299
78.8618,219.9
78.8757,77.5
78.8936,280.6
78.8952,265.7
78.9074,126.1
78.9567,196.9
78.9608,113.5
78.973,87.9
78.9969,128.1
79.0018,524.5
79.0272,384.7
79.0453,20.2
79.0541,2135.7
79.06,253.5
79.0713,554.4
79.0813,216.5
79.0958,204.2
79.122,79.5
79.1332,361.7
79.1373,435
79.1506,447.3
79.151,464.1
79.1827,556.9
79.2315,121.9
79.2372,99.1
79.2648,387.2
79.2792,98.6
79.3049,292.1
79.3114,244.7
79.3131,62.3
79.3389,190.9
79.3862,220.2
79.3882,105.2
79.3897,657
79.3924,116.1
79.4102,181.6
79.4111,16.1
79.4434,220.4
79.4479,423.2
79.4526,816.1
79.4753,109.4
79.5365,132
79.572,101.6
79.5875,408.5
79.5907,521.6
79.5926,669.2
79.5988,137.2
79.6167,354.9
79.6238,305.1
79.6437,179
79.6467,303.1
79.7147,169.2
79.7352,79.2
79.7364,154.2
79.7727,251.6
79.774,229.5
79.8003,96.1
79.8201,180.7
79.8402,337.9
79.859,731.7
79.8611,321.6
79.8892,308.1
79.901,508.6
79.9118,82.3
79.923,516
79.9284,462.4
79.954,75.4
79.9602,320.2
79.9739,79.3
79.9799,653.1
79.9849,23.3
80.0138,20.8
80.057,96.8
80.0903,220.8
80.1039,581
80.111,72.9
80.117,132.6
80.1233,537.2
80.1294,264.9
80.1324,96.4
80.1376,17.9
80.1594,345.3
80.1758,347.9
80.1911,98.1
80.224,495.5
80.2297,361.4
80.23,296.6
80.2403,61.4
80.241,15.5
80.2578,82.6
80.3158,83.5
80.3353,236.7
80.3472,133.4
80.3529,658.9
80.3789,450.9
80.4048,534.9
80.4079,351.1
80.4107,98.2
80.4374,778.1
80.4499,166.4
80.4692,625.4
80.4799,398.5
80.5004,338.3
80.5241,115.5
80.534,93.2
80.5478,169.1
80.5497,410.5
80.5565,81.8
80.5737,17.2
80.6692,292.8
80.6799,101.3
80.7126,17.2
80.7168,243.3
80.759,505.2
80.7599,83.1
80.7894,153.1
80.7949,20.4
80.8015,446.6
80.8075,157.5
80.8184,81.4
80.8234,18.9
80.8263,88.9
80.833,364.3
80.8375,286.8
80.8452,86.2
80.8735,123.2
80.8792,165.7
80.8824,461.9
80.9013,297.1
80.9147,251.4
80.9477,42730.3
80.9804,17.2
81.0141,75.9
81.0195,459.7
81.0397,132.2
81.0592,69.2
81.0698,1651.7
81.1212,130.7
81.1244,18.3
81.1355,87.9
81.1367,192.1
81.1393,153.9
81.1514,485.7
81.153,21.5
81.1541,571.3
81.1554,773.1
81.1568,430.6
81.1579,305.6
81.1599,233.2
81.1762,71.9
81.1789,618.1
81.1847,582.1
81.2171,450
81.2252,175.8
81.2463,478.3
81.2514,605.1
81.2522,130.1
81.2678,84.8
81.2884,74.1
81.2934,64.4
81.3147,85
81.3207,193.5
81.3315,789.5
81.3554,101.6
81.3907,643.8
81.418,75.2
81.4604,131.1
81.4622,130.3
81.4634,581
81.4782,442.5
81.4873,94.7
81.4932,91.6
81.4986,16.4
81.501,18.6
81.5354,18
81.5449,700.6
81.5471,270.6
81.5649,202.8
81.5939,103.7
81.5965,150.6
81.6087,122.3
81.6378,632.8
81.646,316.8
81.6463,312.5
81.6982,17
81.7138,139.7
81.7155,636.9
81.7383,149.6
81.7442,366.9
81.7449,173.6
81.7695,17.9
81.7712,182.8
81.8025,618.5
81.8063,125
81.8148,124.3
81.8251,449
81.8564,85.1
81.8612,86.8
81.8745,111.5
81.88,20.5
81.8944,120.3
81.9034,128.6
81.9537,261
81.9981,211.4
82.014,78
82.0295,255.9
82.0484,173.4
82.0549,151.4
82.0868,689.1
82.0952,175.8
82.0973,16.6
82.104,65.7
82.1229,512.2
82.2202,187.4
82.2291,132.3
82.2616,145.7
82.2639,70.2
82.2779,86.7
82.3374,20.3
82.3516,147
82.3588,657.7
82.3791,120.6
82.4171,659.2
82.4723,409.6
82.4813,347.7
82.4909,248.1
82.4978,794
82.5125,98.4
82.5462,711.7
82.5496,385.8
82.5703,617.2
82.6054,128.3
82.6113,212.4
82.6206,327.4
82.6401,138.1
82.6459,187.8
82.6511,82.9
82.6643,15.9
82.7083,458.1
82.7292,71.5
82.7296,93.2
82.7298,85.4
82.7405,178
82.7481,330.8
82.7566,767.1
82.7588,84.9
82.7713,470.5
82.7835,88.5
82.8185,330.3
82.8282,339.9
82.8289,110.9
82.8297,596.3
82.9448,11524.2
82.9752,378.7
83.0284,99
83.0293,427.2
83.0618,75.7
83.0692,17.2
83.0811,178.7
83.0853,20.6
83.0895,307.3
83.0948,20.7
83.1364,334.3
83.1383,352.8
83.1509,64.5
83.154,19.6
83.1886,105.5
83.2427,151.1
83.2477,79.7
83.2522,199.5
83.2801,169.9
83.2879,303.9
83.3223,154.1
83.3235,16.2
83.3422,287.5
83.3498,106.7
83.3511,315.2
83.3724,103.4
83.3991,707.9
83.4157,125.2
83.4382,100.4
83.4664,18.3
83.4802,619.7
83.4836,670.2
83.4935,87
83.4992,94.7
83.5176,97.7
83.5179,128.9
83.5181,113.9
83.5256,88.6
83.5287,526.3
83.5297,517.8
83.5572,446
83.577,17.7
83.5828,214
83.6024,19.6
83.6117,108
83.6443,553.4
83.677,169.6
83.6876,578.5
83.6918,17.5
83.6931,17.2
83.6975,526.7
83.7231,196.7
83.7255,324.2
83.7268,18.4
83.7353,363.6
83.7421,308.8
83.7509,377.8
83.7541,18.1
83.7603,134.4
83.7873,663.5
83.8367,327.2
83.8578,17.1
83.9072,392.7
83.9145,16.7
83.9203,446.8
83.9249,136.1
83.9293,83.2
83.9471,109
83.9667,18.1
83.9956,702.5
84.0022,218
84.0102,235.9
84.0134,177
84.0443,954.3
84.0786,153.1
84.0807,440
84.1069,185.7
84.1229,202
84.1785,113.1
84.1863,98.6
84.3381,342.7
84.3586,79.8
84.3791,320.8
84.4037,371.8
84.4105,130.6
84.415,523.6
84.4238,20
84.4298,19.4
84.4372,71.2
84.4492,100
84.4682,301.1
84.5274,307.1
84.5349,273.7
84.5514,91
84.5574,490.4
84.5637,315
84.5888,569.2
84.6068,205.9
84.6264,272.5
84.6574,389.9
84.7488,88.5
84.7549,82.6
84.7583,302.5
84.7829,131.3
84.8087,148.8
84.8787,118.3
84.9046,465.3
84.9231,407.8
84.9402,687.1
84.9489,747.3
84.9546,541.8
84.9563,89
84.9596,26682.1
84.986,109
84.9972,286.6
85.0166,19.7
85.0283,654.5
85.0335,165
85.0774,118.4
85.0931,159.8
85.1264,433.8
85.1369,17.6
85.1437,485
85.1555,79.3
85.185,119.6
85.1903,21.4
85.2116,95.5
85.2125,420.9
85.2475,304.2
85.2557,410.1
85.2747,255.8
85.2817,611.3
85.2932,74
85.3237,148.5
85.3399,124.4
85.4593,370.5
85.4608,132.5
85.4662,340.7
85.5031,86.7
85.508,187.6
85.5195,389.7
85.5398,223.5
85.5489,124
85.561,575
85.6274,16.5
85.6433,74.7
85.648,218
85.649,386.6
85.704,181.7
85.7424,212.2
85.7477,84.4
85.749,104
85.8111,117
85.8193,17.9
85.8286,375.6
85.8312,370.3
85.8442,183.2
85.8568,396.6
85.8649,162.1
85.8937,595
85.9014,627.8
85.9097,222.6
85.9257,605.2
85.9437,368.4
85.9741,175.1
85.9748,383.4
86.0033,233
86.0097,121
86.0399,21.1
86.0534,132.4
86.06,47470.9
86.073,309.3
86.0739,620.3
86.077,252.9
86.0964,80393.4
86.1075,208.5
86.1467,217.7
86.153,86.2
86.1932,132.3
86.207,318.7
86.2177,16
86.2396,97.8
86.2406,107.8
86.2425,401.5
86.244,382.4
86.2488,108.1
86.2604,528.7
86.2696,190
86.2751,158.6
86.308,99.8
86.3102,18.6
86.3704,230.4
86.377,428.4
86.4031,150
86.4151,297.9
86.4176,377.7
86.4434,20.4
86.4622,246.3
86.4974,570.3
86.5185,105.9
86.5871,155.7
86.6069,68.7
86.6715,199
86.6776,533.3
86.6819,347.7
86.6934,188.1
86.7134,374
86.7367,95.8
86.7419,754.6
86.7547,108.6
86.7754,187.7
86.7878,159.8
86.7938,473.6
86.8115,526.3
86.8139,85.1
86.8161,19.3
86.8697,85.8
86.8851,87.8
86.8865,202.8
86.9065,134.1
86.9174,258.9
86.9293,346.8
86.9437,17.7
86.9985,127.4
87.0207,578.8
87.0997,861.3
87.1029,285.4
87.1091,146.5
87.1407,265
87.165,249.4
87.2344,174.3
87.2813,113.7
87.2925,1012.2
87.318,78.2
87.3335,500.5
87.3437,258.6
87.3642,319.9
87.3912,134.3
87.4474,447
87.4999,95.1
87.5262,346.2
87.5367,579
87.5431,291
87.5618,189.2
87.5641,418.1
87.5773,17.9
87.6169,17.1
87.6323,93.7
87.646,174.4
87.6615,138.9
87.662,120.4
87.6622,111.8
87.6691,345.9
87.6805,100.9
87.6835,20.1
87.7378,183
87.7435,369.8
87.7461,492.5
87.7719,234.8
87.7732,362.6
87.8341,136
87.8414,485.2
87.8507,159
87.852,297.7
87.8579,194.7
87.8722,17.6
87.8883,640.8
87.8967,203.7
87.9115,297.9
87.9338,149.5
87.9475,199.6
87.9571,98.8
87.9821,296
87.9949,208.2
88.0156,90.3
88.0196,235.5
88.0393,11965.6
88.0429,150.3
88.0526,18.8
88.0658,96.6
88.0782,88.1
88.0816,98.2
88.0886,203.9
88.0912,101.7
88.1257,441.7
88.1344,95.2
88.1512,322.6
88.1779,373.8
88.182,163.3
88.1982,377.3
88.2058,289.9
88.25,20
88.2548,93.5
88.2663,661.5
88.27,435.9
88.2711,111.4
88.3775,96.9
88.4098,88
88.4177,120.3
88.4788,754.2
88.4885,773.3
88.499,18.6
88.5438,100.3
88.5494,437.7
88.5755,78.7
88.5811,169.3
88.5851,204.6
88.5871,17.2
88.5895,87.2
88.602,72.8
88.6192,270.8
88.6204,359.7
88.6375,20.3
88.6433,142
88.6838,154.3
88.7119,203
88.7132,158.9
88.7974,118.8
88.8027,83.1
88.8099,89.2
88.8124,327.1
88.8391,77.9
88.8531,135.3
88.8598,301.5
88.8719,330.2
88.8731,559.5
88.874,671.8
88.8837,22.4
88.9056,161.9
88.9576,418.2
88.9586,614.6
88.9601,398.7
88.9653,220.4
88.9681,159.8
88.9743,84.6
88.978,178.9
88.9829,110.6
89.0016,612.1
89.014,231.2
89.0207,325.4
89.029,16.9
89.0415,264.7
89.0552,266
89.0658,472.3
89.0974,371.2
89.1064,81.9
89.1187,163.4
89.1458,446.1
89.157,76.2
89.1638,553
89.1898,469.3
89.2157,18.6
89.2234,493.3
89.245,108.1
89.2465,21.6
89.2768,348.8
89.3048,507.9
89.3329,158.9
89.3332,170.4
89.3336,124.4
89.3355,143.4
89.3424,106.4
89.3681,141.9
89.3716,767
89.4066,121.5
89.4088,179.7
89.4628,438.8
89.4639,563.2
89.5278,155.5
89.56,175.2
89.5815,106.6
89.6009,82.6
89.6148,117.2
89.6515,103.7
89.6537,124.5
89.7046,98.6
89.7094,128.1
89.745,195.2
89.7523,97.4
89.7644,407.9
89.771,147.8
89.8035,278.4
89.8388,273.2
89.8409,342.8
89.8525,95.5
89.8591,77.4
89.8715,104.4
89.8765,244.7
89.8919,629.4
89.908,211.9
89.9111,77.3
89.9187,549.9
89.9455,267.2
89.9484,18.8
89.9639,111.7
89.9652,527.3
89.9828,255
90.0181,94.9
90.0271,16.7
90.0398,16.6
90.0653,620.5
90.0762,530.3
90.0805,260
90.0831,641.2
90.0846,90.9
90.156,22.4
90.1996,460
90.2111,482.8
90.2138,108.8
90.2176,147.2
90.219,118.8
90.2373,121.7
90.2757,96.5
90.2852,713.3
90.3231,116.2
90.358,202.6
90.3868,107.6
90.3916,204.5
90.4287,100.8
90.4323,63.1
90.4393,213.1
90.44,684.3
90.4478,164
90.4504,183.4
90.4878,113.2
90.5075,121.6
90.5088,582.6
90.5406,212.6
90.5616,197.6
90.5813,192.1
90.6013,75.5
90.6261,622.3
90.6484,20.5
90.7875,221.2
90.8398,521.8
90.8537,694.8
90.861,258.6
90.9096,93
90.9108,226.5
90.9117,90.8
90.9476,27.3
90.9612,252
90.966,226.2
90.9766,8120.7
90.9907,182.7
91.0327,173.2
91.0373,21.2
91.0412,453.7
91.0484,333.1
91.0542,22543.6
91.0644,652.6
91.1122,120.7
91.1221,92.2
91.124,114
91.142,574.7
91.1622,420.5
91.2371,523.7
91.245,645.4
91.2514,163.1
91.2573,197
91.2838,116.9
91.2861,64.4
91.3178,519.6
91.32,122.3
91.33,351.3
91.3324,560.6
91.3469,21.3
91.3589,137.8
91.4149,252
91.4488,142.7
91.4498,627.2
91.4634,120.8
91.4738,530.9
91.4774,74.9
91.4785,421.6
91.4837,78.9
91.4943,97.2
91.4961,512.9
91.5275,93.3
91.528,96.1
91.5997,82.7
91.6103,245.4
91.6209,97.3
91.6231,162.9
91.6311,204.7
91.6555,284
91.6646,88.9
91.7299,99.2
91.788,158
91.8061,17.1
91.813,147.8
91.816,292
91.8408,127.7
91.8482,22.6
91.8504,369.4
91.9098,480.1
91.9135,313.1
91.9373,19.1
91.9421,309.7
91.9559,751.6
91.9775,102.7
91.9819,202
91.9913,20
92.0423,120.9
92.0495,23.4
92.0863,17
92.0876,180.8
92.0901,80.5
92.1229,548.6
92.1661,155.1
92.1825,107.9
92.1865,297.2
92.1992,82.1
92.2356,381.9
92.24,1246.4
92.2648,379.7
92.2804,489
92.2816,117.3
92.2845,80
92.3148,83.5
92.3333,464.6
92.357,151.1
92.3595,118.2
92.3676,503.3
92.404,125
92.4297,460.8
92.4324,77.8
92.4397,138.2
92.4503,606.9
92.4533,345.8
92.4672,243.6
92.4754,82.3
92.4919,642.5
92.5944,112.6
92.6317,117.3
92.634,208.9
92.6354,437.6
92.6685,113
92.6953,116.9
92.7082,279.8
92.7116,19.7
92.7128,331.4
92.7374,449.4
92.743,86
92.7616,828.8
92.8074,81.1
92.8474,132.7
92.8516,20.9
92.8544,110.7
92.8996,170.4
92.9171,269.9
92.9304,233.2
92.9379,231.1
92.9462,87.5
92.9667,366.6
92.9752,457.9
92.9909,446.8
93.0093,91.6
93.0127,597.2
93.0613,169.4
93.0655,386
93.0699,302.3
93.0809,102.7
93.0966,17.8
93.139,246.6
93.1782,18
93.1875,113
93.2592,79.1
93.2708,149.7
93.2964,93.8
93.3393,350.4
93.3421,349.9
93.3665,176.6
93.4235,208.5
93.4274,90.2
93.4291,181.6
93.4371,170.7
93.4539,21.2
93.4989,349.3
93.5109,651.6
93.5232,18.8
93.5307,97.8
93.532,290.2
93.5584,94.7
93.5703,258.1
93.5734,99.5
93.5865,78.9
93.5989,138.6
93.643,176
93.6543,96.4
93.6733,250.4
93.7246,118
93.7495,281.6
93.7571,539
93.7634,134
93.7673,131.6
93.8274,119.4
93.8355,541.3
93.8523,108.2
93.866,212.6
93.8751,635.2
93.9073,207.9
93.9461,87.2
93.9554,17.6
94.0044,351.6
94.0162,76.9
94.0181,137.5
94.0266,80.8
94.0358,110.4
94.0383,18.8
94.0413,76199.5
94.0444,304.5
94.086,76.3
94.0979,80.1
94.1475,385
94.2088,88.7
94.2473,131.4
94.2572,355.6
94.2733,116.6
94.3023,373
94.3262,77.9
94.3407,17.2
94.3433,225.9
94.3617,72.9
94.3726,170.5
94.4158,289.8
94.4344,232
94.4564,565.5
94.4765,364.1
94.485,116.3
94.5212,17.1
94.5267,309.5
94.5377,117.1
94.5393,159.4
94.5493,458.9
94.5654,73.6
94.5788,79.9
94.5934,115.6
94.599,127.1
94.6378,494.8
94.6429,219.3
94.6564,22.8
94.6571,190.9
94.7438,328.5
94.7598,175.8
94.7657,356
94.7738,364
94.7851,18.7
94.7915,17.2
94.803,118.4
94.8293,602.2
94.8304,19.9
94.8502,379.8
94.9288,20.1
94.9346,102.6
94.9473,259.3
94.9683,153.9
94.9754,125.7
94.9931,476.7
95.0053,113.1
95.0251,176.7
95.0293,120.2
95.0434,119.4
95.0447,2093.5
95.0468,22.3
95.0478,169.8
95.0492,491258.1
95.0511,145.7
95.0536,37.8
95.0543,382.1
95.0625,54.7
95.0755,19.5
95.079,20.1
95.0855,2434.4
95.1061,17.1
95.144,521.2
95.1574,488.6
95.162,70.7
95.1729,145.9
95.189,688.7
95.1899,148.8
95.1987,733.9
95.2022,126.4
95.2099,88.8
95.232,18.1
95.2425,335.7
95.2781,17.9
95.3008,16.5
95.316,108.9
95.3164,116.4
95.3177,81.1
95.3643,237
95.3917,174.2
95.4093,161.2
95.4104,602.9
95.4221,161.6
95.4581,635.4
95.4989,478.9
95.5176,118.6
95.5357,569.8
95.5462,351.7
95.5567,223.8
95.5585,143.3
95.5954,80.2
95.6107,337.9
95.6729,83.4
95.675,443.4
95.684,245.4
95.7201,184.2
95.724,379.9
95.7397,16.8
95.7555,191.1
95.7594,118.3
95.7732,357
95.7887,439.1
95.7936,17
95.7958,362.2
95.849,114.4
95.8806,379.2
95.9073,345.3
95.9103,96.2
95.9212,16.3
95.9325,701.3
95.9479,407.2
95.9858,356.1
96.01,238.4
96.0257,692.5
96.0371,110.7
96.0525,25750.3
96.0826,293.1
96.0947,469
96.0977,81.6
96.1014,148.4
96.111,452.2
96.1538,104
96.1579,182.3
96.2075,269.3
96.226,280.4
96.2349,110.4
96.2377,256.7
96.2476,421.4
96.2642,16.9
96.269,171.6
96.2889,558.9
96.2917,84.3
96.3128,248.7
96.3667,78.3
96.3726,187.3
96.3995,106.5
96.4187,207.6
96.4399,248.5
96.4412,347.4
96.4433,154.8
96.486,93.7
96.487,120.8
96.4918,442.3
96.5085,405.6
96.5216,360.2
96.5614,21.2
96.587,118.6
96.6088,230.5
96.6171,181.9
96.6176,189.9
96.6242,337.1
96.628,380.6
96.6752,562.2
96.721,73.4
96.7285,326.1
96.7783,345.9
96.8093,487.2
96.8169,19.2
96.8324,503.3
96.8453,672
96.8573,65.1
96.8734,764.5
96.8985,198.3
96.9035,101.4
96.9218,133617
97.0076,179.5
97.0485,571.6
97.0518,173.2
97.0526,719.3
97.0547,115.7
97.0558,79.5
97.0625,149.6
97.0748,577.2
97.093,170.4
97.1012,84
97.1062,110.9
97.1445,431
97.147,19.5
97.1505,492.3
97.1576,702.9
97.1743,84.1
97.2245,18.8
97.234,83.1
97.2399,16.2
97.3172,299
97.3238,17.3
97.3442,426.9
97.3514,103.1
97.3698,454.3
97.4116,91.4
97.4231,79.6
97.4434,229.1
97.4833,140.2
97.6053,264.1
97.6239,88.4
97.6294,872.6
97.6325,301.1
97.654,100.7
97.6592,114.5
97.7169,103.1
97.7896,601.3
97.8355,17.9
97.8646,102.8
97.9181,79.5
97.9259,138.4
97.9378,73.6
97.9629,261.8
97.9648,119.1
98.0711,342
98.0818,354.8
98.1123,16.9
98.1392,79.6
98.1626,116.8
98.1806,594.3
98.2113,83.6
98.2877,66.1
98.3612,166.6
98.3843,283.6
98.3928,207.1
98.4089,559.2
98.4177,409.1
98.4255,115.4
98.4316,669.1
98.435,335.6
98.489,323.3
98.5088,104.2
98.5212,415.2
98.5399,478.2
98.5727,18.8
98.5979,24.9
98.6001,88.5
98.6732,228.6
98.6959,641.2
98.7042,112
98.8034,398.2
98.8144,405.9
98.8164,99.1
98.8462,179.2
98.853,220.7
98.8831,84.4
98.8895,189.4
98.9028,345.2
98.9066,112.5
98.9189,40208.8
98.9199,5570.7
98.9307,17.8
98.9383,337.1
98.9435,17.9
98.9754,17002.8
98.9775,91.7
98.9843,192.2
99.0023,108.3
99.0177,393.4
99.0221,396.9
99.0334,17.9
99.0382,606.8
99.0872,216.1
99.0883,87.9
99.0918,131.7
99.0946,91.4
99.142,171
99.182,164
99.3213,89
99.3305,320.9
99.3511,109.7
99.3894,84.9
99.4108,133.3
99.418,92.4
99.4202,86.5
99.4466,95
99.4493,124.4
99.4542,104.6
99.4598,298.3
99.4965,302.8
99.5034,289.3
99.5057,102.6
99.5161,74.2
99.5283,105.5
99.5319,354.5
99.5399,549
99.6009,83
99.6039,125.5
99.6204,333.8
99.6338,18.2
99.6814,232
99.7068,18.2
99.7122,162
99.7322,112.8
99.7741,97.2
99.7813,97.7
99.8075,331.4
99.8206,228
99.8593,353.4
99.9156,163.7
99.92,355.6
99.9438,212.8
99.9533,557.6
99.9629,16.2
99.9828,341.8
100.01,386.2
100.0654,633.2
100.0749,252.4
100.0899,76
100.1556,282.7
100.1688,474
100.1708,328.6
100.1825,97.8
100.2051,407.7
100.2133,132.5
100.22,18.4
100.2807,142.1
100.2827,91.1
100.296,404.7
100.323,98.5
100.3707,557.8
100.3904,246.7
100.4468,383.8
100.461,91.5
100.5052,132.7
100.5164,101.5
100.6311,17.7
100.6482,89
100.6533,184.1
100.6825,154.1
100.7108,509.9
100.7557,242.3
100.8115,186
100.8176,478.4
100.841,180.4
100.8721,121.7
100.8866,17.3
100.8936,94
100.899,497.3
100.9015,101.2
100.917,2454.8
101.0085,670
101.0272,141.3
101.0363,689
101.0472,3383.7
101.0611,452.2
101.0709,1383.1
101.1016,149.6
101.1412,320.7
101.1525,113.9
101.1641,396.3
101.2152,228
101.2161,820.4
101.2563,249.9
101.2735,257.5
101.2806,497.1
101.2858,67.4
101.3046,385.8
101.3262,179.6
101.3291,263.4
101.3974,284.6
101.4299,471.9
101.4686,187.3
101.4882,434
101.4903,389.1
101.5027,354.4
101.5118,438.5
101.5158,665.6
101.5501,440.4
101.5616,18.8
101.574,15.5
101.5758,416.6
101.5934,75.3
101.601,197.6
101.6197,79.2
101.6228,88.9
101.6584,99.1
101.6859,501.7
101.74,295.2
101.7423,17.5
101.7661,149.6
101.7741,687.2
101.8297,197
101.8456,110.8
101.8619,381.8
101.8685,523.2
101.8731,192.8
101.877,173.6
101.8855,102.5
101.8905,545.6
101.9151,286.1
101.973,19
101.9767,84.6
102.0293,16.5
102.055,6971.9
102.076,101.7
102.0929,118.7
102.1067,291.1
102.1213,365
102.1263,156.6
102.2437,147.5
102.2577,168.6
102.266,19.7
102.2806,20
102.3196,393.5
102.3269,18.9
102.3426,357.7
102.3829,409.1
102.4144,583.9
102.451,108.5
102.4758,131
102.4985,104.4
102.5074,494
102.5595,79.8
102.5706,102.9
102.5773,118.9
102.5959,19.6
102.598,105.3
102.6434,131.6
102.6581,276.9
102.6789,111.3
102.7223,335.4
102.7441,496.8
102.7459,19.2
102.7502,88.3
102.7929,151.6
102.7957,306.2
102.901,134.3
102.9112,404.3
102.9117,592.6
102.9121,569.4
102.9182,359.6
102.9399,416
102.9569,86.5
102.9703,614
102.9844,94.9
103.0251,686
103.1395,112.6
103.182,391.5
103.1847,73.4
103.2008,156.1
103.2054,183.8
103.3066,662.6
103.3344,183.3
103.364,581.8
103.3906,207.3
103.3952,132.1
103.3979,395.7
103.4535,262.7
103.5296,115.9
103.5326,81.3
103.6295,208.5
103.6437,427.7
103.6519,18.9
103.745,129.3
103.7462,351
103.7522,66.7
103.7546,125.1
103.8312,83.7
103.8488,670
103.8927,266.8
103.9136,203.1
103.9533,19.2
103.9709,138.3
103.9845,170.9
103.9918,70.3
104.0507,22.4
104.0582,216
104.0659,94.6
104.0893,204.5
104.107,350654.5
104.1573,326.2
104.1822,73.4
104.2,82.3
104.2056,18.5
104.2069,205.1
104.2137,100.5
104.2326,314.2
104.2697,377.4
104.3071,710.7
104.3322,22.2
104.3355,422
104.3763,375
104.4072,77.5
104.4414,18.4
104.5435,115.5
104.5449,159.2
104.6072,562.1
104.6087,396.4
104.7127,599.7
104.7309,585.3
104.7825,99.6
104.8202,321.4
104.8423,604.5
104.8568,289.9
104.8583,259.7
104.8633,435.7
104.9117,425.3
104.9319,123.5
104.9634,118
104.9761,565.3
104.9764,577
104.9786,119
104.9875,113.8
104.9923,2494.1
105.0032,19.2
105.0295,113.1
105.0448,44830.4
105.0598,179.1
105.0651,115.1
105.067,446
105.1104,13660
105.1116,248.2
105.1166,352.2
105.1296,122
105.1307,161.6
105.1518,78.4
105.1834,81.5
105.1896,18.4
105.2,173.1
105.2038,16.4
105.2119,366.2
105.236,446.4
105.2418,86
105.2881,586.2
105.384,416.1
105.3984,85
105.4135,18
105.4196,517.5
105.4469,361.4
105.4961,88.2
105.5422,145.1
105.5903,185.1
105.593,227.1
105.6239,347.7
105.6325,719.1
105.6367,133.6
105.6539,330.2
105.6687,160.6
105.6713,140.9
105.7005,570
105.708,218.7
105.7499,92
105.753,477.6
105.7666,528.9
105.7822,714.4
105.7869,116.2
105.7908,487.8
105.8318,92.7
105.8356,81
105.8471,149.9
105.8628,200.2
105.9644,635.4
106.0183,373.4
106.0481,719.2
106.078,17.2
106.107,98.9
106.1146,208.5
106.1257,179.9
106.1572,333.4
106.181,185.7
106.1977,19.5
106.2239,98.3
106.2267,369.7
106.2657,138.6
106.2688,231.6
106.2936,150.5
106.302,275.5
106.3025,305.1
106.3102,128.8
106.3179,18.1
106.3693,185.1
106.3716,97.6
106.3803,675.8
106.4333,190.3
106.4504,420.8
106.4936,187.6
106.5228,413.5
106.5857,143.4
106.5996,16.7
106.6162,113.7
106.6327,73.2
106.6895,95.6
106.7117,130.2
106.7171,95.4
106.7264,128.2
106.7483,99.4
106.767,366.4
106.7723,380.7
106.7819,182
106.7838,16.6
106.7944,17
106.7996,307.1
106.8069,317.5
106.8183,157.6
106.8496,339.4
106.8558,342.6
106.8862,177.2
106.8961,594.4
106.9296,154.3
106.9318,413.1
106.9506,4507
106.9632,17.4
106.9804,23.3
106.9921,54.3
107.0284,110.6
107.0492,614.3
107.0855,102.1
107.1127,63.7
107.1469,424.1
107.1592,613.9
107.1609,191
107.1757,246.2
107.1872,111.9
107.2427,321.4
107.2895,738.6
107.3159,192.8
107.3579,507.8
107.42,279.4
107.4257,177.9
107.4811,103.9
107.5234,188.5
107.5655,262.1
107.5841,635.4
107.6107,90.8
107.617,186.1
107.64,81.8
107.6762,178.7
107.686,586.5
107.7339,213.2
107.7351,128.3
107.7847,278.9
107.7919,443.1
107.8136,639.3
107.836,98.3
107.9121,169.1
107.9293,140.3
107.9338,104.5
107.9402,110.3
107.9713,97.4
107.9801,736.1
107.985,375.6
108.0215,417.6
108.0515,252.2
108.0572,28.2
108.0747,172.4
108.0832,502.8
108.0897,212.8
108.1047,99.8
108.1144,312.5
108.1418,208.9
108.1896,106
108.1972,365.9
108.2044,16.3
108.2173,262.8
108.2314,158.3
108.2544,349.7
108.2588,86.6
108.2867,421.8
108.2909,77.9
108.321,335.2
108.3485,19.9
108.3527,205.5
108.3878,134.8
108.404,19.3
108.4473,183
108.5495,326.4
108.5803,339.9
108.5862,93.8
108.6418,186.8
108.6451,566.6
108.6475,130
108.6915,96.6
108.7052,18.4
108.7128,218.7
108.7179,227.6
108.7417,103
108.7486,622
108.756,165.5
108.7865,291
108.8409,562
108.8926,173.3
108.9646,578.4
108.988,330.1
109.0649,91452
109.1013,98.4
109.1106,18.3
109.12,303.4
109.1572,336.6
109.2105,281.7
109.2207,97.6
109.2224,295.2
109.3641,262.4
109.366,381.9
109.3985,97.8
109.4062,536.2
109.4205,17
109.4712,112
109.4914,427.9
109.5535,727.1
109.5715,403.7
109.6046,609.4
109.6295,398.7
109.6497,17.6
109.6937,214.1
109.6981,90.1
109.7215,174
109.793,167.8
109.8119,85.7
109.8133,118.4
109.8387,682.6
109.8961,185.5
109.9197,295.4
109.9382,467.9
110.0216,215.8
110.062,468.7
110.0682,3209.9
110.0713,2109.8
110.0965,56450.1
110.1212,94.7
110.1343,326
110.1376,103.2
110.1646,262.6
110.2411,718.6
110.2898,487.4
110.2942,307.2
110.3126,149.9
110.3179,95.3
110.3702,353.3
110.403,69.1
110.4067,250.5
110.485,549.8
110.5434,136.4
110.5536,81.1
110.5927,122.9
110.6411,76.2
110.6608,130.7
110.6896,184.7
110.7083,639.9
110.7185,377.1
110.7277,237.6
110.7598,299.4
110.7667,178.7
110.7753,86.9
110.8202,200.7
110.8381,80.6
110.8564,183.3
110.8642,426
110.8981,123.7
110.9754,437.8
111.0102,347.3
111.0155,383.6
111.0193,132.4
111.0196,133.4
111.0234,385.7
111.0291,18.4
111.0441,297.6
111.0486,814.3
111.052,128.1
111.0716,51.8
111.0999,178.9
111.1043,6028.3
111.1299,277.7
111.1679,347.6
111.2478,680.6
111.2586,462.7
111.2592,304.1
111.309,95.7
111.4642,20.5
111.4791,180.7
111.5061,471.4
111.514,131.7
111.5358,483.3
111.5482,127.4
111.608,698.4
111.6231,529.1
111.6762,114.8
111.7015,115.2
111.7102,278.4
111.7498,101.8
111.7957,160.7
111.8114,402.9
111.8221,356.9
111.8276,121.4
111.835,99.3
111.8433,259.7
111.8553,188.6
111.8934,306.1
111.8993,204.1
111.9032,282.8
111.9076,92.7
111.9592,97.3
111.9714,102.1
112.0172,20.3
112.0937,16.6
112.1711,18.2
112.2104,111
112.22,438.1
112.2255,145.7
112.2441,156.5
112.2769,327.9
112.307,129.7
112.3138,220.5
112.3239,20.7
112.3602,324.3
112.3783,109.3
112.4095,271.7
112.4342,78.9
112.5169,86.5
112.5191,94.8
112.5478,304
112.5534,94.9
112.5627,863.6
112.5719,715.5
112.6427,244.9
112.671,175.5
112.6972,431.1
112.6982,81.1
112.7171,74.8
112.7464,362.9
112.7531,16.2
112.7762,333.3
112.8128,390.8
112.8398,561.9
112.8515,19.8
112.8863,91.4
112.8922,105.7
112.8958,414186.3
112.9149,282.4
112.9558,237.4
113.0124,384
113.0428,20
113.0726,203.8
113.0996,108.8
113.1074,39.4
113.1108,211.4
113.1124,109.6
113.1285,81.4
113.1489,98.7
113.1676,348.8
113.1818,197.6
113.2082,113.6
113.2137,127.1
113.3541,527.4
113.3576,83.4
113.3843,82.9
113.3891,330.8
113.4379,498.8
113.4691,20
113.4705,129.2
113.4789,71.3
113.5163,21.3
113.5241,213.7
113.5451,118.2
113.5905,598
113.6039,178
113.6497,339.1
113.7609,91.4
113.8387,662.2
113.849,75.8
113.8609,165.9
114.0452,111.8
114.0551,66480.6
114.0662,1802.1
114.0824,203.6
114.0856,401
114.1176,682.4
114.1616,94.6
114.1729,231.5
114.2064,99.4
114.2146,487.8
114.2247,574.6
114.2474,93.7
114.2531,135.7
114.2713,306.1
114.2885,506.1
114.2921,779.1
114.3127,471.1
114.3154,273.4
114.342,146.9
114.4415,548.8
114.4739,17.6
114.5034,20.8
114.5091,443
114.6276,389.2
114.6391,178.3
114.6471,154.8
114.6577,74.9
114.6655,167.3
114.6851,76.5
114.689,103.9
114.7182,16.5
114.7363,111.2
114.7732,441.7
114.7765,78.8
114.846,273.5
114.8587,248.1
114.8626,210.2
114.8929,130256.3
114.9392,343.5
114.9619,134.7
115.0096,106.1
115.0519,82.1
115.0585,1840.1
115.0761,188.9
115.0869,388.3
115.1097,270.6
115.14,490.5
115.2611,18.4
115.291,101.4
115.3635,105.5
115.3758,97.2
115.3793,400.8
115.4483,237.9
115.5021,102.9
115.54,17.9
115.5694,452
115.578,461.3
115.6572,216.8
115.6846,80.1
115.7009,279.1
115.7189,266.3
115.7253,93
115.7529,95.1
115.7558,20.7
115.7596,127.2
115.7616,201
115.7711,18.9
115.8179,164
115.8216,309.5
115.8264,141.4
115.8466,261.7
115.8499,303.8
115.8645,19.6
115.8704,125.9
115.8725,200.1
115.8866,198.5
115.905,359.5
115.9173,283.1
115.9704,76.1
116.0566,361.3
116.0707,3247.4
116.0916,72.2
116.1336,276.6
116.1779,289
116.1965,322.8
116.1998,81.4
116.2336,74.8
116.2349,138.5
116.2766,716.6
116.3196,102.3
116.3229,70.2
116.3241,300.2
116.3297,371.5
116.3542,120.9
116.3769,18.8
116.4235,260.3
116.4311,320.8
116.433,215.9
116.4678,19
116.4962,195.5
116.5222,191.9
116.5276,122
116.5727,338.1
116.5819,95.6
116.5978,97.4
116.6319,649.4
116.6425,208.8
116.6719,488.3
116.7429,18.8
116.753,137.2
116.7579,263.8
116.7763,117.5
116.7846,441.9
116.8111,145.7
116.8756,420.5
116.891,13848.2
116.9048,83.7
116.9136,484.9
116.9273,89.2
116.9589,17.2
116.986,3458.9
117.0343,187.1
117.0359,84.8
117.0476,122.7
117.0697,21.3
117.1021,288.4
117.1123,440.9
117.1137,218.3
117.1625,77.2
117.1768,179.1
117.1922,114.5
117.2266,237.6
117.2313,193.3
117.3141,83.2
117.3187,496.1
117.3273,91.8
117.3313,96.5
117.3366,101.7
117.3375,91.2
117.3418,91.6
117.3429,291.4
117.3815,72.6
117.3851,99.8
117.3864,166.8
117.4434,271
117.4808,98.8
117.5333,17.6
117.5464,108.6
117.551,396.8
117.5539,151.3
117.586,260.9
117.6087,92.7
117.61,197.4
117.6817,625.1
117.696,196.6
117.705,198.2
117.7128,123.9
117.7161,400.3
117.7754,110.3
117.9379,181.6
117.9514,322.4
117.9614,285.1
117.9763,110.9
117.9914,115.7
118.0022,193.4
118.0621,334.2
118.0649,16.4
118.0795,100.3
118.1029,105.2
118.1122,18.8
118.1424,819
118.1886,455.7
118.2202,89.4
118.2532,16
118.3146,527.8
118.3356,168.8
118.3524,85
118.4035,92.5
118.4353,136.4
118.4384,132.8
118.4832,431.6
118.5051,110.8
118.5719,615.8
118.5935,465.6
118.6274,463.7
118.6636,311.3
118.7103,85.6
118.7255,321.2
118.7305,16.1
118.7451,19.1
118.7681,183
118.8509,79.1
118.8692,73.7
118.9007,259.3
118.9303,211.6
118.9634,95.9
118.9748,15.4
118.9773,342.5
118.9776,345.7
119.0189,49.9
119.02,320.1
119.0573,303
119.0605,4859.2
119.0855,431.5
119.1066,188.3
119.1295,95.3
119.1361,425.7
119.161,106.1
119.1852,499.9
119.2003,643.6
119.2179,108.5
119.2229,223.9
119.3029,623.8
119.3155,18
119.4293,619
119.4421,97.9
119.4656,261.9
119.4818,18.3
119.487,668.2
119.4884,20.4
119.5131,112.5
119.5374,110.7
119.6106,125.3
119.6191,555.4
119.6206,124.7
119.6596,106.5
119.6737,196.4
119.6937,140.5
119.708,123.8
119.7464,170.1
119.7597,73.9
119.7821,465.8
119.8128,173.1
119.9461,102.1
119.9731,821.8
120.0033,2458.7
120.0215,86.8
120.055,107.8
120.0809,15464.1
120.1586,427.9
120.2199,22.3
120.2558,267
120.3004,143.2
120.3195,155
120.3916,493.7
120.4336,477.3
120.4472,187.6
120.5192,638.3
120.5414,75.7
120.5526,119.6
120.5721,424.3
120.6077,174.5
120.617,19.4
120.6834,18.5
120.7077,106.3
120.7299,196
120.7878,397.1
120.8393,107.2
120.8457,139.8
120.8652,569.4
120.8667,357.4
120.8741,119
120.8907,449.4
120.9302,333.1
120.9512,240
120.9668,18
120.9749,212.9
120.981,170.8
121.0057,176.3
121.0077,427.5
121.0286,296.7
121.0311,559.8
121.0367,196.8
121.0398,226.3
121.0502,283.7
121.0549,119.9
121.0726,325.2
121.0795,121.8
121.0841,392.7
121.1013,29.4
121.1887,361.1
121.2334,125.8
121.2635,19.7
121.2706,18.9
121.275,83.9
121.3167,178
121.3584,90.5
121.3608,158.9
121.4539,205.4
121.4617,106.2
121.464,294.3
121.5087,573.4
121.518,347.1
121.5344,70.6
121.5933,106.7
121.5991,521.9
121.607,480.6
121.6121,92.8
121.6168,176.8
121.6549,342
121.6617,143.7
121.6964,278.5
121.7532,240.8
121.7722,90.1
121.7955,482.9
121.8728,596.5
121.8849,268.9
121.9231,776
121.9444,17.5
121.9489,89.6
121.9622,81.8
122.0056,344.4
122.0151,248.5
122.038,281.1
122.0451,466.9
122.0507,93.2
122.0722,153.3
122.0889,20.3
122.0943,303
122.1517,204.3
122.1673,75.6
122.2378,161.1
122.2417,285.3
122.2706,335
122.2866,279.9
122.3023,183.6
122.3152,451.6
122.3361,745.3
122.3482,174.2
122.3673,220.6
122.4004,455.4
122.4052,103.1
122.4106,186.9
122.4221,96
122.4791,122.8
122.5164,79.8
122.5604,451.3
122.5738,131
122.5962,158.9
122.6403,305.9
122.6837,483.7
122.6875,293.6
122.73,516.8
122.7393,81
122.7655,192.1
122.7938,113.6
122.8176,147.9
122.822,80.4
122.8757,244.9
122.8953,20
122.9003,22
122.9202,19.8
122.9247,17690.9
122.9578,263.3
122.9714,437.8
122.999,608
123.0273,154.2
123.0427,23.6
123.0513,17
123.0679,354.4
123.0823,839
123.117,22.5
123.1214,134.2
123.1803,376
123.199,356.6
123.221,346.5
123.2575,401.7
123.2883,224.2
123.342,128.6
123.3449,262.6
123.3642,145
123.3827,177.3
123.3977,140.6
123.4541,334.6
123.5095,318.9
123.512,467.1
123.5429,112.8
123.5698,140.6
123.584,75.2
123.6123,277.5
123.6151,111.8
123.6174,420.8
123.6382,608.6
123.6418,17.9
123.6466,166.3
123.6644,603.9
123.6821,258.5
123.7244,207.8
123.7309,591.8
123.7713,118.1
123.7902,78.5
123.8001,118.8
123.8113,19
123.8894,308.8
123.9177,358.7
123.9365,288.4
123.9978,271.2
124.007,591.9
124.0121,19.4
124.0306,387.1
124.0337,631.4
124.0353,84.9
124.0372,294.1
124.045,114.6
124.0537,213.1
124.0604,117.5
124.0974,86.6
124.1449,123.4
124.1621,405.6
124.2093,84.6
124.2176,415.8
124.2297,401.6
124.2436,269.5
124.2478,464.1
124.2858,446.5
124.3081,299.3
124.3235,94.2
124.3486,115.6
124.3544,422.9
124.4267,412.7
124.4553,495.9
124.4587,126.4
124.4641,188.3
124.5223,162.5
124.5805,223.2
124.6103,829.9
124.6204,266.1
124.6419,364.8
124.643,77.7
124.6626,387.1
124.6695,142
124.7332,419.9
124.775,95.8
124.7906,137.8
124.8137,225.7
124.8693,93.9
124.8859,19.3
124.8929,110.8
124.9011,216.2
124.9181,638.6
124.9228,1186.1
124.9244,429
124.965,81.5
124.975,213.2
124.9999,3574
125.0057,321.4
125.0309,94
125.0391,283.9
125.0598,61.6
125.1075,11499.5
125.1112,125.8
125.1416,439.8
125.272,549.8
125.2875,180.7
125.3913,199.6
125.4153,612.4
125.4243,20.3
125.4306,263.3
125.4533,87.8
125.4832,79.3
125.5121,144.5
125.5135,622.6
125.5763,87.9
125.6058,451.5
125.6095,482.8
125.6218,88.1
125.7182,93.9
125.8402,524.2
125.858,384.3
125.8665,154.9
125.87,80.9
125.9042,306.3
125.9181,157.6
125.921,183.9
125.9384,114
125.9849,374
126.0195,91.5
126.0231,380.1
126.0404,343.5
126.0831,284.6
126.0922,103.5
126.1472,21.9
126.3109,115.5
126.3671,15.2
126.4615,126.5
126.4639,206.2
126.5783,350.9
126.6531,211.2
126.67,130.2
126.6717,320
126.7635,150.4
126.7819,98.7
126.8324,127.3
126.8358,687
126.8464,160.6
126.8685,84.2
126.8813,164.1
126.8914,425.7
126.9176,146.9
126.9299,206
126.935,18.7
126.9592,583.7
126.9927,85.3
126.9967,206.6
127.0093,348.6
127.0246,94.8
127.0489,486
127.0606,553.5
127.0734,17.2
127.1231,35010.1
127.1572,101.2
127.1613,363.2
127.1807,302.2
127.2045,19.9
127.2295,535.5
127.2656,137.4
127.2741,109.5
127.2776,76.9
127.2794,200.3
127.3757,667.9
127.3892,240.9
127.3955,213
127.4118,542.7
127.4438,329.3
127.4878,101
127.6014,532.1
127.6346,98
127.6866,22.9
127.7314,115.7
127.7334,85.8
127.7506,270.2
127.755,97.2
127.7655,698.1
127.7671,161.9
127.8249,270.9
127.8321,504.4
127.8397,347
127.8601,141.7
127.8621,85.6
127.9448,17.6
127.961,100
127.9798,485.7
128.0502,205.2
128.1142,100.5
128.1196,549.8
128.1422,321.5
128.1583,83.6
128.1682,19
128.1796,19.2
128.2335,296.5
128.2352,650.3
128.2458,208.2
128.2479,85.3
128.2906,181.5
128.3016,191.3
128.3134,17
128.3181,72.9
128.3256,22.1
128.4178,565.7
128.4231,623.8
128.4414,85.7
128.4819,363.8
128.523,161.1
128.6057,172.6
128.6456,407.9
128.6925,469.3
128.7018,133.1
128.7479,91.8
128.7583,125.6
128.8125,570.2
128.9336,163.2
128.9613,668.2
128.9625,609.4
128.9824,152.3
129.0034,914.7
129.0364,86.1
129.0381,23.2
129.066,331.4
129.105,106.2
129.1796,271.2
129.3049,248.3
129.3633,562.7
129.3694,80.5
129.3748,125.8
129.3837,205.3
129.447,409.7
129.5147,583.7
129.5169,541
129.521,21.1
129.5245,775.1
129.6182,101.5
129.633,252.3
129.6518,207
129.7393,203.3
129.7642,114
129.783,960.2
129.8213,17.1
129.8972,419.6
129.9044,449.5
129.9338,118.9
130.0059,131
130.05,9699
130.0835,394.6
130.098,20.8
130.1457,565.2
130.1998,312.7
130.2845,168.6
130.3522,337.5
130.3543,140.5
130.3678,100.8
130.3702,83.1
130.399,99.6
130.4166,561.3
130.4385,79.1
130.4508,354.4
130.4571,210.1
130.5173,265.3
130.5734,633
130.5849,405.7
130.6755,353.4
130.7466,95.8
130.751,717.4
130.7741,352.1
130.8735,172.7
130.8753,101.4
130.8838,391.7
130.8855,192.9
130.8937,109.7
130.9086,351.1
130.9777,793
130.9817,110.8
130.9834,525
130.9889,121.5
131.0148,210.2
131.0165,200.1
131.0244,322.1
131.036,188.6
131.1077,114.9
131.1104,597.4
131.1321,230.8
131.1573,634.4
131.1989,395
131.2065,363.1
131.2078,267.6
131.2813,327
131.2904,17.4
131.305,79.2
131.4702,204.5
131.4805,372.9
131.4956,206.8
131.5063,111.1
131.5672,98.9
131.5713,68.9
131.5751,105.5
131.6104,183.1
131.6234,81.2
131.6621,175.5
131.6836,94.9
131.6902,697.7
131.6947,230.5
131.7281,333
131.7358,118.4
131.7964,95.2
131.8203,122.3
131.8363,107.5
131.8452,106.9
131.8468,203.7
131.8516,188.8
131.8588,295.8
131.9877,84.1
132.0034,31137.3
132.0426,128.8
132.0616,79
132.0657,118341.9
132.0739,88.2
132.1555,124.6
132.174,99.6
132.178,402.3
132.2435,141.4
132.3878,321.5
132.3929,437
132.4667,565
132.4726,381.7
132.6528,109.1
132.6759,122.7
132.7134,175.3
132.7344,17.9
132.7498,434
132.7572,341.2
132.7721,410.3
132.7737,377.2
132.7746,163.5
132.8218,174.7
132.8508,355.6
132.8532,145.5
132.8553,97
132.8836,261
132.9028,54.8
132.9056,93.7
132.9111,136.5
132.9273,136.8
132.9546,580.6
132.9786,18.4
132.985,659.6
132.9874,4267.9
132.9957,88.4
133.0216,407.9
133.0301,17.6
133.0558,79.1
133.0607,306.5
133.0691,4185.2
133.086,22
133.0973,13523.7
133.1016,511.7
133.1351,438.1
133.1416,78.1
133.173,232.3
133.1745,399
133.1755,115.6
133.2102,18.5
133.2696,17.7
133.338,251.5
133.3734,238.8
133.3779,191
133.3796,201.3
133.5373,17.5
133.6091,287.1
133.6338,281.4
133.6376,320.2
133.6483,127.2
133.7066,175.6
133.75,19.5
133.7638,132.2
133.779,727.4
133.8078,165.1
133.8319,416.6
133.8634,106.3
133.9052,276
133.9205,216.6
134.0105,138.3
134.0118,19
134.0191,24093
134.0629,124.8
134.0784,400.7
134.085,96.1
134.0953,211.6
134.139,204
134.1977,114.9
134.2759,97.8
134.332,19.2
134.3381,881.5
134.35,365.3
134.3514,349
134.387,199.7
134.392,121.9
134.405,196.2
134.4106,73
134.465,117.7
134.4882,127.9
134.5105,102.4
134.5169,110.7
134.566,198.8
134.6248,87.7
134.6314,645.3
134.6397,119
134.6438,112.7
134.7052,20.6
134.712,94.1
134.7684,617.9
134.7801,103.6
134.8224,549
134.8618,147.9
134.8839,22.6
134.9057,97.8
134.9967,80.6
135.003,103544.9
135.0125,122.7
135.0557,337.8
135.0806,26.4
135.1394,81
135.1658,300.7
135.203,105.3
135.2355,16
135.2673,570.1
135.302,260.6
135.3339,91.3
135.3523,343.5
135.358,197.7
135.3697,182
135.4389,83.3
135.5234,20
135.5746,19
135.6796,17.2
135.7744,262.1
135.8263,231.6
135.8604,510
135.8636,558.2
135.9195,638.7
135.9233,316.2
135.9774,2760.4
135.9833,571.4
136.0064,1645.3
136.0246,360.9
136.0483,11061
136.0618,32.7
136.0687,530.1
136.0759,10885.2
136.1012,80.5
136.1479,376.5
136.1651,116.1
136.1656,158.7
136.1662,119.3
136.1706,17.7
136.186,145.3
136.2421,183.1
136.2527,323.5
136.3121,129.2
136.3479,216.9
136.3903,107.2
136.4021,175.3
136.4125,344.8
136.4215,18.1
136.4315,569.3
136.4377,225.3
136.52,21.2
136.5403,245.3
136.615,488.8
136.6297,184.4
136.6521,114.6
136.7718,342.4
136.7782,20.5
136.8664,498.9
136.8717,470
136.9089,558.4
136.9286,234.2
136.9341,212.6
136.9654,80.9
136.99,259
137.0109,381.3
137.0356,252
137.0631,140.1
137.1912,81.8
137.1947,174.6
137.2363,131.8
137.241,87.9
137.2451,500.3
137.2806,286.9
137.2879,397.5
137.2908,265
137.3007,323.1
137.3353,91.4
137.3529,132.1
137.4075,361.9
137.4135,230.3
137.4238,700.9
137.4993,141.7
137.5,209.1
137.5005,200.9
137.506,500.3
137.6025,17.3
137.6471,112.7
137.7024,151
137.7928,410.1
137.8761,20.1
137.8816,128.5
137.931,265.6
137.9342,187.1
137.9495,16.8
137.9997,373.6
138.0101,316.9
138.0528,9723.9
138.108,99.5
138.1283,172.2
138.1665,847.6
138.1947,396.9
138.2174,193
138.2556,126.5
138.2691,350.4
138.2724,209
138.2766,392.3
138.2949,443.7
138.3527,115.4
138.4527,88.8
138.4533,134.7
138.4538,142.4
138.4959,107.5
138.4972,223.8
138.5245,201.6
138.5581,228.8
138.5723,96
138.5939,133.8
138.6142,93.1
138.6341,23.6
138.6408,769.2
138.6646,140.5
138.6936,76.9
138.7355,113.4
138.7512,142.7
138.794,603.3
138.8573,118.4
138.8697,103.4
138.9049,591.6
138.9067,1300.6
138.9785,374.1
139.0181,38.7
139.0268,356.4
139.0606,21.2
139.1106,247.5
139.1543,218.5
139.1815,321.6
139.2093,239.5
139.2124,602
139.3005,17.9
139.3563,372.1
139.3829,110.7
139.3946,106
139.4143,312.3
139.433,587.9
139.4737,107.1
139.4768,21.1
139.5101,92
139.5106,117.6
139.5112,101.9
139.5867,20
139.6036,19.5
139.6488,171.3
139.715,366.3
139.783,704.9
139.8244,328.6
139.8327,261.7
139.8348,121.2
139.8553,666.5
139.8943,75.2
139.9013,105.1
139.9106,396.9
140.0002,140.4
140.0105,423.3
140.0167,1026.9
140.0684,3872.3
140.0724,370
140.1109,96.2
140.1573,16.5
140.1777,117.2
140.259,177.7
140.3071,371.4
140.3222,172.2
140.3306,374.2
140.3409,103
140.3751,114.2
140.4027,488.1
140.4154,153.1
140.4384,215.1
140.4454,354.4
140.4528,160.9
140.5195,159.1
140.535,830.5
140.5384,330.3
140.6058,100.6
140.6232,118.6
140.6659,388.5
140.6738,117.8
140.7164,581.2
140.7564,337.6
140.8166,218
140.8254,322.7
140.8986,106
140.9039,1817.1
140.9107,18.6
141.0007,22618.8
141.02,21.8
141.0301,370.2
141.0346,94.7
141.1643,339.6
141.1674,272.9
141.1985,103.2
141.2244,341.7
141.3016,269.1
141.3494,409.1
141.3589,146.3
141.4,74.4
141.4181,106.8
141.4275,108.5
141.5742,159.8
141.5994,97.9
141.6811,384.6
141.6883,551.7
141.7301,295.3
141.7454,107
141.8991,564.7
141.9392,86.9
142.004,639.5
142.0177,207.9
142.0739,50.2
142.0835,470.8
142.2348,436.1
142.2768,350.2
142.2964,580.8
142.3157,17.8
142.405,169.7
142.4201,687.8
142.4975,92.9
142.5109,83.6
142.5734,101.1
142.6093,476.1
142.6254,165
142.7815,85.8
142.8357,542.4
142.845,142.4
142.855,375.6
142.8578,197.3
142.8916,281.8
142.9223,442.9
142.931,107.6
142.9389,118
142.9505,17.4
142.9738,339.7
142.9967,366.4
143.0017,474.2
143.0069,276.9
143.0092,148.5
143.0192,1389.5
143.0269,359.7
143.0817,671.5
143.1889,166.6
143.1915,452.4
143.209,19.2
143.2154,394.5
143.3445,752.6
143.4192,381.8
143.4468,149
143.4643,967.1
143.481,17.1
143.4932,211
143.5449,160
143.565,608.6
143.5826,407
143.5988,326
143.6569,19.2
143.6586,209.4
143.6774,289.9
143.7005,345.7
143.7145,18.7
143.7998,86.5
143.8044,421.9
143.8079,202.3
143.8755,95.2
143.9137,669.8
143.9411,93.5
143.9816,17.3
143.9856,788.4
143.9887,109.8
143.997,824.8
144.0063,191.5
144.02,488.8
144.0817,100.1
144.1886,118.9
144.2446,318.8
144.2511,96.6
144.2632,73.3
144.2841,18.6
144.3422,135.4
144.3537,107.5
144.4099,570.7
144.4381,80.5
144.4487,17.2
144.4578,283.4
144.511,80.7
144.5234,96.9
144.5404,100
144.5459,86.2
144.5519,162.5
144.5569,182.8
144.6193,379.5
144.7075,100.3
144.7698,112.3
144.8004,126.3
144.8647,101.4
144.8744,274.1
144.9225,543.3
144.924,97.5
144.9413,641.9
144.9462,515.5
144.9811,4607.5
145.0164,423.6
145.036,562.4
145.0445,110.1
145.051,485.8
145.1007,178.5
145.1124,20.7
145.2746,161.1
145.2963,289.6
145.3823,84.5
145.4138,325.5
145.4205,538.2
145.5297,653.4
145.587,91.1
145.6145,92.1
145.6314,242.3
145.707,88.4
145.7087,105.6
145.7409,178.4
145.7715,93
145.8206,414.2
145.9235,203.6
145.9783,104.3
145.9812,331.7
145.987,189.2
145.9906,180.3
145.9931,467.8
146.0128,5735.6
146.0191,21983.5
146.0662,115.5
146.1781,496.1
146.2271,230
146.2502,331.7
146.3006,105.3
146.3306,195.5
146.3445,169.4
146.3582,323.8
146.3641,250.9
146.3983,602.6
146.4742,136.3
146.488,116.6
146.5028,594.3
146.5639,270.3
146.5796,215.1
146.6098,125.8
146.678,85.2
146.7144,115.3
146.7461,851.8
146.8501,770.2
146.8565,111.6
146.8626,83.9
146.8868,589.6
146.982,81904.6
147.0083,154.5
147.0284,314.2
147.0767,63110.4
147.0801,75.4
147.0894,1721.3
147.113,32190.1
147.1169,339.5
147.1441,20.5
147.1618,19.2
147.172,441.5
147.1769,113.3
147.1807,531.1
147.1886,97.7
147.2145,93.7
147.265,85.6
147.2674,168.4
147.2688,577.9
147.2836,506.1
147.2934,336.7
147.3167,155.9
147.3222,192.1
147.3383,569.9
147.3764,175.3
147.3791,361.9
147.4494,115.5
147.4772,339.9
147.485,175.8
147.5032,190
147.5313,643
147.5811,118.6
147.6403,313.2
147.6576,161.3
147.6639,370.5
147.6749,18.2
147.6828,162.9
147.7549,22.2
147.7819,287.5
147.837,20.6
147.8459,122.7
147.8767,17.1
147.9854,845.1
148.03,326.5
148.1165,490.3
148.164,77.8
148.1688,570.4
148.2479,795.3
148.2884,238.6
148.3456,517.9
148.3941,520.7
148.4433,440.7
148.5324,2556.7
148.5417,135.9
148.563,360.1
148.5692,19.4
148.5734,104.1
148.6338,136.5
148.6669,148.5
148.7297,202.5
148.7477,196.1
148.8016,364.8
148.8378,118.7
148.9014,18
148.9079,321.3
148.9294,422.6
148.9614,3752.4
149.0027,66.4
149.0188,9903.5
149.0236,5604.3
149.05,243
149.1052,97020.8
149.1329,55.8
149.196,18
149.1999,152.4
149.2075,96.9
149.3563,185.4
149.4338,355.7
149.6167,200.1
149.6461,594.6
149.7073,365.6
149.7298,127.2
149.7325,602.2
149.7868,187.5
149.8382,560.2
149.8448,328.2
149.8513,225.1
149.8721,637.7
149.8993,211.5
149.9144,128.3
149.9288,466.8
149.9414,772.7
149.9522,125.4
149.9734,16.8
149.9838,107.7
149.9896,17.5
149.9931,16328.4
150.0141,8476
150.027,54.5
150.045,92.6
150.0488,722.7
150.0623,220.1
150.1086,3281.5
150.1563,98.8
150.1705,696.3
150.305,311
150.3159,382.4
150.3768,149.5
150.3897,253.1
150.4037,255.2
150.466,93.6
150.4894,19.2
150.5467,442.6
150.5666,105.3
150.5912,205.8
150.6023,85.3
150.6289,16.3
150.6568,341
150.7399,17.6
150.8235,204.5
150.8595,109.3
150.8842,162
150.9245,288
150.9275,474.5
150.9771,63952.5
150.9844,130.6
151.048,4289.8
151.0868,1249.7
151.1242,89.8
151.1574,349.6
151.1649,197.6
151.1675,261.6
151.2559,135.5
151.3646,95.4
151.3769,157.2
151.4589,19
151.487,182.2
151.5137,328
151.5178,386.8
151.5755,727.3
151.6064,168.8
151.6251,405.5
151.6597,139.2
151.7068,153.7
151.7284,336.7
151.7451,209.6
151.8316,290.6
151.9302,540.7
151.9416,84.3
151.9506,177.3
151.9729,347.6
151.9804,432.5
151.9971,19.4
152.0131,547.8
152.0224,12103.2
152.0321,3852.8
152.0427,232.2
152.0471,654.7
152.0489,21.7
152.1053,20
152.1678,131.2
152.2048,576.8
152.2783,108.7
152.3433,213.7
152.3714,87.3
152.4631,181.6
152.5016,170.6
152.502,170
152.5064,139.3
152.5326,116.7
152.6674,147.5
152.7274,629.3
152.8345,413.2
152.8862,118.1
152.9263,80.1
152.9302,18.8
152.9752,2601.3
152.9884,112.7
152.9901,94.7
152.9942,162.4
153.0982,285.7
153.1025,47893.6
153.1168,19.2
153.1639,121.1
153.2381,365.9
153.2786,108.2
153.3406,263
153.386,355.2
153.4894,113.4
153.525,168.1
153.5406,629.7
153.6077,118.2
153.6577,107.5
153.669,19.3
153.7079,132.1
153.7221,94.1
153.7563,520.5
153.785,19.6
153.803,93.8
153.8044,95.8
153.8138,686.5
153.9159,19.4
153.9364,197.7
153.9641,516
154.0115,586.3
154.0196,308
154.0267,1928.4
154.059,1867.2
154.0722,143.9
154.106,564.7
154.1229,720.5
154.1302,124.5
154.1598,17.7
154.2742,134
154.2884,91.2
154.3245,295.1
154.3285,338.4
154.3648,220.2
154.3918,21.1
154.4263,192.6
154.45,381.4
154.4573,18.7
154.5604,171.5
154.5775,182.3
154.5873,356
154.6306,223.6
154.6523,19.7
154.8141,408.3
154.8339,371.5
154.8364,111.2
154.9078,87.3
154.9421,685.6
154.9694,1364
154.9991,633.2
155.0164,12619.9
155.0219,130.7
155.0346,153.2
155.0429,508.9
155.0497,1151.3
155.0542,4186.6
155.059,95.8
155.0792,303.3
155.1274,338.3
155.1869,286.2
155.3262,115
155.35,498.9
155.356,155.2
155.3855,93.8
155.4667,90.5
155.4732,147.9
155.4766,79.7
155.5176,533.8
155.528,369.7
155.5667,414.5
155.5879,185.5
155.6327,155.2
155.664,622.6
155.7037,143
155.7097,311
155.7332,309.7
155.7373,369.1
155.8032,373.2
155.8086,399.1
155.8485,122.5
155.8548,152
155.8926,196.7
155.9172,98
155.9812,192.4
155.9872,126.2
156.015,200.5
156.0271,349.6
156.0425,3778.6
156.0513,39.9
156.057,85.1
156.0771,60976.6
156.1251,142.6
156.1353,279.6
156.1846,18.1
156.1901,214.3
156.1955,99.2
156.2521,156.9
156.3375,19.1
156.5921,500.2
156.6073,413.1
156.6435,207
156.7296,742.9
156.7695,80.5
156.7858,185.4
156.7947,100.2
156.8143,512.2
156.8579,129.2
156.8747,385.7
156.8972,511.4
156.9141,279.5
156.9615,172.3
156.9785,136
156.9897,337.4
157.0236,376.9
157.0586,617.3
157.0651,861
157.0708,19
157.0804,1035.3
157.0958,88.3
157.0975,188.6
157.1627,17.4
157.1772,385
157.1875,349.1
157.1911,91.4
157.203,131.7
157.3209,317.5
157.3933,110.4
157.4012,86.5
157.4092,559.3
157.4366,137.4
157.4401,104.9
157.4545,275.8
157.6015,164.6
157.6291,121.9
157.7155,177.3
157.8813,353.5
157.8917,139.3
158.0128,934.5
158.0274,5851.1
158.0346,16.7
158.0725,86.7
158.0839,124.2
158.1372,211.1
158.1897,81.3
158.2701,96.3
158.2762,534.4
158.3096,121.3
158.3403,126.8
158.3465,181.9
158.3581,333
158.3784,75.2
158.4085,318.6
158.4251,166.4
158.4888,91.4
158.5281,372.5
158.534,203.9
158.5748,348.2
158.611,691.2
158.6333,423.5
158.6545,357.3
158.723,95.1
158.7441,327.1
158.8101,144.6
158.8829,167.2
158.9066,220.5
158.928,2644.1
158.9644,8442.1
158.9968,12476.9
159.0113,33.9
159.0219,296.7
159.0307,142
159.0532,558.4
159.078,359.7
159.0921,115.8
159.0943,219
159.1237,328.1
159.1725,191.9
159.1794,405
159.2178,179.1
159.2378,273.4
159.2613,316.8
159.274,97
159.2955,421.2
159.322,144.3
159.447,90.4
159.4539,66.6
159.4615,86.1
159.4707,110.5
159.4956,203.8
159.6518,280.4
159.6742,102.7
159.6854,445.6
159.7025,82.9
159.7879,19.8
159.8452,618.6
159.9006,224.8
159.9421,132.9
159.9844,372.4
160.0232,138.5
160.0348,28530.2
160.0608,123288.7
160.0643,357
160.1157,100.9
160.1203,669.4
160.1693,419.3
160.2982,487.9
160.3128,102.2
160.3449,148.3
160.3755,213.3
160.4343,19.4
160.4531,438.3
160.4969,344.8
160.5019,225
160.5318,107.2
160.5603,190.8
160.5999,100.2
160.6217,147.2
160.7068,539.6
160.7401,18.9
160.7645,283.2
160.9537,327.7
160.9907,22.4
161.0111,402.5
161.03,93.7
161.0561,20.5
161.0642,4435.2
161.0803,178.3
161.0965,25.4
161.1047,138.3
161.1289,481.9
161.1329,116.6
161.1578,375
161.1713,158.5
161.1795,100.6
161.2927,160.6
161.3043,182.4
161.3453,91.6
161.3562,343.6
161.3736,338.5
161.4642,79.3
161.4773,566.4
161.5439,298.6
161.5518,109.9
161.5671,135.5
161.7626,606
161.9237,276.4
161.9748,94.4
162.0217,263.2
162.0458,179
162.0505,22032.1
162.0532,712.2
162.0917,114.4
162.1068,357.4
162.2025,526.5
162.206,74.8
162.2547,311
162.3588,585.8
162.4293,181.4
162.4397,69.9
162.5278,451.5
162.5433,18.7
162.6198,93.2
162.751,84.7
162.8052,16.7
162.8313,268.8
162.8963,128.8
162.8985,357
162.9161,595.4
162.9561,3758.1
162.9776,416.8
162.9889,353.7
163.0116,16.8
163.0157,2445.1
163.0266,151.3
163.0345,3966.1
163.0425,394.1
163.045,93.5
163.09,675.1
163.1187,337.9
163.16,136.8
163.3578,329.5
163.4454,200.6
163.4512,378.4
163.4705,183.9
163.5111,213.1
163.5779,165.1
163.593,94.7
163.6563,1018.8
163.6633,111.8
163.6669,721.2
163.67,199.2
163.6766,747.3
163.6839,151.7
163.6916,153.5
163.912,227.6
163.9616,230.5
164.0088,1255.6
164.016,216.4
164.0188,378.2
164.0233,135.9
164.0265,306.6
164.0298,20173.2
164.0863,18.5
164.1167,20.6
164.1262,95.6
164.1498,77.5
164.1801,232.5
164.2049,453.3
164.2118,18.6
164.2237,17.1
164.2404,491.1
164.2492,432.7
164.3406,172.1
164.3496,20.3
164.4046,729.6
164.4463,16.8
164.4778,358.4
164.5692,131.4
164.6066,98.4
164.6652,104.3
164.7276,424.9
164.7416,366.3
164.8014,174.6
164.9045,127.6
164.9208,5587.5
164.9304,16196.9
164.9355,3207.1
164.9784,103
164.9928,5115.6
165.0543,104.4
165.0779,94.5
165.0913,774.1
165.1009,91.2
165.113,166.2
165.1588,207
165.3403,24.1
165.3472,623.5
165.4047,417.7
165.4117,323.2
165.4708,89.1
165.5307,98.6
165.5337,130.2
165.5898,979.6
165.5997,121
165.6051,21.8
165.6563,177.8
165.678,19.7
165.7099,96.2
165.8955,419.7
165.9671,2750.9
165.9791,3373.2
165.9841,17.7
165.9881,6478.5
166.0496,351.3
166.0778,23
166.1971,74.3
166.2394,367.4
166.3897,370.6
166.3943,118.7
166.4572,24.9
166.5064,196.4
166.5593,452.7
166.5939,118.3
166.6327,100.5
166.6595,16.9
166.677,365.4
166.7622,192.4
166.8066,185.2
166.8228,18
166.8508,83.1
166.872,95.4
166.9103,94
166.9144,17.5
166.9511,27681.7
166.9631,924.6
166.991,78.5
167.0221,6287.3
167.0317,18.5
167.0568,97
167.0604,430
167.0775,324.8
167.0849,114.5
167.1552,18.2
167.1643,23
167.1663,76.2
167.2181,122.8
167.2211,118.6
167.2406,340.2
167.2967,105.1
167.328,699.9
167.4917,166.5
167.5609,597.8
167.5755,124.8
167.6074,477.3
167.6186,572.3
167.659,708.1
167.9129,80.2
167.9449,104.2
167.9543,544.7
167.9876,101.6
167.9948,1611.3
167.9972,601.2
168.0059,501.8
168.0567,177
168.0724,427.9
168.0989,19
168.1134,1336.5
168.1316,336.4
168.1496,343.3
168.2177,19.3
168.2247,102.8
168.2288,101.4
168.254,100.9
168.2695,315.4
168.274,411
168.2937,618.8
168.3005,108.7
168.3186,151.3
168.3293,589.2
168.3883,155.4
168.4291,132.5
168.4474,518.8
168.4945,598.3
168.5106,388.6
168.5123,333.6
168.518,376.6
168.5344,19.6
168.542,118.4
168.5931,233.5
168.6065,355.2
168.6441,223
168.6938,501.5
168.7321,70.2
168.7453,103.9
168.7654,184.6
168.8034,83.8
168.8142,204.9
168.8639,236.8
168.8988,72.6
168.9103,194.8
168.9236,318.5
168.9491,2385.1
168.9582,19.4
169.0587,67737
169.0652,1715
169.0925,20.2
169.0951,3706.6
169.1627,19.2
169.2759,346.8
169.289,397.7
169.3127,353
169.3714,98.1
169.3876,179.1
169.3943,19.6
169.4309,20.1
169.4855,120.4
169.4921,318.1
169.5102,347.7
169.5475,320.1
169.6316,109.1
169.6513,18.6
169.7378,111.7
169.7426,586
169.8438,508.3
169.9157,404.9
169.9228,265.7
169.9759,19.3
169.9789,15.7
169.9912,466.1
170.0162,310.9
170.0212,105.5
170.033,1796.7
170.0427,195.5
170.0582,356.7
170.0617,346.2
170.0928,3288.8
170.1074,739
170.2096,102.7
170.2552,356.5
170.3367,197.3
170.3466,695.3
170.4502,671.6
170.5421,794.6
170.6709,17.5
170.685,298.1
170.6888,323.5
170.6947,472.7
170.7329,367.5
170.766,209.4
170.7975,166
170.8091,190.4
170.8547,5181.2
170.9434,449.1
170.9608,545.1
171.0171,551.8
171.0282,360.1
171.0366,18
171.0587,120.6
171.1724,75.1
171.2041,18.9
171.2116,92
171.3278,150.7
171.3547,391.8
171.3641,257.8
171.3967,554.6
171.4456,20.5
171.4695,82.7
171.4821,223.3
171.5328,131
171.5814,184.9
171.6317,187.1
171.6594,119
171.6729,187.8
171.7263,150
171.7284,108.7
171.826,19.4
171.8287,334.8
171.8462,441.4
171.9398,541.3
171.9522,109.4
172.017,119
172.0285,1461.8
172.0433,264.6
172.0639,117.8
172.0902,21.4
172.1044,484
172.1336,10307.6
172.1379,483.4
172.1471,647.3
172.1717,146.3
172.2376,96.6
172.2429,112
172.2866,106.7
172.3198,20.8
172.3535,455.8
172.3588,133.9
172.3995,156.3
172.4159,241.7
172.4275,238.2
172.5511,308.1
172.6262,450.5
172.6385,126.7
172.7478,104.1
172.8517,2644.7
172.8553,496.4
172.8739,17.1
172.924,324.2
172.9529,261.4
172.9636,19.6
172.9671,445.2
173.0271,443.9
173.0965,718.9
173.1187,94
173.1267,352.2
173.1883,406.6
173.2215,534.7
173.2997,82.8
173.3102,337.6
173.3123,161.6
173.3629,168.5
173.5193,89.4
173.5522,282.1
173.6037,765.1
173.6158,450.4
173.6342,128.3
173.6754,92.8
173.7418,87.8
173.7954,396.7
173.8024,230.8
173.8164,713.7
173.9791,107
174.0073,112.4
174.0158,154.9
174.1807,734.6
174.2101,137.8
174.2428,121.3
174.3394,274.9
174.3709,141.1
174.4516,660
174.4689,275.1
174.6356,18.1
174.8016,135.2
174.8123,73.2
174.8229,420
174.8316,109.2
174.8887,88.4
174.9384,3491.7
175.0346,9548.2
175.0459,4005.6
175.0495,91.4
175.0912,130.7
175.1055,629
175.1194,58250.3
175.1262,371.1
175.1358,125.3
175.1401,155.1
175.1477,287.5
175.1607,152.2
175.1619,168.4
175.1833,417.3
175.2944,544.4
175.309,302.5
175.3153,90.3
175.3424,225.3
175.3687,199.3
175.3723,99.6
175.4216,580.4
175.4455,17.6
175.5479,156.1
175.5667,128.7
175.6068,295.7
175.6505,454
175.6656,172.8
175.6756,502.7
175.7114,370.7
175.7192,432.6
175.7226,85.1
175.7856,103.6
175.8314,134.1
175.8896,165.2
176.0089,14171.9
176.0222,94.4
176.0298,489.7
176.0354,782.1
176.0662,33883.1
176.0765,130.5
176.1033,325.3
176.1162,251.9
176.153,91.1
176.2313,583.4
176.3404,289.1
176.3928,134.5
176.416,285.3
176.4881,131.8
176.6233,1040.9
176.8143,92.2
176.8178,456.7
176.8773,794.6
176.9928,729.2
177.0092,270.1
177.0251,7279.4
177.0614,6234.7
177.0719,502.3
177.0875,1186.8
177.1464,172.5
177.1537,152.7
177.2863,308.2
177.4119,79.6
177.5432,17.9
177.6201,172.3
177.7022,95.6
177.7271,635.6
177.7587,114.8
177.8098,650.3
177.9235,479.7
177.9701,18.4
177.9872,19.7
177.9906,586.4
178.0091,12223.2
178.0245,11584.2
178.0591,6460.6
178.1047,84.2
178.2838,167.2
178.3069,18.9
178.3986,647.1
178.4264,18.8
178.4374,21.5
178.6567,17
178.7098,345.5
178.72,426.6
178.7308,755.2
178.76,102.4
178.8746,126
179.0084,2058.1
179.0218,221.9
179.0494,698.5
179.0614,110.4
179.2098,163.5
179.3033,103.6
179.3096,19.5
179.3553,147.5
179.3944,67.2
179.4314,518.7
179.4611,18.4
179.4946,84.9
179.7038,95.3
179.7702,642.3
179.8307,219.6
179.8669,103.1
179.9653,120.8
180.0038,14839.6
180.0126,150.3
180.2361,117.4
180.2572,168.7
180.4597,18.3
180.4821,143.6
180.5511,124.7
180.5669,663.3
180.6429,633.6
180.655,23.8
180.6867,108.6
180.7468,536.7
180.7663,612.8
180.8606,23.2
180.8784,595.6
180.8851,108.6
180.8948,3838.1
180.9013,19.6
180.9044,8041.7
180.9575,1074.6
180.9667,430.7
180.9709,123.6
181.0265,711.6
181.0653,11101.3
181.1931,355.2
181.2456,120.7
181.2926,76
181.3545,364.5
181.3681,103.9
181.4089,785.4
181.4116,228.5
181.5011,247.3
181.5418,230
181.6845,224.9
181.7146,335
181.7188,20.1
181.8319,110.2
181.9095,349.2
181.9702,696.9
182.0157,24.5
182.0259,103.3
182.039,19.7
182.0429,41592.8
182.0662,212.2
182.1234,100.1
182.2449,99
182.3012,492
182.4783,84.5
182.5058,242.5
182.5225,210.2
182.5388,106.2
182.5488,700.5
182.7605,135.3
182.87,85.3
182.9027,34.8
183.0078,88.1
183.0448,3064.3
183.0812,830.8
183.0985,73.6
183.12,232.7
183.1944,126.6
183.3487,562.1
183.4456,104.8
183.5034,69.5
183.6088,19.5
183.6995,84.7
183.7068,99.5
183.7741,317.1
183.8718,109.7
183.9653,1232.9
183.9938,420.7
184.0374,410.3
184.0476,417.8
184.0682,454.3
184.0738,3199114.5
184.082,167.4
184.1022,513.7
184.1099,208.6
184.1701,53
184.1824,1732.5
184.239,714
184.2529,837
184.3905,91.8
184.4202,337.9
184.5322,102.9
184.6143,111.5
184.6855,112
184.7242,114
184.7611,343.1
184.8247,193.4
184.8436,131.9
184.9551,721.4
184.9765,141.7
184.9913,149.4
184.9998,986.2
185.024,634.3
185.0327,63966.8
185.0705,2775.4
185.0771,142280.4
185.0919,98.5
185.1092,19.3
185.2644,118.4
185.341,97.4
185.4629,125.5
185.5081,413.8
185.535,112.2
185.5536,430.4
185.5596,114.9
185.5834,301.6
185.6212,494.8
185.6587,18.1
185.6698,114.8
185.6994,238.4
185.7482,341.9
185.8925,381.7
185.9785,91.7
185.9993,487.2
186.0363,360.7
186.078,20284.5
186.191,128.7
186.1935,72.9
186.2237,92.1
186.2271,150.9
186.2386,18.5
186.2613,316.4
186.2687,515.9
186.299,487.4
186.3778,174.3
186.3928,626
186.4004,197.2
186.4647,405.8
186.4921,357.1
186.5381,237.6
186.6248,18.4
186.6556,20.2
186.6776,18.7
186.7093,163.6
186.7508,556.2
186.7795,380.3
186.8291,542.2
186.8436,360.8
186.9124,2636.7
186.9507,92.3
186.9736,87.5
186.9965,128.3
187.0309,2396.8
187.0435,110.3
187.0448,121.8
187.0458,140.1
187.0504,18.6
187.0581,3952.1
187.0719,4873.7
187.1082,1241.5
187.1581,615.7
187.1885,146.2
187.3866,122.5
187.4206,80.3
187.5151,90.9
187.5231,82.9
187.5311,303.4
187.6343,148.3
187.6479,354
187.6584,315.9
187.692,106.9
187.7333,335
187.7353,77.1
187.7727,523.6
187.856,374.4
187.8738,576.6
187.8762,154.9
187.9059,18.5
188.0251,88.5
188.0569,423.5
188.0805,220.3
188.1214,107.2
188.153,599.8
188.1675,200.6
188.2715,432.1
188.285,312.7
188.2896,400.6
188.4091,448.9
188.5235,283
188.7035,280.8
188.7192,17.5
188.7357,126.8
188.7677,519.7
188.8328,157.2
188.902,339.4
188.9119,240.4
189.0076,1189.2
189.0616,3821.5
189.0697,95
189.0815,17.6
189.0875,10518.3
189.1247,281
189.2404,229.6
189.2459,112.6
189.2589,90.7
189.2839,205.1
189.303,127.2
189.3425,83.4
189.4573,363.6
189.6349,190.7
189.7188,279.7
189.7904,113.6
189.8104,108.2
189.8154,172.4
189.8365,95.2
189.8494,452.9
189.9104,71.3
189.9376,661.9
189.9712,157.5
190.0281,169
190.0455,449
190.0835,75.1
190.1765,104
190.2004,18.4
190.241,189
190.2877,538.5
190.4085,80.1
190.4779,740.8
190.4871,94.8
190.514,515.2
190.5175,243.8
190.5572,245.8
190.5846,95.4
190.6877,207.8
190.727,178.5
190.8478,301.4
190.8614,339.7
190.9126,1039.5
190.9449,116.2
190.9708,16.6
190.9873,19.2
191.0086,5416
191.0123,267.9
191.0244,87.5
191.0408,150172.6
191.0772,23839.5
191.0987,870
191.1141,80.6
191.126,18.6
191.1316,195.1
191.1605,17.9
191.172,316.9
191.2754,117
191.3484,87.1
191.3836,96.8
191.4778,203.9
191.4991,154.3
191.5327,310.3
191.6722,136.8
191.6859,83.6
191.6931,84
191.71,569
191.7143,162.5
191.7214,530.5
191.8246,430.1
191.8525,113.9
191.8915,128.5
191.8963,19.8
191.9829,1509.1
192.0036,402.2
192.0402,18697.1
192.0443,4852.7
192.1009,329.3
192.1232,19.7
192.1891,85.7
192.1982,393.2
192.2944,18.5
192.3153,262.8
192.4253,85.3
192.4929,81.3
192.5001,123.8
192.537,81.9
192.6646,593.6
192.6732,102.7
192.714,673.5
192.7171,222.2
192.7458,17.9
192.7704,242.6
192.884,580.3
192.9622,536.1
192.9991,4088.8
193.0158,355.7
193.0355,1867
193.0858,466.9
193.1388,714.7
193.386,18.7
193.4861,311.4
193.5052,112.2
193.5168,228.8
193.5348,250.1
193.6055,131.8
193.6554,307.8
193.6972,510.9
193.8606,119.4
193.8714,188.8
193.9168,374.3
193.9372,141.7
193.9687,740.3
193.9916,652.3
193.9986,2015.1
194.0054,1640
194.0103,984.8
194.0251,16607.2
194.0329,1356
194.0383,588.7
194.0502,282.7
194.1157,3620.3
194.1342,154.3
194.1414,90.2
194.1545,45.1
194.1575,540.1
194.1951,642.2
194.2762,539.6
194.4104,476.3
194.4225,620.7
194.4462,20.4
194.463,425.9
194.5213,862.4
194.5284,18.2
194.6269,110.1
194.649,315
194.6624,480.9
194.6893,204.6
194.7758,775.4
194.8229,81.7
194.8853,87.4
195.0095,90.7
195.0223,134.5
195.028,95.2
195.0445,609.7
195.0635,98.6
195.0862,397.6
195.097,221.7
195.1297,421.1
195.1303,434.2
195.1561,410.4
195.2153,104
195.267,216.7
195.2691,246.5
195.293,322.7
195.5654,20.2
195.6697,96.3
195.6998,218
195.7429,353.5
195.7587,111.8
195.7986,172.8
195.8283,104.9
195.8903,17.8
195.9783,558.4
195.9817,478.3
196.033,149.2
196.0683,221
196.0795,130.4
196.0888,116.1
196.1702,410.8
196.1873,270.6
196.1897,597.6
196.2064,104.4
196.2474,117.4
196.2649,90.9
196.2883,135.8
196.468,165.6
196.6145,82.8
196.632,109.9
196.6418,331.6
196.7135,715.8
196.7331,256.8
196.8227,170.7
196.8508,78.8
196.8656,5418.4
196.8688,1127
196.8785,1622.3
196.8864,262.6
196.9797,575.7
196.9849,647
197.0481,125.9
197.1012,915.2
197.1777,96.6
197.2296,18.1
197.3574,165
197.5468,270.9
197.5795,70.6
197.6198,181
197.6603,123.6
197.6849,93.1
197.7919,85.4
197.7994,239.8
197.8047,267.8
197.8431,262.7
197.8446,267.7
197.8474,264.3
197.8891,528.6
197.9028,98.2
198.0082,240.4
198.0166,87.2
198.0855,5644.5
198.0895,4811.9
198.1579,120
198.1858,8216.6
198.2002,18.7
198.2197,84.4
198.2555,83.5
198.3312,97.4
198.3604,100
198.3841,126
198.4042,97.3
198.4426,294
198.4761,140.3
198.5304,280.3
198.6419,127
198.7024,238.7
198.7577,83.6
198.8627,5353.5
198.9745,60.3
199.0444,93.4
199.0695,1148.2
199.0759,3909
199.0806,98.1
199.1424,742.3
199.1892,258.8
199.2769,555.7
199.3597,150.2
199.4228,169.5
199.434,243.1
199.5529,598
199.5675,106.1
199.6352,89.9
199.6917,119.6
199.7249,132.8
199.791,232.1
199.8191,246.9
199.8325,671.5
199.8699,25.3
199.8985,64
199.9656,401.5
199.9714,100.5
199.9877,674.8
199.9911,34461.9
199.9972,311.6
200.0412,23228.9
200.0546,369.7
200.0742,417.3
200.1569,10768.1
200.2171,375.2
200.3712,226.3
200.3943,230.8
200.4323,93.9
200.6762,121.9
200.7595,290.4
200.8106,397.3
200.8596,417
200.9215,418
200.976,18.8
201.0549,954.8
201.0771,86.9
201.0876,257.1
201.1597,174.9
201.1732,229.3
201.1996,20.5
201.2965,326.9
201.3867,346.8
201.424,120.4
201.4294,93.4
201.4473,23.9
201.4834,124.6
201.5185,491.8
201.6767,17.8
201.9376,604.2
201.9425,685.6
202,151.9
202.0137,551.3
202.2792,482.3
202.3871,96.9
202.4395,117.6
202.4936,275.4
202.5147,414.5
202.5225,18019.9
202.529,377.5
202.6051,119.8
202.6402,490.7
202.675,605.4
202.724,115.2
202.7385,297.5
202.7625,684.3
202.8055,370.2
202.8863,539.2
202.927,380.5
202.963,891
203.0233,694.3
203.0323,2629.6
203.0531,1567494
203.0585,359.2
203.0773,10063.6
203.1034,21.7
203.1789,744.9
203.255,23.9
203.3176,148.2
203.3907,659.1
203.4398,92.6
203.4658,362.1
203.4793,826.5
203.4844,137.1
203.5386,536.2
203.5562,132.1
203.6828,358.6
203.7043,85
203.7144,366.9
203.8123,299.2
203.8577,17.3
203.9183,92.9
203.9554,255.3
203.9686,449.6
204.0249,53392.1
204.0335,128.6
204.0565,85976.8
204.0868,468
204.1558,115.3
204.1751,123.2
204.3202,369.8
204.4282,285.1
204.4873,94.5
204.585,83.3
204.6154,83.4
204.7,371.2
204.7724,819.4
204.7829,102.1
204.8134,20.5
204.9352,277.3
205.0154,150.3
205.0282,577.3
205.0574,14006.1
205.0688,11610.4
205.0726,103.5
205.0839,335.6
205.1615,217.5
205.2224,117.3
205.2946,20.8
205.3302,159.7
205.3492,21.3
205.6851,144.3
205.7602,402
205.7753,89.8
205.8798,180.9
205.957,115.8
205.9868,150.9
206.0067,144.9
206.0341,132.2
206.0559,855
206.1022,263.3
206.169,201.8
206.2427,467.5
206.4445,356.3
206.4853,521.9
206.5074,219.8
206.5185,236.6
206.5731,96.7
206.6301,267.8
206.6476,102
206.6693,126.7
206.785,97.9
206.833,363.4
206.872,500.6
206.8944,15167.7
206.9204,81
206.9826,2525.3
207.0148,97605
207.0305,822.2
207.0446,4642.2
207.0512,12646
207.105,18.3
207.1517,86.2
207.1848,139.1
207.2047,709.8
207.4301,608.4
207.494,803.5
207.5234,20.4
207.6314,160.4
207.7011,17.1
207.8209,128.8
207.9382,303.7
207.9513,380.9
207.9856,66.9
207.9892,244.9
208.0142,4650.7
208.0181,3130.2
208.0739,370.5
208.1287,688
208.2505,340.2
208.3211,21.7
208.4423,230.5
208.5317,196.5
208.5709,20.5
208.5816,79.8
208.8192,632.7
208.8709,226.7
208.8835,77
208.8915,10381
208.9358,981.9
209.013,3520.3
209.0887,315.5
209.0966,627.1
209.134,666.6
209.2011,190.8
209.2308,390.8
209.2802,727.4
209.3878,229.9
209.4046,19.1
209.4553,771.2
209.5898,91.1
210.6736,369.3
210.7784,19.6
210.8758,380.3
210.878,92.1
210.8885,585.1
210.8993,96.1
211.0434,313.9
211.0457,163.2
211.0539,294.4
211.0571,642.8
211.0696,1516.4
211.0759,850
211.1024,165.4
211.1858,14210.5
211.1899,12836.1
211.1966,24665.5
211.1994,23579.6
211.2026,22923
211.2508,101.5
211.2603,144
211.2735,551.9
211.3107,96.5
211.3749,83.5
211.3825,645.1
211.4363,83.1
211.471,161.9
211.5195,96.2
211.6025,351.9
211.7003,19.5
211.7941,648.6
211.7951,519.6
211.8103,18.8
211.8346,124
211.9618,114.9
212.0745,103.9
212.1757,471.2
212.2075,179.3
212.2504,103.4
212.2902,210.7
212.3316,346.9
212.5472,440.2
212.5854,229.4
212.776,363.8
212.7773,317.8
212.7785,225.6
212.803,113.6
212.829,178.4
212.8396,2266.2
212.923,87
213.0552,1249.5
213.0718,291.2
213.0755,1466.4
213.0906,431.9
213.1919,258.1
213.2747,188.4
213.3237,405.3
213.3974,144.7
213.5613,620.3
213.6077,352.1
213.6683,245.3
213.9289,122.2
213.9626,113.6
213.9852,452
213.9905,120.9
214.0069,431.9
214.0532,796.1
214.0594,5167.3
214.0709,87.9
214.0902,1030.4
214.107,216.9
214.223,390.1
214.3643,499.1
214.4149,442.2
214.4224,579.5
214.6105,107.3
214.6596,132.9
214.6993,154.7
214.7438,68.3
214.8367,2183.6
214.8928,532
214.9134,563.9
214.9185,1304.9
215.078,110.9
215.0936,69.6
215.1245,166.5
215.1809,130.6
215.1944,94.7
215.2693,374.2
215.2764,122.9
215.2817,798.9
215.3034,83.6
215.3461,134.7
215.399,90.4
215.5111,116.7
215.56,113.1
215.7983,383.2
215.9203,102.9
215.9281,399.4
215.9525,92.9
215.9651,398
215.9886,78.8
216.0072,16804.4
216.0152,16200.2
216.0859,21.6
216.0977,2989.2
216.1542,349
216.1845,562.9
216.2739,553.7
216.2832,711.9
216.336,122
216.3486,92.5
216.3907,101.4
216.4178,478.9
216.4191,397
216.4691,376.2
216.5049,209.4
216.5662,357.7
216.618,401.4
216.6632,17.6
216.7211,120.8
216.7454,91.9
216.8187,820.6
216.8457,120.3
216.8844,612.3
216.9233,41930.6
216.9286,88.3
216.97,106.1
216.985,24.4
217.0191,29.5
217.0692,219.6
217.1471,95.9
217.1864,151.9
217.2573,93.6
217.2976,113.3
217.3344,18.8
217.4466,375
217.4537,585.8
217.5763,93.6
217.644,106.3
217.7624,362.3
217.9071,89.8
217.9267,400.9
217.9462,705.9
217.9981,178.2
218.0065,23.1
218.1378,578.8
218.1524,87.4
218.1936,141.4
218.2079,159.3
218.3026,797.5
218.3376,476.2
218.3385,562
218.3398,331.4
218.3794,122.5
218.4056,136.7
218.4293,651.4
218.4837,89.9
218.5135,97.9
218.5383,205.5
218.566,156.3
218.6293,105.8
218.6338,96.4
218.6605,89.3
218.6677,23.5
218.8582,335.8
218.8861,685.5
218.9163,512
218.9204,11993
218.9423,150.2
219.0183,1966.6
219.0271,1666444.3
219.0309,4376.7
219.0568,19
219.0767,294.9
219.0833,4821.1
219.0996,293.5
219.1054,99.7
219.1683,475.6
219.1793,101.5
219.2577,151.5
219.4142,85
219.8362,341.1
219.9601,82.6
219.9987,290.5
220.0045,40926.1
220.0222,19.3
220.0305,90257.9
220.0373,363.4
220.0395,107.1
220.0674,5534
220.1051,189.8
220.1114,322.1
220.1678,493.8
220.2858,20.5
220.3023,113.3
220.309,689.9
220.4426,203
220.5484,67.4
220.6132,464.7
220.7637,17.8
220.7776,535.6
220.9032,102.4
220.9341,363.2
220.9661,508.4
221.0128,85.5
221.0212,493.2
221.0252,100933
221.0314,13758.7
221.0428,5443.3
221.0516,2516.9
221.0849,137.9
221.0881,256.4
221.1133,216.8
221.1822,228.1
221.2118,141.7
221.2179,121.4
221.2467,138.2
221.2779,599.9
221.3425,367.6
221.4361,472.6
221.4672,145.3
221.5062,96.7
221.5764,201.9
221.6029,88.8
221.6486,238.2
221.7722,17.2
221.809,96.4
221.8943,19.5
221.9413,87.9
221.9471,91.1
221.9568,192.6
221.9708,129.9
221.9795,23
221.9841,3074.9
221.9981,348.9
222.0285,2307.2
222.1658,434.7
222.1989,574.3
222.2282,84.8
222.2639,305.7
222.3464,602.4
222.3629,82.1
222.3804,142.6
222.4118,175.4
222.4418,874.8
222.4513,98.2
222.4982,119.1
222.5306,75.3
222.6078,19.2
222.6774,108.4
222.7151,318.9
222.7946,81.9
222.8105,86.5
222.8328,93.8
222.8387,106.1
222.8684,14120.3
222.8796,1371
222.8889,445.5
222.8998,343.1
222.9136,661.6
222.9888,12273.4
223.0092,24
223.0252,538
223.0376,678.7
223.0423,345.2
223.0652,18.8
223.2597,75.3
223.5024,236.6
223.5616,109.9
223.5653,131.6
223.5798,401.3
223.6007,18.3
223.6537,289.1
223.6849,402.7
223.7423,337.6
223.802,377.9
223.8712,202.4
223.8902,295.3
223.9028,20.6
223.9223,178.5
223.9533,49.5
224.03,639.1
224.1048,202.2
224.1834,747.4
224.2132,18.3
224.281,211.4
224.3084,132
224.3241,286.1
224.3782,225.8
224.3869,133.3
224.4148,394.4
224.4419,255.9
224.4796,84.7
224.5104,434.9
224.5681,86.3
224.589,19.9
224.6557,95.2
224.746,376.4
224.8025,344.8
224.8654,6980
224.9691,354.6
224.9871,380.1
225.0101,369.9
225.0225,267.9
225.0553,36434.5
225.0594,19.5
225.085,619.6
225.16,427.5
225.239,634
225.2468,177.8
225.271,87.1
225.4997,91.9
225.5475,330.9
225.5906,433.4
225.6272,565.7
225.6987,229.8
225.7562,18.7
225.865,137.9
225.9051,398.2
226.0027,89.9
226.007,2807
226.0247,7854.6
226.0457,6361
226.059,492.8
226.0636,67.5
226.2948,88.8
226.3894,111.3
226.4299,164.2
226.4408,306.7
226.466,162.7
226.5882,101.2
226.7513,154.8
226.8673,474.7
226.9521,28444.1
227.0346,1978.2
227.0433,871.1
227.0499,699.7
227.0794,817.2
227.087,174.3
227.1011,515.9
227.1396,108.5
227.1688,232.4
227.2031,166.1
227.2393,91.4
227.3212,112.9
227.4284,120.9
227.5248,107.4
227.6241,220.7
227.8268,92
227.8648,644.5
227.9065,162.9
227.9552,735.5
228.0005,1441.6
228.0223,1634.5
228.274,126.8
228.2897,158.9
228.4867,1269.1
228.5593,118.4
228.5691,725.1
228.6065,107.3
228.6332,297.9
228.6722,352.1
228.7409,95.4
228.7467,125
228.7572,90.9
228.8197,530.8
228.8389,311.5
228.8556,364.8
228.9647,334.5
228.9919,782.6
229.1077,135.6
229.119,500
229.1382,383
229.3935,282.8
229.4127,510.4
229.5422,224.8
229.5964,119.6
229.6832,715.9
229.7,80.9
229.7606,297.3
229.8048,189.2
229.8329,18.5
229.8665,17.3
229.9194,78.7
229.9248,332.8
229.9483,98.9
229.9575,179.3
230.0025,348
230.0338,200.2
230.1081,72.5
230.114,860.1
230.2922,20.2
230.3237,115.4
230.3466,456
230.4119,92.5
230.4324,201.1
230.466,162.4
230.5156,122.1
230.5254,108.8
230.5737,327.9
230.5916,493.2
230.6954,338.2
230.774,19.4
230.7946,519.4
230.8003,90.9
230.8102,422.2
230.9234,567
230.9906,60.3
231.0674,126.5
231.0764,94
231.1135,486.9
231.1672,426.3
231.3137,660.6
231.3174,17.7
231.3639,343.1
231.3813,308.9
231.5593,497.7
231.6079,241.5
231.6183,488.2
231.6369,179.7
231.6444,85.1
231.7038,128.3
231.8639,18.5
231.9958,291.9
232.0223,24.4
232.0718,905.3
232.091,705.4
232.128,377.8
232.199,100.7
232.2572,303.8
232.3184,360.6
232.3323,642.9
232.341,18.8
232.4469,747.6
232.4671,198.4
232.4764,22
232.5035,124.9
232.5312,494.8
232.5679,20.5
232.6451,142.5
232.6917,362.1
232.8071,371.2
232.827,517.4
232.8973,36319.6
232.986,1587.2
232.9959,166.8
233.0194,240.6
233.0428,342.7
233.0515,11512.7
233.0605,380.5
233.0641,20.4
233.2467,685.7
233.272,112.4
233.307,18.8
233.3102,20.1
233.3427,129.6
233.4383,69.6
233.5037,100.7
233.5186,104.8
233.578,360.9
233.7538,424.2
233.7767,19.3
233.7868,306.3
233.8484,102.8
233.922,211
233.9867,284.5
234.0253,371.1
234.184,94.6
234.2153,598.4
234.4491,460.1
234.5095,483.4
234.5176,164.5
234.6925,241.5
234.6981,210.4
234.7993,112.1
234.8202,18.7
234.8941,8473.9
234.9514,678.9
234.977,406.2
234.9821,6626.1
234.9955,227.6
235.0413,485.5
235.0672,2852
235.0829,624
235.0932,21027.6
235.1117,98.6
235.1494,19.6
235.2497,93.7
235.2618,18.4
235.2779,100.5
235.3688,113.8
235.374,20.6
235.412,290.5
235.4166,606.6
235.4604,326.8
235.4894,358.7
235.5482,17.6
235.7089,544.4
235.7392,175.4
235.7525,124.3
235.7947,410.9
235.8694,92.9
235.8872,325.9
235.9166,134.4
235.9201,359.1
236.0172,20.1
236.0413,3160.3
236.0659,92.7
236.0723,40563.4
236.0964,253.6
236.5886,345.7
236.5934,374.2
236.6691,185.4
236.6786,163.2
236.7054,298
236.8127,19.6
236.8278,118.9
236.9985,580.1
237.0712,61.4
237.0755,1320.9
237.1037,889.7
237.2332,306
237.3201,177.5
237.4024,470.7
237.4164,386.8
237.4488,615.6
237.5531,239
237.6457,294.3
237.7807,292.5
237.7831,269.2
237.8944,128.5
237.9966,383.5
238.038,384.7
238.0448,348.4
238.068,508.5
238.1784,166.5
238.2374,91.4
238.2534,20.7
238.327,283.8
238.3423,89.6
238.3844,130.1
238.4117,423.6
238.5767,158.6
238.6405,181.4
238.6688,202.4
238.6937,219.3
238.6954,219.4
238.7878,25.3
238.829,233.7
238.8424,4362.4
238.8542,1147.6
238.9164,82.6
238.9379,337.4
238.9874,89
238.9994,463.4
239.0054,121.1
239.0498,458.6
239.0518,463.3
239.0645,311
239.0687,1027.5
239.0909,153.2
239.1914,90.7
239.255,20.9
239.3059,350.7
239.3285,77.8
239.5255,78.4
239.6643,18.1
239.6792,141.5
239.6827,754
239.8484,121.4
239.9749,249.1
240.0318,325
240.0607,19.1
240.1246,432.5
240.1375,95.2
240.3101,622.2
240.4037,350.6
240.5241,508.7
240.5452,152.6
240.7316,104.6
240.8015,194.3
240.8393,2177.4
240.8704,110.7
240.955,391
240.9677,1609.3
241.0313,485.7
241.1555,89.6
241.1867,419.8
241.2155,315.2
241.3128,225.2
241.3199,96.5
241.3238,240.3
241.3254,218.7
241.3269,93.5
241.3412,370.2
241.4652,157.7
241.4731,85.3
241.5317,134
241.5623,77
241.5686,16.6
241.7473,139.7
241.846,118.6
241.98,104
241.9987,1380.1
242.0195,1535.9
242.0693,326.6
242.151,555.3
242.5408,118.6
242.5871,256.4
242.6975,102.6
242.7771,235.7
242.7835,20.4
242.7875,165.9
242.8801,327.1
242.9149,96.3
242.9262,16567
242.9697,393.2
243.0239,302.8
243.0419,85.1
243.0537,3340.6
243.0659,14584.8
243.1652,329.5
243.2799,21.7
243.3263,124
243.3371,221.7
243.4108,183.5
243.5429,98.8
243.76,471.8
243.7629,764.4
243.8066,116.2
243.9301,145.3
243.9733,64.9
244.013,360.6
244.0456,206.4
244.0686,228.5
244.1039,416.2
244.1519,16.6
244.6322,18.6
244.6884,310.4
244.7568,91.6
244.7641,137.4
244.775,97.2
244.7938,83.5
244.8713,6419.4
244.9242,699.4
245.0066,27.5
245.013,146.1
245.0419,150.6
245.0468,225.8
245.0716,87
245.1043,98.5
245.1282,90.4
245.1746,502.2
245.2484,17.9
245.4152,91.8
245.4518,143.6
245.4854,96.2
245.5399,165.2
245.6123,163.6
245.6776,531.5
245.7808,115.4
245.7883,248.9
245.7975,428.4
245.8937,151.3
245.941,140.3
245.9579,120.4
246.0017,159.2
246.0117,23.1
246.0768,299.3
246.0841,661.6
246.1765,229.6
246.182,345.8
246.2053,400.3
246.2558,543.6
246.2814,94.9
246.3014,758.8
246.3224,135.7
246.3711,86.5
246.3816,312.7
246.7051,96.3
246.8683,687.3
246.9127,648
246.9444,127.9
247.0374,2049.2
247.0671,2104.2
247.0771,94.9
247.0932,6128.2
247.1229,409.4
247.1323,286.2
247.2015,663.9
247.2159,498.5
247.322,921.5
247.4708,332.8
247.4726,448.4
247.4743,434.2
247.4914,347.3
247.6952,262.8
247.7858,159.4
247.8626,115.6
247.8671,88.5
247.991,302.1
248.0128,125.3
248.0537,170.1
248.0965,58.8
248.1248,17408
248.1564,191.6
248.2254,495.6
248.2337,213.9
248.2913,604.2
248.2957,90.1
248.3255,334.4
248.3279,358.2
248.3926,73.1
248.4108,414.1
248.5971,179.4
248.6679,263.5
248.7529,108.8
248.7772,115.7
248.8713,11141.6
248.8868,431.3
248.905,631.5
248.9601,1813.6
249,562
249.0166,2631.3
249.0618,9253.2
249.073,18.8
249.1282,651
249.1446,111.6
249.2159,162.1
249.2522,288.5
249.3646,286.3
249.3973,768.2
249.4052,361.7
249.4788,202
249.5037,209
249.5481,478.5
249.6146,203
249.6762,118.4
249.7118,340.5
249.7204,746.4
249.7459,407.1
249.8685,769
249.9163,519.7
249.9296,161.6
249.9413,632.3
250.0322,95.2
250.0515,77.6
250.0665,629.6
250.0712,148.4
250.2471,16.7
250.2719,128.3
250.2941,136.7
250.3801,123.5
250.5448,297.1
250.6235,144.3
250.7157,687.1
250.8064,213.5
250.8342,365.6
250.8926,106.5
250.8968,449.1
250.9206,3604.8
250.9418,86.7
250.9562,807.7
250.9618,348.3
251.0015,97.9
251.008,432.3
251.0167,115.3
251.0346,1656.7
251.0427,114.9
251.0497,598.4
251.0563,475.1
251.1028,286.3
251.2325,207
251.2696,539.1
251.2756,645.3
251.3566,20.4
251.5375,707.6
251.6085,221.4
251.6554,533.8
251.7982,501.2
251.7998,551
251.8016,172
251.9828,180.4
252.037,214.3
252.0462,103231.6
252.0912,195.6
252.0968,115.9
252.1442,156.1
252.2546,301.4
252.3161,306.2
252.3442,103.9
252.4059,681.6
252.4194,241.6
252.4325,21.3
252.5969,120.6
252.6759,387.9
252.7206,125.6
252.7318,98.5
252.7865,240.6
252.8762,141.1
252.8976,356.2
252.9182,1662.8
252.9264,682.5
252.9391,123.1
252.9788,22.4
252.998,25.7
253.0189,246.8
253.0496,6776.2
253.2539,112
253.268,117.6
253.2886,140.3
253.2977,211.8
253.3427,373.2
253.3542,473.8
253.3871,100.7
253.3906,18.2
253.3918,20.2
253.7554,97.7
253.764,143.2
253.7764,101.4
253.7893,392.5
254.0278,153.2
254.0442,3795.2
254.1326,820.5
254.1383,306.3
254.2692,413
254.319,100.7
254.3773,492.7
254.3958,120
254.5781,323.4
254.5983,430.6
254.651,584.5
254.8163,1008.2
254.8246,6568.6
254.9383,170.9
255.0336,28724
255.0386,1414.7
255.047,630.4
255.0516,420.7
255.2545,292.9
255.2591,176.9
255.2725,512.3
255.2819,18.4
255.3892,84.5
255.4237,713.1
255.4333,106.4
255.4478,112.5
255.5381,117
255.5504,122.6
255.6801,328.2
255.8671,20
255.9179,91.4
255.9869,125.4
255.9966,1140.4
256.0403,140.5
256.0499,701.4
256.0588,92.2
256.0671,309.1
256.1231,311.8
256.173,273.1
256.2233,177.9
256.2561,315.8
256.2936,106
256.6145,114.7
256.6819,379.9
256.7902,17.3
256.8215,9102.2
257.0229,18.1
257.0281,116
257.0492,9852.8
257.0662,743.6
257.0752,65111.3
257.1057,82.7
257.3465,272.5
257.3838,107
257.592,20.1
257.6407,317.7
257.8144,97.1
257.8554,107.3
257.95,884.7
258.0029,532
258.01,101
258.0148,661.5
258.0282,28.9
258.051,15.6
258.0542,20.2
258.0747,181.3
258.0787,3118
258.0986,90.8
258.1109,15044.6
258.1952,181.1
258.2292,124.7
258.2429,368.7
258.2537,280.6
258.4849,126.2
258.5182,368.1
258.7031,24.2
258.7209,88
258.7472,407.1
258.7525,129.8
258.8055,132.3
258.8141,183
258.8186,3798.4
258.8715,135
258.9002,2887
258.9517,97.7
259.0183,115.7
259.0265,111.7
259.1115,218.8
259.4046,180.6
259.4832,792.7
259.6829,80.4
259.7906,364.4
259.8386,585.6
259.8568,17.9
259.9477,710
259.9658,519.8
260.0174,25.1
260.1519,328
260.2416,371.7
260.2827,19.2
260.7317,100.4
260.8452,1658.7
260.8952,167.9
260.9497,10064.8
260.9865,145
261.0463,711
261.0722,458.7
261.188,102
261.2012,562
261.2292,22
261.3436,194.2
261.3785,114.1
261.4391,878.3
261.5516,23
261.5917,460.1
261.6587,215.2
261.675,92.6
261.6871,232.6
261.7313,199.7
261.9537,216.2
261.9776,179
262.0729,82
262.0823,1923.5
262.1721,152.8
262.3043,263.3
262.4249,281.2
262.4729,98.3
262.483,138.4
262.5566,412.8
262.7293,268.2
262.7599,95.9
262.7751,142.6
262.8225,22.1
262.8783,141.3
262.9467,3340.4
262.9522,229.6
262.9897,114.1
263.0118,730.1
263.0409,132.5
263.0631,19.7
263.0856,1365.8
263.2367,157.6
263.3171,375.8
263.4074,129.9
263.445,316.2
263.5577,93.5
263.6693,345.3
263.7571,173
263.7658,324.3
264.0572,310.3
264.3393,437.1
264.4829,777.9
264.5345,791.5
264.5842,278.6
264.6036,22.3
264.7164,139.5
264.7412,357
264.7601,237.8
264.8114,413.1
264.8451,2318.7
264.8533,3289.8
264.8985,278.4
264.9341,5987.3
264.9736,1124
264.9855,678.1
264.9994,449.7
265.0169,283.4
265.0241,593.6
265.0359,5266.3
265.0479,4299.6
265.0826,682.2
265.2207,393.4
265.3712,150.3
265.4759,555.6
265.5224,166
265.6034,393.7
265.6406,313.1
265.7094,100
265.8362,774.2
265.8957,98.4
265.9764,134.4
266.0205,23.7
266.0513,394
266.0663,128.7
266.2404,584.9
266.3428,126.7
266.4291,591.9
266.4864,127.2
266.566,189.5
266.5785,133.8
266.8503,3457.3
266.8665,143.8
266.8728,154.1
266.8949,3410.3
266.9019,116.3
267.0138,126.8
267.064,116.8
267.1615,119.2
267.1734,404.9
267.2058,96
267.2675,140.9
267.3421,332.5
267.3546,563.8
267.4236,18.8
267.4574,141.6
267.6376,217
267.6841,746.3
267.7029,138.1
267.7564,594.5
267.7918,122
267.8684,884.1
267.9646,164.4
268.0149,27.3
268.0324,193.2
268.0897,94.9
268.1195,95.8
268.126,388.5
268.1284,423.3
268.1501,401
268.2488,19
268.2644,590.6
268.2866,196.9
268.322,534.7
268.5569,207.3
268.5875,243.8
268.5916,142.6
268.7237,266
268.7497,83.6
268.7592,84.7
268.8088,77.8
268.8469,594.8
268.8918,1219.6
268.9827,219.7
269.0128,26.9
269.0331,401
269.0387,204.9
269.0455,22999.7
269.0493,43362
269.0738,514.1
269.0812,104.8
269.1207,583.6
269.1846,102.6
269.2193,434.1
269.3107,928.6
269.4775,534.2
269.5474,100.5
269.5769,440.1
269.6222,184.8
269.6278,410.8
269.6348,498.8
269.7286,450.7
269.8223,161.4
269.8455,371.9
269.9476,202.1
269.9518,22
269.9945,2677.3
270.0254,587.5
270.048,33411.8
270.0917,154.7
270.1458,2000.9
270.2103,103.7
270.3191,113
270.3306,204.9
270.4246,307.8
270.4841,23.6
270.5075,281.4
270.5415,19.3
270.5882,319.5
270.6029,87.7
270.644,175.2
270.6961,79.6
270.7572,163.5
270.7984,3771.7
270.963,155.3
270.9665,108.5
270.9785,17746.1
271.0066,239.4
271.0243,560.8
271.0513,680.5
271.0651,476.2
271.0785,263.4
271.0908,1051.7
271.2426,108.2
271.3906,104.1
271.4251,341.5
271.5003,715.8
271.5919,293.4
271.6081,132.1
271.6328,88.4
271.7405,142.5
271.7615,418.2
271.8127,256.8
271.8453,122.5
271.9047,103.7
272.0075,410.8
272.044,171.5
272.081,262.1
272.0898,18.7
272.3228,90.9
272.3588,162.5
272.7954,3947.6
272.8242,113.4
272.8477,129.4
272.8786,375.4
272.9454,684.9
272.9529,158.9
273.0492,6406.7
273.0808,111
273.1389,723.2
273.2165,295.7
273.2888,168.8
273.3341,103.7
273.3475,140.8
273.3615,165.3
273.4534,23.6
273.5908,152.7
273.906,218.3
274.0697,155
274.0931,1438.3
274.2153,23.4
274.3785,694.7
274.3926,521.5
274.4314,192.2
274.6022,120.4
274.6511,173.7
274.7925,1365.5
274.8404,120.6
274.8822,515.2
274.9273,343.6
274.9657,544.1
275.0237,75
275.0323,773.5
275.0375,117.5
275.0628,267.4
275.1851,433.8
275.2099,291.4
275.2248,183.7
275.3002,317.7
275.31,637
275.365,499.3
275.4794,93.1
275.5152,231.2
275.5821,340.5
275.6898,238.6
275.8019,312.7
275.8497,365
275.8928,365.7
275.9117,275.6
275.9405,563.6
275.953,433.6
275.9639,192.6
275.9913,447.2
276.004,115.3
276.0228,118.6
276.0854,96
276.1427,584.4
276.3833,201.5
276.4501,335.6
276.4831,341.4
276.5161,770.6
276.5371,349
276.6588,19.3
276.6775,123.1
276.8718,17.4
276.9238,9961.2
276.9759,240.9
277.1103,72.5
277.1311,407.7
277.2062,487
277.2585,464.1
277.4188,111.7
277.4472,567.4
277.4575,85
277.4806,380.5
277.4922,602.5
277.8178,308
277.8442,77.5
277.9684,425.3
278.0006,22.4
278.0196,451.4
278.0268,24.2
278.1043,148.7
278.3376,21.1
278.5067,459.7
278.5337,293
278.5517,20.8
278.7013,20.4
278.7919,122
278.9122,131.7
278.9209,1925
278.9382,275.3
278.9818,379
278.9877,1434.2
279.0101,227.3
279.0221,22.6
279.0573,42233.7
279.074,412
279.1015,147.2
279.2552,108.9
279.2939,86.4
279.3832,75.2
279.4205,516.4
279.4491,213.6
279.5488,82.9
279.6119,89.9
279.6482,644.2
279.6648,94.2
279.6802,828.3
279.7268,703.5
279.7461,378.8
279.7718,661.9
279.8539,86.6
279.8559,139.4
279.8579,120.8
279.8637,96.8
279.8683,186.6
279.8822,497.2
279.9097,334.5
279.9786,406.8
280.0166,310.9
280.0266,405.1
280.0607,1674.4
280.0928,860.9
280.1981,19.4
280.246,592.4
280.2741,196.3
280.3327,219.3
280.3632,339.9
280.3822,501
280.434,400.6
280.466,100.1
280.4738,315.5
280.7234,254.1
280.7447,20.3
280.7509,135.3
280.7696,417.4
280.8123,98.7
280.8272,2064.4
280.8388,463.8
280.8528,113.5
280.9063,118.3
280.9113,418.2
280.963,2015.5
280.9978,143.2
281.0101,1174.9
281.0335,91.2
281.0521,80.9
281.0558,365.3
281.0896,323
281.1544,151.1
281.1733,21.3
281.214,110.2
281.4359,427.7
281.4733,120.4
281.4793,190.3
281.649,236.6
281.746,284.6
281.7528,154.8
281.8925,20.5
281.9421,246.6
281.9901,108.5
282.0152,228.1
282.0654,508.3
282.1388,26.3
282.1436,432.7
282.4525,133.9
282.5136,288.4
282.6028,422.2
282.6542,608.3
282.6839,119.7
282.8244,1129.8
282.8412,120
282.8687,1296.3
282.8968,268.6
282.9066,22.2
282.9506,344
283.0285,1670.9
283.0547,159.5
283.0689,54.5
283.1929,110.1
283.2031,318.5
283.2334,91.5
283.2637,54.5
283.2747,289.9
283.3568,122
283.3957,207.8
283.4426,95
283.6265,258.4
283.7683,71.9
283.8712,159.8
283.9834,504.5
284.0038,295
284.0535,227.6
284.0633,807.9
284.1305,99.7
284.2284,444.9
284.2355,385.8
284.2465,107.8
284.3716,268.5
284.4311,92.2
284.4611,196.6
284.5016,204.1
284.6169,104.3
284.7229,585.8
284.8655,437.3
284.9945,363.9
285.0535,361.8
285.0602,89.9
285.0868,21.2
285.1599,87
285.2451,239.9
285.2924,21.2
285.311,393
285.3164,20.3
285.3972,90.7
285.4912,290.6
285.5025,338.3
285.6642,80.2
285.7007,104.7
285.7088,179.6
285.7281,480
285.8158,136.9
285.9681,1082.8
286.011,405.3
286.0203,139.1
286.043,42.5
286.0609,375
286.0951,133.1
286.2312,269.2
286.3563,371.3
286.4084,548.1
286.4643,227.1
286.4994,145.6
286.5197,104.2
286.5817,782.7
286.7725,1740.2
286.9339,479.6
286.9527,8107
286.999,91.4
287.0388,448.4
287.056,46083.7
287.0658,100.2
287.101,3102.5
287.1535,418.8
287.4807,159.6
287.4862,87.3
287.4991,300.1
287.5339,86.6
287.5609,114.7
287.5774,298.1
287.6263,681.6
287.7723,153.1
287.9464,79.5
288.0022,491.1
288.0153,551.5
288.0226,473.8
288.0521,140.5
288.0589,1607.1
288.0853,179.7
288.1228,89.4
288.1562,20704.8
288.7696,3146.5
288.8452,341.1
288.85,631.7
288.8522,474.4
288.8581,1065.3
288.8619,1565.5
288.8689,5226.1
288.8725,4788.7
288.8828,5913.4
288.8878,7686.3
288.8925,7301.1
288.8997,9265.2
288.9073,12504.2
288.9084,12495.7
288.914,13828.6
288.9226,13130
288.9266,16251.3
288.9307,16507.1
288.9356,17425.2
288.9395,16945.3
288.9433,16968.3
288.9561,12729.4
288.9649,9066.2
288.971,6553.6
288.9787,2522.1
288.988,1990.4
289.0091,377.2
289.0141,188.7
289.0197,802.9
289.0628,409.1
289.133,417
289.1592,316.6
289.2569,385.3
289.3631,17.4
289.4986,220.8
289.5157,91.8
289.5201,314.4
289.6055,212.5
289.6438,231.4
289.8925,142.5
290.0107,23.8
290.101,47.3
290.2733,155.9
290.2762,174.8
290.3194,415.8
290.5186,113.7
290.5748,362.9
290.687,104.3
290.7461,292.5
290.7667,1046.3
290.8318,201.2
290.8565,734.9
290.8753,90.3
290.9617,126.2
291.0095,89.7
291.0272,4174.5
291.1261,272.5
291.1402,443
291.5456,868.9
291.6299,113.9
291.8089,340.9
291.8667,158.7
291.9629,86.4
292.0804,177.5
292.093,132
292.1729,640.6
292.3789,18.9
292.4045,183.1
292.5791,196
292.5967,19.9
292.8977,1341.7
292.9412,579.1
292.9567,141.6
293.0071,630.1
293.0731,4621.4
293.0989,400009.3
293.1557,81.5
293.1847,300.5
293.215,98.5
293.3311,621.5
293.4645,600
293.6582,222.9
293.6625,499.7
293.6769,100.3
293.7251,122.6
293.9091,577.8
293.9421,482
294.0149,28.2
294.0624,173.8
294.0713,220.6
294.0961,743.8
294.1023,33884.4
294.123,148.5
294.1388,685
294.3693,316.4
294.3905,87.3
294.4802,300.9
294.5568,208
294.6135,136.7
294.8043,23.2
294.8139,575.4
294.9913,482.2
295.0312,1520.4
295.0556,339.7
295.0861,470
295.103,2538.6
295.1952,14550.3
295.541,134.7
295.7586,89.1
295.9447,17.6
295.9782,17.7
296.01,712.6
296.033,115.9
296.1601,577
296.1989,1050.8
296.356,563.8
296.3619,87.5
296.5025,638.8
296.6352,444
296.6568,131.8
296.7928,104.2
296.8897,94.2
296.9081,138.4
296.9376,1169
296.988,253.3
297.0581,431.2
297.1674,178.8
297.1733,499.1
297.2814,634
297.3087,651.2
297.3637,191.7
297.3761,22.3
297.3824,96.7
297.4093,114.1
297.4792,99.9
297.4837,720.9
297.9978,238.4
298.0115,532.6
298.043,21232.6
298.1929,351.5
298.2976,233.5
298.3953,217.8
298.4229,124.1
298.4708,417.8
298.4855,198.2
298.5174,80.9
298.8167,19.2
298.9554,158.2
298.9871,180.1
299.0235,2671.7
299.0353,131.4
299.0464,788.3
299.1032,470.3
299.1403,627.4
299.1765,98.4
299.2179,290.4
299.2708,20.3
299.754,140.9
300.005,782.7
300.0388,284.5
300.0494,66.9
300.0761,487.9
300.3074,318.1
300.3282,566.3
300.3441,81
300.3837,152.5
300.5348,497
300.5605,367.1
300.5779,99.1
300.6404,190.7
300.6617,169.1
300.7049,367
300.773,114
300.7935,101.4
300.815,394.3
300.968,571.7
301.0393,27109.8
301.1415,661.6
301.2,20.2
301.2533,389
301.4565,114
301.4628,609
301.528,19.1
301.5568,141.9
301.7861,155.8
301.8261,130.3
301.879,694.9
301.9554,544.4
301.9939,254.9
302.0125,501.9
302.0206,44.2
302.0356,65.4
302.0415,549.1
302.0647,5015.7
302.0745,27.9
302.1681,107.4
302.3005,133.7
302.3582,146.6
302.5203,221.8
302.5253,549.3
302.5277,675.2
302.5297,526.2
302.6016,370.7
302.649,94.2
302.6966,105.9
302.7039,176.2
302.7054,185.2
302.7184,338.1
302.7327,322.1
302.7463,736.3
302.7591,87.6
302.78,195.7
302.7966,213.3
302.8303,1870.3
302.8578,173.7
302.9265,1702.7
302.9682,91
303.0248,756.4
303.068,436.5
303.0751,2937.3
303.2178,589.5
303.2328,134.4
303.3991,204.2
303.496,82.6
303.6547,214.1
303.6668,116.1
303.6715,123.9
303.716,175
303.7338,186.9
303.9213,427
303.9548,514.1
304.0603,179.7
304.1714,270.1
304.1973,150.8
304.255,171.4
304.3086,406.6
304.3623,613.4
304.3922,19.2
304.5009,78.4
304.5467,82.3
304.6896,116
304.7437,379.1
304.7505,21.2
304.7709,101.8
304.7879,110.8
304.8274,868.8
304.8429,259.2
304.9031,798.4
304.9294,401.4
304.9341,706.2
304.9542,20.5
304.9766,403.3
304.9994,149.3
305.0636,162.8
305.2912,345.1
305.5131,118.7
305.6749,21.3
305.7353,592.9
305.7786,132.8
305.9586,167.5
305.9669,347.6
306.0246,30
306.0963,121.9
306.1108,393.3
306.2489,20
306.6494,90.1
306.7364,403.9
306.7382,437.4
306.7399,364.4
306.8242,137.8
306.9028,164.1
306.9586,871.1
306.9779,2903.3
307.0175,269.3
307.0718,19.1
307.1517,85.5
307.1746,87.6
307.1943,22
307.2532,329.3
307.2744,99
307.3498,658.7
307.6168,343.6
307.6231,20.6
307.7216,502.8
307.8247,101.4
307.8446,22.9
307.8491,144.4
307.8851,345
308.0455,378.3
308.2195,545.4
308.3597,255.8
308.5311,329.5
308.6515,112.9
308.678,109.5
308.7682,88.6
308.8288,172.9
308.832,105.3
308.8797,3611.4
308.9466,111.5
308.9756,577.7
309.0068,325.2
309.0381,5446.7
309.0831,8885.1
309.1555,82
309.312,67.9
309.3324,257.9
309.4278,714.6
309.4949,89.1
309.5342,150.1
309.5514,19.4
309.7634,103.7
309.7856,644.3
309.7999,348.2
310.0439,154.3
310.0661,665.1
310.1385,362.3
310.18,564.2
310.2085,123.8
310.432,21.4
310.4607,370.6
310.5025,239.7
310.5076,92.8
310.5554,119.6
310.7103,203
310.8153,369.4
310.8307,474.3
310.8765,3050.5
310.8892,101.6
310.9073,116.7
311.0039,200.7
311.0093,355
311.0407,410.1
311.2284,375.7
311.3339,75.4
311.4199,503.1
311.4502,17.2
311.5933,116.8
311.6897,93
311.708,564.4
311.716,285.7
311.8606,282.4
311.8642,272
311.9321,214.7
312.0418,2041.7
312.0488,120.2
312.0587,494
312.0928,99
312.1988,106.5
312.2051,73.1
312.3031,780.5
312.3144,159.1
312.3697,136.6
312.4009,607.2
312.5625,21.1
312.6012,72.9
312.668,206.9
312.7336,728.6
312.7429,93.3
312.9339,169.3
312.9946,361.1
313.0027,118.5
313.031,128.2
313.2747,24227.7
313.4168,261.5
313.483,314
313.6407,481.8
313.7373,250.1
313.7592,426.9
313.7871,195.4
313.8402,147.4
313.8877,21
313.9256,535.8
314.0155,278.4
314.0207,687.6
314.0428,117.9
314.0916,214.1
314.2425,493.4
314.2779,1759.4
314.365,85.1
314.4557,266.1
314.473,675.4
314.5412,107
314.5663,126.5
314.6112,164.1
314.6758,95.4
314.7197,280.6
314.761,131.2
314.7901,120.5
314.8376,7509.1
314.9022,204.2
314.9191,689.6
314.9572,371.1
314.9891,409.2
314.9998,7039.1
315.0051,2696.3
315.0143,450.2
315.018,142.8
315.0343,623.3
315.0462,556.6
315.0482,695.9
315.056,9174.4
315.0581,4671.7
315.0628,7465.2
315.067,20212.2
315.0702,25003.1
315.0719,19921
315.0809,9053922
315.0887,21906.3
315.091,15474.3
315.0932,9434.5
315.0952,9165.6
315.1029,5123
315.1087,2777.4
315.1173,528
315.1263,322.8
315.1371,187.2
315.1453,157.3
315.1543,109
315.162,7082
315.1709,94.1
315.2612,152.9
315.3244,8421.7
315.3546,93.1
315.3979,18.3
315.4163,623.3
315.4317,90.3
315.4872,686.1
315.5142,148.4
315.5171,151.8
315.5958,186.5
315.6213,661.3
315.7134,18.1
315.8461,18.8
315.9286,96
315.9496,86.3
315.9658,133
316.0535,77.3
316.0684,1644.8
316.0783,52623.9
316.0842,958983.5
316.1121,401
316.2224,301.8
316.3998,125.5
316.4231,142.6
316.4419,378.7
316.5061,20.5
316.7765,80.1
316.8812,527.3
316.9802,97.9
316.9875,3277
317.024,842.5
317.0569,689.4
317.0658,2353.2
317.0733,139.7
317.0848,107636.8
317.0979,101.3
317.1204,298.9
317.1324,178
317.1793,673.3
317.4838,342.1
317.8253,22.9
317.877,476.3
317.9252,95
318.0226,582.9
318.0374,362.7
318.0758,22.8
318.0883,11017.4
318.115,334.7
318.2701,343.6
318.3148,160.6
318.3993,80.7
318.4543,110.4
318.4931,363.5
318.5879,334.1
318.6904,21.1
318.78,190.5
318.7927,20.1
318.8042,2100.5
319.0806,264
319.1144,20.2
319.127,155.3
319.1954,38407
319.2143,153.2
319.3666,288.5
319.4881,19.7
319.7035,392.1
319.9268,791.5
319.9566,427.3
320.0751,125.9
320.1165,84.5
320.126,277.8
320.1428,219.5
320.1533,627.3
320.1986,6372.8
320.2594,1980.1
320.3308,303.1
320.3854,477.6
320.4466,337.4
320.5769,121.6
320.7061,148.8
320.7828,237.6
320.802,499.2
320.8704,356.7
320.8915,86.4
321.2112,28747.1
321.2456,319.1
321.2625,147.6
321.3057,275.9
321.6159,385.3
321.6544,601.9
321.7266,208.1
321.7966,17.9
321.821,822.6
321.8357,103.3
321.9553,18.7
322.01,377.8
322.0952,93.8
322.2144,3700.7
322.3245,21.2
322.4273,564.8
322.4745,99.8
322.483,91.8
322.9322,700
322.9577,563.9
323.0212,10498.5
323.0472,279.9
323.2266,5121.8
323.2627,215.3
323.3805,197
323.7219,106.9
323.8696,348.3
323.9865,193.7
324.0062,166.2
324.0578,79.8
324.1386,88556.1
324.2551,80.4
324.3246,506.6
324.5001,373.4
324.5073,234.4
324.6021,1175.6
324.608,1740.9
324.6107,1706.2
324.6199,5472
324.6295,2472.4
324.6392,922.5
324.6461,239.1
324.7685,208.7
324.8536,1718.1
324.904,132.2
324.9297,306.6
324.9651,93.8
325.0569,3753
325.0855,18.4
325.1419,10227
325.1659,168.5
325.1776,324.7
325.2124,1761
325.2488,89.2
325.3072,672.8
325.6484,18.3
325.6947,601.3
325.7331,292.9
325.7763,102.1
325.9074,18.9
325.9884,372
326.0054,23.1
326.0154,134.6
326.0976,83.7
326.3759,499.1
326.52,20
326.8314,439.5
326.851,2329.9
326.9053,178.1
326.9193,165.6
326.9483,201.1
327.0162,4853.1
327.0245,202.1
327.0523,1344.6
327.1729,119.6
327.2281,3819.6
327.2369,97.8
327.3889,251.6
327.4392,91.5
327.4483,219.3
327.5668,637
327.7588,493
328.0967,119.7
328.1904,371.2
328.2309,796.4
328.3021,153.8
328.3611,652.4
328.4147,296.2
328.4436,778.2
328.4546,25.9
328.4651,647.1
328.4675,761.8
328.4856,516.7
328.5212,18.8
328.5687,318.3
328.6748,337.2
328.6935,152.8
328.7979,82.5
328.8476,410.9
328.9233,196.1
328.988,94.7
329.0202,856.4
329.0356,314.3
329.0533,117.2
329.0967,3756.4
329.2915,149.9
329.3448,636.7
329.5364,236.5
329.5726,21.6
329.7222,407.4
329.9953,178.1
330.0282,236.3
330.0598,344.6
330.0806,92.9
330.101,169.9
330.1807,77.9
330.2282,92.2
330.4759,593.1
330.6265,129.6
330.6988,74
330.7753,266.7
330.8593,80.8
330.9558,17.1
331.001,22.1
331.0204,1151.1
331.0461,155409.7
331.0549,1374123.1
331.0945,89.7
331.1419,254.2
331.2428,187.6
331.3165,90.9
331.4222,173.8
331.6013,102.5
332.0488,11363.3
332.0582,125429.7
332.182,479.2
332.571,20.6
332.7158,93.3
332.8016,88.7
332.8824,234.2
332.8907,300.9
332.9002,209.6
332.9611,370.6
333.0415,100.8
333.053,79044.4
333.0583,12763.1
333.2113,85.8
333.2151,85.2
333.2389,624.6
333.6468,128.3
333.6909,524
333.7055,264.5
333.8277,461.2
333.9107,326.3
333.9198,804.5
333.9587,251
334.0399,137.1
334.0564,7336.9
334.0628,452
334.0911,59.9
334.224,182.6
334.3766,426.4
334.5118,149.4
334.6309,323.8
334.6668,131.4
334.7647,316.9
334.979,533.4
335.0208,493.4
335.0389,660
335.1312,331.3
335.1386,195.6
335.251,275.3
335.3229,21.5
335.4194,89.9
335.5776,243.1
335.5995,313
335.7205,181.6
335.7639,106.2
335.8001,18.4
335.8259,203.7
335.8887,257.9
335.9182,146.8
335.9595,510.6
336.0513,404.9
336.1151,680.2
336.1843,234.8
336.455,1041.5
336.5087,194.4
336.5903,19.6
336.6943,234.2
336.7879,347.2
337.037,13810.5
337.0505,21642.6
337.0629,816276.1
337.1311,1158.2
337.1574,608.4
337.2748,7354.6
337.3196,225.3
337.367,107.1
337.5311,370.5
337.6415,119.3
337.7279,80
337.7709,18.3
338.0092,17
338.04,90.4
338.0509,183.6
338.0663,74159.1
338.1688,19
338.2472,374.9
338.2792,1082.8
338.343,26.2
338.36,269.7
338.3919,297.4
338.4074,159
338.5351,234.7
338.7116,21
338.8639,611.6
338.9214,2502.3
338.9983,441.8
339.0101,103
339.0247,134.3
339.039,2733
339.048,1364.6
339.0666,7287
339.1041,114.2
339.2349,808.5
339.2512,744.8
339.2905,6425.4
339.3334,89.3
339.3426,115.2
339.351,18.4
339.3663,190.3
339.5363,439.2
339.6019,146.6
339.665,329.3
339.6888,73.3
339.7876,748.7
339.9321,214.7
340.0425,105.9
340.0711,247.8
340.1177,82.9
340.1266,330.6
340.1672,188.1
340.174,460.9
340.4692,170.5
340.7124,242.5
340.7639,688.5
340.783,833.1
340.7897,526.3
340.8967,281.5
341.0712,161.1
341.0799,97.3
341.2116,21.4
341.2236,203.9
341.2425,422.1
341.3057,1877.9
341.4794,118.7
341.5822,19.2
341.6466,127.6
341.81,280.2
341.9388,20
342.0161,19.4
342.0467,17.7
342.0697,39.4
342.0894,3258.7
342.2313,129.6
342.2939,98.3
342.398,95.4
342.7247,117.5
342.8254,663.8
342.8493,104.5
342.9191,650.2
342.9902,1566.4
343.0025,316.8
343.1955,13668.6
343.257,95.1
343.3054,487.7
343.4025,120.2
343.5002,119.4
343.566,613.1
343.6466,137.2
343.6892,316.2
343.7168,679.7
343.7801,383.3
343.7889,169.4
343.9136,92.1
343.9878,171.2
344.0379,269.2
344.105,8936.4
344.1603,160.8
344.1991,927.1
344.294,79.6
344.3151,224.8
344.432,165.7
344.4481,716.5
344.5191,115.6
344.7863,216.3
344.897,108.8
344.9499,117.4
344.9688,102.2
345.0651,627
345.114,194.6
345.2107,1279.4
345.2504,172.5
345.3019,296.9
345.312,83.3
345.9842,528.2
346.0744,426.9
346.0806,146.2
346.1207,944847.1
346.1757,20.4
346.1928,337.4
346.2125,220.1
346.2682,19.3
346.2889,92.4
346.4507,613.2
346.4789,383.5
346.7146,23.1
346.7341,141.6
346.8578,21.1
346.9038,23.4
347.0305,843.5
347.091,424.5
347.124,135548
347.2156,17.6
347.4339,612.5
347.4889,108
347.7459,532.8
347.9118,134.2
348.0803,371.4
348.1165,34557.9
348.1276,1257.4
348.1447,568.8
348.1779,647
348.2024,123.3
348.2264,207.8
348.3427,796.7
348.4151,116.6
348.4599,202.3
348.6357,82
348.6891,79.2
348.8003,755.8
349.0171,606.8
349.1203,2769.9
349.1871,500.5
349.3843,68
349.4626,659
349.4954,774.4
349.7042,271.3
349.9669,651.2
349.9878,182.8
350.0117,359.9
350.0194,878
350.121,649.1
350.1381,153
350.2618,577.6
350.3455,532.6
350.4118,123.8
350.6845,110.1
350.7288,104.1
350.8118,515.5
350.8186,20.3
350.8933,357.3
351.0158,590.1
351.0755,209.5
351.25,297.2
351.4358,395.1
351.4835,108
351.6456,292.6
351.8015,17.8
352.0388,23.7
352.1756,212.7
352.2035,561.4
352.4131,721.1
352.5225,461
352.6098,106.3
352.6415,213.6
352.6688,165.7
352.7674,141.4
352.8781,106
352.9979,124.2
353.028,174771.4
353.0369,263033.1
353.069,409.2
353.1029,145
353.1835,436.8
353.1996,18.7
353.2871,467.8
353.3375,582.1
353.3535,116.7
353.397,677.3
353.4842,90.2
353.7728,260.8
354.0312,13695.3
354.0403,24028.5
354.1613,155.1
354.326,151.3
354.3452,153.4
354.4339,723
354.5179,142.7
354.6275,421
354.6813,126.1
354.7375,125.3
354.7805,504.3
354.7969,96.5
355.0128,2561.3
355.0229,230
355.0352,15487.6
355.0712,300.9
355.1691,564.8
355.1885,721.7
355.283,408.8
355.3132,124.2
355.441,205
355.5428,506.9
356.0101,18.7
356.0164,88.3
356.0391,434.5
356.0952,17.8
356.1852,119.8
356.2655,587.6
356.6248,18.2
356.785,425.1
356.8374,454.2
356.8708,91.7
357.0095,879.8
357.0205,403.5
357.2475,361.7
357.2965,184.1
357.3054,341.2
357.4157,204
357.6173,596.3
357.6446,513
357.659,114.8
357.7135,613.3
357.7361,153.1
357.8212,301.7
357.9045,83.1
358.0099,59.6
358.0635,410
358.0697,112.1
358.2068,700.9
358.2416,584.9
358.3577,168.7
358.3719,323
358.3773,384.9
358.6244,200.2
358.6565,167.5
358.6902,99.4
358.9476,167.4
358.9803,90.3
359.0083,614
359.0324,13364.6
359.0449,480672.4
359.0658,182.1
359.1314,169.5
359.1548,227.8
359.3208,514.9
359.3603,415.6
359.3722,19.1
359.3784,214.5
359.3998,318.2
359.4079,547.3
359.4149,149.9
359.4287,570.4
359.4376,496
359.4506,164.4
359.4649,1266
359.4741,91.1
359.4995,472
359.5076,469
359.512,452.9
359.5161,489.1
359.5199,587.2
359.5271,118.9
359.589,197.1
359.6978,104.9
359.7138,84.6
359.834,239
359.8989,17.7
360.0118,30
360.0482,42832.4
360.0627,94.8
360.0786,2236.5
360.1171,128.2
360.1943,83.3
360.3252,260.3
360.4282,474.6
360.5438,429.9
360.8532,379.5
361.0211,5832.9
361.0306,146.4
361.0486,2856.5
361.0956,17.7
361.1358,178.3
361.2749,1509.4
361.3278,25.8
361.403,359.5
361.4287,304.9
361.808,360.2
361.9539,133
361.9962,159.3
362.0069,329
362.0852,1895.2
362.0946,236363.1
362.1154,1430.8
362.1576,141.1
362.2455,141.1
362.2607,952.8
362.2784,198.3
362.3166,286.7
362.5615,360.9
362.5767,95.7
362.7138,73.6
362.927,571.1
363.098,31366.6
363.1215,397.2
363.2401,350.6
363.3407,143.6
363.536,126.4
363.6366,145.7
363.7949,545.5
363.9016,308.3
363.9294,200.7
363.9696,81.1
363.9993,1464.9
364.0933,5034.7
364.1016,302.2
364.1101,127.7
364.1925,122.1
364.5023,382.1
364.5053,377.2
364.7352,17.9
364.7693,881.3
364.8314,105
365.1068,1008.9
365.3502,187.2
365.6842,432.9
365.8583,366.9
365.9776,85.1
366.0867,1437.1
366.0942,548.1
366.1527,519.4
366.1658,83.9
366.2311,657.1
366.3777,178.3
366.6906,657.6
366.8159,122.8
366.8741,610.2
366.9376,368.6
367.0037,141
367.0514,358.6
367.1099,89.1
367.1222,1542.3
367.1958,3418.1
367.3097,292.2
367.3791,155.7
367.4095,568.1
367.477,376.7
367.8348,108.1
367.9139,351.3
367.9917,920.3
368.1027,165087.9
368.138,106.4
368.2751,351.5
368.43,370.6
368.5403,161.5
368.7353,112
368.9608,82.3
368.9929,4554.2
369.002,23089.8
369.0109,9384
369.106,22917.8
369.2125,467.7
369.2372,320.5
369.3529,25.6
369.3896,144
369.4027,163.7
369.6721,85.8
369.7423,127.5
369.8301,82.6
369.8847,539.4
369.9699,319.9
370.005,510.1
370.0984,5368.1
370.1097,394.6
370.2259,125.2
370.2579,497.8
370.2747,218.8
370.3072,724.8
370.32,121.6
370.3583,738.5
370.6435,113.2
370.6563,130.4
370.7901,124
370.9655,94.6
371.0005,155.2
371.1976,19.7
371.6368,249
371.6753,155.9
371.7792,96.6
371.9816,293.7
372.0161,331.5
372.1261,86.7
372.3511,366.2
372.3885,94.3
372.5544,356.8
372.6107,389.7
372.81,344.6
372.8168,807.8
372.9575,122.4
373.263,310.5
373.2925,222.4
373.3924,226.8
373.4134,18.9
373.429,18.4
373.4492,530.2
373.6252,182.5
373.9111,182.3
373.9327,23.1
373.9619,235.4
374.0784,391.6
374.1777,968
374.2178,88.6
374.7356,726.2
374.7471,607.1
374.8264,263.9
374.9422,99.4
374.9498,21.4
375.01,160700
375.0189,142586.1
375.1847,320.3
375.1943,105.5
375.3781,154.6
375.4856,379.6
375.5266,606.9
375.5821,664.7
375.7315,153.7
375.8222,465.9
375.9097,24.9
376.0131,12052
376.0222,12472
376.1153,401.5
376.1255,195.4
376.1829,94.9
376.2606,130.2
376.2941,269.7
376.3034,339.1
376.3643,2114.2
376.3736,110.2
376.3997,20.5
376.6421,98.6
376.9037,203.4
376.965,94.2
376.9792,126.5
376.995,2004.8
377.0173,6516.7
377.1013,132.9
377.288,389.7
377.4181,552.3
377.6211,363.5
377.7508,835.4
377.9743,330.7
378.0551,101.8
378.1811,101.1
378.3355,313.9
378.369,91.4
378.5151,142.3
378.5786,358.9
378.6664,338.3
378.9635,111.1
378.9916,141.5
379.3188,99.2
379.4259,263.3
379.6573,241.6
379.6859,414.4
379.7385,692.8
379.8101,255
379.8607,423.7
379.9025,353.2
379.9153,291.7
379.9547,90.4
380.0389,235.5
380.0852,216.6
380.0962,3145.3
380.2443,557.9
380.2834,348.3
380.7849,126.6
380.9206,359.9
381.0145,21986.8
381.0269,247872
381.1092,434.5
381.1869,298.8
381.2019,341.3
381.2102,451.4
381.2217,144.7
381.2564,195.8
381.2663,19.4
381.7905,370.6
381.8254,158.7
382.0303,22660
382.1114,188.1
382.3342,811.9
382.3671,185.2
382.4675,873.5
382.5348,521.5
382.5453,20.3
382.6647,467.2
382.768,1096.4
382.8039,225.9
382.8558,20
382.8753,162.6
383,156
383.0318,590.8
383.1171,245750.9
383.2851,80.6
383.4249,90.8
383.4497,446.4
383.9305,100.6
384.0766,78202.9
384.1206,30045.1
384.3581,217.1
384.5406,105.9
384.6849,97
384.7224,114.2
384.9155,20.8
385.0062,594.6
385.08,8178.7
385.1213,1843.3
385.1533,428.9
385.2595,343.4
385.2741,175.3
385.3076,533.2
385.3329,436.7
385.4644,415.9
385.57,218.8
385.6258,20.4
385.9568,21
385.9638,19.3
386.0748,3036.9
386.149,222.7
386.3029,129.4
386.6419,188.7
386.6575,560.6
386.6928,71.5
386.7675,19.2
386.8689,94.5
386.969,862
387.0032,2394.4
387.1786,720.6
387.3104,661.3
387.5472,19.1
387.565,20.3
387.8852,130.5
387.9214,248.5
388.0524,144.7
388.226,148.4
388.2798,281
388.422,103
388.4586,216
388.5375,136.9
388.618,388.7
388.7134,1309.4
388.7951,220.3
389.0922,442.7
389.185,120.3
389.2138,302.7
389.2505,443
389.3461,298.1
389.6262,85.3
389.8599,189.8
389.9007,165.9
389.9745,1665.9
390.1788,84.9
390.249,160
390.7104,949.9
390.7655,143.6
390.791,134.8
390.7993,598.3
390.8723,439.9
390.8804,189.3
390.888,220.2
390.9027,421.9
390.9133,185.1
390.9748,13239.1
390.9839,30416.1
390.9929,16006.3
391.0152,19.8
391.0358,419.7
391.5653,172.5
391.732,161.1
391.8399,524
391.8758,387.9
391.9486,75.5
391.9805,755
391.988,365.3
391.9963,190.1
392.1148,455.1
392.2984,23.1
392.4713,197.3
392.7191,354.7
392.7694,381.8
392.7965,1860.3
392.8824,20.1
392.9175,285.1
392.9603,51.9
392.9673,85.4
392.9842,144.5
392.9909,274.6
393.0709,288
393.0901,106.6
393.4289,825.2
393.5527,636.8
393.6866,114.5
393.7151,751.3
394.0716,152.2
394.1216,167.1
394.1898,99.2
394.261,154.8
394.2873,109.8
394.3468,350.3
394.4102,334.2
394.4463,79.9
394.8012,290.4
394.8228,344.6
394.8961,567.9
394.9555,21.8
395.0114,322.8
395.0811,156.4
395.1456,92.3
395.5588,604
395.6795,97.5
395.8492,19
396.0812,290.7
396.4401,28.9
396.7462,449.1
396.9691,467.9
396.992,194303.3
397.0008,79933.4
397.6545,480.1
397.9952,17381.4
398.0041,4553.1
398.012,663.1
398.0732,20.7
398.1728,373
398.2048,688.8
398.2426,12685
398.3091,601.6
398.5073,267.2
398.7164,499
398.7422,2542.7
398.7632,802.2
398.8505,153.7
398.8574,403.7
398.8955,217.5
398.9763,51.7
398.9994,2315.9
399.1772,86.6
399.218,18.1
399.2456,918.2
399.6515,329.4
399.9841,645.1
400.0505,20865.6
400.1137,65.6
400.1488,664.8
400.2192,356
400.6919,236.7
400.7397,637.2
400.8278,160.9
400.9849,871.6
401.054,2221.7
401.269,94
401.4533,326.7
401.5591,299.6
401.6731,213.6
401.7675,473.2
402.0493,1847.6
402.1238,87.1
402.5056,406.4
402.5429,427.2
402.636,322.4
402.8255,1157.7
402.9516,68.4
403.0089,274969.3
403.028,396.7
403.0349,101.7
403.1842,774.7
403.4593,338.2
403.6488,197.8
403.9858,80.6
404.0122,25623.5
404.0449,221.7
404.055,497.5
404.1258,181.1
404.1517,69.4
404.2782,359.8
404.4891,110.5
404.5561,97.9
404.6628,547.2
404.9009,188.8
404.9146,91.1
404.9717,118.7
405.0133,801.7
405.1025,257
405.6287,446
405.6641,126.4
405.71,110.3
405.9488,479.7
406.1847,525.3
406.24,188.5
406.3302,1193
406.3975,516.2
406.6186,162.2
406.7323,130.6
406.7727,991.1
406.7943,91.7
406.8961,524
407.0317,145.6
407.0629,216.9
407.0934,80.8
407.2681,91.3
407.3365,384.8
407.4516,568.5
407.6681,93.7
407.7621,128.7
407.806,127.4
407.88,171.7
408.1243,119.9
408.3023,605.3
408.3621,223.8
408.5563,154.5
408.6601,173.5
408.6815,383.5
408.771,1732.3
408.7828,609.9
408.9852,3630.7
408.9953,484.8
409.0522,871.3
409.1188,256.2
409.1391,163.4
409.2518,108.9
409.4388,334.8
409.4892,337.6
409.8964,145.6
409.9276,110.1
409.9412,249.5
410.0036,271.8
410.0471,429.5
410.1485,19.5
410.2321,196.6
410.2523,17.8
410.3059,98.2
410.4178,294.1
410.4389,18.7
410.493,246.6
410.5014,350.1
410.5682,20.5
410.626,569.5
410.6872,266.5
410.7277,103.1
410.7628,106.6
410.7705,348.1
410.9707,76.2
411.0918,131.7
411.1064,134.3
411.1361,502.3
411.2363,141
411.2812,88.9
411.5007,539.6
411.9882,108.8
412.1596,667.8
412.2695,113.5
412.2904,773.3
412.3222,1463.7
412.9659,35552.4
412.9748,12464.2
413.0669,19.7
413.0789,640.7
413.2222,405.8
413.2673,3433.3
413.3253,266
413.4536,19.4
413.5247,19.1
413.6339,148.6
413.6568,105
413.6737,199.8
413.6996,162.5
413.8277,82.8
413.9686,352.7
413.979,136.9
414.03,135.4
414.0638,490.6
414.1323,103.1
414.1662,629.1
414.2706,279.4
414.5476,23.7
414.6442,17.6
414.6525,391.9
414.717,585.2
414.8342,104
414.9736,324
414.9983,1625.9
415.0385,20.4
415.1276,247.9
415.1473,765
415.1922,262.9
415.2416,377
415.4564,201.7
415.5753,325
415.6746,94
415.7065,21.9
415.9479,440.6
416.1361,12596.2
416.2151,28474.4
416.2567,275.5
416.2909,95.7
416.6418,113.6
416.6699,20.2
416.7744,131.9
416.7831,279.3
416.8022,579.1
416.8731,427
416.9605,393.7
417.0044,452.1
417.0914,113.5
417.141,100.8
417.2182,3003.2
417.3013,516.2
417.3711,20
417.6948,175.5
417.6993,174.1
417.7837,19.1
417.8138,89.4
417.9092,113.7
417.9914,349.2
418.0337,155.8
418.2596,228
418.2728,191
418.4018,593
418.4109,381.7
418.4796,182.2
418.8049,105.9
418.9828,93726.4
419.0728,881.7
419.1262,93
419.2195,80
419.297,205.3
419.5072,153.4
419.5212,587.2
419.7998,196
419.9757,21.1
419.9862,4333.9
420.1559,101.9
420.176,356
420.2483,196.3
420.6177,113.6
420.8708,161.7
420.886,952.2
420.9011,302.6
420.9589,637
420.9812,2830.9
421.007,384.5
421.1554,20
421.204,160
421.2919,19
421.3722,711.8
421.7297,502.6
421.8989,378.4
421.9262,398.5
422.1123,139.1
422.1555,153
422.3045,39.2
422.4484,821.9
422.7756,570
422.8843,566.7
422.9544,23.5
423.0132,22
423.4022,781.8
423.6333,194.6
423.688,351.9
423.8632,364.5
423.9402,74.1
424.017,113.7
424.3197,134.5
424.3613,19.9
424.4823,19
424.7062,193.1
424.7443,710.8
425.2928,112.1
425.4025,416.2
425.4283,242.7
425.606,88.2
425.666,100.2
425.7503,405.3
426.0436,246.2
426.0609,1272.8
426.1493,763.9
426.3593,712.7
426.5558,113.6
426.6556,83.6
426.7101,211.6
426.7148,309
426.931,103.8
426.9737,489.9
426.9965,131.5
427.1268,418.7
427.1669,202.5
427.4113,120.6
427.8794,232.8
427.9165,21.1
428.0447,454.1
428.0743,94
428.3689,215.3
428.6304,186.7
428.7855,444
428.8888,157.5
428.9396,1924.5
428.9694,20.8
429.0007,383.9
429.0162,531.3
429.0342,510.4
429.0461,390.9
429.0899,84.2
429.1306,353.6
429.2319,527.3
429.2415,23.2
429.2698,68.2
429.4056,198.2
429.7523,127.6
430.094,104.6
430.1137,89.3
430.2588,20.3
430.3319,668.1
430.5335,355.5
430.7534,21.1
430.7788,684
430.9056,76.6
430.9162,605.5
430.9326,19.8
431.0366,300.1
431.2177,653.4
431.7912,82.3
431.9072,110.8
431.9487,362.4
432.1713,375.5
432.2152,93.5
432.2312,20.8
432.5198,102.1
432.5635,90
432.6294,115.1
432.8999,19.2
432.9675,503.3
433.0043,150.2
433.352,733
433.6918,90.6
433.6982,83.4
433.8727,244.3
434.0177,260.2
434.5271,363.4
434.6029,557.3
434.6487,209.3
434.7392,93.4
434.7648,85.7
434.8818,115.3
434.9569,16710.6
435.1265,597.4
435.2568,232.1
435.3025,87.1
435.4825,245.1
435.7237,102.8
435.8089,120.4
435.9118,198.2
435.9605,387.8
436.0011,18.4
436.0155,198.4
436.0273,240.4
436.0903,687.5
436.1202,829.6
436.3397,238.9
436.3563,92.6
436.4016,18.2
436.472,106.3
436.6225,344.5
436.7004,237.1
436.9318,643.5
436.9567,759
437.205,467.3
437.5926,350.9
438.1514,165
438.2071,625.3
438.4486,302.1
438.6166,137.2
438.6368,177.1
438.9593,98.6
438.973,1742.4
438.9856,5855.4
439.0628,403.7
439.2658,307.5
439.6456,763.3
439.8123,119.7
439.9368,352.8
440.2253,149.6
440.2577,138.3
440.438,20.6
440.6618,115
440.7261,389.8
440.8219,93.5
440.9825,546.6
441.0892,181.4
441.299,187.6
441.3532,131.4
441.4603,97
441.7111,524.7
441.7955,300.3
441.8388,710.9
442.0355,1103.1
442.2845,404.4
442.3024,39.3
442.5224,18.1
442.7672,320
442.8755,794.3
442.9671,120.2
442.9848,362
443.0902,161.9
443.4252,284.6
443.503,19
443.5806,20.2
443.685,87.4
443.8397,663.1
444.016,410.3
444.0381,830.2
444.1648,132.4
444.3541,541
444.3619,346.7
444.3873,122.6
444.5867,923.1
444.6052,91
444.6685,439.5
444.8231,299.3
444.9389,195.1
445.0766,347.9
445.0894,92
445.2458,387.8
445.5452,119.6
445.5748,362.2
445.5841,449.2
445.6277,341
445.7882,375
445.869,697.6
445.9443,283.1
446.128,427.8
446.3114,17.7
446.4216,190.1
446.5654,169.4
446.6438,691.2
446.7251,19.9
446.7871,105.6
446.8867,171.2
446.9833,127.5
447.1192,98.5
447.3517,607.6
447.5822,181.3
447.8626,92.9
447.9144,609.7
448.1282,110.4
448.2517,542.8
448.3238,18.3
448.4133,93.4
448.5118,21.4
448.5795,83.5
448.755,522.1
448.7708,207.9
448.9336,6345.8
449.0201,1180.9
449.0366,24
449.1093,112.7
449.1552,1584
449.249,336.8
449.3291,323.8
449.3798,144.1
449.4634,191.2
449.8236,91.5
450.0846,87.3
450.0973,94.6
450.1589,325
450.3657,664.2
450.3967,212.9
450.7403,679.5
450.7557,395.6
450.9311,765.1
451.0269,215.7
451.0528,128.5
451.1512,118.3
451.1647,19.2
451.4683,331
452.0637,630.2
452.5073,284.3
452.5652,793.8
453.1416,174.6
453.4283,443.9
453.468,22.9
453.588,116.1
453.7289,17.5
453.7692,247.1
453.9245,19.1
454.3928,411.3
454.4139,211.7
454.7253,391.4
454.8451,1229.6
454.9507,40583.2
455.0474,17.9
455.0757,730.4
455.2557,559.7
455.4293,120.1
455.7567,118.5
455.7669,185.1
455.9538,1864.4
456.2524,256.5
456.3032,21.8
456.7405,159.6
456.9478,11767.2
457.0101,132.2
457.2338,5421.2
457.4174,20.1
457.5487,870.7
457.5834,518.8
457.6264,345.9
457.7952,602.6
457.8778,18.1
457.9541,656.4
458.1502,366.2
458.2368,518.6
458.4281,282
458.6977,505.1
458.9618,4260
458.9787,654.6
459.0578,262.6
459.1277,178
459.2494,251708.7
459.5628,102.6
459.903,175.3
459.927,139.7
460.2529,51751.2
460.3777,358.1
460.6283,133.2
460.7949,166
460.9453,189
460.9675,82290.9
461.121,414
461.2263,149.2
461.2561,1252.7
461.2657,91.7
461.2796,325.3
461.4859,21.5
461.5914,380.4
461.6574,181.9
461.8685,73.6
461.9152,527.6
461.9476,21.1
461.9711,4932.6
462.2035,21.8
462.2634,164.8
462.8299,126.3
462.8939,190.3
462.9646,20515.4
463.3956,91.8
463.5772,166.3
463.6852,442.3
463.9683,1202.6
463.9884,196.5
464.225,351.6
464.3155,907.3
464.3374,153.8
464.7337,585.4
464.7963,266.1
464.9084,322.7
464.9588,626.2
464.9796,11243.2
465.014,86.8
465.048,85.2
465.2806,77.1
465.4626,388.8
465.6019,123.3
465.6363,771.2
465.6799,132.5
465.8447,19.3
466.5506,192.7
466.9668,89.8
467.0397,696.7
467.1957,280.8
467.2279,73.3
467.2565,121.7
467.2726,197.8
467.9553,205.9
468.1124,349.5
468.2763,405.5
468.3107,282
468.7454,157.8
469.0451,349.7
469.142,46.4
469.275,759
469.2983,92.8
469.3171,186.5
469.479,17.5
469.5699,327.1
469.5902,196.7
469.6998,90.3
469.7172,403.7
469.8081,635.1
470.1973,148.6
470.4157,142.6
470.9244,17474.7
470.9425,378.6
470.9963,3845.5
471.6603,17
471.9293,401.1
471.9983,121
472.0938,404.5
472.1164,22.6
472.2937,358.3
472.612,379.1
472.808,372.3
472.8247,340.9
472.8433,841.8
472.9218,4102.9
472.9575,80.7
472.9784,1192
472.9923,114.6
473.0156,361.4
473.15,394.7
473.2659,413.2
473.3774,21.2
473.5535,337.1
473.6045,432
473.6543,217.1
473.8629,323.1
473.9457,311.9
474.0481,93.1
474.1559,128
474.3507,152.9
474.4234,316.4
474.478,162.4
474.5403,85.1
474.6005,163.8
474.732,102.7
475.107,209.9
475.1883,115.5
475.2234,11621.4
475.2456,582.7
475.4002,18.5
475.7837,437.1
476.2273,1429.9
476.2681,142.6
476.3324,99.2
476.5552,445.9
476.7151,258.4
476.8886,309.7
476.9414,42165.5
477.1918,18.5
477.4896,416.5
477.6001,195.9
477.9448,2684.8
478.1534,306.5
478.3304,34640.1
478.387,86.6
478.4528,181.1
478.5058,309.2
478.6623,114.3
478.8147,555.5
478.9389,12043.1
478.9725,143
478.9896,199.5
479.28,162.5
479.3331,5583.5
479.6145,167.1
479.6803,299
479.7397,18.4
479.7957,171.8
479.9795,526.4
480.0983,288.5
480.3107,631.2
480.3465,1167.9
480.3896,634.2
480.6339,202.6
480.7194,694.7
480.888,487.6
480.9182,107.1
480.9538,2278.3
481.0897,346.2
481.112,18.3
481.2162,316.1
481.2334,1505.2
481.3395,337.9
481.5858,294.9
481.7279,88
481.9394,110.8
482.3236,117.1
482.3629,512.5
482.8838,138.4
483.0685,508.1
483.2495,119958.6
483.3734,132.2
483.7767,649.7
483.853,246.9
483.9252,229.2
484.0195,1001.2
484.2528,28025.3
484.3154,129
484.8647,96.7
485.0879,113.9
485.132,129.2
485.2651,82635.3
485.384,620.9
485.7984,18.4
485.8831,105.3
485.9036,453.1
485.9679,309.2
486.0168,429
486.1093,304
486.2684,15795.9
486.3354,24.8
486.6681,163.7
486.8998,1246
486.9702,615.2
487.027,109.9
487.091,581.6
487.1533,21.4
487.2225,106.8
487.2347,21.7
487.2808,61761.5
487.2974,366.2
487.4142,429.9
487.4922,296.2
487.601,19
487.7035,421.5
487.9149,213
488.2841,13628.8
488.585,137
488.8635,103.7
488.8929,418
489.059,161.5
489.0767,477.8
489.0864,155.6
489.1068,381.9
489.1641,175
489.1849,446.5
489.1995,424.2
489.218,1067.5
489.2322,906.7
489.2574,403.7
489.2646,172.7
489.2717,130.1
489.2891,539.1
489.3284,382.5
489.3433,759.6
489.5541,18.6
489.6069,169.6
489.7271,614.2
489.8183,435.2
490.0146,105.9
490.0406,127.9
490.1081,123.1
490.1118,130
490.1542,734.5
490.4464,133.5
490.5755,836.5
490.6471,617.7
490.7055,316.4
491.0464,195.1
491.2083,19.7
491.3908,320.7
491.7291,82.1
491.8108,363.5
491.8394,433.9
491.9482,92.9
492.0202,90.7
492.1291,430.6
492.2633,404.6
492.3864,88.1
492.3992,208.5
492.4584,547.6
492.5772,673.4
492.651,156.8
492.6656,110.4
492.723,92.9
492.9157,8242.1
492.9633,259.5
493.1082,198.2
493.1433,597.4
493.3601,559.2
493.5029,123.7
493.6041,160.8
493.6913,322.9
493.8087,668.2
493.8424,111.2
493.921,356.8
494.3249,3338.8
494.3379,981.8
494.3791,323.5
494.4254,20.1
494.4394,103
494.7453,18.4
494.8847,101.6
494.9133,2379
494.9676,310.7
495.1476,22.3
495.2177,17.1
495.4448,92.7
495.5895,461.1
495.7289,131.8
496.2312,244.4
496.3029,730.4
496.3262,374.9
496.341,298512.3
496.9372,87.6
497.2565,84.5
497.3445,68843.2
497.3784,229.8
497.5392,318.2
497.5685,352.3
497.5922,196.4
497.6002,94.6
497.6133,864.5
497.7368,310.4
497.7985,464.9
498.3481,3703.5
498.3671,135.4
498.4723,100.5
498.5471,151.1
498.8297,220.2
498.8722,242.3
498.9296,420.6
499.0787,118.6
499.2234,6833.2
499.4079,149.5
499.4388,289.1
499.4774,511.6
499.6564,498.4
499.6789,262.1
499.7243,112.7
499.9272,436.2
499.9833,121.1
499.9942,433.7
500.1569,676.3
500.2506,188.2
500.4627,455.5
500.6313,385.7
500.6848,928.9
500.7251,462.5
501.0169,739.6
501.217,210.9
501.2388,4315.8
501.7161,106.5
501.9075,97.4
502.3301,16029.1
502.3768,109.1
502.4723,638.9
502.6774,349.1
502.758,344.7
502.793,120.3
502.8442,22.4
502.9609,338.2
503.0009,181.2
503.0624,92.4
503.0744,663.1
503.1984,477.6
503.2547,2460.7
503.2708,112.2
503.334,1245.4
503.5151,392.4
503.6826,294.8
503.7673,308.1
504.0782,753.4
504.1359,84.3
504.3457,5814.6
504.5192,297.3
504.5911,287.6
504.8593,141.8
504.8782,410.7
505.0136,246
505.0558,562
505.1158,526.2
505.1521,117.1
505.2334,161.8
505.3512,1078.8
505.4203,163.9
505.453,82.3
505.5688,395
505.6923,117.1
505.8335,267.5
505.9146,376.1
505.9957,135.9
506.0226,234.2
506.2092,147.6
506.2565,608.6
506.3618,3875.6
506.5709,201.6
506.6295,501.9
506.6493,98.8
506.6954,129.1
506.8921,3720
506.902,193.8
507.1308,89.5
507.2013,90.5
507.2198,642.3
507.2495,24512.4
507.3075,154.5
507.3678,106
507.8242,127.4
508.1402,700.3
508.2249,22.5
508.2527,5036.9
508.3777,620.8
508.5505,367.2
508.7666,693.4
508.7822,504.7
508.8894,2961
509.006,4375.9
509.2375,387.5
509.2654,5293.1
509.331,333.3
509.4962,235.4
509.936,286.9
510.3576,672.8
510.3867,679.5
510.416,642.5
510.4513,555.6
510.7724,622.6
510.905,714.1
510.9925,17.1
511.1252,39.9
511.2807,454.8
511.8554,736.7
512.1057,112.4
512.1289,18.1
512.1402,163.3
512.2357,188.8
512.4136,136.5
512.4296,139.5
512.69,181.8
512.8475,17.7
512.9094,17957.7
512.9577,367.1
513.4618,589
513.4649,602.4
513.5565,438.9
513.6033,364.1
513.6594,330.1
513.7353,564.4
513.7591,293.1
513.9114,479.4
513.9329,264.5
514.2323,209.7
514.3073,100.2
514.3202,383.8
514.3588,180
514.3907,21.5
514.4304,99.3
514.768,87.5
514.9068,10008.4
515.022,1694.6
515.3377,347.4
515.407,507.5
515.5232,121.5
515.7307,434.6
515.9842,120.8
516.0259,320.1
516.1656,128.2
516.3075,8694.5
516.6408,193.4
516.6492,100.4
516.7373,87.3
516.7835,81.8
516.9032,1003.9
516.9207,930.9
517.0362,18.9
517.1156,195.4
517.3068,196.5
517.4134,126.3
517.6143,644.6
517.6971,779.1
517.7512,540.8
517.9422,510.8
518.0876,444.3
518.1429,681.2
518.3231,499435.4
518.3608,386
518.3892,327.6
518.5413,493.7
518.8385,92
518.9263,29401.8
519.1401,231.3
519.1811,93.6
519.3264,125198.6
519.9297,2267
519.9851,68.2
520.3412,127638.1
520.7912,97.2
520.9232,16484.7
521.0574,107.1
521.214,199.2
521.2458,89.5
521.3444,31279.2
521.3672,350.6
521.3792,266.9
521.4997,320.4
522.1546,709
522.2577,1147.9
522.3567,103938.8
522.4703,83.9
522.5372,137.6
522.7769,451.4
522.9198,445.4
522.938,6686.6
523.0213,460.7
523.2475,739.5
523.3601,27029.9
523.3834,617.9
523.4157,165.2
523.4522,83
523.7043,327.5
523.8689,541.8
524.0141,95.7
524.0531,233.6
524.0712,936.1
524.0991,138.3
524.1111,888.4
524.1289,599.4
524.1542,459.8
524.3724,84157.4
524.4579,788.4
524.4857,364.3
524.687,354
524.7395,234.6
524.7696,366.1
524.8163,179.6
524.9353,1244
525.3756,22403.3
525.564,18.4
525.6751,556.3
525.8616,149.6
526.0291,353.2
526.1264,117.6
526.1836,5212
526.3298,1806
526.3729,199.6
526.4676,125.2
526.741,396
526.95,748.8
527.1862,524.2
527.3181,161.8
527.5884,347.4
527.8783,106.5
528.0803,343.8
528.1293,150
528.2412,143.9
528.5798,140.5
528.7003,99.3
528.8592,330.6
528.8837,7518.7
528.9549,2650.3
528.9679,535.1
529.0751,558.2
529.2196,224.1
529.3544,583.4
529.4648,366.8
529.6029,185.6
529.7265,113.5
529.9485,165.4
530.0411,516.6
530.0649,624.4
530.2622,159.9
530.49,394.4
530.8058,774.1
530.8804,4138.3
530.9962,576.2
531.1216,96.8
531.1528,75.2
531.2496,5290.8
531.8349,194.8
531.8824,566.5
532.2804,630.9
532.3387,5942.2
532.5681,542.1
532.9666,2383.3
533.0958,519.5
533.1923,376.3
533.341,1035.7
533.5998,186.4
533.6328,569.6
533.7325,163.1
533.8418,558.5
533.8624,432.5
534.0353,372.4
534.0484,187.5
534.0592,520
534.2971,125577.2
534.3497,431.1
534.411,93.6
534.5755,248.8
534.5997,335
534.6972,19.9
534.881,668.3
534.9004,16324.4
534.953,98.3
534.9922,120.1
535.1745,141.2
535.3005,32513.9
535.5097,365.8
535.5547,97.2
535.8417,20.1
535.9038,1508
535.946,643.3
536.2168,111.1
536.2955,5956.6
536.7911,132
536.8587,186.8
536.8974,9674
536.9857,94.8
537.293,704.3
537.367,106.9
537.5615,705.3
538.0755,420.4
538.1496,627.9
538.534,127.5
538.8667,110.9
538.9123,2571.5
538.9324,675.1
538.9413,198.1
538.9842,1110.8
539.0459,245.1
539.3446,24
539.9242,160.1
540.0407,452.7
540.2679,103.9
540.3068,954.1
540.392,218
540.8674,180.8
540.9025,926.1
540.9265,337.5
541.0779,413.3
541.0904,121.1
541.1557,393.9
541.3629,111.1
541.4079,178.7
541.436,20.1
541.7396,139.3
541.8071,882.7
542.0999,127.8
542.1051,109.1
542.3232,220141.2
542.5196,19.9
542.6694,119.6
542.6963,353
542.8904,92
543.3265,56203.6
543.358,21
543.4003,724.2
543.6495,220.4
544.2062,357.1
544.248,105.7
544.2741,822.5
544.3389,178010.3
544.4742,102.4
544.6108,119.5
544.671,333.2
544.8556,337.4
544.9308,374.8
544.9412,600.3
545.0517,99
545.3423,44044.2
545.4893,276.8
546.2317,412.9
546.3545,134796.6
546.4118,388.8
546.5935,149.9
546.7533,389.1
546.7746,135.2
546.8278,448.3
546.8407,111.9
546.8543,833.9
546.8999,20.6
547.3578,38723
547.3925,95.9
547.7142,347.4
547.758,91.6
548.0668,108.8
548.1866,20.6
548.3129,938.9
548.3405,205.1
548.3607,2821
548.4161,245.6
548.5973,323.3
548.8999,219.5
548.9901,19.1
549.0383,95.4
549.4464,528.4
549.4514,537.6
549.6457,724.2
549.8128,20.3
550.1539,758.2
550.5181,266.2
550.8744,3451.5
550.8895,372
550.9923,153.3
551.2089,609.2
551.3073,204.2
551.3858,596.1
551.5267,18.8
552.0067,114.9
552.0205,167.1
552.0731,514.9
552.312,773.2
552.3282,187.8
552.7846,125.3
552.8033,346.8
552.8714,1790
553.4232,104.1
553.4953,231.7
554.5082,213
554.7301,510.2
554.8717,340.7
554.9084,449.9
555.1499,128.5
555.2124,209
555.3731,262.4
555.803,986.2
556.0112,108.4
556.2738,580.3
556.4691,122.7
556.5364,333.5
556.9897,153
557.2902,372.8
557.3873,147.3
557.4945,96.6
557.8343,127.5
557.9769,210.1
558.0244,523.6
558.2972,56899.9
558.8298,643.1
558.9732,400
558.9964,484.3
559.3007,12725.8
559.5351,87.1
559.6679,462.3
559.7384,102.8
559.9249,349.7
560.1028,135.5
560.2947,2252.2
560.3127,43491.3
560.9216,431.6
560.9727,402.3
561.3164,8188.1
561.6803,127.2
561.6918,19.5
562.0101,625.1
562.1587,540.1
562.1989,443.9
562.3111,571.3
562.3284,30181
562.6957,174.9
563.0836,545.4
563.332,6321.8
563.4299,1782.5
563.5563,21.9
564.0441,276.9
564.327,994.7
564.5828,156.1
565.0465,499.3
565.1318,126.6
565.2696,147.1
565.5642,21.2
565.608,680.4
566.273,98.6
566.2887,363.7
566.3233,37669.2
566.849,712.2
566.9641,1842.3
567.0404,253.5
567.1522,20.8
567.2541,18.9
567.3264,10587.5
567.4375,17.9
567.4603,105
567.5759,372.9
567.987,558.8
568.0264,648.3
568.259,122.9
568.3094,238.3
568.3394,18390.2
568.5473,485.8
568.6371,737.4
568.6462,20.6
568.6713,183.7
568.8617,480
568.9243,19.7
569.2093,141.2
569.3421,2425.8
569.9316,461.5
570.04,588.6
570.4965,857.8
570.6066,194.1
570.8681,5923.3
571.4231,118.2
571.5,118
571.5901,119.9
571.6377,170.9
571.9054,97.9
571.9388,84.6
572.3649,706.4
572.4402,104.9
572.8647,6084.1
572.9829,468.2
573.4129,290.1
573.4518,735
573.7031,683.7
573.7361,87.3
574.1476,409.8
574.2259,281.8
574.2523,122.4
574.2842,783.1
574.455,1321.5
574.5198,169.1
574.6101,129.8
574.8627,1146
574.9117,131.4
574.9618,79.5
575.0868,225.4
575.5044,5338.4
575.7599,204.6
575.9771,125.9
576.0102,422.2
576.2819,4755.7
576.3106,456
576.4155,354.3
576.7068,256.4
576.8851,10441.6
577.1251,96.8
577.4828,108
577.7159,92.6
577.9153,124.5
578.1078,239.2
578.2785,463.6
578.3472,106.6
578.4247,564.2
578.4819,220
578.5427,723.8
578.7637,122.7
578.8819,9807.7
579.0183,243
579.1608,101.8
579.5027,118.2
579.5203,95.9
579.8851,1050.8
580.1072,328.8
580.138,120.9
580.1935,105.3
580.2699,98.9
580.6867,230.7
580.8791,1996.1
580.8977,1440.1
581.1777,121
581.9982,105.3
582.1279,99.4
582.1529,194
582.1833,203.8
582.1983,677
582.2105,153.2
582.2215,617.8
582.2325,1226.3
582.2537,136.1
582.2753,859.2
582.2968,10922.4
582.3352,477.6
582.3476,872.1
582.3842,145.1
582.4176,398.9
582.6216,215.5
582.8945,1537.5
582.9394,931.8
583.3006,622.7
583.3811,103.1
583.4698,87.7
583.7317,381
583.9042,134.4
583.9844,114.8
584.0046,135.5
584.0269,144
584.2285,89.8
584.8232,100.7
585.0991,469.1
585.1867,90
585.3554,152.5
585.3869,258.1
585.5852,167.5
585.6153,183.2
585.7786,346.7
586.2739,593.9
586.3106,3304.6
586.6129,122.9
586.8426,4087.7
586.9141,1081.7
586.9531,176.7
587.1113,92.3
587.1297,109.1
587.2648,107.5
587.2925,377.3
587.3481,715.7
587.5615,199.3
587.7553,118.2
588.3321,260.8
588.839,3294
588.9524,109.1
589.4577,500.3
589.8352,23.5
590.0388,20.3
590.2115,612.9
590.3233,13791.9
590.7326,307.3
590.9462,409
591.0951,21.8
591.2199,177.9
591.3265,3150.2
591.416,117.8
591.622,258
591.7368,530.9
592.153,121.7
592.3393,958.5
592.4346,118
592.8593,6804.5
592.9071,202.1
593.1763,108.3
593.502,462.2
593.8135,644.9
594.784,516.6
594.856,6355.2
595.2923,412.9
595.4342,384
595.4771,248.8
596.4361,19.7
596.6175,343.8
596.7255,115.5
596.852,1647.7
596.8707,1829.7
596.9432,616.3
596.982,785.4
597.1501,480
597.2299,98.4
597.4589,3578.1
597.4871,7791.1
597.5222,153.4
598.0109,109.3
598.0419,98.1
598.2736,72.5
598.4723,534.3
598.4911,559.8
598.5295,98.2
598.8207,217.5
598.8729,357.5
599.1864,721.7
599.4132,22.3
599.4658,529.1
599.5034,1106.1
599.5353,700.1
599.6365,21.5
599.7094,856.1
599.7457,236.9
600.1867,166.4
600.2819,2618.6
600.3554,215.6
600.5091,352.8
600.5561,401.9
600.6508,883.2
600.8867,294.3
601.197,93.6
601.3408,183.1
601.4993,87.8
601.7049,89.1
601.7362,463.3
601.7828,461.1
602.1224,292.4
602.274,84.1
602.2978,1367.1
602.4354,115.5
602.4589,147.5
602.7029,134.7
602.8886,1004
602.9056,540.1
603.0787,20
603.1813,97.9
603.2664,314.9
603.5359,432.7
603.6222,236
604.0706,245.1
604.2136,259.9
604.2641,121
604.8292,328.4
604.8451,208.1
605.0247,20.2
605.4408,913.5
605.5397,317.9
605.7476,119.2
605.7983,442
605.9559,158.6
606.0366,143.5
606.1112,110.3
606.2289,343.3
606.2978,666.4
606.531,105.3
606.5604,20.5
606.7876,163.6
607.1721,6392.2
607.3016,492
607.5753,165.5
608.0334,447.4
608.1617,80
608.1758,409.4
608.8335,718.8
609.1178,90.2
609.2383,525.1
609.6821,260.7
609.7229,19.8
610.3115,731.8
610.7579,146.3
610.8298,2219.2
610.8866,509.4
610.9778,106.4
611.0401,146.1
611.5446,346.7
611.8996,127.6
612.014,103.4
612.1996,134.2
612.3234,139.1
612.4734,544.5
612.5086,730.7
612.5786,85
612.622,676.4
612.8817,441.5
613.1067,106.8
613.366,766.5
613.4105,142
613.4395,209.4
613.5834,184.2
613.6699,239.8
613.9486,22.9
614.1129,288.9
614.2412,204.3
614.5868,96.4
614.8535,406.9
615.0558,509.9
615.2355,287.6
615.2513,115.4
615.451,114.2
615.8693,76.7
615.9027,117.1
616.4097,336.5
616.996,86.7
617.2094,466.4
617.477,8270.5
618.4276,299.7
618.4799,1218.3
619.2656,114.3
619.2963,307.4
619.4278,113.3
619.4922,15216
620.1841,23.4
620.4261,113.6
620.4574,640.2
620.4959,2373.2
621.0995,99
621.2022,477.6
621.2826,751.2
621.3716,682.7
621.4061,99.6
621.4484,1017.8
621.4883,3362
622.3216,858.2
622.4345,116.1
622.4881,172.9
622.6454,699.4
622.9145,94.5
623.018,708.8
623.0348,633.6
623.0843,96.9
623.1375,30919.1
623.4705,1539.8
623.5035,1380.9
623.533,864.4
623.7168,182.7
623.9762,418.4
624.1408,5075.7
624.6411,404.2
624.6575,121
624.681,103.8
624.9949,124.1
625.1411,118.7
625.3413,19.7
625.3659,350.7
625.4816,234.8
625.4883,233.2
625.5178,224.7
626.0093,662.6
626.1081,260.5
626.2698,529.3
626.3739,410.6
626.9065,551.5
627.0992,443.4
627.1787,750.3
627.537,867.6
627.704,204
627.8438,108.5
627.9816,314.5
628.5404,50.2
628.5954,476.5
628.6257,171.7
628.7713,581.5
628.933,437.8
629.1543,71907
629.2976,1505.4
629.309,1053.5
629.493,97.4
629.586,338.1
629.662,159
629.8088,115.6
629.8691,18.9
629.9667,156
630.0725,113.1
630.1579,13595
630.5381,710.8
630.6424,22.9
630.7115,18.3
630.9126,175.7
630.946,132.1
631.1313,424.4
631.1589,686.4
631.2653,358.7
632.292,91.6
632.4322,347.9
632.5696,541.2
632.7563,88
632.8076,19.1
632.9429,562.7
633.0871,108.1
633.3329,268.3
633.449,413.2
633.4843,118
633.795,213.6
633.9287,21.5
634.8444,2441.7
634.8623,591.3
635.4577,783
636.0871,714.5
636.1094,631.6
636.1596,154.3
636.8411,3486.1
636.9725,253.9
637.0167,100.1
637.5987,257.6
637.9092,111.6
638.0317,434.8
638.3019,70.6
638.3935,147.7
638.7393,434.2
638.8379,1723.3
639.1084,95.4
639.2276,140
639.4173,90.9
639.503,110.1
639.5407,192.8
639.9994,137.1
640.0819,163.3
640.1904,323.1
640.2061,657.1
640.4086,19.6
640.4537,199.9
640.5277,563.7
641.1155,320.3
641.3246,282.3
641.5327,230.2
641.5952,225.4
641.7226,318.9
641.9643,187.5
642.3459,690.6
642.9517,19.4
642.9784,645.2
643.1676,115.2
643.2971,163
643.3052,165.5
643.7914,704.6
643.8401,392
643.8586,130.6
644.1618,24.1
644.1918,343.7
644.2375,18.5
644.3069,352.4
644.3497,113.2
644.5038,89.4
644.8404,240.1
644.8747,363
644.914,124.6
645.1193,26079.3
645.3219,684.5
645.486,906.3
645.9666,568.4
646.0621,20.2
646.1238,4189.1
646.265,128.2
646.4428,110.5
646.6049,193.2
646.796,307.5
646.87,572.1
647.0662,158.8
647.0958,480.2
647.125,760.1
647.506,153.2
647.6269,130
647.744,119.2
647.8709,21.7
647.9404,533.1
648.0929,1220.1
648.1748,377.9
648.1955,21.1
648.2883,224.1
648.3372,465.3
648.5868,86.7
648.7257,21.5
649.2313,281.5
649.3126,112.3
649.4419,108.5
649.4859,361.2
649.5448,784.9
649.9504,105.3
650.01,387.5
650.1696,18.8
650.3053,410.1
650.8186,1720.5
651.0907,112.3
651.1364,75978.2
651.2324,355
651.5356,113.7
651.7308,19.3
651.8226,361.2
651.834,365.8
652.1402,13909.9
652.4232,320.6
652.6962,678.2
652.815,2182.8
653.1122,1921.8
653.1413,1917.6
653.4785,434.4
653.4947,214.8
653.5897,730.8
653.7179,22.9
653.9293,20.8
653.9925,183.2
654.1325,106
654.2422,118.8
654.5962,235
654.6213,833.5
654.7956,509.2
654.8123,522
654.9411,365.8
655.0561,127.9
655.1663,23.7
655.2257,116.7
655.3552,491.4
655.8309,256.6
656.4129,249.3
656.676,150.3
656.9029,21.5
656.9405,605.1
657.0963,99.6
657.3342,680.7
657.4858,1018.2
659.0128,223.5
659.6537,712.6
659.6852,133.7
660.0858,197.2
660.3967,18.3
661.0842,13350.5
661.2558,468.4
661.4469,611
661.4683,335.3
661.5161,209.9
662.0873,1500.2
662.2472,95.1
662.6066,359.9
662.6458,260.7
662.7159,123.1
663.3742,94.8
663.4187,256.7
663.4572,588.1
663.504,554.2
663.6972,21.2
664.1281,856.6
664.3203,368.2
664.4567,21.2
664.4698,693.9
664.7269,19.4
665.2892,200.1
665.4765,223.5
666.0148,19.1
666.0631,534.4
666.4852,5061.1
666.6442,122.1
666.7895,477.2
667.101,35320.2
667.4813,1346.8
667.5622,92
667.767,20.2
667.8482,80.3
668.1049,5574.4
668.3663,23.1
668.3972,493.8
668.4982,807.9
668.5497,127.8
668.789,1057
669.0467,123.7
669.0871,131
669.1085,466.6
669.252,11115.2
669.3896,18.8
669.4988,848.7
669.8008,413.8
669.9367,809
670.0513,513.8
670.2723,102.3
670.3587,78.4
670.4071,126.5
670.5851,327.1
670.7485,115.3
671.0016,19.1
671.0396,127.1
671.1903,422
671.4057,204.4
671.6629,813.2
672.2009,91
672.2415,92.2
672.5763,254.6
673.1184,78021.4
673.2151,107.3
673.2236,106.8
673.2921,72.4
673.4019,663.3
673.5854,784.3
673.6533,541.1
674.1221,15320.4
674.2091,272.7
674.4576,130.4
674.4815,136.3
674.9869,719.1
675.0948,466.1
675.1238,1128.8
675.1378,841.5
675.5455,6116.4
675.7422,306.3
675.8351,95.9
675.9464,119.1
675.962,167.4
676.0641,166.5
676.0982,93.5
676.474,705.1
676.8566,158.9
676.9346,291.5
677.5274,19.5
677.5562,141.9
677.8932,362.2
677.9879,92.2
678.1349,513.3
678.207,19
678.2374,561.2
678.3404,391.1
678.5405,98.7
678.7098,205.9
679.0852,519.7
679.6188,525.3
680.018,116.7
680.0483,602.1
680.4209,421.7
680.8999,330.3
681.1136,729.7
681.261,594.7
681.8256,296.7
682.0653,384.7
682.2542,602.5
682.3692,150.2
682.4355,89.5
682.5851,236.2
682.7504,702.5
682.7655,184.4
683.0658,8916.9
683.335,93
683.4535,800
683.6513,106.7
684.0769,290.7
684.2143,93.4
684.3956,149.1
684.4473,889.8
684.7302,17.9
684.737,24.2
684.7455,21.3
684.8289,136.1
684.886,124.7
685.4374,5227.8
685.4785,455.8
685.7721,19.9
685.7997,215.7
686.4414,1789.7
686.4791,741.5
686.7613,735
686.9791,762.6
687.1774,326.2
687.6559,143.3
687.6961,89.3
688.0922,287.3
688.1532,19.9
688.6465,512.3
688.9019,384.9
689.0827,26193.3
689.0918,23082.5
689.4294,275.4
689.564,510.4
689.7337,589.5
689.9969,192.8
690.0965,3421
691.0703,247.8
691.0892,406.4
691.6307,108.4
692.214,224
692.3007,335.1
692.4306,138.5
693.5921,277.7
693.7637,248.2
693.7822,522.7
694.0018,151.4
694.0816,115.6
694.1005,394.8
694.676,104.9
694.7447,172.3
694.7676,755.4
694.8001,636.3
695.1004,52800
695.4229,110.3
695.4509,260.8
695.6513,202.7
695.8557,102.6
696.1037,10796.5
696.1701,184.8
696.7913,461.8
697.0763,99.5
697.1074,312.8
697.5274,11485.8
697.9816,96.3
698.3448,165
698.5306,2693.4
698.5664,137.9
698.9805,639.7
699.1129,136.2
699.2519,593.8
699.4209,127.8
699.5168,312.1
699.8553,352.5
699.8954,380.1
700.2161,137.1
700.2569,485.4
700.3008,446.3
700.611,112.9
700.8104,121.3
700.9446,267.4
701.0918,332.5
701.4116,596.3
701.4803,781.7
701.5613,20964.4
702.0646,21.1
702.1483,212.6
702.3437,4276.5
702.5644,6063.1
702.9964,150
703.347,902
703.4107,101.2
703.4569,283.1
703.5769,63738.8
703.9448,701.1
704.0481,266.1
704.1396,473.5
704.5205,533.7
704.5803,23838.1
704.7623,172.4
705.0553,6267.2
705.3669,83.2
705.4974,253.5
705.5472,148.7
705.5838,1604
705.6634,354
705.8673,798.1
706.5458,83.6
706.5908,582
706.7655,428.9
707.1211,188.7
707.6224,114
707.8418,715.1
707.909,73.1
708.2227,497.4
708.3596,670.1
708.4002,106.7
708.477,204.4
708.5635,94.5
708.7142,133.1
709.0495,111.7
709.3647,96
709.4918,639.9
709.701,173.2
710.1051,92.9
710.1379,134.1
710.2706,230.6
710.3129,127.8
710.4743,106.4
710.5389,88.8
710.6526,101.5
711.0642,16910.6
711.0753,19882.1
711.1151,800.9
711.1642,465.3
711.422,21.1
711.5431,2139.5
711.7616,217.1
712.0794,1636.3
712.3975,17.7
712.5446,1016.1
713.0708,121.6
713.4998,611
713.609,119.9
713.6248,96.6
713.7271,174
713.8947,108.6
714.5351,93.2
714.586,190.9
714.7181,327.2
714.832,470.2
714.8673,18.2
715.2066,481.9
715.442,450.1
715.5101,195.1
715.6228,238.1
716.6325,123.6
716.7454,18.5
717.0072,113.9
717.0824,25322.8
717.1567,18.5
717.767,472.7
717.8939,89.8
718.0861,3231.8
718.1479,128.1
718.3147,126.1
719.0567,143.7
719.0835,85
719.1619,138.1
719.2028,433.3
719.3966,215.8
719.7134,353.4
719.9736,760.1
720.0672,138.6
720.0982,89.2
720.3015,732.1
720.5119,152.2
720.7318,786.3
721.0181,1057.1
721.1663,90.4
721.2105,652.7
721.48,45098.7
721.6346,89
721.6717,19
722.4834,17422.9
722.794,189.2
723.0206,192
723.0385,112
723.101,245
723.394,442
723.4649,421
723.4956,4529.3
723.5433,23657.5
724.0349,100.3
724.4996,1387.6
724.5466,9591.3
724.6749,114.2
724.7669,354.7
724.9553,553.1
725.3458,462.7
725.5109,492.8
725.5591,62912.1
726.0265,136.6
726.3184,139.9
726.3727,477.6
726.3914,19.4
726.4603,115.3
726.5626,24485.8
726.6277,89
726.9857,353.8
727.0398,3740.4
727.252,564.2
727.5316,106.5
727.5664,2316.8
727.5947,125.3
727.6867,249.1
727.7707,110.7
728.0043,676.6
728.2248,192.4
728.2949,18.9
728.4796,110.2
729.0233,673.4
729.1645,95.6
729.2995,599.6
729.344,75.4
729.5595,163.4
729.5929,8272.9
729.9611,762.4
729.999,118.9
730.0552,89.8
730.2478,82.4
730.4035,160.6
730.4192,439.1
730.5394,3202.5
730.9182,131.5
731.4582,106
731.5468,469.2
731.575,595.1
731.6089,3707.7
731.8587,105.9
732.083,121.7
732.4333,20.5
732.5248,91.4
732.5563,18258.7
732.6124,1285.7
732.7841,169.3
732.8849,109.7
733.0459,9593.6
733.0576,11434
733.3583,509.7
733.4748,627.9
733.5593,8374
733.9938,126.2
734.0625,778.3
734.3491,479.1
734.4776,472
734.5724,4362.2
734.7485,418.4
735.2437,506.7
735.4725,99.6
735.576,1424.7
735.8319,86.7
736.0479,208.6
736.1607,88.6
736.5821,312.9
736.6711,90.5
736.7445,124.1
736.8307,298.3
737.1228,174.1
737.454,7249.1
737.944,23.2
737.9755,327.5
738.0503,430.5
738.1132,388.6
738.3009,101.6
738.4022,283.2
738.4572,442.8
738.6706,164.6
739.0202,265
739.0645,14316.7
739.5161,833.7
739.8859,221.9
740.0704,403.7
740.3793,140.6
740.72,133.7
740.7448,154.1
741.0136,368.1
741.5326,7326.8
741.5639,315.8
742.5381,2746.4
742.5771,6933.3
742.6037,344.3
742.7214,79.1
742.7782,474.3
742.9958,602.6
743.0639,674.3
743.1267,114
743.4611,1291.3
743.5572,346.4
743.5792,1605.6
744.0167,134.3
744.4058,123.3
744.4616,127.4
744.5552,1215.5
744.5929,9681
744.7101,100.7
744.9034,127.3
745.4796,20441.6
745.596,1202.1
745.7055,18.6
746.0338,384.4
746.4836,6831
746.5704,837.6
746.6075,926.4
746.7501,95.5
747.0544,217
747.4959,5906.8
747.5313,240.8
748.0561,23
748.0917,136.8
749.0128,2789.9
749.0915,270.7
749.2524,356
749.279,195.4
749.4929,314.3
749.5118,1875
749.5943,193.2
750.058,108.4
750.2837,321.5
750.4065,461.4
750.4358,224.4
750.5133,256.3
750.5523,585.1
750.8233,445.6
750.9208,18.4
750.9269,18.5
751.1107,96.6
751.2666,242.9
751.48,625.6
751.5746,6094.7
751.832,100.2
751.8667,295.9
752.1794,104.3
752.3445,311.1
752.5219,4144.4
752.578,1747.4
752.7876,740.2
753.0679,136.5
753.5196,276.8
753.5646,401.4
753.5899,1660.5
753.9275,122.1
753.9496,551
754.3315,129.9
754.5386,18558
754.5964,509.6
755.0274,4931.5
755.0389,5126.1
755.0926,116.5
755.3919,595.1
755.5044,312.6
755.5412,7293.6
755.6254,343.3
755.779,378.7
755.8168,241.2
756.0355,102.5
756.5561,28884
757.0369,116.2
757.2812,111.7
757.5594,10638.7
757.624,348
758.0027,791
758.5719,898078.6
758.8037,532.8
758.8387,127.9
758.8937,254.9
758.9214,263.8
759.286,19.6
759.3922,631.9
759.5752,399445.3
759.6407,1099.2
759.7399,111.2
760.0012,419.4
760.0794,201.5
760.2554,660.4
760.5886,271586
760.6458,301.2
760.7807,19.2
761.0158,166.1
761.0464,3578.6
761.1056,208.3
761.3858,110.7
761.4552,444.6
761.5913,130613
762.054,327.4
762.594,30238.9
762.9602,234.4
763.019,156.4
763.1987,119.7
763.3416,153
763.4672,201.9
763.5967,919.6
763.773,103.8
763.9125,333.4
763.9346,134.6
764.2116,180.8
764.4153,207.1
764.5574,1613
764.9264,70
764.9771,939.1
765.5634,351.7
765.7699,372.2
766.3336,248.6
766.5368,2345.5
766.5766,25211.5
766.7312,159.4
766.7692,186.7
767.5798,10421.9
767.7767,335.6
767.831,120.2
768.1031,90.4
768.4317,123.5
768.5542,656.6
768.5928,25454.9
769.4504,94
769.4802,6875
769.5963,9012.8
769.647,305.7
770.08,213
770.3736,512.2
770.4882,1049.5
770.5743,588.3
770.6101,2984.2
770.8267,321
770.9932,5320.6
771.4799,796.5
771.5227,1039.8
771.6118,519.6
771.7511,133.3
771.8886,436.9
771.9945,474.8
772.0352,140.9
772.301,93.5
772.3265,97.1
772.4638,448
772.5039,329.9
772.5879,11539.6
773.1278,447.7
773.5921,2339.5
773.6529,634.9
774.3595,141.2
774.4184,623.9
774.4709,118.5
774.6049,931.5
774.8618,475.8
775.281,78.2
775.4653,17.1
775.6012,388.9
775.7426,314.9
776.0209,343.1
776.228,488.5
776.4475,212.8
776.5833,18.2
776.8193,115.4
777.0108,6819.9
777.1036,218.4
777.1468,535.6
777.4209,125.9
777.5122,69.7
777.5458,88.9
777.9009,448.3
778.016,385.8
778.0468,1766.8
778.0755,360.4
778.4277,133.6
778.5385,19488.1
779.4962,572.1
779.5411,7051
779.7795,864.7
780.224,92.6
780.3854,128.7
780.5539,624250
780.5916,110.6
780.7955,570
780.9534,230.3
781.2914,124.3
781.5573,284312.8
781.9472,226.5
782.1626,20.7
782.2985,80.4
782.5716,513071.3
782.9416,101.2
782.9922,118.1
783.029,5065
783.5747,256208.9
783.8382,100.5
783.8805,331.3
784.0792,731.3
784.2517,99.2
784.5884,233965.7
784.8891,381.7
784.9995,76.3
785.2895,763.1
785.3823,213.5
785.4514,604.8
785.5912,114439
785.6561,2863.5
785.8695,21.8
786.2851,247.5
786.6036,237811.9
786.6578,313.8
786.8325,101.5
786.9668,529.7
787.6068,120939
787.6718,713.5
788.0301,140.7
788.4315,84.9
788.5596,5613.8
788.607,19336.2
788.6224,11244.4
788.6574,109
788.6711,131.8
789.204,215.1
789.5469,846.5
789.6238,5278
789.8272,123.4
790.0459,577
790.1194,346.2
790.3094,574
790.5508,589.1
790.5749,14066.3
790.6256,110
791.3168,358.6
791.3881,139.2
791.5782,1025.6
791.7808,362.1
791.9021,764.7
792.0993,467.3
792.5924,11913.9
792.6956,226.9
792.982,140.9
793.1986,331.8
793.5959,3911
794.5101,1140.7
794.5692,6079.1
794.6087,26899.6
794.8063,459.3
794.8173,383.1
795.185,85.8
795.6115,9135.7
795.64,430.8
796.5277,111073.5
796.5872,4261.3
796.6257,1991.8
796.6675,202.5
797.2604,96.7
797.3021,401.8
797.4062,610.3
797.5311,50651.5
797.5901,954.3
797.6186,605.2
797.7385,375.2
797.7733,18
797.8486,304.3
798.0029,111.4
798.161,200.5
798.5448,26803.1
798.5993,695.5
798.7129,364.9
799.0016,839.4
799.1331,108.9
799.1598,363.4
799.4847,95.8
799.5082,599.7
799.547,8347.9
799.604,219
799.6716,413.3
800.2913,143.6
800.6187,392.9
800.851,428.5
801.1016,208.8
801.4331,178.5
801.6233,440.3
802.0636,85.3
802.2366,558.8
802.4184,200.6
802.538,25705.4
803.4125,326.1
803.4618,284
803.5418,9817.8
803.5922,18.6
803.8207,409
803.893,131.9
804.0746,314
804.1122,222.3
804.2621,297.1
804.5539,260274.5
805.2126,114.1
805.3276,432.9
805.5574,125295.8
805.6146,221
805.6341,359.2
805.7643,189.9
805.9668,79.8
806.3665,356.5
806.5712,300541.3
806.7246,177.5
806.9272,126.7
807.2494,116.8
807.5745,149082.2
807.639,667.7
807.9418,127.9
808.587,170253
809.5897,84348
809.6296,497.2
809.6567,690.6
810.0869,325.8
810.1772,864.9
810.3651,93.9
810.6039,101961.4
810.723,319.7
810.8679,426.5
811.3995,17.7
811.4605,643.8
811.4997,113.2
811.6068,52762.3
811.6714,7050.3
812.251,324.3
812.3795,423.3
812.4541,122
812.6215,14631.1
812.6754,1907.7
813.0037,20.2
813.2832,91.7
813.5376,17
813.6237,6864.3
813.6871,8937.9
814.4377,93.2
814.5752,512.5
814.5972,26.8
814.6225,108.8
814.6392,104.1
814.6915,3176.7
814.9756,369.4
815.3274,218.6
815.4297,486.7
815.6176,235.5
816.0058,511.6
816.1743,382.7
816.2005,456
816.2167,491.3
816.3201,23.4
816.4119,586.6
816.5908,9526.6
816.9171,354.8
816.993,215.6
817.3274,1106
817.4114,620.5
817.5882,320.2
817.628,561.1
817.7286,164.5
817.8599,21.2
818.5094,1768.2
818.5706,1815.6
818.6076,948.4
818.6432,116.8
819.6108,806.6
820.3506,213
820.5281,50856
820.5878,181.1
821.0902,833.4
821.3545,135.6
821.5311,19448.7
821.6021,68
821.9096,301.6
822.3755,142
822.5444,23136.1
822.6392,243.1
822.9023,122.8
823.5467,10397.6
823.6146,544.4
823.6469,562.9
823.7137,121.9
823.7551,178.9
823.7908,19.1
824.1791,257.7
824.5601,17452.3
824.6197,21.1
825.0379,208.4
825.1235,399
825.4545,1203.1
825.5618,6727.5
825.6709,344.8
825.8432,525.6
826.457,226.1
827.5891,472.2
827.7247,420.6
827.8316,107.2
827.9928,370.6
828.5539,104245.3
828.6325,123.4
828.7957,198.5
829.029,246.5
829.1567,504.2
829.3196,422.7
829.4494,708.6
829.5575,57919.2
829.6976,634.4
829.8251,536.1
829.8837,21.9
830.2843,135.2
830.5715,38506.8
830.8544,463.4
831.0744,109.9
831.0867,115.6
831.5739,17904.2
832.586,54596.2
832.8874,425.9
832.937,209.5
833.4934,144.2
833.5893,25948.7
833.6153,784
833.6555,110.3
833.9606,21.8
834.085,396.3
834.1339,857.5
834.4431,148.1
834.6035,32597
834.9739,530.7
835.6063,14302.9
835.6675,1259.6
835.6961,738
835.7332,627.2
835.7621,933
836.1258,142.9
836.3511,466.3
836.5493,187
836.6206,2497.3
836.9157,429.4
836.9535,434
837.0652,363.7
837.2509,447.6
837.3981,118.6
837.6216,803.6
838.0302,502
838.5133,2155.2
838.6356,186.6
838.701,614.5
838.7353,604.1
839.4909,436.8
839.5163,404.4
839.9543,244.8
840.1253,103.4
840.1736,155.3
840.7633,137.3
840.8364,445.5
840.8754,154.1
840.9192,544.6
840.9677,118.3
841.0552,19.9
842.5356,302.3
842.9299,524.3
843.1162,251
843.2824,131.2
843.4861,22.7
843.9575,157.6
844.281,307.8
844.3699,96
844.528,20497.3
845.2898,217.8
845.4602,766.6
845.5313,6761.9
845.6913,319.3
845.8773,247.8
846.0737,106.9
846.0963,319.3
846.2141,138.8
846.4548,736.3
846.5442,4526.9
846.9859,309.3
847.4269,673.8
847.4581,392.4
847.5484,228.6
847.6136,415.8
847.7773,514.4
847.9734,1113.8
848.3199,459.3
848.5596,4049.5
848.9019,431
849.12,99.2
849.5643,218.2
849.69,364.2
849.8133,632.9
849.9575,337.9
849.9837,387.8
850.1563,97.2
850.3183,468.7
850.5786,177.9
850.9482,411
851.3058,373.7
851.5782,178.5
851.8737,1209.2
851.9097,171.9
851.994,597.2
852.0848,476.7
852.19,20.2
852.3194,377.2
852.4179,120
852.5511,326.3
852.7201,151.2
852.8514,595.4
852.9349,294.3
852.9934,26.6
853.8155,88.7
854.5706,418.7
854.869,213.7
855.0179,125.4
855.2019,125.1
855.5763,698.2
855.7593,16.6
855.7924,668.8
855.9696,1204.4
856.3687,75.2
856.4696,90.9
856.5853,9455.8
856.6671,245
856.7684,706.8
857.4698,85.2
857.5897,401.4
858.643,385
858.9338,896.6
859.2908,431.3
859.3386,88.8
859.512,485.7
859.5973,679.5
859.987,276.1
860.1254,280.5
860.2404,432.5
860.3234,1487.3
860.7327,138.5
861.5683,612.7
861.7045,93.9
861.824,112.5
861.8864,94.5
861.9138,356.8
862.0726,99.5
862.5164,605.3
862.7271,108.1
862.8557,117.3
863.0255,442.4
863.0661,475.2
863.115,119.8
863.6318,104.8
863.7903,509.5
863.8355,20.3
863.942,641.1
864.2463,104.9
864.5844,178.3
864.8256,128.2
865.0947,798.6
865.1674,501.9
865.4898,79.6
865.5927,289.2
866.1805,447.3
866.2689,394.7
866.6837,358.3
867.1291,91.8
867.1557,520.8
867.7802,539.8
868.8669,665.1
869.078,130.9
869.3298,157.3
869.357,224.4
869.4125,465
869.4772,177.5
869.527,1085.7
869.5565,948.5
869.617,1978
869.6609,1940.1
869.6862,3438.2
869.7206,3862.7
869.7421,2358.2
869.7775,2500.8
869.8414,3063.7
869.8652,2338.1
869.9034,1712.3
869.9532,534.6
869.9931,549.6
870.0371,162.7
870.2316,527.9
870.2663,133.4
871.1565,91.3
871.4651,358.5
871.7541,112
871.8714,79.5
871.9696,468.4
872.3267,236.4
872.3339,241.3
873.3761,83.4
873.6092,262.4
873.9552,71.6
874.0256,19.2
874.1903,358
874.4587,93.4
874.6119,112.1
874.6524,20.3
874.7183,315.3
874.7907,122
874.9842,721.1
875.7351,436.8
876.8358,755.9
877.0189,280.7
877.5901,506.8
878.3139,550.1
878.5713,664.1
878.7437,510.7
878.9991,445.5
879.375,80.1
879.5895,572
879.8258,1620.9
880.8466,533.4
880.9081,18.6
881.0388,18.4
881.1864,19.5
881.3458,398.6
881.3945,461.7
881.5915,814.3
881.6221,415
881.9141,102.7
881.9761,180.6
882.822,753
883.2732,96.9
883.3537,177
883.403,653.3
883.5412,120.1
883.7806,583.2
885.6385,250.4
885.9131,154.3
885.948,423.6
886.4095,92.8
886.4228,93
886.4304,88.9
886.4697,18.3
887.0554,525.9
887.3522,254.8
887.4451,792.6
888.2355,1011.2
888.4289,968.5
888.7622,66.3
888.8775,92.8
890.7868,872
890.933,317.6
891.0335,147.1
891.1068,101.2
891.5801,1399.7
891.6158,18.5
892.0649,138.9
893.3945,20.4
894.7223,122.5
895.0048,363.8
895.2274,267
895.6703,197.1
895.7507,230.6
895.8714,121.5
896.1722,149.2
896.5634,343.5
896.717,980.6
896.8014,373.9
896.8723,904.7
896.8977,137.8
897.0301,116.8
897.2619,699.5
897.3142,128.8
897.4679,117.4
897.9173,823.1
898.1779,229
898.3938,1338.6
898.4578,392.6
898.8482,573.4
899.7067,966.2
900.2986,183.5
900.5592,22.5
900.6205,20.7
900.7361,269.7
901.1738,400
901.25,21.6
901.8534,447
901.931,1262.2
902.1775,103.1
902.9518,384.7
903.1414,117.8
903.7358,143.5
903.7719,145.5
903.7979,180.5
903.8878,1844.6
904.8213,92.1
904.8549,320
904.8832,108.2
905.1465,204.2
905.3159,480
905.6422,729.3
905.7142,448.9
906.0397,89.1
906.5603,586.2
906.7135,487.8
906.8008,1289.2
906.8251,366.1
906.8741,361.1
907.3207,1270.8
908.8791,107.4
908.9513,38.8
909.5687,151.4
909.9462,616.2
910.2274,614.2
910.5061,430.5
911.7273,397.3
911.8349,154.4
912.2208,486.9
912.2836,92.6
912.4661,140.1
912.6004,452.1
912.6225,83.3
912.8166,139.8
912.9082,352.4
913.4224,427.7
913.6659,570.6
914.6155,730.3
914.7868,143.3
914.8916,385.4
915.1666,179.5
915.5668,80.6
915.8649,217.9
916.1841,153.5
916.2719,189.5
916.5907,374.1
916.6279,87.9
916.9253,92.8
916.9739,116.3
917.0655,495.4
917.1776,738.4
917.412,23.2
917.8615,146.9
918.3651,93
919.022,287.9
920.1867,902.1
920.3028,18.7
920.5075,89.9
921.4559,556.5
921.4895,21.9
921.5982,457.8
921.8472,144.9
921.9009,461.6
922.3351,23.6
922.9888,659.9
923.085,1121.4
923.2092,397.8
923.6807,100.9
923.9989,513.3
924.4159,514.3
924.57,91
926.1697,354.2
926.9098,1083.9
927.5383,386.1
928.3246,150.8
928.6494,649.5
928.7505,84.4
929.1287,165.8
929.2594,550.3
929.3759,109.6
929.6034,539.3
929.7257,447.3
929.8695,568.1
930.2881,555.2
930.5363,359.5
930.5769,434.3
930.9357,361.4
931.1406,105
931.6119,129.5
931.778,427.5
931.8113,1566.7
931.8705,118.7
932.1605,72.2
932.2793,83
932.6902,381.8
932.7135,445.5
932.7992,123.5
932.854,123.5
933.1758,227.7
933.3075,474.4
933.6403,585.5
933.877,84.3
934.1806,101.9
934.4324,167.5
934.7562,23.3
934.9561,645.1
935.1563,405.1
935.2569,155.8
935.4977,306.1
936.0354,107.8
936.4159,100.4
936.6205,312.1
936.8752,207.5
937.257,138.3
937.2694,128.6
937.5242,203.1
937.5868,24.1
938.728,185
938.8199,145.9
938.8448,217.7
938.9133,345.9
939.8114,18.3
939.9352,128.1
940.0655,20.8
940.2721,317
940.3829,102.2
940.6267,106
941.37,540.7
941.4096,92.2
941.4195,93.7
941.5188,663.4
941.6517,750.8
942.0173,488.6
942.3803,742.5
942.4418,913.1
942.71,756.5
942.7449,631
942.8251,211.5
943.2287,757.1
943.6624,540.3
943.7408,105
944.5884,505.6
944.6607,538.3
944.9067,752.1
945.1468,824.3
945.1892,1405.5
945.3858,877.5
945.8135,217.4
946.0458,215.5
947.3033,17.5
947.3525,750.3
947.3691,384.7
947.535,217.4
947.7602,21.8
948.3725,121.4
948.5132,133.4
948.9806,192.7
949.421,87.6
949.831,373
949.8846,98.6
950.1709,692.9
950.1786,725
950.2382,229.8
950.6446,100.8
950.9859,85.1
951.4951,562
952.2419,648.8
952.2597,631
952.37,22.1
952.4221,451.4
952.6401,544
952.6554,522.4
953.0807,221.1
953.1827,772.6
953.7611,150.3
953.9016,843.8
954.242,23
954.7728,924.2
954.9475,447
955.0513,427.4
955.3768,110.4
955.4404,458
956.0167,124.1
956.1914,1582.4
956.2858,203.1
956.3791,520.6
956.4653,1145.7
956.8113,333.3
956.8373,105.7
956.9225,19.6
956.9792,729.8
957.0698,382.3
957.2112,291.4
957.3125,1118.7
957.3667,1288.5
957.8299,458.2
958.0168,333.9
958.0643,389.5
958.2841,235.2
958.3915,513.3
958.602,88.7
959.3557,469.5
959.3813,139
959.6107,211.8
959.7901,106.6
960.0442,461.6
960.2956,101.7
960.5313,317.6
962.0335,730.8
962.7361,820.6
962.7882,365.9
962.9014,584.8
963.5245,553.6
963.5974,594.3
964.0767,92.1
964.2302,103.1
964.3209,421.9
964.4723,146.9
964.7136,255.1
964.831,148.3
965.2119,837.8
965.2679,949.9
965.2905,1205.7
965.3476,393.6
965.5448,331.6
966.3505,1438.3
966.4657,96.4
966.825,452.7
967.2164,673.8
967.3072,390.3
968.1545,103.2
968.2073,399.5
968.5615,192.6
968.6785,157.8
968.9257,708
969.73,117.9
970.2557,520.3
970.4103,397.6
970.5487,522
970.6166,366.8
970.7183,352.7
970.7812,499.8
971.4327,131.8
971.5565,220.8
971.7686,20
971.8676,355.3
972.0676,970.4
972.1051,688.8
972.1558,640.2
972.1769,633.4
972.2795,97.9
972.4621,309.4
972.6176,292.9
972.67,95.8
972.7831,770.2
973.5235,94.7
974.1485,127.8
974.8889,23.8
976.2335,336.7
976.3755,876.1
976.4441,93.6
976.7302,118.2
976.8346,139.2
977.2052,93.7
977.9235,199.2
977.9423,192.1
978.2496,371.5
978.814,116
979.1916,88.4
979.3675,697.8
979.4508,239.6
979.5354,931
979.6684,221.5
979.7735,1069
979.9624,375.8
980.2956,455
980.5473,344.9
981.008,1338.7
981.1892,159.1
981.7961,22.8
982.1102,425.2
982.8557,1563.9
983.0777,404.7
983.2266,412.8
983.4715,733.3
983.4998,1119.3
983.7841,139.5
984.0512,1433.4
984.2877,83
984.4116,710.2
984.712,325.1
985.0211,123.1
985.1664,224.3
985.2764,297.8
985.4356,470.3
985.4767,98.1
985.5642,114.5
985.6617,675.2
985.9402,89.4
986.3318,924.7
986.6345,290.9
986.6459,285.3
986.9036,420
986.9407,365.4
987.0424,103.1
987.1201,446.9
987.1874,534.8
987.2347,1224.6
987.2775,78.9
988.1941,96.8
988.3687,19.1
989.1082,108.4
990.1489,345.7
990.1726,366.8
990.2151,573.4
990.3422,648
990.5172,486
990.5378,416.6
991.0275,627.1
991.0375,496.8
991.7085,603.2
993.129,903
993.2391,360.1
993.3644,837.3
993.9526,181.6
994.4262,730.3
994.4825,440.9
994.5497,511.4
994.9845,446.9
995.2933,473.8
995.8985,260.6
996.0953,458.9
996.31,146.6
996.6658,20.9
997.3067,174.4
997.4124,97.3
997.7527,788.7
997.9887,142.7
998.0553,464.9
998.3576,148.3
998.4155,134.9
999.0622,926.4
999.2818,193.3
999.3746,142.6
