SPECTRUM - MS,
QC_4.RAW,
FTMS + p ESI Full ms [50.00-1000.00],
Scan #: 1-40,
RT: 0.01-1.97,
AV: 40,
m/z,Intensity

50.0009,89.2
50.0014,184.4
50.0164,87.5
50.0202,598.4
50.0274,342.2
50.0289,413.3
50.0388,80.4
50.0443,348.8
50.046,186.2
50.0706,311.1
50.072,308.9
50.0898,734.4
50.1186,119.3
50.1269,436.7
50.1271,244.9
50.1422,248
50.1433,165.4
50.1434,154.2
50.1436,84.7
50.15,630.9
50.1635,410.5
50.1755,350.3
50.1813,231.3
50.1946,337.1
50.1985,18.3
50.2234,145.1
50.224,383.9
50.2529,377.6
50.2555,499.1
50.2661,128.1
50.3105,87.7
50.32,74.5
50.3342,151.1
50.348,179.9
50.3483,75.8
50.3565,345.5
50.3792,23.2
50.3938,280.3
50.3975,313.8
50.3987,107.2
50.4022,567.7
50.4107,108.6
50.4268,314.8
50.4294,158.7
50.464,110.1
50.4653,399.1
50.477,223.6
50.4826,275.3
50.4833,198.5
50.4884,440.2
50.492,117.2
50.5056,725.7
50.5137,116.9
50.5155,192.9
50.5158,143.8
50.5265,114.7
50.5278,89.8
50.5678,209
50.5719,95
50.5788,116
50.5966,15.4
50.6059,266.8
50.6199,272.5
50.6211,36.9
50.6328,105.6
50.6392,85.1
50.6441,331.2
50.6591,113
50.6723,315.8
50.7099,85.6
50.7109,125.4
50.7335,140.1
50.7513,366.6
50.7679,149.5
50.7709,741.1
50.7836,99.9
50.8119,292.1
50.8395,210.9
50.8422,298.4
50.8489,196.1
50.8526,113.2
50.8586,439.3
50.8719,608.8
50.8887,721.7
50.9058,153.8
50.9197,117.9
50.9198,115.7
50.9488,18.3
50.9627,315.8
50.9648,370
50.9965,155.6
51.034,367.5
51.0738,17.2
51.0883,476.8
51.1005,535.9
51.1088,508.6
51.1178,126.5
51.1603,106.7
51.17,196.5
51.1707,599.7
51.1777,580.9
51.1936,120.5
51.1996,95.4
51.2075,238.5
51.2117,20.6
51.2291,147
51.2346,152.4
51.2461,340.3
51.2549,113.3
51.2566,475.6
51.2646,133.2
51.2879,314.5
51.2946,20.1
51.2964,287.1
51.3228,431.2
51.3431,112.9
51.3572,89.5
51.362,113.7
51.3652,686.1
51.3851,223.9
51.3912,825.8
51.3925,430.4
51.3993,356.4
51.4006,110.9
51.4011,304.6
51.4049,143.5
51.4156,112.2
51.4161,108.3
51.4238,260.9
51.4255,108.1
51.4287,18.1
51.444,181.8
51.4607,134.2
51.4668,404.3
51.4687,254.5
51.4711,216.9
51.4935,295.3
51.5041,86
51.5131,113.5
51.5173,18.1
51.5283,144.8
51.5315,343
51.5397,86.8
51.5575,41.2
51.5833,431.8
51.5854,149.2
51.6149,230.2
51.6194,221.3
51.6248,19.1
51.6392,468.3
51.6484,238
51.6496,176.2
51.661,301.8
51.6616,186.6
51.6642,81.9
51.6659,161.2
51.6665,95.7
51.7074,147.1
51.7135,324.8
51.7566,387.3
51.7581,265.7
51.763,206.6
51.7668,266.2
51.7695,108.3
51.7716,18.7
51.7823,313.9
51.8023,36.5
51.8146,39
51.8247,94.5
51.8321,119.8
51.8598,127.2
51.8609,34.6
51.8818,702.5
51.8937,16.8
51.9014,85.2
51.909,227.3
51.9175,104.9
51.9366,96.1
51.9496,172.8
51.9505,291.6
51.9609,120.6
51.9629,87.4
52.0019,170
52.0294,717.9
52.0372,303.5
52.0547,349.2
52.0586,349.7
52.0854,94.5
52.0886,223.4
52.0994,553.1
52.1225,291.9
52.1323,221.6
52.16,133.5
52.2116,753
52.2177,730.8
52.225,118.5
52.2417,17.8
52.2657,18.7
52.2666,78
52.2668,73.5
52.2706,373.2
52.2743,121.8
52.2822,535.1
52.3069,471.5
52.3123,307
52.3173,519.5
52.3224,386.4
52.3279,128.1
52.3393,382
52.3412,248.9
52.3654,74.2
52.3674,125.9
52.3853,148.1
52.4132,518.8
52.4309,281.5
52.4319,146.4
52.4353,116.9
52.4406,134.9
52.4468,93.3
52.4809,134.3
52.4898,777.2
52.4931,520.6
52.5045,545.7
52.5053,96.6
52.511,90.8
52.5147,671.9
52.5247,361.7
52.5272,656.1
52.5487,32.1
52.5511,86
52.5601,88
52.5892,163.8
52.5928,317.4
52.6348,164.8
52.6369,416
52.6687,97
52.6763,207.7
52.6771,170.2
52.6796,392.4
52.6824,16.8
52.687,401
52.6982,16.7
52.7139,739.6
52.7206,157.4
52.7325,264.2
52.767,520.8
52.7807,608.6
52.7913,303.6
52.7918,1247
52.7922,340.8
52.7926,1976.2
52.793,1872.6
52.7935,4320.7
52.7946,1238.5
52.7959,234.3
52.7986,516.4
52.8023,169.5
52.8027,115.2
52.8284,146.6
52.839,668.2
52.8425,102.6
52.8491,298.5
52.8524,645
52.8548,143.6
52.8571,91.3
52.8754,15.9
52.8797,116.2
52.8932,246.7
52.8968,237
52.9114,232.3
52.9295,262.7
52.9313,595.7
52.9762,131.8
52.9829,122.5
52.9865,201.5
52.9931,87.8
52.9992,418.3
53.002,485.2
53.0077,277
53.0452,36.8
53.0505,15.7
53.0508,122
53.0608,632.2
53.0666,254.2
53.0742,341.9
53.09,148.1
53.0963,103.6
53.0991,464.7
53.1039,257.7
53.1127,881.2
53.1156,152.8
53.1386,371.6
53.1413,523.2
53.1561,238.9
53.1578,212.2
53.1628,113.8
53.172,136.7
53.175,79.6
53.2075,90.3
53.2096,108.4
53.2191,45.5
53.2229,121.7
53.24,39.2
53.2461,258.1
53.2565,633.9
53.2717,990.8
53.2737,93.2
53.2747,422.3
53.2978,225.6
53.3019,21.9
53.3116,399.6
53.3184,94.8
53.3266,98.4
53.3358,305.8
53.3397,541.5
53.3406,113.4
53.3676,15.1
53.3743,136.9
53.3888,244.8
53.4001,465.8
53.4007,171.4
53.4272,148.4
53.428,272.8
53.4281,339.1
53.4283,633.8
53.4307,373.7
53.432,328.7
53.4596,538.5
53.4713,129.9
53.5044,368.9
53.5153,658.6
53.5292,88.3
53.5328,30.4
53.5415,324.5
53.5419,111.2
53.5756,87.1
53.576,248.2
53.5921,126.9
53.5999,115.2
53.6005,137.9
53.6063,80.1
53.6073,75.2
53.6088,18.3
53.6174,382.6
53.6351,162.2
53.6549,243.3
53.6711,17
53.7008,103.8
53.7512,413
53.752,78.1
53.7574,329.2
53.7599,547.5
53.7747,126.7
53.7824,648.6
53.7846,23.5
53.785,15.7
53.7919,94.1
53.7968,556.9
53.8094,147.2
53.8139,199.7
53.8292,188.8
53.845,203
53.8525,294.5
53.8551,423.9
53.8978,321.8
53.9009,265.4
53.9485,74.4
53.9548,246.9
53.9601,223
53.97,14.6
53.9762,194.9
53.9886,308
54.0338,104.9
54.0359,159.9
54.0439,115.6
54.0444,463.9
54.0524,34.2
54.0591,19.3
54.0608,281.8
54.0702,127.5
54.0761,210.4
54.0837,126.1
54.0877,137.6
54.095,30.3
54.1052,158.8
54.1113,443.9
54.1509,656.9
54.1514,276.4
54.1588,15.9
54.17,114.8
54.1752,484.2
54.1869,946.9
54.1893,17.8
54.1943,594.6
54.1969,318.5
54.2188,87.5
54.2227,106.9
54.2273,628.9
54.2349,540.6
54.2496,344.8
54.2506,470
54.2513,192
54.2864,16.5
54.2971,267.4
54.3285,92.2
54.3379,182.1
54.3456,129.9
54.3562,427.1
54.3661,95.9
54.3833,130.7
54.3878,337.2
54.3957,77.6
54.4309,325.1
54.4424,674
54.4435,317.8
54.469,274.5
54.4939,125.3
54.5056,410.9
54.509,170.6
54.5196,156.9
54.5432,312.1
54.5493,91.9
54.5622,395.6
54.574,191.2
54.5846,373.5
54.5948,15.3
54.5976,19.5
54.6082,230.9
54.6089,239.6
54.6129,143.7
54.6214,122.6
54.6305,427.1
54.6342,166
54.6396,378.7
54.6505,93.3
54.6542,302.3
54.6632,488.5
54.6863,163.2
54.7039,131
54.7066,264.8
54.7075,576.1
54.7105,86
54.7188,40.1
54.7215,178.6
54.74,424
54.7412,519.5
54.7485,210.1
54.7518,90.5
54.7753,145
54.7877,562.4
54.7971,229.1
54.8145,110.6
54.8264,102.8
54.8273,223.6
54.8382,386.9
54.8389,96
54.8734,83.3
54.8819,17.4
54.9013,82.3
54.9016,141.9
54.9033,286.2
54.9233,90.9
54.9401,90.8
54.9406,322.7
54.9469,605.4
54.9569,101.6
54.9621,625.2
54.9645,123.1
54.9672,129.5
54.9696,304.6
54.9826,593.5
54.9939,231.1
54.9967,121.1
55.006,286.8
55.0194,110.1
55.0606,88.6
55.0655,91.4
55.088,124.7
55.0989,358
55.1079,122.2
55.1137,91.2
55.1149,38.2
55.1189,319.8
55.1321,88.8
55.1365,279.7
55.1411,89.2
55.1444,117.1
55.1737,317
55.2,495.4
55.2321,180.1
55.2402,213
55.2446,149.7
55.2464,445.4
55.2631,563.6
55.2714,124.3
55.2914,339.7
55.2947,16
55.3017,489.8
55.3131,600
55.315,186.6
55.3167,124.4
55.3243,312.8
55.3435,78.4
55.3482,84.4
55.3535,172.1
55.3867,195.6
55.3964,332.8
55.3997,82.9
55.4002,122.7
55.4041,605.5
55.4176,379.6
55.4277,474.9
55.4363,311.4
55.4519,434.9
55.4722,337.3
55.5077,400.5
55.5287,129.1
55.5411,123.3
55.5582,87.2
55.5587,15.5
55.5651,570
55.5683,16.1
55.5723,16.6
55.6095,16.9
55.6653,157
55.6734,18
55.6949,82.8
55.7059,517.8
55.7067,686.8
55.7157,122.5
55.7199,446.7
55.7279,319.2
55.7291,163
55.7306,244.4
55.7368,640.3
55.76,227.3
55.7687,107.5
55.7739,556
55.7832,599.5
55.7886,83.8
55.8143,84.6
55.8235,632
55.8334,132.5
55.8457,16.9
55.8535,424.7
55.8775,165.8
55.8966,94.4
55.9012,137.6
55.9131,312.9
55.9169,371.6
55.9295,392
55.9349,111.2
55.9702,127
55.9756,155
55.9814,165.1
55.9891,99.5
55.9962,322.3
56.004,84.1
56.0067,403.4
56.0119,654.7
56.022,104.9
56.0325,160.7
56.0375,177.5
56.0491,114.7
56.0714,181.6
56.0871,145
56.105,91.1
56.1067,16.8
56.1327,313.4
56.1392,36.6
56.1878,99.2
56.1922,337.7
56.2006,16
56.2035,454.8
56.2098,712.1
56.2313,15.5
56.2343,228.7
56.2359,94.2
56.2559,17.3
56.2839,313.9
56.3146,529.5
56.3158,592.8
56.3289,16.6
56.3389,358.5
56.3418,18.9
56.3424,607.7
56.3453,712.1
56.3494,367.8
56.3631,92.9
56.3669,82.6
56.4136,289.7
56.4219,18.6
56.4465,94.4
56.4544,19.5
56.464,33.8
56.4688,294.4
56.4721,477.1
56.4955,97.2
56.496,469
56.4985,137.9
56.5003,442
56.502,166.8
56.5037,542.4
56.5117,308.4
56.5207,151.1
56.5315,557.8
56.6151,396
56.6159,387.3
56.6281,90.2
56.6462,545.8
56.6581,37.1
56.6757,90.6
56.6854,386.1
56.6977,239.2
56.7091,586.7
56.7306,16.7
56.7336,19.9
56.7374,108.2
56.7526,109.3
56.849,612.4
56.8775,163.9
56.88,133.5
56.8847,306.2
56.9107,91.8
56.9166,114.5
56.9174,271.6
56.9355,306.6
56.948,118.4
56.9495,501.4
56.9638,91.4
56.9779,407.1
56.9936,17
57.0019,93.7
57.0216,271.4
57.0287,409
57.0314,329.9
57.0458,83.4
57.0471,495.4
57.0549,206.2
57.0667,436.3
57.0978,114.3
57.1058,253.7
57.1076,273.2
57.1515,35.4
57.1529,143.6
57.1551,126.2
57.1723,19.1
57.1749,251.8
57.1992,133.6
57.2138,152.4
57.2284,432.5
57.2311,89
57.2412,115.6
57.2635,15.9
57.2675,38.6
57.2756,450.9
57.2816,176.8
57.2913,243.8
57.2971,320.2
57.3122,195.7
57.3206,16.2
57.353,175.6
57.3596,17.5
57.3641,86.4
57.377,198.4
57.3889,320.6
57.3943,270.7
57.3974,220.1
57.4033,36.2
57.4103,129.7
57.4197,155.5
57.4332,74.4
57.4423,359.2
57.4478,175
57.4637,110.8
57.4801,325.5
57.4912,99.9
57.5036,382.7
57.5301,252.8
57.533,672.7
57.5335,138.4
57.5352,304.4
57.5542,350.4
57.5651,395.5
57.5768,117.4
57.5822,122.7
57.6022,125.6
57.6055,45.2
57.61,254.3
57.6211,20.2
57.638,15.4
57.6558,126.3
57.6823,143.9
57.6887,16.6
57.6967,245.2
57.6994,230
57.7046,160.3
57.7322,579.8
57.7342,226.5
57.7392,164.8
57.7476,1091.3
57.7549,545.6
57.756,561.5
57.7583,119.2
57.7679,196.4
57.7681,201.3
57.7796,514.2
57.7907,319.1
57.8056,517.1
57.812,321.9
57.8316,25.6
57.8327,390.7
57.8344,127.7
57.8473,163.4
57.8664,77.4
57.8984,370.3
57.8985,368.8
57.9016,705
57.9033,190.9
57.9067,192.8
57.9402,109
57.9624,94.5
57.9691,261.4
57.9857,597.2
57.9934,428.1
57.9964,126.7
58.0167,721.1
58.0239,309.4
58.027,756
58.0327,410
58.0337,712.5
58.0345,320.7
58.0474,128.8
58.0499,273.1
58.0657,98.5
58.0844,110.8
58.0886,742.3
58.1011,211.7
58.1118,658.6
58.1152,575.1
58.1176,74.5
58.1248,457
58.1369,432.7
58.1472,117.6
58.1528,158.5
58.1591,346.6
58.1677,82.4
58.179,177.4
58.194,446.6
58.2124,239.7
58.2193,367.8
58.2259,329.9
58.2296,108.8
58.2417,16
58.2678,199.3
58.275,16.7
58.2808,156.3
58.285,335.1
58.2876,274.7
58.3202,213.2
58.3248,33.4
58.3394,194.4
58.3411,347.3
58.3494,93.9
58.3649,37
58.3661,575
58.3704,18
58.3711,343
58.3777,118.9
58.3847,631.4
58.4017,89.1
58.4128,114.2
58.4139,338.5
58.4337,167.5
58.4483,524.8
58.4491,95.7
58.4571,592.7
58.4695,148.4
58.4749,86.6
58.4766,125.7
58.4791,285.8
58.4826,274.1
58.4909,84.9
58.505,115.4
58.5158,500.6
58.5292,466.5
58.5301,16.5
58.5369,535.8
58.556,103.8
58.5576,119.7
58.5854,124.5
58.5864,449.3
58.5929,228.4
58.5966,263.3
58.5985,33.8
58.6013,212.4
58.6027,121
58.6034,399.8
58.6082,173.8
58.6538,131.8
58.6586,19.1
58.6706,226.2
58.6732,113.3
58.6876,101
58.7051,135.7
58.7668,446.8
58.7875,593.6
58.7898,111.7
58.8056,112.1
58.8195,256.3
58.8201,387.8
58.8233,17.6
58.8243,94.9
58.8528,379
58.8629,317.6
58.8682,93
58.8814,584.7
58.8923,329.9
58.8982,114.5
58.9035,373.1
58.9091,258.3
58.9122,86.8
58.9218,211.5
58.9234,33.8
58.9353,116.3
58.9365,357.8
58.9415,405.4
58.9582,407.2
58.9638,611.5
58.965,134.1
58.9684,103.3
58.9749,241
59.0019,322.8
59.031,106
59.0331,205
59.0353,417.2
59.0363,101.5
59.0395,401.1
59.0501,39.3
59.0614,178.5
59.0629,36
59.071,375.9
59.0834,316.3
59.0863,129.4
59.0991,279.6
59.1066,139.3
59.1125,128.7
59.121,79.5
59.1224,18.6
59.1275,202.9
59.1402,347.2
59.1446,405.6
59.1548,124.6
59.1665,581.4
59.1873,46.6
59.2011,730.9
59.2039,176.7
59.2053,569.6
59.2301,116.9
59.2355,574.5
59.2363,342.7
59.2391,349.8
59.245,581.2
59.2581,425.7
59.2813,33.7
59.2824,33.4
59.3116,111.4
59.358,742.6
59.3595,17.3
59.3733,287.9
59.3802,210.5
59.381,495.8
59.4115,109.5
59.4133,17.9
59.4313,296.9
59.4363,18
59.4397,36.3
59.454,239.1
59.4582,305.3
59.4699,144.3
59.4738,313.6
59.4774,37.5
59.4889,218.7
59.4972,306.9
59.4993,393.2
59.5118,375.2
59.5153,153
59.5172,119.6
59.5211,116
59.5283,455.1
59.5818,672.8
59.5842,300.5
59.5926,121.6
59.595,15.8
59.6261,137.6
59.6281,319.3
59.6385,34.4
59.6392,158.4
59.6477,18.4
59.6526,95.8
59.6807,272.7
59.687,353.1
59.6902,938
59.7324,179
59.7334,323.4
59.7394,89.3
59.7611,230
59.8002,131.5
59.8153,260.3
59.8242,379.8
59.8256,102.6
59.8316,18.1
59.8432,364.7
59.845,330.4
59.8493,18.6
59.851,79.5
59.8516,100.6
59.8562,15.9
59.8728,153.5
59.8888,255.9
59.9041,259.3
59.9648,451.7
59.967,310.9
59.9885,342.7
59.9928,569.4
59.9942,229.6
60.0052,348.5
60.0085,383.9
60.0399,130.6
60.0455,352.3
60.0582,118.4
60.059,147
60.0674,35.4
60.0883,82.8
60.1087,353.1
60.1136,16.7
60.1188,462.5
60.1335,232.3
60.1362,236.7
60.1446,235.1
60.1447,244
60.1498,195.2
60.1706,18.2
60.1733,126.6
60.1807,19.2
60.1852,99.9
60.1893,17.3
60.1971,16.1
60.2048,134.3
60.2204,127.6
60.2292,404.2
60.2507,121.5
60.2712,17.4
60.2782,31.6
60.2885,93.2
60.3076,83.7
60.33,138.6
60.3322,99.4
60.3336,92.6
60.359,99.2
60.3612,311.8
60.3748,213.7
60.3788,125.3
60.3809,305
60.385,337.6
60.3989,302.8
60.4061,367
60.422,80.6
60.4242,147.9
60.4364,301.5
60.4462,158.6
60.4896,17.3
60.5055,121
60.5159,329.8
60.5268,80.1
60.5361,693.5
60.5456,632.4
60.5471,133.6
60.5817,176.3
60.5919,135.2
60.5982,20.7
60.6023,295.4
60.6055,295.5
60.6079,383.6
60.6122,46.1
60.6204,280
60.6384,95.4
60.67,557.6
60.682,103.1
60.6898,149.8
60.7413,358.7
60.7553,346.6
60.762,521.4
60.7661,340.1
60.7708,502.5
60.7866,123.8
60.8067,152.6
60.8194,372.8
60.8433,204
60.8455,270.8
60.8658,17.7
60.8672,153.2
60.8796,81.5
60.8804,119.2
60.8857,19.3
60.9265,99.7
60.9514,86.4
60.9621,338.2
60.9757,381.5
60.979,103
60.9817,389.4
61.0041,120.1
61.0149,402.1
61.019,200.9
61.0383,343.9
61.0533,559.7
61.0566,323.3
61.0721,35.2
61.0727,616.2
61.0732,20.5
61.0838,265.8
61.0897,458.9
61.0917,83.7
61.0922,332.6
61.1153,122.5
61.1295,268.6
61.1332,248.3
61.1363,171.3
61.1426,82.8
61.145,619.8
61.1579,335
61.163,80.2
61.1659,474.5
61.1838,617.9
61.1907,245.8
61.194,106.6
61.208,500.1
61.2088,259.1
61.2165,296.5
61.221,638.3
61.2274,465.7
61.2403,148.1
61.2419,88.4
61.248,300
61.2799,163.4
61.2878,323.8
61.3067,82.5
61.3073,245.7
61.3195,229.1
61.3226,140.2
61.345,101.1
61.3507,348.2
61.3693,167.2
61.3703,313.5
61.3748,92.1
61.382,312.5
61.385,161
61.3892,117.4
61.4244,37.2
61.4342,121.5
61.4365,159.9
61.437,21.8
61.4556,126.3
61.4887,703.5
61.4955,211
61.5124,17.7
61.5203,16.2
61.5386,341.8
61.5403,295.4
61.574,144.3
61.5806,19
61.603,410.6
61.6226,152.6
61.6408,560.4
61.6461,300.9
61.6544,95.4
61.6629,531.9
61.6671,31.7
61.7016,221.2
61.7169,266
61.7209,99.4
61.7279,382.8
61.7366,421.3
61.7545,321.4
61.76,275.5
61.7647,431.6
61.7759,403.1
61.7812,32.2
61.7832,499.3
61.7926,296.4
61.7938,103.1
61.8177,192.2
61.8325,333
61.8452,614.2
61.848,382.2
61.8618,262.2
61.8836,245.4
61.8845,314.2
61.9022,763.9
61.9175,261.4
61.9237,182.7
61.9492,18
61.955,35.2
61.9613,357.7
61.9636,18.5
61.9674,80.1
61.9718,88.6
61.9751,434.8
61.9759,353
61.9783,290.7
61.9831,654.5
61.9905,331.9
61.9918,368.2
62.0037,100.8
62.0042,652.9
62.0066,87.5
62.0136,167.3
62.0278,99.4
62.0406,143.5
62.0444,90.2
62.0587,483.5
62.0621,439.3
62.0912,131.9
62.112,16.7
62.113,351.4
62.1278,138
62.1301,516.5
62.1437,103.1
62.16,19.4
62.1634,106.5
62.1694,168.8
62.17,95.9
62.1762,343.7
62.1789,583.6
62.1864,429.6
62.1868,84.3
62.1925,88
62.2063,85.7
62.209,152.4
62.2109,17.2
62.2298,17.3
62.2417,174.3
62.2518,140.2
62.2655,33.7
62.2773,154.2
62.2915,120.9
62.2978,278
62.3019,126.5
62.3169,111
62.3309,36.9
62.3314,359.4
62.36,25.1
62.3606,18.2
62.3672,95
62.3743,300.1
62.3773,802.5
62.4127,151.3
62.4178,412.4
62.4294,502.1
62.4373,17.8
62.4427,232.8
62.4873,346
62.495,262
62.4957,361.7
62.5093,512.6
62.5187,543.3
62.5229,16.5
62.5285,135.7
62.5367,830
62.5381,454.9
62.597,173.4
62.5984,172.3
62.6004,362.6
62.6251,588.7
62.6449,482.8
62.6508,243.5
62.6802,285.1
62.7042,18.1
62.7153,18
62.7323,130
62.7401,17
62.7424,182.2
62.7441,140.5
62.763,430
62.7849,224.8
62.8139,256.4
62.8304,85.6
62.854,211.4
62.8666,141.8
62.8732,269.5
62.8761,320.5
62.8962,279.8
62.9054,16.9
62.9528,18
62.9534,293
62.9543,494.3
62.9553,17.5
62.989,409.4
62.9923,19.8
63.0236,251.1
63.0262,169.6
63.0333,94.8
63.0478,538.4
63.0609,138.9
63.0901,104.1
63.092,92.9
63.0966,140.5
63.1053,103.1
63.1393,93.6
63.1439,283
63.1609,451.7
63.1813,21.2
63.1851,207.8
63.2056,514.4
63.2221,260.3
63.2244,307.7
63.2858,32.7
63.2922,289.7
63.3043,359.1
63.3084,102.2
63.3187,291.1
63.3213,445.2
63.3616,251.2
63.369,17.1
63.3715,19.9
63.3778,366
63.3885,152.7
63.3955,734.2
63.4052,17
63.4174,127.8
63.421,103.1
63.4358,91.9
63.4615,431.3
63.4683,761.9
63.4698,746.4
63.5018,135.4
63.5026,559.3
63.5177,330
63.5213,89.9
63.5298,35.6
63.5644,333.7
63.5741,19.6
63.5808,642.8
63.582,135.2
63.5917,164.4
63.5969,361.4
63.5983,18.1
63.6,542.2
63.6083,110.3
63.6491,15.4
63.6539,558.7
63.6734,97.4
63.6923,18.8
63.7092,287.7
63.7196,153.4
63.7327,135.5
63.7513,17.1
63.7537,339.6
63.7548,404.8
63.786,23.8
63.7917,85.8
63.7952,288
63.8011,89.3
63.8024,154.9
63.8149,595.9
63.8285,18.4
63.8514,81
63.8547,415.3
63.8731,136.2
63.8781,126.6
63.8931,344.5
63.9095,226.6
63.9245,90.3
63.9312,123.4
63.9507,149.6
63.9535,560.6
63.9823,118.9
63.9979,217.1
63.999,328.3
64.0432,118.6
64.0513,86.4
64.053,122.7
64.1557,161.2
64.1681,248.3
64.1903,568.2
64.1919,362.6
64.1946,128
64.1993,613.7
64.2054,397.3
64.2062,98.1
64.2073,551.6
64.2212,506.2
64.2349,190.6
64.2488,266.2
64.2731,332.5
64.2852,520.1
64.2912,277.8
64.2961,104.8
64.3461,546.4
64.3633,31.9
64.3688,15.3
64.3744,292.3
64.384,93.7
64.3874,85.8
64.3895,125.3
64.4203,89.4
64.4262,424.4
64.4277,319.1
64.4377,107.2
64.451,85.7
64.46,264.3
64.4776,166.7
64.4846,178.2
64.5101,496.4
64.5225,401.9
64.534,127.6
64.5411,106.5
64.5505,182
64.554,38.4
64.5546,420.7
64.5618,90
64.5858,110.1
64.5961,113.4
64.6041,21.4
64.6068,153.1
64.6282,726.8
64.6538,141
64.6574,33.6
64.6617,392.1
64.663,76.7
64.6759,136.9
64.6937,166.9
64.6949,19.6
64.7195,16.9
64.7471,256.3
64.7525,484.4
64.7654,392.5
64.7696,96.4
64.7944,328.5
64.7973,15.7
64.8119,169.2
64.8248,125.7
64.8447,34.8
64.8552,434.3
64.8756,616.3
64.8772,17.9
64.8872,279.1
64.8879,324
64.8929,17.5
64.9014,116.3
64.9157,305.3
64.9296,87.2
64.9367,416.5
64.945,111.5
64.9485,457.3
64.9624,131.2
64.9818,16.6
64.9913,336.1
65.0026,297.7
65.0133,317.6
65.0306,93.1
65.0382,19.3
65.0539,396.3
65.057,83.7
65.0637,742.6
65.069,654
65.0834,179.9
65.0845,132.5
65.0874,275.3
65.094,110
65.1514,20
65.169,711.8
65.1721,483.2
65.1789,91.9
65.1991,355.5
65.2028,43.7
65.2179,658.2
65.227,346.6
65.2328,199.5
65.235,149.5
65.2524,636.8
65.2549,382.1
65.2796,118.4
65.2974,443.1
65.3145,104.4
65.3193,98.2
65.327,16.9
65.3464,513.5
65.3917,39
65.3962,209.6
65.4149,414.6
65.4272,91.1
65.458,435.5
65.4799,176.9
65.4964,105.3
65.5091,295.4
65.5325,97.7
65.5413,371.1
65.5515,209.1
65.5624,174.7
65.5706,94.3
65.5755,83
65.5855,261.3
65.591,126.4
65.5917,723.6
65.6071,88.1
65.6076,444.3
65.625,218.8
65.629,118.3
65.6326,102.4
65.6333,89.5
65.6825,611.9
65.6847,17
65.7049,653.5
65.7083,111.9
65.71,18.3
65.7314,436.6
65.7338,176.9
65.7375,471.4
65.7509,184.1
65.7566,126.1
65.7649,315.2
65.7656,155.6
65.7675,259.6
65.7704,187.9
65.7995,585.3
65.8036,280.1
65.804,453
65.8046,486.9
65.8217,134.3
65.8272,252.3
65.8446,677
65.8483,366.8
65.8713,415.3
65.883,19.1
65.9136,148.4
65.9403,240.1
65.9498,143.1
65.9649,133.7
65.9687,104.3
65.985,385
65.9889,250.1
66.0034,166.8
66.0105,164.9
66.0185,649.1
66.0384,24.6
66.0448,349.5
66.0533,99.4
66.0552,114.7
66.0576,94.5
66.0707,110.2
66.0912,16.5
66.1,19.6
66.1128,101
66.1189,718.2
66.1192,107.3
66.1235,19.9
66.132,361.1
66.135,367.1
66.171,141.8
66.1984,154.4
66.2341,254.1
66.2413,281
66.2516,253
66.274,220.6
66.2881,250.2
66.2911,17.1
66.3082,132.4
66.3261,394.8
66.3334,392.5
66.3416,602.7
66.3531,350
66.3717,157.1
66.3775,327.7
66.4134,82.2
66.4235,18.7
66.4262,728.8
66.4295,101.3
66.4322,274.3
66.4348,79.4
66.4367,17.1
66.4514,16.1
66.4683,416.5
66.4907,136
66.4943,325.4
66.5217,350.1
66.526,394.7
66.5431,327.8
66.5472,142.5
66.5648,38.1
66.5669,280.6
66.5756,18.6
66.5769,588.5
66.5833,139.3
66.5854,150.5
66.6005,427.4
66.6043,757.8
66.6236,232
66.6284,134.1
66.6299,774.5
66.6598,189.6
66.669,210.1
66.6767,131.7
66.6852,287
66.6883,170.1
66.7011,315.8
66.7062,17.1
66.7143,113.4
66.7182,260.8
66.7355,348.1
66.7551,175.7
66.8112,18.7
66.8145,215
66.8327,177.1
66.8548,405.8
66.8704,298.9
66.8773,181.1
66.8804,302.8
66.9319,606.6
66.9453,102.2
66.9839,333.7
67.0098,353.1
67.0165,401.4
67.0202,126.5
67.0349,95.6
67.0401,386.6
67.0434,230.6
67.0499,244.9
67.0539,30.1
67.0597,90.2
67.0639,339.5
67.0708,339
67.0917,323.5
67.0931,694.6
67.1269,91.3
67.133,413.2
67.1358,404.5
67.1605,127.4
67.1644,280.1
67.1863,104.7
67.2122,103.4
67.213,113.9
67.2265,233
67.2273,469
67.2652,247.6
67.2695,256.5
67.2941,19.2
67.3009,112.1
67.3029,749.2
67.3037,21.5
67.3469,583.2
67.3507,115.3
67.3556,106.7
67.3713,341.6
67.3858,602.3
67.3863,156
67.3886,100.3
67.4121,262.8
67.4179,540.6
67.4351,331.6
67.4467,170.7
67.4474,307.2
67.4584,296.7
67.4665,623.2
67.4953,175.7
67.5078,362.8
67.5164,17.5
67.5239,214.1
67.5271,176.8
67.5373,99.1
67.5459,247.7
67.5506,412
67.5511,326.8
67.5517,439.7
67.5583,92.8
67.5606,97.3
67.5625,615.3
67.5753,154.1
67.6008,22.5
67.6054,141.1
67.6164,18.9
67.6234,96.9
67.6327,200.8
67.6397,623.4
67.6495,145.7
67.6502,138.8
67.6862,18.6
67.6936,123.3
67.7156,589.4
67.7196,574.6
67.7243,107.2
67.7363,97.5
67.7378,128
67.7392,180.7
67.7554,406.7
67.7973,532.5
67.8061,579.8
67.8106,432.8
67.8123,130.3
67.8337,95.5
67.8478,171.2
67.8604,22.2
67.87,407.4
67.8905,290.3
67.8916,142.6
67.9481,125.8
67.9585,469.8
67.9806,170.4
67.9903,264.2
68.0043,402.5
68.0428,449.9
68.0474,18.2
68.0596,236.5
68.0673,118.9
68.0748,18.8
68.075,18.6
68.1002,630.9
68.1092,117
68.1268,152.9
68.1325,84.8
68.1411,326.6
68.1432,239.5
68.1513,18.2
68.152,436.4
68.1715,366.2
68.1753,97.5
68.1851,218.9
68.1931,86.9
68.1951,313.3
68.2197,517.6
68.2357,369.9
68.2447,161.4
68.27,227.8
68.2761,242
68.2847,217.7
68.3378,19.7
68.3569,40.2
68.3815,599.5
68.3917,658.1
68.3927,158
68.4042,36.1
68.4137,274.4
68.4162,15.8
68.4185,337.8
68.4224,491.7
68.4559,346.8
68.4646,792.6
68.4917,124.8
68.4967,104.1
68.5037,103.5
68.5354,150
68.5448,391.5
68.5612,89.1
68.5881,102.4
68.5894,124.6
68.6288,139.2
68.6292,831.5
68.6405,131.6
68.6507,229.3
68.6683,416.3
68.6789,438.8
68.6814,160.6
68.6995,251.9
68.7067,322.2
68.7106,248.5
68.7293,351.7
68.7335,325.7
68.7344,77.6
68.7362,923.3
68.75,306.6
68.7612,164.1
68.789,670.3
68.8037,145.7
68.8193,217.1
68.828,495
68.8315,110.4
68.8336,246.2
68.8371,154.4
68.8763,572.8
68.9451,533.9
69.0073,84
69.0106,158.5
69.0196,18.2
69.0248,322.4
69.0696,18.8
69.0789,92.5
69.1086,150.9
69.1104,219.9
69.1477,182.8
69.1644,121.4
69.1796,239.9
69.1848,149.4
69.2016,97
69.2069,607.5
69.2272,590.8
69.2303,158.8
69.231,19.5
69.2506,94.5
69.2628,719.9
69.2675,90.5
69.2725,133
69.2773,38.8
69.2886,332.9
69.3582,18.2
69.3755,94.8
69.4117,268
69.4146,152
69.4211,316.4
69.428,343.3
69.4326,619.9
69.4416,117.9
69.4539,527.2
69.4548,42.1
69.4563,126.7
69.4818,133.5
69.4863,21.6
69.4994,604.7
69.5227,641.8
69.5365,419.7
69.5725,111.6
69.5779,143.2
69.5913,144.9
69.6055,366.4
69.6058,326.1
69.6131,103.2
69.6155,546.7
69.6212,128.6
69.6279,442.9
69.6425,462.3
69.6474,109.1
69.649,481.1
69.6526,395.8
69.6577,122.5
69.6605,119.6
69.6754,165.7
69.6778,84.1
69.7138,643.4
69.7334,365.6
69.7399,120.2
69.755,105.6
69.7763,160.1
69.7796,346.2
69.78,408.5
69.7973,145
69.8149,17.1
69.8192,622.9
69.8451,133.1
69.8469,782.2
69.8662,527.1
69.8742,15.5
69.8761,472.5
69.8856,232.2
69.9159,318.8
69.9281,102.8
69.9382,16.7
69.9663,162.2
69.9807,94.8
69.9846,456.2
70.0064,399.6
70.0188,609.4
70.0648,780
70.0916,530.4
70.0948,34.9
70.1006,117.3
70.1293,249.1
70.1374,356
70.1493,389.1
70.1692,122.9
70.1842,17.2
70.1989,603.1
70.2252,112.5
70.2267,816.4
70.2281,309.6
70.2332,201.3
70.2671,305.1
70.2874,627.7
70.2883,19.3
70.3017,37.9
70.3348,109
70.3444,21.1
70.3851,467.2
70.3928,361.1
70.4037,303.7
70.4111,113.1
70.4129,293.3
70.4248,570.1
70.4346,193.2
70.4357,325.7
70.4531,120.9
70.4661,665.6
70.4851,154.2
70.4995,18.2
70.5024,24.5
70.505,354.2
70.5158,656.8
70.5586,302.8
70.5611,17
70.5699,123.9
70.5942,118.8
70.598,106.9
70.6057,153.6
70.607,427.3
70.6084,298.5
70.6535,178.1
70.675,352.4
70.7012,206.6
70.7051,121.3
70.7134,728.5
70.7158,750.3
70.7223,15.9
70.732,96.6
70.7502,125.4
70.7757,266.2
70.7761,409.8
70.829,85.4
70.8383,303.5
70.8875,156.8
70.8935,453.6
70.8949,245.9
70.8966,120.3
70.9185,431.1
70.9572,165.2
70.9709,277.5
70.9741,249
70.9747,246.8
70.9894,16.9
71.0091,188.3
71.0415,16.3
71.0437,594.9
71.0814,97.2
71.116,124
71.1171,499.3
71.1457,16.7
71.1723,17.8
71.1787,103.2
71.2038,264.3
71.2693,237.3
71.2872,310.3
71.2913,485.1
71.3146,164.2
71.3538,83.7
71.3705,174.3
71.4116,21.5
71.4145,283
71.4299,95.9
71.454,326.7
71.4716,112.4
71.5102,87.6
71.5184,783.6
71.5283,276.7
71.5419,632.1
71.5523,388.7
71.5619,350.1
71.5651,92.9
71.5706,96.6
71.573,126
71.5989,281.4
71.6099,202.1
71.6132,81.3
71.6178,109.2
71.6241,154.7
71.6248,621.1
71.63,16.7
71.6313,39.1
71.6474,243.2
71.6537,274.5
71.655,123.8
71.6598,109.9
71.7123,120.8
71.7598,104.6
71.7801,287.5
71.7972,16.5
71.8189,313.5
71.8472,177.4
71.8597,259.1
71.861,486.6
71.8761,99.3
71.9006,160.6
71.909,359.9
71.918,88.2
71.9284,235.3
71.9342,92.3
71.9617,266.7
72.0048,356
72.0103,399.3
72.0226,112.2
72.0285,333.5
72.052,444
72.0543,339.3
72.0615,176.5
72.0681,193.4
72.0787,33.8
72.0805,1230.1
72.1038,19.5
72.114,731.1
72.1155,738.1
72.1233,688.9
72.1283,475.2
72.131,207.3
72.154,288.3
72.1552,136.7
72.1649,158.9
72.1826,129.3
72.1879,105.5
72.2134,200.7
72.2144,1121.5
72.2151,443.1
72.2158,249.1
72.217,1654
72.2176,1111.6
72.2183,523.9
72.2186,578.6
72.2191,1106.9
72.2193,1118.3
72.2203,1926.1
72.2222,1892
72.2236,2504.2
72.2242,1981.6
72.2252,849.8
72.2259,1300.3
72.2265,1251
72.2273,2880.9
72.2279,3339.6
72.2287,2886.3
72.2291,2802.4
72.2302,1521.9
72.2311,2895.3
72.2316,3683.3
72.2325,1717.5
72.2329,1812.1
72.2337,2884.3
72.2348,783
72.2355,886.9
72.2369,2182.6
72.2376,585.7
72.2388,412
72.2394,317.7
72.2405,162.7
72.2418,120.4
72.2426,163.6
72.244,91.3
72.2446,88.3
72.2794,333.9
72.3111,128
72.3632,17.5
72.3638,116.9
72.4081,138.1
72.4261,228.4
72.4541,221
72.4565,379.3
72.4662,489.6
72.4809,247
72.4948,18.4
72.4973,772.2
72.5016,399.4
72.5471,39.5
72.5508,310.1
72.5521,695.1
72.5612,15.1
72.5851,304.3
72.6062,408.8
72.6546,126.6
72.6886,143.9
72.6935,86.1
72.6951,83.5
72.703,16.8
72.754,748.3
72.7672,171.5
72.7998,345.3
72.8122,358.5
72.8141,307.3
72.818,17.9
72.8226,341.3
72.836,282.2
72.8452,353.2
72.855,233.7
72.8858,136.2
72.9205,640
72.9221,170.4
72.9342,17.5
72.9636,88.5
72.9667,80.1
73.0108,183.3
73.0302,109
73.0367,303.8
73.041,596.4
73.0477,120
73.0679,18.8
73.1373,127.6
73.138,115.7
73.1477,687.2
73.1638,636.1
73.1821,322.9
73.1877,16.5
73.2037,181.3
73.2285,317.6
73.2293,409.2
73.2401,204.8
73.2493,421.4
73.2525,141.3
73.3039,75.4
73.3052,355
73.3234,294.9
73.33,18.2
73.3381,94.9
73.3432,363.8
73.3533,348.2
73.3728,107.9
73.3738,85.6
73.3884,515.8
73.3993,619.4
73.4042,464.5
73.4351,653.6
73.4416,132.3
73.4607,103
73.4668,468.2
73.4784,79.6
73.4978,157.8
73.5178,15.3
73.5293,15.6
73.5372,367.3
73.5418,130.6
73.5691,493.2
73.588,680.5
73.5899,238.7
73.5925,94
73.5993,687
73.6153,436.8
73.6398,189.3
73.6549,326.2
73.6561,152.8
73.679,109
73.6889,17.9
73.699,313
73.7035,259.8
73.7147,40
73.7175,207.9
73.7219,831.3
73.7242,453.7
73.7274,325.3
73.728,161.2
73.7415,433.4
73.752,213.2
73.7563,430.9
73.7624,280.2
73.7897,21.6
73.7993,423.7
73.8078,17.7
73.8134,612.5
73.8447,247.4
73.8668,98.1
73.8734,645.6
73.8887,141.6
73.8923,375.7
73.9059,107.8
73.9167,97.9
73.9472,16.7
73.9801,17.2
73.9916,135
74.0254,231.4
74.0491,270
74.0597,2990
74.0692,715.3
74.0826,391.6
74.1168,90.3
74.1207,259.9
74.1342,164.4
74.1456,152.3
74.166,309.9
74.1999,20.8
74.2011,429.7
74.2059,20.5
74.2116,182.9
74.2235,312.5
74.2651,151.2
74.2767,429.6
74.2789,85.8
74.31,390
74.3149,96.3
74.3304,94.3
74.3321,153.4
74.3483,418.2
74.355,106.1
74.3758,116.8
74.3794,16.2
74.3824,337.7
74.4031,389.1
74.4044,147
74.4627,419.3
74.4717,127.5
74.4748,272.4
74.5064,91.2
74.5285,371.7
74.5565,352.8
74.5671,273.6
74.5733,149.1
74.5953,289.1
74.6657,18.7
74.6718,19.5
74.6855,165.5
74.6922,120
74.6948,17.4
74.7086,81.9
74.7536,589.1
74.7578,19.8
74.7664,92.1
74.7777,230.7
74.8062,129
74.8236,122.7
74.8431,626.5
74.8727,661.1
74.8762,17.2
74.883,210.8
74.8929,145.9
74.8949,39.8
74.9158,82.8
74.9204,154.2
74.9433,17.1
74.9722,159.3
74.9906,16
74.995,601.9
75.0055,127.2
75.0475,463.9
75.0487,102.9
75.0515,22
75.052,138.7
75.0561,335.2
75.0591,17.4
75.0677,85.1
75.0689,17.4
75.0902,16.5
75.0914,217.6
75.1061,152.4
75.1398,424.9
75.1765,693.6
75.1785,145.3
75.1932,429.5
75.2358,381.2
75.2552,317.7
75.3055,359.7
75.3224,253.4
75.3331,691.8
75.4058,269.7
75.4334,101.1
75.4448,146.1
75.4602,201.9
75.4761,17.5
75.4767,40.5
75.5481,142.1
75.5602,16.3
75.5685,80.8
75.5858,17.2
75.6007,740.8
75.6118,18.9
75.6183,495.8
75.6342,179.1
75.6563,16.4
75.664,85.6
75.6652,448.4
75.6768,128.3
75.7588,124.1
75.7767,34.2
75.7779,308.2
75.784,725.1
75.7873,233.1
75.7928,314.2
75.7996,164.1
75.852,175.7
75.8973,26.9
75.9276,81
75.9301,95.3
75.9448,182.3
75.9461,99.1
75.9568,674.3
75.969,775.7
76.0256,262.9
76.0264,39.2
76.046,17.4
76.0747,20
76.0769,136.4
76.0942,705.5
76.0971,456.2
76.1489,95.5
76.1528,95.5
76.1651,16.1
76.1893,607.8
76.2642,160.1
76.2813,392.2
76.3021,187.9
76.345,94.4
76.3512,321.7
76.3661,128.4
76.3795,371.1
76.3848,114.7
76.434,18.4
76.4428,511.9
76.4567,88.8
76.4577,498.6
76.5109,91.1
76.5271,505
76.5314,138.9
76.5362,88.3
76.5683,689.8
76.5795,283.5
76.582,129
76.5862,113.6
76.5903,91.3
76.5967,139.2
76.6197,219.4
76.6358,122.4
76.6452,454
76.647,19.8
76.6644,468.7
76.6672,398.8
76.6818,628
76.6919,275.6
76.7044,18.3
76.7196,98
76.8279,260.7
76.8409,266.4
76.844,17.9
76.8568,589.8
76.8575,502.1
76.8812,265.8
76.9313,293.4
76.9383,319.9
76.9419,197.3
76.9531,17.6
76.956,209.5
76.9731,91.7
76.984,17.4
76.9929,383.4
76.9951,118.9
77.017,88.3
77.0269,397.8
77.0349,863.6
77.0383,119132.2
77.0435,389.2
77.0694,403.8
77.0856,482.5
77.0963,17.8
77.1302,806.8
77.1748,130.9
77.199,138.2
77.1999,478.5
77.2079,32.9
77.2566,238.1
77.2728,86
77.281,97.3
77.3115,88.2
77.3188,17.5
77.3664,378.5
77.383,39
77.392,119.8
77.3923,105.6
77.3969,216.5
77.4042,75.8
77.4046,82.2
77.4373,18
77.486,154.9
77.488,310.8
77.5006,22.7
77.5125,17.6
77.5321,495.4
77.5395,149.6
77.5693,666.1
77.5709,357.4
77.5879,90.7
77.5926,190.4
77.599,128.3
77.6087,146.8
77.6263,423.8
77.682,421.4
77.7702,733.5
77.7996,117.1
77.8027,109.5
77.8411,117.3
77.8509,95.5
77.854,221.4
77.8544,204.6
77.8561,133.2
77.8679,86.1
77.9124,253.4
77.9283,462.4
77.9454,189.8
77.9465,320.5
77.9519,282.9
77.9901,571.9
77.9908,597.7
78.0417,3319.2
78.0521,238.7
78.0555,585.7
78.083,475.5
78.0872,94.6
78.0899,17.3
78.0947,290.1
78.1041,514.6
78.1114,385.2
78.1119,583.2
78.1161,151.8
78.1252,382.3
78.1422,19
78.1528,32.4
78.1712,209.7
78.2027,137
78.224,16.9
78.2386,816.6
78.249,87.3
78.2668,236
78.2938,472.7
78.3158,193.9
78.3243,331.9
78.3317,512.5
78.353,77.3
78.3764,226.9
78.3877,93.2
78.4122,742.8
78.4366,94.2
78.4426,176.6
78.4651,137.9
78.5065,98
78.515,324.6
78.5226,549
78.5451,238
78.553,17.1
78.5609,95.4
78.5825,140
78.6063,292.2
78.6253,17.9
78.6377,585.3
78.6618,238.4
78.6642,88
78.6663,227.6
78.6713,854.6
78.6762,256.3
78.6839,116.8
78.6946,39.6
78.7285,385.4
78.7293,101.9
78.7461,99.3
78.7882,405.1
78.791,347.8
78.8218,605.1
78.8535,809.8
78.8629,166.8
78.888,262
78.914,92.6
78.9347,441.6
78.9831,18.3
78.9865,80.3
78.9966,458.2
79.0118,444.3
79.0274,498.9
79.0334,118.9
79.054,1656
79.055,205.3
79.1089,136.1
79.1092,137.3
79.2318,141.4
79.2606,470.5
79.3513,19.6
79.3604,97.8
79.3843,254.3
79.3887,372.8
79.395,567.4
79.4077,704.9
79.4163,392
79.4247,703.8
79.4321,255.4
79.4496,306.2
79.464,230.5
79.4662,141
79.4722,112.1
79.4822,113
79.5422,157.6
79.5906,90.9
79.5924,127.6
79.6008,20.4
79.6179,16.5
79.6235,104.4
79.6268,90.7
79.6443,90.1
79.6487,137.1
79.6663,356.8
79.6858,19.8
79.7064,230.7
79.7089,215.2
79.714,79.3
79.7222,19.4
79.7318,89.1
79.7534,17.2
79.7785,370.9
79.7832,413.4
79.7849,16
79.8114,185.8
79.8349,224.8
79.841,517.4
79.8447,157
79.8701,90.6
79.8764,332.8
79.898,356.5
79.9023,700.2
79.9133,125.6
79.9204,238.4
79.9478,121.6
79.9798,351.4
79.9852,197.6
80.0201,176.7
80.0274,129.6
80.0384,340.9
80.0496,108.1
80.0573,299.3
80.0658,243.2
80.073,179.7
80.0814,503.9
80.0869,133.8
80.0903,587.6
80.1027,851.5
80.107,100
80.1234,535.9
80.2122,210.9
80.2167,94.5
80.2554,136.5
80.2711,511.5
80.3164,129.6
80.3216,546.9
80.3286,497.1
80.3316,17.9
80.3327,199.2
80.3476,16.2
80.3609,228.7
80.3626,114
80.3716,468.3
80.3926,405.9
80.4457,197.2
80.4602,434.7
80.4774,19
80.483,359.2
80.497,110.6
80.5544,279.4
80.5607,131.2
80.5666,104.5
80.5902,17.1
80.6019,413.8
80.6718,851.3
80.6789,214.6
80.6827,891.5
80.6876,97.4
80.7446,150.3
80.7554,533.9
80.7601,95.6
80.8014,192.1
80.8425,216.5
80.9099,175.1
80.9454,427.4
80.9476,61564.7
80.9486,18.9
80.967,251.8
81.0357,431.8
81.043,109
81.0683,639.2
81.0696,1616.5
81.1228,17.2
81.1447,98.3
81.1455,348.6
81.1458,350.4
81.1481,3980.8
81.1498,812.1
81.1517,188.8
81.1539,318.2
81.1561,704.3
81.167,205.8
81.2024,19.5
81.203,18.6
81.2111,329.7
81.2211,125.7
81.226,16.3
81.245,101.9
81.258,360.6
81.2604,720.1
81.2795,16.6
81.3044,17.5
81.3306,101.1
81.3423,169.1
81.3569,405.5
81.3607,214.7
81.3774,955.3
81.4102,96.8
81.4467,17
81.4564,729.6
81.4641,17.3
81.4934,273.6
81.4984,516.3
81.5335,157.4
81.5526,295.6
81.5908,206
81.6122,161.7
81.6146,47.3
81.6239,290.2
81.6256,304.4
81.6833,89.9
81.7,15.8
81.7079,429.8
81.7084,325
81.7297,102.3
81.7461,306.7
81.754,241.1
81.7635,123.5
81.767,141.1
81.786,149
81.7916,311.6
81.7997,129.9
81.8944,18.2
81.9033,293.8
81.9183,238.3
81.9306,89.5
81.9422,278.7
81.9482,397.3
81.956,334.9
81.9681,82.6
81.974,318.8
81.9886,424.8
82.0055,19.7
82.0128,174.3
82.0179,113.9
82.0186,82.3
82.0296,102.8
82.035,640.4
82.0476,18.9
82.0653,104.5
82.0703,17.8
82.0724,102.6
82.073,28.8
82.0854,343.7
82.105,233.8
82.1122,21.8
82.1173,725.9
82.1453,18.2
82.1521,210.6
82.1566,361
82.1832,39.6
82.2216,38.7
82.2742,465.8
82.2795,88.3
82.2821,219.8
82.2846,21.1
82.2929,257.6
82.3083,100.8
82.3144,657.2
82.3275,480.9
82.3405,157.1
82.3767,118.5
82.3916,413.4
82.3999,86.1
82.4164,651.6
82.4425,116.2
82.4494,236.5
82.4507,316
82.4745,235.6
82.4861,356.1
82.4972,157.9
82.5263,102.3
82.542,138.6
82.5504,92.9
82.5515,217
82.5624,101.8
82.5631,140.3
82.6015,308.3
82.6042,35.9
82.613,491
82.624,578.8
82.6856,542.3
82.7015,92.9
82.7108,463.5
82.7335,185.2
82.7534,301.7
82.7793,40.5
82.7901,106.7
82.8074,104.8
82.8083,140.7
82.8208,189.4
82.839,171.9
82.8428,166.8
82.8486,230.4
82.8917,36.2
82.9161,168.2
82.9275,108.8
82.931,269.8
82.9351,16.1
82.9447,17750.1
82.9849,169.8
83.0251,142.6
83.057,137.2
83.0853,26
83.095,474.3
83.1021,504.7
83.1068,16.2
83.1164,79.1
83.126,559.8
83.1535,290
83.1554,124.3
83.2259,547.1
83.2415,101.6
83.2581,23.8
83.2995,261.4
83.3035,351.5
83.3327,95.1
83.3517,230.3
83.3628,183.8
83.3818,449.1
83.3939,162.9
83.4383,19.7
83.4411,202.8
83.4517,132.3
83.4736,155.8
83.4888,140.4
83.5089,822
83.5225,164.4
83.5421,517.1
83.5514,126.7
83.5918,34.1
83.6317,127.4
83.6555,134.4
83.6724,673.3
83.6747,36.5
83.7041,82.9
83.7306,298.7
83.7672,443.1
83.7813,320.2
83.7961,133.2
83.81,399
83.8226,17.4
83.8511,17.8
83.8525,489.4
83.8742,292.4
83.8767,800.5
83.8949,403.6
83.8983,269
83.9271,155.1
83.9886,94.5
84.0087,16.4
84.0359,33.4
84.0385,700
84.0443,1179.6
84.0676,409.2
84.0766,93.4
84.0806,770.5
84.0861,413.9
84.098,124.2
84.1272,20.2
84.1385,412.3
84.156,600.6
84.1631,678.4
84.1687,129.9
84.2028,248.2
84.2699,335.8
84.2849,313.7
84.3098,126.7
84.3545,445.3
84.375,95.6
84.3828,327.9
84.3915,18.2
84.4179,255.9
84.4211,87.2
84.4305,264.4
84.4427,83.6
84.5545,91
84.5764,119
84.5854,222.8
84.5904,442.5
84.599,127.4
84.601,18.7
84.611,18.1
84.6154,166.5
84.6173,126.9
84.6278,187.3
84.6324,315.4
84.6599,167.3
84.6664,137.8
84.6727,506.6
84.7122,154.7
84.7189,322.5
84.7506,426
84.7646,592.3
84.8033,218.3
84.8179,277.6
84.837,17.5
84.8513,121.6
84.8551,267.8
84.9011,723
84.9216,17.7
84.951,353.5
84.9517,383.8
84.9595,17229.3
84.9737,340.6
85.0008,230.2
85.0026,147.6
85.0126,723.1
85.0227,388.3
85.0282,1467.1
85.0323,174.4
85.0679,405.2
85.0706,368.6
85.0744,19.6
85.0799,304.8
85.1043,308.6
85.1256,172
85.1368,345.4
85.1549,20.5
85.1588,218.1
85.16,587.7
85.1804,131.5
85.1888,256.2
85.1933,94.9
85.2088,127.1
85.2223,78.6
85.2459,150.6
85.2542,522.2
85.2568,317.9
85.2715,252.6
85.277,262.6
85.314,762.1
85.3259,17.9
85.3545,497
85.3611,514
85.3956,18.7
85.4063,687
85.4378,101.6
85.4478,134.6
85.4658,288.3
85.4687,167.7
85.4714,195
85.4966,221.7
85.5162,371.2
85.5295,91.7
85.5376,113.3
85.5514,86.4
85.5605,139.5
85.5709,511
85.58,18.8
85.5849,275.2
85.6057,194
85.681,408
85.6899,18.1
85.7475,325.6
85.7693,123
85.8041,94.8
85.833,339.4
85.8347,238.5
85.8357,130.6
85.8416,416
85.9016,94.6
85.9183,171.5
85.9216,432.7
85.928,18.9
85.9352,206.4
85.9385,82.5
85.9458,349.5
85.9614,101
85.9686,388.3
85.9965,190.9
86.0223,92.8
86.0278,128
86.0283,308
86.0337,282.9
86.0528,440.2
86.0551,431.5
86.0598,36167.1
86.0962,123359
86.0978,16.5
86.1028,18.4
86.1518,275.8
86.1671,431.3
86.21,90.2
86.2126,18.9
86.2673,306.1
86.2792,270.8
86.305,178.6
86.3185,142.9
86.321,258.2
86.3246,179.5
86.341,190.8
86.3878,18.2
86.4013,91.3
86.4184,367.6
86.4285,486
86.4329,348.9
86.44,125.2
86.4441,18.1
86.4604,424.2
86.4938,221.4
86.5035,350.3
86.5256,364.5
86.5591,16.8
86.5628,17.6
86.5745,17.5
86.5795,19.1
86.5966,428.6
86.6047,139.1
86.622,87.3
86.6253,448.3
86.6735,819.9
86.6866,566.1
86.6986,595.2
86.6994,154.1
86.7153,83.2
86.7205,117.3
86.7354,138.8
86.744,144.6
86.756,496.9
86.7592,103.4
86.8008,460
86.853,347.5
86.8569,47.5
86.8928,104.7
86.9068,279.9
86.9261,192.2
86.9312,238.1
86.9703,157.7
87.0028,631.3
87.0073,141.3
87.0935,162.9
87.0996,1605.7
87.1245,140.1
87.1325,177.4
87.2103,18.9
87.2311,16.4
87.2672,290.4
87.2774,323.3
87.2824,296.2
87.3005,90.7
87.3435,231.8
87.3497,231.4
87.3763,324
87.3894,488
87.4201,389.8
87.4515,557.1
87.4711,162.9
87.4732,101.5
87.4755,91.1
87.4877,398.9
87.5163,97.1
87.5454,547.2
87.557,18.9
87.5721,97.2
87.6287,317.6
87.6737,210.5
87.6971,408.6
87.7903,292.5
87.8289,280.8
87.831,17.3
87.8503,51.7
87.8798,168.3
87.8843,99
87.8936,342.3
87.898,315
87.9044,329.5
87.9062,93.9
87.9291,246.5
87.9626,124.6
87.9877,112.5
88.0391,7884.8
88.0509,211.1
88.0568,108.4
88.0584,171.3
88.0886,99.1
88.0966,17.8
88.1102,408.2
88.1192,425.9
88.1206,420
88.1308,106
88.141,91.3
88.1459,137.7
88.1487,20
88.1772,153.4
88.1995,273.9
88.207,187.3
88.2211,295.3
88.2564,577.2
88.2573,17.1
88.2786,160.5
88.3051,430.8
88.3225,27.2
88.3445,366.6
88.3541,238.8
88.3789,85.6
88.4177,848
88.4255,338.2
88.428,45
88.4699,98.5
88.4983,270.8
88.5193,179.6
88.5282,311.7
88.5569,489.9
88.5671,280.4
88.5911,303.6
88.5956,379.8
88.6259,96.3
88.6426,376.3
88.6703,316.3
88.6765,126
88.6769,148.6
88.6773,105.1
88.6809,369.7
88.6987,17.5
88.7178,102
88.7204,194.6
88.7321,117.7
88.7481,172.6
88.7789,128.3
88.8097,254.7
88.8201,233.9
88.8241,328.5
88.8255,219.1
88.8393,359.5
88.8473,456
88.8557,378.2
88.8619,20.3
88.8701,352.1
88.8707,686.2
88.9105,190.4
88.9177,19.1
88.9388,17.4
88.9399,359.1
88.958,203
88.9896,565.8
89.0022,162.6
89.0188,272.4
89.0339,410
89.0577,202.5
89.0593,375.6
89.0759,729.7
89.1171,292.3
89.1378,108.4
89.1561,505.3
89.1574,176.4
89.1827,114.9
89.1943,141.9
89.2169,221.9
89.2899,351.2
89.3033,17.2
89.3115,315.7
89.3129,18.9
89.3287,137.6
89.3761,84.1
89.3873,356.3
89.4023,354.8
89.47,550
89.4735,99.1
89.4749,18.1
89.5005,262.8
89.5024,23.7
89.5199,100.8
89.5279,330.8
89.5819,136.5
89.5914,18.1
89.642,279.5
89.6554,173.7
89.6959,339.5
89.7371,39.1
89.8686,259.7
89.8828,36.6
89.8879,110.4
89.9127,139.8
89.915,507.7
89.9419,20
89.9636,761.6
89.9644,235.9
89.97,96
89.9729,181
89.9934,235.8
90.076,94.9
90.1706,247.2
90.2437,84.4
90.2964,17.3
90.3184,345.6
90.3296,17.5
90.3427,17.7
90.353,131.6
90.3834,20.5
90.4212,385.7
90.5129,179.9
90.5492,395.4
90.5656,261.5
90.5692,148.2
90.5717,17.4
90.6008,248
90.6139,127.4
90.6456,20.3
90.6618,18.4
90.6668,310.3
90.6759,306.7
90.7275,378.8
90.7526,36.5
90.7757,208.1
90.7803,20.5
90.788,153.2
90.7954,151.2
90.7982,575.4
90.7996,744.8
90.806,364.8
90.8121,236.6
90.8239,412.5
90.8323,248.6
90.8354,21.7
90.8496,16.2
90.8604,117
90.8874,662.5
90.9036,631.4
90.9142,82.9
90.9279,318.6
90.9369,235.2
90.9475,130.1
90.9724,487.7
90.9765,9511.2
90.9819,85.9
91.0125,337.8
91.0541,1414.4
91.0717,349.7
91.1052,130.2
91.1115,20.3
91.1131,441
91.1512,194.1
91.1585,166.9
91.1836,36.7
91.2059,365
91.2151,23.2
91.2176,140.4
91.2804,215.4
91.318,674.6
91.3207,118.1
91.3443,711.2
91.3522,591.4
91.3735,22.1
91.3808,251.4
91.3857,313.2
91.4058,40.9
91.4175,393.8
91.42,90.5
91.4215,530.9
91.4476,102.2
91.4519,484.7
91.4788,90.1
91.4824,481.7
91.5153,105.8
91.5348,636.6
91.557,366.3
91.5604,202.3
91.6131,693.7
91.6943,480.2
91.7286,333.6
91.7902,656.2
91.8023,317.9
91.8072,169
91.8327,96.5
91.8372,202.5
91.8889,104.1
91.923,124.9
91.9442,391
91.9612,43.7
91.9661,263.5
91.9665,423.5
91.9667,384.1
91.9809,170.5
91.9841,18.7
92.0167,104
92.0254,90
92.0326,581
92.0579,19
92.0772,332.8
92.0796,22.2
92.094,342.7
92.0951,578
92.1197,121.7
92.178,336.7
92.1856,17.7
92.2178,134.9
92.2355,17.8
92.2442,24
92.2759,653
92.3093,264.8
92.3178,484.2
92.3189,449
92.3311,365.2
92.3567,135.2
92.3758,275.8
92.379,618.9
92.43,333.3
92.4651,626.8
92.4919,142.1
92.5751,330.2
92.5847,154.2
92.5955,169.6
92.602,327.8
92.6044,383.5
92.6151,600.8
92.6448,19.4
92.6535,322.1
92.7091,180
92.7102,17.4
92.7233,623.7
92.7563,96.3
92.7871,19.2
92.8051,236.4
92.8226,107.1
92.8269,244.5
92.8928,18.7
92.9187,97
92.9248,664.5
92.9365,112
92.9475,19.6
93.0125,554.8
93.0145,236.2
93.0169,116
93.0264,631.4
93.0334,23.4
93.0592,104.2
93.0663,133.4
93.113,665.5
93.1152,430.1
93.1219,16.5
93.1656,885.7
93.1671,316.7
93.206,37.5
93.2073,154.6
93.2089,399.5
93.2221,125.4
93.2687,1460.5
93.2708,82
93.2917,182.5
93.3081,195.7
93.3284,619.9
93.3483,137.2
93.3657,253.1
93.3744,536.7
93.4027,19.9
93.4176,94.7
93.4201,448.6
93.5222,89.3
93.533,96.8
93.5537,328.6
93.5613,17.3
93.5875,106.7
93.7113,614.2
93.7384,134.2
93.7532,404.6
93.7752,222.9
93.7956,20.4
93.8264,93.2
93.8862,333.2
93.8939,141.6
93.9297,541.1
93.9576,264.6
93.9588,94.1
93.9721,151.3
93.9812,356.4
94.0035,342.7
94.0206,250.2
94.0217,353.9
94.0356,140.6
94.0412,54447.8
94.0476,479.4
94.0644,831.5
94.0714,223.7
94.0737,592.3
94.0884,263.1
94.0905,653.1
94.0988,87.3
94.1274,19.4
94.1852,95.1
94.2023,380.4
94.2749,16.5
94.3082,104.4
94.3294,507
94.3374,352
94.3544,18.7
94.3555,1087.2
94.3644,268.6
94.3685,188
94.3725,16.8
94.3794,460.3
94.3839,268.2
94.4075,247.4
94.4161,339.4
94.4759,189.4
94.4781,119.3
94.4853,238
94.506,17.8
94.5146,325.1
94.5327,392.4
94.5511,110.4
94.6251,20.1
94.6312,286.3
94.6383,156.4
94.6559,27
94.6924,93.2
94.7003,461.8
94.7011,95.8
94.7364,587
94.7438,380.7
94.7446,37
94.7461,385
94.7537,180.9
94.7664,18.5
94.8036,243.7
94.8251,292.2
94.8797,141.2
94.8846,20.5
94.8897,299.9
94.9036,131
94.9334,237.6
94.9586,206.5
94.9612,18
94.9945,123.2
95.0089,594.9
95.0356,19
95.0363,142.6
95.0433,19.4
95.0446,921.1
95.047,66
95.049,406915.8
95.0509,102.8
95.0513,120.1
95.0527,42.1
95.0534,22.5
95.0624,83.2
95.0854,605
95.0893,96.3
95.1254,271.3
95.15,43.3
95.1603,17.3
95.1673,128.8
95.2178,381.8
95.3166,737.5
95.3192,96.5
95.3467,281.7
95.3822,443.8
95.3991,246.2
95.4146,191.9
95.4629,100.4
95.4783,107.5
95.5169,638.8
95.5317,462.5
95.5569,383.6
95.562,388.5
95.6284,140
95.6473,24.9
95.6481,374
95.6585,102.8
95.6711,526.6
95.7165,397.4
95.729,249.9
95.7431,550.6
95.7751,143.3
95.7906,145.8
95.8254,218.6
95.8479,18.4
95.8504,88.6
95.8535,402.7
95.863,17.6
95.8862,95
95.941,142.4
95.9597,310.4
95.9972,423.4
96.034,298
96.0376,95.5
96.0523,19521.8
96.0586,19.8
96.0635,310.9
96.0776,633
96.1662,221.5
96.1707,435.2
96.2082,93.4
96.2209,17.6
96.2541,367.8
96.2729,320.2
96.2949,189.1
96.2979,426.3
96.3745,143.5
96.3765,555.4
96.3777,235.6
96.3845,227.8
96.3932,157.4
96.3965,139.5
96.4269,102.7
96.4794,105.8
96.5331,368.3
96.5422,238.9
96.593,308.3
96.5944,352.7
96.5989,255.3
96.6559,315.2
96.7013,597.3
96.7015,520.9
96.7103,271.2
96.7453,97.8
96.7709,17.6
96.7749,38.8
96.7804,97.2
96.8274,298.1
96.9123,579.7
96.9216,174836.5
96.9298,301.9
96.9442,97.8
96.9695,133.2
97.0035,110.7
97.0074,206.4
97.028,141.4
97.0367,417.5
97.0423,21.2
97.0532,78.7
97.0556,51.3
97.0724,224
97.0759,41.5
97.1011,58.7
97.1117,269
97.1207,285.2
97.1379,789.7
97.1442,381.1
97.1512,322.9
97.1725,79.5
97.2066,974.7
97.2603,606.3
97.2639,307.7
97.268,337.7
97.2824,656.6
97.3098,717.8
97.3282,382.8
97.4209,656.3
97.4499,90.2
97.4963,93.5
97.5788,478.2
97.5834,326.4
97.6197,136.6
97.6489,159.9
97.6659,509.1
97.6822,21.2
97.7062,352.3
97.7146,441.9
97.8366,258.4
97.8598,486.4
97.8675,454.1
97.8904,88.1
97.8915,640.5
97.951,134
97.9537,84.2
97.9762,212
98.0077,322.5
98.0762,101.3
98.0959,319.6
98.0991,129.1
98.1041,79.8
98.1078,713.2
98.1139,139
98.129,946.2
98.1371,178.1
98.1618,88.5
98.2042,259.3
98.2761,116.9
98.2887,644.5
98.2973,701.9
98.3434,103.7
98.351,799.7
98.3847,161
98.4192,23
98.4361,18.7
98.442,36.6
98.4695,317.6
98.5072,191.1
98.5878,105.6
98.6268,578.4
98.648,356.2
98.6548,88.4
98.663,156.7
98.6861,18.5
98.6926,356.9
98.7052,230.2
98.7521,476.2
98.7545,426.6
98.8379,111.8
98.8559,216.7
98.8762,130.9
98.8927,117.1
98.9187,54669
98.9197,8576.3
98.9266,315.9
98.9555,418.9
98.9752,15188.5
98.984,146.7
99.0397,148.8
99.1008,186
99.1489,109.5
99.1568,123.4
99.1931,159.9
99.1952,36.8
99.2044,331.7
99.2054,1014
99.2201,580.2
99.2812,92.1
99.3138,186.5
99.32,514.7
99.3381,113.6
99.3404,751.7
99.421,106.3
99.4417,347.3
99.462,140
99.4636,264.3
99.4816,878.2
99.5171,143.5
99.5236,160.7
99.5359,224.2
99.5369,85.5
99.5505,153.2
99.575,1022.2
99.5913,252.5
99.6252,243.4
99.6338,83.6
99.6546,193.1
99.6612,106.8
99.671,146.5
99.6777,95
99.6889,161
99.7168,54.7
99.7375,517
99.7557,17.9
99.7601,182.7
99.7806,129.8
99.8749,751.5
99.8892,379.7
99.9085,18
99.9256,160
99.9753,92.9
99.9853,19.7
100.003,170.1
100.023,21.8
100.0292,138.1
100.0359,33.3
100.0592,123.2
100.0647,283.6
100.071,287
100.0756,24.9
100.1657,47.8
100.1913,254
100.1975,554.2
100.2143,262.4
100.2344,197.7
100.2643,226.5
100.2875,314.1
100.296,234.7
100.3097,116.6
100.3925,238.8
100.4099,100.2
100.4223,339.2
100.47,168
100.5379,187.2
100.5611,92.3
100.5736,558
100.6117,38.9
100.6383,129.7
100.6396,617.1
100.6476,355.4
100.6512,156.2
100.7415,31
100.7661,248.4
100.7862,270.8
100.8059,332.7
100.8226,130.6
100.8441,477.3
100.9157,479.8
100.9169,1541.3
100.9332,161.6
100.9503,19.8
100.9736,168.9
101.0083,626
101.0416,254.9
101.047,2396.5
101.0571,396.9
101.0709,801.4
101.0898,755.2
101.1219,25.9
101.1482,402.9
101.1579,280.1
101.1708,105.4
101.2253,357.7
101.2641,103.2
101.3114,20
101.3229,354.3
101.3351,245.8
101.3514,722.3
101.3547,315.5
101.3855,345
101.3915,83.2
101.4104,497.9
101.4393,16.7
101.4536,170.4
101.4825,95.6
101.4926,509.6
101.5036,425.2
101.5059,18.7
101.5471,17.2
101.5564,540
101.5865,116
101.6383,117.7
101.6427,407.7
101.66,409.6
101.6675,182.5
101.7145,294.5
101.7172,132.7
101.7251,547.7
101.733,21
101.7631,133.9
101.778,145.7
101.7787,510.2
101.8697,501.7
101.9029,254.8
101.9183,347.7
101.9517,375.3
102.0178,582.4
102.0217,19.2
102.0548,4357.1
102.0781,388.9
102.0862,20.2
102.0948,109.8
102.1078,39.2
102.1214,544.7
102.1928,36.8
102.1961,843.9
102.2101,142.1
102.2227,479.9
102.2303,309.8
102.2563,297.5
102.2876,133.6
102.3006,298.3
102.3011,402.5
102.3146,176.5
102.3185,418.5
102.369,128.5
102.4304,508.6
102.441,365.4
102.474,130.5
102.4747,82.1
102.5412,277.5
102.574,17.8
102.589,189.1
102.6275,139.3
102.6293,656.6
102.6335,679.3
102.6379,176.3
102.6596,594.2
102.7005,241.2
102.7044,182.4
102.7126,907.3
102.7516,86.9
102.7623,87
102.7721,323
102.8679,247
102.8743,428.5
102.8795,339.7
102.8879,101.8
102.894,88.6
102.9161,633
102.9324,325.9
102.9514,615.6
102.9586,115.7
102.9618,118.4
102.9683,110.7
102.9701,598.5
102.9921,142.2
103.0081,34.2
103.0293,139.4
103.0367,96
103.0383,153
103.0447,153.8
103.0541,903
103.0643,174.1
103.1067,17.7
103.1591,19.5
103.1769,293.4
103.1799,88.9
103.2023,182.1
103.2148,97.7
103.272,447.4
103.2767,493.4
103.4543,93.8
103.491,624.7
103.5322,16.5
103.5452,19.9
103.5478,416.6
103.5965,105.7
103.6373,18.9
103.6605,232.2
103.6738,122.8
103.6898,471.4
103.7284,120.4
103.7517,84.4
103.7642,342.3
103.7691,40.2
103.7981,344.2
103.8153,721.1
103.8182,221.6
103.8313,300
103.8409,93.5
103.8558,402.5
103.8594,18.2
103.8832,427.1
103.8922,288.3
103.8953,522.7
103.9641,109.8
103.9887,198
104.0199,291.4
104.022,105.6
104.0435,410.2
104.0462,232.2
104.06,315.5
104.0892,120.4
104.1069,609737.3
104.1918,128.3
104.2029,128.2
104.2197,95.2
104.2238,140
104.2455,17.2
104.2582,19.9
104.2687,187.4
104.2747,179.3
104.2997,20.5
104.3262,752.7
104.3389,790.2
104.3844,18.2
104.4182,18.4
104.4511,17
104.4958,98.7
104.5064,18.3
104.5346,103.7
104.5806,275.9
104.5882,508.8
104.6354,18
104.6492,264.2
104.652,18.8
104.6551,270.7
104.7098,97.6
104.7206,89.6
104.7521,309.4
104.7547,114.9
104.7572,115
104.7788,32.5
104.8042,96.1
104.827,82.9
104.8934,600.6
104.9077,28
104.9122,383.9
104.9134,389.3
104.9632,156
104.9649,119
104.9673,16.9
104.9855,179.9
104.9922,4278.1
105.0032,29.5
105.0043,103.9
105.01,95.1
105.0278,91.6
105.0446,41031.1
105.0697,23.8
105.0946,286.7
105.102,152.5
105.1102,23053.8
105.1461,129.7
105.1515,599.9
105.2077,341.9
105.219,254.9
105.2302,553.2
105.2416,506.3
105.2585,138.9
105.2804,86.4
105.3082,321.1
105.3554,504.1
105.3623,345.8
105.386,123.6
105.4131,116.6
105.4312,122.6
105.4359,16.8
105.4486,20
105.464,336.4
105.5105,93.3
105.5152,19
105.5858,290.5
105.5883,479.4
105.5975,435.3
105.6016,703
105.6095,125.1
105.6174,97.1
105.626,255.6
105.6288,765
105.6359,185.8
105.6449,692.9
105.6881,123.8
105.7124,17.1
105.7163,116.2
105.719,356.9
105.725,151.4
105.7262,459.3
105.7326,395.1
105.7549,470.4
105.8196,218.4
105.8779,128.6
105.8971,84.2
105.9029,21.1
105.9286,254.3
105.9577,759.4
105.9781,163.4
106.0081,17.4
106.0256,100.7
106.0479,921.2
106.0545,132.9
106.0832,142.4
106.1335,334.9
106.1398,95.5
106.1486,124.2
106.1631,362.6
106.1698,212.5
106.1717,562.3
106.1784,17
106.1932,392.7
106.22,86.9
106.2383,326.3
106.2422,465.8
106.2521,142.2
106.2643,92.4
106.2725,295.2
106.3033,741.7
106.3157,406.7
106.3722,322.8
106.4163,564.1
106.4181,116.7
106.4334,459.1
106.4688,383.9
106.6005,18
106.6069,94
106.6316,144.8
106.651,600.5
106.6779,400.6
106.7161,295.1
106.7204,101
106.7255,634.1
106.7355,351
106.7423,178.8
106.746,512.6
106.7723,212.3
106.7806,97
106.7979,343.1
106.8552,494.6
106.8621,153
106.8651,116.1
106.9505,3124.9
106.9552,732.6
106.9629,19.8
106.9919,48.2
106.9963,647.9
107.0283,49.3
107.049,609.2
107.07,95.8
107.0855,22.2
107.1105,732.1
107.1738,78.3
107.1834,245.8
107.2331,120.3
107.2419,511.7
107.247,468.9
107.3086,115.6
107.316,92.9
107.3174,227.7
107.3696,192.1
107.3733,171.6
107.3923,286.6
107.4371,422.8
107.4473,342.4
107.4503,143.7
107.5069,18.3
107.5197,175.1
107.558,458
107.5671,633
107.5724,219.1
107.5924,427
107.5951,18.6
107.6202,317.3
107.6255,17.6
107.6433,90.9
107.6455,751.8
107.6896,337.6
107.7251,392.7
107.7565,99.4
107.7764,527.2
107.7869,96.4
107.8182,486.5
107.8419,217.2
107.8647,253.4
107.8753,269.4
107.8922,17.2
107.9173,359.6
107.9488,20.2
107.9576,379.2
107.9729,175.9
107.9764,360.3
108.0004,365.5
108.0954,250.5
108.1242,100.5
108.1473,136.3
108.1612,295.4
108.2334,575.6
108.2584,101.4
108.2852,154.9
108.3045,344.1
108.3176,380.4
108.3454,759.2
108.3665,174.7
108.408,106.9
108.4166,23
108.4181,16
108.4186,16.9
108.4238,127.5
108.4549,260.9
108.462,394.9
108.4686,158.1
108.474,374.8
108.4776,203.6
108.494,210.5
108.5668,279.1
108.5698,99.7
108.5808,719.3
108.6548,86.8
108.6846,106.1
108.6963,95.2
108.7268,91.5
108.744,258.2
108.7493,35.4
108.7709,96.4
108.8229,158.6
108.8479,186.4
108.8645,42.1
108.8691,82.3
108.8913,87.2
108.9027,81.6
108.9197,430.3
108.9413,404
108.9827,37.1
109.0091,448.5
109.0428,19.4
109.047,242.5
109.0524,169.8
109.0647,61158.5
109.0672,24.8
109.075,336.4
109.083,135.6
109.1014,872.4
109.1517,279.4
109.1888,590.9
109.1972,129.5
109.203,331.2
109.2493,83.9
109.2642,826.1
109.2739,312.8
109.276,91
109.2879,159.6
109.3369,121.7
109.4215,521.3
109.4514,347.2
109.4906,120.5
109.4965,620.3
109.5787,295
109.6001,74.2
109.6304,23.5
109.6367,282.7
109.6382,657.5
109.6452,84.5
109.6934,168
109.6944,473.1
109.716,106.1
109.7615,234.9
109.7714,154.3
109.8059,473.8
109.8739,18.7
109.891,18.5
109.9684,132
109.9752,19.8
109.9878,413.3
109.9913,102.1
109.9952,176.7
110.024,279
110.0285,329.8
110.0414,80.9
110.0681,2516.3
110.0711,403.6
110.1118,493.6
110.1411,163.4
110.147,362.1
110.1585,336.9
110.2059,121.1
110.2129,94.2
110.2984,125.6
110.3187,142.5
110.3199,36.5
110.3528,100.5
110.3977,325.8
110.3999,128.5
110.4468,162.1
110.4702,316.8
110.5023,161.9
110.5063,119.5
110.5627,286.3
110.6249,19.1
110.6323,20
110.6717,78.2
110.741,144.8
110.7936,152
110.8123,361.5
110.8431,95.8
110.8504,153.3
110.8758,381.9
110.9814,130
111.0179,136.9
111.0232,364.2
111.0297,538.2
111.044,338.2
111.0714,26.9
111.0885,117.9
111.0918,24.1
111.1166,17.3
111.137,230.2
111.1439,210.7
111.1706,110.3
111.1896,103.7
111.1926,617.7
111.2139,173.5
111.2206,142.1
111.2453,174.5
111.249,17.6
111.2509,111.6
111.3297,378.9
111.3395,97.9
111.3527,230.7
111.3731,444.9
111.4206,378.1
111.4363,236.8
111.454,176.4
111.4693,184.7
111.4744,84.3
111.4949,366.2
111.4967,838.2
111.5196,361
111.5223,389.7
111.5725,358.9
111.5753,106.4
111.6672,527.8
111.6879,433.9
111.6992,110.8
111.715,460.5
111.7343,263.9
111.7513,623.3
111.8093,124.5
111.8389,171.9
111.8517,492.8
111.861,144.4
111.8769,445.1
111.8963,89.5
111.9134,297.7
111.9155,185.7
111.9204,176.9
111.9372,356.3
111.9386,335
111.9983,18.2
112.0008,308.7
112.0565,367
112.0614,286.6
112.1041,872.9
112.108,105
112.1177,401.1
112.1302,416.2
112.1349,396.7
112.155,371.3
112.2109,223.1
112.2211,107
112.2403,380.8
112.2804,155.1
112.3093,245.6
112.3305,314.3
112.3667,171.7
112.3968,16.7
112.4005,103.6
112.4819,316.6
112.4993,170.6
112.5226,133.2
112.5364,16.4
112.541,176.8
112.564,373.4
112.654,108.2
112.6679,207.5
112.7166,141.4
112.7663,137.6
112.7965,18.1
112.837,101.3
112.8513,273
112.8956,491564.6
112.9366,167.9
112.9586,209.7
112.9721,134.3
112.9778,439.3
112.9919,175.3
113.0224,462.7
113.0422,677.6
113.0441,462.6
113.0962,544.7
113.1066,155.5
113.1469,121
113.1537,621.2
113.1572,97.9
113.1685,100.1
113.2117,124.5
113.2382,942.9
113.2527,96.6
113.2562,19.7
113.2606,123.8
113.4382,276.4
113.4516,435.4
113.4586,338.5
113.4904,38.3
113.5009,488
113.5262,235
113.5763,106
113.5785,298.8
113.6103,97.5
113.6228,139.4
113.6255,149.5
113.672,655.5
113.7064,343.8
113.7418,275.7
113.7466,111.1
113.7495,78.8
113.817,37.3
113.8295,88.5
113.8743,97.7
113.8785,449.7
113.8887,308.7
113.8997,171.8
113.9378,352.1
113.9865,618.4
113.9889,240
113.999,21.5
114.0302,309.3
114.0366,506.5
114.0549,51574.1
114.066,659.1
114.0784,149.2
114.0868,311.2
114.0912,22.7
114.1716,371
114.1727,210.5
114.1759,413.4
114.2126,102.8
114.275,390
114.309,130.4
114.3537,18.9
114.3619,288
114.3981,129
114.4163,694.6
114.4362,17.4
114.4782,343.8
114.5031,20.8
114.5323,296.2
114.5376,121.8
114.5426,764.1
114.549,203.6
114.55,234.3
114.5646,501.3
114.569,239.8
114.5874,146.6
114.6338,124.2
114.67,80.8
114.7082,288.4
114.7159,566.5
114.7338,474.7
114.741,19.4
114.7728,21.5
114.786,36.3
114.8341,355
114.8703,340.9
114.8859,97.7
114.8927,156082.5
114.9024,129.2
114.9222,91.8
114.9381,347.2
114.9537,17.7
114.9557,423.8
115.0037,315.3
115.0216,77.9
115.036,16.2
115.0542,23
115.0582,677
115.0865,351.9
115.171,20.2
115.2025,419.9
115.2917,19.1
115.3052,115.4
115.3121,540.9
115.3415,322.4
115.3718,129.6
115.3894,102.4
115.4678,17.8
115.5243,92.9
115.5446,17.3
115.5519,261.3
115.5649,902.7
115.5743,150.4
115.5799,394.4
115.5865,86.5
115.6985,533.2
115.7014,22.6
115.7334,19
115.7448,670.5
115.7837,186.7
115.785,260.3
115.7935,356.2
115.8078,129.8
115.9465,181.7
115.9567,292.2
115.9655,243.1
115.9805,107.3
116.008,167.8
116.0642,234.9
116.0705,3917.3
116.0928,556.9
116.125,156.4
116.1339,612.3
116.1537,200.5
116.2032,18
116.2389,225.4
116.3188,523
116.347,390.9
116.3643,95.2
116.3947,248.7
116.4446,100.9
116.4476,756.7
116.4857,112.2
116.4865,134.7
116.487,119.5
116.5409,109.2
116.5557,341.5
116.5592,17.8
116.5665,145.5
116.5737,146.7
116.6119,139.8
116.6427,181
116.6955,20.6
116.7054,100.6
116.7393,372.4
116.8152,780.9
116.8908,20489.9
116.8996,496.3
116.9081,434.2
116.9859,1557.5
117.0702,159.2
117.1989,162.8
117.2142,436.5
117.2229,643.2
117.2662,89.9
117.3319,272.3
117.3939,292.1
117.4396,322.6
117.4634,145.2
117.4816,432.4
117.4886,517.9
117.5303,98.8
117.551,85.1
117.5618,431.8
117.5743,334.4
117.6215,131.1
117.6834,20.1
117.7108,121.4
117.7263,168.7
117.7277,121.1
117.7686,102.4
117.7949,16.5
117.8148,128.6
117.9089,342.1
117.9488,83.4
117.9705,16.9
117.9982,18.2
118.0421,580.7
118.0498,112.3
118.0652,113.6
118.0838,302.9
118.0843,337
118.1365,424.9
118.1835,249.5
118.1864,93.9
118.1891,238.9
118.2524,289.3
118.2548,19
118.2596,338.8
118.2839,317
118.3004,506.8
118.3053,103.3
118.3669,328
118.4031,162.5
118.4353,346.2
118.4941,156.8
118.5306,99.4
118.5507,122.8
118.5957,20.1
118.6221,169.4
118.6749,327.1
118.832,330.9
118.8774,95.5
118.9061,627.5
118.9243,92.1
118.9425,204.9
118.9536,86.8
118.9727,257
119.0188,57.4
119.024,135.2
119.06,238.9
119.1442,94.5
119.1481,130.8
119.1486,133.9
119.1491,107.4
119.1859,484.3
119.2071,91.2
119.2295,148.6
119.2407,491.2
119.2619,89.2
119.2698,136.6
119.3491,193.9
119.3569,98.5
119.3624,130.4
119.386,134.4
119.3899,91.7
119.4056,89.8
119.5167,195.4
119.5506,903.5
119.5574,39.1
119.6029,292.7
119.6195,230.5
119.6255,19.4
119.6288,136.3
119.6405,16.6
119.6957,92.5
119.7479,390.1
119.7654,19
119.8061,94.3
119.8139,18.2
119.8269,414.9
119.9022,252.3
119.9635,507.5
119.9661,179
119.9765,437.3
120.0031,5746.7
120.0112,17.8
120.0157,129.5
120.025,256
120.0453,244.2
120.0659,19.5
120.0807,11888.2
120.1405,127.2
120.1612,290.8
120.1654,122.8
120.1751,22.7
120.2089,129.4
120.2199,770.8
120.2424,530
120.2477,210.9
120.2692,93.5
120.3324,343.2
120.3361,372.5
120.348,19.6
120.3737,413.5
120.4,37.9
120.4355,148
120.4776,126.6
120.4935,577.9
120.5154,619.6
120.5499,260
120.708,18.5
120.7198,318.5
120.8292,126.3
120.8717,149.3
120.8761,352.1
120.8965,168.4
120.9272,254.3
120.9336,17.9
120.9661,788
120.9808,114.9
121.0075,358.4
121.0175,352.4
121.0196,94.1
121.0242,17.8
121.0283,358.9
121.0396,88.4
121.0467,702.5
121.0582,467.1
121.1012,21.3
121.1058,19.5
121.1282,94.4
121.1591,876.9
121.1883,130.2
121.3084,349
121.3096,122.8
121.3349,18
121.3585,201
121.3744,403.8
121.4478,112.2
121.4535,337.2
121.4754,19
121.4812,18.6
121.5071,444.3
121.5664,129.4
121.5717,168.8
121.6305,358.3
121.6586,129.5
121.6604,599.1
121.7126,125.1
121.7549,337
121.7665,397.6
121.7829,21.2
121.7904,476.1
121.8005,677.8
121.8151,109.7
121.8915,17.7
121.9019,17.2
121.9101,266.8
121.9146,17.3
121.9161,393.6
121.9538,125.3
121.9593,102.4
121.969,97.6
121.9728,343
121.9932,157.3
122.0811,391.8
122.1061,345.8
122.1424,396.1
122.2009,453.8
122.217,369.4
122.288,524.4
122.291,100
122.3159,306.8
122.3329,491.1
122.3343,459
122.3485,330.8
122.3798,82.4
122.4349,688.1
122.4558,342.8
122.4729,21.9
122.481,677.6
122.5183,388.9
122.5269,17.3
122.561,16.5
122.5654,91.9
122.5848,309.8
122.614,121.4
122.6816,424
122.6958,256.2
122.7623,562.6
122.8282,357.7
122.8956,243.8
122.9245,23671.1
122.957,475
122.9926,148.8
123.0109,247.4
123.0804,39.2
123.1166,20.8
123.1452,244.1
123.2265,445.6
123.2366,404.3
123.2529,150.4
123.2627,20.7
123.2648,125.7
123.3116,16.7
123.3149,240.7
123.3598,519.6
123.3713,86.5
123.3733,134.8
123.3751,160.5
123.3809,257.2
123.4,552.2
123.4423,359.4
123.4556,167.9
123.4827,150.9
123.4958,181
123.5189,280.2
123.5297,242
123.5594,89.3
123.5636,544
123.5743,327
123.6424,407.6
123.7407,512
123.7456,288.6
123.7484,161.7
123.7693,19
123.8006,800
123.8023,17.3
123.8447,319.6
123.9139,380.5
123.9323,98.4
123.9725,808.2
124.016,129.7
124.0286,88.5
124.055,367.7
124.08,102.2
124.1517,156.8
124.1578,212.8
124.2144,272.5
124.254,113.2
124.2772,121.9
124.2835,239.8
124.2904,391
124.3696,18.6
124.3805,703.9
124.3889,263.9
124.4518,344.1
124.4726,128.9
124.5484,436.5
124.5947,17.5
124.6133,141.5
124.6869,38.9
124.7224,437.1
124.7462,183.9
124.7667,517.1
124.7952,376.5
124.8704,496.2
124.9226,2290.3
124.9301,172.2
124.9997,7679.6
125.0041,1704.6
125.0055,290.2
125.0204,296
125.0389,248.1
125.0523,362.4
125.0546,247.4
125.0597,33.1
125.1073,98.8
125.1213,104.3
125.124,381.4
125.1617,233
125.214,135.6
125.2289,365.4
125.2531,239.9
125.2778,123.4
125.285,210.7
125.3827,100.6
125.3879,906.2
125.3912,19.3
125.4201,317.5
125.4668,153.6
125.4814,96.2
125.4841,327.3
125.4949,266.1
125.5139,118.1
125.5876,18.1
125.5927,284.1
125.6129,166.7
125.6496,280.3
125.7137,932.9
125.7852,409.4
125.8264,150.8
125.9599,497
126.0011,366.8
126.0206,96.7
126.0768,105.9
126.0853,419.8
126.12,341.3
126.1296,174
126.165,17.3
126.1893,37.5
126.2015,97.6
126.2037,102.4
126.2096,189.2
126.2398,196.7
126.2412,124.5
126.2544,350
126.3873,332.7
126.4663,179.9
126.4754,17
126.4817,339.3
126.4969,369.1
126.5652,150.6
126.606,346.9
126.656,34.8
126.7788,102.5
126.7943,107.3
126.8159,21.8
126.8258,233.9
126.8746,449.6
127.0059,875.3
127.0477,181.6
127.0532,257.1
127.0622,99.3
127.0857,156.3
127.113,144.6
127.1165,415.5
127.1183,303.1
127.1381,420.7
127.1568,341
127.16,480.2
127.2241,19.5
127.2468,198.1
127.3422,106.1
127.3575,98.9
127.3871,88
127.4552,39
127.4665,259.1
127.5017,168.5
127.5455,21.7
127.6315,33.5
127.6531,518.1
127.6892,103.6
127.7006,200.5
127.7118,718.3
127.772,380.8
127.7961,19.1
127.8028,276.6
127.8375,238.3
127.9055,312.3
127.9412,155.9
127.9759,19.4
128.0061,258.3
128.0204,557.8
128.0307,646.8
128.0379,382.4
128.0516,590.4
128.0872,674.5
128.103,194
128.1769,96.1
128.2127,611.2
128.2633,18.5
128.2951,92.6
128.3055,450.1
128.4096,220.9
128.4171,751.8
128.4589,22.6
128.475,548.7
128.4901,37.1
128.4943,428.6
128.6913,123
128.7057,459.6
128.7078,584
128.7465,362.5
128.7578,83.7
128.765,131.8
128.7978,426.6
128.8239,696.7
128.8338,18.4
128.8384,192.2
128.8832,183.6
128.8919,224.9
128.9075,467.4
128.9703,172.7
128.989,18.4
128.9932,98
129.0032,601.1
129.0614,434.8
129.0657,353.1
129.0674,381.4
129.102,46.5
129.1347,18.2
129.1414,34.4
129.2322,177.7
129.2399,224.5
129.3158,196.5
129.3347,151.7
129.3775,260.3
129.4411,17.6
129.4702,109.2
129.5157,724.6
129.6443,92.6
129.6623,742.3
129.6714,451.9
129.6942,737.8
129.7674,191.2
129.7688,104
129.7757,544.9
129.8409,139.7
129.8576,36.4
129.8885,256.6
129.9407,39.3
129.944,19.6
129.9826,712.7
129.9895,634.4
130.0498,6948.4
130.0528,108.6
130.0651,303.5
130.2275,84.4
130.2348,259.9
130.2459,120
130.3075,625.7
130.3118,213
130.3645,20.5
130.3741,449.2
130.4264,138.8
130.4301,655.6
130.4518,166.1
130.4984,361.2
130.5476,97.8
130.5761,200.1
130.6517,107.2
130.7048,379.2
130.7067,123.1
130.713,211.9
130.7264,606.7
130.7356,936.2
130.7911,218
130.8382,436.1
130.8688,122.7
130.951,265
131.0126,22.5
131.014,207.4
131.0207,116.3
131.0296,20.7
131.0315,641
131.0656,182.3
131.1069,21
131.1136,240.8
131.163,18.5
131.1707,374.9
131.179,108
131.2153,17.7
131.2732,459.9
131.2778,126
131.3051,645.8
131.3256,442.8
131.4623,175.2
131.5526,417.9
131.5807,299.1
131.6109,791.7
131.6614,34.8
131.7467,19.5
131.7518,519.2
131.7912,138.8
131.8317,379.6
131.8441,105.9
131.8564,138.5
131.8632,127
131.8833,130.7
131.9128,517.9
131.9259,314.8
132.0032,28457
132.0067,181.8
132.0255,18
132.0655,86838.2
132.0685,24.2
132.0768,599.6
132.1694,85.9
132.1841,787.2
132.2253,430.9
132.2498,411.2
132.2962,96.5
132.3844,374.6
132.3938,432.7
132.4104,256.8
132.4619,375.4
132.5441,94.9
132.5629,670.8
132.5644,18.3
132.5866,190.7
132.6163,521.8
132.6179,428.2
132.6386,155.6
132.6474,96.6
132.6532,18.3
132.7091,309.2
132.7192,90.1
132.7459,475.5
132.7527,104.9
132.7864,173.1
132.7887,638.5
132.7948,232.5
132.8033,94.4
132.8533,353.3
132.8598,246.7
132.8668,16.8
132.8694,178.6
132.8883,404.8
132.941,274.9
132.9524,646.4
132.9644,212
132.9851,323.8
132.9871,6131.4
132.9942,358.5
133.0214,102.1
133.0689,2935
133.0935,19
133.0971,20628.9
133.1013,172.2
133.1813,417.7
133.1921,136.4
133.2383,447.4
133.2452,336.3
133.2687,843
133.3109,136.3
133.3646,42.5
133.3719,438.6
133.4117,182.7
133.4511,754.5
133.4707,423.9
133.5374,472.3
133.547,37.1
133.5986,104.3
133.6198,101.4
133.6311,350.1
133.6362,121
133.6605,202.2
133.6674,640.4
133.6828,585.9
134.0121,366.7
134.0188,12441.2
134.0268,360.8
134.0303,658.4
134.0885,768.4
134.0913,347.3
134.0991,280.5
134.193,163.5
134.2262,237
134.2289,402.9
134.2875,309.9
134.3032,137.1
134.3073,20.1
134.4617,89.7
134.5282,450.2
134.548,16.7
134.5651,796.9
134.6734,133.5
134.6748,357.8
134.6857,19.6
134.6984,392.3
134.7729,148
134.7761,99.6
134.8236,287.3
134.828,87.9
134.8412,537.4
134.9247,323.5
134.9665,136.4
134.981,193.3
134.9966,34
135.0029,107778.3
135.0154,492.3
135.0214,18
135.0232,45.3
135.0455,90.3
135.0973,345.3
135.1034,17
135.1076,101.8
135.1168,151.2
135.1438,18.4
135.1569,18.3
135.2136,89.2
135.2476,561.8
135.2619,103.1
135.2675,377.3
135.2732,19.9
135.3015,92.6
135.3119,16.8
135.3211,798.8
135.3425,144.1
135.4311,486.9
135.4414,42.4
135.4453,18.4
135.463,771.5
135.4822,195.1
135.5313,210.9
135.6061,20.1
135.6186,165.2
135.6526,533.7
135.665,78.8
135.6836,461.8
135.7056,111.6
135.7166,121.8
135.7397,765.4
135.7746,187.7
135.7912,527.6
135.835,18.5
135.9198,179.6
135.9772,3579.9
135.9917,21.7
136.0062,1055.5
136.0481,7519.8
136.0618,44.6
136.0715,354.1
136.0757,7406.8
136.1089,151.6
136.1653,18.2
136.1675,120.6
136.2941,453.6
136.318,281.9
136.3265,19.4
136.3695,134.3
136.4164,22
136.4444,689
136.5173,114.8
136.5299,786.9
136.5324,1015.1
136.6168,370.4
136.6612,479.6
136.6934,396.1
136.7435,149
136.7477,18.8
136.7691,470.5
136.8034,391.2
136.8446,367.8
136.8667,20.9
136.89,508.5
136.9496,523.1
136.9684,352.7
137.0107,615.6
137.0577,358.9
137.0599,22.8
137.1184,316.3
137.1202,669.7
137.158,567.4
137.172,288.5
137.189,132.4
137.2006,246
137.2163,43.5
137.2509,245.2
137.2877,1102.7
137.3183,19
137.3648,517.7
137.3691,18.4
137.4023,133.2
137.4393,102.5
137.4757,341.1
137.4954,116.5
137.4972,261.2
137.5341,120.4
137.6522,40.7
137.6551,512.2
137.6738,97.6
137.7014,756.9
137.7323,466.5
137.8059,401.4
137.8142,434.3
137.8487,101.5
137.8505,142.4
137.8904,22
138.0198,139.6
138.0224,264.3
138.0238,19.1
138.0526,6497.1
138.0661,90.5
138.1474,232
138.1837,20.5
138.1879,105.5
138.239,186.4
138.2488,18.4
138.3229,102.7
138.3723,472.2
138.3731,425.9
138.3738,139.6
138.4955,244.7
138.5431,140.3
138.5612,363.9
138.6398,19.2
138.6794,272.1
138.7425,167.7
138.7587,137.7
138.7781,170.7
138.8465,100.5
138.8766,690.2
138.9065,3124.3
138.9187,370
138.9236,37.8
138.9266,38.3
138.9565,91.8
138.9839,262.6
138.99,358.8
139.0321,173.3
139.072,253.3
139.0768,303.5
139.1325,821.9
139.1348,543.8
139.1505,92.6
139.2125,404.4
139.2509,90.3
139.2919,223
139.3178,485.2
139.4121,155
139.4251,139.9
139.4456,18.1
139.4829,462
139.5458,485
139.6225,386.7
139.6329,179.9
139.6472,45.3
139.7429,676.7
139.7602,100
139.8237,128.8
139.8442,488.9
139.9331,21.3
139.9764,19.1
139.9922,18.2
140.0165,1231.4
140.0237,893
140.0441,383.1
140.0682,3676.4
140.0787,245.7
140.0953,82.8
140.1061,284.6
140.1111,289.9
140.1244,537.5
140.2035,318.8
140.2165,147.9
140.2347,503
140.2963,336.8
140.3278,89.8
140.4573,18.2
140.4778,172.3
140.566,403
140.5816,19.9
140.6171,105.8
140.65,175.8
140.6632,455.6
140.6636,466.2
140.6694,239.3
140.6719,95.5
140.6771,561.9
140.7141,467.3
140.7344,262.2
140.7361,90.7
140.7428,221.5
140.75,97.3
140.7612,374.2
140.7981,18.3
140.8181,101
140.8277,340
140.8418,662
140.8609,88.6
140.9034,654.7
140.9188,99.7
140.9439,184.3
140.9628,862.1
140.9863,18.9
140.9907,135.6
141.0005,15995.3
141.0169,737
141.0685,168.2
141.0791,186
141.1033,524.6
141.1868,17.1
141.32,184.8
141.324,116.3
141.3562,20.8
141.3977,374.9
141.4647,18.3
141.5189,162.8
141.5386,223.6
141.6326,37.5
141.6368,514
141.6383,19.4
141.66,643.1
141.7045,687
141.7357,203.7
141.7636,284.5
141.768,796.9
141.8155,166.4
141.8403,318.6
141.843,350.1
141.8918,558.8
141.9488,109
141.9678,558.6
141.9685,499.3
141.9783,355.8
142.0038,458.7
142.0447,113.4
142.0652,255.4
142.0737,163
142.156,123.9
142.1956,394.5
142.2071,132.6
142.221,23.7
142.336,107.8
142.4092,584.5
142.4895,287.2
142.532,445.2
142.5363,288.6
142.5549,92.5
142.5644,22.9
142.6248,357.9
142.72,684.4
142.7764,220.5
142.7869,232.8
142.8692,559.6
142.8962,91.2
142.9147,695.2
142.9298,20
142.9385,20.5
142.948,560.5
142.9592,649.1
142.9869,338
142.9963,278.4
143.0189,1599.5
143.0262,491
143.0355,135.1
143.0664,438.1
143.073,255.5
143.0815,396.8
143.0938,663.5
143.0981,920.4
143.1022,290.8
143.1087,820.1
143.1436,128.5
143.2022,251.9
143.2114,35.7
143.2194,116.1
143.2308,492.8
143.2847,403.1
143.3086,98
143.3619,130
143.3815,21.9
143.3943,216.2
143.4375,562
143.4608,496
143.4851,282
143.5149,18.1
143.5273,232.3
143.5767,19.5
143.6042,642.6
143.6356,771.8
143.6381,421.5
143.6534,289.5
143.7522,94.1
143.8096,139.8
143.8284,700.3
143.8412,359.3
143.8807,169
143.9013,696.8
143.9369,17.5
144.0107,22.8
144.0356,142.5
144.0931,425.3
144.1376,358.5
144.228,104.9
144.2491,712.1
144.447,278.5
144.4706,174.1
144.5733,547.7
144.5751,180.6
144.6291,633.8
144.638,109
144.6754,515.6
144.6909,373.4
144.7032,93.5
144.7207,312.9
144.7522,202.9
144.8321,134.8
144.8356,18
144.8374,170.9
144.8729,135.4
144.923,36.2
144.9808,4148.2
145.0575,157.4
145.0745,277.5
145.0849,99.6
145.0956,115.9
145.0966,145
145.0974,167
145.195,182.8
145.1969,121.7
145.2022,643.6
145.2521,154.6
145.2708,331.5
145.275,123.5
145.3428,107.9
145.3523,333.3
145.3545,424
145.3768,417.9
145.3835,471.3
145.4172,94.7
145.4921,279.1
145.5537,80.6
145.622,157.9
145.628,124
145.6373,124.7
145.6573,143.3
145.7153,635.3
145.819,19.5
145.839,297.3
145.8998,19
145.9351,160
145.9685,547.2
145.9705,125.9
145.9738,108.4
145.9795,297.7
146.0039,115.7
146.0125,2962.7
146.0188,18477.5
146.0284,20.3
146.0916,479.3
146.1187,395.9
146.1632,635.5
146.1968,161.8
146.1988,133.5
146.2226,136.9
146.2309,97
146.2476,17
146.2626,139.4
146.402,125.7
146.4084,168.7
146.4418,850.5
146.5091,101
146.5768,331.5
146.6047,40.9
146.617,129.7
146.7287,489.8
146.8075,353.9
146.8512,89.8
146.8657,19.2
146.8985,159
146.9192,555.4
146.9197,563
146.9237,41
146.9476,387.4
146.9818,139315
146.9875,828.3
147.0265,239.2
147.0764,43716.6
147.0838,139.3
147.1049,129.3
147.1128,25288.7
147.1168,310.2
147.1305,19.7
147.1979,342.3
147.281,465.4
147.4972,470
147.5004,381
147.5066,428.1
147.514,150.1
147.5195,126.2
147.5385,452.1
147.5491,17.7
147.557,107.5
147.684,248.8
147.6881,324
147.6979,333.1
147.7051,708.9
147.7994,18.6
147.8097,117.1
147.8682,806.5
147.8702,100.3
147.8941,120.5
147.9063,277.6
147.926,16.2
147.9379,699.6
147.96,266.8
147.9638,147.5
148.0052,177.2
148.1165,725.8
148.2115,232
148.2242,253.9
148.2628,149.4
148.2692,126.2
148.3313,128
148.371,166.3
148.3892,18.8
148.4706,82
148.4765,94.8
148.5321,5181.2
148.6932,748.2
148.6979,105.6
148.7043,395.1
148.7409,152.2
148.7579,134.2
148.8876,135.3
148.9066,134.6
148.9612,5282.1
148.9877,461.5
148.9912,38.5
149.0024,25.4
149.0124,21
149.0186,3250.1
149.0233,4624.7
149.0423,203.9
149.045,68.6
149.1172,318.8
149.1217,258
149.1325,191.7
149.1514,270.2
149.2521,154.8
149.2619,16.6
149.2887,388.7
149.3038,19.4
149.3498,277.7
149.406,298.2
149.4435,203.5
149.4766,102.6
149.4878,251.3
149.536,166.6
149.5481,397.8
149.5488,693.6
149.5521,355.2
149.741,110.7
149.7712,550.8
149.7953,163
149.8224,134.6
149.8241,95.4
149.8431,34.1
149.8502,140.4
149.903,310.2
149.9179,647.9
149.9928,7603.4
150.0138,5872.7
150.0267,125.6
150.0911,388.7
150.1347,18.3
150.1452,536.5
150.1602,217
150.2405,238.2
150.2425,87
150.2787,548.2
150.3145,324.4
150.3542,93.7
150.3891,445.6
150.4114,86.1
150.4461,687.2
150.4467,757.2
150.5374,352
150.575,744.8
150.601,96.9
150.6999,20.5
150.7159,295
150.7344,298.5
150.765,916.8
150.7944,38.8
150.8221,287.1
150.8698,19
150.8878,370.3
150.9235,419.3
150.9448,151.2
150.9667,90.8
150.9715,176.5
150.9768,64691.8
150.9841,304.2
150.9997,474.8
151.0051,489.2
151.0164,205.1
151.0242,21.4
151.0476,1491
151.0557,137.3
151.1799,26.4
151.2255,453.1
151.2894,166.3
151.297,442.7
151.3111,340.8
151.3238,275.9
151.3274,16.9
151.3703,359.9
151.3752,639
151.4144,299.6
151.4173,148.4
151.435,322.1
151.5082,374.9
151.5709,195.7
151.6096,112
151.6353,95.4
151.7295,305.5
151.7661,391.6
151.814,125.1
151.8583,185.1
151.891,517.4
151.9211,352.6
151.9252,170.7
151.9511,412.9
151.9628,243
152.0145,404
152.0151,422.5
152.0221,12814.9
152.0318,3531.1
152.0488,112.2
152.0589,553.9
152.0697,18
152.1377,92.7
152.1394,850.2
152.1643,299.4
152.1844,98.5
152.1866,120.9
152.3229,668.3
152.3434,236
152.358,180.6
152.3723,134.6
152.4359,117.3
152.5003,815.3
152.5345,378.1
152.5585,242.4
152.6036,293
152.6107,287.3
152.6494,427
152.6965,127.4
152.7045,93.9
152.7164,148.8
152.7404,171.2
152.7954,185.5
152.8078,35.8
152.8387,385.6
152.8599,111.3
152.8701,138.2
152.9024,261.8
152.9278,159.1
152.9614,96.8
152.9748,2817
152.9911,288.3
153.0276,449.9
153.0345,527.4
153.046,196.7
153.1134,123.1
153.1186,138.9
153.1919,21.4
153.2421,684.9
153.2446,120.5
153.2836,86.4
153.2951,181.4
153.3914,34.6
153.4949,241.2
153.5769,41.1
153.6038,126.8
153.6189,23.2
153.6438,97.1
153.6962,126
153.7905,120.8
153.8253,158.8
153.8519,128.8
153.8955,191.1
153.9228,105.1
153.9852,473.6
154.0111,755.1
154.017,337.8
154.0266,606.9
154.0307,144.8
154.0542,105.3
154.0589,2211.1
154.1093,231.4
154.1147,222.8
154.1216,149.6
154.2289,18.6
154.2373,88.2
154.2493,309.4
154.2826,212.1
154.2905,913.1
154.3488,367
154.3583,379.6
154.377,92.6
154.4019,447.6
154.4261,381.7
154.4362,124.9
154.4371,174.1
154.4382,158.9
154.4421,508.4
154.4549,366.7
154.5813,338.8
154.6679,248.1
154.706,18.1
154.7362,167
154.7432,155.9
154.764,20.9
154.7827,505.6
154.7955,17.1
154.8122,283.2
154.8262,480.3
154.8512,170.9
154.8609,272.9
154.8806,379.1
154.8904,398.8
154.9074,95.5
154.9417,321.2
154.9912,115.7
155.0335,97.8
155.0427,939.5
155.0495,187.8
155.054,6458.7
155.0791,1500
155.141,92.7
155.1466,639.9
155.1784,366.2
155.352,826.8
155.3648,176.5
155.3696,123.3
155.473,111.9
155.5194,656.6
155.6181,208.5
155.7611,386.7
155.767,103.8
155.7869,37.2
155.8199,94.9
155.8258,528.5
155.9309,104.3
155.9775,104.1
156.0422,3281.2
156.057,357.3
156.0768,47423.9
156.1186,357.1
156.135,175
156.1452,435.3
156.1957,435.1
156.2269,455.7
156.3589,172.9
156.6352,856.3
156.6687,278.7
156.7566,325.7
156.7754,193.1
156.8301,295
156.8426,682
156.8577,878.2
156.8613,417.9
156.8778,323.4
156.9194,38.8
156.9341,873.8
156.9673,88.9
156.9756,121.5
156.9968,145.4
157.0133,128.5
157.0407,221.1
157.0434,96.1
157.08,363.6
157.0972,290.7
157.1647,429.9
157.1676,540.6
157.1822,427.1
157.322,130.2
157.3776,110.5
157.4705,268
157.502,373
157.5059,339.8
157.5124,132
157.5463,166.7
157.5711,307.4
157.6209,93.3
157.7059,124.6
157.7181,18.1
157.7656,103.9
157.9515,112.9
157.9605,121.7
157.9671,420.9
157.9706,24.7
157.988,308.9
158.0124,162.8
158.0196,772.5
158.0271,3704
158.0393,22.7
158.1004,44.5
158.1225,918.4
158.1275,136.4
158.1847,711.1
158.2147,347.8
158.2312,317.4
158.3173,139.2
158.3291,277.9
158.3429,380.7
158.4406,143.7
158.5201,259.7
158.525,133.7
158.5427,232.3
158.5491,388.8
158.6042,485.4
158.6091,514.9
158.6418,16.5
158.6612,181.8
158.7064,124.6
158.7733,136.8
158.8135,138.8
158.8183,94.4
158.8394,343.4
158.8654,93.9
158.8692,149.3
158.8757,18.5
158.9243,265.6
158.9642,10693.8
158.9966,10205.3
159.0211,790.6
159.0242,153.6
159.0305,106.5
159.0471,17.3
159.0517,22.7
159.1381,396.2
159.1473,215
159.2627,21.5
159.2712,536.3
159.2807,294
159.3895,365.7
159.4022,87.1
159.4101,95.4
159.4334,165.4
159.5703,90.2
159.6056,22.2
159.6262,363.6
159.6763,163.4
159.6899,136.9
159.728,36.9
159.7337,196.9
159.7443,118.7
159.8006,821.5
159.8203,121.3
159.8416,107
159.8531,83.9
159.869,236.7
159.8817,442.8
159.9016,20.8
159.9432,549.4
159.9756,598.8
160.0159,16.3
160.0346,18315.3
160.0605,98837.5
160.0863,406.3
160.0951,147.9
160.1246,415.5
160.2569,369.3
160.2909,474.4
160.3247,256.8
160.3288,640.9
160.3612,269.4
160.3791,17.8
160.4038,398.9
160.4598,470
160.4823,151.7
160.4916,145.9
160.5166,367.7
160.5695,370.7
160.6501,174.6
160.7102,96.3
160.7402,86.7
160.845,124.3
160.8512,656.3
160.9374,313.6
160.9644,336.3
160.9819,511.3
160.9908,36.2
161.0188,412.5
161.0639,4456
161.0836,21
161.1285,1203.7
161.1507,101
161.2778,630.6
161.3214,479.1
161.3427,162.4
161.3897,585.6
161.432,374.3
161.4386,126.3
161.5217,534.6
161.5538,90.3
161.6246,250.8
161.6287,107.6
161.6326,166.3
161.7194,383
161.7998,545.7
161.823,143.7
161.8628,168.6
161.8663,355.6
161.9617,189.2
162.0453,846.9
162.0503,19768.7
162.0647,123
162.0731,1011.5
162.0927,153.6
162.1103,700.4
162.1357,270.8
162.1656,34.7
162.1898,437.9
162.1973,276.8
162.2052,125.8
162.3028,106.1
162.3452,101.5
162.3658,141.6
162.3768,445.4
162.3774,465
162.382,182.7
162.4016,20.5
162.4224,782.9
162.5548,281.4
162.6033,16.8
162.6554,85.6
162.6588,21
162.6671,622.1
162.6863,124.7
162.7428,344.2
162.7692,171.8
162.7738,205
162.7777,234.2
162.795,35.5
162.8384,144.8
162.8755,338
162.9315,631.5
162.9394,855.3
162.9558,4597
163.008,20.2
163.0153,1139.7
163.03,266.7
163.0404,17.1
163.0825,442.1
163.1037,277.3
163.1059,682.5
163.1469,663.7
163.2111,145.7
163.2799,408.5
163.3709,151.5
163.3782,137.4
163.4657,391.4
163.4706,252.7
163.4888,303.3
163.6453,404.5
163.6464,320.7
163.6477,289.7
163.6495,486.1
163.6561,278.3
163.658,120
163.6691,368
163.7069,195.4
163.7241,678.9
163.7376,722.5
163.7621,483.7
163.7656,117.7
163.7736,612.1
163.7771,114.3
163.7894,283.7
163.9818,418.5
164.0237,294.1
164.0295,19911.9
164.0389,127.1
164.0883,159.8
164.1041,133.5
164.1269,118.9
164.1423,103.7
164.2365,107.5
164.3132,19.7
164.3358,19.4
164.485,148.7
164.544,571.4
164.546,87
164.5817,16.7
164.6078,325.6
164.6348,346.6
164.6676,434.2
164.6702,132.6
164.6895,107.8
164.6951,139.9
164.8091,563.2
164.8384,296.1
164.8509,320.3
164.9206,5733.5
164.9301,18779.3
164.9352,3082.9
164.9925,2260.7
165.0194,277.2
165.0307,749.2
165.0683,133.2
165.0706,21.3
165.0805,122.9
165.0911,1761.1
165.1439,96.6
165.1486,109.7
165.1899,204.1
165.2105,35.7
165.2189,153.3
165.4461,91.5
165.5147,137.9
165.5229,335.6
165.5489,259.9
165.5827,261.9
165.6151,17.4
165.6555,319
165.6959,216.9
165.8268,761.8
165.8611,93.5
165.8913,425.9
165.9533,482.5
165.9669,866.4
165.9789,1874.8
165.9878,7158.1
165.9951,95.7
166.001,127.5
166.0263,985.5
166.0841,354.7
166.0902,235.5
166.1088,178
166.1202,829.2
166.1231,136.5
166.1276,18.2
166.1633,141.8
166.1947,664.2
166.236,375
166.3058,20.8
166.4047,289.3
166.4527,142.2
166.5032,373.9
166.5534,163.2
166.5663,81.9
166.6801,17.6
166.736,274.5
166.7895,270.4
166.9509,23769.3
166.9626,832.4
167.0091,145.7
167.0218,6159.2
167.0274,6315.2
167.0974,127.3
167.1126,145.6
167.2765,82.8
167.3243,527.8
167.3269,739.5
167.3863,16.7
167.4545,129.4
167.4615,21.7
167.4879,628.2
167.5044,240.1
167.5104,19.4
167.5211,374.2
167.529,277.1
167.5395,128.3
167.5756,246.4
167.5977,152.4
167.6188,176.8
167.6205,90.3
167.7494,107.6
167.8198,550.7
167.854,16.8
167.8615,19.2
167.8753,366.9
167.9946,2157.8
168.0056,296.8
168.0589,135
168.0884,649.2
168.1967,483
168.2036,358
168.2925,557.3
168.316,154.1
168.3919,20.2
168.3983,450.1
168.4739,110.4
168.482,256.9
168.4957,102.3
168.525,298.7
168.5305,121.3
168.6495,149.6
168.6797,145.3
168.687,344.6
168.7307,23.3
168.7597,279.4
168.7841,623.5
168.7977,95
168.8025,99
168.8347,238.7
168.9318,160.7
168.949,1826.3
168.9575,469.5
168.9863,261
169.0165,21.2
169.0584,60127
169.065,621.9
169.0948,4440.4
169.0974,1032.1
169.2418,444
169.3014,570
169.3684,131.1
169.427,738.6
169.4311,295.2
169.4429,19.2
169.6067,21.3
169.6085,513.6
169.7698,209.8
169.8046,121.4
169.8159,274.1
169.8365,417.6
169.8531,83.3
169.874,651.7
169.894,170
169.8989,143.6
169.9601,103.2
169.986,2418.7
170.0012,210.9
170.0328,3126.3
170.0585,109.8
170.0617,1949.6
170.0835,359.5
170.0925,13273
170.1054,17.5
170.1179,209.1
170.2495,349.7
170.4218,36
170.4628,373.2
170.5078,329.8
170.5634,193.4
170.6559,171.3
170.6937,677.3
170.737,118.5
170.8545,4175.6
170.8812,408.6
170.8869,500.7
170.902,23.6
170.9257,293.4
170.9759,111.4
171.0168,1306.8
171.028,668.2
171.0313,101.9
171.0531,417.3
171.1749,654.3
171.2225,207.9
171.3273,588.6
171.4573,101.8
171.5511,325.5
171.7599,20
171.7691,264.4
171.7923,18.8
171.8002,274.1
171.8114,454.8
171.8189,22.2
171.8372,263.6
171.902,333.7
172.0014,140.7
172.0074,144.8
172.0202,278.9
172.0283,1195.7
172.0488,16.7
172.0597,18.1
172.0722,82.8
172.1104,164.3
172.1623,767.5
172.2028,242.2
172.2929,368.3
172.2958,157.5
172.3804,19.4
172.4719,19.4
172.5318,495.1
172.5811,288.4
172.6619,18.7
172.6659,20.3
172.7311,85
172.7796,244.4
172.8172,334.6
172.8271,122.2
172.8515,1811.1
172.864,173.7
172.9203,303.9
172.9296,723.8
173.0269,372
173.0745,111.2
173.1023,535
173.1063,151.3
173.1472,20
173.1834,19.3
173.2567,144.6
173.3351,126.8
173.3384,304.3
173.4371,505.7
173.5709,18.8
173.577,110.9
173.5933,319.4
173.609,248.9
173.7137,145.3
173.7163,709.2
173.724,477.1
173.7578,20.2
173.7838,115.9
173.8138,283
173.8369,119.8
173.8606,282.4
173.8704,260.6
173.9002,426.8
174.0137,414.6
174.036,221.9
174.0552,38.4
174.0607,112.4
174.198,325.7
174.2405,24.2
174.2741,15.9
174.3919,106.7
174.4097,19.5
174.478,338.7
174.5233,336.2
174.5597,409.1
174.5945,1054.6
174.6518,18.2
174.7579,285.5
174.7957,134.3
174.8045,515.1
174.8341,285.1
174.8486,341.1
174.8835,81.9
174.9382,5026.9
174.9852,20.9
175.0229,20.2
175.0344,11028.6
175.0455,3097.9
175.0581,497.5
175.1191,79268.4
175.1384,127.1
175.2151,249.7
175.2545,268
175.2596,536.1
175.2658,21.7
175.3275,728.7
175.3793,91.8
175.4516,123.6
175.5105,243.2
175.6338,178.7
175.7271,342.5
175.8112,19.3
175.9601,160.9
176.0087,8748.5
176.0369,537.4
176.0407,354.2
176.066,29330.8
176.1029,245.9
176.1224,1643.7
176.1672,118.6
176.2744,542.8
176.278,579.2
176.2914,654.8
176.3048,176.3
176.3553,99.2
176.4564,157.7
176.4592,302.4
176.53,85.6
176.5508,470
176.6292,93.7
176.7436,378.1
176.8208,287.8
176.8419,562.1
176.8515,132
176.9639,241.3
176.9926,2315.2
177.003,110.1
177.0088,166.7
177.0133,253.6
177.0249,7001.4
177.0612,7423.4
177.0693,463.6
177.087,952.3
177.0934,161.2
177.1013,259.8
177.121,94.1
177.242,144.8
177.2918,18.5
177.351,18
177.3976,87.9
177.5163,107.9
177.5188,24.7
177.6261,316.9
177.7151,324.7
177.7352,243.7
177.9768,430.6
178.0088,9843.6
178.0243,9927.7
178.0588,6942.3
178.0869,315
178.0899,428.6
178.1072,321.8
178.139,21.1
178.1837,246.1
178.2614,542.7
178.2863,271.8
178.3191,181.3
178.3501,18.5
178.3769,19.1
178.3816,486.7
178.5157,130.3
178.5219,480.3
178.5584,19
178.5894,123
178.603,411.4
178.6435,470.7
178.6527,170.5
178.6707,454.2
178.6789,260
178.8992,18.9
178.916,148.4
179.0731,16.3
179.0741,16.1
179.0962,135.8
179.1656,169.4
179.2225,112.1
179.2497,17.5
179.2941,642
179.3432,210.3
179.3528,252.2
179.3591,118.8
179.3699,18.3
179.3844,143.3
179.4896,100.7
179.556,151.8
179.5717,482.6
179.6128,190.8
179.6395,254.1
179.6487,646.2
179.6546,119.2
179.743,18.2
179.7484,133.9
179.7819,19
179.787,128
179.8059,132.7
179.8293,193.7
179.8536,274.4
179.8754,318.1
179.8963,163.6
179.9044,18.8
179.9332,133.3
179.9923,17.7
180.0035,13837.8
180.0933,99.6
180.0991,35.4
180.1818,354.9
180.2531,308.6
180.3053,374.2
180.3673,107.3
180.4168,140
180.4448,355.9
180.453,365.9
180.5509,153.5
180.5838,560.7
180.605,383.2
180.6334,470.8
180.7674,279.9
180.7778,17.7
180.8226,93.6
180.8271,136.1
180.8879,20.2
180.8947,3428.6
180.9042,8111.4
180.9574,663.2
180.9598,278.9
180.9666,499.8
181.0261,697.1
181.0517,262.5
181.065,5950.9
181.0818,19.1
181.1189,20.1
181.1698,34.5
181.1732,165
181.333,259.1
181.3549,267
181.388,177.1
181.4069,303.7
181.4166,118.1
181.4341,209.4
181.5335,179
181.5467,249.5
181.5563,309
181.6403,185.2
181.6527,428.4
181.7349,93.6
181.7498,443.8
181.7692,18.1
181.8135,135.7
181.8367,433.2
181.954,95.2
182.0145,450.5
182.0311,164.5
182.0425,30627.5
182.1335,349.7
182.1366,18.7
182.147,17.7
182.2235,459
182.3312,480
182.3373,126.5
182.3741,93.4
182.4012,115.1
182.4168,372.5
182.4337,160.1
182.5421,169.1
182.595,308.2
182.6872,19.2
182.7178,89.9
182.7392,248.5
182.773,168
182.8544,445.7
182.9023,26.8
182.941,325.9
182.95,18.7
182.997,36.4
183.0446,2608.9
183.0759,180
183.0943,393.5
183.1277,182
183.1458,116.6
183.1548,292.7
183.2661,87.1
183.3716,93.5
183.374,20.1
183.4163,484.2
183.4208,20
183.4234,18.4
183.4428,233.6
183.479,189.1
183.5385,210.6
183.6622,633.2
183.671,36.2
183.7237,359.7
183.7265,238.5
183.7393,94.7
183.7637,304.1
183.783,106.3
183.8408,601.6
183.8456,139.9
183.8631,317.2
183.8698,128.4
183.9648,642.9
184.0376,552.7
184.0383,574
184.0667,501.4
184.0735,3908249.8
184.0944,423.7
184.1098,539
184.1699,65.3
184.1821,1112.1
184.2058,90.3
184.2257,21.8
184.3093,320.3
184.3257,19.7
184.3359,406
184.4046,117.1
184.4413,560.9
184.4457,158.1
184.4641,21.1
184.5319,402.3
184.5948,135.7
184.6247,209.8
184.7477,302.2
184.7593,607.8
184.7721,350.3
184.7915,347.7
184.8208,16.9
184.8369,16.5
184.8403,348.4
184.9215,735.1
184.9411,100
184.9576,18.3
185.0208,121
185.0324,67162.6
185.055,85
185.0704,9919.4
185.0768,181562.8
185.0963,679.5
185.1297,18.3
185.1726,683.4
185.2643,19.5
185.2764,516.9
185.3035,702.9
185.4171,91
185.4857,694.2
185.5556,18.1
185.561,160.4
185.6171,138.9
185.6306,399.6
185.6411,292.6
185.6611,18
185.7165,382.5
185.7599,185.6
185.8817,332.6
185.8911,666.6
185.907,103
185.9161,377.2
185.9599,938.4
186.0359,721.7
186.0414,93.8
186.0451,20.1
186.0777,24477.3
186.1838,39.1
186.2279,170.1
186.2664,490.6
186.345,215.8
186.4302,137
186.4456,18.4
186.5301,344.1
186.5432,284
186.552,99.7
186.6987,197.9
186.7612,111.6
186.8282,390.7
186.8879,616.4
186.9122,3562.8
186.9267,117.5
186.9394,126.9
186.9612,121.7
187.018,787.7
187.0305,2659.3
187.0579,5735.7
187.0715,1422.3
187.0828,16.8
187.0866,149
187.1078,3787.8
187.1634,124.8
187.3387,646.2
187.3964,169.9
187.522,19.5
187.5727,189.6
187.6388,141.9
187.7093,98.6
187.7286,508.8
187.7376,748
187.7731,97.5
187.9366,155.9
187.9479,753.3
187.9919,183.5
188.054,469.8
188.0763,336.8
188.1233,154.1
188.1325,38.2
188.2056,20.1
188.3138,129.2
188.3263,289.4
188.4256,150.2
188.4348,728.9
188.5627,83.5
188.5897,263.6
188.6276,145
188.7086,402.7
188.7379,354.3
188.7593,90.6
188.7858,16.5
188.8005,692.6
189.004,37.1
189.0383,17.2
189.0484,187.2
189.0611,3350.9
189.0744,525
189.0871,8175.8
189.2215,589.7
189.3588,192.2
189.3845,155.8
189.4277,171.8
189.4562,102.3
189.4718,185.9
189.4849,710.7
189.6616,473.7
189.7249,752.4
189.7541,18.7
189.8003,37
189.8336,182
189.8734,327.7
189.9155,708.4
189.9488,174.4
189.955,133
190.0124,27.6
190.0326,86.3
190.0633,145.9
190.0861,709.6
190.0906,95.5
190.1605,475.7
190.1881,18.4
190.3123,632
190.3882,228
190.4077,18.9
190.4313,310.1
190.5653,449.5
190.6546,320.3
190.6688,338.8
190.6959,169.6
190.7612,379.9
190.7681,340.1
190.7881,255
190.838,672.8
190.8564,39.6
190.8763,17.8
190.9028,197.5
190.912,1722.5
190.9341,747.9
190.9446,121.9
190.9753,91
191.0083,7594.4
191.0405,146045.8
191.0528,138.1
191.0696,387.5
191.0769,27282.2
191.1518,178.3
191.1649,244.8
191.1819,124.9
191.2395,492.2
191.2681,21.5
191.2812,396.7
191.3058,436.7
191.3083,212
191.3538,278.6
191.3694,557.8
191.4229,872.1
191.4474,1075.9
191.4898,325.7
191.7251,134.4
191.8495,95.1
191.8699,316.5
191.8833,263.1
191.9316,109
191.9827,1241.3
192.0183,206.9
192.04,17176
192.044,4242.3
192.0679,87.6
192.1447,510.4
192.1761,222.8
192.229,200.4
192.2562,620.2
192.3083,222.2
192.3195,132
192.4406,136.7
192.5171,118.4
192.5345,194
192.5681,552.1
192.6206,306.2
192.6362,17.4
192.7164,117.7
192.7515,168.2
192.7573,139.4
192.7653,388.4
192.7822,234.3
192.8124,20.7
192.8299,640.7
192.8591,262
192.9333,659.2
192.9547,407.8
192.9614,473.7
192.9668,328.5
192.9988,4078.1
193.0353,2586.7
193.1215,338.8
193.1385,183.6
193.1672,140.4
193.1855,392
193.2161,457.9
193.3218,327.3
193.3576,159
193.3637,147.1
193.4112,16.3
193.4162,561.2
193.4332,85.8
193.447,129.5
193.4643,122.7
193.5111,162.4
193.5135,127.3
193.5398,21.4
193.5707,20.1
193.6058,23.1
193.6965,127
193.7267,252.2
193.8485,168.7
193.8684,19.1
193.8917,100.9
193.9344,41.5
193.9982,930.1
194.0103,172.9
194.013,554.8
194.0288,548.9
194.0328,3177.9
194.0359,264.9
194.0377,306.4
194.0452,87.6
194.1356,517.1
194.1543,109.8
194.1572,319.5
194.1752,802.9
194.201,157.7
194.2104,214.2
194.4174,109.9
194.4709,438.8
194.5128,91.3
194.557,376.1
194.6649,168.7
194.7717,16.9
194.8123,137.9
194.8549,368.4
194.8841,639.2
194.8949,674.5
194.9608,313.6
195.0442,167.7
195.0583,17.1
195.0918,544.4
195.2129,18.9
195.2459,19.1
195.2733,20.2
195.2899,21.8
195.2936,602.3
195.4183,305.6
195.5076,19
195.6134,16.5
195.6353,119.5
195.6679,201.3
195.7,503.9
195.7293,17.1
195.7542,366.3
195.7588,395
195.7675,201.6
195.8004,693.3
195.9746,24.9
195.9776,539
196.0348,46.7
196.069,314.4
196.0731,168.8
196.0793,139.3
196.0867,144.9
196.1146,171.2
196.1177,146.6
196.1203,481.7
196.1697,280.8
196.2641,197.3
196.2772,107.3
196.3246,147.3
196.3586,378.2
196.3828,665.5
196.599,161.3
196.6145,174.6
196.6975,333.6
196.736,177.1
196.7693,231.7
196.7999,135.7
196.8653,6929.8
196.8685,935.9
196.8783,1432.1
196.9829,41.6
196.999,312.1
197.003,619.5
197.0283,123.8
197.0378,350.3
197.1012,425.3
197.1072,611.8
197.1663,134.5
197.1922,329.6
197.4032,211.2
197.4306,274.2
197.4395,136.5
197.4578,89.9
197.4635,579.6
197.4651,583
197.5009,289.2
197.5614,526
197.6476,289.9
197.6954,17.2
197.7675,576
197.7745,130.1
197.811,21
197.8492,18.8
197.9324,367.3
197.9871,113.1
198.0068,48.9
198.0851,10686.4
198.0893,324.1
198.1854,5975.6
198.2149,88.9
198.3284,784.8
198.3405,187.6
198.405,308.7
198.507,83.7
198.5083,84.5
198.6102,140.4
198.6413,359.7
198.6672,320.5
198.6863,308.5
198.7362,337.1
198.7619,287.5
198.8031,475
198.8624,8183.9
198.8926,21
198.9738,26
198.9956,92.1
199.0169,29.1
199.0381,890.8
199.0548,223.7
199.0555,223.7
199.0692,1284.4
199.0757,1283.5
199.0803,129.8
199.0918,146.7
199.0974,764.2
199.1131,158.7
199.1591,410.5
199.1888,276.6
199.2924,736
199.3054,273.4
199.3417,647.3
199.419,95
199.4656,493.8
199.582,352.4
199.5942,16.3
199.6355,121.6
199.6962,448.6
199.7856,444.3
199.8149,448.1
199.8243,357.8
199.9067,471.9
199.9265,269.5
199.9908,32529.1
200.0037,157.1
200.0231,221.9
200.0314,725.7
200.0409,19000
200.0658,548.4
200.1049,359.9
200.1145,10717.1
200.1507,131.3
200.1544,21.7
200.1681,388.3
200.1936,40.5
200.216,592.4
200.2197,122.8
200.3411,87.6
200.4218,540.7
200.4767,141.4
200.5719,20.2
200.584,18.3
200.6385,147.6
200.7199,204.3
200.7375,22
200.8079,116.9
200.8595,852.3
200.9325,616.6
200.9449,103
200.9526,262.4
200.9728,107.7
200.9766,837.6
200.9979,225.1
201.0545,378.2
201.0872,690.4
201.094,108.6
201.1064,212.1
201.1154,440.5
201.1515,298.7
201.173,369.8
201.1873,19.3
201.1938,292.9
201.2019,18.9
201.2537,287.9
201.3001,274
201.3009,276.3
201.4337,236.8
201.4412,17.3
201.4483,658.5
201.4723,111.2
201.507,392.3
201.5287,452.1
201.5456,397.9
201.5896,18.2
201.7755,768.2
201.8564,219.2
201.8644,230.4
201.896,19.7
201.9042,102.2
202.065,156.5
202.1661,19.5
202.2068,124.8
202.3308,142.2
202.3438,38.4
202.4066,688.7
202.4858,12745.1
202.4945,427.3
202.5106,312.4
202.5533,220.1
202.5586,238.8
202.5716,279.6
202.5741,126.5
202.5858,370.3
202.6564,660.5
202.7017,17.3
202.7676,183.1
202.9957,28.3
203.0186,465.7
203.0319,2806.9
203.0528,1598130.4
203.0768,7327
203.1783,451.9
203.2363,222.2
203.2484,17.4
203.5171,373.5
203.531,181
203.6325,171
203.6647,203.4
203.712,106.9
203.7855,697
203.8004,364
203.832,425.1
203.8829,172.2
203.9521,556
203.9977,126.9
204.0198,107.9
204.0245,43177.6
204.0407,183.3
204.0562,85604.6
204.0879,101.3
204.0906,310.3
204.2559,717.8
204.3052,341.9
204.3169,307.5
204.3644,249.8
204.4193,17.8
204.4846,116
204.5166,155.9
204.7448,184
204.8089,226.7
204.823,215.4
204.9912,104.8
205.052,102
205.0571,12136.2
205.0684,16218.1
205.0839,183.3
205.1319,119.4
205.3267,296.8
205.4373,135.3
205.448,394.5
205.5811,216.5
205.5935,264.4
205.6795,186.3
205.6834,135.7
205.7295,210.6
205.7367,481.1
205.7581,265.3
205.8156,453.7
205.8421,362.3
205.8876,338.5
205.9565,241.8
205.971,137
205.9882,370.6
206.0556,1378.9
206.1007,317.4
206.1038,301.5
206.1099,313.2
206.1388,140.4
206.1515,102.7
206.2711,226
206.3463,270.9
206.5668,99.3
206.5849,202
206.6088,17.9
206.6168,249.1
206.6419,132.9
206.73,44.2
206.7991,152.9
206.8881,179.1
206.8942,22533.1
206.9233,603.2
206.9278,161.2
206.9743,272.7
206.9823,3439.7
207.0145,90152.2
207.0443,1859
207.0509,11841.6
207.0582,128.5
207.1073,142.5
207.2005,21.8
207.2164,122.7
207.2818,753.8
207.4087,18.2
207.4307,568.4
207.4476,41.8
207.4579,629
207.4712,767
207.769,644.3
207.9053,236.3
207.9228,635
207.9421,18.1
207.9649,382.6
208.0139,2711.2
208.0179,2700.2
208.0327,116.7
208.2744,312.8
208.3409,575.1
208.3494,133
208.3565,856
208.3688,18.3
208.3885,94.3
208.4175,253.7
208.4879,187
208.4922,101
208.4985,17.7
208.5214,234.1
208.67,339.5
208.7505,161.9
208.7591,482.4
208.782,21.2
208.7849,695.7
208.8694,155.4
208.8831,133.2
208.8874,280.2
208.8912,12567.6
208.9359,892.9
209.0061,94.9
209.0126,4321.4
209.0564,159.1
209.0831,257.9
209.111,89.5
209.1169,18.1
209.1635,382.2
209.2208,196.7
209.2463,784.9
209.5269,22.4
209.6116,233.1
210.5696,19.9
210.6989,20
210.7283,102.7
210.7611,22
210.7837,368.5
210.8192,42.5
210.8683,281.6
210.8826,656.6
210.9324,411.8
210.9481,20.8
210.9838,611.9
211.0563,389.2
211.069,1951.6
211.0789,370.8
211.1471,114.2
211.1511,22
211.1589,5237.3
211.1682,24765.8
211.1732,35965.5
211.1803,8188.2
211.1847,5009.2
211.1866,4611.6
211.1894,3606.5
211.2082,415.6
211.2133,272.5
211.3141,19.9
211.3492,17.5
211.3634,920.4
211.3974,94.1
211.4864,233
211.5214,159.6
211.6042,526.4
211.6669,89.4
211.67,18
211.7324,254.3
211.773,327.1
211.8032,19.7
211.815,680.7
211.8309,708.9
211.8567,627.4
211.887,445.1
211.9389,704.7
211.9447,38.6
211.9605,251.8
211.9754,17.4
212.0688,18.7
212.0743,148.7
212.1144,349.6
212.1918,21.3
212.2001,434
212.2046,21
212.2831,126.4
212.2933,906.6
212.304,231.5
212.3128,273.6
212.3367,21.8
212.3742,130.6
212.4042,101.9
212.5696,17.5
212.5737,295.3
212.6188,125.8
212.7914,355.6
212.8393,2756.4
213.0549,677.5
213.0753,388.9
213.1749,493.2
213.2144,505.4
213.2784,347.5
213.3896,20.1
213.4257,107.8
213.4497,283.9
213.5193,180.6
213.5291,21
213.652,18.3
213.6987,100.9
213.7317,19.7
213.9059,144
213.9328,36.2
213.9342,36.9
213.9425,371.4
213.9524,415.4
213.9622,123.9
213.9848,512.1
214.0065,752.3
214.059,10520.9
214.0899,1022
214.1025,98.5
214.1254,18.2
214.1283,109.6
214.2434,431.6
214.3289,177.5
214.4152,192.1
214.4297,788.2
214.4855,255.8
214.6222,105.3
214.7444,358.2
214.7884,452.7
214.8363,2110
214.8709,436.8
214.8874,402.1
214.8947,17.1
214.9133,303.5
214.9177,60.1
215.0931,33.4
215.0965,84.4
215.2497,347.5
215.2657,556.2
215.2801,21.8
215.3522,446.7
215.4166,17.1
215.4473,276
215.48,356.5
215.5027,150.8
215.5176,681.2
215.7538,613.8
215.7859,171.5
215.8274,239.9
215.8405,338.5
215.8738,141.7
215.9645,623.6
215.9833,225.5
215.9944,316.6
216.0064,454.7
216.0149,12683.5
216.0265,136.8
216.0575,261.4
216.0909,22.2
216.1427,19.2
216.1726,129.7
216.2075,315.7
216.3067,21.5
216.3169,123
216.4775,345.6
216.5514,141.2
216.5523,106.5
216.5848,181.2
216.6056,86.2
216.6327,99
216.6933,518.9
216.7182,342.6
216.7905,20.2
216.8441,172
216.9009,567
216.923,60794.4
216.9821,372.4
217.0107,25
217.0273,24
217.123,157.7
217.2044,128.5
217.2213,178.6
217.2461,140.5
217.2791,20.9
217.2831,171.8
217.295,477.7
217.3432,21.7
217.3859,103.9
217.4633,19.9
217.5089,268
217.5525,323.5
217.5885,19.5
217.6048,20.7
217.7094,146.7
217.72,112
217.7288,519.8
217.8364,108.8
217.8974,37.2
218.0066,28.3
218.0156,54.5
218.1177,437.2
218.1517,119.2
218.167,84.6
218.1843,321.9
218.3584,765.9
218.5202,150.5
218.6104,97.5
218.8411,562.8
218.8499,241.1
218.92,16818.9
218.989,394.8
218.999,439.1
219.0181,2222
219.0268,1767602
219.0339,436.5
219.0377,376.7
219.0831,9219.3
219.1216,248.4
219.1391,169
219.1489,409.9
219.3627,316.7
219.4781,109.8
219.529,374.5
219.6525,38.4
219.7305,84.6
219.8079,253.1
219.8605,183.9
219.9194,17.6
219.9707,340.3
219.9983,375.8
220.0108,367.5
220.0301,93534.8
220.0372,317.8
220.0671,12894
220.0962,421.6
220.1084,563.2
220.1675,373.9
220.2548,92.4
220.3097,145.5
220.368,278
220.39,93.6
220.5005,21.3
220.5497,137
220.565,18.1
220.5712,363.1
220.766,654.7
220.9349,1284.7
221.0062,191.6
221.0184,680
221.0249,113296.9
221.031,15835.8
221.0423,11457.4
221.0511,1830.6
221.0855,332.6
221.093,103.8
221.1284,83.2
221.2032,747.5
221.2216,219.1
221.2326,437.6
221.2519,700
221.3775,95.8
221.3821,399.7
221.4445,572.9
221.4728,271.9
221.5921,501.2
221.7274,102.6
221.7445,387.9
221.7586,126.4
221.8775,20.9
221.956,260.5
221.9836,965.1
222.0282,2011
222.0743,717.8
222.1127,544.8
222.1991,307.6
222.2026,18.5
222.2846,92.4
222.5181,152.6
222.5432,91.8
222.5937,140.5
222.6022,248.5
222.6488,346.9
222.6679,87.6
222.8035,142.6
222.81,160.2
222.8291,469
222.8681,16489.9
222.8796,1319.7
222.9605,208.1
222.9885,8398.2
222.9959,127.6
223.0217,479.9
223.0369,196.8
223.057,105
223.0806,493.8
223.3541,133.1
223.5331,170.8
223.7732,85
223.8331,382.9
223.8424,884.9
223.8659,197.4
223.8772,20.2
223.9461,864.6
223.9536,50.9
223.9584,549.9
224.0256,183.1
224.0296,1614
224.0846,193.9
224.3592,674.8
224.3641,17.4
224.445,322.6
224.5324,25.2
224.5632,302.7
224.6235,475.7
224.6373,102
224.6911,93.7
224.7576,183.1
224.8238,878
224.8651,8979.2
224.9206,209.9
224.9421,716
224.9565,21
224.9796,126.7
225.0351,461.4
225.044,183.8
225.0549,23925.6
225.0846,132.8
225.1684,107.4
225.5133,92.1
225.5663,260.2
225.6252,554.5
225.7057,195.3
225.775,181.7
225.8045,167.4
225.851,766.8
225.9849,358.7
226.0022,80.8
226.0064,1236.5
226.0244,11224.3
226.0453,10690.1
226.0578,107.9
226.0863,98.8
226.1193,99.6
226.2041,528.8
226.2839,613.3
226.3412,107.3
226.4011,617.9
226.4083,137.2
226.4232,367.3
226.5795,147.8
226.6212,83.4
226.6629,348.2
226.6926,109.8
226.7068,36.9
226.804,301.7
226.8129,820.8
226.9145,496.8
226.944,138.3
226.9518,47494.1
226.9597,357.6
227.0227,20.5
227.0341,1211.1
227.0429,701.3
227.0455,117.8
227.0794,1258.2
227.0865,334.7
227.0921,21.6
227.1327,658.5
227.1528,457.1
227.6171,42.8
227.6249,385.5
227.6747,428.4
227.7319,206.9
227.8474,217.3
227.9555,1034.3
228.0007,1465.6
228.0131,180.7
228.0223,1798
228.0373,580.2
228.0737,193.9
228.1445,393.1
228.1805,640.7
228.2301,102.8
228.2767,22.3
228.4193,454.6
228.4401,271.1
228.5234,127.8
228.5484,409.9
228.6338,21.1
228.737,131.2
228.7787,328.1
228.8129,657.5
228.9365,248.3
228.9612,39.2
228.9765,299.7
229.0784,337
229.1675,385.7
229.3885,695.8
229.4474,237.9
229.4566,251.9
229.4684,150.6
229.4766,766.7
229.5131,333.7
229.5313,456.2
229.5854,20.5
229.7056,336.5
229.7195,495.8
229.8613,342.5
229.8736,413.7
229.9241,560.2
229.9571,386.6
230.0334,238
230.0676,48.1
230.0875,142.9
230.1136,266.8
230.2072,21.6
230.2633,141.1
230.3532,174.5
230.4641,127.6
230.495,307.9
230.4997,179.9
230.5219,572.8
230.6038,301.4
230.6498,364.6
230.6765,141
230.7069,875
230.7081,815.5
230.7107,318.1
230.7392,83.9
230.8058,438.5
230.8104,1310.5
230.9068,20.8
230.9345,131.4
230.9385,482.2
230.9864,316.2
230.9906,104.9
231.0273,442.6
231.0558,278.5
231.0725,181
231.0969,203.7
231.1089,142.7
231.1256,314.5
231.1552,23
231.1656,21
231.177,18.1
231.1833,120.7
231.2118,96.5
231.2504,19.6
231.2555,536.2
231.3406,293.5
231.5606,122.2
231.6259,114.6
231.7021,711.8
231.8396,286.9
231.9259,23.2
231.9954,375.8
232.0539,791.7
232.067,176.4
232.1452,169.7
232.2724,95.1
232.2844,170.5
232.4233,17.1
232.466,150.5
232.6101,325.5
232.6547,18.2
232.8072,329.7
232.883,217.3
232.8969,44826.7
232.9123,655.9
232.9552,153.5
232.9858,3243.6
233.0287,123.1
233.0511,8392.3
233.1309,339.6
233.2471,333.4
233.2538,254
233.3182,374.5
233.4827,24.2
233.4875,191.1
233.4936,155.4
233.5217,666
233.5623,461.1
233.6293,157
233.7166,564.2
233.8888,395.1
233.9112,17.6
234.0491,414.2
234.0728,344.9
234.25,242.4
234.3261,93.8
234.4192,132.5
234.4679,114.6
234.4735,19.8
234.4884,116.5
234.6449,302.7
234.6696,141
234.8938,10364
234.9288,19
234.9817,6536.6
235.0477,109.5
235.0571,4163.1
235.0665,1496.1
235.0927,19806.9
235.2472,141.7
235.3266,87.6
235.3334,332.2
235.4016,217.4
235.4415,337.3
235.4716,150.2
235.678,585.9
235.8637,657
235.897,19.3
236.0008,324.2
236.0269,20.6
236.0411,5654.7
236.0555,163.5
236.0718,44348.4
236.0961,915.7
236.1222,87.5
236.1795,685
236.2961,555.2
236.3887,21.4
236.5308,454.1
236.6066,267.5
236.6102,39.8
236.8658,137.9
236.8921,534.7
236.9691,260
237.0018,168.4
237.0218,22.5
237.071,80.9
237.0753,1744.3
237.0799,19
237.1656,132.4
237.2249,100.5
237.297,577.8
237.3028,245.5
237.3045,354.1
237.3056,359.3
237.333,882.7
237.3435,20
237.788,199.5
237.8457,268.3
237.9077,91
237.9175,152.1
237.9807,105.5
238.0228,324.5
238.0677,500
238.0767,133.5
238.1818,17.1
238.2798,502.2
238.3014,506
238.5983,546.9
238.721,867.7
238.7905,102.4
238.8421,6208.6
238.8475,798.3
238.8534,887.1
239.0093,114.5
239.0481,245
239.0512,228.1
239.0642,718.2
239.0681,691.3
239.1306,100.7
239.1579,211.8
239.1972,20.2
239.3187,310.5
239.3436,323.5
239.3871,105
239.395,634.9
239.4201,148.4
239.5738,392.1
239.5754,486.8
239.577,336.6
239.5886,396.6
239.6081,104.8
239.6958,296.3
239.7227,94.1
239.7436,671
239.9429,358.6
240.0034,513.5
240.0312,557.6
240.0526,109.2
240.1001,270.5
240.1591,447
240.1686,20
240.1767,110.7
240.2084,414.9
240.2233,153.9
240.2304,607.1
240.3543,382
240.7602,530.6
240.767,212.2
240.7977,104.4
240.8244,296.6
240.8392,2159
240.8558,293
240.955,1805
240.9674,2085.5
240.9983,406.5
241.0362,702.2
241.0559,573.4
241.0737,217.6
241.1226,202.4
241.2173,102.2
241.2452,18.8
241.2907,304.1
241.2923,302.1
241.3058,301.3
241.3744,149.8
241.5436,102.8
241.5671,353.2
241.602,126.7
241.6757,507.5
241.75,145.7
241.7559,654.1
241.7767,723
241.82,97.9
241.8747,17.8
241.9795,45.2
241.9984,1615.2
242.0194,3765.9
242.0858,529.2
242.2322,436.5
242.5991,103.9
242.704,293.3
242.7164,164.9
242.7238,370.9
242.7491,276
242.9258,22681.4
242.9498,485.6
243.0063,54.7
243.0229,187.5
243.0422,299.6
243.0532,8588.9
243.0655,7947.6
243.0751,38.3
243.0804,142.5
243.1758,17.9
243.3556,525.2
243.5539,267.4
243.5741,495.3
243.5837,137.8
243.6012,120.9
243.6392,196.5
243.7052,103.5
243.7377,88.8
243.7583,359.3
243.7917,604.4
243.8778,34.5
243.9728,220.9
244.0128,362.9
244.0808,185.4
244.1405,131.2
244.1634,269.6
244.1925,287.2
244.2168,401.6
244.5796,792.2
244.623,39.4
244.6652,376.7
244.6945,327.4
244.7272,107.8
244.7876,397.9
244.8315,87.3
244.8427,368.1
244.8653,478.4
244.8709,4994.4
244.9238,1263.9
244.968,477.6
244.9859,470
245.0566,767
245.1108,847.2
245.1162,129.9
245.2321,437.8
245.3281,465.9
245.3388,382.8
245.4191,145
245.4404,121.3
245.4532,154.7
245.4732,179
245.5459,451.9
245.5555,286.1
245.6761,169.6
245.7058,237
245.8512,323.4
245.9052,35.2
245.9499,375.1
245.9548,730.9
245.9599,116.2
245.9759,153
246.0015,202.3
246.1299,20
246.1503,199.4
246.1561,306
246.3377,253.4
246.3638,698.8
246.4858,40.5
246.5724,124
246.7583,183.1
246.7722,96.3
246.7841,437.8
246.8612,139
246.868,760.9
246.9437,151.8
247.0367,689.5
247.0456,136.4
247.0575,824.5
247.0667,761
247.0927,6238.4
247.1052,837
247.2336,154.4
247.2764,478.7
247.3328,91.8
247.3959,190.8
247.5979,28
247.928,324.1
247.9443,20
247.9889,111.6
248.0301,126.9
248.0668,137.8
248.0961,89.2
248.1244,13791.2
248.1311,434.7
248.1502,211.9
248.1561,19.8
248.203,841.2
248.2058,782.4
248.2644,300.6
248.3185,19.1
248.3878,390.3
248.49,129.6
248.6158,150.3
248.6632,139.9
248.7869,150.5
248.8448,478.1
248.8709,11495.9
248.9597,1342.3
248.9998,449.6
249.0161,157.6
249.0493,345.7
249.0614,18116.1
249.1279,979.2
249.2949,19.7
249.3428,367
249.3683,17.9
249.4366,141.1
249.4611,92.9
249.5956,18.7
249.6013,109.2
249.6076,584.4
249.6653,210.8
249.8096,441.4
249.9553,94.8
249.9617,537.1
250.0512,22.6
250.0645,391.4
250.1903,670.8
250.2552,196.4
250.2766,106.8
250.3188,518.2
250.4532,946.2
250.6093,153.6
250.6922,574.5
250.7194,348
250.7358,21.3
250.7531,186.7
250.7764,431.1
250.8677,901.3
250.874,456.4
250.9167,582.7
250.9204,2635.1
250.9557,2111.7
250.981,23.7
251.0009,86.9
251.0327,772.4
251.1034,345.8
251.1366,89.5
251.1697,228.1
251.4669,408.8
251.4776,40.7
251.5602,201
251.6658,20.7
251.6927,41.4
251.9195,42.4
251.9284,638.4
252.0162,26
252.0272,86.4
252.0351,565.9
252.0458,111511
252.1848,356.6
252.2557,365.7
252.4389,146.4
252.4531,320.6
252.4813,837.2
252.5418,336.8
252.607,129
252.6224,968
252.6381,38.5
252.6994,289
252.7656,104.2
252.7677,105
252.7953,126.4
252.8602,143.7
252.8864,83.6
252.9175,1786.2
252.9287,707.6
252.9489,364.4
253.0296,86.4
253.039,26.4
253.0493,9177.4
253.1137,154.8
253.1301,344
253.1367,131.4
253.1613,106.9
253.2858,92.9
253.4353,563.6
253.4879,400.3
253.5335,297.9
253.971,18
253.9773,580.6
254.0035,240.1
254.0439,3333.5
254.0698,27.8
254.1508,486
254.208,315.4
254.2676,368.8
254.6618,122.5
254.6703,188.1
254.6914,619.6
254.7385,129.6
254.7587,113.5
254.8241,7851.9
254.8973,37.8
254.9128,325
254.9164,182.3
254.9965,22.4
255.0115,200.9
255.0332,29005.2
255.0464,357.6
255.1152,237.5
255.1398,139.3
255.2105,289.3
255.2498,93
255.2953,17.9
255.4184,19.3
255.4245,19.3
255.4286,487.9
255.6206,199.3
255.7595,87.1
255.8431,1029.5
255.9782,1071.5
256.0504,652.6
256.0586,152.7
256.0957,117.7
256.1852,934.8
256.2068,20.9
256.2205,158.4
256.2326,204.1
256.2632,21
256.3813,96.6
256.4069,162.5
256.4498,512.9
256.5043,601.1
256.5266,378.1
256.6774,98.3
256.8134,954
256.821,14273.8
256.8554,372.8
256.9676,150.2
257.0488,7465.6
257.0655,490.8
257.0747,55118.6
257.1566,424.3
257.1609,196.6
257.2044,519.2
257.2187,611.2
257.2444,19
257.3302,93.1
257.3431,332.1
257.411,174.7
257.4454,335.2
257.4612,86.4
257.4727,494.3
257.7376,42.7
257.7451,679.6
258.0043,19.9
258.0132,138.4
258.0305,138.7
258.0742,232.8
258.0781,2236.8
258.1104,25708.5
258.1528,21
258.3538,128.9
258.3932,106.3
258.4275,176.2
258.6168,151.3
258.6724,750.5
258.6864,141.3
258.7308,693.2
258.761,23.2
258.7779,115.8
258.8183,5264
258.8297,493.6
258.8998,4840
258.9537,729
259.0273,695
259.1156,143.5
259.1745,442.8
259.1928,167.2
259.1968,691.4
259.2021,287.1
259.2226,157.6
259.2282,593.3
259.3401,17.7
259.3669,435.3
259.4158,19.3
259.5106,898.5
259.5224,114.7
259.6003,244.8
259.9816,149
260.0172,66.1
260.2099,151.7
260.2127,153.8
260.278,254.3
260.4674,506
260.5179,298.9
260.5249,142.3
260.5757,350.2
260.6138,544.8
260.6172,371.7
260.7917,440
260.845,4921.8
260.8598,156.3
260.869,515.3
260.916,22.8
260.9493,8343.5
261.012,375.7
261.1003,107.1
261.1041,336
261.1581,192.4
261.2433,285.2
261.2681,146.7
261.3054,128
261.4657,245.5
261.4872,374
261.5165,57.2
261.6747,150.7
261.7282,613.1
261.7345,130.8
261.9648,22.7
262.0816,1897.2
262.2482,715.4
262.3133,377.6
262.5951,249.8
262.9185,162.6
262.9465,981.5
262.9966,38.3
263.0135,468.6
263.0172,637
263.0255,152.5
263.0319,141.9
263.0814,21.2
263.0855,1452.5
263.1326,36.2
263.1775,39.5
263.3205,692.1
263.3471,414.5
263.4727,640.9
263.5709,20
263.6958,22
263.7164,107.2
264.17,203.2
264.1956,168.8
264.2502,127.4
264.282,200.5
264.3448,137.6
264.3573,21.1
264.5146,146.6
264.5278,776.6
264.5486,679.2
264.599,96.7
264.6699,264.3
264.7921,134.5
264.8449,1419.5
264.853,6499.7
264.9337,5955.1
264.9733,689.7
264.9887,175.1
265.0165,365.2
265.0236,579.1
265.0353,8849.9
265.0475,3932.3
265.2578,646.9
265.2678,138.9
265.2839,552.3
265.2896,141.9
265.3272,34.2
265.3737,164.9
265.4249,581.4
265.4339,118
265.5225,161.7
265.5463,315.1
265.5566,191.3
265.5867,575.9
265.6993,272
265.8193,307.8
265.8246,210.7
265.8902,312.1
265.9113,21.2
265.9335,229.1
265.9648,105.5
265.9777,20.4
266.0251,23.1
266.0385,712.9
266.0435,293.9
266.177,113.9
266.2257,19.2
266.2654,423.5
266.4463,358.6
266.5759,308.6
266.5917,138.1
266.8114,18.5
266.8501,7465.9
266.8945,2169.6
267.0091,755.6
267.0135,234.8
267.0285,695.5
267.0467,351.1
267.0659,19.7
267.0872,106.2
267.2357,214.1
267.3033,767.8
267.3404,20
267.5161,94.8
267.7277,174.6
267.7345,445.6
267.7915,164.1
267.7967,156.9
267.8461,90.8
267.8801,424
267.9415,179
267.9861,110.8
267.994,24.2
268.0321,205.2
268.0672,20.6
268.1405,152.7
268.2207,806.6
268.4247,138.9
268.4495,561.7
268.5136,151.8
268.5243,285.9
268.6113,425.3
268.6928,630.9
268.8178,320.5
268.8472,552.9
268.8645,1387.8
268.8914,1603
268.9234,19.2
268.9929,170.1
269.0125,96.6
269.0302,167.6
269.0341,20.1
269.045,14189.1
269.0488,42685.4
269.0899,110.1
269.411,150
269.6998,138.7
269.7378,39
269.8429,282.6
269.8614,397.2
269.9943,1651.1
270.025,944.4
270.0475,24982.3
270.0523,334.2
270.064,27.6
270.1452,801.5
270.1907,147.8
270.3808,280.1
270.7782,207.1
270.7981,4486.7
270.8618,777.3
270.9075,772.8
270.9578,285
270.9781,18094.3
271.0237,957.6
271.0505,501.2
271.078,507.3
271.0906,1040.7
271.1113,710.3
271.1223,827.4
271.1973,379.3
271.5087,381.2
271.5136,108.4
271.5469,352.6
271.5577,113.2
271.6551,178.2
271.6918,50
271.8165,18.1
271.9588,179.2
271.9656,414.5
271.9815,638.8
272.0281,18.6
272.0434,177.9
272.0807,372.2
272.09,22.5
272.2323,17.2
272.3427,103.6
272.3671,272.6
272.4406,308.5
272.5423,829.4
272.5644,18.9
272.7335,436.1
272.7534,314.1
272.7952,7467.6
272.8281,293.9
272.8555,96
272.9448,1066
273.0086,410.4
273.0114,346.5
273.0488,5757.1
273.1455,380.1
273.2514,90.4
273.3696,534.9
273.3936,132.7
273.4219,468.2
273.479,19.5
273.7338,195.3
273.8008,112.9
273.9631,266
274.0023,19.5
274.0105,128.2
274.0308,19
274.0693,210.4
274.0928,1722.6
274.2238,249.7
274.2888,351.4
274.3373,116.8
274.3562,184.9
274.5378,91.2
274.5471,251.3
274.5643,118.1
274.6431,731.2
274.792,2175.8
274.8765,103.8
274.8822,957.6
275.001,118
275.0925,149.7
275.2529,295.5
275.2807,674.6
275.2876,841.9
275.2995,139.7
275.3304,21.8
275.3746,17.7
275.3887,19.7
275.3946,415.1
275.5569,102.7
275.6827,152.4
275.7387,218.9
275.9389,634.3
275.9619,393.6
275.9855,159.6
275.9901,483.9
276.0035,76.9
276.085,87.8
276.2223,283.1
276.274,137
276.3064,265.6
276.6407,483
276.9232,8680.4
276.9857,817
277.0039,92.5
277.095,4092.6
277.1111,291
277.2145,371.3
277.4564,636.8
277.7004,112.1
277.781,205.7
277.8126,604.9
277.8675,19.4
278.0007,23.7
278.0192,391
278.0377,636.1
278.4022,19.6
278.4679,19.7
278.6481,20.6
278.6923,162.6
278.7444,291
278.8131,160.5
278.8256,233.4
278.8936,4568.1
278.9204,1589.6
278.9601,384.2
278.9727,466.2
278.9817,287.4
278.9875,806.5
279.0196,319.6
279.0567,37343.3
279.1482,467.1
279.2177,19.9
279.24,724.3
279.5211,178.4
279.546,17.8
279.5709,531.6
279.6471,470.9
279.6595,162.6
279.6746,490.1
279.6854,130.5
279.8432,228.5
279.8488,493.2
279.8503,522.8
279.8547,529.9
279.8633,921.5
279.8721,36
279.8923,341.9
279.9392,103
279.9602,95.8
279.9783,597.6
280.016,208.4
280.0604,582.5
280.0924,3655.5
280.2192,152.3
280.2638,91.3
280.3074,18.1
280.4189,404
280.6105,386.2
280.6979,124.5
280.827,3004.5
280.8386,395.3
280.848,339.8
280.9627,865.5
280.9802,347.6
281.0093,2222.9
281.0515,253.6
281.214,311
281.4123,226.9
281.4181,37
281.6014,82.6
281.661,319.7
281.6702,358.6
281.6958,426.3
281.711,319.6
281.8878,97.7
281.9532,517.9
281.9666,114.2
282.0148,144.6
282.0653,627.8
282.0953,291.8
282.106,372.5
282.13,103.4
282.138,47.6
282.3014,54.7
282.3225,548.7
282.3603,513.3
282.7006,98.6
282.824,1777
282.8309,38.2
282.9047,19.2
282.9405,109.3
283.0281,1426.9
283.0656,21.1
283.2149,115.9
283.2456,253.2
283.2584,21.9
283.2642,29.3
283.279,294.7
283.3679,105.9
283.3734,107.5
283.4176,425
283.6102,20.1
283.6576,427.9
283.6772,115.7
283.7837,932.6
284.0376,559.1
284.0539,38.7
284.063,111.6
284.0773,665.2
284.1826,162.4
284.252,143.3
284.2798,758.4
284.2968,626.8
284.4457,146.8
284.4907,240.8
284.5544,713
284.5745,329.3
284.6587,83
284.674,502.1
284.821,547.1
284.8321,19.1
284.8608,18.9
284.959,665.2
284.9938,1068.9
285.0229,28.3
285.0632,138.4
285.0898,574.5
285.1111,666.6
285.1241,1156
285.3603,113.6
285.5327,205.7
285.6043,195.2
285.6317,352.9
285.6565,506.5
285.6936,110.7
285.7068,184.2
285.9678,733.8
285.9891,569
286.0199,272.8
286.0389,347.3
286.0509,483.4
286.0964,86.9
286.1012,754.3
286.1225,752.6
286.129,417.2
286.2835,148
286.2907,144.4
286.4533,295.4
286.6512,763.7
286.754,588.6
286.7719,1319.3
286.8355,129.1
286.932,474.1
286.9522,6446.6
286.9986,309.6
287.0555,35328.8
287.1575,330.5
287.1715,479.6
287.2101,381
287.3426,47.3
287.7671,192.7
287.942,521.9
288.0136,55.8
288.0586,1376
288.085,98.2
288.0922,152
288.1329,95.9
288.1558,23876.3
288.1827,501.7
288.2755,313.6
288.3937,243.3
288.4041,302.8
288.458,127.1
288.6756,160.6
288.6862,20.6
288.7284,356.4
288.7692,2639.1
288.8223,167.5
288.8323,131.6
288.8385,307.3
288.8416,430.8
288.8532,1763
288.8547,1778.6
288.8645,6748.2
288.8747,9846.9
288.8807,11456.9
288.8877,10088.7
288.8941,14549.1
288.8973,15161.8
288.9048,21048.1
288.9117,21167.8
288.9157,21875.8
288.9213,20637.7
288.9263,18504.4
288.9333,17947
288.9415,11799.9
288.9511,7425.6
288.9658,1090.4
288.9724,215.2
288.9802,606
288.9882,838
288.9962,204
289.0014,105.1
289.0034,107.7
289.02,703.8
289.0515,93
289.061,35.2
289.159,1461.8
289.284,107.6
289.3757,404.1
289.4134,22.2
289.4855,352.6
289.5321,38.6
289.5951,21.8
289.9631,722.8
289.9928,268.3
290.239,21.6
290.3008,347.7
290.422,44.4
290.4358,121.4
290.5943,409.1
290.6219,425
290.6812,245.5
290.7038,151
290.7217,263.3
290.7661,1284.1
290.7716,215.6
290.833,342.1
290.9363,473.3
290.9943,17.2
291.0268,3174.6
291.0921,198.8
291.1361,20.6
291.302,129.3
291.3687,19.3
291.3978,123.5
291.4625,21.7
291.4798,20.6
291.5289,104.1
291.5752,590.1
291.6729,126.9
291.7673,128.2
291.9841,734.8
291.9967,222.4
292.0251,426.6
292.0352,339.9
292.0799,139
292.1034,598.9
292.1225,127.2
292.1541,288.1
292.2069,156.1
292.2249,111.1
292.2346,19.6
292.2564,145.2
292.4001,506.9
292.448,199
292.5843,178.4
292.5944,193.9
292.8722,120.3
292.9559,258.2
292.9727,20.5
293.0072,103.5
293.0693,8585.1
293.0796,368.6
293.0895,112.4
293.0907,125.5
293.0983,373011
293.1792,4098.3
293.4182,194.8
293.4439,187.2
293.4743,138.9
293.5427,168.2
293.6622,21.6
293.6841,19.8
293.6937,127.8
293.9235,107.7
293.9477,367.5
294.0197,785
294.0363,333.9
294.0952,684.6
294.1017,31412.3
294.2537,559.1
294.5122,102.2
294.5698,186.6
294.6406,128.7
294.9151,475.2
294.9908,695.1
295.0306,2164.4
295.1024,3498.7
295.1948,24833.7
295.2056,128.2
295.2346,41.2
295.2614,122.4
295.2678,95.7
295.4561,393.2
295.4914,17.8
295.5698,97.6
295.5856,548
295.6684,39.4
295.6756,377
295.7195,177
295.7611,155.5
295.8832,365.8
295.9461,286.7
296.01,627.7
296.0428,259.7
296.0518,367.5
296.0663,1698.5
296.0896,193.8
296.1362,480.1
296.1866,24
296.1985,2694.6
296.2948,167.8
296.3005,114.3
296.6864,302.5
296.7754,227.9
296.7991,619.7
296.8121,1089.9
296.9082,133.7
296.9876,429.1
296.9934,575.5
297.0495,209.5
297.0573,125
297.1235,743.3
297.2041,175.9
297.3218,456.1
297.5073,97.2
297.621,21.7
297.6376,281.2
297.7079,130.1
297.8318,20.6
297.8592,17.1
297.9466,403.4
297.9895,549.7
298.0252,1383.4
298.0425,14025.8
298.0536,20.6
298.1286,85.9
298.3169,184.9
298.3429,22.3
298.5824,533
298.6024,160.9
298.6056,155.1
298.8679,501.5
298.9866,224.6
298.9943,177.9
299.023,545.1
299.0459,602.2
299.0625,23.5
299.1134,283.7
299.1396,5270.5
299.1673,116.4
299.1957,726.7
299.2787,23.1
299.5808,301
299.6993,322.9
299.7983,167.8
299.8471,18.6
299.9126,139.7
299.9234,133.7
300.0045,910.7
300.0386,209.9
300.0483,388.3
300.0756,453.1
300.1417,170.1
300.1963,62.5
300.2506,17.5
300.3605,164.6
300.4052,729.7
300.4876,18.3
300.5011,359.1
300.7567,108.5
300.98,417.5
301.0216,558.2
301.0387,23148.3
301.0725,661.2
301.0781,158.9
301.1011,580.8
301.1083,17.6
301.1404,357
301.2117,4069.6
301.42,308.3
301.4983,416.6
301.5947,177.3
301.811,213.9
301.9029,176.9
301.9684,262.4
301.979,215.1
302.0008,380.3
302.0204,761.1
302.0357,68.5
302.0642,5043.4
302.0736,39.4
302.0953,91.2
302.2086,19.6
302.4724,634.8
302.536,486.9
302.5418,798.5
302.5623,344.1
302.5803,374.3
302.6698,405.1
302.679,431.2
302.6839,133.9
302.696,131.2
302.705,19.7
302.7434,433
302.8297,3839.9
302.8503,194.2
302.9631,207.1
302.9832,511.1
303.0261,322.7
303.0535,142.1
303.0676,543
303.075,1402.4
303.1445,93.3
303.2168,1723.1
303.2725,136.3
303.2795,473.5
303.3554,644.7
303.4257,176.1
303.6008,140.6
303.6156,21.3
303.6489,335.7
303.658,42.3
303.7481,791.1
303.807,106
303.8464,308.6
303.8649,140.5
303.8837,238.7
303.9081,92.3
303.9628,146.8
304.0113,22.5
304.0598,193.2
304.2224,147.1
304.2389,176.9
304.3635,142.3
304.4718,586.1
304.6044,353.8
304.7434,956.7
304.8064,176.9
304.8268,1702.1
304.8482,384.8
304.8833,368.6
304.8964,903.1
304.9758,554.8
305.0379,583.3
305.1997,90.9
305.352,22
305.4694,99.2
305.6403,297.8
305.6521,519.7
305.9594,354.4
305.9721,183.1
306.0243,46.5
306.0955,64.1
306.1691,174.8
306.1854,318.5
306.5267,97.6
306.5326,760.6
306.7206,23.5
306.8097,260
306.926,373.9
306.9586,1065.4
306.9775,3853.2
307.0155,139.7
307.0505,115.5
307.0724,96.7
307.177,124.1
307.1835,517.6
307.2164,422.5
307.2565,672
307.3212,700.2
307.4093,544.2
307.5456,167.2
307.5791,133
307.5817,135.8
307.9011,189
307.9464,109.3
307.9832,151.5
308.0585,38
308.0861,455.7
308.1346,415.6
308.208,626
308.2394,96.1
308.4079,387.4
308.4434,269.4
308.5306,97.8
308.5848,210.6
308.6596,408.2
308.6761,134.8
308.8794,3009
308.915,502.7
309.0068,569
309.0376,2086.9
309.0827,2812.3
309.1135,145.5
309.1337,121.3
309.2212,155.5
309.244,144.2
309.2686,829.3
309.2872,146.7
309.3552,110.2
309.6211,803.6
309.635,241.7
309.6428,164.6
309.7578,94.6
309.8799,20.4
309.929,175
310.0693,87.6
310.1535,177.9
310.2558,553.6
310.2614,704.7
310.2878,125.8
310.3861,19.2
310.4974,112.4
310.6243,42.5
310.6782,897.2
310.7583,461.6
310.8761,3115.8
310.8894,38.1
310.9082,22.5
310.9655,400.5
311.0034,237.1
311.1073,450.9
311.4105,141.1
311.4699,666.8
311.6111,695.8
311.7743,171.6
311.9841,769.4
311.9919,111.3
312.0044,50.1
312.0411,1299.3
312.0831,327.5
312.144,341
312.1548,336.9
312.2927,19.2
312.3349,325.9
312.352,44
312.6586,102.9
312.7691,300.1
312.8582,581.9
312.9063,96.5
313.002,145
313.0369,711.2
313.0536,246.4
313.0619,547.4
313.0945,425.1
313.2742,54638.9
313.3003,648.2
313.3266,191.8
313.3858,159.1
313.438,456.7
313.4797,171.9
313.7547,526.8
313.7693,480.6
313.7781,324.9
314.0165,498
314.0494,140.5
314.0928,531.5
314.2775,8232.3
314.3619,17.3
314.6756,265.7
314.7801,447.1
314.837,4352.4
314.8584,307.5
314.8867,1469.3
314.9011,181.1
314.9309,112.5
314.9345,235
314.9869,712.1
314.9993,4689.2
315.0041,1305.7
315.0283,113.1
315.0295,105.2
315.0323,149.4
315.0389,130.4
315.0409,245.9
315.0449,175.3
315.0493,1167.2
315.0553,9972.8
315.0618,3110.6
315.0667,15184.5
315.0697,21159.6
315.0733,17296.2
315.0803,6403719.5
315.0868,19649.4
315.0899,12080.1
315.0943,6213.8
315.0962,4323.9
315.0984,3800.2
315.1006,2697
315.1028,2312.4
315.1047,1921.4
315.1115,1212
315.1132,1190
315.126,426.8
315.1341,178.7
315.1445,44.6
315.1613,5002.4
315.2233,107.8
315.2596,274.7
315.3236,4757.1
315.4071,132.5
315.4088,120.1
315.4568,20.9
315.4859,415.4
315.5209,18
315.5342,279.9
315.6928,786.5
315.7287,217.5
315.7346,327.1
315.7813,769.8
315.8846,99.7
315.9631,396.9
316.0322,20.1
316.0531,36.8
316.0691,583.4
316.0775,35456.4
316.0836,669950.4
316.2056,23
316.2371,137.4
316.2852,116.2
316.362,368.4
316.8467,144.7
316.9713,387.2
316.9796,723.8
316.987,1655.1
317.0147,104.6
317.0257,230.1
317.0436,19.2
317.0562,1058.8
317.0651,3105.3
317.0841,73120.8
317.1783,805.7
317.3573,118.3
317.4479,383.1
317.494,19.6
317.986,390.6
317.9945,658
318.0183,38.4
318.0488,325.9
318.0877,7234.4
318.1624,133.7
318.2114,205.9
318.2177,17.8
318.5527,108.8
318.6013,96.8
318.7141,221.1
318.7379,104.1
318.8039,1668.4
318.855,133
318.8757,361.1
318.9064,343.1
319.1949,45312.6
319.2565,18.3
319.3888,148.5
319.4244,35.9
319.5354,20.5
319.5593,17.7
319.6046,19.1
319.6718,110.7
319.7621,444.4
319.876,130.7
319.8841,283.2
320.0662,135.9
320.0747,210.4
320.1534,93
320.1983,5063.4
320.259,1621.3
320.3566,357.3
320.4033,19.6
320.4839,87.3
320.6085,18.5
320.8003,827.2
320.8428,19.1
321.1881,23.1
321.2105,54903.9
321.2417,360.4
321.2623,85.3
321.5574,154.7
321.7571,149.4
321.8597,141.4
321.9456,608
322.009,180.4
322.1891,199.8
322.2075,765.2
322.214,6278.8
322.2362,780.5
322.3723,187.9
322.6709,94.8
322.8036,19.2
322.8417,18.9
322.866,556.9
322.9325,1288.7
322.9506,780.6
322.9722,183.7
323.0043,169.4
323.0207,12307.6
323.0745,423.9
323.1595,19.6
323.1875,40.4
323.2259,907.8
323.4211,279.6
323.4965,186.8
323.5294,610.1
323.6441,144.1
323.6568,440.3
323.6736,180.4
323.6797,321.2
323.7993,89.7
323.8731,43.4
323.9951,85.2
324.0025,168.1
324.2289,20.6
324.3874,390.3
324.4953,682.7
324.5753,343.4
324.5823,1681.6
324.5911,8852.3
324.8085,685.5
324.8534,1375.6
324.9201,633
325.0104,195
325.0567,783.4
325.2011,173.9
325.212,8356.9
325.2378,90.7
325.2533,92.5
325.4956,97
325.6117,573.4
325.8409,134.5
326.0972,423.3
326.1605,21.6
326.1689,153.4
326.2185,429.3
326.264,139.9
326.2928,664.1
326.3124,349.8
326.3343,462.3
326.3681,268
326.4445,623.4
326.4669,48.9
326.6541,18
326.7632,146.1
326.8508,1700.2
326.924,252.5
326.9622,133.3
327.0074,436.5
327.0156,4560
327.0523,1561.3
327.2275,22189.5
327.7701,182.4
327.8865,120.8
327.9848,801.7
328.0156,1051.5
328.2307,2130
328.3181,259.9
328.4057,234.8
328.4126,368.2
328.4332,214.9
328.4411,1409.7
328.4498,332.4
328.4572,27.6
328.6058,602.5
328.7201,206.2
328.7723,408.8
328.8802,415.3
328.9674,20.6
329.0961,1376.5
329.4859,158.8
329.5708,89.9
329.6701,103.7
329.9474,184.4
330.0327,142.6
330.0593,144.3
330.1027,377.4
330.1118,19.9
330.1946,41.7
330.2468,157.3
330.2767,359.6
330.4158,123
330.8627,97.8
330.9389,480.9
330.9884,47.8
330.9932,915.3
331.0194,1322.4
331.0454,120542.6
331.0542,896307.6
331.0629,118.3
331.1672,132.6
331.2397,20.6
331.3822,140
331.5018,92.8
331.6359,846.4
331.7494,128.2
332.0483,9082.8
332.0576,78545.9
332.1313,475.7
332.1394,429.4
332.1719,452.9
332.3026,101.3
332.3355,205.1
332.5272,125.6
332.5359,128.9
332.8212,207
332.8401,1007.1
332.9607,1268.6
333.0169,136.3
333.0413,140.1
333.0524,53519
333.058,7905.7
333.0781,491.9
333.1893,121.7
333.2742,139.4
333.282,134.4
333.4708,695.3
333.5061,233.8
333.5157,363.9
333.5396,133.8
333.5614,100.2
333.6529,282.9
333.8542,18.1
333.9572,252.5
333.9693,21.2
334.0045,22
334.0461,283
334.0557,3107
334.0609,178.2
334.0684,143.4
334.0904,124
334.1378,497.5
334.3842,125.9
334.4565,151.5
334.4806,18.9
334.5419,152.6
334.6262,16.8
334.7291,18.8
334.8031,38.6
334.8492,144.3
334.877,123.6
334.923,521.8
334.9316,245.6
335.019,614
335.0383,1144.8
335.4553,115.4
335.4916,196.5
335.5135,118.9
335.541,411.5
335.5905,22.4
335.7283,384.1
335.7536,18.2
335.7571,18.5
335.8334,427.1
335.9239,109.1
336.0475,135.7
336.0617,166.1
336.1655,321.1
336.1796,139.2
336.2402,486.6
336.332,453.5
336.3429,283.9
336.462,22.5
336.799,121.6
336.8216,188.7
336.8427,374.3
336.8516,772.6
336.879,417.2
336.9673,430.5
337.0365,12052.6
337.0498,19543.2
337.0623,582307.1
337.167,90.9
337.1823,20.4
337.2205,19.3
337.2231,18.6
337.2253,18.5
337.2744,13420.1
337.3704,274.8
337.4645,338.1
337.5829,154.3
337.6764,467.4
337.6893,19.4
337.7703,19.4
337.869,104.4
337.9236,341.3
338.0467,580.2
338.053,311.4
338.0656,52377.7
338.0991,833
338.2783,481.3
338.342,52.5
338.5488,468.2
338.7585,880.4
338.8003,19.1
338.9204,1421.7
338.9501,145.2
338.9652,711.1
339.0201,367
339.0386,1674.4
339.0471,1159.6
339.0662,5364.6
339.1643,172.5
339.1792,488
339.251,3247.7
339.2626,511.8
339.2732,86.9
339.29,9487.9
339.5005,472
339.5314,161.7
339.5357,157.9
339.6738,572.4
339.721,26.1
339.8009,503
339.8515,496.3
339.8736,100.7
340.5366,322.7
340.5412,676.9
340.7826,880.7
340.8281,420.9
340.8692,886.2
340.9168,122.5
340.9917,176.6
341.0182,197.5
341.1462,560.9
341.3056,3978.1
341.4274,410.6
341.4941,158
341.515,413.3
341.5359,349.4
341.8254,88.9
342.0077,108.6
342.0155,92
342.0686,27.6
342.2763,663.4
342.3334,134.3
342.4388,185
342.4651,18.6
342.6119,288.4
342.7102,175
342.8038,17.1
342.8482,133.1
342.914,633.9
342.9897,1945.7
343.0265,718.4
343.1023,671.4
343.195,13525.3
343.2957,111.4
343.3341,581
343.4882,136.6
343.5863,362.6
343.655,658.8
343.8441,142.3
343.8732,92.6
343.8825,303.6
343.9516,20.8
344.2426,131.7
344.5898,343.8
344.7656,18.1
344.8649,559
344.8987,390.6
344.9469,107.8
344.9886,193.6
345.0006,425.8
345.0276,141.4
345.041,219.7
345.155,188.1
345.2106,3110.5
345.2244,505.1
345.2751,90.1
345.3549,336
345.3683,17.3
345.3793,37.2
345.3927,387
345.5754,259.2
345.7022,745.6
345.9841,1278.8
346.0113,749.8
346.0702,872.3
346.1197,5994.3
346.1315,140.6
346.29,111.1
346.3981,395.1
346.4439,369.2
346.4647,18.4
346.5997,813.5
346.7529,606
346.8045,91.8
346.9349,364
347.0267,288.4
347.5976,190.5
347.6428,481.2
347.6743,408.1
347.7472,37.3
347.8267,696.7
347.9081,20.7
348.1828,196.1
348.455,355.3
348.4823,253.1
348.6729,300.5
348.7171,424.5
348.8819,102.8
348.8895,17.9
348.9846,186.8
349.0769,40.3
349.5116,377.5
349.6684,621.6
349.765,152
349.8176,194.8
349.8933,17.9
349.9421,467.2
349.9818,466
349.9925,20.2
350.0005,297.6
350.0111,17.5
350.0187,146.2
350.0918,113.2
350.2072,19
350.2874,110.9
350.354,162.4
350.4111,689.7
350.4953,397.1
350.5998,131.6
350.8993,858.3
350.9321,698.9
350.9657,128.6
351.004,16.9
351.1902,105
351.2285,421.3
351.26,96.1
351.4644,151.4
351.5173,400
351.7599,19.2
351.7904,38
352.0481,18.5
352.0635,128
352.1122,748.6
352.6838,264.9
352.8782,20.7
352.8983,1447.4
352.9641,101.7
353.0273,129658
353.0362,185873.2
353.0455,514
353.3021,256.1
353.536,371.8
353.591,107.8
353.6677,499.9
353.6878,230.5
353.786,314
353.8462,39.3
354.0305,11511.1
354.0396,16245
354.0618,171.8
354.085,132.6
354.4606,196.7
354.4736,474.4
354.7527,162.7
354.9104,877.5
355.012,2347.3
355.0345,10483.6
355.0706,526.1
355.1229,159.8
355.1773,326.1
355.2365,360.6
355.6298,554.7
355.7592,99.5
355.9655,295.3
356.0155,165.1
356.0243,335
356.0371,188.1
356.0703,87.7
356.1599,81.4
356.4707,822.5
356.9091,523.5
356.974,745.8
357.0088,1236
357.0206,763.7
357.0685,149.9
357.1687,101.9
357.3882,101.2
357.6006,42.5
357.6133,606
357.619,670.5
357.6331,405.9
357.6843,504.6
357.7213,96.3
357.817,847.7
357.9781,32
358.0097,80.4
358.3132,114.7
358.3757,128
358.4685,113
358.5064,184.8
358.541,292.5
358.5606,245.5
358.7255,154.6
358.8723,165.2
359.0076,676.8
359.0317,13581.3
359.0442,358701.8
359.0597,223.2
359.192,314.2
359.2915,844.5
359.4109,310
359.4194,132.2
359.4936,175.4
359.5476,560.4
359.5652,392.5
359.5828,712.7
359.6008,637.7
359.6133,834.2
359.626,629
359.634,618.4
359.6482,1608.5
359.6652,619.1
359.6737,743.7
359.6804,720.5
359.6919,593.8
359.7057,104.5
359.7261,104.5
359.9904,410.6
360.0477,33860.9
360.0575,131.6
360.1658,147
360.2526,296.3
360.3241,458.6
360.6419,135.4
360.6797,19.7
360.6914,390.6
360.7202,375.6
360.7954,368.5
360.817,301
361.0203,4212.4
361.0292,342.5
361.0483,181.5
361.1412,24.6
361.2743,1313.3
361.3271,29
361.6456,482.3
361.853,182.9
361.8796,99.3
362.0264,123.2
362.0938,1671.8
362.4002,140.4
362.4987,619.5
362.6609,548.7
362.7385,375.8
362.8471,96.9
362.8691,562.3
362.9269,1907.7
362.9492,459.9
362.9665,405.3
363.1842,508.9
363.2699,500.5
363.3566,179.1
363.4213,159
363.9143,515.7
363.9992,980.7
364.1412,786.5
364.4777,828
364.618,18.6
364.6326,18
364.7979,301.3
364.8837,148.4
365.0839,188.3
365.1056,29.2
365.1192,454.8
365.2172,613
365.2423,202.5
365.254,706.3
365.6107,265.5
365.6181,19
365.7802,175.7
365.8395,46.4
365.8487,827.5
366.0501,197.2
366.0696,18.4
366.128,104.5
366.1654,106.9
366.3455,147.7
366.6157,322
366.8726,1005.8
367.1216,2470.7
367.1946,2861.3
367.3397,385.2
367.5495,19.3
367.6326,206.7
367.6634,98.7
367.7326,91.9
367.806,347.4
367.9908,22
368.1021,1004.6
368.2008,111.8
368.3582,95.2
368.4246,364.1
368.4511,139.8
368.4983,477.1
368.6482,498.9
368.744,115.7
368.8351,101.4
368.8482,107
368.8722,842.1
368.9791,143.3
368.9921,741.8
369.0013,14250.7
369.0101,6140.7
369.0449,123.3
369.05,136.9
369.1387,132.3
369.3464,356.5
369.3523,91.4
369.376,23.6
369.4484,19.9
369.4992,248.6
369.6418,20.5
369.6911,47
369.8567,150.1
369.8715,423.3
370.0654,403.3
370.155,19.3
370.406,116.3
370.412,334.4
370.4537,218.5
370.9281,377.2
370.9535,251.8
371.0005,471.7
371.0421,907.4
371.0964,407.7
371.2309,112.9
371.4833,305.4
371.6097,177.3
371.7883,359.8
371.8749,351.6
371.9582,365.1
371.9943,723
372.0876,312.1
372.1016,385.9
372.3884,455.4
372.6522,348.7
372.7397,408.1
372.7967,664.4
372.8203,145.3
372.8434,386.5
373.03,217.1
373.1503,19.9
373.1946,141.5
373.5419,506.5
373.8067,100.8
373.8326,175.5
374.0862,43.9
374.1735,177.8
374.2354,279.9
374.3646,420.1
374.5692,460.4
374.6178,325.2
374.8474,163.8
374.87,101
374.9323,509.2
375.0093,135310.3
375.0182,98676.9
375.0633,102.6
375.1837,372.7
375.2752,791.6
375.4102,88.7
375.4756,114
375.6112,111.8
375.6844,333.3
375.7412,17.3
375.7657,300.8
375.784,326.6
375.8874,553.7
375.8937,242.5
376.0126,11322.3
376.0215,8647.4
376.3477,126.2
376.4392,988.6
376.648,137.5
376.7332,261.3
376.8655,397
376.9947,407.8
377.0165,4927.9
377.1217,202.4
377.2542,86.3
377.5134,285.3
377.5245,112.9
377.6808,20.8
377.69,474.1
377.7528,298.5
377.9069,85.8
377.9287,485
377.957,105.4
377.9959,23.8
378.2827,183.9
378.2947,200.4
378.3349,337.7
378.3524,264.9
378.3676,142.2
378.7974,101.2
378.8645,336.9
378.9011,1822.5
378.9908,124.5
379.1892,149.5
379.2349,398.9
379.2976,279.6
379.5825,319.3
379.6368,362.1
379.6887,165.6
379.7666,393.2
379.7787,246.3
379.8167,701.7
379.8195,680.7
379.9069,183.9
380.2072,96
380.3754,164.6
380.5307,369.8
380.6449,43.3
380.7218,284.2
380.7569,170.6
380.7707,736.6
380.7863,140
380.8176,273.8
380.8904,383.6
380.9224,160.9
380.9896,81.7
381.0138,23092.7
381.0262,230295.1
381.0643,92.9
381.1894,211.3
381.3698,180.8
381.513,365.5
381.58,21.2
381.586,396.3
381.8132,534.6
382.0183,708.8
382.0297,22172.2
382.0536,691.3
382.1168,135.8
382.3044,20.9
382.3783,250
382.6519,98.7
382.7121,129.5
382.7673,2677.2
382.8288,678.7
382.8572,454
382.8647,103.7
382.8731,118.4
383.0104,599.8
383.0309,497.2
383.1166,241650.8
383.1899,191.1
383.4419,400
383.538,20
383.5502,95.6
383.5583,21.1
383.6259,119.6
383.6472,22.7
383.6729,228.3
384.0891,186.2
384.1199,29166.9
384.1687,133.7
384.3024,302.7
384.418,466.2
384.5542,144.6
384.5769,469.3
384.6367,808.4
384.68,133.8
384.7508,127.6
384.7649,364.9
384.7853,22.5
385.3506,501.1
385.4045,197.6
385.5778,17.6
385.6402,620.1
385.6916,112.8
385.7604,167.4
385.9166,411.2
386.0286,128.3
386.0491,255
386.2384,96.9
386.2472,319.1
386.3649,846.8
386.4488,692.2
386.4668,445
386.6237,699.8
386.6672,176.9
386.706,715.2
386.7161,450.4
386.7497,371.9
386.7788,20.8
386.8382,492.6
386.8459,91
386.8641,40
386.9616,21.4
387.0032,573.7
387.0812,878
387.3774,823
387.4362,234.4
387.6903,829.9
388.3255,317.9
388.4131,417.4
388.4803,666.3
388.6267,19.3
388.6347,19.8
388.7128,1688.3
388.792,103.7
388.9165,381.1
388.9533,311.9
388.9868,22.6
389.0542,94.5
389.0954,129.1
389.1898,176.4
389.5502,224.2
389.7208,125.6
389.7283,306.4
389.7863,817.3
389.9738,1579.5
390.0584,265.5
390.1166,150.3
390.7394,93.4
390.788,106.2
390.7982,660.4
390.8575,922.4
390.8717,696.8
390.9743,8274.8
390.9831,21992.1
390.9921,12065.1
391.0254,20.4
391.0928,484.5
391.1764,429.4
391.2653,739.7
391.2996,20.9
391.3248,187.8
391.5564,597.4
391.5727,520.8
391.7875,164
391.8769,676.3
391.9954,825.6
392.3141,102.6
392.4518,20.1
392.6494,127.5
392.6732,197.8
392.7967,2257.8
392.8379,18.3
392.9576,24.4
392.9821,180.2
392.9895,232
393.2972,23
393.3955,128.1
393.4296,340.8
393.5858,354.5
393.806,582.6
394.0976,147.3
394.2476,726.4
394.3509,310.5
394.4443,267.9
394.5669,355.6
394.665,173.3
394.715,700.1
394.7379,527.1
394.7934,434.2
394.8753,525.6
395.2661,123.1
395.3735,364.6
395.4523,38.6
395.4771,235.1
395.5216,545.1
395.9334,820.6
396.2862,824.7
396.3571,100.2
396.4203,723.3
396.4828,593.6
396.6221,132.1
396.6369,220.6
396.6479,470.3
396.7441,1164.8
396.9665,181.4
396.9913,195339.5
397.0001,64852.4
397.1687,139.6
397.3323,188
397.846,451.4
397.9719,189.8
397.9947,18707.5
398.0034,3398.9
398.0768,169
398.1491,261.9
398.1724,250.5
398.5426,17.7
398.7414,3961.1
398.763,446.6
398.8743,506.7
398.9137,138.6
398.9752,443.6
398.9974,926.9
399.05,130.9
399.083,147
399.205,42
399.2219,145.8
399.2631,738.8
399.3873,393.2
399.4106,271.2
399.4887,181.1
399.5051,290.9
399.5609,18.3
399.714,92.3
399.7224,126.7
399.7643,524.5
399.8098,86.1
400.0267,143
400.3561,628.4
400.602,175.9
400.7386,1727.7
400.8281,774.1
400.8682,147.9
400.873,234
400.8749,224.3
400.9229,99.2
400.9844,777.1
401.0871,308.9
401.2201,19.5
401.4469,390.4
401.5031,103.7
401.5269,136.9
401.5873,20.1
401.7405,101
401.913,480.9
401.9574,271.4
402.0128,737.8
402.1626,243.2
402.3737,370.6
402.386,397.1
402.4879,146.6
402.6015,124.5
402.6095,127.1
402.6772,173
402.7349,335.9
402.8171,245.1
402.8244,631.9
402.8873,160.2
402.9598,568.4
402.9802,786.4
403.0082,287715.3
403.0764,214
403.1699,219.5
403.2121,366.7
403.3254,159.1
403.4192,299.7
403.4791,21.1
403.5526,353.5
403.7788,292.9
403.9589,970
403.9765,756
404.0115,26810.6
404.2302,114.2
404.6848,316.4
404.7164,92.9
404.8746,787.1
405.0119,1016.4
405.1647,358.1
405.1792,207.8
405.2224,19.2
405.2913,260.8
405.338,353.2
405.6004,108.8
405.6114,163.6
405.8086,256.6
405.8206,125.6
406.0251,20.3
406.3297,1285
406.5881,159.1
406.7084,172.2
406.756,121.1
406.7738,669.7
406.8468,723.7
406.8714,697.6
406.9447,101.7
407.0885,172.1
407.1771,102.5
407.3329,303.5
407.4687,90
407.5049,665
407.9578,302.4
407.9703,347.8
407.9868,779.3
408.1219,21.9
408.5011,307.4
408.7707,1465.5
408.9485,187.6
408.9557,139
409.1727,203.6
409.2415,362.6
409.2629,93.8
409.5886,147.1
410.157,176.3
410.2718,20.2
410.3465,156.8
410.3554,447.9
410.5098,1085.5
410.7288,499.9
410.763,1127.2
410.8568,1908.4
410.9303,219
410.9689,93
411.0157,118.1
411.198,348
411.2803,92.4
411.3664,251.4
411.4129,670.8
411.4696,301.8
411.5957,544.3
411.7798,111.4
411.8496,564.2
412.1132,206
412.2067,38.9
412.3212,1021.1
412.9652,31151.4
412.974,10608
413.0257,149.9
413.2668,4628.8
413.3001,129.5
413.3151,243.4
413.3249,260.9
413.44,93.8
413.4835,90.2
413.4874,92.1
413.5342,921.5
413.5405,19.4
413.793,148.4
413.8126,21.1
414.0914,185.9
414.1134,582.6
414.1292,36.7
414.1362,41.9
414.2701,335.9
414.3322,396.8
414.3559,156.7
414.3687,21.9
414.5278,196.9
414.7152,594.8
414.8381,23.7
414.9106,137.4
414.9281,197.3
414.9628,469.6
414.9732,98.1
415.0737,109.4
415.2222,428.3
415.2396,440.2
415.2737,27.4
415.2838,797.3
415.4842,96.2
415.6696,534.9
416.0301,464.4
416.1355,9965.8
416.2145,26918.9
416.2405,19.2
416.4143,264.6
416.4318,164.1
416.4443,482.8
416.4744,95.3
416.6102,96.6
416.6219,18.9
416.7121,626.8
416.8262,329.4
417.2176,2441.7
417.273,439.3
417.3691,173.5
417.6902,435.1
417.8082,297.9
417.8638,406.5
417.9127,279.4
417.978,149.5
417.9955,261.6
418.0034,290.9
418.3619,387
418.3939,110.4
418.4799,192.8
418.5162,96.2
418.5831,748
418.7988,1022
418.9822,96342.8
419.0329,477
419.9853,4666.6
420.1253,410.4
420.2176,108.9
420.294,192.9
420.6337,346.6
420.815,134
420.8853,1121
420.958,566.2
420.9804,2749.9
421.0359,20.2
421.0486,122.8
421.1589,137.7
421.1797,358.1
421.2564,269.4
421.2787,542.8
421.6068,82.7
422.152,19.3
422.2121,143
422.2454,18.6
422.2863,514.4
422.3031,52
422.6548,391.1
422.7443,252.2
422.7717,470.6
422.9013,254.4
423.049,404.8
423.2451,399.1
423.2892,21.9
423.3388,112.8
423.4879,19.7
423.9984,129.5
424.1056,517.2
424.1402,215.4
424.5002,306.9
424.5919,102.9
424.7134,19.7
424.8322,566.3
424.9582,155.1
424.9776,20.4
425.034,612.6
425.2379,128.8
425.261,18.6
425.5093,19.3
425.7072,302.5
426.2068,470
426.2765,118.2
426.3109,585.6
426.3575,537.6
426.4246,196.2
426.5179,137.2
426.6093,42.7
426.7223,207.6
426.957,116.4
427.0214,143.4
427.3278,662
427.4351,255.5
427.4717,122.6
427.831,115.3
427.9049,363.5
427.9841,823.3
428.1786,108.3
428.2419,875.4
428.4096,210
428.544,324.5
428.6426,256.5
428.792,442.2
428.9391,741.3
428.9491,307.5
428.9735,759.5
428.9828,772.8
428.989,1243.3
428.9979,179.4
429.0059,434.2
429.0923,949.6
429.2338,210.2
429.2416,20.4
429.2729,409.5
429.4799,257.8
429.52,118.7
430.0322,97
430.0874,23
430.1339,343.2
430.3298,224.6
430.3411,139.6
430.4669,422.5
430.6673,387.3
430.7533,158.6
430.9149,1073.3
431.1212,381.2
431.1367,105.4
431.1637,343.8
431.1858,17.8
431.2175,7326.3
431.6344,367.9
431.652,361.7
431.6981,168.5
431.9851,266.8
432.5586,394.5
432.7643,288.1
432.862,157.3
432.9545,309.3
433.1751,90.8
433.4325,242.6
433.469,127.3
433.5206,335.9
433.5638,20.8
433.6354,19.9
433.7841,433.7
433.9256,151.7
434.1083,214.3
434.1306,213.9
434.2871,121.9
434.3506,295
434.3804,356.1
434.584,136
434.5946,429.4
434.7946,22.1
434.9562,16130.6
434.9896,103.3
435.4077,746.2
435.5898,151.4
435.8884,370.9
435.9587,342.8
436.1516,691.5
436.3577,178.9
436.4075,510.1
436.5338,22.6
436.8215,320.2
436.8591,737.6
436.9234,492.6
436.9319,386.5
436.9527,129.3
437.0437,164.7
437.2046,1004.5
437.8383,136
437.9023,283.1
437.9351,133.2
437.97,148.2
438.1958,356.2
438.2175,775.4
438.3903,153.2
438.5156,172.6
438.728,487
438.8591,624.3
438.931,514.5
438.9722,2957.4
438.9848,6376.8
439.087,112.4
439.1206,127.7
439.2044,295.8
440.2141,677.4
440.2403,156
440.4126,716.5
440.4996,172.3
440.5181,279.2
440.6254,260.2
440.7269,980.8
440.8328,290.5
440.9414,535.8
440.9706,647.3
440.9797,128.4
441.1175,709.4
441.2369,638.4
441.2979,382.2
441.319,468.9
441.4048,155.1
441.6938,142.7
441.727,403.1
441.8515,153.2
441.8627,101.9
441.9723,195.5
442.2895,109.5
442.7142,402.1
442.8085,349.3
442.8284,557.2
442.9818,457.8
443.0974,209.4
443.1292,124.1
443.1407,406.9
443.1715,106
443.2086,163.2
443.2539,834.5
443.3301,231.7
443.3457,438.1
443.3599,243.3
443.406,19.4
443.5329,455.1
443.6012,137
443.6954,24.1
443.7713,168.3
443.9048,341.4
444.1764,435.6
444.2394,299.8
445.0408,197.2
445.1436,174.7
445.1466,178.7
445.2242,99.7
445.233,422.7
445.2438,150.5
445.2698,866
445.5098,127.1
445.5455,563.2
446.0928,346.5
446.1017,106.8
446.132,131.1
446.1764,134.5
446.6726,1003
446.718,254.1
446.888,656.4
447.1181,388.2
447.1237,430.3
447.1275,503.3
447.1796,438.3
447.1834,298.1
447.4919,146.3
447.6672,150.2
447.7699,404.5
447.9277,261.1
447.9339,201.3
448.5795,402.2
448.6373,390.1
448.6687,361.8
448.7143,324.3
448.7869,311.7
448.9328,3117
449.0335,119.2
449.1546,2088
449.2031,197
449.4681,369.8
449.5734,204.1
449.6059,769.9
449.6526,421.6
449.7961,324.7
449.8955,194.1
449.9385,104.1
450.1581,351.3
450.1658,433.6
450.2503,20.2
450.7554,620.4
450.9298,630.2
450.9582,799.2
451.15,118.8
451.2392,103.8
451.3295,215
451.3423,728.7
451.41,216.7
451.4883,111.9
451.5488,532.5
451.6179,114.2
451.8645,23.3
452.0677,125
452.2412,232.1
452.5234,18.2
452.5782,98.3
452.6014,335.4
452.6447,309
452.845,253
452.8706,435.5
452.9015,737.4
453.1738,2411
453.5829,226.9
453.7127,609.9
453.7451,347
453.7813,103.7
453.8195,353.1
453.9022,103.7
454.2957,20.9
454.3226,169.3
454.5551,751.8
454.6883,148.5
454.9363,722.4
454.95,46390.3
454.9672,132.7
455.1935,101.1
455.2274,465.7
455.5516,277
455.597,310.8
455.737,117.3
455.7861,456.2
455.7897,480.1
455.795,343
455.8877,417.4
455.9404,453
455.953,682.6
456.0321,300.6
456.0849,356
456.4454,249.5
456.6999,1234.8
456.9261,149.3
456.9327,181.7
456.9472,11410.4
457.0686,634.3
457.1088,540.1
457.1946,151.3
457.2333,18794.1
457.4243,103.6
457.5675,143.5
457.5831,157.3
457.6632,170.7
457.9492,472.9
457.9965,182.4
458.0646,241.3
458.2356,1115.2
458.498,202.7
458.5134,39.2
458.5628,256.6
458.6719,143.6
458.6971,1143
458.8157,912.7
458.8433,178.2
458.9613,3253.4
459.0136,166.6
459.0456,749.2
459.1073,158.6
459.22,473.9
459.2488,564297.9
459.3427,97.3
459.3781,281.7
459.4588,23.1
459.5517,112.2
460.1407,100.1
460.2522,114330.5
460.2677,692
460.4898,538.7
460.5741,294.8
460.5965,888.8
460.8836,421.4
460.9669,92330.7
461.088,316.7
461.1484,135.3
461.2557,8200.2
461.4408,436.1
461.9703,4870.8
462.0151,217.9
462.2135,21.2
462.4861,506.7
462.843,148.1
462.9639,23994.4
463.0238,165
463.0513,502.4
463.1155,86.9
463.2021,1722.5
463.2834,535.1
463.7584,22.4
463.9671,317.7
463.9767,282.2
464.2083,671.9
464.5771,363.3
464.6478,119
464.9789,10046.6
465.0339,334.2
465.2627,739
465.3876,746.3
465.4949,207.3
466.067,97.4
466.1089,107.8
466.1207,523.9
466.2367,405.5
466.493,18.1
466.5295,909.9
466.5499,18.4
466.8085,112.8
466.8529,103.4
466.8924,429.5
467.1543,190.2
467.205,324.5
467.2858,164.3
467.427,480.7
467.4888,725.9
467.9426,439.3
468.0163,102.5
468.1915,695.2
468.2022,128.4
468.2803,101.1
468.3093,738.4
468.4913,441.5
468.6599,799
468.7265,404.1
468.803,800.7
468.8149,539.1
468.9509,36.8
468.968,173.5
468.995,24.4
469.106,465.7
469.147,739.1
469.7969,444.6
470.1685,48.5
470.3018,320.7
470.5605,338.8
470.6858,454.4
470.9104,121
470.9237,22713.1
470.9477,319.9
470.9651,147.8
470.996,3595.4
471.0973,106.5
471.2504,523.1
471.2858,866
471.4013,20.2
471.4967,19.1
471.8577,44.3
471.9264,974.1
472.1698,181.5
472.2132,363.8
472.3054,938
472.5245,108.3
472.561,20.9
472.6744,533.8
472.739,45.4
472.7769,132.4
472.848,580.8
472.921,4458.7
472.9433,723.9
472.9538,1065.2
472.9659,751.7
472.9786,125.6
472.9894,222.5
473.1504,314.8
473.2646,4611.1
473.2878,549.5
473.2982,465.6
473.3365,102.4
473.4095,24
473.4487,144.1
473.4769,151.2
473.5577,349.2
473.7546,104.9
473.784,137
474.107,203.7
474.2708,396.8
474.5172,271.1
474.9408,601.7
475.1548,136.4
475.2228,26553.3
475.5036,596
475.6272,469.4
475.7822,356.6
475.8409,561.4
475.922,42.6
476.1417,22.2
476.2266,1943.2
476.3296,519
476.4881,111.6
476.5713,132.5
476.7024,114.8
476.8695,97.2
476.9408,47840.9
477.0171,128.5
477.2573,133
477.2911,277.6
477.3045,129.9
477.4466,130.4
477.4665,342.2
477.8128,140.4
477.944,2281.8
478.2456,304
478.3297,40862
478.5793,21
478.7003,520.3
478.8721,475.3
478.9381,12843.1
478.9688,375.1
478.9881,101.1
479.0038,319.7
479.1296,506.9
479.1356,547
479.1648,218.4
479.2265,101.4
479.2517,445.3
479.315,505.7
479.3331,6704.8
479.5386,20.2
479.9277,256.6
480.0756,384.2
480.3441,538
480.6503,108.2
480.7561,345.8
480.7751,446.8
480.9138,146.6
480.9527,1407.4
481.0452,112.2
481.0916,111.1
481.1645,100.3
481.2342,1029.7
481.4684,177.9
481.6665,865.6
482.3238,450.3
482.3462,88.7
482.3605,634.3
482.3919,157.9
482.5227,314.3
482.5829,130.1
482.6867,110.5
482.7745,405
482.9141,170.7
482.9314,99.9
482.9547,539.4
483.1785,346.2
483.2488,191578.3
483.5255,40.4
484.1865,201.2
484.2521,46295
484.3365,236.1
484.5067,101.8
484.6682,578.9
484.7375,154.2
484.9119,284.1
485.2045,554.7
485.2644,164071.8
485.3754,738
485.4778,106.6
485.6326,141.3
485.6494,791.8
485.8814,129.2
485.9489,143
486.0713,197.7
486.2231,219.3
486.2392,141.5
486.2677,37155
486.3155,243.2
486.3925,1028.8
486.4424,604.8
486.6307,354.5
486.7278,440.5
486.8228,136.4
486.898,1871.7
487.1535,19.9
487.1724,109.7
487.28,112558
487.414,800.3
487.6213,22.2
487.9177,117.8
487.9874,254.3
488.2594,316.2
488.2834,22592
488.3012,697.5
488.4304,21.7
488.575,437.9
488.6548,364.4
488.7416,497.9
488.8777,342.4
488.91,113.1
489.0818,148.8
489.1752,390
489.2865,1638.2
489.3138,341.5
489.356,863.4
489.3829,25.6
489.4456,276.8
489.4668,384.7
489.4758,115.8
489.4886,959
489.6045,98.1
490.1314,412.5
490.291,8472.4
490.6799,546.9
490.8818,292.9
491.1203,496.9
491.135,696.3
491.1861,401.4
491.3266,320.4
491.3711,880.8
491.5104,157.1
491.6681,112.6
491.7311,343.3
492.0643,167.1
492.4069,149.3
492.4721,20.4
492.6509,395.4
492.6613,339.4
492.9148,6229.6
493.1337,98
493.1638,296.6
493.2785,158.8
493.4047,528.2
493.6241,371.6
493.9674,234.8
493.9831,690.1
494.0103,236.3
494.2011,34.8
494.3245,9805
494.6754,1004.5
494.8443,248
494.9126,1868
495.0006,208.1
495.0442,41.1
495.3284,681.1
495.4309,267.4
495.513,236.4
495.693,492.9
495.863,140.4
496.0191,346.2
496.0361,261.3
496.0546,138.8
496.3403,483201.6
496.5285,694.9
496.6312,99.6
496.7045,425.8
496.7584,402.5
496.9321,476.3
497.037,115.8
497.0524,358.6
497.263,202.7
497.2814,189
497.302,286.1
497.3436,118984.1
497.5242,244.5
497.8478,47.8
497.9359,122.8
498.2712,433.4
498.3322,294.3
498.347,10995
498.3742,302.2
498.443,287
498.4711,156.7
499.2228,7645.1
499.4758,142.9
499.569,473.6
499.5778,232.6
499.6957,376.2
499.8627,135.7
499.9433,147.4
500.0114,98.5
500.1901,248.3
500.3126,652.8
500.5119,117
500.7376,134.1
500.9874,198.5
501.2382,6798.6
501.3738,157.3
501.8993,513.3
502.0818,19.8
502.2394,447.7
502.2916,642.7
502.3295,19939.8
502.6979,107
502.8846,134.5
502.9761,413.1
502.9831,584.2
502.9858,608.9
503.1082,176.1
503.214,103
503.2538,4763.1
503.3326,2122.7
503.6231,39.1
503.7062,388.4
503.8652,114.9
504.2151,18
504.3064,4912.6
504.327,201.6
504.3445,11739.6
504.6322,120.8
504.6824,723.3
504.8568,856.5
505.2334,1851.9
505.363,19.6
505.4525,155.6
505.5263,342
505.8015,148.3
505.8643,494.3
506.0197,535.4
506.2643,840.5
506.3603,6661.4
506.4501,152.5
506.648,517
506.756,122.4
506.8917,3155.6
507.2002,316.2
507.2487,44070.1
507.2635,607.2
507.3635,561.2
507.5621,102.1
507.6501,804.3
507.704,20
507.737,686.2
507.7802,320.1
507.8226,222.8
508.2521,10211.5
508.3149,84.8
508.341,339.8
508.3571,557.6
508.3779,713.9
508.4279,545
508.8882,1177.8
508.9318,635.5
509.005,4734.4
509.0535,221.9
509.2643,15713.4
509.3007,254.5
509.3938,737.1
509.6043,92.2
509.8588,170.3
509.8694,625.4
509.9475,22.9
509.9714,115.5
510.2665,1472.8
510.3559,2689.8
510.3942,426.6
510.8856,708.4
510.9034,525.8
510.9818,695.6
511.5719,149.8
511.668,168.9
511.8911,18.2
511.9699,96.3
512.3683,268.8
512.7179,150.9
512.8334,380.8
512.9086,20640
512.9437,127.6
513.4385,500.6
513.6008,24.3
513.9138,351.5
513.9272,141
514.2727,461.7
514.2916,286.1
514.906,10521
514.9244,317.5
514.9589,913.3
515.0226,749.9
515.2753,337.4
515.801,131.4
515.9144,123
516.2638,425.6
516.3066,23828.7
516.5476,108.7
516.5713,47.5
516.8157,134.7
516.9039,370.8
516.9216,1611.8
516.9498,685
517.0678,118.7
517.1356,326.8
517.187,358.3
517.3101,3697.1
517.8011,131
518.0986,101
518.3031,267.9
518.3223,939414.1
518.7293,97.3
518.7411,483.7
518.9019,385.8
518.9255,36031.6
519.3257,219452
519.7983,135.7
519.8041,139.4
519.8084,123.6
519.8486,113.2
519.9291,2035.8
520.1193,109.8
520.3403,150453.6
520.3818,592.8
520.4509,450.8
520.5903,19.1
520.724,128.4
520.7703,452.2
520.8552,291.5
520.9226,21206.8
521.252,301.1
521.3435,40170.8
521.4545,152.7
521.4815,61.3
521.5981,110.7
521.6634,155.1
521.8458,606.5
521.9257,707.2
522.1635,449.8
522.2158,171
522.3559,147743
522.3752,374.5
522.3993,22
522.688,323.7
522.9197,1610.1
522.9368,4548.2
522.9662,471.2
523.3099,318.1
523.3593,34210.3
523.9735,703.9
524.015,148.1
524.0302,38.7
524.0462,803.5
524.0681,149.2
524.0882,311.5
524.1092,91.8
524.1475,126.4
524.2267,151
524.3716,123935.1
524.628,140.6
524.6777,346.8
524.8789,20.7
524.9351,421.6
524.9795,462.2
525.2198,153.8
525.2412,430
525.3751,32427.1
525.4242,419.9
525.439,110
525.4878,358.7
525.5825,18.5
526.1158,147.5
526.2451,93
526.3298,2686.9
526.3787,2100.4
526.4028,428.6
526.4957,916.8
526.6836,705.4
526.8272,288.7
526.9021,177.7
526.9552,448.3
527.0274,391.9
527.0664,149.4
527.1219,120.6
527.1839,99.7
527.2628,120.3
527.5635,137.7
527.632,110.9
527.7355,19.6
528.0251,400.6
528.3214,117.6
528.3332,111.9
528.3468,47.1
528.7092,214.2
528.7315,20.3
528.7983,92.4
528.8601,789.8
528.8825,9838.4
528.9038,580.2
528.9545,3453.8
529.2113,351.2
529.4014,86.9
529.9829,323.3
530.1467,364
530.2814,429.6
530.3221,468.9
530.3589,1598.7
530.3769,251.1
530.7455,352.2
530.8243,19.7
530.8795,4521.9
530.9357,298
531.0951,465.7
531.1475,226.5
531.2336,22
531.2492,7151.2
531.3051,21.8
531.3285,40.4
531.5313,151.8
531.6734,373
531.8803,332
531.886,307.8
531.8952,21.1
532.0158,132.8
532.1955,150.6
532.2806,4897
532.338,10824.7
532.672,18.2
532.8758,22.3
532.8957,177.4
532.968,460.9
532.9948,393.9
533.0708,140.2
533.203,385.9
533.2651,548.6
533.5234,37.4
534.0391,776.6
534.1444,441.3
534.2963,222500.8
534.3151,1210.4
534.3706,18.8
534.5091,524.9
534.6791,248.9
534.7142,321.7
534.8995,23084.7
534.912,749.6
534.946,262.6
534.9739,367.7
535.0474,116.1
535.0718,137.3
535.1088,104.3
535.2996,53047.6
535.3824,391.9
535.5918,864.5
535.7129,166
536.1224,99
536.2309,362.5
536.2949,9534.3
536.7213,110
536.8965,11476.8
537.2986,375.4
537.469,541.6
537.4745,362.7
537.8497,499.6
537.8981,464.9
537.9409,146.2
538.2179,433.8
538.5113,295.2
538.5556,697.4
538.8932,977.2
538.9112,1865.9
538.9336,1839
539.1026,547.7
539.2609,26.7
539.4493,314.6
539.6862,19.1
539.7153,861.6
539.8374,43.9
539.9423,124.5
539.9869,19.3
540.0347,202.6
540.3052,1297.4
540.3989,680.4
540.424,356.1
540.6168,102.1
540.8947,24.3
541.3368,916.4
541.3843,800.8
541.4378,409
541.4499,251.3
541.4893,95
541.5094,609
541.7066,668.6
541.7866,1097.7
541.9616,20.9
542.0175,565.6
542.2039,471.4
542.3223,270506.3
542.756,830.6
542.8194,908.8
543.3257,71216.5
543.4029,1922.5
543.566,160.9
543.6193,386.2
543.6608,86.1
543.665,84.4
543.8262,132.9
543.9842,665.3
544.2501,458
544.2738,1247.7
544.338,277232.2
544.6132,373
544.6945,282.2
544.7206,182.9
544.7431,306.4
544.9494,1010.8
545.3415,73918.2
545.4636,16.9
545.7291,291.3
545.9489,359.3
546.0163,669.6
546.2247,364.8
546.2734,139.9
546.2952,396.3
546.3537,220326.5
546.4828,239.8
546.7874,109.4
546.8539,658.5
546.9933,176.8
547.0759,138.6
547.2701,406
547.3571,55691.8
547.3836,365.3
547.5382,365.1
548.3116,570.4
548.3597,5364.6
548.8963,128.7
548.9409,176.8
549.1592,197.4
549.1653,175.8
549.1714,146.4
549.2392,522
549.2578,489.3
549.3008,365.2
549.6614,118.8
549.7152,258.5
549.7376,17.9
550.6297,211.6
550.8741,1910.1
551.0636,48.4
551.0758,94.9
551.9106,191.4
552.0327,939.6
552.0566,853.7
552.28,217.9
552.3413,518.3
552.8705,1489.3
553.076,160
553.1169,381.5
553.5924,20.7
553.7354,18.7
553.7536,590.4
553.9514,430.4
554.1792,180.8
554.7501,17.4
554.7843,111
554.8004,105.5
554.8535,200.7
554.9063,413
554.9564,682.4
555.0712,125.8
555.3028,19.2
555.8993,282.7
556.043,131
556.1392,19.7
556.1575,550.5
556.2732,532.1
556.3619,317.1
556.5397,113.1
556.553,677.1
556.7965,246.7
556.9079,296.6
557.0097,168.6
557.2257,20.1
557.2592,347.3
557.4193,219.5
557.8382,118.5
557.8814,534.9
558.2127,182.4
558.2683,20.8
558.2962,71418
558.3572,19
558.5996,146.1
558.612,98.9
559.0884,47.4
559.2998,18902.1
559.5639,695.8
560.0635,760.3
560.1513,401.9
560.2972,2626.8
560.3119,62277.8
560.3574,439.5
560.8055,537.1
560.8889,97.1
560.9132,556.7
561.0051,275.7
561.0465,204.8
561.3151,14263.3
561.413,4601.5
561.676,22.2
561.7355,193.3
561.8513,134.9
562.073,149
562.1935,403.5
562.234,727.5
562.3096,1331.9
562.3276,48134.2
562.4181,1430.8
562.7327,358.1
562.7803,108.1
562.799,527.8
563.3306,7112.8
563.3541,447.5
563.3645,834.5
563.4287,2365.7
563.5017,441.5
563.5279,180.9
563.9235,421
563.9677,20
564.041,101.5
564.1652,586.5
564.3053,1944.4
564.3262,1475.3
564.4737,85.4
564.5808,20.7
564.7629,127.6
565.1313,229.7
565.221,22.2
565.3461,689.1
565.8848,334.5
566.0265,198.8
566.2318,199.8
566.3224,63823
566.5352,132.9
566.8476,417.9
566.9622,1808.8
567.3257,12962.6
567.4068,166.6
567.8365,40
568.0273,463.2
568.2601,241.2
568.338,28057.1
568.5889,608.7
568.9599,455.9
569.1338,647.3
569.3418,4080.6
569.4883,750
569.6321,786.2
569.6552,535.6
569.7204,157.2
569.7735,250
569.8525,461.2
569.9196,86.9
570.2528,522.3
570.3502,1108.3
570.8672,7973.1
571.0312,841
571.0512,287.5
571.11,19.7
571.338,521.4
571.9691,436
572.0708,163
572.287,474.3
572.3165,143.8
572.3353,1191.6
572.3707,1840.8
572.5081,341
572.8646,8095.3
572.9856,799.3
573.0851,318.7
573.1144,215
573.1917,109.2
573.2363,20.8
573.3314,148.5
573.5463,290.8
573.7845,124.4
573.9893,364.2
574.2601,171.1
574.27,20.5
574.2838,1219.9
574.3482,383.6
574.4523,122.2
574.6241,191
574.6437,251.1
574.8273,119.6
574.8632,1462.5
574.9781,320.7
575.221,276.7
575.2883,399.1
575.3604,180.7
575.3677,156.5
575.504,7223.9
575.8108,121.9
575.8505,261.6
575.8957,154.1
575.9537,164.2
575.9919,190.1
576.0067,240.9
576.281,11018.1
576.5074,1391.2
576.5605,109.8
576.6451,350.8
576.799,128.4
576.8496,573.3
576.8842,8805.1
576.9748,359.9
577.0963,201.7
577.2211,273.5
577.2947,448.9
577.4349,158.2
577.4779,284.3
577.519,81.3
577.6564,195.5
577.6713,160.4
577.7606,771
577.8343,378.3
577.8887,416.8
578.007,140.2
578.0229,317.2
578.2484,214.9
578.2766,954.2
578.2976,267.9
578.4009,97.2
578.5268,886.3
578.6341,161.5
578.8814,9053.8
578.9236,372.8
579.0156,219.7
579.6197,20.7
579.6949,365.9
579.8181,847.8
579.8461,183.8
580.0015,540.8
580.0199,274.4
580.2933,640.2
580.3572,261.7
580.4809,172.9
580.6653,290.9
580.8778,2579.2
580.8962,2174.5
581.0567,19.8
581.1496,365.9
581.5653,20
581.6066,22.5
581.7278,274.4
581.8171,469.6
581.8334,527.8
582.0273,897.8
582.2216,147
582.2967,13994.7
582.3182,26.4
582.4517,388.6
582.4668,831.4
582.5075,488.3
582.5412,419.5
582.5712,439.7
582.5783,519.9
582.583,361.8
582.6021,1217.1
582.6455,97.4
582.7575,508.9
582.8941,399.6
583.1077,191.9
583.3006,2399.7
583.5299,138.2
583.7279,238.4
583.8393,599.9
583.8529,282.5
583.9007,19.8
583.9243,426
584.1994,19.3
584.3107,2107.8
584.9061,210.8
584.995,140.8
585.2709,6976.5
585.4204,404.9
585.6625,261.2
585.6789,186.5
585.7003,127.5
585.7216,737
586.1053,151
586.2817,301.3
586.3096,7617.3
586.434,97.4
586.8407,2781.9
586.9142,745.9
586.9496,167.5
587.2552,260.9
587.3212,21.1
587.4307,117.1
587.4969,185.2
587.5164,314.3
587.8523,117.8
588.7253,140.6
588.8382,3082.1
589.2655,18.6
589.3977,835.5
589.5629,125.9
589.6391,49.1
589.8033,228.8
589.9471,102.2
590.1333,108.9
590.3218,8761.3
590.3617,614.9
590.4691,100.8
590.5964,144.6
590.617,156
590.7578,603.8
590.7807,301.1
590.835,394.9
590.8751,203.9
590.9254,1126.9
591.1212,101.8
591.1889,151.1
591.458,1317.3
591.7808,368.2
591.8821,96.9
591.891,96.5
591.9516,774.8
592.0255,108.4
592.255,1847.2
592.338,1207.7
592.657,297.4
592.8584,6268.2
592.9291,494.4
593.1635,136.9
593.2517,261.2
593.577,145
593.585,443.2
593.6001,581.1
594.0748,88.4
594.1654,262.2
594.1993,190.2
594.2921,336.6
594.6578,104.1
594.7247,203.5
594.8555,5882.5
595.1608,414.5
595.374,869.7
595.3792,960.9
595.3858,813.8
595.3951,302.4
595.6396,491.8
595.6757,406.8
595.8211,997.9
596.3508,39.2
596.6179,526
596.8116,490.9
596.8527,1749.1
596.8713,642
597.105,99.2
597.1275,137
597.4512,6060.7
597.486,12893.1
598.4607,1449.5
598.4887,3906.1
598.7647,145.1
598.8538,406.1
599.2079,115.6
599.2381,128.5
599.467,1259.8
599.5036,2124.3
599.7852,473.4
599.9448,460.1
600.0156,192.2
600.1289,20.3
600.2807,995
600.465,484.3
600.5043,889.9
600.8073,449
600.9101,118.6
601.0475,197.2
601.5195,471.8
601.6781,120.5
602.01,95.3
602.0164,91.9
602.1264,153.8
602.2774,874.4
602.2971,1096
602.48,266.2
602.5003,261.6
602.615,654.6
602.6688,430.9
602.7321,106.1
602.8992,398.5
603.3023,1075.4
603.3789,414.4
603.5353,628.3
603.7891,452
603.809,245.1
603.9002,18.7
604.2958,762.7
604.3097,485
604.4667,437.2
604.5562,179.4
604.7205,18.8
604.9561,44.9
605.4274,224.5
605.4904,422.5
605.8488,38.9
606.1022,373.6
606.2961,818.9
606.8917,229.8
607.171,7146
607.3069,17.6
607.5471,145
607.6801,560.5
607.8001,233.7
607.9198,104.1
608.113,108.8
608.1742,1030.8
608.2567,823.9
608.5218,116.1
608.6628,43.8
608.8819,237.1
609.1536,112.2
609.3162,397.1
609.8181,215.4
610.1929,286.4
610.2773,139.8
610.7555,509.1
610.8295,1929
610.8783,137.7
610.9469,19.7
611.031,549.5
611.102,537.2
611.3494,345.9
611.5223,368.6
611.6937,313
611.7743,377.5
611.8506,435.6
612.0599,19.2
612.1424,134
612.1642,746.3
612.4918,403.2
612.6874,431.6
612.7609,258.3
612.9367,333.4
612.9619,723.2
612.9941,715.1
613.3104,459.4
613.4258,338.5
613.5693,295.8
613.6306,285
613.8618,414.2
614.1247,507.8
614.1754,322.6
614.2735,140.4
614.34,692.3
614.8594,584.4
615.0555,133.1
615.1583,305.1
615.3489,327.7
615.4604,6422.2
615.7968,369.1
615.9356,131.3
615.9846,645.2
616.1181,20.5
616.1392,118.4
616.1759,658.3
616.5649,145.9
616.9114,111.5
617.1,17.8
617.265,124.9
617.2986,286.3
617.354,405.9
617.4757,21261.1
617.6238,480.8
617.6653,148.5
618.098,408.3
618.4791,5850.8
618.829,159.7
619.4106,99.7
619.4373,911.7
619.4915,20652.1
619.5701,125.8
619.6714,23.9
619.6842,439.1
619.8015,223.3
619.8311,150.3
619.8704,157.1
620.495,6269.7
620.5764,108.8
620.8623,347.9
620.9738,228.1
621.3123,177
621.3944,617
621.4413,511.7
621.4561,560.4
621.4861,6476.2
621.5035,862.3
621.5386,1251.6
621.7375,18
621.8957,365.8
622.0034,174.7
622.1968,19.9
622.3531,347.3
622.4487,148.8
622.4905,436.8
623.1362,28851.5
623.1906,298.4
623.4481,357.4
623.4556,638.1
623.4704,1544.5
623.5044,621.9
623.8939,186.3
624.14,5564
624.5687,113
624.6304,130.9
624.9162,50.7
625.0347,331.3
625.142,545.8
625.3883,105
625.5185,1508.7
625.8867,123.5
625.9819,19.1
626.1838,358.9
626.3109,153.4
626.56,19.5
626.7877,438.5
626.8322,750.2
627.0525,223.5
627.1314,122.2
627.2157,25.6
627.3357,616.9
627.4778,310.5
627.4853,435.4
627.4909,423.3
627.5346,2116.8
627.6918,196.4
627.8271,99.1
627.8412,202.9
628.3114,239.4
628.4675,212.6
628.5389,439.9
628.5875,123.6
628.6704,182.5
628.8317,385.8
628.8666,154.2
629.0602,172.6
629.1531,58189.3
629.2298,420.3
629.3441,800.1
629.5145,1011.8
629.9079,548.7
629.9337,894
630.1015,94.2
630.1568,10787.6
630.7417,874.6
630.9538,568.7
631.1272,125.6
631.1595,1455.9
631.4593,188.5
631.5864,272
631.6013,389.4
631.8201,20.6
632.3223,172.3
632.4288,396.9
632.5176,438.5
632.576,678
632.5989,185
632.6812,449.9
633.2734,95.2
633.4492,629.9
633.6222,23.4
633.8243,123.4
634.032,19.9
634.7442,277.7
634.843,3215.7
635.1978,18.8
635.468,1308.6
635.5973,105.2
635.8719,156.9
635.942,513.7
636.0945,637
636.1595,400.4
636.7505,90.9
636.8399,4426.6
636.9647,342.9
637.2122,447.6
637.4264,709.8
637.5111,603.5
638.0242,121.8
638.3697,23.3
638.8377,1083.9
638.9782,19.8
639.1199,21.8
639.3106,661.5
639.4567,898.3
639.6006,179.8
639.9642,271.5
640.0564,504.2
640.3659,20.9
640.7829,634.3
641.1605,140.4
641.1898,122.1
641.2164,17.9
641.4774,107.7
641.5125,544.8
641.9913,38.3
642.0767,117.1
642.0867,351.2
642.2789,138.7
642.4154,113.1
642.4587,225.3
642.5272,344
643.7098,136.3
643.9108,133.2
644.3911,663.9
645.0295,311.2
645.118,20968.1
645.263,161.4
645.2831,842.3
645.322,326.1
645.4251,355.4
645.4653,786.1
645.4843,895.5
645.9581,306.9
646.1223,3645.9
646.4265,730.1
646.4941,566.3
646.7249,395.6
646.8148,18
646.8671,439.2
646.9819,394.8
647.025,150
647.0946,792.4
647.1255,328.9
647.4214,19.5
647.4556,211.5
647.5143,760.6
647.7632,318.9
648.1058,88.8
648.1333,574.6
648.2304,518.2
648.3311,367.3
648.4794,129.8
648.5699,456.5
648.969,398.8
649.1305,124.6
649.1785,21.9
649.3085,324.4
649.512,105.5
649.6224,159.4
649.9275,562.7
650.1733,565.1
650.4402,3487.1
650.5392,770.4
650.7432,553
650.8161,2321.8
650.8568,383
650.9987,23.5
651.1351,50911.7
651.2259,285.9
651.5087,394.7
651.5681,170.5
651.6878,789.2
651.8231,759.1
651.8945,358.3
651.9571,370.9
652.0171,374.4
652.0322,162
652.1389,10085.9
652.2719,266.5
652.547,100.9
652.8138,2369
652.8985,323.2
653.1116,1018.9
653.1403,552
653.4683,106.2
653.6737,18.9
654.1099,154.3
654.5738,182
654.9658,531
655.1626,659.7
655.3495,417.1
656.279,498
656.5393,152.3
656.5826,657.9
656.6015,535.1
656.9014,364.2
656.9494,480.8
657.0137,129.6
657.1584,108.7
657.6367,324.5
657.7459,481.2
657.9017,91.1
658.9298,1419.6
658.9863,20.1
659.3318,19.7
659.7062,23.7
659.7304,307.6
659.7683,884.6
659.9018,35.9
659.9406,758.3
660.0604,197.2
660.0846,132.3
660.1153,786.5
660.2186,117.3
660.3651,19.1
660.4957,351.6
660.855,173.5
661.0828,8459.7
661.3391,310.6
661.4696,778.7
661.629,17.4
661.6975,125
661.896,422.8
662.0326,46.2
662.0866,161.8
662.3872,399
662.4734,477.6
662.5559,373.3
662.7856,292.1
662.8093,21.8
662.8968,117.3
663.0674,399.8
663.4543,156.4
663.6174,285.7
664.125,743.4
664.4438,177.2
664.4665,2175.3
664.4974,195.1
664.7131,129
665.0213,115.8
665.1469,141.9
665.2525,138.7
665.4377,836.7
665.4589,91.1
665.5389,302.8
665.5698,357.1
666.3738,826.9
666.4655,259.8
666.4844,6486.8
666.7889,126.5
666.8435,17.6
666.8691,341.8
666.9483,534.7
667.0997,24305.1
667.5858,18.8
667.7149,289.9
668.1033,4422
668.2046,112.4
668.2528,41.4
668.8311,659.8
668.9306,1066
669.0808,260.5
669.105,532
669.1545,580.8
669.3591,384.4
669.6336,554.4
669.8378,462.2
670.0538,340.9
670.414,119.8
670.4733,21.2
670.6783,219.9
670.7876,1235.6
670.9461,863.9
671.0564,147.7
671.0734,346.7
671.5749,1053.1
671.659,352.9
671.7048,352.7
671.7349,419.5
671.8709,215.1
672.0514,424.7
672.3105,185.8
672.4214,4447.7
672.4427,979.3
673.117,55074.7
673.5295,103.5
673.6451,141
673.684,404.8
673.9494,152.5
674.0114,243
674.1206,9622.2
674.911,91.1
675.0946,182.4
675.1227,523.2
675.544,8967.7
675.6565,261.8
675.7856,259
675.9451,39.5
675.9646,901.5
676.1242,965.9
676.6711,21.5
678.0517,117.9
678.3973,41.3
678.9376,511.6
679.4923,144.4
679.5538,806
679.8306,268.2
680.4606,103.3
680.8689,121.1
680.915,21.9
681.0744,536.8
681.6555,92
682.064,298.4
682.3066,152.2
683.0648,5928.5
683.6123,20
683.9846,210.7
684.0664,388.4
684.5356,608.4
684.7511,144.4
684.799,19.6
685.0725,195.3
685.1475,131.1
685.2568,671.7
685.3067,483.2
685.4347,382.2
686.225,169.1
686.4404,325.6
687.4152,39.3
687.6335,222.7
687.6502,482.8
687.715,465.9
687.9355,385.5
688.6248,208.6
689.0812,16432.9
689.091,13459.3
689.1302,149.6
689.2448,168.9
689.4255,956.9
689.5613,1013.9
690.0869,2125.7
690.1485,97.5
690.4157,261.9
691.064,119.8
691.1468,426.7
691.2899,287
691.6636,17.7
691.6857,964.6
691.901,102.2
691.9656,584.3
692.9411,221.3
692.9924,17.6
693.5104,347.7
693.6713,103.7
694.071,384.9
694.1729,287.1
694.2091,97
694.3823,25.3
694.5808,538.2
694.645,18.4
694.7993,574.1
695.0991,36207.8
695.4631,842.5
695.5106,5002.4
695.5372,220.8
695.5965,205.3
695.9319,691.4
696.1026,6809.1
696.4323,196.5
696.5883,289.5
696.7938,539.4
697.1048,400.3
697.2488,20.4
697.5264,22049.9
697.786,360.3
697.9385,22.7
697.9771,284.3
698.1496,42.3
698.2919,393.5
698.3731,157
698.5294,6850
698.5783,178.2
698.6102,19.9
699.0388,235.7
699.291,370.6
699.5335,670.5
699.6225,131.7
699.9233,847.4
700.0817,304
700.192,335.9
700.2194,18
700.815,184.9
701.1953,590.6
701.415,551.3
701.4664,400.3
701.5208,21.3
701.5602,25619
701.6244,21.8
701.8352,102.6
702.2731,119.9
702.3428,2161.3
702.4222,383.2
702.5637,8190.2
702.8152,104.1
702.9591,178.2
703.0447,156.6
703.3756,332.4
703.576,64911.5
703.9232,95.5
704.3854,726.9
704.4486,5909.2
704.4888,398.1
704.5434,295
704.5792,25437.7
704.649,19.3
704.9587,733.2
705.0562,3035.8
705.1828,41.5
705.405,387.5
705.5817,955
705.6336,286.5
705.7224,198
705.9728,140.9
706.0103,237.4
706.0659,305
706.1291,20.3
706.295,99.7
706.4228,439.9
706.4715,357.9
706.5392,1651.5
706.9151,85.6
707.494,909.7
707.674,523.6
707.8633,366
708.6388,554
708.7573,770.6
708.8224,119.8
708.9583,391
709.5867,18.9
709.6297,138.3
709.9583,20.5
710.3708,292.3
710.4222,796.1
710.4582,20.3
710.5536,323.6
710.7732,878.4
710.9077,304.2
711.0627,12599.1
711.0741,12792.4
711.2561,712
711.5419,2517.4
711.7164,79.2
711.7404,178
711.9309,157.9
712.0779,1037.4
712.4657,583.6
712.5453,553.8
713.068,409.2
713.3189,816.5
713.3902,242.3
713.7026,438.5
715.0522,256.7
715.5032,132.4
715.5718,39.1
715.8648,485.4
716.0342,453.1
716.1102,344.4
716.3454,186.8
716.541,151.8
716.6243,87
716.7051,135.9
716.8126,800.3
716.9756,130.6
717.0313,158.1
717.081,18979.3
717.4423,273.5
717.4826,35.3
717.4962,41.9
717.7304,245.6
717.9032,195.6
718.0841,1018.4
718.2178,139.2
718.3896,698
718.4126,316.9
718.4382,167.8
718.5745,286.7
718.6032,596.3
718.8021,401.5
719.0469,466.6
719.3491,948.1
719.4636,1180.7
719.6811,292.5
719.7859,18.2
719.8607,220.7
719.9003,671.4
720.0126,92.3
720.056,441
720.3253,262.6
720.4194,805.3
720.4652,135.7
720.6902,295.5
720.7141,134.2
720.7911,20.9
721.0208,162.4
721.0974,336.7
721.2354,289.7
721.2655,110
721.4787,63289.6
721.5424,418.6
721.6962,21.2
721.9563,40.6
722.3847,137.4
722.4819,21484.9
722.5574,23.1
722.7108,329.1
722.9458,121
723.0642,810.4
723.1273,18.7
723.171,210.4
723.4552,167.8
723.4954,8584.6
723.542,37558.7
723.571,107
723.898,345.2
723.9879,213.8
724.245,181.7
724.4289,335.4
724.4997,1556.8
724.546,13692
724.7418,330.3
724.8891,136.7
725.1711,106.1
725.4136,477.4
725.4939,143.2
725.5581,80262.3
725.6239,185.7
725.8441,146.2
726.1089,96.9
726.378,136.5
726.5042,953.5
726.5612,33684.3
726.615,381.8
726.7117,456.2
726.7972,132.5
727.0276,733.4
727.5632,3299.3
727.6294,549.6
728.0471,214.6
728.2695,229.3
728.2958,178.3
728.4504,982.7
728.5224,2592.2
728.5771,20.4
728.6047,525.3
729.0123,655.4
729.5921,7942.3
729.986,183.1
730.3012,351.5
730.4416,596.2
730.5392,8112.8
730.5948,1127.1
730.8285,415
730.9492,700.7
731.407,563.6
731.4971,763
731.5425,1750.5
731.607,5825.3
732.5548,42249.5
732.6113,1049.9
732.684,135.4
732.7052,652.6
733.0444,7361
733.0565,6972.9
733.3034,772.4
733.4702,115.2
733.558,11286.6
733.6132,19.6
733.8073,147.8
734.1604,18.9
734.1783,21.3
734.2563,690.2
734.3824,122.5
734.571,6041.3
734.7766,232.7
734.8174,891.8
734.9242,103.1
735.01,583.2
735.1586,298.4
735.2146,160.4
735.3827,140
735.4544,307.7
735.5737,1159.4
735.6835,179.4
735.8557,155.9
735.8763,45.6
736.0764,329.1
736.1964,20.5
736.2496,506.9
736.6785,143.2
736.7937,96.7
737.0603,687.4
737.4534,10194.8
737.6018,230.8
737.8977,262.2
737.931,218.4
737.9968,111.6
738.2999,184.2
738.3251,300.9
738.4583,548
738.6711,448.2
738.8034,127.1
738.9669,1108.2
738.9916,375.2
739.063,11877.6
739.1415,118.4
739.1813,451.9
739.4697,214.2
739.5159,3061.6
739.6613,153.4
739.6816,128.3
740.0633,473.3
740.1842,281.4
740.3676,101.5
740.5481,965.3
741.2738,39.3
741.5322,7910.6
741.8432,99.2
741.8839,371.1
742.5087,717.2
742.5357,3099.8
742.5752,7842
743.0054,190.5
743.1305,205.2
743.4351,394.3
743.4622,1191.1
743.547,464.1
743.5801,771.3
743.9027,100.5
744.3915,748.6
744.494,801.8
744.5553,4411
744.5913,7297.3
744.6878,321.1
744.8922,189.1
745.1047,117.6
745.2417,409.1
745.4073,55.4
745.4446,760.6
745.4789,31287.8
745.5589,1102.8
745.5947,2548.3
746.3085,289.5
746.4819,12378.4
746.5715,1909.8
746.6085,3582.4
746.9105,456.4
747.4954,11442.9
747.5248,398.4
747.5731,1067.9
747.6108,827.1
747.6867,116.2
748.4969,955.2
748.9828,602.8
749.0202,679
749.055,405
749.2099,436.9
749.5111,4174.7
750.1444,535.3
750.4351,99
750.4864,101.5
750.5173,587.7
751.1782,115.9
751.2675,425.1
751.5091,844.7
751.5519,45.4
751.574,9048.8
751.6003,23.2
751.8241,20
751.8486,1098
751.893,526.4
752.0332,218.1
752.1252,260.9
752.2514,935.3
752.3593,399.6
752.521,11551.3
752.5765,1893.2
752.7737,104.6
752.8647,144.3
752.9464,286.3
753.2468,135.6
753.4516,1282.8
753.5249,4452.8
753.5885,1380.4
754.5371,43560.2
754.6614,151.2
754.7196,197.4
754.8784,375.9
755.0284,3538
755.0372,3825.4
755.1727,476.7
755.4335,497.2
755.5404,17022.8
755.7224,617.4
755.8596,307
756.2212,220.2
756.4241,113.2
756.5546,46905.7
756.7124,698.2
756.7499,123
756.9984,314
757.034,312.3
757.5583,17334
757.623,1277.8
757.6971,243.7
757.7626,384.8
758.0003,272.8
758.5706,893836.6
758.6236,757.2
758.7092,139.9
758.7357,308.8
759.2153,120.8
759.4337,429.7
759.5353,230.3
759.5739,399867.2
759.639,1928.1
759.7592,645.6
759.8495,37.9
760.4279,80.5
760.5872,317504.8
760.6434,116.2
760.8428,784.1
760.909,274.3
761.0099,168.3
761.0446,4707.2
761.453,2478.9
761.59,151126.7
761.9224,111.3
761.9673,655.7
762.048,1013.1
762.4536,1387.6
762.5929,33872.4
762.7545,441.1
762.8216,141.9
763.1474,102.5
763.2349,290.9
763.4711,828.6
763.5949,2012.2
763.7508,277.8
763.7715,402.3
764.2519,19
764.4071,634.7
764.4863,422.2
764.5556,1820.3
764.613,502.1
764.8997,718.7
764.9619,164.1
765.5294,628.2
765.6117,438.6
766.5376,3437.4
766.5752,27965.6
766.9237,90.5
767.4858,666.1
767.5786,10112.5
768.0151,131.8
768.1954,403.4
768.3568,179.5
768.5013,1072.8
768.517,720.8
768.554,4463.3
768.5914,34348.2
769.3023,146.9
769.4794,5913.3
769.5322,699.7
769.5942,12283.1
770.461,228.3
770.4889,332.6
770.5123,1998.7
770.5516,354.4
770.571,142.7
770.6081,3625.4
770.9918,5500
771.2493,279.5
771.3505,115.1
771.4946,1652.3
771.5765,563.7
771.6122,1355.4
771.7107,304.7
772.5008,127.7
772.5865,12168.4
772.6235,324.8
773.1982,98.7
773.2302,240.5
773.5096,2917.5
773.5548,566.9
773.5902,2377.8
773.6269,57.3
773.654,68.3
773.7396,21.3
773.7872,488.3
773.9069,378.7
774.3027,529.4
774.3213,633.2
774.3607,123.1
774.603,955.5
774.8081,106.9
775.1783,272.5
775.2159,228.2
775.6058,834.5
775.8962,179.1
776.1557,164.9
776.2014,486.9
776.407,121.3
776.5209,2531.3
776.5862,356.2
776.8366,106.2
776.8651,108.4
776.9549,41.7
777.0092,5454.6
777.0937,92.6
777.2732,258.7
777.5406,625.6
777.5588,348.9
777.5901,605.5
777.8398,19.5
777.8856,187
778.022,135.8
778.5369,43530.3
778.6164,364
779.151,278.3
779.3567,530.4
779.5407,17066.3
779.905,21.3
780.0326,328.9
780.5527,770622.3
781.2356,106.1
781.3205,126.3
781.5561,342560.8
781.9224,336
782.1466,409.7
782.1705,203.9
782.2248,20.9
782.2775,133.4
782.5702,657737.9
782.9106,135.1
783.0273,8573.2
783.5735,310102.5
784.0326,260.4
784.2904,110.2
784.4642,240.3
784.5871,285480.4
785.4551,1007.4
785.59,141513.5
785.6543,7612.9
786.1378,108
786.6025,250547.1
786.6577,2031.1
786.8002,18.7
787.055,101.3
787.6055,122335.9
787.671,1976.7
787.8233,422.1
788.5578,12786.3
788.6051,19887.2
788.6211,14488.6
788.6735,104.9
788.6998,116.4
789.5599,2319.6
789.6226,7665.4
789.6771,63.1
789.7625,148
789.9912,18.1
790.0302,368.6
790.2975,641.6
790.4706,155.5
790.5738,20935.6
790.6265,925.6
791.2974,369.5
791.4719,45.4
791.5337,857.5
791.5548,602.2
791.5779,6360.8
791.9864,760.2
792.5917,12754
792.7861,223.7
792.9091,144.1
792.9862,257.3
793.0771,351
793.1112,708.9
793.142,747.1
793.5952,3716.8
793.7058,607.8
794.0192,664.7
794.1996,422.4
794.5109,5787.5
794.569,10082.1
794.6071,36738.1
794.8288,211.3
794.958,390.1
795.4314,138.5
795.5169,1182.2
795.574,481.1
795.6105,16393.3
796.0069,390.8
796.5266,127774
796.5868,6267.8
796.6248,3537.9
796.7629,417.2
797.5298,57887.9
797.5883,894.6
797.6266,1175.6
798.3343,103.1
798.5434,34732
798.6025,395
798.9239,402.5
798.9631,163.9
799.0026,643.1
799.0345,841.6
799.2526,363.5
799.4089,372.4
799.5459,14936.4
799.6038,642.3
799.6702,1222.4
800.2379,102
800.3359,462.9
800.4492,458.2
800.5549,862
800.5726,37.8
800.6744,70.3
800.7144,310.8
801.3519,437.6
801.6866,424.1
801.8259,133.9
802.059,310.2
802.2038,167.3
802.537,44196.2
803.0452,148.4
803.1861,355.8
803.2985,342.9
803.3815,615.4
803.5401,19551.8
803.7272,148.9
804.1413,139.4
804.3443,665.5
804.3984,150.9
804.4988,119.3
804.5527,397834.4
804.6799,98.1
804.9368,269.7
805.3107,471.6
805.3314,243.9
805.5561,184687.4
806.5698,327658.6
806.6251,115
806.6553,172.5
807.0961,120.3
807.2463,160.6
807.5729,161424.2
807.6315,150.1
808.1657,117.3
808.2071,256
808.4727,281.4
808.5857,221340.5
808.922,186.6
809.0767,640.1
809.5887,107859.6
809.6539,80.1
809.6907,459.6
809.7397,326.6
810.0572,501.9
810.3397,459.4
810.4107,108
810.4456,524.6
810.6026,130388.8
810.8286,126.3
810.9164,195.4
810.9897,130
811.3262,1033.1
811.514,748.9
811.6055,67814.2
811.67,11063.6
812.2441,23.3
812.6045,4937.7
812.6198,26717.9
812.6731,2826
813.3754,143.3
813.6219,12682.7
813.6865,12095.9
813.9201,134.1
814.201,18.9
814.4316,317.3
814.5722,2498.1
814.6217,1394.6
814.6895,6180.2
814.8513,26.6
814.8749,152.8
815.4706,725.6
815.5787,1129.3
815.6899,655.9
816.2011,225.6
816.5895,19786.8
816.8877,805.5
817.0636,138.7
817.0987,126
817.1349,139.1
817.1877,102.7
817.4688,157
817.5928,6007.6
818.0169,296.7
818.436,247.2
818.5106,6392.4
818.5665,1012.7
818.6079,2648.3
818.9891,645.3
819.3876,558.9
819.509,452.3
819.5901,112.5
819.6027,129.3
820.5267,69143.6
820.6236,77.7
820.8078,320
821.1543,23.5
821.2017,144.3
821.4816,592.5
821.5303,31315.9
821.5895,644.7
821.624,304
821.653,151.4
822.1801,18.8
822.5427,34303.9
822.6391,606.7
822.9762,496.5
823.5456,9604.2
823.6383,128.3
823.6758,96.2
823.9863,803.3
824.5582,21835.5
824.7776,568.7
825.1894,416.3
825.5615,8527.2
825.6932,817.5
825.8188,289.1
825.9939,274.7
826.5256,210.6
827.0407,97.9
827.1992,22.6
827.7238,191.3
827.8883,19.2
828.018,146.3
828.4486,153.9
828.4979,18.2
828.5526,108052.6
828.8754,491.4
829.0713,161.4
829.1524,299.8
829.556,49407.6
829.7528,136.2
830.0813,150.5
830.3525,882.8
830.5692,65487.7
831.0773,427.3
831.1938,209.6
831.5723,31261.5
831.6221,575
831.6396,438.9
832.1163,17.5
832.3031,182
832.3495,136.1
832.5849,71301.5
832.698,387.1
832.9557,932.6
833.2065,735.4
833.3414,21.4
833.5879,39422.3
833.6525,265.6
834.101,48.8
834.5617,462.2
834.6022,29714.6
834.8563,105.4
834.9098,364.4
834.9652,335.7
835.0736,675.3
835.5339,125.7
835.5739,52.2
835.6047,16294.9
835.6668,613.3
835.7401,177
835.7906,410
835.8895,22.2
836.62,3075.5
836.6747,49.5
836.7911,150.5
837.2115,17.8
837.3893,136.1
837.6208,1664
837.6494,90.8
838.3835,111.4
838.4906,163.6
838.5116,1409.8
838.5486,257.1
838.6351,468.7
839.0937,1319.7
839.3602,403.3
839.516,546.2
839.764,374.6
839.9466,466
840.178,158.6
840.5345,123.8
840.752,414.8
840.7851,489.8
840.8248,486.3
841.0961,416.8
841.875,592.7
842.1934,325.1
842.3568,125.8
842.7367,230.3
842.7936,406.2
843.3501,306.7
843.3615,335.3
843.4107,27.9
843.7205,255.1
844.5269,17488.9
844.6214,141.4
845.2332,114.2
845.2756,178.5
845.5311,4190
845.5592,126.2
845.6373,541.2
845.7113,606
846.1323,307.8
846.3421,366.9
846.5429,8993
846.5979,17.9
846.7161,873.7
846.8386,236.1
847.1238,104.4
847.5467,232.7
847.8501,163.3
847.8908,41.7
848.0133,56.5
848.5589,7287.1
848.6802,373.4
848.9715,352.4
849.5592,3390.4
849.6964,459.3
849.963,19.8
850.3081,21.9
850.5713,365.3
850.6713,390.5
850.8079,334.7
850.8806,209.8
851.2299,151.4
851.3153,25.6
851.7862,95.7
852.1281,45.7
852.3158,417.7
852.3428,310.3
852.5524,1038
852.6245,138.7
853.095,138.7
853.3032,320.4
853.729,453.1
854.1973,510
854.3945,37.3
854.4511,230.7
854.4953,538.5
854.5222,581.8
854.5695,1568.4
854.7027,538.7
855.0609,214.4
855.1236,169.8
855.1708,196.6
855.2019,549.6
855.5461,890.5
855.5847,465.5
856.5845,6171.4
856.6813,824.1
857.5895,419.3
857.6632,187.5
857.9586,280.9
858.1664,123.2
858.2643,184.6
858.4091,1023
858.5937,323
859.407,101.4
859.9475,21.6
860.5632,101.1
860.828,413.1
861.1032,165.1
861.3636,373.8
861.4574,20.2
862.2067,89.7
862.3622,553.9
862.4308,287.4
862.4553,317.5
862.5108,347.1
862.5925,340.9
862.7358,28.6
863.3611,552.7
863.4336,890.2
864.5022,311.2
864.6163,217.6
865.2454,95.1
865.6158,693.5
865.8416,18.5
866.2228,130.2
866.2979,18.2
866.42,525.9
866.5464,386.1
866.7018,18.5
866.9556,414.9
867.0195,489.3
868.0958,141.8
868.1602,178.4
868.3302,317.8
868.7309,20
868.758,180.8
868.8407,102.6
868.9029,518
869.0042,160.1
869.0588,258.3
869.105,451.2
869.6097,20.8
869.6771,596.9
869.8082,901.9
869.8694,711.3
869.9352,388.6
869.9747,625.9
869.9901,389.9
870.0348,1210.7
870.048,1151.1
870.0883,1701.5
870.1229,2930.7
870.1654,2780.9
870.2174,1586.2
870.2604,1111.6
870.2749,714.1
870.3023,730.1
870.348,1495
870.3809,829
870.4501,118.9
870.496,251
871.1219,682.8
871.313,99
871.4431,171.9
871.8091,114.6
871.9196,267.7
872.5406,833.1
872.6048,580.4
872.6531,162.6
872.7125,234.4
873.1189,444.2
874.4635,249.7
874.9563,584.9
875.1454,23.4
875.5878,190.6
875.6257,452
876.0073,1077.3
876.1564,123.7
876.2292,93.7
876.6309,1179.3
876.9052,484.3
877.0824,104.4
877.575,183.3
878.1722,600.1
878.2246,505.2
878.9192,304.2
879.0821,587.8
879.1706,1163.3
879.2039,885.8
879.4364,485.7
879.5518,924.6
879.5822,789.1
880.5391,183.2
880.7023,181.3
880.9259,348.3
881.0267,506.2
881.1579,590.4
881.4511,119.4
881.7653,45.1
881.9788,472.7
882.2667,884.4
882.4427,500.6
883.1138,21.7
883.9545,148.1
884.1381,128.4
884.4621,48.3
885.1169,42.2
885.2759,449.4
885.3713,99.9
885.7469,167
885.9985,205.7
886.6643,124.3
886.7778,216.7
886.8879,182
887.1979,23.2
887.7882,47.9
887.8961,149.8
888.1667,190.6
888.2731,267.6
889.0135,19.5
889.0505,107
889.5793,508.8
889.7436,392.4
890.0243,698.8
890.14,159.4
891.1479,100.8
892.5982,352.4
893.0794,99.9
893.1091,498.6
893.7265,372.9
893.873,104.7
894.1399,127
894.58,244.7
894.989,729.1
895.1044,105.7
895.301,468.8
895.3976,590.3
895.9217,491.5
896.3791,141.5
896.781,106.9
898.1068,521.6
898.3114,658.3
898.7021,327
898.8654,597.1
899.317,18.2
900.0967,824.9
900.2878,20.6
900.8198,147.4
900.9697,106.4
901.0213,444.7
901.7166,1008.5
902.2225,20.4
902.6639,881.9
902.7442,691.8
902.872,442.5
903.1836,39.7
903.2959,408.5
903.5213,846.5
904.17,534.3
904.2754,626.9
904.3896,734
904.7348,18.7
905.1307,680.8
905.594,389.6
905.9176,100.4
906.0084,209.2
906.3204,115.6
906.9686,423.4
907.1903,143.4
907.3184,388.9
907.9234,133.5
908.2435,102.1
908.8916,44.6
908.9666,216.5
909.3924,262
910.4999,584.9
911.3014,265.3
911.498,19.4
911.6458,107
911.665,22
911.8045,214.4
911.9773,770.5
913.3898,439.9
913.7522,1098.5
914.0967,539.9
914.1232,599.6
914.2397,188
914.7228,256.2
914.8055,716.9
914.8943,20.5
915.1467,368
915.2987,282.7
915.7692,38.3
916.1,183.1
916.4493,142
917.3524,332
918.8223,371.9
919.865,860.8
920.0975,21.3
921.89,186.5
922.3781,1129.2
922.5,150
922.5582,704.2
922.594,144.1
923.0189,153.3
923.5932,493
923.6308,511.8
923.704,408.9
924.708,141.2
924.8749,18.9
925.0583,687.5
925.2764,538.8
926.0943,145.9
926.3304,20.4
926.4069,513
926.4419,18.1
926.5074,553.6
926.5783,2365.6
926.7163,195.7
927.4169,503
927.8692,269.9
928.1698,141.4
928.3198,494.4
928.3735,92.3
929.1823,811.1
929.8321,535.6
930.2388,183
930.4442,437.9
930.537,391.4
930.7717,38.6
931.3364,550.6
931.6607,338.9
932.3826,118.4
932.5379,383.3
933.4417,257.5
933.457,317
933.4725,246.1
933.9855,91.1
934.2385,225.8
934.4351,334.7
934.6085,1101.4
934.898,589.4
935.8588,416.4
936.0701,464.9
936.2723,1142
936.3178,18.5
936.4982,114.1
936.7643,359.2
936.9209,175.4
937.1673,545.2
937.5112,300.3
938.7684,622.3
938.8022,22.7
939.3136,801.5
939.5127,828.9
939.6553,165.7
939.7457,42.3
940.3607,423.1
941.9952,172.4
943.2276,190.1
943.483,84.5
944.2336,106.5
944.293,126.9
944.3326,222.5
944.6401,523.9
945.2606,97.8
945.406,95.9
945.9607,289.4
946.0799,876.3
946.422,379.9
946.6922,436
946.9835,274.1
947.2049,346.9
947.2501,209.8
947.4567,254.2
947.9432,453.6
947.961,483.1
948.0111,119.4
948.1742,113.9
948.2238,462.2
948.4838,135.2
948.6525,619.1
948.7234,19.9
948.8137,134.5
948.9067,172
949.5571,226
949.767,153.3
950.0877,143.5
950.1619,156
950.6475,119.1
950.8576,834.3
950.9017,148
951.4626,176.7
951.7675,18.7
952.7491,524.1
953.0974,370.3
953.1891,468.9
953.4334,20.7
953.7392,99.2
953.9207,614.1
954.6697,24
955.7124,354.8
956.9335,352
957.2132,178.4
957.8525,101.6
957.9458,399
958.7025,368.4
958.8254,370.2
959.5648,119.8
959.5995,374.8
959.6315,471.5
960.0145,826.4
960.2112,123.6
960.6446,550.5
961.0125,590.2
961.1132,453.3
961.1857,561.3
961.4539,147.9
961.7785,188.5
962.005,102
962.2318,490.2
962.5425,426.1
963.2,21.2
964.2805,235.3
964.6282,21.1
964.903,291.4
965.0211,1316.5
965.1068,252.1
965.191,763.8
965.6514,1438.9
966.2443,690.6
966.5073,21
966.8657,55.9
967.2945,287.8
967.3609,548.7
967.6411,25.4
967.7344,142.8
968.1427,640
968.3975,242.9
968.9625,596.4
969.0651,106.6
969.851,201.3
969.8938,1299.1
969.9876,151.2
970.2506,177.5
970.277,327.1
971.1933,237.6
971.3427,18.7
971.7011,814.6
972.6298,370.4
973.2554,372.3
973.3173,937.9
973.386,261
973.5751,371.5
973.9368,210.2
974.0187,1849.6
974.2237,436.2
974.6839,205
975.1742,104.5
975.2612,996.6
975.4945,137.5
975.8435,405
976.2266,126.3
976.5854,104.9
977.0045,72
977.1521,286.3
977.2531,134.4
977.5369,286.8
978.7635,644.2
979.747,523.4
979.8505,42.1
979.9465,23.3
980.0592,699
980.6841,757.2
981.6984,1174.9
981.8481,147.1
982.4314,978
982.5374,95.7
982.8564,527.7
982.9569,21.4
983.4758,310.6
983.6616,138.9
983.7827,539.5
983.8715,217.7
984.0522,1044.8
984.338,474.6
984.3867,706.6
984.7493,474.7
984.9312,51.8
984.9613,135.8
985.2381,170.1
985.5452,842.3
985.6088,97.4
985.7035,120.3
985.7413,354.5
986.1444,139.9
986.394,960
986.6621,722.3
987.027,344.5
987.2926,453.3
987.5828,144
988.0128,733.7
988.6077,19.7
988.6791,543.7
988.9842,288.1
989.0156,25.3
989.6704,47.3
989.7145,708.5
990.0203,1269.2
990.3947,427.1
990.49,813.3
992.0344,18.7
992.5126,708.1
992.7135,288.5
992.7968,434.2
992.8628,111
993.3752,310.4
993.4215,459.5
994.2724,294.6
994.3721,855.9
994.5013,116.5
994.8066,610.2
994.8825,276.8
995.2268,666.7
995.6975,867.3
995.733,98.1
996.17,273.5
996.1976,59.7
996.3529,425.6
996.3789,22.8
996.4655,1233.8
996.9482,19
997.0238,215
997.3493,38.7
997.5018,133.7
998.3061,119.6
998.4127,389.6
998.6597,357.2
999.2976,377.4
999.4526,159.1
999.5227,107
