SPECTRUM - MS,
QC_5.RAW,
FTMS + p ESI Full ms [50.00-1000.00],
Scan #: 1-40,
RT: 0.01-1.97,
AV: 40,
m/z,Intensity

50.0054,84.1
50.0069,64
50.0182,358.5
50.0319,243.2
50.0373,802.2
50.0386,141
50.0396,241.2
50.0533,438.4
50.0863,362.2
50.0963,60.8
50.098,82.6
50.1063,191.7
50.1222,560.3
50.1255,117.2
50.1266,347.1
50.1278,339.5
50.1338,789.8
50.135,754
50.1594,192.3
50.1704,688
50.1717,232.8
50.1797,18.3
50.1889,153.8
50.1929,89.7
50.1962,109.2
50.2081,327.6
50.2156,162.6
50.2207,167.1
50.2236,75.2
50.2268,173.7
50.2323,265.6
50.234,17.4
50.251,207.6
50.2588,69
50.2637,128.9
50.2678,72.9
50.3046,17.3
50.3239,18.9
50.3325,17.3
50.3789,15.5
50.4039,19.5
50.4081,173.5
50.411,89.9
50.4164,99
50.4269,553.7
50.4419,88.8
50.4424,504.9
50.4576,606
50.4791,561.3
50.4794,17.4
50.4825,166.2
50.4999,120.5
50.5027,234.1
50.526,91.3
50.5261,105.1
50.5263,83.3
50.5372,315.3
50.5413,519
50.5469,537.6
50.5619,273.5
50.5634,77.5
50.5701,72.2
50.5761,19.1
50.5787,209
50.6094,55
50.6104,513.3
50.6131,56.9
50.6134,513.2
50.6281,258.9
50.6409,377.2
50.6796,233.5
50.6812,77.4
50.6818,199.8
50.6854,17.1
50.7006,56.4
50.7064,99
50.7179,108.9
50.7186,215.7
50.7264,306.6
50.7352,16.9
50.7536,414.6
50.7579,73.4
50.7673,929.8
50.7899,599.4
50.7911,421
50.7992,133.1
50.8067,134.9
50.8389,717.1
50.8572,83.3
50.8625,78.5
50.8711,528.4
50.8871,317.9
50.8926,110.3
50.8988,87.9
50.9023,135.3
50.9198,421.4
50.9328,362
50.9391,756.2
50.9635,162.2
50.9639,106.3
50.9781,321.9
50.9912,81.7
50.9943,637.6
51.0055,385.5
51.0137,96.6
51.0175,657.6
51.033,463.5
51.0387,109.8
51.0517,226.2
51.0648,130.8
51.071,148.5
51.0774,17
51.0934,17.5
51.1081,76.6
51.1086,72.7
51.123,714.4
51.1329,245.3
51.1409,20.2
51.1415,89.5
51.1529,66.3
51.164,78.6
51.1649,62.5
51.165,63.1
51.1747,102.7
51.191,517.8
51.2065,323.6
51.2408,19.4
51.2422,256.9
51.2505,528
51.2633,380.4
51.2672,350.3
51.2691,15.1
51.2696,155.3
51.2863,353.8
51.3189,17
51.3205,15.7
51.3427,150.7
51.3522,112.4
51.3535,122.5
51.3562,112.4
51.3663,18.4
51.372,88.6
51.3723,82.6
51.3941,1088.9
51.4083,147.7
51.4159,16
51.4276,81.7
51.4358,81.6
51.4434,52.9
51.4549,136.9
51.4746,16
51.4768,73.4
51.4928,97.3
51.5123,55.7
51.5134,78.7
51.5328,60.3
51.5356,118.1
51.5417,233.3
51.5517,618.4
51.5541,185
51.5587,104.4
51.5623,126.1
51.5669,17
51.5673,175.4
51.5696,98.6
51.5768,18.7
51.5838,119.6
51.5887,283.8
51.59,114.8
51.591,323.9
51.6037,133.9
51.6172,249.7
51.622,64.8
51.6225,78.1
51.6273,125.2
51.6432,173.2
51.6522,64.9
51.658,21.4
51.6647,64.3
51.6968,204.2
51.7042,750.2
51.7069,81.5
51.7084,69.5
51.7256,56.8
51.7442,535.3
51.7448,643.6
51.7516,75
51.7628,149.7
51.766,302.6
51.7727,191.1
51.7771,762.8
51.7795,165.7
51.786,140
51.79,596.4
51.7977,769.3
51.8031,82.8
51.815,78.8
51.8178,19.3
51.8267,672.1
51.8354,75
51.8553,63.2
51.8584,125.1
51.8662,530
51.9013,502.9
51.9054,124.7
51.9451,68.2
51.9496,743.9
51.9522,633.5
51.9636,100.5
51.9718,17.5
51.9747,321.6
51.9853,71.8
51.991,86.6
51.992,651
51.9951,17.1
52.0027,330
52.03,445.6
52.0316,17.3
52.0421,86.7
52.0471,17.8
52.0512,104.3
52.0653,155.3
52.0743,403.1
52.1137,17.8
52.1377,16.7
52.1402,192.1
52.1648,318.4
52.1972,228
52.2116,229.9
52.2266,80.1
52.2869,116.6
52.3024,441.8
52.3041,15
52.3302,103
52.3403,115.4
52.3508,119.5
52.3544,354.1
52.3625,523.5
52.379,237.3
52.3809,416.3
52.3884,163.7
52.3933,89.2
52.4289,598.3
52.4309,95.2
52.4334,217.5
52.4383,125
52.4507,122
52.4614,104.4
52.4676,785.7
52.4831,325.6
52.4854,321.4
52.502,74.8
52.5069,660.8
52.5153,63.5
52.5163,121.6
52.5325,16.2
52.5364,655.9
52.5616,117
52.5846,93
52.5924,493.3
52.5954,103.1
52.6001,155.2
52.6045,17.8
52.6118,85.1
52.6132,78.4
52.6188,136.8
52.6193,374
52.624,614.2
52.6324,74.8
52.6464,266.8
52.6481,131.7
52.6607,143.7
52.6628,235.2
52.6671,623.3
52.6868,315.1
52.7344,103.4
52.739,99.4
52.7414,90.5
52.7466,15.4
52.7493,206.5
52.7592,442.1
52.7611,324.6
52.7714,252.6
52.7763,596.7
52.7767,807.4
52.7774,429.2
52.7777,1180.2
52.7784,1977.2
52.7789,2446.6
52.7795,689.5
52.78,2913.9
52.7804,4473.9
52.7808,2610.5
52.7815,799.8
52.7818,747.5
52.7826,291.6
52.7829,213.5
52.7856,91.6
52.7893,308.9
52.7924,84.2
52.7935,19.1
52.7941,384.5
52.8077,696.5
52.8412,637.6
52.8538,149
52.8774,16.4
52.8957,237.7
52.8973,377.3
52.9047,126.4
52.9062,218.2
52.9085,490
52.9231,173.5
52.9283,152
52.9364,310.9
52.9389,708.7
52.9396,613.6
52.946,152.8
52.9631,394
52.9748,282.5
52.9767,96.4
52.983,107.6
53.0374,167.1
53.0391,514.1
53.0584,323
53.0635,63.5
53.099,19.7
53.1001,113.6
53.107,131.9
53.1334,684.6
53.1416,60.7
53.1565,222.9
53.1887,318.2
53.1923,115.8
53.1999,17.7
53.2022,81
53.2073,171.2
53.2138,127.7
53.2437,778.6
53.2529,71.3
53.2619,553.8
53.2644,118
53.2656,65.2
53.2711,73.5
53.2901,114.3
53.2941,645.4
53.3131,56.1
53.3201,357.8
53.3243,80.4
53.3434,155.8
53.3452,390.5
53.3477,77.9
53.3672,494.2
53.3698,147.5
53.371,103.7
53.3725,110.5
53.3881,100.4
53.3985,78.9
53.3989,72.5
53.3999,61.7
53.4156,713.7
53.4232,148.6
53.4262,266.2
53.4357,137
53.4458,225.7
53.4473,367.8
53.448,15.7
53.4506,87.7
53.4511,104.3
53.4587,113.5
53.4996,251.7
53.5115,745.7
53.539,89.6
53.5492,114
53.5589,694.9
53.5638,714
53.573,98
53.5798,226.1
53.582,59.6
53.5928,79.8
53.5968,624.5
53.5975,646.1
53.6127,85.5
53.6144,21.3
53.619,80.3
53.6407,635.9
53.6519,15.1
53.6571,329.6
53.6806,118.2
53.6884,15.9
53.699,363.2
53.7043,61.5
53.7137,15.1
53.7262,57.1
53.7363,190.3
53.7477,91.9
53.7654,93.1
53.7778,470.9
53.7796,249.9
53.786,82.2
53.7899,520.7
53.7966,181.8
53.8013,59.7
53.8024,16.4
53.8134,74.2
53.8287,106.7
53.8314,207.3
53.8342,62.1
53.8423,16.5
53.8604,212.9
53.8615,274.7
53.8644,109.9
53.8693,93.7
53.8695,152.7
53.8696,153.7
53.8776,79.5
53.8958,101.4
53.9081,303.2
53.9102,233.4
53.9124,87.7
53.9171,99.9
53.9314,550.8
53.9348,193.2
53.9383,82.9
53.9464,713.7
53.9508,74.2
53.9525,88.5
53.9623,91.2
53.9659,520.6
53.9725,252.1
53.975,371
53.9784,337.8
54.0339,82.3
54.0405,522.2
54.047,224.5
54.0665,201.4
54.0704,611.3
54.071,358.2
54.0832,18.9
54.0932,18.7
54.1093,19
54.1226,540
54.1276,510.5
54.1294,271.2
54.1333,15.3
54.1506,157.4
54.1551,16.9
54.1668,407.7
54.171,384.1
54.184,16.5
54.1999,340.4
54.2035,662.8
54.2071,550.8
54.2134,709.2
54.2312,96.7
54.2467,304.9
54.2508,307.3
54.2806,122.2
54.2815,1322.1
54.3031,214.2
54.3109,81
54.3191,73
54.3206,116.2
54.3236,130
54.3275,172
54.3293,165.3
54.3432,73.8
54.3481,76.4
54.3505,590.3
54.3519,190.6
54.3555,83.1
54.3621,168.6
54.3627,81.9
54.3652,397.3
54.3716,129.7
54.3757,393.5
54.3794,79.7
54.39,205.1
54.396,664.1
54.4077,414
54.4124,80.4
54.4382,15.5
54.4488,108.5
54.4502,115.6
54.4677,170.8
54.4804,492.7
54.4929,671.5
54.5398,84.3
54.544,142.9
54.5492,343.9
54.5536,17.4
54.5633,155.4
54.5726,50.5
54.5846,137.9
54.5903,141.5
54.591,156.9
54.6019,76.3
54.6026,141.5
54.6063,74.4
54.6144,203.9
54.6151,324
54.6203,335.3
54.6263,51.3
54.6392,61.1
54.6459,57.3
54.6474,17
54.6498,15.8
54.6574,523.9
54.6585,13.7
54.6905,159.3
54.6994,347
54.7049,241.9
54.7286,76.7
54.7516,632.3
54.7725,88.2
54.7781,333.4
54.788,239.1
54.8118,99.3
54.8212,256.7
54.851,118.3
54.8626,139.7
54.8645,762.5
54.868,256.4
54.8901,583.4
54.898,112.8
54.9046,629.9
54.9388,348.6
54.9467,233.2
54.9489,679
55.0044,129.3
55.0168,94.8
55.0276,68.9
55.0397,116
55.0413,421.8
55.0455,74.2
55.0837,21.2
55.0902,80.2
55.1275,249.6
55.1337,76.4
55.1394,124.4
55.1433,621.8
55.1581,102.9
55.1603,296
55.1806,87.7
55.1827,157.6
55.1841,736.9
55.1949,16.5
55.1995,146.1
55.2029,308.7
55.2056,229.5
55.2188,177.1
55.2249,199.3
55.2706,327.2
55.2752,104.7
55.2843,406.7
55.2948,160.8
55.3013,143.5
55.3035,70.7
55.3282,124.7
55.3419,55.6
55.3714,300.9
55.3721,392.3
55.3753,334.4
55.3787,16.8
55.38,72.2
55.3831,313.7
55.3845,263.3
55.3969,75.1
55.4012,18.8
55.4162,768
55.4163,787.5
55.4165,294.4
55.4325,65.4
55.4379,85.4
55.4758,91.9
55.485,348.2
55.5088,564
55.5173,75.1
55.5251,613.6
55.5264,193.9
55.532,102.4
55.5533,415.7
55.5849,262
55.5876,504.8
55.5923,102
55.6069,307.2
55.6158,84.2
55.6476,143.9
55.6562,166.3
55.6704,83.1
55.6788,111
55.681,303.1
55.6829,704.3
55.6875,362.4
55.6962,80.8
55.7061,79.2
55.7072,383.4
55.708,100.5
55.71,687.3
55.7475,422.4
55.7551,139
55.7614,65.7
55.7643,143.3
55.7785,133.5
55.7844,115.5
55.7871,608.7
55.791,334.1
55.7939,286
55.8124,81
55.815,442.7
55.8175,145.3
55.8186,198.5
55.8378,76.1
55.8473,202.8
55.8607,103.8
55.8663,71.4
55.8706,82
55.8842,588.2
55.8951,104.6
55.9104,70.7
55.9226,150.3
55.9264,328.8
55.9528,100.8
55.9674,377.4
55.979,150.2
56.008,87.4
56.0106,689.4
56.0158,93.6
56.0212,155.9
56.023,210.1
56.0312,143.8
56.0423,15.3
56.0459,104.3
56.048,100.4
56.0492,91.9
56.0705,497.9
56.0809,564.3
56.1138,79.2
56.1322,464.7
56.1415,99.9
56.1493,78.2
56.1569,716.5
56.1747,92.9
56.1877,351
56.1956,94.1
56.2058,241.2
56.2176,363.2
56.2424,532.9
56.2439,901.6
56.3039,15.7
56.3136,858.2
56.3323,15.6
56.3453,74.5
56.3499,257
56.3569,14.7
56.3929,81.2
56.3963,308.6
56.401,187
56.4209,87.8
56.4668,431.8
56.471,494.4
56.4768,241.9
56.4861,112.3
56.5044,115.1
56.5154,537.8
56.5191,76
56.5633,107.1
56.5651,194.8
56.5682,79.2
56.5717,74.7
56.5838,114.8
56.5882,96.3
56.6297,78.5
56.6364,282.9
56.6606,105.9
56.6669,91.5
56.6712,212.8
56.676,114.7
56.7011,192.5
56.7138,956.4
56.7211,132.8
56.7224,88.1
56.7402,79.8
56.743,79
56.7471,216.3
56.752,297.2
56.7617,259.3
56.7654,89.1
56.7738,79.6
56.7751,20.5
56.7811,82.7
56.7822,469.8
56.7894,145.4
56.799,15.7
56.8134,15.6
56.8168,14.7
56.8244,138.6
56.8313,120.9
56.8367,261.4
56.8444,203.5
56.8698,369.5
56.8702,318.6
56.8859,194.8
56.8939,18.6
56.8975,160
56.9435,93.1
56.9506,93
56.9967,118
57.0266,732.3
57.0296,550.1
57.0327,185.5
57.0486,129.7
57.0634,392.7
57.0684,130
57.0708,493.2
57.0862,337.1
57.105,222.7
57.1062,76
57.1127,244.2
57.1179,383.2
57.1343,76
57.1433,14.8
57.1453,249.2
57.1474,104.2
57.1691,811.4
57.1705,64.4
57.1783,16
57.1825,381.2
57.1895,62.8
57.2023,777
57.2098,438.3
57.2112,101.2
57.2247,89.6
57.2425,155.7
57.2449,119.6
57.2468,359.6
57.2598,106.3
57.2609,77.2
57.2804,120.7
57.3067,17
57.3133,244.4
57.326,66.8
57.3506,17.1
57.3665,73.7
57.3785,265.1
57.3889,337.5
57.3976,104.1
57.4221,215.9
57.4235,264
57.432,181.9
57.4326,204.1
57.4748,194.5
57.4794,24.3
57.4821,88.3
57.5085,503.9
57.51,73.6
57.5204,59.5
57.5299,101.6
57.5356,598.2
57.5377,117.5
57.5707,672.6
57.5884,804.4
57.6115,65.6
57.6189,14.3
57.6203,117
57.6234,137.6
57.6279,651.8
57.64,63
57.6407,259.5
57.6498,68.5
57.6733,161.3
57.6767,124.3
57.6925,321.5
57.7249,131.3
57.731,213.7
57.7421,174.5
57.7821,576.1
57.7835,56
57.7903,204.3
57.8046,406
57.8178,368.1
57.8211,114.8
57.8223,102.1
57.8259,367.1
57.8286,110.7
57.8632,91.4
57.8643,284.1
57.8791,95.2
57.9114,265.8
57.9121,62.8
57.9187,196.4
57.9297,919.5
57.9387,459.6
57.9483,336.9
57.95,479.8
57.9528,432.5
57.9588,15.6
57.9652,527.4
57.9657,76.9
57.9677,487.2
57.9757,595.3
57.9771,98.7
57.9889,120
57.9932,474.1
58.0025,191.4
58.0431,143.5
58.045,257.9
58.0626,64.8
58.0638,140.2
58.0797,18.9
58.0864,83.6
58.1086,509.9
58.1104,463.6
58.1397,80.7
58.1406,20
58.142,177
58.1568,69.8
58.1612,16.1
58.1676,72.8
58.1682,91.8
58.171,369.6
58.1757,105.3
58.1818,318.3
58.1873,103.5
58.1938,399.3
58.1968,225
58.2236,16.6
58.228,674.2
58.234,828.2
58.2478,265.3
58.273,99.9
58.2731,98.3
58.2755,453.3
58.2867,178.7
58.294,75.5
58.3047,75.5
58.3084,86.5
58.3175,164.9
58.3253,99
58.3348,147.6
58.36,686.5
58.3729,98.8
58.3787,185.6
58.3813,427.5
58.3851,17.4
58.3858,15
58.3864,91.8
58.396,335.2
58.4087,66.9
58.4138,78.3
58.4271,798.6
58.4315,80.2
58.4378,607.8
58.4394,877
58.4539,91.3
58.4725,148.4
58.4869,152.8
58.5033,238.8
58.5071,96.5
58.5221,185.8
58.5306,18.7
58.5352,624.3
58.5365,16.7
58.5406,416.8
58.55,765.9
58.5642,179.3
58.585,106
58.594,311.7
58.5957,239.1
58.6078,146.1
58.6098,115.2
58.6186,81.6
58.6194,102.9
58.6331,739.5
58.6446,201.5
58.6515,72.6
58.6614,60.6
58.6621,134
58.6682,55.3
58.6986,237.6
58.7114,242.5
58.7141,104
58.724,72.1
58.7476,77.2
58.7554,351.3
58.7793,120.6
58.7816,247.5
58.7821,102.1
58.7873,101
58.7977,83.7
58.8001,347.3
58.8104,17.4
58.8113,167.4
58.8173,61.2
58.8193,357.6
58.8403,244.7
58.8417,499.8
58.8446,106.1
58.8453,124.9
58.8694,18.4
58.8852,16.4
58.8904,85.9
58.8942,104.6
58.8968,507.5
58.9085,87.6
58.9215,376.9
58.9244,283.9
58.9523,583.5
58.9743,404.3
58.9759,118.8
59.0041,17.5
59.0075,366.2
59.0126,61.3
59.0253,496.7
59.0307,578.5
59.0325,85.4
59.0648,144.7
59.0842,347.6
59.0909,128.8
59.119,458.7
59.1274,313
59.155,500.6
59.1645,109
59.1718,17.9
59.1753,261.1
59.1819,635.4
59.1991,164.3
59.218,16.1
59.2463,18
59.2678,283.7
59.2748,83.9
59.3007,117.2
59.3021,105.4
59.3048,729.8
59.3209,122.6
59.3221,162.8
59.3235,91.2
59.3354,158.7
59.3498,153
59.3617,592.3
59.4004,136.4
59.4096,130.4
59.4168,17.1
59.424,210.5
59.44,281.6
59.4439,608.6
59.4826,77.9
59.5164,69.3
59.5179,87.8
59.5413,75.5
59.5422,320.7
59.5627,348.5
59.5796,77.5
59.5997,126
59.617,435.1
59.6358,202.3
59.6439,420.9
59.6689,100.3
59.6748,172.6
59.6791,54.7
59.6835,17
59.6877,706.8
59.6881,203.8
59.7015,358.7
59.7042,101.8
59.7045,90.6
59.7249,181.8
59.7329,206.5
59.7347,106.1
59.7811,127.5
59.7826,104.5
59.784,115.3
59.7949,82.9
59.8004,149.3
59.8038,265
59.8304,118.8
59.8378,75.3
59.8705,17.8
59.8806,106.2
59.8811,270.5
59.8859,139.1
59.8964,105.6
59.9231,234
59.9234,155.8
59.9448,306.7
59.9632,257.2
59.9638,137
59.9767,756.8
60.018,17.1
60.0404,237.7
60.044,173.6
60.0593,151.9
60.0637,18
60.1319,571.2
60.1356,107
60.1438,591.2
60.1451,18.1
60.1779,341.2
60.182,608.9
60.2135,21.9
60.2175,161.4
60.2242,104.3
60.232,116.3
60.2325,118
60.2369,599.6
60.2447,102.4
60.2472,391.7
60.271,541.5
60.2863,72
60.3289,124.7
60.3583,108.8
60.3785,157.3
60.3801,691
60.387,69.5
60.3978,112.4
60.4048,319.3
60.4136,65.1
60.4198,152.4
60.4404,295.1
60.4604,120.8
60.4773,19.4
60.4873,571.1
60.4927,482.4
60.4932,110.4
60.5691,86.4
60.5879,318.9
60.6224,437.5
60.6309,202.4
60.6387,499
60.6456,143.3
60.6601,209.6
60.6748,118.3
60.689,576.8
60.6954,275.7
60.7362,139.2
60.7385,224.7
60.7423,96.8
60.7713,16.9
60.7739,467.5
60.7892,101.1
60.8252,142.1
60.8701,347.4
60.9203,298
60.9264,168.7
60.9331,535.2
60.9443,90.5
60.9479,508.1
60.9511,182.4
60.9528,154.8
60.9653,114.1
60.9706,74
60.9778,16.7
60.9822,173.4
60.9901,93.2
61.0086,652.3
61.011,486.3
61.018,123.3
61.0282,19.3
61.0449,91.2
61.0476,98
61.0484,335.7
61.0613,16
61.0759,357.5
61.1087,131.8
61.1091,320.5
61.1341,450.2
61.1451,71
61.1468,21.6
61.1589,302
61.1767,145.1
61.1885,338.9
61.1906,327.9
61.1967,558.1
61.1982,55
61.218,373
61.223,357.4
61.2303,18.3
61.2493,16.8
61.2542,126.4
61.2634,16.6
61.2755,454.9
61.2858,289.5
61.2863,129.8
61.2911,169.1
61.3124,497.2
61.3372,426.9
61.389,260.4
61.3969,117.8
61.415,19.5
61.4165,16.9
61.4183,222.6
61.4294,813.8
61.4363,91.8
61.455,18.7
61.461,118.8
61.4812,178.9
61.4946,540.3
61.5024,148
61.5165,308.5
61.5181,21.4
61.5196,366.2
61.5371,123.1
61.5755,327.2
61.581,158.6
61.5897,120.4
61.5923,85.1
61.5966,699.3
61.6042,17.4
61.6097,300
61.6118,95
61.6125,135
61.6147,333.5
61.6279,18.6
61.6321,97.6
61.6471,171.4
61.6672,643.9
61.6682,62.9
61.7202,17.4
61.7364,74.3
61.7422,264.9
61.7591,16.9
61.7682,109.4
61.7757,161.1
61.7827,149.1
61.7853,340.1
61.8164,74.9
61.8191,191.7
61.8222,392.4
61.8232,303.2
61.8379,97.3
61.8652,74
61.8856,16.2
61.8878,776.3
61.9003,17.4
61.9109,784.9
61.916,94.2
61.9439,116.9
61.9455,130.5
61.9581,252
61.9638,78.9
61.9767,227.8
61.9811,190.7
61.9831,161.5
61.9875,305.2
61.9911,753.5
61.9954,210.8
62.0328,216.7
62.0413,164
62.0492,245.6
62.053,79.5
62.0586,68
62.0617,278.2
62.0635,130.6
62.0894,16.5
62.122,16
62.1267,404.1
62.1283,132.9
62.1429,164.6
62.1433,105.9
62.1462,81.6
62.1599,114.6
62.2069,161.1
62.2341,16.8
62.2388,132.8
62.2499,17.1
62.2558,382.8
62.259,62.5
62.2681,166.8
62.2742,101.7
62.2758,21
62.2798,18.3
62.2859,64.5
62.2872,60.2
62.2999,190.9
62.3012,67.7
62.3044,287.6
62.3174,141.2
62.3275,531.2
62.3366,213.3
62.3449,333.7
62.3501,169
62.3612,345.5
62.3678,83.3
62.3898,601.1
62.406,132.2
62.4093,18.4
62.4305,402.3
62.4584,274.9
62.4927,87.4
62.4974,132.1
62.5383,375
62.5439,467.6
62.5462,16.4
62.5848,226.9
62.6104,135
62.6231,528.4
62.6317,66.2
62.6516,119.2
62.6617,75.4
62.67,341.7
62.6853,174.8
62.6916,153.5
62.6926,17
62.7027,75.5
62.7194,120.6
62.7271,105.7
62.7283,107.5
62.7334,521.4
62.7346,126.1
62.7357,747.7
62.7896,192.3
62.8111,236.9
62.8188,300.9
62.8758,192.8
62.8877,103.1
62.894,336.9
62.8949,172.1
62.9141,165.3
62.9171,66.4
62.9277,327.5
62.9394,376.9
62.9615,339.5
62.9635,351.4
62.9678,386
63.0156,357
63.0196,272.2
63.025,289.2
63.0305,15.9
63.0332,78.9
63.0338,15.2
63.0666,86.7
63.072,605.3
63.1006,88.8
63.1052,458.7
63.1119,528
63.1259,18.3
63.141,114.5
63.1502,492.9
63.1701,813.2
63.1882,157.7
63.1885,249.1
63.1888,243.4
63.1899,140.3
63.1984,17.6
63.206,237.6
63.2159,86
63.2184,229.1
63.2259,17.2
63.2273,81.2
63.2283,154.2
63.2316,142.8
63.233,141.1
63.2365,256.6
63.2492,18.4
63.2584,483
63.2627,116.3
63.2635,294.6
63.2739,94.2
63.2865,107.8
63.2873,246
63.2897,15.2
63.3001,160.4
63.3069,603.7
63.3087,635.3
63.3099,25.9
63.3118,112.2
63.325,341.4
63.3306,629
63.3466,171.4
63.3569,18.1
63.3699,148
63.3867,87.6
63.3893,116.4
63.3923,18.2
63.3946,59.5
63.4337,100.9
63.4435,358.6
63.4441,703.2
63.4568,476.3
63.4689,81.6
63.472,146
63.4852,281.3
63.4932,336
63.4969,16.8
63.5018,114.7
63.5028,170.6
63.5154,125
63.5194,115.3
63.5251,156.8
63.5259,18.3
63.5669,142
63.5791,18.3
63.5839,100.8
63.5943,646.1
63.6066,168.3
63.6251,103.4
63.6342,132.3
63.648,19.2
63.6566,229.6
63.6644,349.6
63.6659,67.1
63.6887,488.1
63.6915,426
63.6964,123.9
63.6991,73.7
63.7096,203.8
63.7116,594.3
63.7226,110.9
63.7332,437
63.7384,282.9
63.7627,114.4
63.7863,256.1
63.8007,85.7
63.864,312.1
63.8962,128.6
63.9001,663.2
63.9007,20.4
63.9074,730.2
63.9334,75.7
63.9595,159
64.0348,91.2
64.0383,78.5
64.0417,18.2
64.0519,245.6
64.0557,285.2
64.0703,95.1
64.0717,88.7
64.0736,584.9
64.0763,81.9
64.0847,127.6
64.0953,206.4
64.1054,488.7
64.132,159.2
64.1375,220.9
64.1577,292.5
64.1587,576.1
64.1698,15.3
64.1971,64.8
64.1995,359.1
64.2051,152.7
64.2129,344.8
64.225,20.7
64.2288,279.1
64.2646,657.2
64.2729,74.4
64.2853,18.7
64.3055,281.4
64.3077,273.4
64.3119,106.1
64.3125,167.4
64.3158,522.2
64.3358,289.5
64.3417,20.1
64.3649,249.8
64.3806,16.7
64.3892,16.8
64.4106,125.4
64.4114,461.8
64.4274,141.2
64.455,424.4
64.4659,161.2
64.4707,527.2
64.4749,215.9
64.4899,364.4
64.5102,190.7
64.5266,131.2
64.5377,19
64.541,240.5
64.5602,184.6
64.5741,345.7
64.5802,74.1
64.621,90.8
64.6301,308.3
64.6318,370.7
64.6568,750.3
64.6657,217.9
64.6762,122.9
64.6892,300.9
64.7218,659.6
64.7343,156.9
64.7391,230.4
64.7517,323.3
64.7763,723.9
64.7838,152.3
64.7968,231.3
64.8101,85
64.8163,19.3
64.8211,17.6
64.8429,191.2
64.844,16.4
64.8463,624.5
64.8503,165
64.8695,782.9
64.8751,107.1
64.9602,150.4
64.9695,217.3
64.9745,153.8
64.9837,88.3
64.9858,122.6
64.9874,19.2
65.027,281.3
65.0308,651.5
65.0366,59.5
65.0374,16.9
65.0416,14.8
65.0496,164.8
65.0624,268.3
65.0957,576.8
65.0977,295.7
65.1315,110
65.1335,404.6
65.181,132.7
65.2325,111.5
65.2673,88.2
65.284,226.5
65.2867,457.3
65.3004,288.1
65.3053,124.9
65.3121,124.7
65.3206,901.5
65.3337,101
65.3537,18.1
65.3659,844.6
65.3773,73.9
65.3842,580.8
65.3854,644.3
65.3907,929.8
65.3944,73.6
65.3978,90
65.3994,675.3
65.4123,15.9
65.4247,84.1
65.4265,65.2
65.4292,83.7
65.4436,270.2
65.457,195.3
65.4629,599.3
65.5052,84.4
65.5252,161.6
65.5323,80.4
65.5364,105.4
65.5426,77.8
65.5506,266.1
65.6078,155.1
65.6184,17.2
65.6218,115.5
65.6225,58.7
65.6354,227.8
65.6561,97.4
65.6601,120.9
65.6607,794.1
65.6972,394
65.72,78.9
65.7624,150.6
65.764,101.2
65.7692,112.6
65.7711,92.9
65.7713,85.3
65.7716,85.6
65.7733,92
65.7758,517.5
65.8227,186.5
65.8325,110.8
65.8506,336.7
65.8525,17.1
65.8598,86.2
65.8824,183.3
65.9254,333.3
65.9666,18
65.9735,337.2
65.9876,427.4
66.0033,220
66.0084,459.5
66.0125,288.7
66.0287,18
66.038,83.7
66.0821,58.6
66.0834,297.8
66.1118,261.6
66.1227,121.2
66.1236,299.8
66.1432,325.5
66.1439,57.6
66.2004,17.8
66.2071,20.7
66.2187,512
66.2266,148.5
66.2278,119
66.2407,84.1
66.2582,92.7
66.2672,132.4
66.277,400.8
66.2772,825.8
66.2774,763.5
66.295,20.2
66.3167,142.7
66.3446,121.5
66.3454,368.5
66.3467,59.5
66.3549,78.5
66.3588,634.6
66.3647,570.6
66.3693,203.7
66.4089,609.8
66.4147,573
66.4313,535
66.4382,385.9
66.4643,72.9
66.4678,679.5
66.4833,241
66.4849,578.8
66.4907,17.5
66.5002,17.9
66.5172,241.7
66.5243,155.4
66.5603,138.1
66.5619,16.4
66.565,171.1
66.5706,16.7
66.5889,193.8
66.5917,17.6
66.6121,93.1
66.6129,71.7
66.617,117.9
66.6248,96.9
66.6391,130.9
66.6445,1133.6
66.6673,365.8
66.6933,144
66.7074,99.5
66.7254,525.1
66.7264,160
66.7329,85.6
66.7453,148.8
66.7516,101.6
66.7613,263.3
66.7637,95
66.7678,330
66.7746,81.4
66.7754,103.3
66.7919,83.1
66.7932,20.4
66.8247,308.5
66.8296,282.2
66.8581,92.6
66.8689,97.5
66.8851,70.5
66.8873,220.2
66.8907,594.6
66.9041,247.1
66.9108,938.2
66.9217,17.3
66.9292,20.3
66.9385,19
66.958,118.6
66.9591,263.1
66.9598,147.5
66.9628,90.9
66.9646,85.1
66.9686,118.7
66.9896,397.9
66.9918,170.3
66.9989,285.5
66.9996,107.1
67.0049,75.4
67.0439,106.3
67.0539,86.8
67.0564,796.7
67.0599,443.3
67.0754,865.6
67.1129,1050.6
67.1162,55.2
67.1514,17.4
67.1579,212.5
67.1605,221.7
67.1636,155.3
67.1691,263.8
67.2054,356.1
67.2088,253.7
67.2145,18.3
67.218,195.2
67.2187,668.9
67.2194,18.6
67.2231,133.1
67.2292,553.1
67.2443,201
67.2504,99.3
67.253,206.1
67.269,16.8
67.2715,308.7
67.2828,281.5
67.3372,83.5
67.338,84.1
67.3446,500.8
67.3456,23.6
67.3498,303.7
67.3535,316
67.372,473.4
67.3793,350.9
67.3946,324.6
67.3965,436.3
67.4107,224.9
67.4167,580.5
67.4215,19.3
67.4395,157.4
67.4477,508.7
67.4735,98.3
67.4806,80.3
67.4854,367
67.5163,109.9
67.537,389.4
67.5394,269.5
67.551,761.7
67.5531,308.2
67.5673,20.8
67.582,578.5
67.5985,102.7
67.6096,101.8
67.6103,92.4
67.631,191.5
67.6753,284.2
67.6799,169.7
67.6874,360.1
67.6997,68.2
67.7071,58
67.7096,496.4
67.7208,152.5
67.7272,102.7
67.7333,449.2
67.7404,18.4
67.746,615.7
67.7474,253
67.8098,381.6
67.8207,59.8
67.8224,118.6
67.836,301.5
67.8384,103.1
67.8564,192.3
67.862,153.3
67.8898,333.3
67.9231,157.4
67.9304,800.6
67.9438,252.8
67.9468,81.6
67.9625,104.7
67.9639,77.9
67.973,16.2
67.9854,358.3
67.9874,846.1
67.9897,68.2
68.0334,101.7
68.0458,234.9
68.0497,230.3
68.0645,176.7
68.0832,573.6
68.1219,113
68.124,327.9
68.1377,134.4
68.1417,148.7
68.1778,101.8
68.1804,88.7
68.1955,436.6
68.2094,79.2
68.2172,136.2
68.2316,97.4
68.2326,76
68.2784,414.2
68.292,99.9
68.2941,168.5
68.3049,376.6
68.321,159.9
68.3221,17.7
68.3318,440.7
68.3422,283.4
68.3521,168.6
68.3794,324.7
68.3968,290.2
68.4349,103.6
68.451,147.3
68.4543,109.5
68.4555,429.2
68.4673,106.4
68.4798,893.5
68.4927,19.8
68.5307,630.1
68.5447,17.2
68.549,61.7
68.5494,333.8
68.5708,104.1
68.5736,175.2
68.5756,94.2
68.5816,118.9
68.5954,225.6
68.6017,16
68.6203,98.5
68.6301,18.4
68.6402,88
68.6438,55.3
68.6467,62.7
68.6481,176.3
68.6526,78.6
68.665,863.8
68.6687,64.2
68.6742,84.4
68.6777,234.9
68.6788,382.9
68.6943,166.8
68.7326,96.2
68.7341,91.2
68.7476,144.6
68.7529,216.2
68.7555,216.7
68.7576,88.1
68.759,656.7
68.785,18.5
68.7985,115.4
68.7999,124.9
68.8314,644
68.8621,228.5
68.8729,362.7
68.8842,17.6
68.888,189.9
68.9017,521.2
68.9156,185.3
68.9226,407.9
68.9238,90
68.9294,658.6
68.939,111
68.9441,396.4
68.9582,752.9
68.9591,461.4
68.9729,253.8
68.9779,223.4
69.0044,72.7
69.0123,70.1
69.0268,155.7
69.0386,115.8
69.0696,21.5
69.0799,133.9
69.0934,67
69.1031,575.3
69.1077,481.8
69.1085,154.8
69.1304,238.5
69.132,155.4
69.1457,404.8
69.1568,219.1
69.1912,341.6
69.1963,172.5
69.2064,727.1
69.2106,191.5
69.2261,60.3
69.2283,237.5
69.2349,17.8
69.2406,428.7
69.2444,21.2
69.2469,115.5
69.2576,109.2
69.2741,18.5
69.2887,833.1
69.2991,60.6
69.3161,90.3
69.3309,601.5
69.3347,389.5
69.3567,21.3
69.3667,63.9
69.371,20.1
69.3737,102
69.3759,20.1
69.4344,22.2
69.4402,83.4
69.4499,127.8
69.4535,262.9
69.4663,591.7
69.4912,275.3
69.4977,246.8
69.556,98.6
69.5749,101
69.5877,121.8
69.6028,73.6
69.6053,18.6
69.6175,476.7
69.6196,235.6
69.6341,957.2
69.6647,507.6
69.6881,108.7
69.6907,220.8
69.7011,15.8
69.7043,127.6
69.7179,87
69.7278,251
69.7286,246.3
69.7563,551.2
69.7738,848.8
69.7749,732.7
69.778,94
69.7792,365.6
69.784,93.3
69.8048,318.3
69.8087,222.1
69.8228,144.4
69.8271,211.7
69.849,19
69.8501,815.3
69.8687,21.4
69.8821,697.2
69.9196,669.1
69.9206,380.8
69.9296,87.3
69.9619,342.4
69.9645,90
69.9826,100.4
69.9923,139.4
70.0101,125.8
70.0123,88.1
70.0482,65.9
70.0511,57.7
70.0648,897.2
70.0822,163
70.0992,167.7
70.1213,226.1
70.1388,58.8
70.1435,162.3
70.1515,151.4
70.1747,19.6
70.2337,431.5
70.2383,147.4
70.2498,18.5
70.2679,686.8
70.3113,241.7
70.3314,175.9
70.3382,281.1
70.3415,137.1
70.3524,472.2
70.3684,137.4
70.3708,526.5
70.4092,119.2
70.4147,173.2
70.4692,267.3
70.5054,326.6
70.5095,92.3
70.5148,593.9
70.517,78.7
70.536,69.1
70.5815,80.3
70.6112,226.3
70.6285,103
70.6382,74.9
70.6595,304.9
70.7002,329.7
70.7204,74.5
70.7266,395
70.7395,203.2
70.7562,672.3
70.7613,544.3
70.7689,409.5
70.7924,193.5
70.7984,135.1
70.8003,123.1
70.815,352.2
70.8412,106.8
70.842,363.9
70.8597,102.6
70.8933,72.1
70.8943,117.4
70.8949,147.9
70.9055,114.4
70.927,148.8
70.9328,161.2
70.9404,200.9
70.9484,167.3
70.9517,64.5
70.9623,267.9
70.9672,144.6
70.972,103.7
70.9793,233.5
70.9802,488.2
70.9809,108.6
71.0017,73.5
71.0199,211.9
71.041,544.6
71.0412,570.2
71.069,263.9
71.0721,493.1
71.1027,409
71.1122,321.4
71.1165,19.4
71.1222,57.4
71.1362,110.4
71.1427,189.9
71.1446,84.9
71.1489,381.3
71.1501,582.9
71.1611,424
71.1747,618.9
71.2105,17.4
71.2148,108.8
71.2233,65.9
71.2381,78.5
71.2485,180.6
71.2613,196.8
71.2755,211.7
71.2758,205
71.3082,98.7
71.3093,374.7
71.3223,18.3
71.3227,179.5
71.3255,290.1
71.3297,541
71.3307,706.4
71.3416,208.9
71.349,102.6
71.356,117.5
71.3792,208
71.4066,81
71.4199,120.5
71.4257,112.2
71.4262,1184.9
71.4551,232.3
71.4827,164.6
71.5103,57.3
71.5302,301.2
71.5422,266.6
71.5588,533.3
71.5913,68.2
71.5974,163.1
71.6171,120.5
71.6214,17.9
71.6357,16.2
71.638,72.2
71.6412,664.2
71.6581,100.5
71.7171,194.4
71.7198,98
71.7471,107.3
71.7486,740.9
71.7608,496.5
71.778,99.4
71.8061,696
71.8076,644.9
71.8272,343.7
71.8486,624
71.8505,163.8
71.8559,99.7
71.9035,77.4
71.9285,494.6
71.9347,371.7
71.9517,484
71.9545,624.7
71.984,308.2
72.0189,192.6
72.0228,487.8
72.0333,138.8
72.0411,176.9
72.0424,70.1
72.0517,294.4
72.0519,283.5
72.0525,285.2
72.0539,16.8
72.0565,147.9
72.0577,80.4
72.0617,116
72.0636,587.7
72.0805,379.8
72.087,209.1
72.0888,267.5
72.0948,165.3
72.1042,71.7
72.1083,125
72.1101,495.3
72.1177,123.7
72.1487,117
72.1601,99
72.1703,79.4
72.1914,296.6
72.2075,490.3
72.2152,68.7
72.2171,82.2
72.2181,65.3
72.2192,199.2
72.2205,296
72.223,250.6
72.2246,610.5
72.2267,631.5
72.2273,811
72.2282,1297.6
72.2294,893.2
72.2297,783.9
72.2306,1910
72.2316,1063.1
72.2323,272.5
72.233,2433.3
72.2341,2295.1
72.2347,2658.1
72.2355,3197.4
72.2362,2758.2
72.2372,3293.4
72.238,3553
72.2387,2682.6
72.2396,2618.7
72.2402,2203.5
72.2406,2601.7
72.2411,3109.2
72.2422,3031.1
72.2434,3290.4
72.2443,1933.4
72.2449,872.1
72.2456,2090.5
72.2464,2448.6
72.2473,968.5
72.2491,2276.3
72.2507,424.4
72.2532,271.8
72.2643,161.9
72.2646,167.4
72.2873,220.9
72.3057,480.8
72.3123,109.7
72.3284,185.7
72.335,152.8
72.3516,111.6
72.3576,61.7
72.3986,20.6
72.4296,570.3
72.4476,64
72.4561,83.1
72.458,558.5
72.4674,87
72.4772,221.7
72.481,106.8
72.4838,73.3
72.5111,684.4
72.5427,16.5
72.5603,282.1
72.5606,331.5
72.5844,122.9
72.5933,328.1
72.6149,814.5
72.6166,16.9
72.6257,656.4
72.6357,435.8
72.6584,17.3
72.6832,84.6
72.7285,67.7
72.7595,273.2
72.7762,641.9
72.8056,103.4
72.8279,71.5
72.8411,79.8
72.8435,820.7
72.8503,72.6
72.8582,109.9
72.8746,73.5
72.8852,725.7
72.8874,683
72.905,17.3
72.9377,373.9
72.9395,599.8
72.9564,273.9
72.9659,66.2
72.9774,85.2
72.9858,70.2
72.992,176.4
72.9952,204.6
73.016,133.4
73.0234,141.6
73.0352,58.1
73.0561,16
73.0637,72.2
73.1008,121.3
73.1047,425.5
73.1111,18.4
73.1379,125.7
73.1514,93.4
73.2109,129.1
73.2151,661.8
73.2434,522.6
73.2759,546.3
73.2881,521.1
73.297,609.3
73.302,16.3
73.3166,90.8
73.3297,194.8
73.3443,111.2
73.367,367.5
73.3798,215.2
73.3849,111.3
73.3855,94.4
73.3941,882.7
73.4136,68.1
73.4512,86.9
73.4534,166
73.4675,58.3
73.469,655.8
73.4868,93
73.5084,122.3
73.5127,75.6
73.5161,114.4
73.5422,104.2
73.5557,336.7
73.5602,603.6
73.5641,120.2
73.5749,603.1
73.5761,913.4
73.5774,109.1
73.608,78.7
73.614,18.1
73.619,555.7
73.6515,15.3
73.6591,230.8
73.7032,110.4
73.706,103.4
73.7135,221.8
73.7191,18.2
73.7318,79.5
73.7348,119.5
73.7522,17.5
73.7719,100.5
73.8073,15.6
73.8091,111.9
73.8529,321.3
73.8583,61.1
73.8843,181
73.8874,74.4
73.9023,168.2
73.9323,319.8
73.9343,114.4
73.9356,213
73.9376,560.3
73.941,24.8
73.9586,56.2
73.964,235.1
73.9868,377.8
73.9952,129
74.0206,228.8
74.0345,120
74.0433,112.1
74.0598,5799.3
74.0677,160.6
74.074,16.6
74.0811,588.3
74.0909,120.2
74.1008,327.3
74.1083,78.4
74.11,189.8
74.1124,75.7
74.1189,793.5
74.123,14.9
74.1432,362.5
74.157,569.3
74.1628,781.4
74.1698,21
74.1709,169.8
74.1824,56.1
74.199,17.1
74.2083,120.2
74.2495,18.5
74.2864,235.2
74.3094,219.7
74.3375,330.9
74.3553,97.5
74.371,231.3
74.3756,177.1
74.4055,263.8
74.4069,94.5
74.4079,77.7
74.4086,234
74.41,18.9
74.4113,599.8
74.4281,184.4
74.4391,137.3
74.444,207.2
74.4547,153.5
74.4737,57.2
74.4759,878.1
74.4794,242.3
74.5084,176.7
74.5314,107.5
74.549,841.2
74.577,140.6
74.5995,338
74.6475,175.6
74.6593,214.8
74.6696,231.9
74.6823,573.6
74.7003,16.7
74.7166,186.1
74.7226,138.3
74.7493,404.9
74.758,15.8
74.7692,123.5
74.7775,210
74.7781,478.3
74.8094,110.3
74.8131,148.2
74.8215,174.5
74.8336,190.8
74.8474,168.3
74.8575,168.2
74.8714,157.5
74.8843,164.5
74.8877,97.4
74.8984,69.9
74.9038,457.3
74.9058,17.5
74.9086,92.8
74.9126,17.4
74.9177,122.3
74.9193,582.6
74.9395,140.9
74.9403,163.9
74.9552,427
74.968,124.5
74.977,338.3
74.9912,274.5
74.9977,539.7
75.0425,845.7
75.0481,433.2
75.0534,82.9
75.1041,138.1
75.1125,15.7
75.1369,100.5
75.1479,495.6
75.1522,386.1
75.1527,391.5
75.1698,349
75.183,17.3
75.2051,17.7
75.223,395.2
75.227,65.1
75.2426,18.7
75.266,17.3
75.2722,105.8
75.2752,85.6
75.2767,654
75.278,104
75.2799,659.2
75.2914,16.6
75.2937,137.4
75.3025,80.4
75.3038,564.5
75.3237,135.8
75.3249,17.6
75.3696,377.8
75.3881,90.1
75.4083,238.7
75.4149,98.2
75.4273,277.6
75.4347,126.9
75.4503,64.9
75.4574,680.7
75.5074,172.1
75.5113,371.9
75.5139,212.3
75.5535,70.3
75.5643,339.7
75.5858,354.5
75.6292,103.3
75.65,86.9
75.6526,407
75.6763,78.4
75.689,111.3
75.7105,101.5
75.7125,66.8
75.7237,178.7
75.7248,186.2
75.7292,538.7
75.7628,72.8
75.771,56.6
75.7742,384.2
75.7765,15.5
75.8077,133.3
75.8475,646.4
75.8485,293.2
75.8694,20
75.8747,298.1
75.8862,67.1
75.888,713
75.8882,730.1
75.9588,381.5
75.9618,192.8
75.9756,180.2
75.9768,131.7
75.9872,629.5
75.999,566.8
76.0134,199.4
76.0172,133.2
76.0331,616.8
76.0391,111.3
76.0757,128.3
76.0778,424.3
76.0884,484.9
76.0898,19.1
76.1166,103.7
76.1242,244.8
76.1504,320.3
76.1518,259.4
76.1736,538.1
76.1844,102.9
76.205,72.2
76.2172,147.6
76.2198,527
76.2519,84.8
76.2733,137.8
76.2768,289.1
76.3112,69.3
76.3289,17.3
76.3391,373
76.3524,170.3
76.3709,323.3
76.4128,648.7
76.425,699.5
76.426,60.4
76.4592,19.5
76.5089,591.4
76.5225,87.6
76.5291,97.6
76.5301,18.2
76.5323,126.7
76.5357,96.5
76.5629,798.6
76.5826,68.6
76.5842,177.6
76.5929,17.2
76.5941,16.8
76.6085,169.4
76.6128,81.8
76.6139,307
76.6149,572.4
76.6191,97.8
76.6297,931.8
76.6401,110.5
76.6505,655.3
76.6637,792.6
76.6693,17.9
76.6833,167.2
76.6841,127.9
76.7,89.8
76.7266,58.6
76.7752,323
76.8129,18.2
76.8381,90.9
76.852,16.4
76.8817,258.7
76.9225,69.3
76.9961,67.3
77.0024,153.1
77.0197,144.9
77.035,139.9
77.0383,122674.8
77.0661,129.1
77.0852,136.7
77.0964,529.5
77.0994,727.8
77.1108,17.4
77.2155,226.7
77.2174,118.7
77.227,695.6
77.246,102.7
77.2492,16.1
77.268,17.4
77.2877,104
77.2969,398
77.3061,111.4
77.3076,18.5
77.3096,69.2
77.3579,295.8
77.372,611.9
77.3878,71.4
77.3916,202.8
77.3968,220.3
77.3988,19
77.458,292.1
77.4759,71.3
77.5079,501.6
77.5445,185.7
77.5664,558.3
77.5985,87.3
77.6045,153.1
77.6129,66.8
77.6228,155.3
77.6265,84.6
77.6737,1006.7
77.6797,913
77.6988,130.5
77.713,18.4
77.7474,305
77.7625,639.8
77.7707,97.6
77.7942,201.4
77.812,812.7
77.8312,21.4
77.8442,297.7
77.8462,20.5
77.8585,15.5
77.8635,101.9
77.8899,141.1
77.9077,72.5
77.9147,347.1
77.9286,17.4
77.9357,74.9
77.9736,741.9
78.0076,881.1
78.0108,91.6
78.0193,16.8
78.0315,190.5
78.039,57.6
78.0417,4566.1
78.0444,82.6
78.0453,18.1
78.0615,97.1
78.0631,104.7
78.0687,82.6
78.1273,239.1
78.1649,876
78.1743,177.9
78.2175,97.1
78.2239,109.4
78.2414,379.8
78.246,19.5
78.2698,66
78.289,106.5
78.3003,175.2
78.3076,913.2
78.3136,15.6
78.3244,196.1
78.3729,516.9
78.3738,268
78.3894,79.3
78.3907,113.4
78.4564,88.9
78.4625,154.4
78.4748,866
78.4933,339
78.5202,107.5
78.5636,64.3
78.5696,617.9
78.5768,144.7
78.5883,363.1
78.5997,180.2
78.6202,562.2
78.6243,945.8
78.6979,163.3
78.7428,803.1
78.7766,129.1
78.7941,89.6
78.8526,76.1
78.8689,73.8
78.8976,253.3
78.8988,100.7
78.9281,274.6
78.9289,107.4
78.9297,20.1
78.9968,182.2
78.9997,76.3
79.0032,118
79.0241,538.8
79.0333,541.3
79.0353,323.5
79.0363,117
79.0382,326.2
79.0401,16.2
79.0418,90.7
79.0435,87.8
79.054,2039.2
79.0554,77.1
79.0724,105.9
79.0764,218.3
79.087,365.7
79.0956,72.9
79.1165,125.5
79.1341,194
79.1359,20.1
79.1367,558.4
79.1492,20.5
79.1516,18.1
79.1558,439.8
79.1643,97.4
79.1961,114.3
79.232,337.2
79.2405,18.6
79.3171,82.3
79.3268,249.5
79.345,19.8
79.3719,758.4
79.3875,172.1
79.3969,358.2
79.4181,419.8
79.4229,200.7
79.4277,113.3
79.4377,144.1
79.4641,343.5
79.4885,746.3
79.5351,88.9
79.5475,220.7
79.5573,68
79.6051,301.6
79.66,109.7
79.6609,114.1
79.6622,625.8
79.663,103.2
79.6713,119.3
79.6725,252.8
79.7021,346
79.71,71.6
79.7457,870.4
79.7869,147.8
79.8199,122.4
79.8333,70.6
79.8365,324
79.8809,777
79.8877,609.5
79.9077,107.3
79.9169,692.1
79.9213,136.4
79.9428,93.6
79.9799,144.2
79.9855,327.1
79.9952,77.3
80.0022,90
80.0346,213.4
80.0364,226.5
80.0444,103.7
80.0458,108.8
80.0624,17.8
80.0748,128.5
80.1309,646.8
80.1555,152.7
80.1569,60.4
80.1814,240.2
80.1969,593.9
80.2327,58.7
80.2444,375.1
80.2526,472.4
80.2858,171.8
80.2904,361.6
80.2928,165.5
80.3145,184
80.316,324.6
80.3424,628.1
80.3443,278
80.3858,525.8
80.3896,234.6
80.4071,126.7
80.4242,732.8
80.4388,547.2
80.4453,75.7
80.4959,202.2
80.5386,107.3
80.5477,17.9
80.5952,233.8
80.5995,101.2
80.6065,308.1
80.6476,380.5
80.6611,350.7
80.7065,126.9
80.708,16.5
80.734,607.4
80.7524,88
80.7701,76.6
80.7787,120
80.7973,59.7
80.8224,83.9
80.826,22.5
80.8311,64.5
80.8651,107.7
80.8816,412.1
80.9334,168.3
80.9359,611.3
80.9476,45254.4
80.9719,258.5
80.9821,88.2
80.9972,709.7
81.0031,67.5
81.0054,20.8
81.0095,93
81.0382,92.6
81.0697,2257.7
81.0807,140.6
81.1168,85.7
81.1397,1021.6
81.141,1038.6
81.1417,427.3
81.1424,1166.1
81.1433,175.6
81.1445,133.5
81.1456,192.9
81.1701,279.7
81.2438,117.3
81.2462,139.1
81.2513,87.7
81.2718,93.2
81.2725,228
81.2852,110.8
81.2868,98.3
81.3131,369.8
81.342,315.6
81.3953,15.4
81.4059,19.8
81.4183,166.8
81.425,92
81.4567,130.8
81.4744,323.5
81.5117,142.2
81.529,170.7
81.5428,404.8
81.5591,18.3
81.5719,387.2
81.5748,17.4
81.6021,119.7
81.6032,361.5
81.6039,115.5
81.6083,19.2
81.6119,104.1
81.6307,68.1
81.6379,97.2
81.6465,189.5
81.657,691.4
81.7041,72
81.7124,824.4
81.7195,559.5
81.7345,387.6
81.7545,183.7
81.7586,22.4
81.7596,106.7
81.8039,16.8
81.806,119.9
81.8177,17.5
81.8358,17.5
81.8367,68.4
81.8675,104
81.8682,114
81.8761,200.3
81.9385,81.8
81.9413,162.9
81.9418,203.1
81.9956,111.2
82.0091,115.4
82.0475,131.5
82.0715,71
82.0774,314.7
82.0891,66.9
82.1048,96.4
82.1071,59.5
82.1142,702.5
82.1146,573.3
82.1238,108.5
82.1293,150
82.138,616.5
82.1407,328.4
82.1678,300.6
82.1985,181.8
82.2018,719
82.2033,280.3
82.2065,662.3
82.2094,345
82.2123,451.4
82.2135,229.7
82.2273,208.7
82.234,535
82.2423,104.7
82.262,108.1
82.2849,505.4
82.2856,490.2
82.2869,118.3
82.2907,314.9
82.3086,89.1
82.364,295.9
82.3726,415.1
82.4233,17.5
82.427,79.6
82.4443,95.8
82.4633,214.7
82.4686,87.3
82.4701,21.4
82.5197,430.3
82.532,494.1
82.5351,104.4
82.5386,859.3
82.5485,107.5
82.555,122.6
82.5943,541.9
82.6205,364.8
82.6232,645.2
82.6325,98.7
82.6424,178.2
82.6955,65.1
82.7032,62
82.708,105.6
82.7217,373.2
82.7274,18.9
82.7537,57.1
82.7563,243.1
82.7658,375.4
82.7669,120.7
82.7732,141.8
82.7798,85.8
82.8175,182
82.8255,520.6
82.8552,15.9
82.8583,104.9
82.8674,19
82.8722,472.9
82.9008,425.2
82.9221,116.6
82.9262,417.7
82.9447,12122.5
82.9627,180.7
82.9963,445
83.0232,108.5
83.0361,263.8
83.0454,125.5
83.0484,189.7
83.0615,111.6
83.0853,22.5
83.0932,110.9
83.0993,265.2
83.1305,144.8
83.1514,157.4
83.1578,366.5
83.1594,15.5
83.1624,72
83.2218,221.5
83.2289,200.1
83.2694,310.6
83.2731,495.2
83.2856,19
83.2962,108.9
83.3014,309.1
83.3378,112.4
83.4001,15.6
83.4581,119.7
83.4703,137.2
83.5531,66.3
83.5584,114.4
83.5597,349.9
83.5633,124.8
83.6432,452.3
83.6473,558.5
83.6613,254.6
83.6645,120
83.6712,340.5
83.6778,56.9
83.6826,87.2
83.6932,654.8
83.696,16.4
83.7138,74.8
83.7332,298
83.7342,171.4
83.7602,16.6
83.7808,562.8
83.7951,16.1
83.8434,94.2
83.8552,609.7
83.8567,15.6
83.8597,394
83.888,168.9
83.9112,116.1
83.9261,83.2
83.9444,87.4
84.0039,737.7
84.0246,310.2
84.0321,320.5
84.039,64.2
84.0442,568.9
84.0468,95.9
84.0615,73.9
84.0629,17.8
84.0806,638.7
84.0832,598.4
84.0954,279.7
84.0995,599.4
84.1533,119.7
84.1655,95
84.1875,161.3
84.2003,105.2
84.2184,86.6
84.2347,134.7
84.2378,744.8
84.2526,614.5
84.3035,566.2
84.3147,70.4
84.3216,18.5
84.3242,109.3
84.3273,72.7
84.3398,127
84.3504,88.4
84.36,305.1
84.3897,60.4
84.3907,415.1
84.4321,356.8
84.443,357.4
84.4479,91
84.4554,151.9
84.4788,64.9
84.5375,554.3
84.5705,85.7
84.583,128.8
84.5844,381.5
84.605,110.6
84.6094,119
84.6263,79.9
84.6311,109.8
84.6317,17.5
84.6383,173
84.6477,412.2
84.6525,182.2
84.6528,179.9
84.6647,277.8
84.6668,102.5
84.6734,555.4
84.7291,84.6
84.7633,421.2
84.7886,269.8
84.7907,687.3
84.804,377.3
84.8072,17
84.8124,69.3
84.83,148.4
84.8374,223.6
84.8591,132.3
84.8652,97.1
84.8972,68.5
84.8993,72.6
84.9168,817.5
84.9212,68.4
84.9372,328.1
84.9467,119.8
84.9537,389
84.9595,23410.8
84.969,266.1
84.9972,110.3
85.0105,101.5
85.0173,500.4
85.0232,119.5
85.0282,4700.3
85.0338,350.3
85.0392,143.2
85.0546,62.8
85.0763,127.1
85.1678,415.5
85.1713,479.3
85.1821,582.9
85.1833,88.5
85.1856,88.3
85.2141,122.4
85.2239,191.1
85.2367,610.2
85.2388,108.8
85.269,108.2
85.2717,710
85.3063,307.5
85.3157,124.3
85.3184,385.7
85.3346,343.2
85.354,86.2
85.3558,356.4
85.3806,74.3
85.4124,91
85.4377,185.7
85.505,161.3
85.5152,700.6
85.5276,528.9
85.5308,371.6
85.5371,176.5
85.6089,316.6
85.6274,18.9
85.6373,210.1
85.6464,73.2
85.6495,83.2
85.6729,687.5
85.6923,89.7
85.6929,65.7
85.7224,501.4
85.7412,285.7
85.7797,932.1
85.7919,108.3
85.812,362.2
85.8167,115.2
85.8422,160.9
85.8774,100.6
85.8785,436.6
85.8827,126.6
85.8863,80.7
85.9007,68.2
85.9066,97.8
85.9631,795.8
85.9675,267.1
85.9709,17.7
85.9741,16.6
85.975,112.9
85.9788,153.1
85.9826,104.2
85.998,482.9
86.0299,201.7
86.0319,87.1
86.0361,161
86.0469,517.5
86.0506,151.2
86.0599,52846.4
86.0963,102285.2
86.1176,233.7
86.1308,184
86.1657,158.1
86.1675,90.8
86.1827,135.9
86.2094,103.6
86.2726,94.7
86.2776,319.4
86.2895,111.8
86.2943,611.4
86.3297,477.3
86.3371,502.8
86.3653,19.4
86.4342,348.7
86.4488,605.2
86.4806,184.4
86.4826,332.3
86.4928,196.2
86.4977,103.3
86.5094,70.7
86.5351,101.7
86.5626,89.3
86.5907,436.5
86.631,706.5
86.6376,76.8
86.652,76
86.7513,60.8
86.7553,87.7
86.7708,73.4
86.784,141.3
86.7913,701.2
86.7963,65.9
86.7998,17.4
86.8043,77.8
86.8181,95.7
86.8443,452.9
86.8546,300.1
86.8579,453.3
86.8659,99.9
86.8898,81.7
86.9001,360.9
87.0019,69.7
87.0501,19.2
87.0737,639.9
87.0983,165.2
87.0996,985.5
87.1065,209.2
87.1137,87.6
87.2215,352.3
87.2298,87.6
87.2321,76.7
87.243,88.4
87.2566,301
87.2585,140.6
87.2609,769.7
87.2802,190.6
87.2818,549.3
87.2928,124.2
87.2998,86.4
87.3158,18.1
87.3167,87.7
87.3206,365.4
87.3427,81.8
87.3531,112.7
87.3746,307.2
87.3954,118.8
87.4064,17.4
87.4094,165.4
87.4186,118.4
87.4415,369.2
87.5401,125
87.5433,18.3
87.5931,529
87.6341,107.4
87.6481,97.4
87.6553,109.1
87.6705,832.9
87.6739,182.2
87.6796,597.4
87.7067,106.9
87.7463,449.6
87.7499,140.7
87.7617,614
87.7672,16.8
87.7946,330.1
87.8031,354.7
87.8168,139.6
87.8204,65.9
87.8463,21.3
87.8783,16.2
87.916,74.2
87.9205,19
87.9347,197.1
87.9579,75.2
87.9965,325.4
88.0392,13917.8
88.0688,75.7
88.094,598.7
88.1376,63.1
88.1528,127.9
88.1966,137.6
88.2002,250.5
88.202,669.6
88.2127,84.2
88.2208,17.8
88.2358,88.9
88.2543,329.9
88.2633,847.1
88.269,210
88.3317,21.2
88.3568,345
88.4467,829.3
88.4656,16.6
88.4706,17.4
88.4807,196.9
88.4816,636.7
88.5168,65
88.5186,563
88.5413,566.9
88.5768,19.7
88.5782,208.8
88.6238,574.5
88.6265,156.7
88.6801,121.1
88.6826,465.8
88.7158,70.3
88.7563,158.1
88.769,200.2
88.7802,19.8
88.7964,133.8
88.8072,184.6
88.8143,224
88.844,291.4
88.8617,232
88.8686,119.7
88.8755,124.9
88.8812,93.2
88.8891,524.2
88.9159,18.9
88.9184,538.7
88.9382,95.5
88.9687,115.5
88.9765,267
88.9924,95.6
89.009,204.1
89.0225,202.1
89.0493,127.9
89.0679,107.5
89.0808,718.4
89.1217,254.9
89.1224,56.9
89.1495,158.1
89.1593,747.4
89.1656,182.4
89.1752,75
89.2753,75.9
89.2775,19.9
89.2902,381.2
89.309,139.2
89.3175,128.5
89.3417,71
89.3441,697.1
89.3488,374.8
89.3635,88.1
89.3722,94.2
89.3734,17.3
89.383,206.7
89.3852,445.6
89.39,794.2
89.4008,16.9
89.401,16.9
89.4045,364.8
89.415,146.1
89.4226,91
89.4715,168.7
89.4761,89.8
89.4887,487.5
89.5011,87.6
89.517,66.3
89.5394,136.3
89.5454,171.4
89.5517,362.2
89.5889,624
89.6126,304.3
89.6137,192.3
89.6486,185.1
89.6754,80.7
89.6836,110.9
89.6999,171.4
89.7167,133.3
89.7241,92.7
89.789,96.6
89.8042,91.6
89.8089,116.9
89.8259,375.6
89.8304,59.9
89.8813,104.2
89.9233,359.3
89.9281,127.7
89.9475,796
89.9707,21
89.9932,222.8
90.0561,725.9
90.0575,337.6
90.0907,91.5
90.0955,218.1
90.111,91.2
90.1157,89.4
90.1264,17.7
90.1287,818.6
90.1625,182
90.1684,111.4
90.2306,78.1
90.2428,384.8
90.2603,71.1
90.2629,151.8
90.2646,21.9
90.2672,18.3
90.2827,770.1
90.297,197.5
90.3084,593.6
90.312,107.4
90.3271,614.8
90.3487,81.5
90.355,112.6
90.375,19.5
90.4069,453.8
90.4156,499.7
90.4892,828.2
90.4923,204.5
90.5063,445.2
90.5185,18.9
90.522,16.8
90.6239,545.6
90.6288,453.9
90.6365,117
90.6379,271
90.6649,383.5
90.6753,15.8
90.717,63.2
90.7222,379.2
90.7262,781.8
90.7447,79
90.8073,355.5
90.8225,456.8
90.8261,203.5
90.8384,125.1
90.8407,359.7
90.8419,179.1
90.8892,79.8
90.8957,145.5
90.8985,96.8
90.9114,229
90.9276,17.7
90.945,591.9
90.9476,152.4
90.9598,417.3
90.97,757.8
90.9765,7609
90.9824,431.2
91.0081,249.4
91.0275,137.2
91.0321,106.9
91.0337,176.8
91.0541,1933.3
91.0804,127.9
91.1156,105.6
91.1233,401.4
91.1415,346.4
91.1598,72.8
91.1771,58.8
91.2165,184.2
91.2227,226.3
91.2248,310.7
91.2395,172.1
91.2731,100.9
91.3203,228.6
91.3207,270.5
91.3441,268.6
91.3797,538.8
91.3877,167.7
91.3911,242.3
91.4191,177
91.4469,796.4
91.4515,80.4
91.4543,245.2
91.5191,363.5
91.5219,299.8
91.5461,423.1
91.5477,17
91.6248,20.2
91.6273,623.2
91.6828,245.4
91.7136,672.4
91.7329,623.8
91.7855,648.1
91.8455,198.9
91.8975,310.1
91.9107,18.3
91.9222,123.4
91.9308,129.7
91.9318,333.1
91.9409,77.4
91.9759,485.3
91.9769,99.9
91.9912,110.2
92.0141,73.8
92.0221,74.7
92.0246,834.1
92.0322,397.4
92.0494,42.8
92.0515,125.7
92.0725,65.3
92.1313,126.7
92.1366,317.8
92.1432,547.6
92.1679,231.6
92.174,82.9
92.2036,93.7
92.2463,471.3
92.268,398.3
92.2783,192.2
92.2808,131.3
92.3007,111.2
92.3099,377.6
92.3291,473
92.355,94.3
92.4018,106.4
92.4253,73.8
92.4289,17.1
92.4376,624.6
92.4378,639.3
92.4382,501.5
92.4421,151.5
92.4454,444.5
92.4619,102.7
92.4745,19.7
92.4786,179.3
92.4923,630.7
92.5032,328
92.5038,99.9
92.512,362.4
92.5447,452.4
92.5461,259.9
92.5485,72.5
92.5598,78.6
92.5844,239.2
92.5857,332.5
92.6111,79.8
92.6283,341.6
92.6438,72.3
92.6652,113.3
92.6761,109.3
92.7166,657.4
92.7297,95.6
92.7335,196
92.753,499.4
92.7952,107.6
92.8013,149.4
92.8615,78.8
92.8678,514.4
92.8719,17.8
92.9014,887.2
92.9032,103.3
92.9411,753.9
92.9833,142.2
92.9903,339.6
93.0112,121.9
93.0126,602.2
93.0163,83.1
93.0571,19.8
93.0698,209.9
93.1128,19.4
93.1196,591.3
93.1334,124.9
93.152,71.3
93.1853,186.8
93.2044,74.9
93.2152,88.9
93.2737,331.5
93.2839,569.6
93.2854,774.7
93.3377,92.3
93.344,322.9
93.3805,82
93.3903,509.5
93.4134,19.7
93.4297,61.1
93.4417,19.5
93.4464,116.8
93.4721,125.9
93.4789,228.5
93.4837,310.4
93.4865,220.3
93.4905,74.1
93.4992,18.4
93.5242,687.6
93.5288,296.6
93.536,107.2
93.5671,156.5
93.586,587.9
93.5891,503.1
93.6001,93.7
93.6194,410.1
93.6319,94
93.6356,85.3
93.6563,93.2
93.6641,613.1
93.6846,204.8
93.6918,240.8
93.705,16.9
93.7392,86.6
93.7459,92.6
93.7563,18
93.7579,132.2
93.8333,17.6
93.8478,594.9
93.8743,307.3
93.8789,18.3
93.9221,370.7
93.9364,19
93.9385,351.3
93.9736,240.6
94.0154,166
94.0367,533
94.0412,69616
94.0422,34.7
94.0429,78.8
94.0466,633.8
94.0777,208.3
94.1129,167.4
94.1352,116.4
94.1721,16.7
94.1766,346
94.2049,15.5
94.2053,16.6
94.2241,348.1
94.2594,366.3
94.2603,320.8
94.2848,197
94.3213,93.4
94.3361,147
94.3466,572.2
94.3798,73.5
94.4081,238.1
94.4299,176.7
94.4439,117.1
94.4665,75.4
94.4794,651.4
94.4812,381.2
94.4998,75.6
94.502,259.3
94.5198,834.8
94.5331,115
94.5684,946.2
94.577,173.9
94.5827,85.8
94.6277,618.5
94.6371,108.8
94.6613,321.9
94.7099,479.1
94.7119,722
94.7223,206.4
94.7398,408.8
94.7547,422.1
94.7599,87.2
94.7977,223.4
94.8226,229.7
94.8243,16
94.8405,87.5
94.845,20.8
94.8769,305.3
94.9195,21
94.9201,116.4
94.9583,287.9
94.9681,114.1
94.9922,16.7
94.9952,76.5
95.0086,26.8
95.0186,310.4
95.0223,124.9
95.0445,2086.2
95.0468,106.1
95.0477,365.5
95.049,442976
95.0506,107.3
95.0516,39.9
95.0627,19.6
95.0664,324.9
95.0853,722.3
95.0893,43.7
95.1098,162.1
95.1318,631.6
95.1361,83.3
95.1632,130.9
95.1925,364.4
95.1995,18.4
95.2155,18
95.2308,611
95.2334,215.2
95.2418,135.3
95.2514,191.7
95.2746,318.1
95.2944,232.2
95.3219,438.3
95.3476,121.4
95.372,159.1
95.3869,314.5
95.4083,236
95.4202,88.6
95.506,81.1
95.5935,622.9
95.5969,202.6
95.6418,189.9
95.6685,91.9
95.6748,79.9
95.6943,417.5
95.7047,823.4
95.7467,84.6
95.7589,734.8
95.8198,561.5
95.8294,96.7
95.8389,513.8
95.8459,364.8
95.8616,237.9
95.8851,116.4
95.9248,178.1
95.9389,17.8
95.9442,113
95.9719,85.8
95.9773,714.8
95.9813,687.6
96.0449,682.8
96.0524,20481.7
96.0552,22.8
96.0687,121.8
96.0723,412.7
96.0743,16.9
96.1137,598.2
96.1286,75.4
96.1303,395.8
96.1511,80.4
96.1514,84.7
96.2019,152.1
96.2439,141
96.3831,852.2
96.3866,17.2
96.4111,543
96.428,200.3
96.4844,74.4
96.5025,810.7
96.519,280
96.5208,843.7
96.5227,19.5
96.526,21.8
96.5537,599.8
96.6309,104.3
96.6348,592.6
96.6485,720.5
96.6511,106.8
96.6536,84.1
96.6661,83.2
96.7162,105.5
96.7197,344.7
96.7265,212.1
96.7303,68.5
96.7322,125.1
96.7584,124.8
96.779,154.7
96.7814,377.1
96.7862,599.6
96.8339,98.8
96.8421,350.4
96.8718,482.6
96.8842,95.6
96.9217,134845.5
96.9266,17.1
96.9389,110.6
96.9517,132
96.9891,108.9
97.0063,564.9
97.0074,150.4
97.0087,604.1
97.0104,29.2
97.0173,19.1
97.0214,476.4
97.0533,50
97.0557,33.7
97.083,333.1
97.101,60.6
97.1157,510.7
97.1401,91.7
97.1613,20.6
97.1741,96.2
97.1947,184.2
97.2051,99.2
97.2388,302.4
97.2448,18.3
97.2594,105.5
97.2602,349.6
97.2844,145
97.31,118.9
97.3119,435.4
97.3565,249.5
97.3719,263.7
97.4309,87.5
97.4487,125
97.4669,242.6
97.4848,656.2
97.4883,178.4
97.5068,243.2
97.5273,301
97.5313,173.2
97.5367,99.7
97.5481,140.5
97.558,320.3
97.5805,182.2
97.6107,150.3
97.6197,108
97.7024,122.1
97.716,307
97.7174,81.2
97.7217,227
97.7229,20.9
97.7249,1064.3
97.7688,112.7
97.7738,187
97.8161,183.4
97.8693,504.2
97.871,181.6
97.8848,165.9
97.8904,188
97.9165,19.3
97.9224,112.8
97.9387,250.9
97.9518,286.1
97.9857,79.4
97.996,100.8
98.0214,96.5
98.0463,110.1
98.0837,27.3
98.094,115
98.0965,83.8
98.0988,92.3
98.186,75.4
98.2053,19.2
98.2343,18.2
98.2409,120.1
98.2486,136.7
98.2607,295.1
98.2884,413.5
98.2926,101.6
98.3302,57.8
98.334,102.9
98.3409,366.3
98.3532,345.6
98.3659,132
98.4351,132.5
98.438,107.4
98.4529,17.4
98.4831,79.1
98.4898,272.3
98.5034,188.3
98.5097,64.1
98.5487,702.2
98.55,264.1
98.5537,131.2
98.5569,363.5
98.5594,245.5
98.5664,79.3
98.584,77
98.6242,360.3
98.6403,155.9
98.6669,313.1
98.6684,269.4
98.6789,598.1
98.7392,108.9
98.7717,87.5
98.7822,270.7
98.8118,17
98.8703,349.3
98.8895,111.8
98.891,71.7
98.9187,36580.8
98.9198,4738.4
98.9259,163.5
98.956,851.2
98.9642,79.3
98.9752,14020.2
98.9841,165.6
98.9922,66.8
99.0047,122.1
99.0827,233.3
99.0969,53.6
99.0973,54.6
99.1583,332.2
99.1681,20.4
99.2037,193
99.2071,317.4
99.2104,75.6
99.2276,18
99.2455,567.4
99.2651,128.7
99.2927,348.7
99.4182,825.1
99.4254,17.6
99.4336,20.8
99.4351,117.7
99.4354,116.1
99.4358,120.7
99.4855,65.9
99.5351,89.6
99.5516,377.6
99.5594,96.3
99.5777,104.3
99.5899,273
99.5918,112.8
99.6011,247.5
99.6115,78.1
99.6372,78.9
99.6421,85.2
99.695,99.6
99.7251,96.2
99.7408,114.1
99.7893,757.5
99.815,109.4
99.8702,79
99.8922,18
99.8971,326.8
99.9036,559.5
99.934,79.3
99.9603,72.9
99.9623,134.5
99.9777,407.5
99.9958,175.4
99.9986,94.6
100.008,850.7
100.0199,515.2
100.0565,20
100.0664,17.7
100.087,21.5
100.238,83.9
100.2763,77.4
100.2938,91.1
100.3331,706.3
100.3842,878.1
100.3869,84.4
100.4537,336.4
100.476,346.6
100.478,111.8
100.495,144.5
100.4954,145.2
100.5164,17.6
100.5322,607.9
100.5646,552
100.5973,363.2
100.6032,183.1
100.6048,573.7
100.6578,675.7
100.7285,110.9
100.7834,167.6
100.7893,88.4
100.8,66.4
100.8676,138
100.8811,495.5
100.897,18.7
100.9013,93.4
100.9101,129.4
100.9149,310.3
100.9168,877.2
100.9485,281.8
100.951,18.4
100.9549,259.1
100.9915,165.2
101.0193,486.4
101.0207,219.2
101.0459,132.5
101.047,3716.1
101.0511,89.9
101.0581,732.4
101.0709,819.2
101.0832,200.6
101.0846,66
101.0992,101.2
101.1338,19.6
101.1687,150.7
101.1725,91
101.1875,17.5
101.2163,205
101.2678,110.8
101.2717,199.7
101.2732,100.4
101.2754,82.7
101.2913,299.2
101.3208,254
101.3292,356.1
101.3385,82.4
101.3441,219.8
101.3627,192.9
101.3655,90.1
101.3881,257.8
101.4764,115.9
101.5281,215.8
101.537,86.7
101.5391,382.8
101.5445,220.2
101.5607,97
101.5896,122
101.6446,363.5
101.6853,592.3
101.6889,127.8
101.7072,79.7
101.7269,196.6
101.7753,363.7
101.7855,97.3
101.7919,67
101.8069,19.6
101.8106,98.2
101.8218,295.9
101.8293,110.1
101.8507,18
101.855,124.7
101.8614,64.3
101.8655,271.2
101.9581,432.5
101.9613,706.7
101.9694,104.8
101.989,113.4
102.0047,574.3
102.0549,6815.6
102.0692,784.4
102.1013,82.8
102.1027,248.2
102.12,315.3
102.1278,102.6
102.1391,305.1
102.174,840.6
102.251,114.8
102.2725,273.3
102.3155,546.3
102.3293,67
102.4115,183.2
102.4132,18.6
102.4359,113.9
102.4473,141.4
102.4895,17.5
102.4977,505.2
102.5068,161.8
102.5367,104
102.565,312.6
102.5997,266.8
102.6545,105.1
102.6881,121.7
102.6985,111.2
102.7689,748.3
102.7705,130.7
102.7937,361.5
102.7947,111.4
102.8462,155.6
102.8508,89.4
102.8583,93.3
102.8613,360.3
102.9042,588.3
102.9124,143
102.9414,518
102.9702,573.3
102.9895,178.1
103.0125,87.9
103.0184,314.1
103.0293,574
103.0352,347.6
103.0484,678.5
103.0543,98.6
103.0671,150.4
103.1252,129.6
103.2204,186.2
103.2259,65.6
103.2525,67.4
103.2551,243.8
103.2756,163.9
103.3223,431.5
103.3326,232.2
103.3417,225.2
103.3539,152.3
103.3786,374.5
103.3914,820.9
103.4033,119.3
103.4075,80.1
103.4923,200
103.4969,214.3
103.5198,167
103.6,573.8
103.6017,281.6
103.6116,276.6
103.6232,114
103.7171,77.7
103.7324,342.5
103.7482,663.6
103.7514,76.2
103.7957,193.3
103.8161,186.2
103.8461,379.8
103.8569,212.6
103.8672,84.3
103.8734,426.9
103.88,139
103.8902,276.4
103.93,169.3
103.9336,666
103.9556,107.5
103.9771,380.5
103.9842,197.4
103.987,447.4
104.0087,219.1
104.0179,18.6
104.0416,590.9
104.0891,636.5
104.1069,513230.9
104.1308,153.2
104.1773,97.9
104.1916,153.9
104.2105,68.8
104.2225,351.7
104.2371,18.9
104.2526,193.5
104.2798,424.2
104.2812,16.1
104.282,193.4
104.2883,100.4
104.3019,114.2
104.3058,111.2
104.3109,86
104.3343,416
104.4264,90.6
104.4389,76.5
104.4461,259.5
104.4622,104.5
104.4687,111.2
104.4816,348.6
104.5191,66.8
104.5316,417.2
104.5401,145.5
104.5578,70.7
104.5629,65.8
104.5964,116.5
104.6066,236.1
104.6461,78.9
104.6476,111.4
104.6685,21.9
104.6814,375.3
104.7159,201.7
104.7271,621.9
104.7544,70.7
104.7832,88.5
104.8135,148.7
104.8236,820.6
104.8274,111.6
104.8425,19.2
104.852,218.5
104.9072,508.1
104.9224,184.4
104.9302,396.1
104.9632,262.4
104.9881,78.2
104.9923,1726.3
105.0146,19.8
105.0186,115.4
105.0446,40297.4
105.0651,122.8
105.0766,83.4
105.0808,74
105.1103,18746.2
105.1482,19.6
105.1547,539.1
105.1645,123.1
105.1692,116
105.1894,83.2
105.1971,78.3
105.2062,115.7
105.2237,21.3
105.2682,383.8
105.2876,59.4
105.3096,261.6
105.327,274.8
105.3472,352.2
105.3611,898.7
105.3684,63.1
105.3782,191
105.4056,294.9
105.4629,157.8
105.4851,132.8
105.4892,347.3
105.519,165
105.5476,522.4
105.5572,101.1
105.5782,700.8
105.5869,103.7
105.6002,452.2
105.6068,111
105.6619,223.9
105.6706,331.1
105.6899,76.9
105.699,56.7
105.7036,562.4
105.7045,120.8
105.706,104.9
105.7306,954.3
105.7341,160.6
105.7378,189.4
105.7873,155.1
105.8633,800.7
105.8737,134
105.8819,70.8
105.9233,79.5
105.9385,89.8
105.9429,83.2
105.9734,271.2
106.0046,716.4
106.0327,20
106.048,845.3
106.065,18.6
106.0675,111.7
106.1053,106.4
106.114,115.9
106.1406,175.8
106.1971,706.2
106.2466,17.7
106.2874,91.4
106.3034,63.6
106.3061,375.5
106.3302,359.6
106.3776,725
106.4144,109.5
106.4162,272.3
106.4562,571.6
106.5186,259.5
106.5277,154.6
106.5581,75.1
106.5698,698.4
106.6018,795.5
106.6035,149.7
106.6062,156.8
106.6474,300.8
106.6507,75.6
106.6526,119.3
106.7061,87
106.735,70.1
106.7361,67.1
106.7614,105.8
106.7779,159.6
106.7816,523.3
106.8853,333.2
106.8974,145.8
106.9051,17.4
106.9505,355.3
106.9766,96.3
106.9919,54.6
106.9936,86.6
107.0244,521.2
107.0282,104.7
107.0491,483.4
107.0854,30.5
107.109,451.2
107.1213,516.4
107.1243,138.7
107.1644,324.2
107.2199,21
107.2469,423.4
107.2613,237.2
107.2765,359.2
107.3049,650
107.3184,348.6
107.3325,137.8
107.3776,742.4
107.3875,106.5
107.3923,354
107.3981,112.4
107.406,134.5
107.4071,18.1
107.4131,167.8
107.4585,19.6
107.461,82.2
107.4728,66.7
107.4906,116.2
107.4928,194.4
107.4949,61.7
107.5041,107.2
107.5089,78.4
107.5545,89.6
107.6052,80.5
107.6085,107.4
107.6258,217.6
107.6635,178.7
107.7,121.1
107.7029,124.8
107.7342,143.1
107.7641,230.6
107.7871,160
107.7906,20
107.7923,351.3
107.8205,122
107.8456,18.7
107.8495,99.1
107.8615,136.4
107.8962,434.5
107.9131,215.9
107.9333,133.1
107.9359,119.4
107.9485,568
107.9721,229.9
107.9748,173.2
108.0203,189.5
108.0236,106.7
108.0297,157.5
108.0497,841.4
108.0632,73.9
108.0668,448.2
108.0933,157.4
108.1215,698.6
108.1477,321.4
108.1557,61.1
108.1901,60.1
108.2229,308.5
108.232,519.9
108.2926,65.9
108.3608,62.4
108.4061,558.1
108.4116,129.4
108.4272,83.7
108.4322,60
108.4463,243
108.4512,19.4
108.4546,72.3
108.4574,92.9
108.4941,120.3
108.5462,91
108.5636,198.4
108.5722,149
108.5815,427.4
108.5934,89.9
108.6369,167.8
108.6388,19.9
108.6491,70
108.6519,106.3
108.6816,106.9
108.685,64.3
108.7569,151.1
108.7644,559.4
108.7824,150.4
108.852,102.9
108.8598,629.4
108.8647,99.5
108.8871,254.9
108.911,432.9
108.9213,18.4
108.9453,266.2
109.0011,111.5
109.0108,136.8
109.0323,268.3
109.0484,121.3
109.0584,881
109.0647,77411.7
109.0668,71.7
109.0764,297.3
109.1012,384.2
109.1054,16.7
109.1331,131.3
109.1542,67.6
109.1829,364.9
109.1896,17.4
109.1922,17.1
109.215,65.4
109.2679,332.6
109.33,71.9
109.3498,109.5
109.4346,949.9
109.4394,662.9
109.4484,183.5
109.4712,16.8
109.4971,106.7
109.5027,345.7
109.5131,80.3
109.5295,82.4
109.547,16.3
109.5765,91
109.5972,84.2
109.6008,18.7
109.6484,651.1
109.685,438
109.7354,462.8
109.7451,85.3
109.761,166.7
109.7631,115.9
109.8014,68
109.8934,104.8
109.8957,170.1
109.8962,194.3
109.9136,21.6
109.9416,129
110.037,392.8
110.0434,850.9
110.0681,2953.2
110.0713,813
110.0762,18.3
110.109,164.3
110.1318,271.7
110.1427,698.6
110.1492,16.6
110.1547,500.2
110.1912,283.9
110.1969,68.6
110.1985,355.2
110.2066,311.1
110.2672,578.2
110.3034,436.9
110.3729,336.3
110.3928,705.1
110.4721,63.1
110.4778,21
110.4821,94.5
110.5484,16.7
110.5502,498.8
110.5594,20.5
110.5978,107.7
110.6264,107.3
110.6674,86.7
110.6716,219.8
110.6903,17.6
110.6999,129.7
110.7484,178.8
110.7689,121.4
110.8495,111.3
110.8684,154.5
110.8803,275.9
110.8894,126.7
110.9068,18.4
110.9284,580.2
110.9306,18.5
111.0094,113.3
111.0232,353.3
111.044,242.8
111.0513,69.2
111.0715,17.7
111.0851,238.4
111.1161,127.7
111.1285,107.2
111.1296,735.6
111.1468,213.5
111.2153,163.1
111.2217,595.3
111.2404,95.2
111.2421,122.4
111.2679,449.1
111.3068,74.5
111.3093,18
111.3175,561.2
111.3255,18.1
111.3654,69.6
111.3939,231.6
111.4053,210.4
111.4067,71.3
111.4342,220.6
111.5307,17.6
111.5827,20.6
111.6141,454
111.6456,409.9
111.6734,21.8
111.6968,19.4
111.7016,360.8
111.7132,439.9
111.7422,273.5
111.757,840.6
111.7619,574.6
111.8168,553.1
111.8225,134.2
111.8704,240.1
111.8927,18.2
111.9056,104.4
111.9494,145.9
112.033,150.6
112.0335,139.1
112.0545,133.2
112.0766,561.3
112.1362,117.5
112.1674,159.2
112.1925,355.8
112.2358,198.2
112.2832,356.7
112.2903,57
112.2931,1170.1
112.3168,356.8
112.3543,347.5
112.3636,114.1
112.3894,125.7
112.4691,315.9
112.4895,233.8
112.4963,163
112.5031,80.8
112.5299,995.5
112.5409,573.6
112.5476,351.5
112.5525,113.9
112.6095,123.3
112.6193,254.2
112.7017,67.5
112.7095,551.4
112.7344,801.1
112.7416,183.2
112.7526,121.8
112.8465,19.8
112.8957,369507
112.8982,599.5
112.9245,64.6
112.9423,612.5
112.9678,18.5
112.9701,243.1
112.9897,322.9
112.9937,131.6
112.9952,90.2
113.0038,115.4
113.0683,213.4
113.0748,501.2
113.0762,1045.4
113.1035,186.1
113.1073,18.7
113.1174,161.6
113.1188,128.9
113.1285,186.7
113.1662,89.7
113.1751,308.4
113.1932,343
113.236,105.1
113.2449,19.1
113.2535,889.8
113.2783,97.5
113.3087,18.9
113.3107,687.4
113.3161,361.8
113.3439,315.5
113.3491,121.5
113.3687,453.6
113.4016,158.5
113.4818,639
113.4896,232.9
113.4948,374.8
113.5697,106.7
113.5936,428.4
113.5951,17.2
113.7263,20.9
113.7306,249.6
113.7435,465.3
113.7598,78.4
113.8354,91.7
113.8367,84.2
113.8537,290.3
113.8588,233.4
113.8839,457.8
113.9024,175.5
113.9103,67.4
113.9182,18.5
114.0111,511.6
114.0442,164.9
114.0549,79713.9
114.0661,424.1
114.1573,174.3
114.1689,144.6
114.1841,238
114.1966,642.6
114.2233,86.9
114.2399,242.7
114.2598,95.7
114.2646,312.7
114.2666,92
114.3471,586
114.48,144.8
114.5062,90.7
114.5081,91
114.5162,22
114.5393,680.5
114.5484,273.6
114.593,72.8
114.5945,244.5
114.6079,133.3
114.6165,83.4
114.6288,433.9
114.7331,624
114.7565,84
114.7662,659.2
114.7688,618.8
114.7746,66.2
114.792,71.2
114.7977,111.6
114.8599,370.9
114.8928,112194.6
114.9131,75.8
114.948,18.1
114.9979,99.6
115.0542,505.6
115.0583,2015.4
115.1137,19.7
115.1162,57.8
115.1229,139.3
115.1241,149.1
115.1293,110.6
115.179,70
115.1969,131.4
115.2525,166.8
115.2879,61.2
115.3063,361.7
115.352,329.1
115.3546,143
115.3699,107
115.4291,420.8
115.4329,249.3
115.4438,18.4
115.4514,200
115.5287,209.2
115.6411,131.1
115.7606,619.9
115.7751,85.7
115.7948,220.1
115.832,77.1
115.8405,302
115.891,99.4
115.9241,541
115.9541,237.5
115.9792,20.6
116.0135,77.2
116.021,492.4
116.0635,79.5
116.0706,3608.9
116.0807,327.4
116.0886,216
116.115,283.5
116.1264,77.3
116.1401,18.6
116.1468,134.6
116.1481,360.6
116.1762,104.6
116.2095,449.8
116.2431,17.4
116.2654,92.9
116.2816,427.5
116.3093,127.6
116.4057,201.8
116.4089,103.2
116.441,583.5
116.4507,89.4
116.4577,198.2
116.478,84.1
116.487,20.2
116.5079,230.6
116.5377,237.4
116.5442,341.9
116.6083,18.6
116.6856,136.8
116.7057,235.5
116.7579,191.7
116.7604,80.4
116.7752,77.9
116.7867,89.3
116.8023,354.6
116.832,20.2
116.8342,88.6
116.8396,166.4
116.8909,12990.1
116.9165,86.1
116.9476,82.6
116.9859,1275.7
116.9925,127.9
116.9972,538
117.0234,279
117.0832,155
117.087,72.9
117.0944,320.3
117.1293,256.9
117.1801,103.2
117.1858,102.7
117.225,71.9
117.2409,433.8
117.2502,444.3
117.331,793.4
117.3383,73
117.3484,93
117.3731,134.9
117.4127,110.4
117.4281,655.8
117.4375,175.8
117.4472,594.4
117.5642,305.6
117.6116,227.3
117.6337,253.3
117.6479,79.5
117.6679,353.9
117.7177,135.6
117.7213,73.3
117.7382,690.2
117.7499,578.1
117.8085,541.2
117.8562,76.4
117.8958,221.1
117.9297,284.3
117.9405,200.9
117.9507,18.8
117.99,117.3
118.0075,100.4
118.0319,225.4
118.04,212.4
118.0484,360.3
118.0652,179.9
118.1069,77.5
118.1794,369.5
118.2365,344.6
118.2398,471.2
118.242,88
118.3224,866.1
118.3297,330.7
118.3476,239
118.3763,166.8
118.3797,225.1
118.4125,176.9
118.4177,79.8
118.4211,202.5
118.4288,308.8
118.4692,197.7
118.4757,355.6
118.488,131.7
118.5078,344.8
118.5144,90.4
118.5444,864
118.5629,287.2
118.5661,230.2
118.619,341.8
118.6228,507.7
118.6266,640.2
118.6388,61.8
118.6481,358
118.6607,272.9
118.664,17.6
118.6806,677.1
118.6943,801.6
118.7056,126.9
118.7473,116.4
118.7503,17.3
118.7698,127.1
118.7728,115.2
118.7811,128.7
118.8174,274.6
118.8197,635.7
118.856,123
118.9274,99.8
118.9789,22.3
118.9936,19
119.0124,347.1
119.0195,119.3
119.0255,120.6
119.0855,19.6
119.1268,76.8
119.1494,65.7
119.1516,111.2
119.285,321.8
119.4426,392.7
119.4488,94.9
119.4535,69.3
119.498,96.5
119.5348,75.1
119.5717,123
119.5999,413.7
119.6072,86.4
119.6314,501
119.6796,391.3
119.7338,155.6
119.7383,791
119.7651,521.6
119.8134,830.4
119.8566,105.2
119.8754,119.4
119.8825,94
119.9438,238.6
120.0032,3466.5
120.0807,11556
120.1408,22
120.1741,91.5
120.1792,97.1
120.2241,535.8
120.2607,345.1
120.2679,246.2
120.3392,186.1
120.3709,17.6
120.3997,849.6
120.4101,125
120.437,378.1
120.4559,987.5
120.4639,164.1
120.4769,552.2
120.4831,192.9
120.5096,96
120.5155,217.5
120.6589,130
120.7019,60.6
120.7971,80.7
120.8233,610.2
120.8495,76.4
120.869,20.8
120.8703,245
120.9672,79
120.9808,128.8
120.9919,165.5
121.0076,407.7
121.0138,1010.7
121.0208,269.1
121.0284,484.1
121.0397,50.2
121.064,218.5
121.1216,227.4
121.1642,773
121.2038,87.3
121.2195,550.7
121.2501,322
121.3468,19
121.4506,70.8
121.4754,414.3
121.4816,93.4
121.5129,93.9
121.5283,56.2
121.5816,524.9
121.6372,69.7
121.6618,209.4
121.682,83.8
121.7284,128.2
121.7372,69.7
121.7539,750.5
121.7927,220.9
121.7961,389.1
121.7998,91.5
121.8066,208.3
121.8362,189.3
121.9406,329.4
121.9851,98.7
121.9914,425
121.997,217.3
122.0016,18.6
122.0222,480.7
122.0432,199.2
122.0543,233.5
122.1207,192
122.1297,161.8
122.1359,732.2
122.1468,343.3
122.1502,96.3
122.1643,79.3
122.188,187.9
122.1948,66.5
122.2478,96.7
122.2762,76.9
122.3208,114.5
122.3461,18.8
122.3599,53.3
122.3756,788.3
122.3983,203
122.4289,593.7
122.4431,247
122.4977,120.7
122.533,85.6
122.6138,358.5
122.6389,103.2
122.6874,185.5
122.7565,17.4
122.7675,17.3
122.7717,75.1
122.8827,116.2
122.9245,18647.7
122.9369,124.3
122.939,348.4
122.9555,208.1
122.9568,161.4
122.962,213.1
123.0322,301.2
123.0416,257.1
123.0651,173.6
123.0687,19
123.0835,121
123.1078,178.5
123.1282,121.9
123.1378,292.8
123.1424,71.9
123.1539,341.3
123.1718,380.1
123.1824,65.5
123.1849,87.5
123.2063,22.2
123.2139,126.9
123.2363,305.6
123.311,578.1
123.3426,669.9
123.3434,315.8
123.3578,335.2
123.3645,114.6
123.3772,17.8
123.3864,133
123.3904,86.8
123.4029,334.6
123.4046,315.8
123.4376,631.7
123.4832,184.8
123.4868,130.2
123.5069,17.8
123.549,77.3
123.6099,555.9
123.6798,533.1
123.7066,345
123.7146,95.1
123.7384,71.5
123.7393,70.7
123.7404,18.1
123.7916,72.3
123.8618,238.1
123.8823,77.7
123.996,148.7
124.0105,20.5
124.0301,652.9
124.0626,123.4
124.0976,250.6
124.2433,17.9
124.2723,289.8
124.3017,115.3
124.3044,90.7
124.3171,141.8
124.3311,61.3
124.3463,116.4
124.3711,146.3
124.444,153.4
124.4707,18.1
124.492,434.4
124.4932,85.5
124.5048,114.9
124.5518,19.7
124.5967,118.9
124.6037,754.6
124.6611,111.6
124.6689,63.6
124.6826,200.8
124.7649,98.4
124.771,324.1
124.7768,145.3
124.8007,126
124.8069,138
124.8826,87.6
124.9226,774.7
124.9356,636.5
124.9664,77.9
124.9686,83.7
124.9998,7371.1
125.0041,1489.6
125.0329,17
125.0391,628.5
125.0528,17
125.0597,58.5
125.0646,110.6
125.0823,64.2
125.1074,106
125.112,324.9
125.1707,58.2
125.1997,233.8
125.2151,69.1
125.2273,162.6
125.351,622.6
125.3602,73.6
125.3749,577
125.4058,460.1
125.4311,112
125.4334,283.6
125.4886,100.2
125.5597,17.8
125.585,206.3
125.6083,166.8
125.645,639.3
125.652,66.1
125.6753,81
125.6803,422.2
125.7033,108.4
125.7095,107.3
125.7226,60.1
125.7371,324.5
125.8405,18.1
125.8744,90.7
125.8767,195.2
125.8962,108.8
125.9197,209.1
125.9587,196.8
125.9779,17.2
125.9989,223.4
126.0089,17.5
126.0243,184.1
126.177,300.5
126.1791,147.1
126.3063,18.8
126.3215,353.3
126.3507,102.7
126.3544,194.7
126.3847,90.1
126.5251,88.3
126.5337,182.7
126.5356,742.1
126.5499,837.5
126.555,115.7
126.5703,94.7
126.5788,376.7
126.592,348.6
126.6185,18.4
126.6228,179.9
126.705,186
126.735,197
126.7767,417.2
126.7789,867.4
126.8345,156.4
126.8496,115
126.892,142
126.9256,160.3
126.9295,151
126.9391,747.6
127.0288,108.1
127.0339,102
127.0478,119.2
127.0558,191.1
127.1316,140.3
127.1588,88.6
127.2092,96.7
127.236,151.1
127.2936,156.3
127.3443,131.3
127.361,513.6
127.3699,79.2
127.3963,627.7
127.4231,19
127.5254,334.2
127.5367,118.7
127.6,131
127.6264,18.6
127.6468,64.6
127.6622,92.7
127.676,630.8
127.7298,160
127.7348,599.1
127.763,22.5
127.7939,73.3
127.8405,192.2
127.8605,81.6
127.9078,262.8
127.92,268.1
128.0382,96.3
128.0422,348.3
128.0448,203.8
128.0455,211
128.0487,167.9
128.0592,96.5
128.0949,85.5
128.1426,216.2
128.1601,62.7
128.1749,79.3
128.2052,516.6
128.2403,448.6
128.2671,327.6
128.303,110.2
128.3055,17.6
128.3221,253.1
128.3622,621.7
128.3766,350.3
128.4077,324.5
128.4312,281.9
128.4714,89.6
128.5296,170.9
128.5459,92.6
128.6018,522.4
128.6322,19.4
128.6675,205.9
128.6853,139.6
128.7002,414.8
128.7633,86.1
128.7713,875.7
128.7867,109.4
128.8086,491.9
128.8307,18.1
128.8966,216
128.9414,169.9
128.9431,19.8
128.9933,318
129.0539,89.8
129.0662,145.8
129.0733,144.7
129.1877,118
129.189,397
129.217,20.6
129.2532,450.6
129.2641,159.5
129.2825,436.8
129.288,60.1
129.3255,714.4
129.337,76.8
129.3769,353.7
129.458,80.8
129.5093,375.9
129.5129,244.8
129.5198,105.1
129.5458,337
129.5936,468.6
129.5998,96.6
129.684,714.4
129.6938,542.7
129.7507,670.9
129.8129,358.1
129.8179,86.1
129.8419,93
129.8709,68.8
129.8927,17.7
129.9386,192.3
129.9574,19.5
129.9952,123.8
130.0089,71.8
130.0138,135.4
130.0499,4792.7
130.1364,58.3
130.1444,584.4
130.1846,319.7
130.2384,168.9
130.2431,105.3
130.2698,452.5
130.3012,797.3
130.3057,288.4
130.3266,534.7
130.3297,88.4
130.3384,646.8
130.3449,119.1
130.3786,215.1
130.4355,182.7
130.4799,526
130.5117,17.7
130.5671,108.9
130.581,71.7
130.6524,110.9
130.6706,128.1
130.7033,101.9
130.7403,96.9
130.821,179
130.8835,92.1
130.9103,109.5
130.9539,89.2
130.9695,84
130.9925,331.8
131.0015,648.1
131.004,812.6
131.0192,253.5
131.1456,336.6
131.2777,278.3
131.286,334.6
131.3474,19.8
131.352,26.4
131.3695,55.9
131.4769,96.9
131.5385,195.6
131.5398,22
131.5567,311.5
131.5884,135.9
131.6379,299.6
131.7612,124.9
131.8276,115
131.8487,92.3
131.8542,826.3
131.8884,205.8
131.9001,200
131.9313,336.2
131.9333,127.9
131.9986,136.3
132.0032,24866.6
132.0574,103.1
132.0655,140048.6
132.0768,123.7
132.1865,201.9
132.1872,191.4
132.1901,99.1
132.2177,88.8
132.2539,345.8
132.2834,107.9
132.285,114.5
132.3067,17.7
132.3984,134
132.4263,390.3
132.4761,589.2
132.5774,386.2
132.5915,80.7
132.6128,352.4
132.6186,573.4
132.691,79.9
132.7587,102
132.7942,79.6
132.831,616.4
132.8469,165.5
132.9027,25.7
132.9157,198.4
132.921,140.3
132.9473,200.9
132.9585,18.4
132.9872,1531.2
133.0689,4954.3
133.0856,22.5
133.0972,16105.9
133.1031,18.1
133.1266,179.9
133.2137,219.5
133.2238,119.7
133.2461,556.5
133.4207,381.8
133.4452,212.8
133.48,431.8
133.6542,148.1
133.7069,619.9
133.7103,281.7
133.7953,18.2
133.8425,188.7
133.8599,351.5
133.9261,568.3
133.9674,69.3
133.9843,262.5
133.9863,23.3
134.0189,11625.1
134.0215,324.1
134.0303,246.4
134.0388,722.5
134.0437,169.9
134.0704,81.3
134.0814,350.9
134.0998,486.7
134.1852,445
134.2071,441.8
134.2665,251.2
134.2761,126.5
134.3367,114.7
134.3443,63
134.3731,131.2
134.409,100.8
134.4131,54.6
134.4255,319.3
134.454,223.7
134.4742,132.6
134.5277,281.3
134.5749,571.9
134.6194,165.4
134.6303,83.8
134.6516,205.3
134.6586,311.3
134.7056,18.5
134.7323,361.8
134.753,532.6
134.7561,93.6
134.766,132.4
134.7941,119.2
134.8346,112
134.8565,90.8
134.8831,229
134.8887,87
134.9035,496.3
134.9239,257.4
134.9311,81.1
134.9667,80.3
134.9864,248.6
134.9965,42.3
135.0029,83360
135.0366,668.5
135.0916,190.3
135.1125,724.9
135.1168,65.7
135.1231,165.6
135.1289,66.5
135.1372,66.8
135.1705,118.9
135.1788,82.5
135.2463,554.1
135.2831,17.6
135.2995,111.9
135.3036,234.8
135.324,381.1
135.344,79.1
135.363,103.2
135.4066,204.7
135.4177,195.1
135.4556,100.9
135.4684,356.1
135.4933,21.1
135.5525,82.9
135.5617,213.2
135.6829,720.8
135.7527,112.8
135.8063,604.3
135.847,376
135.9018,208.5
135.9221,145.2
135.9772,2695.3
136.0063,1736
136.0482,6776.2
136.0617,142
136.0757,7383.3
136.0993,223.4
136.1758,104.7
136.2443,442.7
136.2765,62.5
136.3089,332.9
136.3898,106.3
136.4889,579.6
136.4946,143.5
136.6451,19.2
136.6868,346.1
136.6959,84.4
136.7033,341.6
136.7553,82
136.7591,117.7
136.7692,58.3
136.7879,89.5
136.8255,169.4
136.9262,63.5
136.9311,874.4
137.0036,20.6
137.2105,19.9
137.2146,21.8
137.2188,101.4
137.2763,645.2
137.2803,183.4
137.2825,120.2
137.3112,82.2
137.4183,713.7
137.4476,92.3
137.4907,328.1
137.5347,141.4
137.5639,137.5
137.6218,75
137.6819,847.1
137.6968,203.2
137.7285,116.1
137.7494,199.2
137.7603,152.8
137.7681,227.1
137.8202,17.3
137.8495,117.1
137.8886,158.2
137.9592,98.9
138.0101,18.6
138.0311,95.5
138.0526,6632.9
138.0662,40
138.1077,634.4
138.1353,193.3
138.1559,436
138.1825,103.3
138.1884,198.8
138.2064,428.8
138.2166,282.4
138.228,529
138.2325,181.4
138.2487,71.6
138.2824,309
138.3093,420.1
138.3306,169.2
138.3493,329
138.4895,389.5
138.5226,639
138.6423,87.8
138.6506,689.3
138.6531,67.7
138.6599,79.8
138.6647,381.5
138.6809,85.4
138.689,106.5
138.6949,155.9
138.7543,19.5
138.7799,439
138.7815,101.4
138.8108,724.5
138.8481,214.3
138.8917,18.1
138.8982,133.8
138.9064,2591.9
138.92,190.1
138.9282,542.6
138.9634,808.3
139.0002,109.5
139.0331,267.3
139.0609,121.8
139.0733,470.9
139.0749,1010.5
139.0974,189.6
139.1871,20.5
139.2044,97.6
139.2763,174.2
139.2894,120.1
139.2918,437.5
139.3813,95.4
139.4135,97.6
139.472,559.8
139.4841,20
139.5201,145.1
139.5421,625.6
139.5648,81.5
139.6673,189.9
139.7296,16.4
139.7466,767.2
139.75,73.4
139.9086,394.5
139.9378,328.3
139.9717,180.5
140.0165,960.7
140.0302,160.3
140.0683,2134.6
140.1033,563.6
140.1059,161.3
140.2947,123.2
140.3163,307.4
140.3519,280.6
140.3708,738
140.4794,171.1
140.498,163.8
140.5206,315.3
140.5358,77.8
140.5385,339.7
140.6243,89
140.6941,632.3
140.7134,136.8
140.7814,20.5
140.7954,126.2
140.8425,810.3
140.8543,89.8
140.9036,1006.8
140.9213,768.2
140.937,699.1
140.9561,910.2
140.9768,71
140.983,81.5
141.0005,19562.2
141.0434,606.6
141.0722,697.8
141.1182,67.5
141.127,140.8
141.1393,234
141.1443,575
141.2316,81.9
141.2514,88.9
141.2791,642.7
141.3265,792.9
141.3432,619.8
141.4414,92.5
141.4466,106.6
141.5375,565.2
141.5406,208.5
141.5518,86
141.6099,25.2
141.6403,80.3
141.6434,470.1
141.6584,64.8
141.6656,348.4
141.689,670.2
141.7103,670.7
141.8198,114.7
141.8452,421
141.858,181.9
141.8777,247.4
141.8831,122.2
141.9127,57.5
141.924,148.6
141.9349,531.5
141.9635,71.1
142.0008,128.3
142.0039,417.6
142.0474,940
142.0502,104.4
142.0629,726.1
142.0643,583.4
142.068,114
142.0737,93.6
142.0787,294.6
142.1009,95.4
142.1577,155.5
142.1585,154.6
142.1663,140.3
142.2037,117.8
142.2994,18.8
142.3178,119.3
142.3489,61.7
142.3749,796.7
142.4095,123
142.4275,349.3
142.4651,667
142.4702,109.6
142.4963,21.4
142.5053,135
142.5203,776.9
142.5887,122.5
142.5925,117.9
142.6257,474.1
142.6296,108.9
142.6334,77.5
142.6691,568.3
142.6873,69.3
142.6907,444.4
142.7086,238.4
142.7648,61.3
142.8077,127.6
142.8368,732.5
142.845,948.2
142.8582,337.7
142.8766,426.3
142.9373,132.3
142.9761,183.6
142.9963,300.5
143.0189,1988.5
143.0816,602.8
143.1014,636.4
143.1059,851.7
143.1207,118.6
143.1595,122.8
143.1965,104.2
143.2205,18.1
143.2298,112.7
143.2408,226.9
143.2603,502.3
143.2689,17.1
143.2753,81.5
143.291,130.1
143.3586,110.9
143.4038,118.9
143.4383,202.2
143.4987,18
143.5197,112.3
143.6003,646.5
143.6308,717.8
143.6572,87.1
143.6801,91
143.6886,957.5
143.7244,161.3
143.7354,239.6
143.7797,83.7
143.7949,172.4
143.8859,113
143.9167,71
143.965,190.5
144.0433,562
144.0454,358.4
144.0479,183.8
144.0631,32.8
144.1124,76.6
144.1453,387.3
144.2577,22.8
144.2614,372
144.2832,321.4
144.3156,174.6
144.3255,316.8
144.3317,148.8
144.3519,142.4
144.3597,19
144.3665,759.6
144.3726,96.8
144.3827,17
144.3959,75.6
144.4477,132.5
144.5604,22.1
144.6028,360.9
144.6129,453.2
144.6809,120.8
144.7996,140.7
144.8844,388.1
144.969,115.3
144.9752,70.1
144.9809,2972
145.057,231.7
145.0971,129.3
145.1059,358.6
145.1118,184.3
145.1279,126.4
145.144,252.5
145.1485,61.6
145.1731,603.7
145.2268,939.6
145.3012,66
145.303,215.6
145.3415,360.2
145.3576,321.2
145.3643,238.2
145.4218,266.3
145.4235,363.3
145.5235,354.4
145.5491,139.7
145.5703,569.7
145.7659,111.7
145.7789,21.6
145.8389,194.1
145.8503,548.8
145.9002,18.8
145.9056,122.7
145.957,385.1
145.9652,431
145.9687,407.5
145.984,193.8
146.0125,4234
146.0189,18504.7
146.0445,41.6
146.0623,18.8
146.1461,18.3
146.2121,18.6
146.3084,17.3
146.3495,579.4
146.3568,109.9
146.401,165.5
146.4079,212.7
146.5447,353.8
146.5717,77.2
146.6587,389.5
146.6841,120.8
146.6966,690.4
146.7011,173.7
146.7142,88.2
146.7359,469.7
146.7913,119.8
146.914,763.7
146.9819,109647.9
146.9998,119.1
147.0642,20.5
147.0739,802.2
147.0765,46598.1
147.0874,123.7
147.1129,26196.1
147.1169,684
147.1719,101.9
147.1962,66.7
147.1976,67.2
147.2191,67.6
147.23,74.9
147.2337,63.7
147.3089,371
147.3221,206.3
147.3356,601
147.3673,178.2
147.3867,384.1
147.4542,20.9
147.4806,156.5
147.4878,70.6
147.496,150.8
147.4971,156.3
147.5947,550
147.6264,590.3
147.6416,164.7
147.6553,243.1
147.7285,18.2
147.7708,658.8
147.8447,91.1
147.8677,80.9
147.8822,133.5
147.9134,113.8
147.9933,163.2
148.0145,265.5
148.0697,94.8
148.0788,383.6
148.1156,330.1
148.1943,18.3
148.1961,485.9
148.2601,82.8
148.2738,111.6
148.3959,511.9
148.4727,166.4
148.4823,102.2
148.5322,4004.3
148.5349,363.3
148.5366,164.2
148.5693,256.8
148.6364,22.1
148.7426,291.5
148.7432,281.5
148.7618,406.2
148.8151,457.5
148.8361,227.1
148.8378,127.1
148.8424,117.1
148.8475,90.3
148.8605,139.2
148.8803,18.3
148.8989,182.3
148.9159,856
148.9613,2963.4
148.9762,82.1
149.0026,53.3
149.0123,25.8
149.0186,4336.4
149.0234,5572.2
149.0449,23.5
149.0499,91.6
149.1299,164.5
149.1332,189.5
149.1717,18.1
149.2075,414.8
149.2613,77.5
149.3072,207.4
149.3131,622.1
149.3339,423.4
149.3965,322.8
149.4635,579.9
149.4847,88.7
149.5253,202.3
149.5369,167.9
149.5624,194
149.5778,318.3
149.5836,78.4
149.6094,800.6
149.6887,173.4
149.7873,82.7
149.8033,241.6
149.8234,341.2
149.8239,352.3
149.8247,263.7
149.875,18.8
149.8965,20.3
149.971,20.1
149.9929,7232.6
150.0138,4728.6
150.026,387.6
150.0267,229.8
150.0449,199
150.0539,657.7
150.1083,484.8
150.1154,332.8
150.1601,921.9
150.1841,182.3
150.2439,645.2
150.2845,319.1
150.4479,18.2
150.5298,115.1
150.5416,940.6
150.5444,130.4
150.6083,287.6
150.6203,897.2
150.6422,364.7
150.7196,337.5
150.7696,93.6
150.8108,620.3
150.897,176.5
150.9152,133.8
150.9427,124.8
150.9769,49592.5
150.9841,161.1
150.9985,117.9
151.0411,62.9
151.0479,2698.9
151.0862,271
151.1271,20.5
151.1971,530.6
151.2019,21.8
151.2328,19.8
151.2378,80.1
151.2416,299.4
151.2544,224.5
151.2636,132.6
151.294,136.4
151.4194,137.1
151.5265,117.3
151.5311,144.1
151.5579,377
151.5972,627.9
151.621,938.8
151.6418,66.8
151.6502,86.5
151.6544,137.9
151.6587,756.5
151.728,773.6
151.8829,138.5
151.9511,585.8
151.9586,510.8
151.9721,400.6
151.9914,20.2
152.0035,91.8
152.0092,677.8
152.0173,256.4
152.0221,12179.6
152.0319,3676.9
152.066,108.1
152.1073,123.1
152.1451,665.1
152.1727,522.6
152.2172,81.8
152.2384,232.8
152.2675,640.4
152.3094,544.4
152.3169,424.1
152.3963,172.8
152.4848,567.2
152.587,22.2
152.6168,71
152.6397,226.6
152.7008,58.7
152.7201,478.8
152.7366,137.5
152.8205,103.1
152.846,125
152.8723,196.9
152.8813,450.6
152.924,382.4
152.9272,578.2
152.97,224.9
152.975,1538.6
153.0607,800.1
153.0821,129.3
153.1021,114.5
153.174,756.2
153.1784,659.6
153.1794,524
153.1849,147.2
153.1948,741.3
153.1981,262.6
153.2576,136.1
153.3037,260.6
153.3147,171
153.3313,337.9
153.3733,202.3
153.3817,924.5
153.3935,393.8
153.4467,61.6
153.4824,106.8
153.4935,213.7
153.4995,65.6
153.6088,223.9
153.6311,71.6
153.7045,495.9
153.7343,196.6
153.756,116.9
153.7689,329.3
153.7842,628.4
153.8089,657.7
153.8453,97.9
153.9686,382.4
153.9796,651.1
154.0115,976.9
154.0267,570.3
154.0379,258.3
154.0587,1244.4
154.0667,911.2
154.1171,180.2
154.2355,1005.8
154.2711,174.3
154.3273,76.8
154.3927,118.6
154.4272,541.8
154.4309,310.3
154.4343,823
154.4349,894.9
154.4357,716.3
154.4438,171.4
154.4479,119.2
154.452,71.9
154.4743,17.9
154.5098,467
154.5692,20.6
154.6342,891.8
154.6585,413.9
154.6991,786.2
154.7119,84
154.7434,70.9
154.7721,220.4
154.8243,16.7
154.8395,282
154.8569,134.5
154.8804,990
154.9076,108.8
154.9417,702.4
154.969,217.2
154.9947,575.6
155.0312,105.4
155.0489,98.9
155.054,4959.7
155.0792,1581.1
155.1305,650.2
155.1356,792.3
155.1748,135.2
155.2185,21.5
155.2303,21
155.3121,382.3
155.3527,422.7
155.4126,822.1
155.4173,497.4
155.4718,189.7
155.5496,71
155.6144,87.5
155.6243,466.7
155.6312,265.5
155.635,286
155.6569,117.4
155.6616,812.5
155.7328,360.8
155.8081,164.5
156.0051,250.6
156.0068,282
156.0268,132
156.0423,3517.4
156.0575,171.4
156.0769,48044
156.1247,108.3
156.1671,648.3
156.2921,107
156.3313,90.4
156.3685,122.4
156.3761,670.1
156.4383,78
156.4576,302.1
156.7139,352
156.7363,106.1
156.7733,326.9
156.8148,18.4
156.8329,129
156.896,382.3
156.9139,76.5
156.9168,205.4
156.9352,66.6
156.949,117.2
156.9744,62.3
156.9963,19.9
157.0802,546.6
157.0821,407.1
157.0972,366
157.1028,21.1
157.2617,97.4
157.2778,81.4
157.2986,126.4
157.356,110.7
157.4133,131.5
157.4249,69.8
157.4452,160.9
157.4832,177.9
157.4949,82.5
157.6488,338.1
157.6668,16.5
157.7394,85.1
157.7654,150.1
157.7852,86
157.8102,292.3
157.9271,233.2
157.9292,93.9
158.0066,188.2
158.0127,101.4
158.0271,5354.5
158.0415,563
158.0497,123.6
158.0703,585.1
158.1473,72.2
158.1888,874.1
158.1977,126.1
158.2438,90.7
158.3082,670.8
158.3156,125.6
158.3427,516.7
158.4192,121.9
158.4675,130.1
158.4918,128.1
158.5889,230.5
158.5927,645.4
158.6302,442.3
158.6492,149.8
158.6604,187.4
158.7212,297.8
158.735,383.1
158.7403,639.1
158.8606,208.3
158.9253,124.9
158.9277,834.9
158.9525,68.1
158.9641,9265.2
158.9873,470.6
158.9966,10019.6
159.0053,722.9
159.0112,20.3
159.0305,88.8
159.0755,509.5
159.3062,17.4
159.3854,144.3
159.4007,100.9
159.4597,603.9
159.5627,18.5
159.6206,952.4
159.6227,252.9
159.6268,892.1
159.6887,481.2
159.7089,89.1
159.7131,598
159.7562,18.6
159.7699,261.7
159.8271,241.1
159.8489,108.6
159.871,78.4
159.8824,92.1
160.023,34.9
160.0346,17053.8
160.0606,151370.4
160.0646,103
160.1513,20.4
160.1652,62.9
160.1675,292.9
160.2571,321.8
160.3744,93
160.427,89.5
160.5771,89
160.5861,292.3
160.6347,176.1
160.636,204.3
160.6856,110.9
160.7188,17.8
160.7209,20.3
160.7664,166.7
160.7972,218.2
160.8566,328.3
160.8859,590.8
160.9549,180
160.9719,84.8
161.0639,6904.4
161.0964,42
161.116,100.5
161.1285,749.1
161.1326,27.8
161.1497,1238.9
161.1986,775.1
161.2008,88.1
161.2881,20.7
161.2938,72.7
161.3267,337
161.3636,301.3
161.4117,249.8
161.4457,18.2
161.4702,330
161.5836,407.4
161.5937,451.2
161.7181,136.7
161.8083,19.6
161.8157,163.9
161.8248,491.4
161.9113,19.4
161.9363,1132
161.9908,238.1
162.0024,19.8
162.0196,388.7
162.0252,698.3
162.0503,16540.9
162.091,373.7
162.1125,71.9
162.1521,97.3
162.1662,202.2
162.1844,119.4
162.2033,703.2
162.2194,555.9
162.3532,1051.6
162.3872,101.4
162.3925,17.1
162.4746,16.4
162.4906,659.7
162.5442,168.5
162.587,300.2
162.6328,104
162.687,397.6
162.7081,546.6
162.7273,103.7
162.7369,64.7
162.7921,200.6
162.8322,115.8
162.9028,744.3
162.9083,285.8
162.922,19.5
162.9327,333.7
162.956,1589.5
163.0156,1535.7
163.0342,632.9
163.0391,26.3
163.058,592.2
163.066,108.2
163.1344,180.5
163.1478,27.1
163.1517,574.5
163.3001,68.6
163.3139,267.8
163.4578,80.2
163.4867,419.3
163.4941,20.7
163.6407,72
163.6446,67.8
163.65,617.9
163.652,126.1
163.6533,112.3
163.6582,107.1
163.8203,160.4
163.8916,21.3
163.8987,710.8
163.9673,323
163.9897,157
164.0083,1788.2
164.0233,172
164.0296,12245
164.0354,18.5
164.0453,179.7
164.0789,80.3
164.2008,198.3
164.2196,276
164.2221,318.7
164.2825,786.2
164.2852,328.5
164.2945,847.9
164.3301,293.6
164.3374,103.3
164.4089,93.8
164.434,69.6
164.4732,18
164.5117,311.7
164.5651,204.6
164.5724,351.2
164.5753,293.4
164.5947,69.5
164.6033,785.6
164.6701,112.1
164.6995,176.9
164.7559,102.6
164.797,77
164.8196,845.1
164.845,370.5
164.883,627.6
164.8989,120.4
164.9207,3555.3
164.9301,13463.2
164.9353,1996.8
164.9926,1587.1
165.0142,427
165.0347,163.7
165.0404,104.7
165.0912,2112.5
165.119,113.4
165.123,750
165.1576,115.5
165.2207,81
165.2454,78.6
165.2908,458.1
165.2958,136.2
165.3003,169.4
165.358,541.6
165.4472,371.3
165.4505,222.5
165.5114,507.1
165.5277,71.4
165.5478,127.1
165.6071,641.9
165.621,227.1
165.6255,700.4
165.6331,311.6
165.6699,266.4
165.7136,200
165.7204,993.9
165.7269,99.7
165.7637,406.1
165.8252,87.9
165.8628,821.3
165.9034,365.5
165.9103,554.3
165.9152,214.5
165.9667,476.6
165.979,1635.4
165.9878,3452
165.995,23.1
166.0041,87.8
166.0648,785.2
166.0711,105
166.097,536.7
166.131,202.5
166.193,469.2
166.3663,227.9
166.3782,332.8
166.3936,163.9
166.4533,364.3
166.474,123.1
166.4994,506.9
166.5766,140.8
166.5834,339.8
166.6135,537
166.6712,140.2
166.7207,157
166.854,681
166.9017,378.5
166.9147,191.5
166.947,80.1
166.9509,19429.7
166.9551,133.2
166.9629,712.2
166.9719,354.7
167.0171,242.9
167.0218,6111.2
167.0276,5673.4
167.055,70.3
167.0608,21
167.0672,261.6
167.0704,491.3
167.1173,114.5
167.1613,155.7
167.1896,76.5
167.2081,25.3
167.2606,549.8
167.3263,323.4
167.419,78
167.4232,69.8
167.4588,614.2
167.6737,564.5
167.7515,548.2
167.8336,349.8
167.8891,271.1
167.9487,180.5
167.9944,1990.9
168.0057,766.1
168.0284,223.1
168.0316,126.4
168.0455,535.9
168.083,740.7
168.1847,67.6
168.1987,85.5
168.2127,81.3
168.2403,16.1
168.3318,224.4
168.3716,111.1
168.4375,604.6
168.4907,104.2
168.5117,418.5
168.5522,348
168.5787,16.4
168.6947,88.7
168.8067,550.2
168.9064,390.2
168.9152,81.1
168.9183,17.5
168.9216,299.5
168.9491,2188.1
168.9566,182.3
169.0064,454.9
169.0099,99.7
169.0292,177.4
169.0349,19.3
169.0585,51721.5
169.095,2655.8
169.1026,92.1
169.1243,243.2
169.2424,539.5
169.3935,79.1
169.4581,140.1
169.4933,71.7
169.5285,19.2
169.5697,550
169.8089,639.5
169.8635,94.3
169.8696,461.3
169.8738,609.5
169.8768,757.8
169.9142,372.1
169.9305,556
169.9859,494.1
169.996,22.2
170.0328,4365.5
170.0618,915.5
170.0926,14040.9
170.1342,655.4
170.1431,774.1
170.1708,133.9
170.1866,81.6
170.2257,223.6
170.2353,232.2
170.3807,433.9
170.4148,129.2
170.4483,278.7
170.467,272.4
170.4924,197.3
170.5187,256.4
170.5308,91.8
170.5592,420.4
170.6029,555.6
170.6361,113.4
170.6426,197.7
170.6668,168.4
170.6875,557.7
170.6908,234.7
170.7404,139.7
170.8126,17.5
170.8546,3936.7
170.887,138.3
170.902,578.3
170.9206,376.4
170.9404,101.1
170.9902,22.8
171.0165,925.4
171.0281,326.6
171.0489,358.6
171.096,86.4
171.1198,69.2
171.1274,251.9
171.1483,200.8
171.1994,390
171.2119,17.9
171.221,176.2
171.3061,19.2
171.3446,268.1
171.4608,106.6
171.4979,303.7
171.5046,71.9
171.5174,211
171.7367,120.1
171.7545,161.3
171.8373,95.8
171.8484,17.5
171.8714,210.9
171.8798,259.6
171.8899,79.2
171.965,141.7
172.0282,1772.2
172.0347,393.5
172.1183,262.7
172.1382,675.9
172.1836,476.8
172.2245,604.8
172.3595,137
172.3744,527.3
172.4049,280
172.4702,112.2
172.5631,157.4
172.5716,86.9
172.5974,78.1
172.6774,198.6
172.7371,112.6
172.761,86.5
172.766,319.2
172.8224,730.2
172.8515,1499.9
172.9318,88.6
172.9863,583.2
172.9907,532.9
173.0245,129.6
173.0269,267.5
173.0597,107.2
173.0881,19.1
173.1398,377.8
173.2139,530
173.2164,359.6
173.2301,19
173.2529,162.9
173.3239,223.7
173.3369,161.6
173.368,75.5
173.3693,151.3
173.3814,145.2
173.3917,94
173.3948,110.8
173.3992,183.8
173.4482,85.8
173.4995,79
173.5072,118.4
173.5325,315.7
173.5885,129.3
173.5948,127.3
173.6836,420.4
173.7169,379.6
173.7272,414.9
173.7418,481.4
173.7696,18.1
173.777,120.4
173.8307,108.6
173.877,737.1
173.9435,347.3
174.0129,71.1
174.0397,101.7
174.0424,422.6
174.0501,398.5
174.156,124.3
174.2963,373.4
174.3985,212.3
174.4094,121.7
174.4285,19
174.4392,328.9
174.4646,84.9
174.4763,121.5
174.4943,417.9
174.5517,153.6
174.6017,133
174.6189,89.2
174.6393,122.9
174.6504,588.2
174.6943,19.4
174.7645,374
174.7987,139.8
174.8337,457.8
174.8411,550.8
174.8811,559.4
174.9068,127
174.9332,109.3
174.9383,3738.2
175.0343,7525.2
175.0456,3014.6
175.0576,452
175.0667,82.9
175.0685,340.8
175.1191,79196.3
175.1322,454.8
175.2295,196.2
175.2331,94.1
175.2654,198.4
175.2722,548.4
175.274,192.2
175.326,879.5
175.3434,155.3
175.3725,275
175.4596,16.8
175.462,520.8
175.4846,71.8
175.6314,175.5
175.6596,69.8
175.7795,600.6
175.8649,94.4
175.8763,551.4
175.9028,93.2
175.9729,580.5
175.975,99.7
175.9967,360.1
176.0086,7876.6
176.0411,329.9
176.0434,359.1
176.066,24705.7
176.1031,859.1
176.1121,294.9
176.1225,249.5
176.1462,820
176.158,171
176.2641,120.2
176.2952,133.6
176.3318,306
176.3863,18
176.407,96.6
176.4136,79.2
176.4355,139.5
176.5479,521
176.6505,356.2
176.8153,106.1
176.8538,172.7
176.8796,638.8
176.9386,424.1
176.9463,114.5
176.9705,19.1
176.9927,1738.1
176.9963,413.2
177.0181,86.9
177.0248,5114
177.0612,5443.4
177.0872,907.1
177.0912,74.6
177.1191,142
177.1418,738.8
177.1468,252.4
177.1584,590.5
177.1973,127
177.2289,18.6
177.3064,137.3
177.3094,296.4
177.4067,244
177.4113,580.3
177.4268,332.6
177.4745,214.7
177.5318,452.1
177.5557,337.6
177.5986,63.7
177.633,57.2
177.7501,659.4
177.9494,416.3
177.9512,529
178.0089,12251.7
178.0243,9902.8
178.0548,150.6
178.0589,6595.4
178.0786,86.2
178.2457,748
178.3051,250.4
178.3265,74.8
178.3325,96.8
178.3409,317.7
178.3794,244.5
178.4008,20.4
178.4185,688.9
178.441,87.2
178.5578,357.9
178.6535,192
178.6963,357.1
178.7052,146.1
178.7519,355.7
178.8205,63.9
178.8771,105.8
178.9016,356
178.9694,357.2
179.0085,441.5
179.0221,68
179.0748,286.3
179.0872,19.5
179.2178,296.1
179.2928,98.1
179.3217,333.4
179.3983,674.8
179.4183,123.7
179.4224,377
179.4361,280.4
179.6154,162
179.6739,296.4
179.6983,18.4
179.7185,118.4
179.7346,650.5
179.7916,439.3
179.9848,18.1
180.0036,8933.8
180.0272,98.1
180.051,78.3
180.0832,158.5
180.0856,17.8
180.0902,113
180.1044,248.5
180.1618,629.3
180.1818,123.5
180.3408,517.8
180.3574,190.2
180.405,99.8
180.583,92.3
180.6049,209.5
180.6155,119.1
180.6383,365.6
180.6885,114.9
180.7294,644
180.7411,75.4
180.759,146.1
180.8096,113.1
180.8355,452.1
180.8591,159
180.8707,860.7
180.8948,1722.7
180.9041,7383.8
180.9108,321.9
181.0187,69
181.0261,310.1
181.0366,468
181.0651,9068.4
181.1164,347.9
181.1378,82
181.1458,192.8
181.164,254.3
181.2449,323.3
181.2525,108.7
181.3348,113.5
181.3681,121.8
181.423,20.4
181.552,219.7
181.5571,20.8
181.6648,288.2
181.7234,176.6
181.7265,490.4
181.7357,92.7
181.7531,17.5
181.7594,142.4
181.8363,18.7
181.867,204.8
181.8778,410
181.9716,83
182.0095,833.9
182.0128,283.8
182.0426,39163.4
182.0666,478.5
182.0944,188.1
182.1298,104.1
182.1975,115.1
182.2182,110.6
182.3811,245
182.414,136.7
182.4332,103.5
182.4611,201.3
182.4895,372.2
182.613,625.8
182.6386,220.8
182.6874,18.7
182.7085,100.3
182.7287,97.9
182.7479,499.4
182.8422,525.7
182.8461,367.9
182.9026,44.6
182.932,232.8
182.9527,186.6
182.9792,754.7
182.9917,616.8
182.9954,96.8
183.0011,20.5
183.0376,339.9
183.0447,1958.8
183.0555,156.3
183.0974,86.3
183.1079,371.4
183.1305,158.8
183.2066,500
183.35,195.8
183.3964,130.6
183.5241,580
183.5451,328.4
183.5748,287.7
183.6245,117.1
183.6776,189.5
183.7299,119.9
183.8117,297.3
183.8342,19.1
183.9223,86.9
183.9651,486.6
184.0373,1387.8
184.0508,141
184.0688,1473
184.0735,3697892.5
184.0908,93.8
184.1052,91.5
184.1097,829.4
184.1419,756.7
184.1823,991.9
184.3545,443.1
184.4587,275.8
184.5347,134.7
184.5733,172.6
184.5865,86.2
184.6843,79.7
184.6937,571.9
184.7167,370.2
184.7456,88.9
184.8604,230.8
184.9201,665.5
184.9789,341.9
185.0222,432.8
185.0325,52094.9
185.0568,169.3
185.0705,7732.9
185.0769,168866.9
185.0796,2400.5
185.1501,124.2
185.2468,18.1
185.291,110.4
185.3064,173.4
185.4831,20.7
185.5093,473.2
185.5232,311.9
185.5546,169.3
185.7165,17.7
185.8473,605.6
185.96,1719
185.9901,364.7
185.9992,464.2
186.0063,88.5
186.0457,18.8
186.0778,24092.9
186.1134,108.2
186.1449,96.6
186.2592,408.2
186.3487,120
186.3602,95.1
186.4475,470.8
186.4659,17.7
186.5422,74
186.5638,89.8
186.5845,68.3
186.6094,71
186.6496,68.8
186.6693,578.7
186.6837,534
186.6861,403
186.688,427.4
186.743,71.8
186.9121,2239.6
186.9426,150.4
186.9839,531.3
187.0022,603.3
187.0146,183.7
187.0307,2632
187.0457,125.6
187.0579,5771.2
187.0716,3202.8
187.0898,89.6
187.1078,3189.6
187.1105,280.8
187.1251,198.6
187.1338,89.7
187.1942,81.4
187.1997,330.3
187.206,84.6
187.2493,171.3
187.2605,140.1
187.309,70.1
187.3531,415.9
187.4809,405.8
187.5177,110.9
187.7542,90.1
187.9078,84.1
188.0795,105.2
188.1015,512.6
188.1334,352.7
188.1828,114.8
188.2146,139.4
188.2451,67.3
188.368,135.9
188.4149,413.8
188.4582,561.4
188.4611,88.6
188.5005,836.5
188.5768,139.8
188.7032,21.4
188.7904,87.2
188.8652,21.3
188.9289,104.5
188.9672,142.6
188.9696,138.4
189.0174,181.3
189.0247,649.2
189.03,62.7
189.0613,2208.1
189.0873,11420.6
189.1973,103.1
189.2176,363.5
189.2637,163.4
189.3764,90.5
189.5912,230.1
189.6009,61.6
189.6253,132.8
189.7086,641.9
189.7439,201.2
189.7928,150.6
189.817,78.1
189.8687,17.2
189.8865,114.5
189.9244,131.7
190.0479,320.9
190.0617,177.4
190.1573,158.5
190.2373,612.1
190.6901,76.5
190.7037,277.7
190.7358,421.6
190.8014,530.5
190.8854,844.6
190.9154,121.5
190.9328,137.5
190.9447,103.1
190.9774,162.6
191.0083,5744
191.0406,107156.8
191.058,501.6
191.077,20891.6
191.0916,129.6
191.1049,166.6
191.1349,88.6
191.1701,185
191.2082,19.2
191.3043,136.4
191.3516,560.1
191.4825,191
191.5597,426.4
191.6265,228.5
191.8149,104.4
191.8415,246.8
191.8596,170.9
191.8751,244.6
191.9826,1211.2
191.9982,109
192.0179,362
192.0298,850.3
192.04,12091.3
192.0439,2065.3
192.0966,18.8
192.1031,185.8
192.1765,17.4
192.1787,100.3
192.1856,134.9
192.2187,626.9
192.2532,87.2
192.3031,292
192.3094,130.3
192.3427,531.1
192.3608,325.4
192.4549,160.2
192.5853,604.9
192.589,121.2
192.6156,379.4
192.6693,220.5
192.698,386.7
192.7205,96.1
192.8397,17.1
192.8439,17.7
192.8808,326.6
192.8833,116.2
192.9617,759.7
192.9887,157.6
192.9988,2631.7
193.0059,442.2
193.0244,424.2
193.0352,1852.9
193.0619,17.6
193.2424,502.6
193.2913,19.9
193.3942,488.1
193.4191,350.2
193.4415,92.3
193.4632,250.1
193.4834,105.7
193.4998,18.3
193.5044,408.6
193.5123,98.7
193.6008,884.2
193.6045,167.7
193.6426,376.7
193.6906,184
193.7848,308.9
193.9263,774.3
193.9938,97.1
193.9983,2082.6
194.005,769.8
194.0102,1085.8
194.0328,1738.9
194.0623,314.6
194.0749,379
194.0975,67.3
194.1314,66.7
194.1428,211.2
194.1557,404.3
194.1698,75.2
194.2016,66
194.2185,770.9
194.2473,170.1
194.2926,64.6
194.2977,311.4
194.3045,159.3
194.3452,72.9
194.4337,92.5
194.465,160.5
194.546,59.4
194.7995,18.7
194.9194,366.5
194.9452,18.6
194.9482,188.7
195.0286,166.3
195.0447,760.9
195.0879,39.4
195.1936,189.8
195.2222,193.6
195.327,117.9
195.3307,795.2
195.4122,144.1
195.421,107.1
195.4534,119.4
195.4866,668.6
195.5202,84.5
195.7105,60.4
195.7401,209
195.8839,107.6
195.9518,80.1
195.9568,495.2
195.9776,1710.3
196.0122,108.3
196.0357,152.2
196.0729,608
196.0792,95.9
196.0981,255.5
196.1045,129.5
196.1698,257.1
196.2129,600.6
196.2359,274.3
196.2742,66.5
196.2931,830.8
196.2994,361.1
196.3425,24.1
196.3725,666.2
196.4162,289.9
196.4521,764.2
196.5056,780.3
196.6033,99.1
196.6061,122.5
196.6682,221.1
196.743,217.3
196.7685,582
196.8295,75.8
196.8531,365.3
196.8597,228.1
196.8654,6229.6
196.8758,57.9
196.8781,1871.3
196.8935,195.8
196.9323,190.7
197.0234,189.8
197.0417,394.7
197.0682,440.5
197.1011,922.5
197.1486,363.9
197.2071,430.8
197.241,320
197.2562,226.7
197.2912,151.1
197.3226,377.5
197.3495,331.9
197.3846,71.7
197.428,381.5
197.4517,79.6
197.5256,141.8
197.5616,589.1
197.8177,182.8
197.8349,88.7
197.8387,71.1
197.8981,239.3
197.975,367.3
198.0446,317.1
198.0505,192.7
198.0584,67.6
198.0852,7031.6
198.0891,84.9
198.1855,6432.5
198.2413,64.9
198.2751,213.3
198.2924,478.7
198.3261,681.7
198.3603,181.2
198.4512,66
198.5057,17
198.5124,393.8
198.6058,171.6
198.654,549
198.7581,18.5
198.8475,358.2
198.8623,6332.1
198.9004,84.1
198.9199,275.8
198.9425,449.8
198.9691,238
198.9737,32
198.9798,786.6
198.9821,21.9
199.0038,610.3
199.0107,77.7
199.0272,117
199.0393,224.7
199.0691,1106
199.0757,3144
199.0804,96.8
199.1828,110.7
199.1889,318.5
199.2933,473
199.3437,188.8
199.3706,66.4
199.4095,69.1
199.4214,56.4
199.5259,65.7
199.5404,144.7
199.5881,104.2
199.7699,581.8
199.8055,126.3
199.8405,18.5
199.8907,108.1
199.9006,533.6
199.9478,245.6
199.9678,125.9
199.9909,26358.7
200.0182,967.1
200.021,436.9
200.0236,114.4
200.0409,13453.3
200.0683,12867.7
200.0872,380.7
200.0888,331.5
200.1498,675.3
200.2707,114.8
200.3772,619.7
200.3814,239.6
200.5646,94.9
200.572,497
200.724,88
200.7377,890.1
200.7401,126.1
200.7956,71
200.8424,104.1
200.8511,113.2
200.8596,1670.7
200.8822,99.7
200.9249,127.4
200.9611,122.1
201.0069,39.8
201.055,290.7
201.0872,630.7
201.1084,62.5
201.1619,350.2
201.2063,286.6
201.2918,58.7
201.3581,18.3
201.4294,275.2
201.4791,436.4
201.5191,613.9
201.5508,86.3
201.6076,129.3
201.6125,204.2
201.6856,449.4
201.7655,125.8
201.7778,129.6
201.8549,536.6
201.8647,20.2
201.9717,73.2
201.9854,18
202.0035,69.1
202.0616,72.2
202.0905,147.5
202.1326,19.6
202.1582,184.8
202.1911,84.7
202.3713,18.7
202.3874,109
202.4442,357.9
202.4552,18994.6
202.6767,114
202.713,493.4
202.7143,488
202.7618,865.3
202.8263,282.8
202.8937,212.2
202.9272,464.1
202.9443,93.9
202.9826,222.8
202.991,298.1
203.0321,2191.6
203.0529,1330003.3
203.0667,19.8
203.077,8399.7
203.0801,284
203.1172,141.4
203.1697,260.3
203.1803,92.3
203.2314,16.3
203.2637,618.6
203.2739,257.9
203.3204,117.8
203.3441,370.8
203.3544,260.2
203.4207,369.7
203.5226,176
203.5602,109.7
203.5698,58.6
203.6522,368.2
203.7584,96.7
203.9234,69.7
203.9291,347.5
203.9458,67.4
203.9825,865.2
204.0099,371.9
204.0246,48905.3
204.0444,134.6
204.0562,71948
204.087,260.2
204.132,17.8
204.2583,115.4
204.3564,71.4
204.3603,125
204.4316,561.3
204.4786,866.7
204.4978,889.9
204.5858,384.7
204.6175,88.2
204.7364,153.1
204.8643,156.8
204.8922,88.5
204.9635,418
205.0023,1196.1
205.0281,401.7
205.037,135
205.0435,237.6
205.0572,11613.7
205.0686,12230.6
205.0725,242.6
205.084,100.9
205.313,102.2
205.5698,222.2
205.5992,372.1
205.7118,19
205.8708,92.2
205.8756,104.7
205.9284,21.2
206.0314,272
206.0553,2444.8
206.1309,20
206.1363,111.2
206.157,794
206.1634,130.2
206.2032,105.9
206.2325,74.3
206.2941,200.2
206.3909,68.7
206.406,221.6
206.4962,16.9
206.5871,91.9
206.6512,416.4
206.7794,99.2
206.8099,16.6
206.8323,78.1
206.8942,16035.5
206.904,753.5
206.9108,203
206.9237,388.6
206.9822,1815.4
207.0082,18.1
207.0145,70870.1
207.0444,3127.6
207.051,7535.8
207.0954,322.9
207.2054,447.1
207.262,123.9
207.3359,70
207.4445,666.6
207.4899,120.8
207.5487,80.8
207.5588,17.7
207.6361,73.2
207.6988,122.2
207.7652,80.7
207.9156,371.7
207.992,608.9
208.0139,3157.8
208.0179,2208.2
208.0275,92.9
208.0791,16.8
208.1051,100
208.2042,199.2
208.2402,352.4
208.2952,131.2
208.3351,160.1
208.3463,108.3
208.4357,177.5
208.4758,368.6
208.5089,55.1
208.577,118
208.6255,730.1
208.6868,304.8
208.6989,82.5
208.7061,182.7
208.8691,418.5
208.88,324
208.8835,35.8
208.8913,10561.1
208.9331,356.6
208.9406,68.5
208.9809,441.1
209.0125,4059.4
209.0631,95.3
209.1483,117.1
209.1525,110.2
209.1776,110.5
209.1803,874
209.2007,19.1
209.2577,363.4
209.2763,225.7
209.3162,123.8
209.3335,161.4
209.375,539.9
209.3845,99.3
209.3959,364.5
209.5471,724
209.5732,226.2
209.5812,19
210.3116,20.2
210.3722,21.9
210.6835,616.2
210.7195,686.3
210.9051,217.8
210.9346,263.5
211.0072,23.4
211.0283,293
211.046,98.9
211.0567,848.8
211.0693,1049.5
211.0746,19.6
211.0838,599.8
211.1061,11301.3
211.1113,22166.6
211.1148,19915.1
211.122,29283.1
211.1289,5157
211.1356,345.8
211.1771,17.8
211.1872,139.1
211.2311,355
211.3395,215.5
211.3506,262.2
211.3569,20.9
211.4306,67
211.44,111.1
211.4584,108.5
211.466,16.3
211.4778,123.5
211.4991,197.9
211.564,19.6
211.5695,85.4
211.5892,66.9
211.6301,609.7
211.6839,114.6
211.797,118.8
211.8673,511.4
211.9813,89.8
212.046,18.1
212.059,756.6
212.0742,119.1
212.1362,157.6
212.15,423.6
212.1613,68.5
212.2193,584.1
212.2389,648.8
212.3457,255.4
212.3822,829.7
212.5275,776.7
212.6498,65.6
212.7951,176.6
212.8393,1975.1
212.8796,344.7
212.9347,115.3
212.9619,84.7
212.9786,850.4
213.0014,223.2
213.0549,1049.5
213.0668,1245.9
213.1061,283.4
213.1186,356.8
213.1934,829.1
213.3069,126.7
213.3557,249.9
213.3628,19.8
213.4719,515.4
213.5379,97.1
213.6206,728.1
213.6455,373.4
213.6635,17.1
213.6724,92.2
213.7505,211.3
213.7656,452.1
213.8345,168.8
213.951,130.3
213.9624,78.2
213.9848,495.2
214.0592,9603.7
214.0636,635
214.0766,415
214.0899,858.1
214.2743,572.2
214.4496,118.4
214.4585,107.4
214.4835,813.7
214.4923,756.6
214.5643,186.3
214.5739,18.6
214.6686,86.3
214.7561,18.8
214.7756,20.9
214.7824,435
214.7853,206.2
214.8363,1284.9
214.8613,119.8
214.8769,69.7
214.8854,211.7
214.893,513.8
214.9178,112.2
215.0289,113.5
215.0706,176.8
215.0934,368.1
215.2079,334.4
215.2223,526.4
215.2264,599.8
215.296,473.5
215.3237,178.6
215.4584,95.7
215.603,278.4
215.6274,17.6
215.6654,642.4
215.7805,281.1
215.7846,749.7
215.9089,95.8
215.9454,94.1
215.9605,278.6
216.0149,7017.5
216.018,578.6
216.0967,212.1
216.1323,131.8
216.1688,121
216.2018,18.6
216.27,75.5
216.3042,76.6
216.4388,206.5
216.4921,629.8
216.5232,142.5
216.5362,369.8
216.5551,21.4
216.6337,388.9
216.6385,344.3
216.8398,211.6
216.8604,71.7
216.9108,775.5
216.923,44876.1
217.0053,134.8
217.0179,626.6
217.0546,207.8
217.0696,390.3
217.1259,149.6
217.1454,348.4
217.1567,75.8
217.1663,136.2
217.181,811.4
217.2207,89.3
217.2316,178.9
217.3944,482.4
217.6305,18.7
217.6472,132.9
217.7172,178.2
217.7449,97.9
217.7537,79.5
217.8309,98.9
217.944,529
217.9789,993.9
217.9862,254.7
218.0064,26.2
218.0155,19.9
218.0415,137.6
218.1518,20.6
218.1746,172
218.1933,212
218.3539,69.1
218.4379,633.5
218.5251,383.9
218.5412,97.8
218.5507,189.2
218.6154,364.8
218.6858,87.5
218.7723,17.7
218.7758,226
218.7857,68.2
218.7898,131.1
218.808,294.6
218.8556,856.6
218.8862,19.3
218.9055,226.2
218.92,13112.4
219.0029,850.4
219.0178,612.6
219.0269,1397884.5
219.0366,181.6
219.0832,6817.7
219.1219,143.4
219.1375,181.1
219.1549,157.5
219.1596,173.1
219.1683,1148.3
219.2589,192.5
219.3651,88.1
219.4642,1023
219.4711,85.3
219.4993,165.3
219.5142,75.3
219.6354,20.8
219.6898,125.4
219.7286,188.7
219.754,80.5
219.8626,463.1
219.8688,64
219.9083,19.7
219.9237,127.3
219.9359,486.2
219.9984,343.9
220.0024,257
220.0302,70649.9
220.0671,8240.8
220.1511,163.8
220.1652,385.2
220.1674,351.1
220.2252,343.7
220.2306,579.1
220.2614,19.9
220.2794,628
220.3312,23.7
220.3764,254.2
220.4579,126.6
220.4681,582.3
220.4778,111.6
220.4832,627.1
220.4877,224
220.4934,789.5
220.5532,117.3
220.6826,80.5
220.7767,203.7
220.7797,18.2
220.8459,154.4
220.9349,1325.4
220.9609,293.8
220.9944,68
221.0123,409.6
221.025,88249.3
221.0312,12092.6
221.0426,4675.1
221.0511,1523.5
221.0846,175.8
221.0997,371.4
221.1459,22.7
221.171,235.8
221.237,108.2
221.3464,20.9
221.3589,812.6
221.3799,82.9
221.4044,392.5
221.4871,119.1
221.5012,130.4
221.596,390.2
221.6722,94.1
221.7473,64.6
221.7916,1004.8
221.832,621.1
221.8789,77.2
221.918,107.6
221.9566,171.2
221.9836,885.3
222.0014,617.5
222.0283,2499.2
222.579,68.4
222.5953,403.1
222.6028,117.7
222.7019,857.7
222.7119,203.1
222.715,166.9
222.7972,225
222.8346,70.6
222.8594,98.5
222.8682,15123.3
222.8796,383.8
222.9885,7426.4
223.0251,85.6
223.0375,118.4
223.0993,20.6
223.1341,340
223.2003,228.8
223.2348,89
223.2496,547.4
223.2808,21.1
223.3642,113
223.4381,116.9
223.4448,266.6
223.6255,103.3
223.892,72.6
223.926,86.5
223.9289,67.1
223.9533,82.4
223.9643,79.7
224.0299,2585.2
224.0341,64.6
224.1557,364.2
224.2968,67.8
224.3308,63.1
224.3654,131.4
224.4063,96.8
224.6169,18.5
224.6315,94.2
224.7122,210.8
224.7246,470.3
224.761,202.4
224.7933,152.7
224.8275,312.8
224.8392,20
224.8492,199.4
224.8651,6790
224.9218,812
224.9286,170.4
224.956,193.7
224.9861,378.9
225.0216,113
225.055,29619.1
225.085,475.6
225.1268,102
225.1945,116
225.2146,213.4
225.2772,145.2
225.2902,61.8
225.2989,364.3
225.4009,179.6
225.4347,23.6
225.4554,737.3
225.4879,177
225.601,951.8
225.6758,123
225.7893,96.2
225.9515,27.8
225.9558,622.7
226.0022,132.2
226.0066,370.1
226.021,258.6
226.0245,7200.8
226.0454,6475.4
226.0533,332.3
226.0584,467
226.063,22.3
226.118,409.4
226.1324,127.5
226.147,94.3
226.3447,452.5
226.3881,572.7
226.5447,436.7
226.5717,832.6
226.6986,592.8
226.7376,673
226.8622,371
226.888,59.6
226.9149,145.4
226.9518,26736.7
226.9746,72.6
227.0064,143.5
227.0127,564
227.0343,1193.2
227.043,560.9
227.0792,1897.4
227.0869,335.6
227.0979,374.7
227.1456,120.3
227.288,17.2
227.3715,166.5
227.4102,18.2
227.5236,73.6
227.5955,61.6
227.6104,312.6
227.6222,626.3
227.7551,131.4
227.7722,389.1
227.7935,871.1
227.8467,542.4
227.9645,138.9
228.0009,1176.1
228.0741,406.9
228.1425,20.4
228.198,203.9
228.3303,120.1
228.3683,174.3
228.4162,546.4
228.5725,574.7
228.5964,127.8
228.647,134.6
228.6664,22.3
228.6954,125.3
228.709,19
228.8136,410.1
228.8564,265
229.0438,73.2
229.1102,100.2
229.2926,442.2
229.298,117
229.4225,344.2
229.435,81.7
229.4868,612.8
229.511,94.7
229.5335,644.3
229.7126,156.5
229.7391,66.8
229.846,164.7
229.854,73.9
229.8583,126.9
229.8945,327.3
229.9075,398.1
229.9572,334.6
230.0127,91.1
230.0335,190.9
230.1137,1360.8
230.1181,168.5
230.2363,473.2
230.331,202.9
230.3998,276.3
230.5162,623.4
230.6762,190.4
230.8147,209
230.857,118.4
230.8806,128.2
230.8961,112.6
230.9902,29.9
231.0328,66.2
231.0559,474.6
231.0839,377.2
231.0982,462.7
231.1087,135.6
231.142,58.5
231.1713,500.5
231.1834,99.7
231.202,120.5
231.2776,681.6
231.3458,428.2
231.4616,94.4
231.6504,74.4
231.8744,210.1
231.9384,179.6
231.978,345.4
231.9838,371.3
231.9955,271.1
232.0935,81.9
232.1829,678.2
232.3536,163.1
232.4024,21.7
232.4915,19.8
232.5353,383.4
232.6676,358.8
232.6792,66.7
232.7381,648.6
232.897,32494.3
232.9484,228.6
232.957,19.2
232.9862,301.6
233.0512,9555.3
233.0655,332.5
233.1134,96.2
233.1639,122.2
233.2153,134.1
233.3629,979.2
233.4202,785.2
233.567,545.6
233.596,388.4
233.6195,162.2
233.824,164.2
233.9233,390.3
233.9542,117.6
233.9674,23.5
233.9871,60.2
234.1956,199.4
234.2662,99
234.3116,69
234.3481,202.9
234.4691,98
234.5223,446.3
234.5731,655.5
234.6014,21.8
234.7482,210.2
234.7858,142.7
234.8129,529.8
234.8257,334
234.8364,85.5
234.8876,208.2
234.8939,8952.8
234.9818,3770.8
235.0571,3209.5
235.0669,1416.8
235.0855,227.5
235.0928,24866.6
235.1281,20.4
235.1419,356.3
235.1454,373.3
235.163,21.3
235.2052,105.6
235.234,92.4
235.297,186.8
235.3354,16.6
235.519,670.6
235.6481,90.1
235.7018,72.3
235.7225,73.1
235.7814,318.5
235.7946,175.3
235.8933,19.7
235.9987,63.5
236.0177,561.6
236.0286,165.5
236.0411,3075.1
236.0719,40309
236.0891,99.3
236.0964,1110.3
236.2885,89.3
236.3154,129.9
236.3703,303.2
236.3745,111.9
236.4249,141.9
236.4601,287.5
236.5154,150.8
236.6646,121.7
236.7362,482.9
236.7495,334.7
236.7938,81.1
236.8746,131.3
237.0525,259
237.0753,1107.9
237.1074,132.4
237.1267,292.7
237.1537,600.7
237.4179,19.2
237.4919,17.3
237.522,417.3
237.5311,566.3
237.647,647
237.6739,70.2
237.7217,62.4
237.807,478
237.9586,18.7
238.0099,580.4
238.0466,237.4
238.0677,484.5
238.0764,602
238.149,106.1
238.1765,122.2
238.1951,520.4
238.2143,213.5
238.2834,93.3
238.3223,351.5
238.3574,373.4
238.3769,92
238.3823,124.2
238.5145,339
238.5406,114
238.546,761.2
238.7389,348.7
238.7541,964.5
238.8421,3523.7
238.8533,432.2
238.8634,379.7
238.9219,135.2
238.9298,44.4
239.054,241.5
239.0638,631.8
239.0684,1910.7
239.077,163.1
239.1187,134.2
239.1293,593.5
239.1993,176.4
239.2166,182.4
239.2688,119.2
239.3946,276.5
239.4795,78.1
239.5128,685.2
239.8415,559.8
239.9077,86.1
239.9385,233.4
239.987,559.4
240.0038,480.1
240.0312,861.1
240.0999,1829.8
240.1338,511.3
240.1419,351.5
240.2238,359.2
240.2806,95.9
240.3326,427.8
240.4772,18
240.5101,19.5
240.5875,125.3
240.773,146.7
240.7981,428.2
240.8389,1149.8
240.9552,1123.6
240.9678,1453
241.1076,62.9
241.1184,123.2
241.1671,171.2
241.2002,744.4
241.2409,706.1
241.2618,163.2
241.3249,274.8
241.6672,549.1
241.6923,160.8
241.7637,17.9
241.9215,246.9
241.973,223.7
241.9795,72.9
241.9984,1666.5
242.0026,304.3
242.0193,2884.2
242.0726,180.6
242.0971,326.8
242.1001,276.1
242.1703,238.1
242.2239,241.9
242.3203,169.3
242.341,93
242.5492,129.4
242.5533,130
242.7751,21.2
242.849,137.9
242.8691,100.1
242.8896,100.8
242.9258,15846.3
243.0065,19.9
243.0535,6133.4
243.0656,12169.8
243.1017,992.6
243.1594,72.3
243.1891,909.5
243.2119,378.8
243.2827,623.4
243.3331,161.4
243.3938,623.2
243.4505,309.6
243.4899,365.3
243.5769,61.4
243.7277,567.2
243.7843,89.3
243.8138,122.5
243.8325,146.4
243.8484,499.6
243.8849,245.1
243.9728,208.9
244.0017,159.1
244.0129,300.5
244.0624,657.1
244.0801,535.3
244.1198,91.7
244.1765,85.6
244.2641,325.9
244.2827,186
244.388,20.8
244.4381,111.6
244.6177,92.3
244.6857,127.1
244.6869,135.7
244.7061,440.7
244.7979,87.3
244.8227,100
244.8711,4916.8
244.9238,666
244.9694,353.3
245.0057,27.6
245.0722,112.2
245.0778,21.2
245.1559,650.7
245.313,250.4
245.5258,121.3
245.5798,100.1
245.6092,17.7
245.6227,235.4
245.703,112.4
245.8646,60.9
245.9278,74.4
245.9466,343.1
246.0017,130.4
246.0105,61.3
246.0541,368.6
246.074,381.8
246.1212,120
246.1583,1001.5
246.1854,260.1
246.2148,143
246.2185,141.6
246.3766,71.3
246.3789,93.6
246.3831,451.3
246.4966,70.6
246.5164,137.5
246.531,379.4
246.5391,247.9
246.5737,69.1
246.6058,1421.4
246.6433,95.7
246.712,127.1
246.7471,633.9
246.7617,99
246.8679,1265
246.9479,80.2
246.9537,139.7
247.0136,97.4
247.0371,355
247.0513,93.9
247.0602,253.7
247.0671,1322.7
247.0842,109.2
247.0929,7826.5
247.1081,147.6
247.2395,269.7
247.3592,375.1
247.4812,165.8
247.4857,16.6
247.7069,84
247.7372,225
247.8269,121.9
247.8551,401
247.968,23.6
247.9731,184.2
247.983,257.6
247.9929,18.4
248.0497,166.2
248.0574,108
248.0963,72.9
248.1245,11759.2
248.1825,75.5
248.3354,104.7
248.4112,20
248.4863,854.4
248.6121,82.2
248.6507,22.3
248.8181,553.6
248.871,9256
248.96,2081.3
249.0116,307
249.016,919.6
249.0326,281.7
249.0614,14354.8
249.1088,105
249.3569,536.5
249.4302,210.5
249.4986,334.8
249.528,167.8
249.5565,107.7
249.5892,626
249.7477,204.6
249.7701,85.1
249.8163,259.4
249.9711,619
250.0557,180.8
250.1235,827.8
250.232,122.6
250.2807,222.6
250.4849,563.9
250.6972,120.9
250.7094,366.9
250.7531,184.3
250.7594,112.5
250.7838,18.2
250.8065,87.3
250.8525,605.5
250.8677,2278.4
250.9123,22.6
250.9204,1496.8
250.9323,404.4
250.9558,478.6
251.0009,110.2
251.0127,121.6
251.0346,1548.4
251.1284,22.6
251.3342,139.9
251.5346,98.3
251.5437,101.6
251.6454,141.9
251.672,105.3
251.7157,18.6
251.7575,104.9
251.825,170.1
251.9125,18.2
251.9889,276
251.9937,583.7
252.0323,647.7
252.0369,186.7
252.0459,85429.6
252.0904,22.6
252.1024,95
252.1648,536.2
252.1912,907.9
252.2878,108.7
252.4424,266.6
252.4904,296.4
252.5236,122.7
252.6196,271
252.6441,113
252.6769,186
252.7329,88.2
252.7625,362.8
252.9175,1460.9
252.9886,319.7
252.9976,45.8
253.0494,4564.8
253.0558,399.4
253.0807,116.1
253.0948,92
253.0991,21.4
253.4028,635.6
253.4522,18.8
253.7061,620.4
253.7396,581.8
253.9156,102.3
253.9572,70.3
254.0033,254.9
254.0199,611.1
254.0433,3141.3
254.0582,194.6
254.07,33.5
254.0963,282.1
254.3235,77.7
254.3859,91.2
254.8163,897.2
254.8241,7482.7
254.8583,550.2
254.9965,21.7
255.0333,22177
255.0466,1357.6
255.0514,120.5
255.0596,70.3
255.0815,286.1
255.0944,274.7
255.228,76.3
255.2344,631.9
255.2852,503.5
255.3061,112.7
255.396,676.2
255.4595,237.4
255.6255,323.5
255.6665,182.3
255.804,330.7
255.9547,65.5
255.9783,870.2
256.0587,79.1
256.0674,282.6
256.1303,1468.2
256.1914,95
256.3294,623.3
256.3441,19.4
256.4608,20.6
256.5026,374.2
256.5304,109
256.5793,150.5
256.6215,400.5
256.6367,139.5
256.6618,118.1
256.6838,87.5
256.7032,143
256.7416,392
256.8212,12310.7
256.8933,183.7
256.9293,584
256.932,746.8
256.9423,646.9
256.9726,72.3
257.049,6484.9
257.0662,802.9
257.0749,60254.7
257.0918,154.3
257.1207,804.5
257.1308,124.9
257.3463,103.1
257.521,74.4
257.7113,148.6
257.7591,74.1
257.8178,182.7
257.9371,18.4
257.991,167.7
257.992,166
258.0282,23.2
258.0542,30.1
258.0782,2311.8
258.1105,29444
258.2194,128.1
258.271,341.2
258.3564,407.6
258.5368,178.7
258.627,113.6
258.6442,97.8
258.6925,109.3
258.7218,97.9
258.773,59.7
258.793,123.9
258.8181,4698.7
258.8998,3025.5
258.9332,104.7
259.0619,80.1
259.0773,142.6
259.114,140.5
259.1287,309.1
259.169,88.4
259.1899,85.3
259.2079,90.2
259.218,63.3
259.4621,130.2
259.4939,141.3
259.5005,138.2
259.6268,275.5
259.7801,72.1
260.0173,33.1
260.2257,133.5
260.3505,88.5
260.3621,80.8
260.3913,100.2
260.434,104.5
260.4742,756.5
260.5228,95
260.7247,75.5
260.8449,3789.6
260.9318,287.4
260.9494,8802.5
261.0462,244.1
261.0648,630.1
261.1382,118.2
261.1864,18.6
261.2064,744.1
261.2981,124.9
261.3429,347.1
261.3935,22.9
261.4154,211.3
261.4502,397.4
261.5032,292.3
261.6033,177.5
261.6391,342.6
261.6905,316.4
261.7502,105.4
261.8323,133.3
261.926,100.2
262.0294,17.7
262.0817,951.9
262.0966,90.5
262.1502,426.3
262.2274,133.6
262.2372,259.2
262.2936,217.3
262.6752,151.7
262.7267,128.4
262.7832,114.8
262.9183,87.5
262.9329,390
262.9463,2231.1
263.0097,111.1
263.0126,90.7
263.0181,102.7
263.0853,2480.5
263.1931,86.7
263.2748,302.2
263.3131,93.8
263.3756,705.3
263.4031,464.4
263.4188,344.3
263.4933,246
263.5293,310.1
263.7156,140.1
263.7406,19
263.7538,125.9
263.7706,20.6
263.776,493.6
263.8576,923.7
263.9481,136.2
263.9808,109.9
264.1225,186.5
264.1736,587.7
264.2848,199.6
264.3346,83.2
264.5656,250.9
264.6089,209
264.7554,353.9
264.8453,729.3
264.853,6923.6
264.9338,5587.6
264.9889,201.9
265.0017,304.2
265.0165,285.1
265.0355,7770.4
265.0477,1820.3
265.0671,364
265.1325,206.4
265.1936,399.6
265.3493,570.1
265.5168,236.1
265.5956,218.6
265.6292,344
265.6653,82.7
265.8176,660.7
265.9093,318
265.927,128.5
265.9812,176.1
266.0066,529.4
266.0509,80.2
266.0902,123.1
266.1304,121.9
266.3226,114.8
266.439,89.6
266.5045,151.7
266.6803,107.8
266.7645,463.7
266.8501,5269.7
266.8942,1701.8
267.0025,223.5
267.0134,132.6
267.0598,902.2
267.0874,105.5
267.0916,155.4
267.1332,150.9
267.1389,725.3
267.1632,23.4
267.2791,386.2
267.3079,157.7
267.3318,745.5
267.3494,95
267.3908,703.5
267.3949,383.9
267.5799,94.4
267.5969,213
267.648,461.8
267.866,638.6
268.0319,170.4
268.1038,132.7
268.2853,85.9
268.2937,18.7
268.306,570.3
268.3119,681.7
268.3172,101.7
268.4471,343.6
268.553,19.3
268.6342,254.8
268.7025,229.4
268.7916,92.7
268.8248,196.9
268.8405,92.9
268.8916,404.2
268.9122,74.5
268.9718,157.4
268.9743,167.6
268.9814,315.5
269.0121,88.4
269.0332,821.8
269.0373,83.6
269.0451,20238.6
269.049,35891.6
269.0585,679.4
269.2422,201.4
269.4225,194.9
269.5435,620.3
269.7605,110
269.7751,96
269.9943,1887.9
270.025,824.8
270.0476,23854.6
270.065,20
270.0961,133
270.145,1088.9
270.3594,109.5
270.4013,74.7
270.5366,601.8
270.6053,421.2
270.6368,63.9
270.6424,82
270.7132,90.5
270.7198,60.4
270.7982,4025.1
270.8049,209.4
270.8829,398.7
270.8892,116.7
270.928,734.3
270.9782,14749.9
271.024,551.3
271.0289,791.4
271.0509,494.3
271.078,872.9
271.0907,1268
271.1406,123.3
271.1804,640.8
271.2592,84.1
271.2953,21.9
271.2995,121.3
271.3145,82.2
271.6591,76.1
271.6744,724.3
271.8055,787.4
271.879,60.8
271.9647,416.5
272.0432,152.9
272.0496,573.4
272.0803,348.1
272.0943,364.9
272.1517,96.3
272.3216,189.3
272.4086,387.5
272.5642,143.1
272.618,751.4
272.6221,220.5
272.7059,104.2
272.7952,4055.2
272.8227,213.6
272.9449,22.6
272.9558,393.2
273.0187,333.6
273.0488,4314.3
273.0793,115.7
273.0911,139.4
273.1577,572.4
273.2397,192.6
273.2702,18.7
273.3596,170.8
273.383,896.5
273.7853,87
273.8862,752.1
273.9127,19.7
274.0405,41.4
274.0513,132.7
274.0693,189.7
274.0738,589.2
274.0926,1129.8
274.2117,255.7
274.355,121.2
274.4173,137
274.4399,294.5
274.5319,99.2
274.5397,192.4
274.5822,186.5
274.593,323.4
274.7494,461.7
274.7924,1879.2
274.8292,109.2
274.8412,665.7
274.8824,721.8
274.9559,112.7
275.1327,95.3
275.3748,147.8
275.4522,68.9
275.461,441
275.4745,20.3
275.5081,121.6
275.5871,76.3
275.9984,491.1
276.0035,144.3
276.0097,20.8
276.0848,119.9
276.1104,20.9
276.1191,332.5
276.134,132.3
276.152,119
276.4357,92
276.4463,133.1
276.4485,128
276.6031,263.9
276.6342,222
276.7976,20.3
276.9234,6437.4
276.942,407.3
276.9863,449.4
277.0051,911.9
277.0954,385.9
277.1033,380.9
277.2122,148.5
277.2333,394.9
277.237,429.5
277.2383,488.7
277.2584,560.1
277.2808,132.5
277.3754,67.2
277.4403,140.7
277.4608,776.1
277.4888,310.6
277.4989,557.5
277.5575,670.7
277.5636,391.2
277.5792,20.5
277.7687,360.2
277.9285,146.2
277.9625,736.9
277.9682,745.9
278.0192,523
278.0466,206.1
278.2412,193.8
278.2976,259
278.3583,123.2
278.432,18.3
278.4826,169.6
278.5677,133.4
278.5828,90.5
278.8069,261.1
278.9211,1739
278.9721,705.8
278.9871,347.5
279.0204,392.5
279.032,61.5
279.0569,42987
279.1657,144
279.3303,126.9
279.3816,154.5
279.4239,383.6
279.4621,566
279.4832,117.4
279.5675,404.7
279.6474,449.5
279.6632,680.7
279.8346,98.7
279.8545,730.4
279.8571,871.2
279.859,955.5
279.864,426.3
279.8743,265.6
279.9965,128.4
280.0161,248.1
280.0601,961
280.0665,143.9
280.0926,3817.4
280.1247,236.5
280.2496,722.8
280.2631,19.8
280.3303,680
280.5605,97
280.595,105.3
280.6421,129.1
280.8041,416.9
280.8268,1948.2
280.8388,792.3
280.8402,765
280.9446,223.8
280.9669,215
281.0094,564.3
281.0327,88.1
281.0518,103.8
281.0637,249.1
281.2017,203.1
281.3068,114.3
281.3151,123
281.4406,188.6
281.5002,428.5
281.6605,336.5
281.6996,206.5
281.7502,308.6
281.8108,675.8
281.8229,229.9
281.989,103.1
281.9969,103.2
282.015,183.5
282.0207,165.8
282.0642,922
282.1184,24.9
282.1658,390.1
282.1906,703.3
282.196,540.3
282.2284,164.6
282.2732,483.8
282.2981,668.1
282.5352,342.4
282.64,115.2
282.8241,1979.7
282.8662,577.3
282.9354,100.6
282.9605,454.1
283.0284,1516.8
283.0789,196.9
283.0988,580.2
283.1195,366.7
283.1312,166.5
283.2026,669.5
283.2897,665
283.3112,263.7
283.3412,127.8
283.4585,807.7
283.6979,120.4
283.8924,142.1
283.9398,67.4
283.9834,373.6
284.0512,20.7
284.0632,206.6
284.1256,593
284.2111,570.5
284.2573,498.2
284.5181,127.7
284.5719,83.8
284.8664,335.3
284.8734,99.2
284.8948,500
285.0118,20.3
285.0238,289.8
285.0279,111.6
285.0397,217.6
285.1515,96.3
285.1982,70.5
285.3244,90.3
285.3398,863.6
285.347,490.5
285.3954,582.7
285.4225,787.4
285.4689,96.4
285.7926,170.8
285.8821,116.8
286.02,227.4
286.0248,407.5
286.0427,24.3
286.079,184.6
286.0972,145.4
286.1712,93
286.2719,349.4
286.3621,128.3
286.5023,22.6
286.703,71.7
286.7721,1764.1
286.9522,4712
286.971,715.8
286.9984,61.4
287.0556,46369.4
287.101,531.8
287.2197,120.1
287.452,779.6
287.4829,122.9
287.5205,392.7
287.6676,87.7
287.6931,21.5
287.7167,439.8
287.8439,77.8
287.9883,98
288.0137,54.1
288.0472,94.8
288.059,2800.9
288.0649,77.8
288.0851,165.5
288.1079,101.3
288.1559,21701.9
288.1625,231.5
288.3636,331.1
288.3951,214.8
288.4994,19.3
288.5802,24.1
288.6011,64
288.7692,1939
288.7966,301.2
288.8328,169
288.853,99.6
288.8606,280.7
288.8674,318.2
288.8746,668.2
288.877,667.2
288.8834,1137.6
288.8927,2994.1
288.9001,2716.8
288.9098,8946.6
288.919,9545.9
288.9245,12323.3
288.9297,13312.5
288.9397,17742.2
288.948,17588.7
288.9523,16655.3
288.9608,21582.7
288.968,13203.6
288.9707,13726.2
288.9772,13896.6
288.9826,12967.8
288.9869,11161.2
288.9901,7893
288.9954,8592.7
289.0067,4697.7
289.0169,635.7
289.0204,775.4
289.0296,211
289.062,595.8
289.0862,148.6
289.1592,1203.2
289.2989,477.7
289.3219,780.9
289.3713,111.8
289.4655,399.3
289.4774,115.2
289.5189,76.8
289.643,1022.9
289.7706,137.8
289.8397,105.6
289.8737,926
290.1089,19.8
290.1929,102.7
290.3961,951.5
290.4138,864.7
290.5189,202.3
290.5387,739
290.7649,191.6
290.7755,169.9
290.7911,662.4
290.8025,20.5
290.9699,419.6
290.9772,21.4
291.0133,88.5
291.0162,70.1
291.0178,74.5
291.0271,4260.4
291.0506,166.3
291.3334,98.6
291.3424,219.3
291.411,134.9
291.5094,215.2
291.7353,64.5
291.7928,216.6
291.8101,108.6
291.9679,110.5
291.9774,109.2
292.0799,127.6
292.1101,361.2
292.1169,678.9
292.1401,195.2
292.3722,162.5
292.3915,165
292.4268,191.4
292.5369,184.8
292.5925,379.9
292.6521,921.8
292.8973,2583.9
293.0694,9187.8
293.0874,122.7
293.0985,516234.7
293.1793,3057.3
293.1877,94.1
293.3014,99.4
293.3288,428.7
293.3309,407
293.3332,364
293.3718,87.9
293.447,182.1
293.5501,137.4
293.6023,565.8
293.8183,136.2
293.9933,353.7
294.0072,332.5
294.0424,236.1
294.0954,1564.6
294.1019,46055.3
294.1551,25.2
294.1654,358.5
294.1733,188
294.3234,656.1
294.3559,134.8
294.3621,171.3
294.3643,349.6
294.3665,387.8
294.4499,186.6
294.585,143.6
294.7045,19.1
294.9096,455.9
294.9827,20.3
294.9908,477.6
295.0309,1528.9
295.1025,4230.9
295.1312,846.9
295.1541,242.7
295.195,26553.8
295.2942,90.9
295.3726,494.7
295.4192,79.9
295.491,1396.1
295.5558,19.6
295.9523,415.5
295.9976,279.9
296.009,651.4
296.0672,1134.9
296.1061,79.1
296.198,1610.3
296.2314,368.9
296.3576,60.2
296.4293,775.2
296.4461,134.1
296.5079,355.5
296.6121,423.2
296.6345,390.1
296.7382,592.3
296.8205,137.1
296.8662,724.2
296.9361,736.3
296.988,676.5
297.0573,111.1
297.1251,81.9
297.1937,865.2
297.263,406
297.3087,81.8
297.5198,112.4
297.7771,421.9
297.9321,758.9
297.9456,18.4
297.9593,123.5
297.996,22.9
298.0253,1413.7
298.0426,17994.2
298.1986,69.6
298.3396,401.3
298.4459,401.3
298.5562,297.2
298.6327,156.9
298.6902,173.8
298.9865,128.3
299.0459,625.4
299.0519,333.7
299.0567,325.3
299.0913,23.4
299.1069,343.4
299.1197,22.7
299.1396,2822.6
299.1572,213.1
299.1674,283.2
299.1962,957.1
299.3187,585.3
299.3863,110.4
299.4419,199.2
299.5479,433.6
299.596,17.1
299.6204,767.2
299.6713,673.4
299.6889,220.5
299.9326,108.5
300.0385,754.5
300.0484,35.5
300.0756,448.3
300.1966,89.7
300.2616,166
300.3373,196.9
300.341,265.9
300.3432,176.2
300.3483,121.8
300.4825,21.4
300.4874,522.7
300.6855,70.5
300.7501,105.4
300.8903,937.1
300.9407,107.9
300.9967,114.5
301.0389,24428.4
301.0761,51
301.1414,208.8
301.1675,672.9
301.1805,61.7
301.2119,1343.7
301.5376,1259.4
301.5764,122.2
301.6742,795.9
301.7292,386.3
301.7631,812.8
301.913,19.1
301.9556,648.5
302.0201,169.6
302.0355,154
302.0643,5067.8
302.0741,29.4
302.0922,22.8
302.149,246.2
302.2109,71.5
302.4762,20.8
302.5415,277.9
302.5906,130.6
302.6356,259.4
302.6849,799.4
302.6912,205.2
302.6934,229.9
302.6998,606.4
302.7084,18.8
302.7129,377.3
302.7453,454.8
302.8298,3214.3
302.854,482.5
302.9252,1095
303.048,180.9
303.0626,18.3
303.0676,445.5
303.078,155.4
303.1078,139.8
303.1596,132
303.2177,3118.4
303.3341,625.2
303.3509,73.9
303.5238,21.5
303.5538,204.4
303.6589,149.3
303.7006,118.4
303.7476,388.5
303.86,107.4
303.8647,108.5
303.9706,703.5
304.0178,387.3
304.0599,180.3
304.0812,113.6
304.2469,336.6
304.2582,124.2
304.2635,199.5
304.2703,826
304.4216,180.2
304.6018,185
304.6165,465.5
304.6702,245.5
304.7429,489.1
304.8129,716.4
304.8271,1044.6
304.9757,405.4
305.0013,296.6
305.1169,83.8
305.2263,420.7
305.2336,785.8
305.2454,963.8
305.275,258.6
305.4122,20
305.6252,144.4
305.648,153.4
305.6784,444.1
305.7044,197.6
305.8208,181.3
305.8583,99.6
305.985,742.2
306.0959,61.9
306.3,20
306.3963,238.2
306.534,332.1
306.5428,171.1
306.6018,245.3
306.6634,339.7
306.8087,87.4
306.8539,109.3
306.8835,124.4
306.9579,538.7
306.9779,3637.6
307.0069,29
307.0139,242.3
307.1692,370.6
307.3186,60.7
307.5826,117.6
307.6146,75.4
307.7699,337.3
307.8982,288.5
308.0123,20.1
308.0284,308.8
308.1259,121.4
308.19,73.6
308.3212,114.6
308.3278,121.7
308.8153,112.7
308.8792,3679.9
308.9548,383.4
309.0065,299.4
309.0378,4625
309.0833,2462
309.094,382
309.1673,298
309.1896,126.9
309.404,221.7
309.4666,174.8
309.577,368.8
309.611,113.8
309.6747,21.6
309.7242,83.6
309.751,592.3
309.8484,152.3
309.8992,615.7
310.1187,83.5
310.2104,367
310.3851,535.5
310.5399,582.4
310.5977,81.5
310.6031,74.7
310.775,160
310.7961,848.8
310.8766,1966.5
310.8949,96.2
310.9268,364.6
310.9556,216.5
311.0033,225.8
311.1258,850.2
311.1765,19.7
311.2222,556.5
311.4098,349.5
311.4625,604.6
311.5521,272.8
311.5948,96.8
311.6259,74.2
311.8379,97.9
311.9353,76.3
312.0415,1743.7
312.1757,112.8
312.203,104.6
312.2622,68
312.3578,933.9
312.3872,149
312.4269,171.1
312.4392,19
312.4845,146
312.5512,85.1
312.5799,129.5
312.7651,178
312.7839,110.3
312.8162,99.5
312.8546,804.5
312.8572,871.5
312.8733,562.5
312.9773,800.5
313.0022,119
313.0345,119.4
313.1093,414.6
313.1822,496.2
313.198,603.3
313.2743,47102.6
313.311,88.7
313.332,135
313.4141,20.7
313.4393,166
313.4619,264.3
313.4716,448.4
313.4808,672.9
313.6574,102.3
313.7861,105
313.8876,89
313.9931,381.8
313.9993,820.4
314.015,320.2
314.0758,374.5
314.0913,199
314.2778,6114.6
314.3448,97.4
314.4158,658.9
314.5051,17.9
314.5077,16.9
314.5449,893.1
314.8277,391.2
314.8375,6114.5
314.9611,145.2
314.9774,362.7
314.9995,7275.9
315.0318,127.4
315.0408,420.9
315.0524,5081.1
315.0556,10170.3
315.0597,4231.6
315.0619,6295.5
315.064,8274.5
315.0668,24673.5
315.0699,33568.7
315.0734,21490.7
315.0805,8642121
315.087,34493.1
315.0896,16154.4
315.0922,12761.1
315.0945,11325.2
315.0967,7244.2
315.0987,5979.9
315.1008,3517.7
315.1028,1381.5
315.1052,797.9
315.1072,1118.2
315.1094,785.6
315.1114,832.7
315.1203,282.4
315.1219,371.6
315.1265,185.8
315.1282,254.5
315.1616,7163
315.1834,557.6
315.1895,217.6
315.2014,19.2
315.2603,258.3
315.2686,968.9
315.3238,8452.2
315.3545,67.4
315.3682,908.7
315.4046,87.5
315.4114,152.9
315.5135,645.8
315.5753,112.2
315.6221,487
316.0029,100.9
316.0209,996.1
316.0536,116.2
316.0683,1572.5
316.0778,47932.4
316.0838,900803
316.1389,117.1
316.1461,130
316.3683,98.7
316.436,134.7
316.5816,598.7
316.6817,159.8
316.7188,185.4
316.7816,85.6
316.8649,22.5
316.9875,1053.1
317.0236,438.5
317.0566,2130.6
317.0654,3582.6
317.0737,80.5
317.0843,104343.5
317.088,18134.5
317.0941,102.4
317.2538,367.4
317.5092,172.6
317.5606,798.4
317.7194,110.8
317.7761,89.2
318.0879,10729.1
318.1038,19.4
318.2746,177.6
318.4263,19.6
318.529,252.9
318.6711,18.2
318.7243,73.1
318.8035,923.8
318.8457,80.6
318.9766,214.1
319.1401,190.2
319.195,47182.6
319.2465,62.6
319.3016,117
319.3141,122.3
319.3379,333.5
319.3513,414
319.4426,16.6
319.5377,406.2
319.8694,282.5
319.9123,113.3
320.0747,195.2
320.1982,5302.3
320.2452,779.4
320.2589,3043
320.4955,315.5
320.7332,402.2
320.7816,325.5
320.8011,1462.5
320.87,122.3
320.9026,22.9
320.9498,347.8
320.9733,24.3
321.1223,109.4
321.2106,62682.8
321.2228,162.7
321.2353,17.9
321.2405,480.5
321.2623,59.1
321.2693,126
321.274,23.2
321.283,410.4
321.3112,99.4
321.4482,80.8
321.5002,447.9
321.5666,20.3
321.5946,82
321.6449,118.1
321.8026,673.1
321.8315,193.6
321.9869,1356.7
322.0091,219.9
322.0619,125.8
322.0704,19.8
322.0816,348.2
322.0945,556.6
322.214,7793.2
322.3159,179
322.3371,354.6
322.3547,306.8
322.3964,865.6
322.7663,91.4
322.8117,435.8
322.8975,175.3
322.9321,665
322.9471,91.3
322.9682,678
323.0209,10477.9
323.0793,83.1
323.1567,553.7
323.1842,91
323.1859,109.9
323.1881,80.2
323.2264,3945.3
323.2441,120.8
323.5308,87.9
323.8963,65.8
323.971,331.5
324.0022,397.3
324.1954,101.1
324.3068,255.7
324.3732,176.4
324.4174,21.8
324.4922,93.2
324.5511,31.2
324.5587,2596.2
324.563,4108.2
324.5692,5664.8
324.5784,1835.5
324.8086,1136.4
324.8532,2096.1
324.8769,315.1
324.8795,303.3
324.9353,169.6
325.007,19.1
325.0187,113.9
325.0413,82.3
325.1433,364.6
325.212,6163.2
325.3285,71
325.3759,299.6
325.4067,21.2
325.4252,23.7
325.6875,599.7
325.7195,215.8
325.7845,155.6
325.8941,68.6
326.0045,55.4
326.0081,144.7
326.1605,271.6
326.3305,112.9
326.399,70.7
326.5216,342.7
326.5854,61.7
326.8503,2253.3
326.9384,90
327.0161,3826.1
327.047,63.8
327.0519,1266.9
327.1097,116.7
327.2167,81.7
327.2277,16599.2
327.2535,200
327.6821,251.5
327.803,310.2
327.9298,101.9
328.2249,413.7
328.227,475.9
328.2299,411.4
328.2568,19.1
328.3987,23
328.425,138.9
328.429,686.8
328.4364,461.1
328.4608,204.3
328.4875,123.2
328.6131,756.2
328.7869,246.5
328.8473,620.7
328.8562,165
328.911,325.5
328.9747,216.8
329.096,1718.9
329.1624,118.8
329.2527,91.4
329.3397,791.9
329.3631,385.4
329.5512,232.3
329.6096,198.2
329.7449,203.2
329.8463,1064.2
329.9057,672.4
329.9259,92.7
329.9641,203.5
329.9984,207.3
330.0175,943.4
330.03,88.8
330.0594,217.9
330.124,190.9
330.2779,133.4
330.3122,63.4
330.4366,70.4
330.5953,144.9
330.7539,550.2
330.7932,96.9
330.9437,275.7
330.9681,104.6
330.9887,59.9
331.0202,941.3
331.0456,167177.4
331.0544,1261041.1
331.0661,413.4
331.0945,144.5
331.1432,173.1
331.2256,116.7
331.2407,125
331.2798,735.3
331.3081,143.7
331.4709,99.8
331.7039,19.2
331.8599,190.6
332.0485,11853.2
332.0578,114589.4
332.1196,386.8
332.1777,136.8
332.228,122.3
332.2579,198.8
332.4374,19.7
332.9608,791.5
333.0526,74555.8
333.0582,13158.5
333.0783,408
333.1267,82.2
333.1936,95.9
333.1998,950.2
333.2125,202
333.2206,87.3
333.5335,101
333.6045,19.2
333.6871,80.1
333.7143,119.1
333.9087,18.1
333.9476,780
334.0559,6437.4
334.0905,107.8
334.4481,193.6
334.6026,20.6
334.6804,570.6
334.6957,220.7
334.839,661.1
334.9573,113.4
334.9844,25.5
335.0096,626.1
335.0384,1491
335.0753,71.7
335.168,174.4
335.2796,85.6
335.3243,369.7
335.5086,612.1
335.5731,72.6
335.6322,273.9
335.6406,592.2
335.7697,689.2
335.8279,75.7
335.8375,515.2
336.0138,499.9
336.0656,529.4
336.1074,227.6
336.2383,417.4
336.3179,140.3
336.3691,418.3
336.6218,455.6
336.7377,423.2
336.7513,593.6
336.8384,801
336.8649,146.1
336.9477,114.6
336.965,208
336.974,88.9
337.0367,13115.5
337.05,26476.6
337.0624,778681.6
337.1685,76.1
337.2247,21.4
337.2549,225.9
337.2743,12071.8
337.3777,113.7
337.5816,669.9
337.7976,22.2
337.9169,20
338.0533,349.9
338.0658,71231.8
338.1607,121.2
338.2639,68.1
338.3426,63
338.4219,151.7
338.4396,865.7
338.5056,110.9
338.5416,457.2
338.5984,17.9
338.6121,712.1
338.7132,730.4
338.7859,471.1
338.8143,163.4
338.8398,81.3
338.9214,465.1
338.9488,113.6
338.9677,65.8
339.0385,3357.6
339.0473,1306.7
339.0663,5757.4
339.0919,107.2
339.1234,99.4
339.1836,97.1
339.2509,2179.3
339.2901,8417.7
339.3878,888.2
339.4774,73.9
339.5588,74.2
339.6523,185.6
339.7126,18.6
339.7729,396
339.9183,916.2
339.9334,20.7
339.9492,122.9
340.1184,253.4
340.1564,781.9
340.4413,227.5
340.5895,77.4
340.7827,508
340.9291,357.2
340.9867,1293
341.0025,486.7
341.0185,42.3
341.0997,88.5
341.1234,130.3
341.3056,4267.3
341.592,169.8
341.6982,84.7
341.7773,217.7
341.8358,186
341.9649,129.2
342.0309,84.3
342.1225,801.8
342.1418,867.3
342.2413,562.6
342.7226,113.8
342.8693,946.3
342.9023,212.6
342.9118,145.5
342.9895,1265.6
343.0131,798.7
343.1349,287
343.1427,170
343.195,13095.8
343.2004,1885.5
343.2443,611
343.2549,706
343.3514,662.9
343.3799,89.6
343.4774,364.8
343.6551,140.5
343.657,145.2
343.7589,198.8
343.8092,112.1
343.8171,94.7
344.0249,425.8
344.092,85.8
344.1989,1048.4
344.3841,234.9
344.5289,364.1
344.5747,735
344.6993,149
344.7044,460.7
345.0143,180.7
345.2111,2481.9
345.2908,836.9
345.3018,232.5
345.4143,872
345.5684,20.5
345.5928,203.8
345.6011,393.3
345.6197,651.1
345.743,212.7
345.9009,205.1
345.9847,1250.8
346.0096,34.5
346.0236,78.4
346.0416,22.8
346.0905,371.2
346.1201,9290
346.1757,80.4
346.2452,212
346.2527,328
346.2839,88.4
346.3618,317.1
346.3714,220.4
346.413,17.1
346.4776,339.2
346.4911,397.9
346.5395,353.2
346.5659,127.3
346.5948,822.6
346.6092,180.1
346.7028,111.9
347.0046,116.2
347.0603,70.5
347.1162,81.2
347.3629,367.6
347.6123,126.9
347.7446,776.7
347.7546,71.1
347.7932,77.1
347.914,321.4
347.942,377.5
347.9485,108.9
347.9947,177
348.1271,157.3
348.1718,301.2
348.3929,446.5
348.4145,635.1
348.4999,20.2
348.7941,21.5
349.2059,75.3
349.3962,395.6
349.5359,61
349.5485,584.9
349.5717,176.8
349.8927,205.9
349.9102,362
350.0118,128.6
350.0672,94.4
350.141,83.8
350.1697,292.5
350.5253,886.6
350.7692,125.8
350.811,1218.8
350.8563,128.2
351.3374,22
351.3483,177.4
351.4926,19.3
351.7182,156.9
351.8796,124.7
351.9002,570.6
351.9374,19.9
352.2617,520.4
352.3504,118.8
352.3627,210.1
352.6664,339.8
353.0275,165153.9
353.0364,244829.4
353.1021,66.6
353.1158,297.3
353.3579,18.6
353.3976,261.2
353.4304,70.9
353.7255,490.8
353.7286,470
353.7844,141.2
353.897,195.6
353.9126,365
354.0308,14200.4
354.0397,22577.3
354.0508,335.4
354.275,17.1
354.3895,650.2
354.4483,20.4
354.4933,94.1
354.6607,178.7
354.7169,138.2
354.7716,647.4
354.8722,100.4
354.8951,654.8
354.9022,90
355.012,3222.6
355.0267,455.5
355.0346,14875
355.0705,492.1
355.0825,75.4
355.1164,544.2
355.1745,122.6
355.2162,920.4
355.2832,62.4
355.3241,76
355.4,272.1
355.4159,713.2
355.6143,187.6
355.9842,383.7
356.0153,147.8
356.07,31.2
356.2137,71
356.3467,100.9
356.5443,74.2
356.6553,165.1
356.7025,182.7
356.7271,543.2
356.7396,118.5
356.9362,216.1
357.009,975.6
357.0201,192.3
357.0695,429
357.4234,96.8
357.5994,175.2
357.6252,391.3
357.6652,19
357.9116,134.4
357.9533,21
357.9781,25.2
357.9972,18.7
358.0095,30.8
358.1166,22.8
358.211,155.9
358.3118,71.7
358.3296,130.6
358.4793,223.4
358.588,204.5
358.6122,930.9
358.6372,110.2
358.6912,74.3
358.8312,128
358.8436,648.8
358.9193,102.7
358.9738,83.5
359.0078,542.7
359.0319,16540.7
359.0444,431669.2
359.2504,79.6
359.3272,309.5
359.377,113.5
359.4045,104.6
359.434,362.8
359.4861,131
359.5449,116.6
359.5484,114.8
359.5624,489.2
359.5651,662.6
359.5682,481.2
359.5932,189.3
359.6032,843.8
359.6063,728
359.6091,783.5
359.6147,382.8
359.6204,479
359.6311,1596
359.6467,97.6
359.6617,1074
359.6863,73.7
359.6934,305
359.7074,128.1
359.7199,116.6
359.7485,119.3
359.9631,101.2
359.9952,244.2
360.0479,36955.6
360.2133,145.4
360.2196,205.1
360.2903,91.8
360.3244,565.9
360.4484,375.2
360.5648,210.9
360.5769,165.4
360.8044,666
360.8457,378
361.0207,5996
361.0485,1896
361.096,351.6
361.1262,358.7
361.2005,95.1
361.2745,1114.6
361.2966,108.2
361.3275,30.3
361.3848,587
361.7438,432.1
361.7531,147.3
361.8984,728.5
362.094,365.6
362.2762,77.6
362.36,94.5
362.3701,145.4
362.6422,107.7
362.6565,472.4
362.7067,285.2
362.8951,417.2
362.9271,671.1
363.0506,92.1
363.087,74.3
363.0968,210.8
363.1146,273.9
363.1256,157.1
363.5569,627.1
363.7059,358.5
363.8046,76.4
363.8135,89.3
363.8712,251.3
363.9175,263.5
363.9554,118.6
364.0336,621.7
364.0824,809
364.1738,559.9
364.2411,364.1
364.3499,189.2
364.3953,578.1
364.4893,401.8
364.5206,20
364.731,212
364.7879,770.1
364.9157,461.6
364.9551,441.2
365.1633,188.5
365.2278,413.4
365.6131,313.6
365.6363,459
365.664,121.8
365.9429,21.5
365.9787,377.5
365.9968,583.1
366.0454,18.5
366.4038,293.2
366.4726,100.5
366.4864,319.8
366.565,402.4
366.6561,665.8
366.9198,121.5
367.1224,1103.2
367.1952,1826.4
367.4292,147.5
367.4455,333.6
367.4691,524.8
367.496,624.6
367.7072,83.3
367.9194,81.7
368.0482,131.3
368.0707,18.6
368.1613,615.4
368.2758,162.9
368.2791,180.7
368.2827,207.6
368.518,238.3
368.6688,241.1
368.8794,138
368.9927,1101.5
369.0014,20483.5
369.0104,8252.2
369.037,248.7
369.1212,212.2
369.3516,111
369.3795,138.9
369.4301,785.4
369.5354,122
369.8147,120.9
369.8643,544.4
370.0047,362.2
370.0993,261.9
370.5124,414.7
370.543,199.3
370.631,79.9
370.6514,88.7
370.6901,523.3
370.7767,129.7
370.7976,572.4
370.8289,336.2
370.9992,73.1
371.0783,513.6
371.2667,1008.9
371.2945,355
371.3446,811.2
371.4988,170
371.6335,94
371.9778,86.8
371.9899,23.5
372.0661,438.4
372.1157,769.2
372.1906,61.7
372.5286,596.5
372.7296,80.4
372.8675,211.7
372.8775,344.9
372.9398,570.5
373.0817,717.2
373.1173,18.2
373.1476,382.2
373.3339,168.2
373.5656,179.1
373.5885,202.7
373.8585,20
373.8708,425.8
373.8788,95.9
374.0377,487.2
374.1241,1051.7
374.1851,695
374.4635,209.8
374.5941,125.4
374.7047,642
374.7354,498.2
374.8397,151.3
374.862,137.9
375.0095,145836.2
375.0184,131785.8
375.0885,306.7
375.3792,141.7
375.421,212.3
375.8249,118.5
376.0127,8395.3
376.0217,11207.8
376.1872,206.6
376.4589,555.6
376.4875,79.3
376.6705,646.6
376.9943,2928.5
377.0029,208.7
377.0166,6819.2
377.0545,590.7
377.0571,454.8
377.2833,87.5
377.304,151.7
377.6321,849.7
377.986,18.3
378.0613,416.1
378.0688,478.6
378.105,82.5
378.2413,106.6
378.2772,19.5
378.3349,313.9
378.6169,76.7
378.6348,668.7
378.6457,174.3
378.8112,21
378.9011,1015.4
378.9367,321.9
378.9682,94.1
378.9906,129.1
379.1183,180.8
379.1726,169.9
379.1851,82.9
379.3523,586.8
379.4314,18.9
379.5462,205.1
379.9339,539.6
379.966,224.8
380.0684,421.1
380.1594,728.9
380.2159,71.5
380.2636,370.6
380.2956,532.9
380.4903,156.4
380.5553,732.1
380.5786,669.7
380.6287,211.8
380.7707,325
380.8202,547.2
380.99,52.8
381.014,20477.4
381.0264,225046.9
381.1105,97.6
381.2863,122
381.4944,126
381.5812,770.1
381.7264,549.5
381.7394,497
381.7716,62.4
381.7976,72.3
381.9366,65.5
381.9454,439.8
382.0297,20178.2
382.5284,375.6
382.8316,17.5
382.9506,159.9
383.0104,439.8
383.0354,73.4
383.0767,106.3
383.1167,212720.2
383.1473,94.1
383.2377,17.7
383.3243,125.2
383.5129,73.1
383.5371,538.3
383.7924,20
383.8994,99.5
383.914,604.8
383.9743,495.2
383.9777,549.4
384.0757,67.5
384.1201,22243.6
384.175,806.5
384.2259,138.1
384.4151,126.8
384.4477,251.9
384.7376,1058.8
384.7643,910.1
384.7769,104.4
384.8696,282.2
384.9404,98.6
384.9464,198
385.0178,194.2
385.0362,520.8
385.0643,76.1
385.113,599.4
385.1197,2058.4
385.2253,212.1
385.2747,676.1
385.8748,392.2
386.0126,91.7
386.1305,318.3
386.2202,17.7
386.2865,696.1
386.3863,519.1
386.3962,86.7
386.5183,114.7
386.681,116.7
386.754,162.5
386.8626,815.2
386.9624,626.4
387.0028,1925.8
387.1339,424.2
387.2274,84.3
387.3278,114.9
387.3304,170.8
387.5433,194.4
387.5941,84.2
387.8331,546.6
387.8837,283.6
387.9392,248.3
388.6268,304.5
388.707,112.1
388.7128,1021.8
388.8416,194.5
389.0957,206.6
389.1161,123.5
389.2349,697.5
389.2868,193.6
389.297,626.1
389.3158,154.3
389.6724,105.2
389.7833,630.3
389.8151,120.9
389.9745,1161.2
389.9943,32.3
390.3462,367
390.3619,217.7
390.4307,130.9
390.4453,198.8
390.6459,18.6
390.6793,87.9
390.6886,851
390.7993,1473.7
390.8083,175.6
390.8475,107.1
390.8632,667.5
390.8704,96.1
390.8779,502.8
390.8854,647.5
390.8956,564.3
390.9743,9678.4
390.9833,25466.6
390.9923,15954.6
391.0253,86.8
391.4139,979.3
391.4186,928.6
391.9081,317.2
391.9313,21.5
391.9828,170.3
391.9959,206.3
392.0463,369.6
392.0769,193.4
392.1448,401.9
392.2819,158.5
392.3488,968.4
392.3951,143.4
392.7009,60.8
392.7962,1701.3
392.8802,411.6
392.9531,109.9
392.9586,623.9
392.9678,259.3
392.9902,838.5
393.029,363.7
393.298,52.3
393.3104,18.6
393.3525,20.1
393.3852,354.6
393.4384,80.4
393.5635,741.8
393.5936,16.5
393.7617,19.4
393.9489,232.1
393.9838,580.7
394.0586,391.9
394.0641,796.3
394.1082,216.6
394.1778,62.6
394.4764,165.1
394.5226,266.9
394.7944,599
394.8541,194.8
394.9551,19.1
395.2155,599
395.2981,146.7
395.5944,91
395.6988,187.5
395.7236,327.2
396.0393,423.9
396.0969,124.8
396.4756,241.2
396.5199,103.5
396.5515,70.7
396.9812,285.7
396.9914,160903.7
397.0003,74693.4
397.1974,117.8
397.5578,533.4
397.7263,22.3
397.8242,17.4
397.8809,63.1
397.9948,11441
398.0036,2685.4
398.1143,352.1
398.1923,86.3
398.2915,232.4
398.354,87
398.5869,505
398.6103,21.4
398.6605,98.9
398.7414,1680.7
398.7621,2043.4
398.9761,104.2
398.998,638
399.0558,181.5
399.387,122.2
399.5538,137.3
399.7247,159.4
399.8297,148.9
399.8872,77.4
399.9865,244
400.1081,196.7
400.1983,94.4
400.6001,89.9
400.7094,101.4
400.7664,82.9
400.8278,1578
400.9716,80.8
400.9845,732.2
401.3225,335.8
401.3409,116.6
401.4094,336.1
401.7369,18.7
401.8631,166.1
401.9691,110.8
401.9851,104.7
402.0051,173.5
402.2456,125.3
402.3108,236.3
402.7666,327.2
402.7822,204.7
402.9652,138.2
403.0083,232173.5
403.0249,876.2
403.1976,379.9
403.2744,121.3
403.2906,585.4
403.4624,107.2
403.719,21.9
403.8915,384.4
404.0117,18307.1
404.0717,95.7
404.1552,227.8
404.2205,151.2
404.2393,260.9
404.2483,317.1
404.3606,330.7
404.6394,239.3
404.6873,384.1
404.92,669.7
404.9688,690.2
405.0141,372.3
405.0506,701.7
405.2987,81.6
405.3828,237.2
405.5974,799.7
405.6161,316.2
405.7806,125.5
405.9476,903.8
406.056,207.2
406.0681,120
406.1465,407.1
406.1799,326.3
406.2201,808
406.3297,1168.2
406.5351,650.7
406.5422,109.4
406.6998,18.1
406.7088,175.6
406.7734,1411.5
406.8417,407.5
407.3331,237.4
407.3495,240.6
407.4425,109.4
407.6785,123
407.837,583.8
407.8636,92
408.2595,596.4
408.2683,475
408.3205,19.7
408.3833,339.9
408.4605,174.8
408.7702,1037.7
408.8584,465.2
408.9851,1908.2
409.3843,474
409.5379,66.4
409.5983,685.4
410.049,125.4
410.3272,97.5
410.4056,160.9
410.7673,695.4
410.8565,1184.6
410.9699,52.8
411.0069,62.1
411.4109,84.3
411.4297,82.3
411.5433,75.1
411.6411,820
411.7652,888.4
411.9364,111.7
412.0831,82.2
412.1641,674.3
412.2793,334.8
412.287,87.2
412.3218,1928.2
412.3943,511.6
412.4103,17.9
412.4469,100.6
412.7196,407.3
412.7501,598.9
412.8712,264.1
412.9654,26401.2
412.9743,12925
413.1479,20
413.2669,3266.1
413.3248,288.9
413.4214,232.7
413.4689,18.3
413.509,197.6
413.6447,126.1
413.7485,590
413.8326,1478.4
414.27,251.8
414.2851,442.1
414.3924,552.4
414.715,792.6
414.9714,151.6
414.9973,1829.2
415.0368,23.5
415.2223,909.6
415.2854,80.7
415.5013,783.9
415.777,18
415.9322,605.2
416.1356,10581.8
416.2147,22647.4
416.2927,214.6
416.5498,73.9
416.6941,372.1
416.9573,815.2
417.0218,737.2
417.2174,1853.6
417.3583,805.9
417.3728,189.2
417.4155,134.5
417.4319,430.6
417.5332,394.5
417.6222,235.1
417.9004,18.5
417.945,501.8
418.067,85
418.1628,537.1
418.2382,118.6
418.7243,103.6
418.732,767.2
418.7991,992.1
418.9823,79666.1
419.0766,107.7
419.1803,17.6
419.2548,71.6
419.3242,262
419.6614,71.5
419.7008,17.5
419.8252,649.2
419.8813,458.4
419.9383,217
419.9856,4363.2
420.091,85.5
420.1663,339.4
420.1768,288.4
420.2433,180.5
420.2502,149.3
420.2714,684.8
420.3919,136.3
420.8483,188.2
420.8853,626.4
420.948,762.3
420.9589,633.1
420.9814,2468.4
421.2373,184.5
421.296,273.4
421.3287,243.1
421.3606,630.6
421.4092,121.7
421.4969,528.4
421.6622,261.3
421.668,91.4
421.7526,73.1
421.7722,96.7
421.9061,233.4
422.2634,418.3
422.3037,102.8
422.3312,20.5
422.3922,76.7
422.4589,173.6
422.606,94.1
422.9568,397.8
423.245,120.1
423.2708,73.7
423.2985,81.5
423.3776,124.2
423.4456,419.6
423.8321,136.2
423.8903,99.1
423.9017,872.4
424.264,73.4
424.3564,307.1
424.4123,123.2
424.6334,96.3
424.9797,207.1
425.1367,710.9
425.3055,84.6
425.3584,350.8
425.5256,481.9
425.7613,18.9
425.9009,422.7
425.9825,206.7
426.1027,74.7
426.2059,555.7
426.3473,323
426.4623,225.1
426.5884,22.2
426.865,71.9
427.0025,102.9
427.1588,770.9
427.1731,71.4
427.8441,113.7
427.8694,355.9
428.0048,363.8
428.0708,156.3
428.1473,113.3
428.1903,230.5
428.3051,18.5
428.3276,18.4
428.447,250.6
428.5464,21.8
428.6996,436.7
428.7733,695.1
428.8265,103.2
428.9205,170.8
428.9394,1071.2
428.9885,124.1
428.9965,155.8
429.0086,281.8
429.0232,697.4
429.0892,189.8
429.168,83.1
429.1822,125.6
429.2415,20.4
429.3028,455
429.403,1128.6
429.4462,366.6
429.8881,68
429.9993,70.1
430.0887,32.9
430.1277,20.9
430.256,82.9
430.3179,117.7
430.4618,260.2
430.8573,187.3
430.9142,691.7
431.0598,191.2
431.142,784.6
431.2174,5026.6
431.3817,443.6
431.4649,70.5
431.4728,124
431.5444,562
431.6917,646.3
431.8753,539.8
431.9676,80
432.2595,146.5
432.5847,85.2
432.6943,637.5
432.7626,72.7
432.788,839
432.9504,74.1
433.4238,147.6
433.7578,87.2
433.7753,186.7
433.7964,188.9
434.5077,75.1
434.825,524.4
434.8643,360.3
434.9563,13851
435.1387,533.5
435.3906,83.7
435.4366,279
435.4535,822
435.5845,411.4
435.6237,289.8
435.6684,410.8
435.7692,144.8
435.9605,395
436.0707,679
436.1442,521
436.4111,755.6
436.4695,95.8
436.4801,444
436.4891,71.1
436.5107,19.6
436.9549,539.1
437.0168,191.8
437.026,152.2
437.2048,1478.1
437.3239,1062.2
437.3804,90.3
437.3936,691.7
437.4073,457
437.6221,143.1
437.6413,116.3
437.6594,23
437.7504,324.3
438.2263,235
438.3405,17.4
438.3769,110.1
438.4289,18.7
438.4835,18.1
438.6999,170.6
438.8543,620.3
438.9727,1655.2
438.9852,5398.2
439.2044,124.7
439.292,649.3
439.3427,83.2
439.3886,95.5
439.6465,117.2
439.7855,355.7
440.0325,146.7
440.0979,157
440.2618,72.3
440.725,1073.3
440.8093,826.3
440.9827,408.3
441.2385,1013.8
441.2981,206.9
441.3266,80.3
441.7532,16.7
442.2322,424
442.3011,58.4
442.3588,66.4
442.3694,103.6
442.4457,90.8
442.5071,325.5
442.6822,138.1
442.6974,525.4
442.9374,164.5
442.9847,453.3
443.1652,166.4
443.1995,306.9
443.2537,1649.8
443.3486,176.2
443.5683,600.3
443.9617,99.8
443.9949,362
444.1086,83.4
444.2992,827.1
444.3605,196
444.4071,109.9
444.5838,250.1
444.6568,134.5
444.8003,555.6
444.9,600.7
445.1397,75.9
445.2344,816.6
445.5575,80.2
445.6517,89.3
445.8302,77.9
445.9197,570.3
445.9587,99
446.0515,164.8
446.0911,66.3
446.1125,419.1
446.4437,154.2
446.719,88
447.1364,895.2
447.5014,876.1
447.5878,123.8
448.2002,527.6
448.219,90.1
448.3604,771.7
448.3826,645.5
448.6114,564.9
448.9328,3547.4
449.0269,132.4
449.1546,1660.2
449.2272,156.9
449.3192,70.6
449.4077,394.1
449.521,579.3
449.6771,177.8
449.7407,116.1
449.8941,289.6
449.9044,238.9
449.9293,22.1
450.1307,440.6
450.158,325.6
450.2018,18.2
450.212,19.3
450.6588,565.4
450.9311,1245
451.0198,111.8
451.1228,363.5
451.1499,110.5
451.3497,17.6
451.4814,341.7
451.686,118
451.7477,74.2
452.1602,580.9
452.3154,188.9
452.4036,211.7
452.4487,363.1
452.5256,113.3
452.883,109.6
452.9019,313.9
452.9527,122.7
453.0065,186
453.1064,936
453.1204,112.5
453.2419,136.4
453.3405,127.5
453.3603,385.9
453.6926,122.9
453.7134,91.1
453.7774,136.5
454.0085,144.8
454.0314,248.1
454.0809,20.7
454.1379,79.9
454.1522,72
454.1966,384.6
454.2384,141.5
454.2884,19.5
454.3958,217.1
454.4414,59.3
454.5699,84.8
454.6491,62.9
454.6654,371.6
454.7854,701.7
454.9502,35940.3
454.9941,178.8
455.0639,123.6
455.0897,375.1
455.225,583.3
455.2979,610.7
455.3843,18.9
455.5239,78
455.693,19.1
455.8796,79.3
455.9536,1114.2
456.3154,19.3
456.3981,268.6
456.438,113.6
456.6752,98.5
456.7002,596.1
456.8953,173
456.9094,589
456.9473,10356.9
457.2334,13684.4
457.3603,373.9
457.4302,22.5
457.528,23.7
457.6278,115.7
457.6352,650
457.8054,17.5
457.8497,123.7
457.8889,139.8
458.0451,18.4
458.0628,18.1
458.2224,377.5
458.2369,749.7
458.3281,561.5
458.3666,627.2
458.4901,365.5
458.5203,545.9
458.6972,443.2
458.7851,106
458.8499,182.5
458.9618,3838.9
459.1176,713
459.2489,479290.5
459.4235,328.1
459.4996,177.8
459.7154,88
459.8901,403.5
460.0819,389
460.1212,146.2
460.2522,99487.1
460.7082,287.5
460.967,69752.6
461.0852,429.9
461.2133,405.4
461.2541,6489.8
461.3001,294.7
461.3424,92.8
461.4337,81.7
461.6689,618.5
461.8495,294.8
461.9703,4872
462.2619,270.9
462.4169,87
462.6508,203
462.9641,18239.2
463.0636,347.7
463.1628,91.9
463.3518,196
463.3769,304.6
463.4203,224.3
463.7696,580.6
463.8352,398.5
463.9673,490
464.0148,654.7
464.1725,79.4
464.2575,29.6
464.2957,197.4
464.5216,392.5
464.7442,68.5
464.9649,626.4
464.979,7660.8
465.249,455.2
465.2602,140.7
465.5388,151.9
465.6706,170.9
465.8577,79.8
465.9098,354.4
465.9858,1015.6
466.0522,133.7
466.0934,574.3
466.5856,65.9
466.6335,93.6
466.6432,431.4
466.9039,974.3
466.9456,150.8
467.1083,665.8
467.9426,119.4
467.9908,286.4
468.0138,118.3
468.3088,1952.1
468.3326,120.3
468.6472,679.4
468.7149,203.5
468.7236,466.6
468.7931,102.8
469.0569,73.4
469.1514,20.6
469.2195,618
469.3289,26.4
469.7481,174.2
469.9377,88.5
469.9834,225.9
470.1651,333.1
470.2018,137.7
470.3981,92.5
470.5387,91.3
470.5657,111.1
470.7833,79.8
470.7969,108.8
470.9239,11564.5
470.9956,2979.5
471.2845,804.8
471.3705,19.6
471.6668,167.9
471.711,344.3
471.7899,164.3
471.8521,135.7
471.9271,470.7
471.9548,18.1
471.9782,474.5
472.1911,824.7
472.2586,610.7
472.3031,499.5
472.4552,24.8
472.5358,128
472.675,95.4
472.7378,213.3
472.9211,2218.9
472.9404,171.3
473.1123,282.7
473.1494,155.6
473.1938,291
473.2463,717.9
473.2635,4678.8
473.3936,368.6
473.5142,667.7
473.6988,184.2
474.0128,751.1
474.2371,601.4
474.3002,386.2
474.3638,97.8
474.6195,135.2
474.7027,426.1
474.7342,574.7
474.8628,463.2
475.0266,594.4
475.2229,24234.1
475.2744,81.1
475.3037,98.1
475.4011,140.6
475.6274,17.8
475.8335,63.2
475.9121,205.1
476.0551,361.4
476.1634,21.4
476.2149,585.4
476.2263,2101.7
476.3744,18.6
476.6667,136.2
476.941,38627.5
477.1008,20.4
477.1471,131.7
477.3891,91.6
477.5586,411
477.7363,20
477.8422,389
477.9443,4017.3
477.975,75.4
478.2796,218
478.2945,1339.2
478.3298,39812.9
478.3559,122.4
478.8317,135.3
478.883,95.1
478.8976,17.6
478.9379,12197.1
478.9807,135.4
478.9971,224.3
479.2296,90.2
479.3332,9003.1
479.3606,398.5
479.4519,172.1
479.5113,19.6
479.7497,203
479.8732,138.3
479.912,67.1
479.9417,512.9
479.9566,121.4
480.1229,124.9
480.3444,1046.3
480.6292,399.7
480.6695,21
480.6854,95.6
480.8161,487.8
480.8403,391.7
480.9527,2351.1
481.0919,123.8
481.2334,2747.2
481.3668,18.9
481.8609,107.4
481.9554,122.3
482.0023,871
482.0805,361.7
482.3232,1064.3
482.5274,184.9
482.7737,330.4
482.9073,21.1
483.066,107.5
483.2489,166910.9
483.4407,82.8
483.5792,86.8
483.7086,131.2
483.7375,450
483.9983,424.3
484.0984,122.8
484.2155,132.2
484.2523,38838.3
484.4369,376.2
484.6891,380.2
484.7528,479.8
485.2447,133.7
485.2645,139950.4
485.3373,208.5
485.4361,136.9
485.6364,158.5
485.8365,137.4
485.8506,69.7
485.9807,676.7
486.0086,120.2
486.1348,445.4
486.1739,89.6
486.2151,113.4
486.2679,31800.6
486.409,136.8
486.4335,133.1
486.4489,737.3
486.5126,357.1
486.6007,126.2
486.6463,94.9
486.6893,19.4
486.8981,1348.6
486.9877,112.2
487.0977,317.8
487.14,117.6
487.1521,20.8
487.2802,91855
487.8778,137.6
487.964,150.1
488.0627,103.3
488.1304,106.1
488.2834,22355.1
488.5387,170.5
488.6396,112.2
488.7837,68.4
488.8262,81.5
488.8393,123.6
488.8967,479.3
489.0854,33.4
489.1551,155.4
489.1812,322
489.2047,133.3
489.2147,407.7
489.3936,252.9
489.4442,570.1
489.4705,20.8
489.5447,77.6
490.0718,80.5
490.2464,101.4
490.291,9799.6
490.3049,466.6
490.3645,604.9
490.4744,94.4
490.9551,182.2
491.1923,791.7
491.3723,2203
491.3855,328.8
491.3998,147.9
491.4581,22.2
491.6443,145.7
491.7271,111
491.8403,353.7
491.9106,243.2
492.1429,93.4
492.4721,167.3
492.6325,76.9
492.915,6212.2
493.1933,91.7
493.3347,700.6
493.9269,117.9
494.1745,17.9
494.2407,99.6
494.3245,11847.9
494.5562,169.8
494.7381,167.4
494.8409,708.6
494.9116,2030
494.9683,129.6
495.2963,404.6
495.327,957.2
495.5001,139.6
495.615,17.5
495.6837,700.6
495.8602,299.8
496.0091,80.4
496.0508,19.1
496.2111,95.3
496.3404,473681.5
496.3699,682.7
496.3746,656.9
496.3928,444.3
496.5013,91
496.8272,22.4
496.8592,75.5
496.9346,760.5
497.0262,265.9
497.1156,96.3
497.2488,941.4
497.3437,117532.2
497.7798,559.1
498.0356,121.9
498.0959,597.4
498.3056,698.3
498.3467,9481.4
498.5158,512.7
498.5636,147.1
498.578,18.6
498.9011,647.3
498.9276,976.1
499.1621,1041.4
499.2227,5134.2
499.4179,161.8
499.7445,86.8
499.8299,143.3
499.9369,178.6
500.0109,292.5
500.0308,156.1
500.5026,114.4
500.7456,17.6
500.7678,64.6
501.0961,28.8
501.2381,7086.8
501.2516,251.4
501.4723,132.6
501.4933,135.1
501.5194,595.8
501.8105,99.7
501.8744,19.2
501.8898,97.9
501.9868,70
502.1497,118.1
502.3297,14488.5
502.4117,615.6
502.4474,242.3
502.6789,370
503.1086,68.6
503.1918,158
503.2545,5879.8
503.3337,1418.4
503.3863,64
503.4847,268.4
503.6936,387.1
503.7163,18
504.3067,6233.6
504.321,136
504.3447,8884.8
504.374,208.7
504.4541,195.5
504.5013,97.3
504.7197,718.5
504.7448,82.6
504.7882,80.6
504.8056,88
504.8844,594.6
504.9875,287.1
505.1033,700.7
505.2333,2129
505.3326,174.6
505.3485,944.2
506.2649,500.6
506.3607,3912.7
506.4788,404
506.6387,169.9
506.8067,997.3
506.862,92
506.8727,137.3
506.8916,2925.2
506.9144,919.8
507.1917,192.2
507.2317,71.5
507.2488,34930.7
507.3606,566
507.4175,89
507.9758,18.2
508.1629,437.9
508.2344,122.2
508.2524,7169.2
508.3184,71.3
508.3663,104
508.4076,928.2
508.7322,803.1
508.8889,1079.9
509.0049,2668.1
509.2643,11605.8
509.294,20
509.3721,538.6
509.6044,246.3
510.0196,244.8
510.0361,20.8
510.1906,279.6
510.2111,130.8
510.2477,776.8
510.2678,3295.6
510.2873,107.5
510.305,456.5
510.3162,264.8
510.356,5342
510.3946,70.2
510.707,256.2
510.8852,753
511.1064,236
511.1249,41
511.2698,238.5
511.3377,238.5
511.437,135.4
511.5557,95.2
511.9425,643.4
512.3342,738.2
512.6119,448.3
512.6356,289
512.9085,17137.6
513.016,358.7
513.0473,534.7
513.4195,19.6
513.4427,71.8
513.7347,602.7
513.838,194.3
513.8784,96.3
513.9121,504.7
513.9539,87.6
514.0237,970.3
514.316,456.3
514.3565,906.2
514.9058,7917
515.0233,402.7
515.3149,1127.1
515.3283,20.4
515.4825,376.5
515.6862,440.4
515.7324,219.6
516.2415,288.9
516.28,125.9
516.307,22378.1
516.5353,113.6
516.6894,196.1
516.7809,73.6
516.9203,821.7
516.95,115.4
517.1972,129.3
517.2616,1239.7
517.31,1829.8
517.3555,455.2
517.6441,151.6
517.8176,17.7
517.8956,81.8
518.3224,889809.1
518.3762,117.4
518.4194,570.9
518.4394,165.4
518.6172,107.2
518.6554,19
518.8445,133.1
518.9257,25599.7
519.1337,113.2
519.3257,209800.9
519.481,132.7
519.5398,168.7
519.5891,111.4
519.5999,79.9
519.6213,374.5
519.9286,1146.3
520.151,17
520.2113,175
520.3299,23433.7
520.3404,150724.2
520.7956,193.9
520.8901,252.8
520.9227,14129.1
521.0099,93.1
521.0962,344.2
521.1734,392.1
521.2225,66
521.3438,43349.5
521.9252,746.6
522.0531,576.3
522.0971,132.5
522.2564,383
522.2734,141.2
522.3561,144210.8
522.5725,209.1
522.8262,138.3
522.893,77.4
522.9199,1718.4
522.9369,5730.5
523.1249,108.2
523.1692,632.7
523.26,923.2
523.3332,79.2
523.3594,38517.7
523.3793,560.1
523.4144,64.8
523.5222,124.3
523.6129,20
523.8031,118
523.8217,93.3
523.8615,275.4
524.0383,952.4
524.062,372.8
524.2747,813
524.3135,533.7
524.3717,119271.5
524.5873,122.5
524.9341,767.3
525.0593,19.7
525.3602,285.1
525.3752,31934
525.4266,136.8
525.5471,68.2
525.6848,69.5
525.8135,113.4
526.3307,2509.4
526.3777,1031.5
526.4182,283.8
526.6307,200
526.8756,313.3
526.9012,569.4
527.0968,22.8
527.2383,134
527.2672,87.8
527.5012,787.3
527.649,457.3
527.8375,846.5
527.8949,89.2
527.937,18.7
528.2732,377.1
528.8582,20.1
528.8827,5173.3
528.8952,17.4
528.9531,1074.2
529.5515,19.8
529.5667,130.2
529.7669,74.6
529.7806,653.2
530.3204,889.6
530.3583,1780.1
530.7062,772.9
530.7508,95.6
530.7864,293.9
530.8797,3344.5
530.9342,213.7
531.1991,107
531.2491,7076.5
531.6916,80.5
531.9194,204.1
531.9975,667
532.2813,5092.9
532.338,10534.5
532.9661,1921.4
533.2407,773.3
533.2621,361.1
533.3416,1859.5
533.3643,20.5
533.4231,742.6
533.4425,21.3
533.5532,790.8
533.8513,205.3
534.0882,102.4
534.1909,366.4
534.2964,201906.6
534.3171,712
534.7208,289.9
534.8996,15616
534.9403,22.5
535.0529,143.9
535.1095,427.6
535.2997,45580
535.3623,102.1
535.4125,414
535.4457,504.9
535.6363,88.5
535.7029,140.1
535.8945,65.6
536.1574,447
536.2947,9575.5
536.5241,437.2
536.8966,8590.5
537.0525,415.4
537.0681,185.8
537.2976,869
537.4044,18.9
537.4784,661.7
537.5508,261.6
537.6082,849.8
537.6304,676.2
537.7953,572.3
537.8639,224.9
537.8886,365
537.9012,401.4
538.1391,132.7
538.7525,18.1
538.8124,67.3
538.8257,111.4
538.8942,690.3
538.9113,1105.6
538.934,796.4
539.0413,693.4
539.5304,566.9
539.6149,157.9
539.6596,128
539.7411,120.6
539.8263,19.9
539.8747,771.5
539.9498,915.2
540.134,170
540.2505,208.9
540.3281,206.3
540.398,82.3
540.5751,116.3
540.6987,679.6
540.7766,398.5
540.9111,405.8
541.0834,594.5
541.1102,281.8
541.1335,333.9
541.6825,96.7
541.7209,332
541.8522,86.1
542.3225,257301.2
542.3864,21.3
542.573,107.2
542.7204,366.8
543.3258,69783.6
543.4035,20.4
543.4685,823.5
543.5443,210.9
543.8033,374.4
543.9295,193.8
544.0727,101
544.2732,1166.6
544.3382,269233.7
544.4982,264.2
544.6659,160.6
544.8359,343.6
544.8537,413.1
544.9117,116
544.9494,369
545.115,635.9
545.1465,107.7
545.3416,68680.1
545.499,119.5
545.5837,936.9
545.6084,590.4
545.7659,154.6
546.3538,206060.4
546.7583,163.2
546.8034,131.5
546.8551,526.2
546.8714,542.5
546.9145,127.2
547.0534,109.5
547.3154,70.5
547.3572,52679.8
547.3811,105.6
547.7511,76.6
548.2026,286.3
548.2424,82.6
548.312,1374.3
548.3601,4908.5
548.5757,93.3
548.6025,408.8
548.6359,661
548.9178,800.6
549.414,346.4
549.475,85.5
550.1088,71
550.5491,87.5
550.5707,241
550.8738,2274
551.129,590.2
551.2925,93.6
552.0515,176.6
552.3645,654.2
552.5516,459.9
552.6027,77.9
552.6266,141.4
552.8707,696.7
553.1893,613
553.2684,148.7
553.373,20
553.7793,207.2
554.0123,21.4
554.0995,19.5
554.2642,1190.4
554.3035,549.9
554.6284,103.9
554.738,503.8
554.8559,21.1
554.8778,384.3
555.0436,88.7
555.2565,65.9
555.4139,81.4
555.4716,18.1
555.5719,135.9
555.6586,131
555.8188,596
555.8728,533.7
556.2733,18.7
556.6429,21.5
556.8499,86.6
556.8882,100.7
556.951,79.9
557.019,241.4
557.2235,90
557.2854,611.5
557.3202,17.3
557.769,97.3
557.8001,610.4
558.252,90.8
558.2965,62865.7
558.5283,21.1
558.6429,241.2
559.0408,115.4
559.2996,13204.8
559.3783,426
559.3974,1243.1
559.7801,642.4
560.2949,1460.9
560.312,60685.4
560.3682,112.7
560.4632,375.1
560.8648,196.6
561.2693,228
561.3153,12918.7
561.4129,4557.4
561.68,19.3
561.7458,151
562.1552,119.9
562.1762,143
562.3276,38182.6
562.8502,84.6
562.9386,122.8
562.9777,61.4
563.0332,734.6
563.138,159
563.2628,145.1
563.3315,7382.4
563.4283,2306.6
563.7875,533.2
564.1171,19.1
564.3071,2347.2
564.3321,707.6
564.344,256.7
564.5392,133.6
564.7144,400.3
565.0622,117.2
565.131,424.5
565.3102,755.3
565.3471,134.8
565.3712,22.8
565.8261,1004.1
566.1094,344
566.1895,256.8
566.3225,61187.9
566.4299,493.9
566.5181,131.2
566.634,119.6
566.847,657
566.9212,560
566.9641,540.3
567.0193,657.6
567.1256,71.2
567.147,644.6
567.2547,661.1
567.3258,15879.6
567.6602,162.4
567.8705,413.9
568.1406,18.2
568.3384,22390.7
568.5299,399.8
568.5868,348
568.9974,298.8
569.0191,77.5
569.1953,389.1
569.342,5140.6
569.6309,144.6
569.8184,465.5
570.0478,88.2
570.1535,419.7
570.2176,349.3
570.3566,954.6
570.5981,194.2
570.8678,6622.8
570.9252,19
571.0346,788.9
571.0586,560.2
571.0816,105.3
571.369,190.4
571.6353,79.8
571.7274,388.6
571.8616,191.3
571.885,331
572.1679,18.8
572.2321,352.8
572.2409,289.2
572.2639,106.1
572.3692,1440.3
572.5059,115.6
572.8387,781.7
572.8648,4445.7
572.9529,353.7
572.9846,904.7
572.9938,578.5
573.1365,105.8
573.4817,622
573.5436,299.8
574.1162,139.9
574.284,1412.3
574.2964,81.4
574.3587,18.7
574.403,660.1
574.5068,103.2
574.5365,184.1
574.5489,96.4
574.7357,245.2
574.8604,481.5
574.9156,97
574.956,19.1
574.9681,423.2
575.2882,496.4
575.5038,7267.9
575.7234,263.2
575.9571,117.5
576.1672,676.6
576.2811,11567.5
576.4042,747.3
576.5089,124.8
576.632,641.6
576.7217,139.3
576.8844,9637.2
577.0354,184.1
577.2265,574.5
577.2855,2866.2
577.386,347
577.52,217.1
577.5858,423.5
577.6597,93.4
577.6845,172.1
577.8635,378.1
578.0273,199.1
578.09,126.7
578.2777,2307
578.4938,175.3
578.6846,19.4
578.734,89.7
578.7921,177.4
578.8814,9533.9
579.0182,981.1
579.1525,309.5
579.3057,138.7
579.403,572.9
579.4345,147.8
579.5791,704.7
579.6825,366.7
579.8851,592.9
580.0012,165.3
580.4138,149.4
580.4797,19.2
580.756,103.3
580.7944,416.1
580.8781,1616.2
580.8959,3009.9
580.9271,716.8
581.1352,279.4
581.2421,133.4
581.2811,151.2
581.4543,93.2
581.5657,205.9
581.9285,406.1
582.0257,240.3
582.1407,597.7
582.164,18.2
582.2258,99
582.2961,13034.7
582.3434,400.5
582.3844,339.4
582.4177,99.7
582.436,1300.9
582.4505,813.9
582.4628,1038.1
582.5232,201.2
582.5617,402.2
582.5833,588.2
582.6383,448.3
582.6483,407.2
582.8937,738.4
582.9419,214
583.0649,64.8
583.1339,240.5
583.2365,627.8
583.2554,2456.6
583.2998,2442.1
583.41,210.3
583.5002,129.5
583.5104,93.5
583.8334,136.7
583.8849,421.3
583.9109,296.9
583.9539,128.6
584.2585,1066.5
584.3122,4936.8
584.3991,230.9
584.9574,260.4
585.1146,582
585.1886,84.8
585.2714,6022.3
585.3124,523.3
585.3774,123.1
585.9443,129.8
586.3103,5083.1
586.4118,921.5
586.5466,539.1
586.673,530.2
586.8411,2513.1
586.9124,1595.6
587.1542,205.9
587.3502,584.5
587.5112,856.2
588.0084,654.5
588.1219,118.3
588.373,514.5
588.8384,3320.7
588.8575,141.2
588.8709,271
588.9105,605.6
589.0739,132.5
589.1281,958.7
589.1523,194.5
589.3415,723.2
589.7863,214.4
590.2956,132.8
590.3228,7759.1
590.3929,107.3
590.4904,81.9
590.9246,400.9
591.2202,372.3
591.3251,1815.8
591.8324,82.9
592.1644,23.6
592.3394,1506.8
592.3511,122.6
592.366,213.6
592.5229,286.2
592.6734,351.3
592.7334,126.9
592.754,133.4
592.7688,74.3
592.8308,430.5
592.8583,6640.6
592.8827,307.1
592.9079,124.1
593.1124,392.9
593.1812,19.3
593.2753,22
593.3197,189
593.5522,146.5
593.743,18.5
593.9543,173.7
594.3129,380.7
594.3678,119
594.4968,180.4
594.8556,5270.7
595.5869,127.5
595.7041,26.4
596.1613,461.5
596.2393,377.7
596.3352,100.1
596.8524,1701.5
596.9204,131.1
596.9407,688.3
597.0323,149.6
597.1413,506
597.2628,111.6
597.3756,395.3
597.4584,2313.4
597.4864,8572
597.6165,245.5
597.7016,122.5
597.8355,153.5
598.0169,170
598.326,417.6
598.4375,92.3
598.4579,879.6
598.5783,82.9
598.6185,608.2
598.6456,245
598.7003,68.5
598.7223,743.6
598.9343,170.2
599.0934,357.9
599.1143,667.5
599.3928,113.9
599.4661,2145.9
599.5038,2113.7
599.6491,185.9
599.7758,960.7
600.0123,127.1
600.1549,81.5
600.2805,2397.5
600.5072,746.3
600.5872,716.4
600.7983,21.3
600.8503,627.1
600.8758,322.6
601.315,23
601.4376,120
601.4803,399.1
601.5212,873.3
601.55,646.1
601.6746,226.8
601.8137,22.4
602.2767,926.1
602.2966,2100.7
602.5701,117.3
602.7551,391.2
602.8689,72.6
602.8875,1193.3
603.2356,84.4
603.3226,148.3
603.3934,186.9
603.5355,393.4
603.5767,107.9
603.5972,73.5
603.7562,114.9
603.9041,116.9
603.9977,19
604.0597,335.6
604.3131,1075.5
604.4385,88.5
604.4873,94.6
604.5789,385.5
604.6002,193.1
604.6682,186.6
604.7149,606.7
604.9813,101.2
605.3468,88.5
605.5526,90.1
605.7495,78.2
605.803,82.1
606.2969,656.6
606.3897,568
606.4212,75.7
606.6601,162.9
606.6809,234.3
606.6864,196.9
606.7731,70.4
607.016,121.6
607.1244,59
607.1717,9405.6
607.2369,98.4
607.3598,79.6
607.5199,499.4
607.6497,119.5
607.8885,420.9
607.9599,240.5
608.175,1219.3
608.3328,99.6
608.4426,72.9
608.4572,442.1
608.8146,99.1
608.8329,1258.6
608.8955,620.3
609.0211,341.8
609.0838,140.5
609.1402,164
609.1791,114.4
609.4502,206.7
609.4923,77.7
610.1301,109.8
610.6905,807.3
610.7369,746.3
610.7729,216.8
610.8292,1456.9
610.9176,93.9
611.0703,157.7
611.0976,119
611.1794,72
611.2933,779.8
611.3635,115.4
611.3808,101.3
611.7433,356.5
611.7723,242.3
611.8404,384.5
612.0635,20.8
612.2999,592.7
612.3495,20.1
612.4025,801.3
612.662,119.2
612.8266,961.3
612.886,220.7
613.0038,418.8
613.8535,597.8
613.9909,385.4
614.1043,374.1
614.2333,162.9
614.2805,105
614.342,1129.6
614.466,749.5
614.6206,76.4
614.6499,133
614.7599,84.4
615.0215,85.1
615.0439,19.8
615.2093,21.8
615.4595,3420.2
615.5226,106.7
615.8718,63.3
616.1252,140.8
616.2196,626.4
616.5698,265
617.456,309.8
617.4761,19451
617.4939,127.1
617.6897,279.6
617.8039,164.6
618.3083,134.6
618.3253,664.4
618.4799,6820.4
618.6834,80.7
619.0913,376.6
619.4363,19.5
619.4519,347.5
619.4919,20106.5
619.5189,118
619.5865,26.5
619.5959,76.8
619.6002,76.4
620.1076,122.8
620.1543,63.8
620.4953,6262.5
620.8276,157.1
620.8893,363.8
621.0964,452.5
621.3397,92.1
621.4181,70.8
621.4569,2693.7
621.4701,805.1
621.4866,5031.8
621.5688,792.5
621.5896,228.1
621.611,388.9
621.8871,85.4
622.3164,339
622.4554,1291.9
622.6628,655.7
622.9035,308
623.0358,150.1
623.1367,39115.6
623.3443,702.9
623.3672,105.6
623.4689,493
623.5026,1309.7
623.9333,95.6
624.1402,7667.9
624.1965,123.4
624.4773,313.3
624.5084,290.7
624.807,608
624.9018,80.6
625.0736,654.7
625.1414,519
625.2154,93.7
625.3214,129.8
625.5189,842.2
625.6656,115.6
626.0978,80
626.5319,73.3
627.5346,708.2
627.6591,20.9
627.7291,139.2
628.1382,178.4
628.3295,212.6
628.3893,544.8
628.5397,24.4
628.5964,101.1
628.7204,769.1
629.1536,80580.6
629.3006,181
629.4173,902.2
629.6004,98.7
629.9119,149.4
629.945,275.9
629.9826,628.7
630.0653,221.5
630.1571,15282.4
630.2513,547.2
630.664,133.4
630.9391,440.7
631.1298,620.2
631.1594,1135.5
631.4694,789.6
631.7701,375.1
631.8715,461.5
632.1268,87.5
632.157,115.2
632.4806,1062.7
632.864,804.1
632.9984,840.5
633.1765,444.1
633.4502,421.5
633.5254,104.4
633.6343,783.8
634.1146,77.6
634.1592,251.2
634.5667,646.4
634.8018,362.2
634.843,2226.1
634.8754,134.4
634.9648,314.1
635.1528,19.9
635.4057,23.7
635.4241,81.7
635.4661,1087
635.5458,622.4
635.5627,218
635.6632,90.7
635.815,110.1
635.849,404.2
635.9141,124.8
636.2395,180.6
636.2995,464.9
636.5662,115.5
636.6974,365.7
636.8401,3435.3
637.1937,199.1
637.4389,1356.3
637.7113,22.7
637.7389,20.8
637.8764,102
637.9418,455.3
637.9637,164.2
638.1027,65.9
638.3309,378.7
638.8352,548.3
639.4073,417.6
639.4661,706.3
639.5728,627.1
639.7341,176.4
639.7963,375.1
639.8954,263.3
640.079,23.2
640.1582,651.7
641.0726,249.7
641.0991,220.9
641.1192,812.6
641.1763,259.2
641.3993,214.9
641.477,745.5
641.5629,222.8
641.6504,20.3
641.6831,18.3
641.7198,244.3
641.8943,151.3
642.0511,223.2
642.0668,129.3
642.2505,465
642.6407,445
642.8076,628.4
642.9507,22.4
643.0281,629.8
643.238,291.4
643.652,89.7
643.7439,816.6
643.7918,434.4
643.8752,76.5
643.8847,212.8
643.8886,202.3
644.1496,157.3
644.5631,121.2
644.8627,251.9
644.9306,435.7
645.1188,27354.3
645.3196,663.6
645.3451,706.3
645.4498,391.5
645.5979,584.5
645.7946,19.3
645.8969,550.2
646.1227,3556.8
646.2997,180.8
646.4292,2401
646.4728,122.7
646.6035,21.4
646.9304,1101
647.095,1512.1
647.1257,1006.2
647.1754,154.9
647.2894,229.3
647.3395,83.9
647.4169,650.7
647.4796,337.7
647.5197,198.3
647.5285,65.8
647.7042,763.7
647.7499,378.4
648.0987,100
648.1282,379.2
648.2365,89.9
648.5953,251.7
648.657,411.6
648.8673,1033.3
648.8894,118.7
649.4909,202.3
649.6632,222.9
649.8819,20.3
650.0506,187.1
650.159,667.1
650.4394,3469
650.4965,129.2
650.5161,611.9
650.5895,57.7
650.7145,114.5
650.8173,2177.5
651.0247,224.1
651.0693,75.5
651.1355,76994.7
651.7094,247.6
651.8802,21.5
652.1393,14904.2
652.5255,127.9
652.7603,369.1
652.8135,1969.1
653.0086,293.6
653.0276,90.1
653.111,2146.3
653.1409,1198.8
653.5168,63.4
653.7129,237.1
653.8161,545.8
653.9419,220.1
654.618,328.1
654.7032,129.3
654.8105,1289.7
655.2073,611
655.2903,610
655.3991,145
655.5462,333.2
655.9256,129.4
655.9647,672.9
655.9995,97.8
656.0596,667.9
656.3424,86.5
656.3638,447.4
656.3953,371.9
656.4605,466.6
656.571,574.6
656.6785,23.8
656.7922,23.1
657.0988,202.6
657.1369,560.4
657.2099,19.2
657.234,147.2
657.3342,106.3
657.4345,248.7
657.5441,534.4
658.4277,385.6
658.6134,478.3
658.6826,18.8
659.0697,213.8
659.386,239.9
659.4081,391.1
659.4794,816.8
659.5674,813.1
659.8155,669.7
659.9017,590.2
660.085,72.5
660.3357,267.5
660.428,603.3
660.445,1540.5
660.4899,196.2
660.5055,581.8
660.5474,126.5
660.5749,398.3
661.0833,11333.4
661.2901,205.3
661.4497,730.6
661.4695,551.3
661.5226,19
661.6243,80
661.9371,259.6
662.0875,1039.9
662.3722,313.3
662.4704,117.1
662.6199,112.2
662.6751,200.1
662.9817,73.4
663.0843,84.9
663.1436,119.8
663.1712,165.1
663.2715,166.3
663.4122,237.8
663.5225,642.4
663.7556,1063.6
663.8524,21.4
664.2793,136.4
664.3529,477.1
664.3845,243.1
664.4208,132.5
664.4666,4172.8
664.8011,675.2
664.9612,292.4
665.0415,185
665.2082,597.2
665.2788,196
665.2945,166.2
665.5401,124.5
665.7587,670.9
665.9816,109.1
666.2934,146.8
666.3297,754.8
666.4228,337.9
666.4844,3308.2
666.6872,79
666.7711,20.2
666.7907,463.9
667.1002,31967.6
667.4643,535.2
667.4866,513.7
667.5269,244.5
667.914,576.7
667.9548,130.9
668.1036,4521.6
668.2924,21.6
668.7233,217.5
668.7887,443.6
668.9183,145.9
668.9574,501.5
669.0221,1050.8
669.0865,403.6
669.1053,117.2
669.353,186.4
669.3819,309.4
669.4732,224.6
669.537,691.4
669.8561,265.5
669.9745,763.1
670.2078,302.3
670.427,795.8
670.4963,233.3
670.5706,110
670.6516,695.1
670.7051,566
670.7454,247.6
671.0722,741.7
671.4343,920.9
671.5743,1792.1
671.9588,18
672.1225,80.2
672.2442,776.4
672.4226,2538.5
672.5782,902.6
673.1175,75621.6
673.1892,18.5
673.3032,117
673.425,944
673.53,653.3
673.6685,203.4
673.6851,90.4
673.9659,199.4
674.1211,13986.3
674.3402,138.2
674.4604,148.9
675.0921,237
675.1227,1342.8
675.5447,9887.8
675.6473,561.7
675.676,148.3
676.0471,156.3
676.2975,88.1
676.5474,1159.7
676.8288,471.1
677.145,902.5
677.3689,65.6
677.6174,609.3
677.6862,571
678.0312,618.5
678.1776,131.9
678.3046,19.2
678.4711,518.7
678.592,21.5
678.6377,367
678.9279,101.3
678.9772,526.1
679.2483,104.1
679.5922,109.7
679.6407,202.7
680.3383,1132.9
680.4272,553.4
680.5454,408.3
682.0654,793.6
682.241,212.8
682.8117,151.6
683.0648,6681.4
683.3546,83.2
683.4475,1058.6
683.888,19.6
684.2426,136.6
684.4631,737.8
685.2275,152.3
685.2923,198.7
685.32,170.4
685.3659,349.9
685.4378,373.5
685.8559,23.8
686.0816,104.1
686.2876,133.3
686.385,352.6
686.4419,21.6
686.8347,92.9
686.9813,72
687.033,110.5
687.1179,147.6
687.1838,137.6
687.7308,136.4
687.8978,71.5
687.9647,619.3
688.1536,95.9
688.5489,93.2
688.6066,19.3
688.6348,202.1
689.082,21637.9
689.092,21865.2
689.5095,648.4
689.5605,227.8
689.5801,139.7
689.656,759.4
689.7557,309.6
690.0952,3163.9
690.4326,569.6
690.5348,128.2
690.5698,140.3
690.5973,415.2
690.9233,20.6
691.0699,128.2
691.6132,64.3
691.9805,18.1
692.2936,84.9
692.6991,226.5
692.8786,947.7
693.0636,208.6
693.0949,264
693.3531,445.7
693.5253,156.8
694.0997,1088.1
694.5278,375.3
694.7997,831.9
695.0995,48033.2
695.4608,134.4
695.5113,4226.1
695.5975,123.8
695.763,279.6
695.896,102.5
696.1029,8494.4
696.3764,142
696.4593,225.9
696.599,757.6
696.7978,467.3
697.075,240.5
697.0862,215.6
697.0964,284.1
697.1037,335
697.1168,151.8
697.1288,173.7
697.4853,145.2
697.5269,17183.8
697.8708,83.4
697.9161,786.5
698.0078,97.3
698.0277,91.2
698.2023,79
698.2472,676.1
698.4501,128.7
698.482,122.2
698.5129,552.6
698.5302,3687.1
698.5756,129.7
698.7491,396.9
698.823,27
698.9306,675.4
699.885,152.5
700.2387,226.8
700.3799,83.2
700.489,56.5
700.5326,260
700.713,214.5
700.9514,178.1
701.5604,28543.5
701.6524,117
701.9336,234.5
701.975,76.1
702.0383,121.1
702.2294,85.6
702.3432,3101.3
702.5635,10886.3
703.0134,66.5
703.2277,71.5
703.3484,871.6
703.5762,66492.1
703.7503,114.1
704.0471,225.5
704.4485,4751.9
704.5015,179.3
704.5175,23.3
704.5794,23841.2
704.7499,485.6
704.7965,96.3
704.8985,437.1
705.0565,4430.3
705.2078,200.4
705.3173,117.4
705.4537,1195.3
705.5828,1694.2
705.9048,20.4
705.9262,147.1
706.5393,1100.1
706.8434,166.7
706.9081,112.6
707.1845,17.9
707.2634,156.2
707.6264,772.7
708.1939,360.1
708.5356,116.5
708.5697,87.9
708.5928,162.8
708.9355,20
709.0671,343.5
709.0891,78.7
709.0945,79.9
709.1038,74.8
709.2675,191.5
709.4693,138.5
709.5703,87.3
709.8895,558.7
710.0401,377.3
710.799,70.6
711.0629,13834.2
711.0748,17770.9
711.5426,3622.4
711.7982,122.9
712.0775,1308.5
712.2188,67.4
712.2474,213.8
712.3734,524.9
712.4807,896.6
712.7716,492.3
713.0444,308.6
713.0652,529.9
713.0841,168.8
713.8042,406.9
713.9013,17.8
714.0629,254.5
714.0744,259.7
714.0807,231.2
714.3277,363.6
714.3359,396.5
714.3432,143.8
714.6134,616.4
714.809,111.9
714.9035,70.1
715.2194,92.5
715.2715,234.3
715.5028,75.3
715.7995,20
716.0979,798
716.2884,220
716.7732,428.7
716.8405,187.4
717.0813,23487.8
717.5003,245.1
717.9604,755.1
718.0844,2401.1
718.331,367.5
718.4721,388.6
718.5761,675.6
718.6721,107.5
718.8647,170.6
719.4164,542
719.5691,651.2
719.7829,100.1
720.728,86.4
720.8563,134.6
721.2031,406.4
721.4792,48712.3
722.0972,979.5
722.294,133.8
722.4147,126.9
722.4821,17981.1
722.6062,611.3
722.8557,562.1
723.0603,410.5
723.4663,261.5
723.4951,10045
723.5424,40873.6
723.9733,441.4
724.4702,123.5
724.4977,3007.9
724.5461,10557.3
724.5772,91
724.6973,145.2
724.8563,378.6
725.1587,85.5
725.5581,77449.3
726.0349,103.7
726.0616,189.2
726.1029,217.7
726.1507,134.3
726.1692,769.3
726.2252,22.3
726.2982,145.4
726.3141,109
726.5033,299.8
726.5617,27835.9
726.702,121.6
726.9395,21.2
727.0368,3030.1
727.0683,336.7
727.1713,684.4
727.4897,99.4
727.5653,4920.2
727.8636,641.1
728.0136,131.9
728.1142,1101.1
728.2838,492.7
728.3922,155.1
728.5222,2208.8
728.8645,163.2
729.5363,116.4
729.5917,5496.5
729.6706,505.2
729.792,284.3
730.3553,109.5
730.4323,491.1
730.494,345.4
730.5395,11934.1
730.5952,936.4
730.8959,87.8
730.9586,1081.3
731.5431,2145.1
731.6087,2171.9
732.0996,134.8
732.1264,491.6
732.3259,262.9
732.5552,40499.4
732.6104,822.1
732.6484,410.8
732.7562,117.2
732.7882,17.8
732.8968,70.4
733.0569,9730.7
733.319,871.4
733.3655,69.7
733.4371,118.9
733.5585,14922.9
734.0592,350.2
734.3943,21
734.464,96.1
734.5268,700.1
734.5717,4121.5
734.7265,80
735.1359,144.2
735.4508,71.6
735.575,2354.4
735.6359,330.7
735.7529,19.7
735.8336,444.9
735.9333,274.1
736.0364,183.2
736.0567,320.1
736.1816,477.7
736.3781,643.6
736.5759,578.4
736.8359,560.5
736.9226,95.2
737.4536,7410.3
737.9582,432.7
738.2158,397.9
738.4534,1176.1
738.6165,191.6
738.6912,74.8
738.9567,274.4
738.9821,1393.2
739.0635,13181.9
739.4012,94.3
739.5187,1876
739.5728,1050.7
739.9604,758.2
740.0665,510.2
740.4433,223
740.4994,282.2
740.5204,1158.5
740.611,137.1
740.7677,95.5
741.5322,7307
742.4448,68.5
742.5351,1129.3
742.5761,7325
742.6593,347.3
742.6942,168
742.7343,86.4
742.7458,91.5
742.9271,313.5
743.4018,77.4
743.579,622.3
743.7828,139.7
744.0914,635.1
744.3362,1225.1
744.393,149.2
744.4667,808.5
744.555,3520.8
744.5916,7449.9
744.7767,246.7
744.8973,719.1
744.9612,104.2
745.0145,88.1
745.4789,29638.9
745.5584,712.2
745.5946,2573.5
745.6525,74.5
746.1982,83.5
746.4604,89.4
746.4826,9178.3
746.5711,2668.2
746.6074,2093.8
747.0577,344.4
747.098,284.2
747.2687,140.8
747.4953,11484.6
747.5751,659.4
747.5924,115.2
747.6114,185.4
747.6835,329.2
747.7185,82.2
748.0126,206.3
748.1199,76.1
748.2012,64.2
748.4092,76.1
748.4976,2019.2
748.831,174.5
749.0188,1390.6
749.1095,353.5
749.5104,4907.6
749.5704,197.5
749.7238,344.1
749.8063,127.2
749.8129,130.3
750.0318,709.9
750.1889,117.1
750.4006,176.5
750.5129,1348.3
751.0303,299.9
751.09,246.6
751.1151,351.3
751.3255,71.2
751.5454,126.2
751.5724,4213.9
751.6446,117.3
751.7878,753
752.5217,13968
752.5774,985.6
752.7532,68.9
753.5241,2549.4
753.558,252.4
753.5921,2105.3
753.7138,380.9
754.5375,42189.7
754.6753,100.1
754.7833,120.5
754.9635,492.7
755.0277,3362.3
755.0366,3100.9
755.3378,120.7
755.5405,16190.4
756.041,346.6
756.496,135.8
756.5551,43787.2
756.9205,343.6
757.0067,129.4
757.0388,615
757.1476,572.2
757.5584,17176.1
757.6228,1346.4
757.6929,113.9
758.5708,882423.8
758.6206,588.8
759.0441,143.2
759.3213,339.8
759.5742,392372
759.6396,2788.7
760.1379,281.6
760.1681,303.6
760.3411,91.7
760.5717,44468.6
760.5874,308722
760.6381,170.8
760.7896,715
760.853,65.1
760.8794,819.8
761.0101,217.9
761.045,4910.2
761.0981,69.1
761.4548,2945.8
761.5902,149923.4
761.832,99.9
762.0014,204.2
762.0481,229.3
762.1079,141.5
762.2413,655.5
762.4552,587
762.4877,151.7
762.5206,416.4
762.5389,1215.3
762.5932,34169.3
762.7176,90.3
763.0297,121.6
763.0392,131.2
763.4162,596.8
763.475,142
763.5958,3060.5
763.6264,548.3
764.0481,211.1
764.5203,222.4
764.559,4996.2
764.684,100.4
764.8424,63.8
764.975,692.3
765.8184,20.4
766.1569,18.8
766.2462,132.9
766.3118,18.6
766.3761,61.1
766.5385,1821.7
766.5753,28719.4
767.019,361.7
767.5793,10995.3
767.7883,396.3
767.8273,238.3
767.9751,175.4
768.5546,5166.6
768.5919,34546.5
768.9112,21
769.4792,2722.1
769.5575,1353.8
769.5954,11316.1
769.8818,553.8
770.0943,109.3
770.4409,113.3
770.4702,164.7
770.5115,3102.5
770.5709,1880.6
770.6088,4705.3
770.6851,93.8
770.7117,213.2
770.7805,190.1
770.9208,131.8
770.9925,6025.8
771.0353,271.8
771.2137,727.9
771.2771,385.8
771.4933,521.6
771.6093,635.7
771.6369,145.2
771.9173,328.7
772.2518,304.9
772.4077,109.7
772.4563,110
772.4834,563.1
772.5872,12315.6
772.6221,567.1
772.751,132.1
772.983,871.2
773.5095,2583.4
773.5906,1529.9
773.8231,68.8
773.969,187.4
774.1859,141.6
774.3739,219.1
774.5146,115.3
774.544,152.1
774.5552,205
774.6036,813.8
775.0586,343.9
775.0966,825.3
775.4851,250.4
775.5275,84.4
775.5993,112.4
776.0032,19.4
776.1288,61.5
776.5206,3351.7
776.7201,537.3
777.0086,2578.2
777.3832,19
777.5405,848.1
777.5602,342.2
777.744,163.6
777.7875,548.5
777.8612,18.1
777.9374,759.2
778.0149,408.2
778.0472,712.5
778.0789,160.1
778.5373,35364.5
779.5408,14673.6
779.8368,373.3
779.8436,373.8
780.5529,726096.4
781.5563,309106.3
781.6273,1162.4
781.8562,728.8
781.9464,17.3
782.3012,610.7
782.3205,532.4
782.5706,660115.6
782.6049,317.7
782.7251,631.9
782.7635,397.9
783.0268,4759
783.3694,574.1
783.4304,119.1
783.5737,310719.2
783.7513,20.1
783.9109,95.3
784.0334,198.7
784.3638,197.3
784.5874,285463.7
784.6377,554.7
784.7995,124.7
785.3769,20.8
785.5902,136815.8
785.655,6193.6
785.6965,691.6
785.8221,96.6
785.8433,105
785.8999,231.8
786.0628,520
786.5173,19.1
786.6028,247621.4
786.6567,1342.9
786.8215,419.8
786.8914,476.2
787.6058,123985.4
787.6698,2433
787.6876,920.9
788.5573,12208.5
788.6053,16484.7
788.6206,15917.2
788.6725,341
789.1859,115.2
789.5444,722.1
789.5596,1845.8
789.6227,6944
789.6763,143.4
789.7298,401.1
789.8759,20.5
790.4849,442.4
790.5529,848.1
790.5742,24388.4
790.6244,613.7
791.5769,8032.5
791.6432,89.5
792.5917,15187.1
792.9795,231.5
793.2573,384.8
793.4048,130.9
793.5951,3150
793.8749,285.3
793.9451,182.7
794.034,166.6
794.3892,749.5
794.5107,2984.9
794.5687,7853.8
794.6075,41000.7
794.9392,374.6
795.5741,452.1
795.6108,18332.2
795.7358,135.4
795.9823,123.4
796.3039,317.4
796.5269,115787.4
796.5866,4512.5
796.625,3402.4
796.9519,21.1
797.0489,95
797.1956,349.7
797.3142,193.1
797.5302,55472.9
797.5891,2155.2
797.6273,1329.7
798.3979,22.5
798.5438,32239.7
798.6034,1097.1
798.634,392.2
799.0008,335.3
799.1162,99.5
799.215,128.7
799.4461,742.5
799.546,11821.9
799.6703,811.9
800.0296,161.5
800.274,445.6
800.5487,995.6
800.6714,123.1
800.9101,202.2
800.9845,178.5
801.0759,23.1
801.1801,375.9
801.2773,86.6
801.4124,211.8
801.602,601.1
801.6859,184.3
802.0282,168.8
802.0481,587.5
802.11,317.4
802.49,92.4
802.5371,42044.4
802.6928,74.1
803.2635,21.1
803.541,15101.8
803.734,129.7
804.0644,190.8
804.3972,96.1
804.5529,359088.2
804.6384,211.4
804.8283,671.3
804.8961,377.3
805.2153,767.3
805.5562,171156
805.9032,74
806.4206,74.8
806.5701,311993.8
806.9096,392.7
807.0113,151.9
807.0636,20.7
807.1813,285.2
807.515,411.7
807.5731,157436.1
807.6323,796
808.1877,673.3
808.586,217365.2
809.4344,584.9
809.5888,108418.4
809.6551,372.9
809.7061,100.9
809.7901,117.5
809.9044,74.1
809.9347,99.6
810.3316,18.9
810.4399,93.6
810.5063,1154.9
810.6028,135251.9
810.877,88.2
810.9158,84.1
811.0393,20.4
811.3816,552.5
811.5225,265.1
811.5522,173.7
811.6058,66483.9
811.6704,10921.6
812.0077,21.7
812.5572,103.2
812.6199,27677.6
812.6732,3135.8
813.559,637.5
813.6221,12001.3
813.6864,10707.5
814.0797,153.1
814.1337,93.5
814.1826,102.4
814.5734,1236.9
814.6224,1035.4
814.6889,5486.4
814.9794,326.3
815.0065,243.6
815.2738,1114.4
815.7571,217.8
815.953,81.7
816.3515,90.2
816.4921,25.4
816.5897,22214.6
817.0405,582.3
817.4427,487.3
817.5925,5329
817.7195,407.1
818.5107,4100.9
818.6074,1984.8
819.1749,319.2
819.5232,564.7
819.5506,646
819.6075,495.1
819.7108,500.1
819.9153,97.8
819.9635,713.7
820.5267,60909.8
820.5845,779
820.6252,681.1
820.7476,219.8
821.0037,449.8
821.4138,72.8
821.5305,28488.2
821.6554,77.6
821.692,710.4
822.5434,34474.7
822.639,136.9
822.6942,108.4
823.2455,774.4
823.5461,10855.1
823.6441,180.6
823.8038,128.6
823.9101,743.2
824.0583,634.8
824.1746,19.3
824.5589,22298
825.0401,20.2
825.0601,722.3
825.3774,94.9
825.5609,7225.4
825.6833,188.9
825.8296,875.2
826.3905,374.4
826.4263,101.2
826.5369,764.1
826.9143,307.8
826.9477,104.4
827.2599,104.3
827.3202,110.5
827.334,128.8
827.5871,95.9
827.9356,87.9
828.0166,214.5
828.5529,101789.8
828.7419,634.9
828.9513,915.7
829.0868,284.9
829.309,613.9
829.501,1241.9
829.5266,143
829.5561,48106.6
829.6748,20.7
829.7459,77.7
829.8229,583.6
829.951,393.2
830.1796,128.5
830.2267,20.8
830.5695,60978.3
830.6629,432.8
830.7539,724.6
831.2186,366.2
831.4883,666
831.5723,31355.8
831.8046,88.4
832.4153,21.3
832.4694,207.6
832.585,77068
833.1176,78.1
833.2295,132.9
833.4057,97.6
833.4897,978.3
833.588,38493.2
833.6554,517.2
833.6982,86.8
834.27,19.7
834.5561,223.8
834.6027,31398.4
834.9597,871.9
835.6052,14740.8
835.668,1759.3
835.7289,942.1
835.7905,184.8
836.0079,20
836.5169,20.2
836.6198,3192
836.6704,89.2
836.7882,86.1
836.9197,134.7
837.2494,68.6
837.6212,399.2
837.7247,80.5
838.4163,116.3
838.5119,413.9
839.0687,161.2
839.1268,195.3
839.2687,17.2
839.3395,252.7
840.0983,23.1
840.5242,365
840.6914,760.9
840.7502,695.6
840.7938,1561.5
840.8291,666.4
840.8647,736.3
841.5365,130.5
841.6629,175
841.7166,381.8
842.569,124.3
842.8572,21.7
843.0022,79.1
843.0657,179.5
843.852,143
844.0129,171.7
844.5269,13985.5
845.2844,69.9
845.3483,21.7
845.5296,2796
846.431,173.9
846.5421,5418
846.9895,177.1
847.1572,895.6
847.4678,64.8
847.5489,2550.5
847.6221,310.9
847.7027,87.9
847.9858,620.9
848.2238,130.6
848.307,207.9
848.5579,8445.5
848.6212,596.6
848.7917,250.6
848.8206,131.2
848.9368,143.7
848.9578,227.4
848.9937,152.3
849.0779,381.3
849.1368,692.2
849.3449,102.5
849.3996,98.5
849.5596,2385
849.6109,25.2
850.5357,529.2
850.5756,119.6
850.7369,701.9
851.0469,98.8
851.2966,137.6
851.6121,573.8
851.6346,71.3
851.7418,24.9
851.9647,91.5
852.0446,1101
852.0703,763.1
852.38,330.5
852.4193,151.4
852.711,68.4
852.9738,77.5
853.0753,592.1
853.2709,270.9
854.5664,736.3
854.8149,87.1
854.8606,755.8
855.335,682.3
855.5722,662.4
856.5844,5315
856.7201,715.8
856.773,169.8
856.7965,727.3
857.3447,100.1
857.5878,2483.3
857.9702,129.3
858.1063,271.1
859.3184,445.3
859.4844,206.7
859.6052,113.5
859.6921,362.3
860.3193,508.8
860.4907,334.2
860.7153,18.1
860.8622,139
861.0141,501.7
861.0547,22.2
861.4045,952.8
861.499,397.3
861.6955,86.5
861.8723,132.1
862.1488,26
862.201,386.6
862.9609,115.4
864.1153,111
864.5284,339.4
864.6902,317.5
864.8421,671.6
865.5318,630.7
865.7359,109.8
865.8689,23.6
867.2293,23
867.33,843.2
868.2706,20.6
868.3141,387.1
868.4573,110.4
868.5158,405.5
869.6663,30.7
869.6863,407.5
869.6996,360.3
869.7255,472.9
869.7505,25.4
869.8063,499.3
869.8516,192.6
869.8884,575.9
869.9301,656.8
869.9956,1611.7
870.0091,1405.8
870.0386,3094.1
870.0767,3386.8
870.1058,4872.8
870.1508,3625.4
870.1748,3414.4
870.2032,1700.7
870.2435,2293.7
870.278,980.3
870.3101,2179.1
870.3555,1586.4
870.4031,960.1
870.9352,279.5
871.1374,20.3
871.4828,356.5
871.6928,99.3
871.7982,108.7
871.8432,563.7
872.6345,312.4
873.0973,93.2
873.4392,133.7
873.6528,185.6
874.0171,94.8
874.5474,498.8
874.6664,109.1
874.898,154.9
875.0312,176
876.3004,160.5
876.516,141.6
876.573,499.9
877.55,130.8
877.6111,209.8
877.7193,548.7
878.3095,292.4
878.6844,510.7
878.7081,697.6
879.2119,102.3
879.2724,123.3
880.0609,742.1
880.3862,272.7
880.7801,22.2
881.3856,75.9
881.5918,19.4
881.8268,419.2
883.0893,140.5
883.2274,138
883.8307,199.1
884.753,131.9
885.2014,520.4
885.4648,18
885.5984,103.8
885.6901,864.7
886.1164,125.3
886.2592,313.3
886.5554,234.3
886.5801,138.9
886.6301,189.7
886.7051,96.2
886.8048,18.8
887.258,719.3
887.3343,100.6
888.0526,20.1
888.0888,93
888.26,504.9
889.262,192.5
889.3674,821.1
889.4082,112.1
889.9189,1390
890.15,134.6
890.5615,426.9
890.7398,86
891.4579,20.8
892.0434,142.1
892.1055,164.6
893.195,438.9
893.599,332.9
893.6274,365.2
893.8455,20.8
894.8634,149.2
895.2422,124.7
895.4692,274.8
895.5735,93.2
895.9224,475.7
896.2529,70.3
896.2905,906.6
896.3261,223.7
896.4426,22.1
896.4812,74.8
896.7389,93.4
896.8162,81.7
897.5614,94.7
897.9488,171.9
898.0805,22.5
898.4802,179.4
898.9355,330.8
899.7242,68.7
900.0606,133.9
900.1703,1153.2
900.2021,846.2
900.3573,180.2
900.6893,19.2
901.0761,435.6
901.4895,18.7
901.5605,347.1
902.261,205.9
902.3753,618.5
902.3967,20.8
902.5588,80.6
903.523,213.9
903.8567,83.9
904.5546,183.2
904.7977,159.7
905.3996,549.8
905.4375,1035.9
905.6913,26
906.1074,20.3
906.3002,299.5
906.5567,94.1
906.618,89.2
907.253,363
907.2845,207.2
907.4627,333.8
908.296,342.4
908.812,175.7
909.5269,153.3
909.8651,637.9
909.9113,476.9
909.9565,277.3
910.3698,125.3
911.0093,512.5
911.2392,78.2
911.7676,918.3
912.6372,528
913.0086,20
913.2084,243.9
913.2462,158
913.4204,368.2
913.8037,588.1
914.1065,397.2
915.3229,164.9
915.6387,815.2
915.8633,287.5
916.1005,582.7
916.3284,110.6
916.3517,227.6
916.5005,121.6
916.9463,73.7
917.2293,17.4
917.4025,618.7
917.7602,212.5
918.1128,643.8
918.4283,426.7
918.9865,246.3
919.0754,130.8
919.1698,272.9
919.4584,341.2
919.7705,1233.5
919.8754,543.5
920.111,853.3
920.7066,203.8
920.7505,121.6
921.1941,675.9
921.7402,1193.9
921.9732,522
922.3611,602.9
922.6415,18.6
922.8433,18.4
922.9795,678.4
923.4499,421.8
923.7519,109.3
924.2239,521
924.3558,25.5
924.7162,170.5
924.8065,122.1
924.8838,403.5
925.1079,330.5
926.1788,154.3
926.4523,18.6
926.698,206.3
926.8736,129.3
926.9054,121.7
927.2407,131.5
927.3268,197.4
927.3975,600.7
927.8101,150.5
928.4001,547.9
928.4322,20.7
928.5527,183.7
930.0367,73.4
930.0899,219.4
930.5447,79.9
930.9106,89
931.7145,23.6
931.8223,106.3
932.221,237
932.3413,127.6
932.4739,159.5
932.6208,1954.9
932.6632,573.7
933.3221,122.4
933.9304,172.9
933.9827,567.5
934.1441,414.1
935.129,118.8
935.2314,107.2
935.4755,155.4
935.5539,96.9
935.6303,237.4
935.6753,484.1
935.8228,617.2
935.9046,178.3
936.2139,580.3
936.6461,95.4
937.2147,67.3
937.3129,24.8
937.6344,101.4
937.9377,138
938.459,153.5
938.696,117.2
939.1035,715.9
939.1795,387.6
939.518,75.6
939.6359,266.8
939.9507,24.6
940.7904,232.8
940.8674,285.1
941.1175,374.9
941.3475,105.4
941.9133,174.1
941.9543,329.9
942.2529,441.8
942.5561,107.2
943.2258,503.5
943.7264,187.9
943.9401,464.1
944.2708,129.3
944.3703,129.6
944.474,127.9
945.0327,159.6
945.0656,81.2
945.1986,102.4
945.2915,471.5
945.4868,154.8
945.7502,116.4
946.3481,226.3
946.9115,138.3
947.0669,531.5
947.1214,118
947.4674,221.1
947.6288,160.7
947.682,383.7
947.7949,321.6
948.4092,81.5
949.109,91.4
949.2245,149.4
949.7613,229.5
949.8896,119.1
950.1396,566.9
950.2222,163.9
951.1532,207.9
951.2296,552.1
951.3019,562.3
951.3435,210.1
951.793,774.1
951.8768,758.9
952.3496,17.4
952.387,375.7
952.4651,187.4
952.618,1623.6
953.0898,88
953.2206,405.7
953.5997,342.6
953.9068,276.5
954.1706,561.2
954.3145,1328.6
954.4081,192.1
954.9718,23.3
955.5633,381.5
955.761,136
955.8539,395.8
956.5051,129.6
956.7922,97.6
957.0509,169.3
957.1519,153.2
957.1981,652.8
957.5938,395
957.7045,285.4
957.7609,208.9
958.2591,912.8
958.3831,1214.7
959.1318,222.6
959.1907,92.5
959.6607,97.1
959.7982,944
959.9474,673.9
960.016,767.6
960.1988,144.7
960.2639,85.2
960.3766,827.3
960.6582,834.1
962.5077,445.9
962.6153,1907.6
962.8525,398.7
963.0224,19.9
963.1226,61.3
963.2153,109.4
963.2749,131.6
964.2682,969.6
964.7552,922.3
964.8131,809.7
965.1161,105.7
965.1274,102
965.2078,1575.1
965.2697,410.2
965.4979,155.4
966.3322,379.5
966.3593,413.9
966.6949,367
966.7815,202.3
966.8485,104.7
967.3634,105.4
967.6816,110.9
967.7489,21.4
968.0328,84.2
968.3787,195.9
968.5069,121
968.6818,183.5
968.8273,67.7
968.8573,367.5
969.6751,116.3
970.3064,1048.2
970.8208,142.8
971.3767,99.1
971.766,660.2
972.445,439.3
972.658,737.3
972.9795,576.8
973.2983,159.1
973.3782,541.9
973.4505,300.3
973.5199,632.8
973.601,376
974.1856,1120.8
974.3663,187.2
974.9473,583.7
975.3797,265.8
975.726,380.8
975.8544,769.2
976.2416,82.3
976.4826,193.7
977.5306,846.4
977.9232,114.3
978.4695,342.5
978.8618,127.2
979.1073,133.1
979.3713,173.4
979.5033,99.6
979.6119,525.2
979.9327,20.2
980.1554,562.7
980.1979,26.5
981.0816,118.5
981.406,662.4
982.1486,852.2
982.4059,117.5
982.4824,20.9
982.5619,337.5
982.7019,1441.1
982.9765,22.9
983.1095,919.7
983.3857,808.8
983.6759,619.9
984.249,565.1
984.5876,82.3
985.1594,196.2
985.5398,586.8
985.7524,332.3
985.992,20.2
986.4935,683.1
986.6096,440.9
987.186,127.4
987.5188,1023.3
988.1686,1318.1
988.3344,594.3
988.3623,957.2
988.6562,182.5
988.7107,542
988.8024,1063
988.9821,77.2
989.2963,638.9
990.0552,214.7
990.3351,276.7
990.9066,197.9
991.2543,122.5
991.5781,1042.9
991.6708,1197.9
991.9467,317.6
992.8028,821.9
992.9168,167.4
992.9539,443.1
993.1043,126
993.2828,506.1
993.4837,491.6
993.8475,88.9
994.0171,704.9
994.0731,227.3
994.6639,20.3
994.7824,132.5
994.9898,87.2
995.7177,238.9
996.0833,179.7
996.468,349.4
996.8644,286.5
996.9755,1034.4
997.0117,243.3
997.6615,76.6
997.7507,383.6
997.8681,21.6
997.8963,17.3
998.0135,446.4
998.4338,1956.1
998.5852,18.5
998.7766,574.4
999.2442,1051.6
999.5292,803.4
