SPECTRUM - MS,
QC_7.RAW,
FTMS + p ESI Full ms [50.00-1000.00],
Scan #: 1-40,
RT: 0.01-1.97,
AV: 40,
m/z,Intensity

50.0142,22.3
50.0186,353.9
50.022,96.1
50.0245,765.1
50.0298,373.4
50.0442,15
50.0509,562
50.0576,820
50.0702,86.4
50.0706,165.3
50.0837,105.3
50.1019,186.3
50.1142,77.8
50.1293,319.3
50.1369,128.9
50.1511,168.1
50.1684,910.3
50.1844,196.2
50.223,562.7
50.2288,239.7
50.2295,801.4
50.2458,441.5
50.2657,123
50.2694,262.7
50.2705,131.7
50.2752,138.9
50.2801,200.9
50.3103,104.5
50.3138,75.7
50.3271,107.9
50.3465,535.3
50.3487,582.1
50.3506,120.9
50.3796,486.6
50.3992,531.4
50.4012,106.1
50.4022,482.8
50.4075,670.5
50.4185,440.6
50.4204,202.4
50.4229,114.4
50.4274,126.5
50.4399,139.2
50.4464,225.3
50.4536,141.7
50.4614,335.3
50.4735,103.9
50.4742,144.8
50.4975,21.6
50.4995,250
50.5004,151.5
50.5174,19.1
50.5535,16.2
50.5558,502.9
50.558,75.7
50.5594,598.2
50.5639,108.4
50.5664,83.6
50.5672,119
50.5674,138.8
50.5743,394.4
50.576,83.9
50.6088,153.8
50.6136,416.8
50.6238,221.1
50.6355,289.3
50.6441,445.5
50.6743,214.9
50.6775,949.9
50.68,378.9
50.6814,417.1
50.6854,167.7
50.6895,386.4
50.6907,149.1
50.7093,18.9
50.714,372.4
50.7251,18.8
50.7383,207.3
50.7424,82.2
50.7919,369.3
50.802,237.6
50.8031,486.5
50.8107,496.9
50.8157,92.9
50.8201,19.4
50.8306,175.4
50.8382,139.6
50.8594,16.4
50.8705,379.4
50.8874,101.8
50.8931,96.1
50.9036,403.8
50.9167,462.4
50.9355,357.8
50.9428,123
50.9432,80.4
50.9537,21.2
50.9573,415.4
50.9577,539.1
50.9668,278.1
50.9867,797.7
50.9927,472.9
50.9936,313.6
51.0222,17.4
51.0424,81.6
51.0594,79.3
51.0726,197.5
51.0773,86.1
51.0969,785
51.0991,333.1
51.1102,99.6
51.1165,696.9
51.1249,648.3
51.1311,89.2
51.1323,583.8
51.1334,17.8
51.1476,17.4
51.1527,73.8
51.1533,183.5
51.1542,125.1
51.1691,236.9
51.1728,88.9
51.1982,86
51.2127,407.7
51.2182,17.5
51.2188,628.3
51.247,366.9
51.2595,154.5
51.2614,438.1
51.2643,114.1
51.2649,138.2
51.2719,435.8
51.2863,19.2
51.2905,93.7
51.293,412.3
51.2963,397.2
51.3059,325.5
51.3087,100.2
51.3305,15.9
51.3473,357.6
51.3774,708.1
51.3948,252.3
51.4112,427.4
51.4269,17.9
51.4602,540.4
51.484,143.4
51.4856,90.5
51.4898,109.7
51.5001,117.9
51.5137,636
51.5406,15.2
51.5456,123.5
51.5473,93.6
51.5609,15
51.5725,656.1
51.5796,200.7
51.582,123.1
51.5912,336.8
51.5969,438.7
51.601,640.3
51.6281,230.7
51.6373,19.1
51.639,124.5
51.6418,204.6
51.6431,687.2
51.6528,447.3
51.6641,164.6
51.6774,356.7
51.6845,89.6
51.7251,122.7
51.7457,202.2
51.757,18.1
51.7957,315.2
51.7994,99.7
51.8112,571
51.8179,123.4
51.8196,472.6
51.8233,308
51.8551,145.7
51.8865,88.1
51.8898,181.8
51.9103,400.7
51.9112,348.6
51.9372,122.3
51.9387,127.8
51.9623,170.7
51.9643,619.7
51.9842,88.7
52.0012,16.9
52.0092,98.8
52.0246,206.6
52.0297,14.9
52.0298,15
52.0381,351.3
52.0401,89.2
52.0432,183.5
52.0516,820.4
52.0611,86.9
52.0619,209.3
52.0796,566.4
52.0849,132.1
52.0865,83.4
52.1005,186.4
52.1134,233.6
52.1167,172
52.1206,144.2
52.1299,128.3
52.1498,16.6
52.2014,504.2
52.2133,438.1
52.2148,260.4
52.2165,126.9
52.2541,559.4
52.2551,94.2
52.2563,811
52.2736,525.3
52.2809,484.9
52.3024,15.9
52.3301,21.9
52.3311,551.7
52.3821,789.9
52.3863,19.2
52.3878,185.2
52.3896,83.2
52.4011,16.1
52.4019,83.3
52.4574,242.7
52.4606,183
52.4745,16.7
52.4805,218.2
52.4871,91.5
52.4891,128.9
52.4926,92.7
52.4952,177.7
52.4956,16.5
52.5127,115.6
52.5134,99.2
52.5137,124.8
52.5153,201.6
52.5179,356.3
52.5501,253.3
52.5517,265.4
52.5522,584.4
52.5613,92.5
52.5676,107
52.575,15.8
52.5806,89.4
52.5852,18.3
52.5932,138.8
52.6013,215.7
52.604,504.4
52.6729,433.1
52.6831,295.8
52.6846,262.1
52.6897,387.2
52.6939,16.4
52.6996,17.2
52.7141,192.4
52.7181,358.9
52.7283,650
52.7318,125.4
52.7434,174.7
52.744,229.8
52.7479,104.9
52.749,87
52.7498,16.2
52.7676,90.3
52.7902,27.4
52.7908,29.6
52.7912,24.2
52.7922,167.6
52.7938,81.8
52.7941,1021.8
52.7944,714.9
52.7949,1490.1
52.7952,2344.8
52.7957,789.9
52.7963,4160.1
52.7964,4241.3
52.7969,405.5
52.7976,97.3
52.7981,367.2
52.8007,105.2
52.8105,16.2
52.8184,167.6
52.8193,126.9
52.8228,284.6
52.8299,338.3
52.8388,16
52.8869,100.9
52.9065,343.4
52.9127,22.2
52.918,19.3
52.9383,136.7
52.9492,259.2
52.9586,96.1
52.9891,15.2
53.0018,141.5
53.048,99.8
53.0579,88.6
53.0698,467.3
53.0972,155.3
53.1215,427.2
53.1473,183.5
53.1632,349.2
53.1711,200.9
53.1898,290.3
53.2251,88.2
53.236,76.9
53.2415,534.3
53.2471,145.5
53.253,114.5
53.2859,121.2
53.2936,96.3
53.3155,211.3
53.316,134.2
53.3198,734.2
53.3238,354.4
53.3346,117.6
53.3381,131.6
53.3587,252.8
53.3652,106.2
53.3692,617.4
53.3896,380.6
53.3938,92.5
53.4057,147.9
53.4258,225.1
53.4361,480.2
53.4396,99.2
53.4452,500.1
53.4472,296.9
53.4519,87
53.4726,97
53.488,73.3
53.4959,91
53.5126,170.3
53.5146,207.6
53.5153,149.2
53.5302,83.3
53.535,140.2
53.5363,202.9
53.5403,506.2
53.542,96.5
53.5777,19
53.5822,169
53.5873,149.1
53.618,246.5
53.6615,19.8
53.6689,117.4
53.6718,103.6
53.6821,381.9
53.6914,86.1
53.6917,257.6
53.6968,278
53.7183,385
53.7218,85.7
53.7345,336.5
53.7423,592.8
53.7503,99.4
53.7555,16.5
53.7779,87.6
53.8263,101.8
53.8297,160.7
53.8382,262.2
53.8484,113.1
53.8491,324.2
53.8783,464.1
53.8801,68.1
53.888,382.6
53.8935,320.7
53.9085,479.6
53.909,20.8
53.9119,665.2
53.9635,480.5
53.968,519.2
53.9789,214
53.985,180.3
54.0022,467.1
54.0113,140.3
54.0191,364.6
54.0352,18.2
54.0368,307.2
54.0431,81.8
54.0481,714.6
54.0631,141.7
54.0721,16.2
54.0725,391.8
54.0746,15.6
54.0781,17.1
54.0802,353.8
54.0921,650.7
54.1088,67.2
54.1241,96.2
54.1301,143.6
54.1347,306.1
54.1451,506.6
54.1514,85.4
54.1543,70.4
54.1713,86.7
54.1858,105.9
54.2035,198.6
54.2243,675
54.2274,383.3
54.2306,224.8
54.2336,661.3
54.2364,356.4
54.2398,16.2
54.2481,447.1
54.2539,736.2
54.2579,119.3
54.2617,131.3
54.2799,114.9
54.2811,102.6
54.2997,73.1
54.3147,437.9
54.3476,150.1
54.3542,165.5
54.3893,169.9
54.4015,326.5
54.4036,136.8
54.4127,95.7
54.4166,557.9
54.4332,91.4
54.4398,108.2
54.456,502.6
54.4587,16.1
54.4616,776.4
54.4645,750.6
54.4707,485.6
54.4926,174
54.5011,474.2
54.5045,344.5
54.5279,83
54.5299,330.8
54.5491,368.1
54.5822,533.5
54.6143,145.5
54.615,85
54.6172,354
54.6186,118.5
54.6194,143.2
54.6216,97.9
54.6238,629.5
54.6243,755.3
54.6275,570.1
54.64,122.8
54.6553,1654
54.6636,99.5
54.6644,95.8
54.6662,93.4
54.674,110.8
54.6987,95.1
54.7064,662.9
54.722,208.7
54.743,385.1
54.7505,134.3
54.7628,118.6
54.7686,580.4
54.7812,836.4
54.7872,683.1
54.7918,96
54.8213,931.6
54.8286,331.1
54.8384,204
54.8473,516.6
54.8676,252.9
54.8798,17.2
54.8827,103.5
54.9097,99.5
54.9211,231.5
54.9298,94.9
54.9341,376.8
54.9349,191.8
54.9522,100.2
54.9622,98.3
54.9743,17
54.9825,371.9
54.9922,107.4
54.9998,221.2
55.0329,812.5
55.0337,330.4
55.0366,649.4
55.0375,93.8
55.0403,162.8
55.063,272.5
55.0796,325.3
55.081,106.4
55.0881,411.6
55.0914,285.8
55.0956,76
55.1266,309.8
55.1311,447.4
55.1393,131.9
55.1521,85.3
55.1545,15.8
55.1561,79
55.161,70.3
55.1671,128.5
55.1736,123.4
55.1785,349.1
55.182,277.5
55.1907,87
55.2032,16.4
55.2263,548.2
55.2416,16.9
55.2465,343.8
55.2469,608
55.3077,123.4
55.3111,97.5
55.3198,329.2
55.3461,118.4
55.3628,15.9
55.3645,18.8
55.3679,173.8
55.393,572.2
55.3941,1003.6
55.3949,220.9
55.3956,113.3
55.3987,199.9
55.4024,177.6
55.4083,95.7
55.4261,187.4
55.4669,547.1
55.4697,70
55.474,596.2
55.4792,109.3
55.4951,81.8
55.5293,329.4
55.5381,161.2
55.5478,252.7
55.5606,217.7
55.5939,235
55.623,71.6
55.6331,278.9
55.6436,669.2
55.6603,117.4
55.6716,548
55.6845,15.2
55.6879,152.2
55.6987,278.3
55.706,510.5
55.711,731.3
55.729,84.9
55.7312,589.4
55.7416,139.3
55.7456,185.6
55.752,177.3
55.7555,614.7
55.7641,67
55.789,384.6
55.8106,628.9
55.8227,309.4
55.8363,155.3
55.8406,17.5
55.8458,965.3
55.8605,17.4
55.8921,101.6
55.9147,96.6
55.9311,262.3
55.9404,142.5
55.9449,260.2
55.9755,150.4
55.9809,369.6
56.0039,229.9
56.0186,16.3
56.0207,88.3
56.0215,368.1
56.0465,392.5
56.0575,122.7
56.0617,179.1
56.0972,119.8
56.0984,317.9
56.1157,16.1
56.1416,20.1
56.1423,87
56.1463,169
56.1568,523.5
56.1611,297.4
56.1745,17.9
56.1932,123.1
56.1945,16.1
56.203,168.6
56.2049,438.5
56.2424,90.6
56.244,130.5
56.2817,530.7
56.2848,535
56.2869,129.6
56.3044,297.9
56.3227,19.2
56.345,346.6
56.3486,142.5
56.3588,16.1
56.3661,178.4
56.3674,623.2
56.3735,629.6
56.3779,728.8
56.3851,124.4
56.4081,372
56.4244,102.7
56.4277,128.1
56.4299,268.1
56.4325,143.3
56.4356,251.3
56.4638,234
56.4755,417.8
56.4775,79.6
56.516,423.7
56.5285,114.6
56.5359,378.6
56.5423,148.5
56.5624,309.1
56.5633,344.1
56.5643,609.5
56.5682,67.7
56.5735,247.8
56.5811,170.2
56.6163,673.1
56.6173,161.6
56.6319,169.9
56.6338,21.5
56.6344,104.5
56.6436,245
56.6442,117
56.649,549.4
56.662,426.3
56.6729,173.7
56.6899,94.7
56.6937,151.3
56.7107,179.4
56.7132,191.5
56.7201,381.1
56.7273,16.3
56.7407,110.2
56.7756,192.2
56.7919,154.6
56.7953,379.9
56.7975,103.7
56.8042,349.4
56.8115,398.1
56.8143,377.6
56.818,182.5
56.8192,739.8
56.8276,123.8
56.8457,17.7
56.8677,221.1
56.8718,181.6
56.8919,91.7
56.8983,139.1
56.9146,157.7
56.9165,278.1
56.9249,398.6
56.9397,870.2
56.9963,354.3
57.0086,116.7
57.0259,93.7
57.0314,130.7
57.0427,191.6
57.0434,110.3
57.0496,447.9
57.0507,132
57.0533,347.4
57.0761,118.5
57.0859,76.7
57.089,454.8
57.1071,16
57.1092,512.9
57.1114,535.1
57.1455,113
57.1502,194.8
57.1623,680.7
57.1975,79.3
57.2005,223.8
57.2231,963.1
57.2464,619.6
57.27,348.5
57.2832,83.2
57.2839,119.4
57.2875,120.4
57.3028,583.5
57.3061,446.9
57.3201,208.2
57.3268,381.6
57.3522,538.8
57.3855,17.9
57.4008,187.1
57.4236,341
57.4365,138
57.4433,772.8
57.4441,15.9
57.4467,22.2
57.4545,174.1
57.4564,84.1
57.49,193
57.4938,457.3
57.5144,112.7
57.5196,90.9
57.5325,17.1
57.5406,534.5
57.5582,209.4
57.5619,352.9
57.5648,134.1
57.5694,270.9
57.5861,91.4
57.6008,713.1
57.6031,217.7
57.6036,250.5
57.6145,83.8
57.6188,119.8
57.6216,100.4
57.6272,325.4
57.6353,94.1
57.6373,549.7
57.6769,808.5
57.6893,178.2
57.7008,243.3
57.7011,78.6
57.7075,72.5
57.7102,92.7
57.73,343.5
57.7357,388.1
57.7405,134.8
57.7556,15.9
57.7696,89.1
57.7751,88.8
57.7877,242.8
57.8147,14.8
57.8466,328.3
57.8552,569.2
57.8597,763.7
57.8692,217.3
57.886,75.9
57.8951,220.3
57.9061,594.3
57.9189,300.4
57.9302,390.6
57.9754,117.2
57.9793,85.3
57.9936,142.9
58.0009,98
58.0024,174.1
58.0145,137.7
58.0219,331.5
58.0229,159.2
58.0424,250.3
58.0597,100.7
58.066,267.6
58.0662,226
58.0819,15.6
58.106,465.1
58.1145,248.7
58.115,194.5
58.1213,111.8
58.128,18.2
58.1473,283
58.1555,253.8
58.1685,137.2
58.1714,653.7
58.1814,103.8
58.1845,734.9
58.1988,103.9
58.2353,96.1
58.2506,104.1
58.2569,412.5
58.2741,429.1
58.276,123.6
58.306,828.8
58.3081,148.1
58.3087,210.5
58.315,648.1
58.3248,576.6
58.328,279.1
58.3322,559.5
58.3407,576.1
58.3465,116.5
58.351,15.8
58.3528,331.9
58.3543,84.2
58.3558,168.3
58.3756,443.5
58.386,491.7
58.3913,836.6
58.3985,481.3
58.4093,585.4
58.4123,784.9
58.4213,140.6
58.4294,562.6
58.4329,193.8
58.4396,93
58.4459,408.3
58.4555,133
58.4567,19.9
58.4666,120.1
58.4945,394
58.4959,97.7
58.5025,600
58.5044,18.1
58.5172,72.7
58.521,118.6
58.5545,144
58.5597,394
58.5618,590.6
58.5649,376.5
58.5768,18.9
58.586,238.8
58.6047,237.5
58.6328,81.4
58.6437,298.1
58.6511,644.1
58.6694,182.7
58.6716,85.6
58.6808,270.1
58.6906,90.7
58.6986,179.9
58.7021,72
58.7147,94
58.7152,285.7
58.7268,288.7
58.7367,329.1
58.7724,360.2
58.776,133.4
58.7849,146.2
58.7863,118.4
58.7878,681.8
58.789,133.2
58.7941,69.5
58.8018,314.9
58.8055,239.6
58.8086,117.4
58.8165,330.6
58.817,18.6
58.8249,108.4
58.8435,352.2
58.8453,392.3
58.8481,126.8
58.8562,343.5
58.8795,419.2
58.8905,133.6
58.8917,117.2
58.8961,90.1
58.9109,90.5
58.9218,92.8
58.9338,423.9
58.939,15.9
58.9589,105.9
58.9635,224.5
58.9793,109.7
58.9796,86.8
58.9972,83.1
59.0222,784.9
59.0224,619
59.0252,135.6
59.036,98.7
59.0466,669.9
59.0518,721.1
59.0733,943.6
59.093,105.9
59.1083,322.7
59.1103,82.5
59.1207,73
59.1254,443.9
59.1274,112.6
59.1362,79.6
59.1486,566.2
59.1838,254.7
59.1852,687.9
59.1861,133
59.1891,85.9
59.1921,118.7
59.1938,82.3
59.2016,355.5
59.2081,167.7
59.2088,99.7
59.2259,830
59.2481,389.9
59.251,827.8
59.2552,322
59.2679,379.8
59.274,331.3
59.2803,90.8
59.2866,97.6
59.2981,93.6
59.3177,17.7
59.3241,368.5
59.333,125.9
59.3486,155.2
59.3647,101.2
59.3699,473.8
59.3758,466.1
59.3924,393
59.3998,140.9
59.4014,246.8
59.4138,157.2
59.4157,665.1
59.4327,506.5
59.4476,278.9
59.4568,127.9
59.46,79.7
59.4638,96.9
59.4671,143.8
59.4812,350.3
59.5289,611.9
59.5333,104.7
59.58,111.1
59.5893,127.4
59.6119,220.4
59.6254,633.3
59.628,149.9
59.6346,892.4
59.6356,576.6
59.6677,576.6
59.6694,769.7
59.6711,753.4
59.6768,18.2
59.6783,104.7
59.6793,234.1
59.6813,424.6
59.6867,743.1
59.6899,16.6
59.7046,18.3
59.7099,510.8
59.7149,791.4
59.7297,428.3
59.7343,81
59.7382,348.2
59.7436,88.9
59.7541,166.3
59.7682,128.4
59.7766,110.1
59.7881,96.2
59.7922,136.3
59.8204,151.2
59.8241,17.9
59.8326,76.9
59.8472,91.3
59.8738,436.7
59.8814,98.7
59.8938,328.4
59.895,208.1
59.8982,678.9
59.9187,102.9
59.9286,342
59.9472,112.4
59.9518,83
59.9625,100.1
59.9745,466.6
59.9773,265.9
60.0064,291.8
60.0129,191.1
60.0287,91.1
60.0333,427.3
60.0512,416
60.0731,143.5
60.0754,424.6
60.099,463.3
60.1175,196.9
60.1187,150.6
60.1366,354
60.1382,16
60.1476,506.3
60.1574,569.2
60.1794,652.1
60.2014,441.7
60.2101,177.4
60.2107,106.8
60.2337,91.6
60.2354,170.7
60.2387,151.4
60.2637,17.1
60.2685,77.1
60.2888,435.1
60.3107,94.5
60.3145,235.5
60.3153,288.5
60.3258,15.8
60.326,16.5
60.3297,393.6
60.331,337.9
60.3556,624.3
60.3599,83.5
60.3777,150.2
60.387,133.6
60.4077,349
60.4231,140.5
60.4293,429.1
60.4343,179.6
60.4618,745.1
60.4639,124.1
60.4683,634.4
60.5027,80.7
60.5049,434.8
60.5084,114.3
60.5125,235.4
60.5147,351.8
60.5182,405.8
60.5183,396.8
60.5252,94
60.5508,345.4
60.5554,765.3
60.5693,117
60.5719,83.1
60.5731,77.8
60.5855,103.8
60.6022,160.7
60.6089,403.6
60.6261,416
60.6467,93.3
60.6971,159.2
60.6976,461.4
60.6994,389.1
60.7301,370.4
60.7359,754
60.7632,341
60.7671,633.7
60.7678,372.5
60.7709,20.9
60.7814,213.5
60.7874,722.4
60.82,91.3
60.8423,527.8
60.8505,285.9
60.8566,215.5
60.8688,77.5
60.8697,16.5
60.8761,99.2
60.8862,465.3
60.9008,139.9
60.9019,17.6
60.9029,628.7
60.9287,175.3
60.935,83.3
60.9424,124.8
60.9693,221.1
60.9702,16.2
60.9798,24.4
61.0061,267.1
61.0083,286.3
61.0243,17.5
61.0343,19.2
61.0355,20.2
61.0641,242.2
61.0699,16.4
61.0853,227.5
61.0986,1116.1
61.1043,362.8
61.1314,361.3
61.1378,695.8
61.1383,883.5
61.1818,114.3
61.1852,238.8
61.1958,381.5
61.1971,143.9
61.1976,221.9
61.2161,653.2
61.2948,15.7
61.3189,262.9
61.3464,93.5
61.3469,147.7
61.3481,88.3
61.358,508.4
61.3633,92
61.3735,37.3
61.3773,81.3
61.4011,211.3
61.4035,198.7
61.4058,103
61.4203,433
61.4241,75.7
61.4299,90.7
61.4497,111.1
61.4516,200.3
61.4604,175.1
61.4983,121.1
61.5048,107.5
61.5224,226.1
61.5265,240
61.5459,289.4
61.5762,151.2
61.5796,664.6
61.5902,219.8
61.6069,223.6
61.61,177.9
61.6305,96.7
61.645,76.5
61.6597,101.1
61.6694,254
61.673,74.2
61.6756,376.6
61.7005,830.6
61.7135,138.3
61.7226,653.9
61.7393,622.5
61.7614,461.6
61.7629,19
61.794,134.8
61.7966,143.5
61.8272,117.4
61.8374,18.6
61.8444,254.7
61.8504,72.5
61.8629,326.1
61.8825,384.2
61.8855,162.3
61.8889,803.6
61.8916,184.1
61.901,192.4
61.9243,680.4
61.9365,153.3
61.9427,124.1
61.9513,201.9
61.9563,201.2
61.9605,470.6
61.9823,832.6
61.9962,22.1
61.9987,157.3
62.0083,287.4
62.0112,217.1
62.0294,684.9
62.0409,195.5
62.0445,74.8
62.06,548.7
62.0719,134.5
62.0817,132.4
62.085,580.4
62.0876,171
62.0909,143.5
62.1017,285.3
62.1032,19.3
62.1275,437.7
62.1524,19.4
62.155,119
62.1626,189.1
62.1788,75.7
62.1881,1020.2
62.2018,339.6
62.2275,588.1
62.2327,78
62.2461,359.5
62.2502,15.3
62.2675,113.9
62.2958,19.1
62.304,94.7
62.3046,194.7
62.3048,155.2
62.305,145.3
62.3131,76.5
62.3423,608.2
62.348,101.7
62.3635,111.3
62.3687,17.2
62.377,373.8
62.3927,728
62.394,188.5
62.397,839.9
62.4041,229.5
62.406,531.5
62.4301,95.8
62.4512,247.4
62.4552,275.5
62.4622,375.3
62.464,84.4
62.4699,610.8
62.4718,108.8
62.5029,137.9
62.5281,19.2
62.5564,117.1
62.5582,139.9
62.5797,323.1
62.6114,403.9
62.6183,97.9
62.624,562.5
62.6443,135.8
62.6455,125
62.653,184.8
62.6654,99.4
62.6842,396.4
62.7086,430.9
62.7133,705.2
62.7272,73.4
62.7379,207.4
62.746,17.1
62.7564,312.5
62.7585,155.9
62.7727,552.4
62.7759,377.1
62.784,89.8
62.8098,17.3
62.8204,19.2
62.8435,121
62.8674,192.7
62.9011,129.9
62.9187,216.5
62.929,386.4
62.9453,436.3
62.9792,87.6
62.9809,291.6
62.9885,330.6
62.9936,910.2
62.9945,619.6
63.0141,90.8
63.0548,76.6
63.0882,17.6
63.0898,173.8
63.106,208
63.1119,148.3
63.1162,97.5
63.15,119.8
63.176,231.4
63.1986,128.7
63.2075,83
63.2243,17.2
63.2274,193.1
63.2298,69.6
63.2421,279
63.2459,147.3
63.248,339.2
63.2583,562.1
63.264,257
63.2917,575.1
63.31,174.4
63.3556,412.2
63.3591,21.1
63.3607,373
63.3649,317.1
63.373,177.5
63.3884,144.5
63.3934,664
63.3958,120.2
63.4004,250.7
63.4138,434.5
63.4532,104.2
63.4613,212.3
63.4646,531.5
63.465,91.1
63.4905,132.9
63.4922,379.1
63.4975,20.5
63.5027,765.7
63.5061,99.7
63.5423,714.3
63.5564,94.8
63.5844,74.1
63.593,70.8
63.6043,225.3
63.6282,73.7
63.6327,319.3
63.6338,647.3
63.645,201.7
63.6539,898.3
63.6792,228.7
63.6823,90.4
63.6876,290
63.7172,164
63.7746,110.7
63.7867,75.5
63.8156,233.3
63.8263,946.6
63.8313,138.6
63.8323,201.9
63.8636,341.4
63.8835,73.6
63.9022,470.5
63.9034,154.1
63.9137,204.3
63.9263,117.5
63.9293,15.2
63.9353,455.9
63.9425,83.8
63.9479,277.2
63.9524,282.2
63.9597,717.9
63.9699,134.9
63.9816,119.3
63.9949,998.3
64.0179,370.8
64.0227,16.5
64.028,134.8
64.0305,96.6
64.0794,22.5
64.1062,448.3
64.1479,122.8
64.1522,123.1
64.1643,455.3
64.169,73.7
64.1699,100.1
64.1958,395.8
64.1963,442.3
64.1998,101.5
64.2045,84.6
64.2271,341.2
64.2397,635.1
64.3046,170.1
64.3291,649.1
64.3322,18.1
64.3394,274.3
64.3442,542.6
64.3463,17.3
64.3641,78.7
64.3676,151.6
64.3697,151.4
64.3722,16.8
64.3844,523.9
64.3955,169.5
64.4145,139.7
64.4232,798.4
64.4293,123.5
64.4355,102.8
64.4361,391.8
64.4423,202.1
64.4575,418.1
64.4631,626
64.4818,330.6
64.4853,137.5
64.4941,246.8
64.5119,695.8
64.5181,484.5
64.5212,151.6
64.5276,18.9
64.5515,574.6
64.5734,436.3
64.5765,179
64.584,19.1
64.5958,140.4
64.6149,273.4
64.6437,545.6
64.6462,114.2
64.6591,821.5
64.6829,747.1
64.7023,572.2
64.7301,142.8
64.7351,216.3
64.7406,521.9
64.746,182.6
64.7637,220.7
64.7724,130.7
64.7852,464.8
64.7938,272.7
64.8075,424.8
64.8119,328.2
64.8179,316.2
64.8253,459.7
64.8381,16.6
64.854,687.4
64.8826,161.8
64.8828,201.6
64.883,146.1
64.8838,380.3
64.9141,579.2
64.9156,849.7
64.9436,121
64.9505,398.4
64.9622,162.9
64.9627,164.6
64.9641,197.6
64.9719,598
64.9845,153.2
64.9914,508.7
64.9987,140
65.0209,307.2
65.0588,282.7
65.0607,83.8
65.0775,347.2
65.0844,779.1
65.107,860.9
65.1118,202
65.1332,87.7
65.1609,137.8
65.1806,17
65.1965,195.7
65.1987,74.9
65.2192,95.8
65.2252,114
65.2341,291
65.2492,660.2
65.2504,183.8
65.2517,142.8
65.2549,317
65.2558,18.6
65.2618,18.8
65.2688,277.1
65.2864,607.3
65.3062,656.4
65.3101,383
65.3138,175.8
65.3141,196.1
65.329,82.1
65.3327,147.9
65.3497,106.8
65.3536,94.2
65.3639,482.8
65.3646,474.8
65.3861,109.8
65.4133,607.4
65.4135,541
65.4138,619.7
65.4245,697.9
65.4404,625.6
65.4451,351.8
65.4506,121.1
65.4533,845.6
65.4665,261.6
65.4787,16.5
65.4855,97.9
65.492,16.4
65.4928,133.9
65.4986,120.6
65.5141,105.8
65.5241,281.6
65.5501,198.9
65.5582,471.4
65.5598,282.1
65.5642,20.9
65.5797,339.5
65.5814,534
65.591,97.8
65.6,445.6
65.6046,305.6
65.6271,228.7
65.6352,475.2
65.6463,731.3
65.6506,224.6
65.6538,117.7
65.6908,211.1
65.7328,526.8
65.7347,809.3
65.7388,456.7
65.7394,275.9
65.8,93.2
65.8387,487.4
65.8462,160.5
65.853,148.5
65.9072,168.6
65.9195,91.1
65.9237,103.2
65.9558,393.5
65.9577,245.8
65.9733,106.1
65.9853,202.9
66.0067,77.2
66.0161,661.8
66.0302,103.4
66.0536,101.4
66.0582,689
66.065,212.7
66.0659,129.2
66.0681,299.1
66.0812,264.7
66.1012,132.2
66.1058,75.6
66.1222,562.6
66.1233,92.7
66.1243,152.7
66.129,297.3
66.1306,1256.6
66.1412,905.7
66.1475,77.5
66.1787,139
66.1852,392.2
66.1906,80.7
66.2068,241.9
66.2223,638.6
66.2256,107.3
66.2358,907.7
66.2453,102.5
66.25,125.2
66.2829,18.6
66.2988,342.9
66.3133,525.1
66.3427,110
66.3535,505.5
66.3627,207
66.3824,90.9
66.3959,16.8
66.3972,540.7
66.4061,112.7
66.4293,282.5
66.4315,98.8
66.4373,167.8
66.4492,442.6
66.4519,283.8
66.4678,103.6
66.4979,268
66.5029,15.3
66.5239,74.3
66.528,189.4
66.5438,86.3
66.5721,373.9
66.5952,323
66.6093,574.6
66.6137,206.6
66.6196,204.5
66.6199,255.5
66.6201,260.1
66.6206,432
66.6382,917
66.6499,700.7
66.6527,189.5
66.665,164.1
66.6797,120.8
66.6915,105.7
66.7322,276.1
66.7573,127.8
66.7796,356.8
66.7804,456.1
66.8171,17.4
66.8208,688.2
66.8221,182.2
66.8281,331.9
66.8287,104
66.8653,194
66.8665,305
66.8807,186.8
66.8872,137.1
66.9035,131.8
66.9177,457.3
66.927,17.3
66.9275,274.7
66.9371,116.2
66.945,696.1
66.946,179.9
66.9574,74.1
66.9592,17
66.9775,407.6
66.9825,172.5
66.9885,264.9
67.0032,16.6
67.0114,348.8
67.0182,174.4
67.0367,88.6
67.054,54.4
67.0597,724.6
67.0865,384.4
67.087,348.4
67.0977,169.3
67.1037,216.9
67.1176,18.4
67.1286,347.5
67.1371,219.2
67.14,224.6
67.1434,132
67.1621,255.2
67.1727,118
67.1874,424.9
67.1903,544.9
67.1974,574.3
67.1984,137.4
67.2261,116.3
67.2295,83.2
67.2417,372.6
67.2715,153.2
67.2876,137.7
67.29,202.4
67.2936,147.3
67.302,17.5
67.3032,17.5
67.308,18.9
67.3324,158.6
67.3522,692.5
67.3527,275.1
67.3603,85.9
67.3633,72.8
67.3661,549.7
67.3689,141.3
67.3817,485.5
67.3905,93.8
67.4105,229
67.4312,363.3
67.4479,18.3
67.4799,94.4
67.504,122.3
67.5052,72.4
67.5088,157.5
67.5109,133.8
67.5187,102
67.5358,155.4
67.5386,477.7
67.5435,147.7
67.5603,255.7
67.5677,94.2
67.568,114.4
67.5685,480.9
67.5755,66.5
67.5759,74.4
67.5975,17.1
67.6199,19
67.6414,750.1
67.6653,331.6
67.6681,86.3
67.6712,410
67.7165,543.6
67.7315,17.2
67.7665,196.4
67.7783,216.8
67.7815,564.2
67.8049,376.5
67.8134,550.4
67.8209,90.8
67.8221,104.9
67.8333,289.5
67.8634,112.1
67.8727,356.7
67.8748,125.4
67.8917,17.2
67.8926,131.1
67.8948,602.4
67.9032,381.5
67.912,281.2
67.927,347.4
67.9382,108.9
67.9435,328
67.9527,77.8
67.9558,97.7
67.9571,152.5
67.9807,426.1
67.9856,96.1
67.9884,276.7
67.9905,220.2
68.0099,109.1
68.0136,473.2
68.0181,703.8
68.0516,134.7
68.0521,163.5
68.0832,401.8
68.0853,18
68.0918,401.9
68.1086,600.7
68.1159,109
68.1193,90.1
68.1595,111.5
68.1631,404.3
68.2168,824.3
68.2202,20.3
68.2212,260.6
68.2283,236.9
68.24,19
68.2564,17.4
68.2886,77.1
68.3139,102.6
68.3351,372.6
68.336,108.8
68.3375,141.9
68.3391,17.6
68.3642,540.4
68.3672,397.9
68.3785,175.4
68.3966,430.6
68.4199,361.9
68.431,72.7
68.4528,430.2
68.4726,109.6
68.4743,181.1
68.515,148.5
68.5536,224.6
68.566,148.2
68.59,721.3
68.5944,348.9
68.6039,636.1
68.609,85.9
68.6266,119.3
68.6448,368.9
68.6614,110.6
68.679,574.6
68.6831,118.2
68.6882,530.2
68.6951,142.3
68.7011,95
68.7041,877.2
68.7069,391.8
68.7375,423.8
68.7385,327
68.7464,119.8
68.7473,19.4
68.7628,318
68.7677,345.5
68.7842,522.4
68.8012,586.6
68.8367,581
68.8426,199.9
68.8431,167.3
68.8917,16
68.9283,893.8
68.9311,161.5
68.9619,370.6
68.9633,370.3
68.9639,213.2
68.9726,426.7
68.9784,94.3
68.9857,103.7
68.9914,19.4
68.9955,19.1
69.0008,418.5
69.0094,349.8
69.0173,126.2
69.034,108
69.0635,714.5
69.0697,18
69.0813,277.2
69.0944,142.9
69.1026,102.4
69.1236,154.8
69.1302,17.5
69.1495,269.3
69.154,112.1
69.1818,95.5
69.2239,147
69.2321,17.9
69.2485,163.1
69.2541,112.4
69.2717,330.2
69.2977,245.3
69.3008,22.3
69.3103,116.4
69.3291,72.1
69.3403,167.8
69.3443,95.3
69.3499,595.3
69.3547,190.7
69.3555,669.4
69.3618,218.4
69.369,14.6
69.3757,965.3
69.388,531.3
69.404,514.8
69.4186,104.9
69.4304,375.1
69.4489,129.6
69.4552,765.4
69.4604,164.6
69.4855,693.2
69.4876,747.3
69.4881,101
69.4958,204.7
69.4992,16.8
69.5069,285.5
69.5191,483.5
69.5324,372
69.5415,16.9
69.5455,83.4
69.5606,774.6
69.5748,520.1
69.5845,16.5
69.5873,553.6
69.6062,584.9
69.6232,215.8
69.6273,610.4
69.6359,179.4
69.6435,18.4
69.6483,838.5
69.6598,133.7
69.6686,837.6
69.6752,108.9
69.6864,789.9
69.6874,174.8
69.7062,244.1
69.7132,126.1
69.729,424.7
69.7309,171.3
69.7363,214.9
69.7465,100.4
69.7477,69
69.7718,372.8
69.7969,597
69.8088,94.9
69.8124,121.6
69.815,272.5
69.8195,423.1
69.8271,265.3
69.8394,519.2
69.8505,710.5
69.8544,218.1
69.8717,375.8
69.8923,296.4
69.8995,88.7
69.949,83.9
69.9835,806.5
70.0127,110.5
70.0473,103.1
70.0627,121.5
70.0649,935.4
70.0685,16.6
70.0708,175.3
70.0716,291.5
70.0793,313.2
70.0816,261.9
70.0872,86.5
70.1068,124.3
70.112,442.9
70.1292,645.6
70.1321,338.2
70.1424,118.7
70.1482,111.8
70.1591,413
70.1748,754.3
70.1941,16.9
70.1976,544.3
70.2287,138.8
70.24,245.6
70.2506,547.3
70.2658,100.3
70.2773,556.2
70.3251,195.3
70.3274,195.5
70.3588,308.3
70.3701,334.1
70.3863,163.8
70.3986,83.6
70.4174,18.7
70.4195,604.5
70.4419,173.9
70.4456,120.6
70.4531,17.7
70.491,366.4
70.505,849.5
70.5336,115.5
70.5367,19.2
70.5416,397
70.5633,123.7
70.5659,566.3
70.5829,129.1
70.5846,437.4
70.6077,146
70.6149,88.1
70.6212,224.4
70.6262,140.1
70.6328,109.1
70.6496,340.9
70.6559,262.9
70.6692,296.4
70.6701,454.6
70.7114,16.5
70.7136,237.2
70.7659,127
70.769,110.4
70.8093,678.2
70.8146,87.4
70.8156,106.2
70.8248,360.8
70.8341,16.8
70.8584,125
70.8706,281.6
70.8926,86
70.9035,433.3
70.906,469.2
70.912,197.7
70.9158,100.6
70.9209,836.6
70.9809,551.1
70.9901,370.4
71.0019,116.3
71.0165,19.3
71.0239,325.1
71.0277,378.2
71.0407,177.9
71.0484,545.8
71.0494,104.9
71.0509,165.3
71.0609,18.2
71.0658,16.1
71.0701,338
71.0711,183.2
71.0789,157.2
71.1043,370.7
71.1071,20.3
71.1554,136.9
71.156,105.6
71.175,94.1
71.1817,541.3
71.2061,152.7
71.2163,135.7
71.2234,17
71.2255,121.1
71.2386,293.8
71.2503,556.4
71.2569,127.5
71.2638,377.2
71.2649,87.5
71.2727,558.8
71.2755,749.9
71.2852,357.8
71.2906,148.6
71.328,386.7
71.3451,351.2
71.3456,114.4
71.3674,971.8
71.3904,186.1
71.4648,127.4
71.4683,19.1
71.4947,95.8
71.5262,91.8
71.5371,359.8
71.5673,101.6
71.5704,433.6
71.5781,125.4
71.5876,108.3
71.5894,113.3
71.5963,414.6
71.6043,18.2
71.6056,570.9
71.6215,187.2
71.6379,302.9
71.6568,188
71.6588,355.6
71.7088,287.8
71.7116,68.8
71.7284,109
71.7335,154.1
71.7387,165.6
71.7739,707.7
71.7916,101.4
71.8022,763
71.8284,118.4
71.8315,752.5
71.8758,718.9
71.8829,19.3
71.8966,115.8
71.9026,160.9
71.908,302.1
71.9171,133.8
71.9437,97.9
71.954,121.9
71.9621,459.8
71.9672,829.9
71.9733,104.2
71.9824,340.1
71.9863,687
72.0061,17.7
72.0071,891.4
72.0156,386.2
72.0219,100.2
72.0315,76.3
72.0505,78.3
72.0673,1082.3
72.078,255
72.0799,86.5
72.0806,1323.5
72.0921,358
72.1034,843.1
72.1415,92.6
72.1644,439.9
72.1864,131.9
72.1945,319.6
72.1956,89.4
72.2052,147.1
72.2131,181.6
72.2179,136.2
72.2197,215.9
72.22,176.1
72.221,165.3
72.2228,568.1
72.2239,443.5
72.2247,181.1
72.2258,686.6
72.2266,735.2
72.2273,1076.7
72.2283,1473.3
72.2293,3051.6
72.2302,1756
72.2305,1840.9
72.2312,1048
72.2323,2822.9
72.2344,2691.4
72.2349,1897.1
72.2353,1968.5
72.2364,2753.6
72.2371,2900.4
72.2386,2887.6
72.2405,3729.8
72.2424,5204.4
72.2437,1954.1
72.2439,2046.3
72.2446,1324.4
72.2457,2090.9
72.2473,377.4
72.2479,192
72.2485,574.6
72.2495,295.6
72.2506,15.5
72.251,209.8
72.2515,717.5
72.2544,644.5
72.2647,99.9
72.2817,152.4
72.2953,173.5
72.3014,375.4
72.3031,200.9
72.318,645.5
72.3208,17.4
72.3258,216.2
72.3385,392.3
72.3564,711.6
72.3634,447.4
72.3654,98.3
72.3776,220
72.3852,347.7
72.3915,73.7
72.3976,189.3
72.4001,96.2
72.4036,832.1
72.4326,155.3
72.454,99.9
72.4734,770.7
72.4763,812.5
72.4875,90.2
72.4985,440.3
72.5046,452.8
72.5233,111.5
72.5317,166.9
72.5327,103.2
72.5551,17
72.5588,104.5
72.565,278.7
72.5672,308.9
72.6013,690
72.6117,105.5
72.6164,100.6
72.6533,256.8
72.6562,140.9
72.6684,647.6
72.7029,74.5
72.7175,206.3
72.7209,283.1
72.7307,425.3
72.7357,807.1
72.7532,108.4
72.7995,85.9
72.8035,449.9
72.8234,263.2
72.829,244.6
72.8513,177.4
72.8568,749.4
72.8646,213.1
72.8727,399.4
72.8867,107.1
72.906,705.5
72.9079,552.1
72.9091,609.1
72.911,521.1
72.9376,389.5
72.9416,145.2
72.9683,295.4
72.9758,110.6
72.9785,298.6
72.994,128.5
73.0135,134
73.0562,148.7
73.0662,18.5
73.0761,109.3
73.0865,144.4
73.1119,74.9
73.1126,1054.3
73.1207,397.9
73.1389,145.3
73.173,92.7
73.1772,131
73.2265,184.1
73.2272,651.2
73.2331,176.2
73.2493,154.9
73.2559,298.8
73.258,612.1
73.2629,195.3
73.265,134.9
73.2827,127.3
73.2855,124.8
73.2982,117.4
73.3031,363.7
73.3183,546.2
73.3374,580.5
73.3744,90.9
73.3865,372.4
73.3913,178.3
73.409,353.1
73.4116,703.3
73.4279,138.9
73.4307,901.6
73.4748,218.3
73.4806,157.8
73.5014,758.5
73.5094,89.4
73.5219,72.8
73.5393,353.6
73.5571,95.2
73.5592,219.4
73.5895,884.5
73.6106,440.9
73.6123,335.9
73.6637,167.2
73.6648,477.1
73.6871,101.6
73.6915,417.4
73.7147,192.3
73.7223,17.3
73.7444,638.7
73.795,68.4
73.816,97.2
73.8254,69.9
73.8438,108.3
73.859,295.8
73.8946,726.5
73.9204,351
73.9483,382.8
73.9614,850.3
73.9711,268.5
73.9741,114
73.9811,119.6
74.0336,643.5
74.038,16.3
74.0428,76.9
74.0458,18.5
74.0556,142
74.0599,4843.7
74.0697,113.5
74.0745,93.6
74.0852,374.7
74.0982,389.3
74.1194,36.4
74.1233,16.9
74.1356,112.2
74.1586,93.9
74.1742,111.1
74.1815,628.6
74.1982,649
74.2078,96.7
74.2437,177
74.2589,145.4
74.2707,17
74.2737,285.8
74.2818,217.4
74.2864,87.1
74.3055,18.3
74.316,75.8
74.361,92.6
74.3719,124
74.3781,100.6
74.4191,17.4
74.4591,108.1
74.4627,79.7
74.4752,161.7
74.5042,655.4
74.538,82.6
74.541,181.5
74.5544,408.3
74.5883,868.9
74.6037,664.2
74.6082,101.9
74.6098,328.5
74.6199,17.1
74.6455,108.8
74.6467,261.5
74.6835,679.8
74.6868,888.6
74.6939,618.4
74.7022,132.6
74.711,211
74.7224,324.2
74.7321,321.6
74.7429,213.6
74.7656,744.7
74.7826,156.3
74.7848,393.3
74.7982,102.6
74.8061,107.2
74.8082,188.3
74.8142,403.8
74.8194,1081.9
74.8748,282.4
74.8783,643.8
74.8889,79.2
74.8908,19.4
74.9152,176
74.9481,684.7
74.9535,15.9
74.9608,285.4
74.9931,291.7
75.0118,112.4
75.037,80.3
75.0424,569.8
75.0446,680
75.0526,741.5
75.0628,546.2
75.0674,735.4
75.068,821.6
75.0722,542.3
75.0735,172.6
75.0889,318.5
75.0992,419
75.101,119
75.1101,159
75.1115,765
75.1161,111.5
75.1188,120.6
75.1286,225.2
75.1519,163.8
75.1572,697.1
75.1765,472.4
75.1896,116
75.2045,126.6
75.2155,175.2
75.217,295.9
75.2347,18.2
75.2367,132.9
75.2602,118.7
75.2702,111
75.2875,204.9
75.2938,15.6
75.3035,164.4
75.3211,418
75.3244,182.5
75.3332,134.2
75.3535,400.5
75.3561,415.2
75.3872,115
75.391,178.8
75.3975,160.9
75.4063,396.1
75.4109,83.3
75.4183,16.3
75.42,259
75.4299,354.3
75.4348,205.3
75.4537,97.4
75.4885,15.9
75.4936,485
75.5001,808.3
75.5028,379.6
75.5124,233.1
75.5232,121.4
75.5391,17.6
75.5438,130.8
75.5559,382.6
75.5755,346.8
75.5869,943.1
75.6089,334.7
75.6442,364.2
75.6454,112.1
75.647,18.5
75.6605,601.9
75.6629,87.5
75.6721,281.8
75.6769,123.6
75.7331,634.5
75.7818,95.7
75.7857,236.6
75.8427,196.5
75.8435,99.5
75.8476,765.7
75.8596,260.9
75.8651,120.5
75.8738,17.3
75.8805,579.1
75.9091,144.5
75.9442,704
75.9877,462.8
75.9963,174.8
76.0106,320
76.0323,15.9
76.0335,367.6
76.0396,530.8
76.1089,17.1
76.1131,580.7
76.1313,19.7
76.1342,112.6
76.1451,180.4
76.1453,196.8
76.1805,90.4
76.2014,92.5
76.2107,357.6
76.2681,217.5
76.2707,177.7
76.2839,17.4
76.294,98.6
76.3085,74.5
76.3756,85.5
76.3914,220.3
76.4286,204.7
76.434,79.1
76.4535,113.6
76.4874,382.1
76.4944,122.3
76.496,204.5
76.5071,100.6
76.527,79.9
76.5321,114.8
76.5406,131.7
76.5763,95.6
76.581,144.7
76.5893,116
76.6013,147.2
76.6022,246.7
76.6028,93
76.6063,481.8
76.629,95.5
76.6396,71.9
76.642,188.7
76.6488,127.4
76.6656,172.9
76.6838,80.2
76.6849,16.5
76.7079,519
76.7098,152.1
76.7166,450.7
76.7186,237.4
76.725,411.3
76.728,105.4
76.7396,141.7
76.7615,140
76.7936,102.7
76.8069,100.1
76.8174,192.4
76.8427,320.6
76.8474,130.2
76.8535,102.2
76.8548,254.2
76.8554,97.3
76.8566,128.3
76.9121,101.1
76.9138,189.9
76.9315,206.8
76.9457,327.5
76.9466,233
76.9492,278.8
76.9579,178.4
76.9643,129
76.9733,497.8
77.0268,395.6
77.0337,530.7
77.0352,238.5
77.0359,1103.1
77.0385,135182.4
77.044,479.1
77.0762,114.7
77.119,717.8
77.1242,887.8
77.147,123
77.1546,925.8
77.1771,284.3
77.1998,620.1
77.2024,367.1
77.212,551.9
77.2142,696.3
77.2208,249.9
77.2473,83.5
77.2585,510.5
77.2655,17.2
77.284,796.9
77.3056,17.8
77.3061,637.6
77.3173,122.3
77.3352,108.6
77.3467,445
77.3823,454.4
77.3883,85.8
77.4145,192.7
77.4205,388.7
77.4288,147.6
77.4516,567.6
77.4519,508.6
77.4644,155.3
77.4918,106.5
77.4997,16.1
77.5077,380.9
77.5269,145.6
77.5375,132.2
77.5432,169
77.5714,15.5
77.5725,184.1
77.576,299.4
77.5819,143.6
77.5971,181.2
77.5983,16
77.6279,67.7
77.6322,96.7
77.636,20
77.6662,114.2
77.6986,166.1
77.7444,18.4
77.7623,159.4
77.7706,17.2
77.8116,95.5
77.8679,21.1
77.8772,96.1
77.9249,175.5
77.9322,253.5
77.9339,113.6
77.9647,685.4
77.9707,801.5
77.9794,324.8
77.9917,143
77.9986,171.8
78.0112,285
78.0211,18.3
78.0418,3934.9
78.0438,576.6
78.0457,190.1
78.0567,226.6
78.0597,149.5
78.0661,206.8
78.0692,496.7
78.0715,147.6
78.0843,170.7
78.09,206.3
78.1048,179.1
78.1299,276.9
78.1331,89.8
78.1552,302.4
78.1624,16.5
78.1891,242.1
78.213,107.4
78.2156,19.2
78.2588,146.6
78.2633,96.1
78.2706,179.9
78.2809,313
78.3089,348.2
78.3543,685.6
78.3584,105.1
78.3664,18
78.3757,170.8
78.3772,148
78.3847,17.7
78.3875,251.1
78.423,278.1
78.4645,184.2
78.4701,81.8
78.4753,770.4
78.4877,95.5
78.4954,144.2
78.5523,345.6
78.5682,323.1
78.5719,888.6
78.5932,142.5
78.596,779.5
78.6002,244.6
78.61,114.1
78.6121,351.6
78.6146,274.1
78.6265,127.8
78.6336,79.9
78.6681,98.5
78.6738,467.1
78.6808,135
78.6882,158.2
78.6954,92.9
78.6982,568.9
78.7228,79.7
78.7396,348.8
78.7533,138
78.7594,124.7
78.7649,16
78.7744,305
78.7886,427.7
78.7949,160
78.8269,136.5
78.8412,93.7
78.8484,112.6
78.8509,958.8
78.8616,101.4
78.8912,76.2
78.9103,16.5
78.9441,123.4
78.9459,95.9
78.9969,203.3
79.0425,76.2
79.0451,22.2
79.0541,3399.4
79.0653,625.6
79.0716,90.3
79.0813,109.3
79.1028,18.3
79.1161,141.4
79.1389,96.9
79.1454,18.4
79.165,647.5
79.1711,93.9
79.1937,148.2
79.2005,105.2
79.2031,156
79.2059,98.2
79.2122,174.9
79.2251,105.8
79.2389,188.7
79.277,17.8
79.2878,15.8
79.2932,312.3
79.3132,669.2
79.3332,582.8
79.3538,146.2
79.3557,288.3
79.3675,586.2
79.3683,149.2
79.3775,72.1
79.4054,99.1
79.4256,186.6
79.4275,311.7
79.4399,203.1
79.4431,478.5
79.4926,136.1
79.5024,126.8
79.533,582.7
79.5366,95.8
79.5442,531.3
79.5603,133
79.5648,234.4
79.5691,20.3
79.5716,368.3
79.5844,494.2
79.6004,91.8
79.606,19.8
79.608,323.6
79.6263,402.1
79.6283,154.3
79.631,142.9
79.635,628
79.6359,132.5
79.6628,97.5
79.6693,362.6
79.6724,373.9
79.682,117.8
79.6922,339.5
79.7097,214.1
79.7383,132.1
79.7558,20.2
79.7616,110.8
79.7787,80.2
79.7887,323
79.8021,250.2
79.8279,91.6
79.8588,103.8
79.8628,177.9
79.9059,331.3
79.9172,93.6
79.9262,85.2
79.9541,211
79.9799,496.6
79.9857,274.9
80.0232,101.2
80.0399,100.1
80.0486,287.3
80.0575,27.3
80.0766,371.1
80.0836,604.6
80.1304,400.7
80.169,16.6
80.1764,88.8
80.2495,306
80.2558,85.3
80.3015,183
80.3183,363.9
80.3326,304.6
80.3429,489.8
80.3617,159.4
80.3649,87.3
80.3673,490.9
80.3909,103.3
80.4184,538.3
80.4334,150.2
80.4769,88.3
80.4981,121.3
80.5174,92.1
80.524,121.6
80.5395,143.4
80.5789,453.3
80.5999,96.4
80.6122,90.8
80.6479,536
80.6546,199.3
80.6553,103.6
80.6729,113
80.6738,394.2
80.7046,92.6
80.7066,371.3
80.7256,273.2
80.7264,826.4
80.7304,371.4
80.7432,833.2
80.7478,162.3
80.8163,712.6
80.838,20.9
80.9125,83
80.9355,122.1
80.9397,103.3
80.9462,443.9
80.9477,48890.8
80.9506,103.1
80.9525,173
80.9774,349.4
80.9903,242.5
81.0403,94.1
81.0552,277.1
81.0698,1242.9
81.0723,398.8
81.0881,135.1
81.0947,93.4
81.1185,84.8
81.1222,422.2
81.1299,513.7
81.1429,435.6
81.1482,2152.7
81.1489,970.9
81.1505,179.1
81.1516,1565.5
81.1524,138.3
81.1539,20.8
81.1548,120.4
81.1553,102.3
81.1753,18.1
81.182,114.8
81.1906,134.8
81.2194,138.7
81.2277,191.5
81.2285,119.8
81.2293,257.1
81.2484,16.5
81.284,121.2
81.3084,123.8
81.3151,78.9
81.3319,550.6
81.3659,754.9
81.3839,17.2
81.4076,72.5
81.4413,151.7
81.4535,95.3
81.4543,573.7
81.4706,172.3
81.4831,239.6
81.4879,152.2
81.4907,135.4
81.5215,740.8
81.5217,674.1
81.5342,184.1
81.58,128
81.5846,349.2
81.6102,443.2
81.6253,400.7
81.6571,97
81.6585,68
81.6636,492.4
81.6872,141.5
81.6882,18.9
81.7038,16.1
81.7453,109.6
81.7734,119.4
81.782,267.6
81.7863,240.3
81.7908,226.9
81.8175,108.6
81.825,181.3
81.8683,187.1
81.8836,17.6
81.916,309.1
81.9548,81.3
81.9631,423
81.9656,787.8
81.9798,16.7
81.9977,89.9
82.0029,17.6
82.0252,77.3
82.0374,203.1
82.042,504.2
82.0467,413.2
82.0511,160.2
82.0799,112
82.0997,99.7
82.1114,629.5
82.1217,829.2
82.144,382.2
82.1488,72
82.1691,16.1
82.1738,238.7
82.1818,16.4
82.1993,18.7
82.2077,339.7
82.2591,456.7
82.2745,98.4
82.3018,386.5
82.3093,757.3
82.3359,629.1
82.3507,546.6
82.365,310.2
82.379,312
82.446,133.1
82.4944,124.6
82.4994,16.7
82.5215,162
82.5357,94.2
82.539,244.5
82.5428,18.5
82.5733,15.6
82.5754,130.4
82.5786,23.8
82.589,90.6
82.5917,175.8
82.593,113.7
82.6238,104
82.6251,213.9
82.6446,339.5
82.6497,133
82.6504,138.7
82.671,303.3
82.6876,472.7
82.6984,648.9
82.7055,93.4
82.7137,78.1
82.7441,415.4
82.7468,169.1
82.7525,125.1
82.7956,539.7
82.8105,460.4
82.8392,203
82.8424,105.8
82.8594,17.3
82.8608,118.1
82.871,1013.5
82.8954,359.2
82.8971,113.4
82.9118,128.9
82.9293,427.5
82.9338,544.1
82.9349,74
82.9448,11655.6
82.9495,823.3
82.9579,431.9
82.9924,715.5
83.022,304.2
83.0572,841.3
83.0749,222.2
83.0855,24.7
83.0899,161.2
83.1111,110.3
83.1264,300.3
83.1427,21.5
83.1596,104.9
83.1832,19.3
83.2113,105.1
83.2199,428.8
83.2339,324.1
83.2376,206.4
83.2384,357.2
83.2466,18.2
83.2533,20.4
83.2998,451.9
83.3074,111.7
83.3243,97.7
83.4118,104.3
83.459,364.5
83.4877,545.5
83.5004,216.8
83.503,141.9
83.5053,104.7
83.5119,115.7
83.5191,156.1
83.5282,138.1
83.5314,83.9
83.5486,704.9
83.577,109.1
83.5975,92.4
83.6028,69.8
83.6137,715.7
83.6423,103.4
83.6529,102.2
83.6694,17.9
83.6792,771.1
83.6969,127.4
83.7428,163.4
83.7537,100.5
83.7544,240.2
83.7849,149.2
83.7971,648
83.8055,347.9
83.8062,346.5
83.8109,281.5
83.862,611.9
83.8859,102.2
83.8973,749.3
83.8991,443.7
83.9001,159.8
83.9018,396.3
83.9339,18.2
83.9709,155.1
83.9766,95.1
83.9916,271.7
84.0424,614
84.0443,544.1
84.0719,110.8
84.0762,18.8
84.0808,832.5
84.1944,613
84.2059,15.8
84.2361,21.4
84.2604,22.6
84.3207,148.1
84.3215,290.7
84.3239,173.8
84.3318,16.1
84.3353,149.9
84.3427,18
84.3536,171.7
84.3801,121.7
84.4051,196.4
84.412,368.7
84.4293,126.9
84.444,107.1
84.4561,414.3
84.4813,923.8
84.5344,88.4
84.5404,145.8
84.5781,327.5
84.6129,470.1
84.6251,434.1
84.6482,362.8
84.6874,361.4
84.6916,82.3
84.6977,113.4
84.7053,728.6
84.7114,281.3
84.7498,94
84.7606,76.7
84.7617,141.6
84.7631,142.3
84.7666,494.4
84.775,574.1
84.8123,104
84.834,18.3
84.8452,398.7
84.8485,22.9
84.8708,120.6
84.912,109.4
84.9206,76.5
84.9302,753.3
84.9343,530.5
84.9476,94.6
84.9545,21.6
84.9596,23800.9
85.0098,371.6
85.0139,85
85.0284,3025.1
85.0422,132.4
85.0438,165.3
85.1202,298.1
85.1224,73.7
85.1342,99.1
85.1815,671.1
85.1912,19.3
85.194,217.3
85.2123,93.9
85.2187,102.4
85.2374,606.2
85.2445,896.2
85.256,182.1
85.2709,93.2
85.2835,96.3
85.3266,593.2
85.3599,262
85.3765,134.1
85.3921,18.9
85.4454,546.8
85.4799,86
85.4814,121.8
85.4831,75.3
85.4983,359.3
85.4998,20.4
85.5679,17.9
85.5719,20.4
85.5732,304.5
85.635,265.9
85.6362,142.3
85.6404,419
85.6485,394.6
85.6565,360.6
85.6585,396.4
85.663,797.9
85.7417,407.3
85.7675,365.8
85.7697,72.7
85.7731,97.6
85.8082,17.2
85.8143,256.2
85.8411,23.9
85.8578,169.6
85.8694,658.8
85.8999,335.1
85.9041,350.6
85.907,662.2
85.9215,682.1
85.9288,125.4
85.9387,17.3
85.9491,19.1
85.9927,295.5
86.0076,116
86.023,103.8
86.0237,79.9
86.0481,117
86.0534,113.6
86.0551,16.5
86.06,46864.8
86.0692,139.1
86.0964,128228.2
86.1067,101.5
86.1143,162.4
86.1355,71.1
86.1404,18.4
86.1437,86.2
86.1469,307
86.1508,205.2
86.1666,17.3
86.1678,101.8
86.1777,135.7
86.2032,126.7
86.2041,126.6
86.2067,18.2
86.2103,127
86.2956,161.1
86.3334,112.7
86.3345,182.4
86.3451,586.1
86.3745,284.4
86.4168,271.1
86.4642,145.6
86.4801,15.5
86.5058,134.6
86.5313,691
86.5471,116.7
86.5751,121.7
86.5762,584.6
86.5804,107.3
86.581,17.5
86.6133,397
86.6394,70.1
86.6567,224.6
86.6964,160.8
86.7325,221.8
86.7375,545.5
86.7472,847.9
86.7568,94.5
86.7814,265.3
86.8513,99.5
86.8808,436.6
86.8974,123
86.9201,127.9
86.958,97.6
86.969,411
86.9856,407.3
86.9926,18.4
87.074,119.4
87.0771,577.1
87.0854,185.7
87.0997,1030.7
87.102,145.7
87.1032,374.5
87.1363,113
87.1416,167.9
87.1451,548.8
87.1476,300.4
87.1921,105.9
87.2081,484.2
87.2098,293.9
87.2232,699.5
87.2253,165.3
87.2424,208.3
87.271,85.6
87.2935,100.3
87.3031,393.6
87.3426,679.5
87.3617,110.7
87.3743,132.3
87.3849,610.8
87.3911,90.9
87.4278,370.3
87.4372,20.5
87.4557,96.8
87.4597,18.9
87.4729,19.9
87.4907,211.5
87.4996,178
87.5179,89.2
87.5367,339.8
87.5753,101.1
87.6153,369.5
87.6294,120.4
87.653,308.6
87.6589,895
87.6643,196.5
87.6938,644.8
87.7018,574.4
87.7401,510.1
87.744,19
87.7463,157.6
87.7726,571.3
87.7785,401.4
87.7825,80.3
87.7857,20.6
87.7976,365.7
87.8004,298.7
87.8047,75.1
87.8171,210.8
87.8266,309.2
87.8359,108.5
87.8512,162.3
87.9077,79.8
87.931,193.5
87.9421,346.2
87.9553,283.4
87.9664,348.1
88.0393,11468.8
88.043,121.8
88.048,75.4
88.0573,697.6
88.073,680
88.0839,341.1
88.0938,312.3
88.1153,16.3
88.1256,107.5
88.1355,397.6
88.1825,173
88.1968,261.4
88.198,553.3
88.211,252
88.2271,160.5
88.2335,392
88.238,233.3
88.2445,134.5
88.2518,111.1
88.2548,86.3
88.3261,209.9
88.4017,428.8
88.4136,482
88.4464,87.3
88.4616,104.1
88.4758,709.9
88.4866,183.8
88.4947,131.5
88.5258,302.2
88.5293,219.6
88.5543,92.4
88.5881,124.5
88.639,351.9
88.6437,86.4
88.651,219.1
88.661,96.1
88.6795,418.5
88.7021,408.5
88.7232,904
88.744,460
88.7819,105.4
88.8237,428.8
88.8476,114.8
88.8501,116.5
88.8524,89.7
88.8811,101.2
88.8975,115.5
88.9272,169.7
88.9421,347.7
88.9435,18
88.9502,175.7
88.9671,655.1
88.9939,151.8
89.0606,312.5
89.0712,179.8
89.0815,101.6
89.1011,363.9
89.1112,748.1
89.1386,76.1
89.1561,832.7
89.1564,845.8
89.1784,571.2
89.1907,664.6
89.1942,106.7
89.2227,219.5
89.2751,18.5
89.2787,19.6
89.3597,1139.9
89.368,98.7
89.3817,99
89.4217,210.8
89.4659,723.1
89.5228,117.5
89.5242,185
89.543,77.8
89.5728,121.4
89.597,17.7
89.5982,699.3
89.602,352.7
89.6047,307.5
89.6335,444.4
89.636,125.2
89.6799,95.5
89.6861,418.5
89.6967,949.3
89.7217,1166.1
89.7807,97.2
89.8273,88.6
89.8287,109.2
89.8332,420.1
89.8726,292
89.8734,77.6
89.8807,367
89.8824,91.1
89.9346,99.7
89.9363,683
89.9748,356.4
90.0497,644.5
90.0516,418.6
90.0914,128.6
90.1159,111.8
90.1342,581.8
90.1703,287
90.2007,90.4
90.24,405.7
90.268,105.4
90.2933,480.5
90.3124,110.3
90.3246,141.4
90.3395,320.3
90.4011,174.7
90.4013,176
90.4068,18.3
90.4111,178.6
90.4262,659.1
90.4375,727.9
90.4582,425.2
90.4634,200.7
90.4894,97
90.4979,17.5
90.5186,100.6
90.5348,20.4
90.5492,587.6
90.6151,418.6
90.6343,874
90.6484,100.4
90.651,122.4
90.6602,266.3
90.677,727.9
90.6954,413.9
90.6994,244.6
90.7447,146.8
90.7655,97.2
90.7687,477.6
90.7898,85.8
90.8181,106.5
90.8569,207
90.8753,370.7
90.8887,362.5
90.8927,182.3
90.9476,60.4
90.9766,7681.4
90.9849,109
90.9852,107.7
91.0381,387.8
91.0542,2228.7
91.0704,242.5
91.0973,94.6
91.1036,104.3
91.1166,290.2
91.1259,127.7
91.1448,541.6
91.1524,22.3
91.1538,245.8
91.1602,19
91.168,408.1
91.2059,193
91.2297,86.4
91.2306,18
91.2478,716.4
91.2756,97.7
91.28,89.4
91.3051,142.3
91.3278,79.8
91.3305,200
91.3439,76.1
91.3843,124.9
91.3898,264.4
91.3936,108.7
91.406,251.7
91.419,87.4
91.4353,285.9
91.4368,109.6
91.4732,194.5
91.4971,136.9
91.5161,485.5
91.5257,609.4
91.5313,133.8
91.5565,101.2
91.5613,248.9
91.566,578.6
91.5697,127.3
91.5887,92
91.6472,113.8
91.6499,633
91.651,147.3
91.6749,96.5
91.6852,100.8
91.6921,148.3
91.7102,501.4
91.754,192.6
91.7926,700.9
91.81,874.4
91.8113,325.9
91.8137,231.6
91.8156,167.6
91.8387,1052.9
91.8797,227.1
91.8838,385.7
91.8877,576.9
91.8957,115
91.93,806.6
91.9515,239.6
91.9679,753.5
92.0184,134.4
92.0204,822
92.0406,93.5
92.0495,66.5
92.0677,18.4
92.071,120.3
92.0804,292.5
92.0819,367.9
92.123,78.1
92.1426,648.4
92.1528,104.2
92.2075,19.6
92.2387,19.4
92.2551,134.1
92.2558,135.6
92.2681,326.3
92.299,19.3
92.3291,121.2
92.3555,455.8
92.401,154.7
92.415,666
92.4204,273.4
92.4384,865.7
92.463,112.6
92.5047,238.7
92.5226,96.1
92.5428,564.5
92.5642,166.8
92.5997,18.4
92.6473,17.5
92.6489,95.2
92.6556,126.8
92.7103,18.5
92.7254,446.8
92.7391,96.6
92.7834,597.7
92.838,94.2
92.8767,551.9
92.8857,163.9
92.8904,419.4
92.896,220.7
92.907,245.3
92.9079,118.3
92.9213,314.2
92.9585,527.5
92.9614,779
92.9736,18.1
92.9882,125.1
92.9963,18.3
93.0017,986.4
93.0127,739.3
93.0337,422.7
93.0351,173.9
93.0478,428.4
93.0535,20.6
93.07,25.8
93.098,553.7
93.1041,19.1
93.1155,346.8
93.1226,17.3
93.1741,361
93.2164,134
93.2368,104.5
93.2691,90
93.275,107.3
93.2831,616.5
93.2881,170.8
93.315,93
93.3628,360.1
93.3709,324.4
93.4016,16.7
93.4324,422.8
93.4618,607.9
93.4875,822.5
93.5042,672.9
93.5866,310.6
93.6398,148.8
93.7088,380.5
93.7274,584.1
93.7438,18.1
93.7677,110.2
93.7685,120.4
93.7724,353.4
93.7952,177.3
93.8003,107.9
93.8351,337.4
93.8548,680.6
93.8665,300.7
93.8722,93
93.9005,597.4
93.9043,161.1
93.9452,313.9
93.9588,147.3
94.0201,726.8
94.0309,186.5
94.0389,24.4
94.0413,70955.7
94.0606,92.5
94.0673,75.2
94.0885,252.7
94.0953,268.1
94.1014,345.8
94.1039,306.4
94.1231,411.5
94.1268,19.8
94.1322,96.9
94.1351,548.2
94.1899,94.6
94.1976,115.4
94.2007,360.3
94.2113,469.3
94.2153,266.4
94.2617,320.6
94.3108,121.9
94.3712,81.1
94.3835,106.5
94.3897,123.7
94.4424,119.8
94.4495,820.1
94.4537,427.1
94.4918,308.2
94.5156,439.4
94.556,133.1
94.5704,127.3
94.6166,644.8
94.623,727.8
94.6505,133.7
94.6752,114.3
94.6849,135.4
94.6933,957.1
94.6945,113.6
94.7083,197.1
94.7359,114.9
94.7404,140.8
94.7704,309.2
94.7845,392.1
94.8286,157.6
94.8401,18.1
94.8515,17.4
94.8668,69.5
94.8673,66.2
94.8745,101.9
94.916,424.8
94.9463,411.8
94.9858,533.1
95.0087,33.6
95.0149,95.1
95.0163,83.9
95.023,184.1
95.0356,115.8
95.0448,1488.3
95.0468,52.1
95.0492,471669.3
95.0507,161.8
95.0527,276.9
95.0626,31.5
95.0736,196.6
95.078,107
95.0855,815.8
95.0971,91
95.1087,275.4
95.133,196.6
95.1338,519.8
95.1585,320.7
95.1921,241.6
95.2031,426.7
95.2049,440.6
95.2311,669.2
95.2366,411.3
95.243,127.9
95.2494,481.6
95.2519,213
95.2657,351.1
95.2833,439.2
95.2914,112.3
95.2991,490.8
95.3015,169.2
95.329,23.4
95.3381,115.3
95.355,325.9
95.4103,345.3
95.4418,151.5
95.4533,17.2
95.4598,398.9
95.4629,410.6
95.4671,640.9
95.4725,723.4
95.4761,123.3
95.5222,247.6
95.5297,17.5
95.5349,388.2
95.5495,141.6
95.5693,115.3
95.5846,711.8
95.5974,908.9
95.6024,933.2
95.6072,756.8
95.6427,162.4
95.6498,87.5
95.7588,125.1
95.7991,94.5
95.8053,547.2
95.8244,141.3
95.8284,145.8
95.8518,1022.4
95.8945,479.9
95.8968,16.7
95.9236,95.5
95.9453,442
95.9605,345.8
95.9869,333.8
95.9901,680.1
96.0044,359.3
96.0107,125.5
96.016,213.8
96.0262,134.7
96.0456,87.3
96.0525,22714
96.057,549.2
96.0952,183.2
96.1023,18.3
96.1068,877.3
96.1355,165.2
96.1686,607.3
96.1779,119.3
96.2117,323.9
96.2147,17.1
96.2287,565.9
96.2329,413.5
96.235,399.5
96.2446,16.7
96.2598,99.4
96.3227,665.3
96.3259,160.3
96.3456,100.2
96.3474,18.8
96.3717,18
96.3726,344.3
96.3825,367.5
96.3851,110.3
96.3904,236
96.406,380.4
96.4259,126.9
96.4288,383.7
96.542,234.2
96.5465,470.2
96.5986,465.5
96.6164,88.9
96.6388,245.6
96.6443,715.2
96.6529,190.4
96.6583,75.5
96.6845,79.1
96.7197,95.8
96.7356,811.8
96.7582,108.3
96.76,19.1
96.7645,104
96.7778,94.8
96.7963,161.7
96.8493,266.4
96.8535,1059.6
96.9218,136138.5
96.9257,190.6
96.9516,166.3
96.9549,195.5
96.9749,194.7
97.0025,85.8
97.0075,188.8
97.0106,25.8
97.0177,19.9
97.0534,96.8
97.0666,18.2
97.0779,107.8
97.0903,194.8
97.1011,17.6
97.1167,711.3
97.1443,124.4
97.1638,111.6
97.1723,112.9
97.1742,120.5
97.1799,400.1
97.1996,16.7
97.2505,91.9
97.2955,414.2
97.3048,219.4
97.3519,162.5
97.3727,87
97.3862,402.9
97.3943,118.2
97.4119,159.7
97.4157,692.2
97.4184,22.5
97.4678,101.4
97.5008,342.9
97.513,368.1
97.5184,416.1
97.5292,95.3
97.5687,814
97.592,757.5
97.619,673.2
97.6307,20.4
97.641,302.3
97.6461,334.5
97.7258,289.2
97.73,200.2
97.7628,178.9
97.7883,193.8
97.7913,378.2
97.8529,284.1
97.887,483.8
97.8962,112.4
97.9197,128.4
97.959,245.5
97.9816,311.9
97.9824,385.1
98.0282,108.1
98.0653,16.9
98.1241,311.3
98.1333,131.4
98.1495,201.7
98.1679,406.5
98.1891,127.9
98.2007,119.2
98.203,409.1
98.2119,18.3
98.2128,101.1
98.2141,96.5
98.2161,149.8
98.2327,130.2
98.2402,167.7
98.2481,113.2
98.2884,177.3
98.2948,19
98.3543,108.2
98.3691,437.3
98.3874,219.3
98.4255,72.7
98.4464,462.7
98.4656,149.5
98.5044,217.9
98.5247,286.9
98.5925,360
98.5935,180.2
98.6438,98.5
98.661,20.7
98.6715,533.6
98.6733,87.2
98.684,265
98.6868,350.2
98.6962,20.4
98.7223,115
98.7423,139.4
98.7441,463
98.7746,136.4
98.8589,80.5
98.8686,116.6
98.9189,41101.2
98.9199,6783.3
98.9374,282.8
98.9505,371.8
98.9754,15048.4
98.9842,84.6
98.9967,447.6
99.0411,404
99.0643,93.6
99.0947,345.7
99.1462,557.9
99.2163,445.4
99.2583,800.8
99.2595,168.9
99.2632,556
99.2736,460.5
99.3161,239.4
99.3337,198.4
99.3394,122.7
99.3959,154.5
99.4015,1136.6
99.4265,84.2
99.4298,406.4
99.4326,258.9
99.4338,490.6
99.4733,86.7
99.4789,330.2
99.4959,509.7
99.5229,183.9
99.559,18.9
99.5627,997.1
99.5961,583.8
99.7012,112.1
99.7613,486.9
99.7692,739.5
99.8212,76.2
99.8467,16.8
99.8566,99.7
99.863,126.4
99.8804,295.6
99.9157,113.4
99.9834,626.9
100.0335,17.2
100.0488,182.1
100.055,207
100.065,16.8
100.0758,45
100.0865,321.5
100.1044,168.6
100.1335,192.9
100.1856,310.1
100.2435,110.5
100.283,86.7
100.2885,93.7
100.3307,117.9
100.3442,274.9
100.352,390.5
100.3617,164.2
100.3966,388.2
100.4547,445.2
100.4592,90.2
100.5069,132.9
100.5322,106
100.538,190
100.592,157.4
100.6529,113
100.6863,149
100.6891,300.2
100.7009,91.8
100.7011,92
100.709,548.4
100.74,337.9
100.747,418.6
100.7852,79.7
100.7887,113
100.8418,615.7
100.8539,179.2
100.8672,317.6
100.9128,142.2
100.9171,489.5
100.9207,901.1
100.9536,339
100.967,203.3
100.9685,271.2
101.0115,19.5
101.0224,399.4
101.0373,809.2
101.0472,3805.4
101.0709,574.8
101.1066,156.9
101.1204,102.1
101.1438,19
101.1926,118.5
101.2378,489.7
101.3474,405.8
101.3509,19.1
101.3797,324
101.3986,440.2
101.4082,187.3
101.4309,148.2
101.4749,104.7
101.5187,212.2
101.5502,366.8
101.5964,19.1
101.6101,269.3
101.6256,209.6
101.6339,180.7
101.6392,97.3
101.649,83.1
101.6728,73.2
101.6895,106.3
101.7217,413.1
101.7293,105.6
101.7466,98.9
101.7541,350.7
101.7715,394.2
101.81,141.1
101.823,87.3
101.946,137.3
101.9717,91.5
101.9844,950.9
101.9954,362.5
102.0533,131.3
102.055,4891.7
102.0721,17.5
102.0924,17.4
102.1192,427.9
102.1606,163.1
102.1843,668.6
102.2484,232.6
102.2818,16.8
102.2835,16.7
102.287,611.5
102.3101,255.7
102.3175,77.5
102.3197,100.5
102.3222,16.3
102.3238,75.1
102.3377,100.4
102.3611,261.8
102.4163,18.5
102.4303,534.2
102.4338,228.7
102.4745,213.7
102.5081,190.9
102.5153,165.6
102.5547,110
102.5819,236.4
102.5913,653.5
102.6035,601.2
102.6121,16.6
102.6318,367.5
102.6669,316.5
102.6792,145.6
102.6884,110
102.6934,292.3
102.7106,126.6
102.7339,96.2
102.7417,162
102.7437,528.7
102.796,111.5
102.8155,87.3
102.8373,525.8
102.8416,72.8
102.851,19.4
102.8588,294.3
102.8712,96.6
102.8824,411.1
102.9014,90.9
102.9421,17.4
102.9522,19.8
102.9703,554
103.0219,596.6
103.0242,18.7
103.0664,107.4
103.1034,17.7
103.1218,98.8
103.134,783.8
103.1468,726.9
103.1756,139.1
103.1999,631.5
103.2078,240.1
103.2175,804.7
103.2422,138.7
103.2535,187.9
103.2735,19.3
103.3096,383
103.3334,120.4
103.3377,318.7
103.3719,17.1
103.3763,427
103.3868,115.8
103.4213,105
103.4262,106.2
103.4673,93.1
103.4724,18.3
103.4935,390
103.5813,327.5
103.6003,17.4
103.6013,141.2
103.624,405.7
103.6517,94.3
103.6609,85.8
103.6929,590.8
103.6973,140.6
103.7102,147.6
103.7783,82.5
103.8159,464.9
103.8171,100.7
103.8396,871.8
103.869,96.2
103.8766,90.9
103.8812,17.8
103.897,144.7
103.9316,143.5
103.9599,88
103.9678,449.3
103.9689,69.7
103.9843,99.6
103.9997,180.5
104.0159,16.8
104.0718,560
104.0822,189.6
104.107,594870.3
104.1686,156.9
104.2167,21.7
104.2175,27.1
104.2399,843.7
104.2524,102.1
104.2563,332.3
104.2892,105.1
104.2942,547.5
104.2977,655.9
104.3043,472.8
104.3154,122.9
104.3434,121
104.3816,182.7
104.3984,676.1
104.4008,106.3
104.4078,415.5
104.4764,99
104.4897,740.6
104.5248,98.3
104.527,184
104.5309,186.1
104.5372,801.9
104.5421,214.6
104.5566,729.4
104.5917,661.7
104.5935,268
104.5956,305.5
104.6091,100.4
104.6205,141.1
104.659,154.2
104.6833,243.2
104.6924,69
104.7724,351.6
104.8627,82.3
104.8638,117.4
104.9044,366
104.9079,23.1
104.9258,119.8
104.9634,215.1
104.9718,657.1
104.9855,19.3
104.9924,3587.2
104.9959,170.1
105.0034,43.3
105.0448,43280.5
105.0462,17.8
105.0468,20.2
105.0636,15.8
105.1104,20921.3
105.135,69.9
105.1874,817
105.194,487.1
105.2137,175.3
105.2391,114.6
105.2884,22.5
105.3689,100.9
105.3942,267
105.3995,336.4
105.4538,721.1
105.4555,128.2
105.4995,328.6
105.5026,644.9
105.5469,86
105.5564,682.5
105.6098,181
105.616,811.3
105.647,15.8
105.6564,83.8
105.659,17.1
105.6861,732.7
105.689,123.2
105.7038,210.5
105.7083,134.5
105.7271,102.2
105.7299,311.9
105.7461,606.3
105.7521,706.5
105.7597,107.6
105.762,787.5
105.8092,108.3
105.8388,118.6
105.8946,89.2
105.8961,352
105.9553,605.2
105.9621,362.2
105.9683,136
105.9939,477.2
106.0303,265.3
106.0414,104.8
106.0482,434.9
106.0642,119.6
106.0776,420.7
106.1073,164.8
106.1144,288.9
106.1209,18.1
106.1236,103.4
106.1509,71.6
106.1736,276.1
106.249,119.6
106.2859,95.5
106.3313,161.9
106.3317,162.3
106.3595,98.4
106.4157,497.2
106.4916,16.7
106.5045,81.2
106.5435,18.9
106.618,962.4
106.6732,307.8
106.6809,174.6
106.7126,328.6
106.7244,733.7
106.7273,135.4
106.7309,19.2
106.7744,130.1
106.7785,19
106.7868,92
106.828,810.3
106.8722,18
106.9055,410.2
106.9506,2202
106.9716,198.9
106.9771,302.6
107.0118,101.1
107.0217,196.8
107.0284,124.6
107.0492,650.8
107.0702,200.5
107.1609,21.3
107.1705,96.1
107.1726,251.6
107.2073,604.9
107.2195,118.6
107.225,135.5
107.2331,114.2
107.2494,17.3
107.2858,148.5
107.2946,216.1
107.3574,145.5
107.4092,538.8
107.4458,215
107.4533,124.3
107.4776,158.4
107.4973,18.3
107.5068,203.6
107.6083,146.1
107.6507,278.5
107.6723,721.4
107.6919,551.4
107.7003,139.6
107.705,221.5
107.7431,144.7
107.7645,639.2
107.7687,93.2
107.8669,781.8
107.8842,213.8
107.9077,71.8
107.9221,77.6
107.9518,718.5
107.9535,98.7
107.966,669.5
107.9691,114
107.9735,538.8
107.9793,263.5
107.9823,18
108.0168,412.1
108.0218,280.7
108.0388,178
108.0489,132.1
108.0573,16.6
108.0791,253.5
108.0806,17.1
108.1061,554.5
108.1096,142.8
108.2016,102
108.234,18.2
108.2421,313.7
108.2576,81.3
108.3314,383.9
108.3634,141.3
108.3708,105.4
108.4407,105.5
108.4825,907
108.5244,133.8
108.5309,109.1
108.538,120
108.5862,279.2
108.6134,192.7
108.6149,126.4
108.6163,157
108.6382,109.2
108.6508,586.5
108.6952,89.5
108.8319,115.2
108.8721,118.6
108.8881,84.6
108.8984,452
108.9014,774.2
108.9028,17.2
108.939,761.2
109.0038,25.1
109.0649,72902.1
109.0786,338.9
109.0823,595.9
109.0958,74.5
109.1012,131
109.1051,168.9
109.1204,105.4
109.1459,645.6
109.1633,163.4
109.2049,18.5
109.215,69.3
109.2321,408.2
109.2421,20.4
109.2438,313.3
109.2739,75.8
109.2781,168.2
109.307,111.2
109.329,169.2
109.338,96.9
109.3812,708.1
109.4172,811.6
109.4301,451.9
109.4579,137.6
109.4895,348.8
109.4909,822.9
109.5844,497.3
109.5933,134.3
109.5969,215.1
109.6305,406.7
109.6448,420.2
109.6883,102.8
109.7105,206.1
109.7313,88.9
109.7361,114.2
109.7445,904.3
109.7472,693.4
109.7549,268.4
109.7699,96.5
109.786,606.6
109.808,682.3
109.8122,102.3
109.8558,196.3
109.8894,429
109.8976,813.6
109.9692,138.7
110.004,268.2
110.0682,2747
110.1244,142.6
110.1291,76.4
110.149,116
110.1908,330.8
110.2202,307
110.225,19.1
110.2464,19
110.3035,188.8
110.316,750.8
110.3173,19.2
110.3254,124.6
110.3446,109
110.4145,99.2
110.4184,84.2
110.4455,628.9
110.5035,19
110.517,104
110.7225,128.5
110.7679,132.3
110.7781,683.4
110.7929,110.5
110.8032,368.7
110.8914,88
110.8986,825.9
110.9062,349.1
110.9624,83.4
110.9879,20.3
111.0019,182.5
111.0071,690
111.0233,358.8
111.0442,299.5
111.0717,21.9
111.0805,91.9
111.1558,131.2
111.1738,111.9
111.2155,288.4
111.2184,20.5
111.2502,118.9
111.2676,329.3
111.3019,418.7
111.3276,368.1
111.3527,121.6
111.4188,101.4
111.4564,109.9
111.4727,198.6
111.4853,108.2
111.5245,95.7
111.573,107.2
111.6229,171
111.6286,182
111.6334,530.4
111.6507,126.3
111.6571,732.7
111.6813,847.1
111.6891,19
111.712,132.5
111.7165,91.5
111.8641,163.3
111.8767,537.3
111.9069,176.2
111.9186,460.9
111.9249,210.2
111.9697,71.9
111.975,652.3
111.9904,313.5
111.9987,352.9
112.0023,139.3
112.0117,410.3
112.0534,744.5
112.0619,162.9
112.1184,126.5
112.1421,80.1
112.2056,126.2
112.2366,17.7
112.2971,18.8
112.3024,114.3
112.3277,122.7
112.34,182.8
112.3638,599
112.4187,17.2
112.4508,19
112.4562,160.3
112.4764,143.7
112.522,144.9
112.5397,184.3
112.5489,212.8
112.5672,90.2
112.5881,319.7
112.5993,112.2
112.6539,454.1
112.657,23.5
112.6676,92.9
112.6698,265.5
112.7011,247.9
112.7116,107.8
112.7259,17.6
112.7317,178.4
112.7383,152.1
112.7846,530.2
112.797,120.3
112.8155,20.6
112.8181,575.8
112.824,129.5
112.8306,553.1
112.8358,299.1
112.8411,21.1
112.8656,196.3
112.8901,415.3
112.8958,386934.3
112.9787,621
112.9821,297.4
113.0098,121.6
113.0293,589.8
113.032,294.5
113.089,125.9
113.1574,641.9
113.1652,104.8
113.1991,221.5
113.2197,607.5
113.2622,675.4
113.2995,94.4
113.3046,190
113.3107,264.3
113.337,21.5
113.3488,149.2
113.3658,132.7
113.4394,184.6
113.4988,235.9
113.5048,175.4
113.5119,164.5
113.5857,116.8
113.6433,852.6
113.6504,505
113.657,151.1
113.6668,20.7
113.6682,208
113.696,640.5
113.7316,734.5
113.7458,100.4
113.7669,117.3
113.8098,120.9
113.8379,206.9
113.8554,264.2
113.8639,96.3
113.8779,557.3
113.8999,211.5
113.953,212.6
113.9612,112
113.9793,207.2
113.9883,17.3
113.9985,271.4
114.0203,106.3
114.0362,128
114.0551,66472.6
114.0663,707.3
114.0682,138.4
114.083,23.3
114.0853,334.5
114.1845,431.8
114.2961,200
114.3735,96.9
114.402,387.5
114.4038,445.1
114.4727,392.6
114.5106,877.6
114.5164,153.4
114.5788,97.7
114.6196,557.3
114.6572,94.3
114.661,112.5
114.7587,122.4
114.7686,695.7
114.7967,315.2
114.8278,19.5
114.8329,159.3
114.8508,675.4
114.8788,320.8
114.8929,116014.8
114.9503,255.8
114.9566,225.9
114.9771,444.3
115.0134,612.4
115.0251,88.2
115.0503,77.1
115.0585,2498.4
115.076,141.1
115.1076,84.3
115.1226,19.3
115.1647,378.4
115.1806,17.9
115.2133,89.3
115.2187,131.8
115.2416,103.6
115.2687,197.5
115.3142,716.8
115.4137,203.5
115.4188,768.9
115.4206,159.6
115.5034,225.7
115.5053,506.4
115.5064,18.8
115.5184,573
115.6409,80.5
115.6431,88.9
115.6564,96.9
115.6648,18.2
115.6763,18
115.8147,150.6
115.8466,21.2
115.8756,191.9
115.9263,188.6
115.9295,18
115.9349,564.4
115.9442,146.3
115.9796,22.4
115.9961,149.3
116.0327,764.8
116.0707,4042.6
116.0768,159.5
116.0923,290.8
116.112,131.7
116.1158,18.1
116.1806,289.4
116.1843,417.5
116.2147,153
116.2569,410.3
116.2847,88.3
116.2925,206.8
116.3049,19.1
116.3159,232.9
116.3242,334
116.3503,335.4
116.3587,16.7
116.3815,137.1
116.3917,822.7
116.4002,1139.1
116.427,677.9
116.4706,123.7
116.4875,173.7
116.5432,147.9
116.5946,455
116.604,18.8
116.6054,391.4
116.6967,195.3
116.7438,20.8
116.7653,17.5
116.7672,132.4
116.8122,108.3
116.8254,90.3
116.8532,261.4
116.8757,641.7
116.891,14601.7
116.9528,95.1
116.9712,17.9
116.9781,575.2
116.986,970.6
117.0025,645
117.0047,534.1
117.0694,657.3
117.0867,109.5
117.1204,410.4
117.1446,291.3
117.147,129.3
117.1662,493.1
117.1743,130.8
117.1775,96.2
117.1904,116
117.2053,719.1
117.25,116.9
117.2716,142.9
117.2766,275
117.2797,140.4
117.2861,595.4
117.3047,85
117.3795,597.6
117.3817,92.1
117.388,23.8
117.3943,382.2
117.4619,141.9
117.4932,111.3
117.5125,75.1
117.562,187.8
117.5966,463
117.6735,89.2
117.7449,120.5
117.757,702.4
117.8282,140.5
117.8349,120.8
117.8789,73.2
117.9165,447.1
117.9186,90.3
117.923,394.7
117.9694,185.4
118.0253,144.8
118.0851,132.6
118.0905,17
118.0925,125.5
118.1023,746.8
118.1059,247.3
118.1079,442.6
118.1371,267.3
118.1524,17.1
118.1559,123.9
118.1592,132
118.1755,205.7
118.1793,20.4
118.1895,98.9
118.2101,101.1
118.3061,292.2
118.3158,191.8
118.3356,535.1
118.3784,22.1
118.3927,108.9
118.3945,716.6
118.4163,16.8
118.4521,19.6
118.4699,119.5
118.4727,19.4
118.4754,214.9
118.4922,379
118.5102,278.4
118.5354,155.9
118.5392,817.5
118.555,20
118.558,89.2
118.5687,92.5
118.5999,16.8
118.6166,160.5
118.6508,347.7
118.6531,613.5
118.6779,512.2
118.6843,141.6
118.736,80.1
118.785,215.5
118.7931,18.9
118.8106,690.9
118.8347,152.9
118.8371,858.8
118.8547,204.9
118.8935,78
118.8949,721.7
118.9153,543.2
118.9171,846.5
118.9523,464.9
118.9791,24.2
119.0013,24.3
119.0032,233.8
119.0402,190.2
119.0471,116.9
119.0658,22.4
119.0857,161.7
119.0884,842.9
119.0905,151.7
119.1131,96
119.1668,432.6
119.1749,105.8
119.194,447.7
119.2005,21.6
119.2428,19
119.2456,294.1
119.2509,91.9
119.2615,101.6
119.2866,120.1
119.2884,92.3
119.3714,608.6
119.4007,103.4
119.4387,16.2
119.4742,793
119.4759,196.7
119.5319,555.2
119.5749,175.8
119.6086,504.3
119.68,109.5
119.7097,80.2
119.7122,860.5
119.7377,475.9
119.7395,621.2
119.7722,388.5
119.8047,351.7
119.8147,124.8
119.8219,423.2
119.8402,132.5
119.8487,158
119.8699,366.1
119.8769,391.4
119.8954,364.7
120.0019,107.4
120.0034,4049.5
120.0069,143.9
120.0279,88.8
120.0506,397.5
120.0655,457.8
120.0809,12626
120.1288,1060
120.1389,125.3
120.1919,19.7
120.2178,95.2
120.2463,97.8
120.2565,227.2
120.2633,183.7
120.3001,258.3
120.3177,139.7
120.3465,422.9
120.3699,151.2
120.3731,18.5
120.4097,75.2
120.4402,105.1
120.4793,183.3
120.481,366.1
120.4862,194.5
120.4875,281.2
120.4903,603.9
120.5178,84.9
120.5192,1033
120.525,213.6
120.5384,115.5
120.5419,96.2
120.5951,86.4
120.6243,16.9
120.6316,91.9
120.6543,103.3
120.7024,246.4
120.7157,594.7
120.7298,541.4
120.7664,772
120.8057,520.1
120.8313,21.3
120.8726,178.7
120.8781,101.9
120.899,394.8
120.9371,398.5
120.981,159.6
121.0036,640
121.0047,291.3
121.0078,355.3
121.0155,851.1
121.0286,280.8
121.0399,40.2
121.0588,16.5
121.0647,38.9
121.1014,102.8
121.1553,118.3
121.2828,901.4
121.3146,388.9
121.3173,299.2
121.3614,17.1
121.3646,157.5
121.3932,200
121.4178,247.5
121.4463,564.4
121.4675,98.1
121.4796,260.9
121.4826,82.2
121.491,632.3
121.5115,176.7
121.5191,116.8
121.5261,255.3
121.57,204.1
121.5844,125.2
121.6307,103.7
121.6377,159.7
121.6612,137.8
121.7046,121.5
121.7137,138.3
121.7304,136.7
121.7474,616.9
121.7586,643.4
121.7814,165.7
121.7947,132.7
121.7993,162
121.8152,648.6
121.9691,105
121.9726,108.5
121.9767,343.1
121.9911,17.4
122.069,126.3
122.1437,480.8
122.1605,444.6
122.1638,433.8
122.1688,337.9
122.1965,88.4
122.2481,763
122.2711,147.4
122.3037,97.3
122.3532,83.7
122.419,210.4
122.4239,125.2
122.4645,307.7
122.4883,104.8
122.4923,119.9
122.5227,18.2
122.5257,297.9
122.6164,111.7
122.623,475.2
122.6279,766.2
122.6353,221.3
122.6387,219.9
122.6474,266.1
122.6923,17.6
122.7236,113.7
122.7314,414.5
122.7339,102.9
122.7754,246
122.8048,154.5
122.8133,88.1
122.899,490
122.9247,17734.2
122.9339,902.6
122.9702,100
122.9746,21.4
122.9777,111.4
122.9916,77.9
122.9985,570.6
123.0407,259.9
123.0647,239.9
123.0778,132.2
123.0805,49.1
123.1171,304.7
123.1331,267.9
123.1611,428.8
123.164,87.6
123.1659,420.8
123.2754,118.7
123.2807,475.9
123.2986,658.1
123.3294,168.5
123.3426,151.4
123.3481,445.8
123.3812,92.6
123.3956,507.2
123.4114,83.7
123.4721,157.2
123.4759,173.4
123.4798,116.3
123.488,133.4
123.5398,103.1
123.5529,270.2
123.5677,127.6
123.6087,244.7
123.6171,227.9
123.6711,123.3
123.701,90.3
123.712,105.1
123.7413,151
123.7774,18.5
123.9029,173.1
123.9425,658.2
123.9602,404.4
123.9776,354.1
123.9959,779.4
124.0072,358.7
124.0191,186.1
124.034,16.8
124.1123,23.4
124.1513,76.8
124.1655,128.4
124.1891,124.8
124.2283,93.6
124.2563,291.8
124.2618,859.2
124.2899,369.5
124.3413,169
124.3803,15.9
124.3808,16.2
124.4149,91.3
124.4208,802.3
124.423,444.6
124.4978,756.2
124.5821,694
124.6599,99.1
124.6839,115.4
124.705,131.7
124.7147,163
124.7379,103.4
124.7639,211.7
124.7752,322.7
124.7818,78.9
124.7872,466.2
124.8113,100
124.8662,92.5
124.8709,198.3
124.9229,432.4
124.9766,139.5
124.9849,708.8
124.9894,146.9
125,8752
125.0044,3453.3
125.0057,388.7
125.039,390.6
125.0425,71.8
125.0598,44.3
125.0726,406.9
125.0805,88.9
125.1157,104.8
125.1205,354.7
125.1735,100.9
125.1866,134.3
125.1884,80.7
125.2246,92
125.2553,633.6
125.2814,123.1
125.41,886.9
125.4305,174.1
125.437,18.8
125.4795,770.9
125.4807,189
125.4839,326.6
125.5757,324.1
125.5978,94.2
125.6243,300.5
125.6714,87.7
125.7067,141.2
125.7538,722.3
125.7829,17.1
125.8127,306.3
125.8198,123.7
125.839,247.7
125.8642,549.5
125.8954,578.6
125.9079,111.8
125.9229,140.5
125.9252,99.2
125.9485,351.2
126.0019,247.8
126.0107,294.5
126.0123,128
126.0171,16.1
126.0272,789
126.0337,167.4
126.0548,431.1
126.0607,96.1
126.0818,134.9
126.1293,558.1
126.1342,92
126.1794,428.7
126.2343,204.1
126.237,19.7
126.2504,295.2
126.2756,574.2
126.3131,359.1
126.3226,801.6
126.3445,253.4
126.3549,738.4
126.3734,101.7
126.4284,111.9
126.4392,549.2
126.453,118.9
126.4567,115.2
126.4918,731
126.5036,253.3
126.5228,572.6
126.5275,111.1
126.5338,144.4
126.5619,100.3
126.5659,410.2
126.5727,376.9
126.5777,80.5
126.6044,18.3
126.62,17.4
126.6671,661.8
126.7178,241.2
126.7203,255
126.7249,128.6
126.728,198.6
126.773,147.1
126.8901,947.8
126.8915,839
126.9245,491.2
126.9321,96.3
126.979,96.4
126.9931,102.5
126.9998,433.5
127.0213,686.6
127.0242,398.7
127.048,81.4
127.0566,104.1
127.0917,374.1
127.0974,700.8
127.1033,467.1
127.1528,93.5
127.1711,358
127.182,444.4
127.2749,100.8
127.2775,892.7
127.3039,204.5
127.3067,642.6
127.3222,17.3
127.4067,123.7
127.4118,82.6
127.4421,144.1
127.4441,17.9
127.5371,474.8
127.5492,97.4
127.5593,193.2
127.5618,452.9
127.5753,480.4
127.6605,76
127.6932,74
127.7145,162
127.7299,117.7
127.7985,168.8
127.8068,459.1
127.8708,70.3
127.8754,237.4
127.9121,392
127.9567,340.4
127.9708,107.6
127.9733,97
128.0963,171.8
128.1008,607.8
128.1097,275.4
128.1104,418.3
128.1109,393.8
128.1624,489
128.1813,217
128.2031,172.2
128.2135,705.4
128.2698,154.1
128.2742,190.4
128.2903,932.8
128.2978,294.6
128.3028,107.1
128.3305,458.6
128.3595,18.7
128.3813,217.4
128.4304,294.4
128.4376,301
128.4468,547.4
128.482,668.2
128.493,21.1
128.5069,425.3
128.5851,98.9
128.6847,276.9
128.7226,150
128.745,277.5
128.7588,903.4
128.7609,20.6
128.8188,17.3
128.8394,510.4
128.8462,172.4
128.927,102.1
128.9415,174
128.9543,691
128.9668,334.7
128.9977,111.4
129.0035,1134
129.0055,98.4
129.0302,107.1
129.0541,17.2
129.0716,118.4
129.0818,79.9
129.1147,502.7
129.2318,99.5
129.2502,285.5
129.2541,909.1
129.2827,489.2
129.2849,138.8
129.3229,118.8
129.3792,182.7
129.3873,199.8
129.3987,193.5
129.5425,518.7
129.5474,18.1
129.5544,186.5
129.6085,121.8
129.6403,166.5
129.716,92.9
129.7664,843.2
129.7933,98.2
129.8454,196.3
129.85,530.9
129.8618,168.7
129.8892,1105.5
129.9318,104.2
129.9324,149.5
129.9328,165.6
129.9371,110.5
129.9418,612.7
129.9487,174.5
129.9554,359
129.9758,365.6
129.9963,804.7
130.0355,77.6
130.05,7170.4
130.0747,273.8
130.0909,468.5
130.1083,102.7
130.122,250.9
130.1727,608
130.1854,380.1
130.2051,140.5
130.2178,288.5
130.2297,279.5
130.2332,164
130.2519,268.9
130.3218,135.2
130.3458,99
130.3764,122.1
130.4172,390.1
130.4296,106
130.4413,114.2
130.4666,17.3
130.4817,107.2
130.5176,267.7
130.5284,99.3
130.5397,98.4
130.5506,17.9
130.6272,360.4
130.6398,451.6
130.6635,263.7
130.6709,362.9
130.7016,310.7
130.7845,238.2
130.8107,619.7
130.8307,620.5
130.8778,515.4
130.8802,267.6
130.8849,605.2
130.9092,215.3
130.9461,310.4
130.9662,569.1
130.9697,399.8
131.0158,670.7
131.0172,403.3
131.0231,449.2
131.0493,117
131.0689,97.8
131.1727,141.2
131.1986,167
131.2142,103.3
131.2254,581.2
131.2362,88.6
131.2401,21.1
131.2663,283
131.2887,702.9
131.3148,90.3
131.3261,19.1
131.3327,135
131.3481,303.8
131.3566,597.9
131.3597,92.4
131.3649,153.8
131.3778,669.5
131.4033,407.2
131.4053,142.4
131.4277,814.6
131.4317,83.7
131.4801,595.7
131.4918,185.5
131.5359,276.4
131.5701,194.3
131.5748,776.8
131.5788,19.8
131.6215,143.8
131.6437,692.3
131.6459,96.5
131.7647,142.4
131.803,108.4
131.8508,99.2
131.8624,187.9
131.9144,193
131.9201,349.6
131.9702,99
131.9761,210.8
132.0034,32763.1
132.0528,174.1
132.0657,114757.3
132.0705,106.7
132.0771,706.3
132.1548,154.1
132.1645,220.1
132.2487,123.3
132.278,608.2
132.3319,74.7
132.3351,218.8
132.4609,123.5
132.4683,85.1
132.4831,87
132.4885,107
132.5094,957.1
132.5183,676.9
132.5612,434
132.6153,440.9
132.6765,170.1
132.6851,106.2
132.7209,849.5
132.7401,235
132.7648,501.7
132.9031,33.8
132.9431,280.7
132.9586,20.4
132.9778,19.2
132.9874,2379.3
133.0078,20.5
133.0226,202.9
133.0363,77.2
133.0633,106.4
133.0691,2765.1
133.0791,874.6
133.0849,101.3
133.0863,19.2
133.0973,17326.3
133.1016,105.7
133.1073,238.2
133.1254,288.7
133.1666,420.1
133.1806,141.7
133.1942,117.7
133.2049,19.5
133.2057,18.8
133.2244,107.8
133.2273,562.1
133.271,838.8
133.3881,484.9
133.4502,84.7
133.4862,184.9
133.4975,109.4
133.563,172.6
133.6018,470
133.6484,119.4
133.677,357.1
133.7083,139.9
133.7451,753.5
133.7533,106.7
133.8407,247.6
133.9338,224.5
133.9425,304
133.9667,165.5
133.9999,22.4
134.0191,13206.2
134.0329,74.3
134.0731,78.3
134.0783,475.8
134.1519,141.5
134.1569,571.6
134.3304,98.1
134.3669,161.5
134.3746,570.5
134.3907,127.1
134.4281,188.2
134.484,967.7
134.4938,147.1
134.5264,206
134.5399,364.5
134.5509,20.5
134.647,180.9
134.664,96.9
134.7228,19.5
134.7566,152.9
134.7666,803.7
134.8191,290.9
134.888,256.5
134.894,132.1
134.8993,211.2
134.9719,520.2
134.9965,215.2
135.0031,86243.1
135.0053,471
135.008,801.2
135.0125,138.4
135.0236,24.3
135.0691,301.3
135.1171,60.9
135.1575,767.7
135.2295,138.7
135.2658,800.7
135.3125,17.5
135.3208,172.3
135.3996,121.6
135.482,545.8
135.524,193.4
135.5452,292.1
135.5494,221.2
135.5885,19.5
135.5985,346.3
135.6164,100.9
135.6323,169.1
135.6617,143.4
135.6656,18.8
135.6751,284.6
135.7042,670.2
135.9419,136.2
135.9538,161.9
135.9773,2661.6
136.0046,501
136.0065,1335.8
136.0483,6044.8
136.0523,101.8
136.0621,25.2
136.0759,13407.5
136.1796,93.2
136.1827,457.9
136.1847,164.8
136.1956,17.9
136.1991,112.9
136.25,454
136.2589,89.7
136.2667,795.8
136.2743,199.8
136.2776,145.2
136.2944,108.6
136.3974,786.7
136.4299,127.3
136.5019,247.8
136.5477,97.9
136.643,129.8
136.6895,285.7
136.7035,98.8
136.7478,841.5
136.7495,667.2
136.7604,401.6
136.773,206.8
136.8443,189.2
136.9067,16.9
136.9313,737.8
136.9717,195.4
136.9905,240.6
137.0383,100.3
137.0796,20
137.1523,93.1
137.2342,155.2
137.2806,199
137.3198,144.9
137.3344,81.2
137.3663,404.4
137.4278,431.2
137.4298,430.7
137.4489,77.9
137.4863,134.4
137.5249,17.4
137.5521,387.4
137.5602,548.3
137.6319,104.4
137.6722,536.4
137.7646,20.1
137.7784,131.6
137.7997,630.5
137.8599,309.8
137.8795,307.1
137.8878,465.8
138.0233,176.6
138.0528,7738.6
138.0665,30
138.0845,112.4
138.1008,298.6
138.1249,94.4
138.1302,204.5
138.1862,163.6
138.205,18.6
138.2066,242.2
138.2389,97.2
138.2739,204.3
138.2891,16.2
138.3485,108
138.3946,893.4
138.4061,181.3
138.4176,73.4
138.4378,101.6
138.4855,19.4
138.4987,143.2
138.5662,157.5
138.5689,398.7
138.6278,172.6
138.666,153.3
138.6722,549
138.6895,417.9
138.7281,112.9
138.7685,259
138.7773,168.7
138.8081,103.2
138.8093,430.3
138.9066,3049.3
138.9615,78.3
138.9804,107
139.0229,107
139.0676,347.7
139.1164,21.5
139.1362,197.4
139.1972,87.3
139.2292,635.3
139.2563,184.5
139.3307,181.1
139.6861,149
139.7059,264.8
139.7668,18.9
139.7842,148.8
139.907,424
139.9913,129.1
140.0023,676
140.0167,1301.5
140.0296,339.6
140.0598,116.8
140.0685,3151.6
140.1473,110.3
140.2334,214.7
140.2787,272.8
140.283,104.9
140.3321,114.9
140.3354,390.1
140.3567,107.4
140.3993,924.2
140.4566,82.8
140.4745,211
140.5146,172.8
140.556,85.4
140.6427,82.9
140.6852,574
140.7388,208
140.8057,427.1
140.8207,94.2
140.8274,104.3
140.8565,142.4
140.8768,132.8
140.9037,2021.5
140.9314,19.1
140.9463,109
140.949,445.3
141.0007,19926.8
141.0059,87.4
141.0114,326.3
141.0202,27.3
141.0701,19
141.0916,112
141.1694,390.6
141.193,189.2
141.322,217.3
141.326,240.3
141.3327,506.9
141.3395,236.6
141.4528,88.7
141.4901,85.2
141.5241,80
141.5605,159.4
141.6559,100.6
141.6976,84.4
141.7792,418.5
141.8033,20.8
141.8078,649.4
141.8228,18.4
141.825,341.5
141.8314,192
141.8541,96.7
141.8577,20.5
141.8989,19.9
141.9113,878.5
141.9308,497.3
141.9361,847.3
141.9384,706.2
141.9904,104.3
142.0041,451.4
142.016,186
142.0257,114.7
142.0477,909.3
142.0779,204.2
142.1178,864.1
142.1228,18.9
142.1362,21.7
142.1551,329.3
142.2144,139.1
142.2402,157.5
142.3238,443.7
142.3829,600.8
142.4295,496.9
142.4917,466
142.5051,18
142.5386,243
142.5518,16.8
142.5546,422.7
142.6276,601
142.6547,546.4
142.7246,378.5
142.8034,154.3
142.8073,102.8
142.8086,280.9
142.8782,574.7
142.8925,21.2
142.9672,108.1
142.9966,244.1
143.0018,279.4
143.0192,1304.6
143.0492,345.3
143.0604,257.8
143.0612,265.5
143.0797,258.1
143.0818,354.5
143.1159,348.3
143.1592,118.3
143.1972,232.2
143.2572,70.7
143.265,96.4
143.3106,812.4
143.3167,18.2
143.3398,375.8
143.4102,191.6
143.5854,822.4
143.607,164.6
143.6357,101.2
143.6439,872.9
143.651,19.9
143.6966,800.6
143.7124,570.9
143.722,394.8
143.7558,448.1
143.7564,421.8
143.7587,104.4
143.7702,96.6
143.8059,18.7
143.8213,111.9
143.8447,149.6
143.9207,22
143.9408,249
143.9499,240
143.9966,330.3
144.011,68.2
144.0635,21.8
144.1037,1070.2
144.1311,191.1
144.1426,165.2
144.1844,81.6
144.1942,20.9
144.2485,97.9
144.2708,311.5
144.2766,208.7
144.325,153.3
144.3387,171.1
144.3866,420.1
144.4517,123
144.4831,125.5
144.5113,292.4
144.518,145.1
144.5254,142.7
144.6058,144.5
144.6554,19.7
144.6993,117.7
144.7215,944.2
144.8159,344.6
144.8278,682
144.8886,223.6
144.91,382.5
144.9294,131
144.9558,233.4
144.9643,101.9
144.981,2693.3
144.9936,393
145.0031,408.6
145.0518,16.5
145.0713,268.5
145.0908,19.3
145.0961,683.2
145.1316,17.2
145.167,99.2
145.1886,18
145.2072,106.7
145.2304,17.2
145.2569,308.2
145.4341,636.3
145.5013,86
145.5136,715.9
145.5302,527
145.5491,171.8
145.5584,272.2
145.5992,201.9
145.6105,108.5
145.6184,17
145.6539,812.8
145.6639,147.3
145.6771,146
145.6938,576.8
145.7373,716.2
145.7475,151.1
145.8639,216.4
145.911,448.9
145.9136,584
145.9271,324.1
145.938,18.7
145.9544,443
145.9631,220.5
145.9735,100.2
145.9783,732.1
145.9843,108.3
145.9864,178.6
145.9924,86.6
146.0062,88.9
146.0101,311.6
146.0127,5455.2
146.0191,20736.8
146.0347,146.1
146.0418,275.5
146.0759,914.5
146.1325,102
146.1504,393.3
146.2067,98
146.3597,178.5
146.3803,144.7
146.431,341.1
146.4403,110.9
146.4478,81.9
146.4653,458.6
146.5003,692.6
146.5369,552.3
146.5437,97.5
146.5699,110.4
146.5986,126.1
146.629,71.4
146.6432,105.6
146.6443,93.6
146.7851,85.3
146.8693,82.6
146.9222,404.3
146.9467,253.1
146.9688,377.6
146.9763,97.5
146.982,134507.4
147.0063,93.6
147.022,474.5
147.0333,91.3
147.0359,110.5
147.0743,23.2
147.0767,59617.6
147.113,28049.2
147.1168,1110.3
147.1212,109.5
147.2486,289.6
147.2695,122
147.3225,126.2
147.3518,393.6
147.3606,400.7
147.3911,548.9
147.4244,278
147.4751,294.8
147.491,130.7
147.5027,319.1
147.5083,122.7
147.5187,86.5
147.5407,69.2
147.5497,111.1
147.5559,98.1
147.5885,645.9
147.6528,211.1
147.7654,913.6
147.7975,303.4
147.8035,520
147.8355,103.6
147.8991,100.4
147.9134,176.9
147.9494,437.8
147.9782,253.7
148.0797,994.3
148.091,347
148.1009,648.7
148.1283,508.2
148.1418,584.6
148.1856,22
148.2349,19.5
148.4093,120.4
148.4219,144.6
148.4688,195
148.5324,5636.4
148.566,211.3
148.6189,316.2
148.6444,392.7
148.6713,191
148.7393,101.3
148.7542,18.3
148.8054,20.3
148.8571,172.7
148.8603,116.9
148.8824,217.5
148.8982,361.1
148.9087,20.1
148.9149,526.2
148.9325,157.1
148.9343,79.5
148.9398,191
148.9459,146.8
148.9614,2649.2
148.9793,153.2
149.0028,26.3
149.0154,715.8
149.0188,3945.8
149.0236,5731.9
149.0452,19.2
149.1156,181
149.1319,356
149.1454,522.9
149.2373,153.8
149.2629,632.3
149.2984,79.6
149.3029,525.2
149.3549,18.5
149.4932,185.9
149.5128,716.5
149.5434,681.7
149.6531,16.6
149.7995,400.6
149.8202,377.2
149.8259,964.8
149.9486,758.4
149.9931,8016.3
150.014,4776.4
150.027,47.2
150.0613,120.3
150.0681,834.3
150.1411,124
150.1923,100.5
150.2032,212.1
150.2799,467.2
150.3559,124.3
150.3702,124
150.4419,20.6
150.4713,249
150.4853,92.2
150.62,84.8
150.6728,124
150.7016,18.4
150.7221,118.2
150.7238,78.5
150.7906,310.1
150.8221,219.4
150.9082,271
150.9771,50798.7
150.9843,271.8
151.0024,169.4
151.048,3720
151.0935,303.4
151.1146,194.8
151.1258,119.2
151.148,187.6
151.1584,106.8
151.1823,155.7
151.2064,317.9
151.256,17.8
151.3447,159.1
151.3745,138.6
151.3802,84.9
151.3907,312.6
151.4944,436.6
151.5146,18.3
151.5173,403.1
151.5201,439.3
151.5555,431.6
151.5684,527
151.6731,400.9
151.7098,514.5
151.8048,139.4
151.8373,225.7
151.9515,480.2
151.9539,115.5
151.9596,121
152.0224,12794.8
152.0321,2668.4
152.064,216.7
152.1271,283.8
152.144,189.2
152.1968,557.7
152.2359,16.7
152.2401,18.7
152.249,431.1
152.278,153.3
152.3624,425.3
152.4035,99.2
152.486,267.9
152.4969,153.6
152.5811,377.1
152.6025,467.9
152.7072,668.1
152.8259,362.4
152.8896,174.8
152.8917,87.4
152.8973,17.3
152.9753,1989.5
153.016,19.2
153.0384,140.1
153.1507,81.7
153.2328,394.6
153.3499,401.6
153.4203,224.5
153.4228,23
153.4881,293.6
153.518,252.9
153.5421,500.8
153.5795,535.9
153.6421,214
153.6439,125.2
153.7015,130.8
153.7196,17.5
153.7913,201.2
153.7945,702.2
153.8085,171.8
153.8201,143.1
153.8739,111
153.9108,284.1
153.9357,717.9
153.9956,135.7
153.9964,218.7
153.997,206.9
153.9991,111.8
154.0113,633.6
154.018,208.9
154.0268,2122.6
154.059,2291
154.0631,420.6
154.1309,916.3
154.1632,100.8
154.2824,358.3
154.4046,155.3
154.4331,105.7
154.4411,128.4
154.4485,137
154.4918,101.8
154.5842,375
154.6199,81.4
154.6534,97.1
154.6792,19.5
154.6923,149.7
154.7203,99.1
154.769,93
154.8326,191.7
154.8399,209.4
154.8744,165.4
154.8807,1279.5
154.9078,151.2
154.9106,175.9
154.9356,109.5
154.9421,23.6
154.9557,255.4
155.019,105
155.0429,1147.9
155.0464,23.9
155.0495,291.1
155.0543,3997.9
155.066,17.9
155.1714,263.2
155.2174,717.5
155.2297,362
155.2498,202.2
155.3716,101.7
155.4456,80
155.5374,283.7
155.5469,410.6
155.6073,126.7
155.706,272.2
155.7649,221.3
155.7905,629.2
155.8524,451.2
155.8747,246.2
155.8828,117.1
155.9596,24.8
156.0106,161.2
156.027,215.3
156.0425,3096.7
156.049,116.3
156.0576,34.9
156.0771,52967.3
156.0815,159.2
156.1108,268.1
156.1872,961
156.2884,234.2
156.3306,19.8
156.3465,108.9
156.3659,240.3
156.4209,450.8
156.4672,208.5
156.5389,100.8
156.5511,274.3
156.577,881.9
156.6386,895.3
156.6925,545.2
156.7064,161.4
156.7684,577.8
156.8777,578.2
156.8893,82
156.9644,549.9
156.9749,32.8
157.0024,113.8
157.0049,800.3
157.0651,337.4
157.0804,964.1
157.0975,360.5
157.1539,17.8
157.185,114.7
157.2045,189.3
157.2236,81.3
157.2312,601.3
157.3531,338.3
157.3579,142.5
157.3936,589.9
157.4235,104.8
157.4389,18.2
157.4627,376.8
157.5107,146.3
157.557,174.4
157.63,102.3
157.6439,350.5
157.6725,111.7
157.6921,124.3
157.706,111.6
157.7179,241.3
157.7709,173
157.8439,100.2
157.8465,315
157.8832,211.9
157.9765,144.4
158.0127,2098.4
158.0274,4489.2
158.0501,94.9
158.0518,302.5
158.0702,444
158.1758,110.9
158.2393,141.9
158.2562,492.6
158.2615,554.7
158.2833,122.9
158.3475,277.6
158.3513,153.3
158.4553,185.7
158.5061,141.7
158.545,384.3
158.5922,363.3
158.6264,314.1
158.7193,100.9
158.7278,19.6
158.7334,106.5
158.7954,104.7
158.8278,828
158.906,104.1
158.9644,8247.4
158.9968,10026.1
159.0054,582.3
159.0114,22.1
159.0308,150.7
159.081,153.8
159.1672,138.8
159.2503,187
159.3202,641
159.3281,463.8
159.353,19.6
159.3617,190
159.4265,273.5
159.4735,258.1
159.5525,279.1
159.5623,18.6
159.5951,213.7
159.64,137.6
159.7198,21
159.7608,166.6
159.7766,639.3
159.7847,93.7
159.8073,707.7
159.8154,118.9
159.8567,588.2
159.8779,131.8
159.9284,760.7
159.9481,284
160.0166,326.3
160.0233,65.9
160.0349,18936
160.0556,168.6
160.0608,118547.5
160.0918,118.5
160.1227,93.2
160.2057,412.2
160.2101,198
160.2616,324.5
160.2837,593.8
160.3852,120.1
160.4321,747.7
160.4416,110.8
160.4582,229
160.4843,157.6
160.6105,166.6
160.678,18.9
160.723,411.6
160.7752,97.5
160.7846,98.6
160.8257,305.7
160.8865,131.6
160.9043,95.1
160.9053,103.9
160.9109,506.7
160.9298,107.3
160.9909,41.1
160.9944,213.3
160.9995,413.4
161.0187,517.5
161.0641,4765.3
161.0832,181.9
161.1171,314.7
161.2255,262.3
161.2416,16.8
161.2895,256.1
161.3105,419.8
161.3426,75.5
161.4251,100.4
161.5169,597.9
161.5266,568.1
161.5722,112.7
161.5999,17.9
161.6162,83.8
161.617,81
161.638,164.1
161.6725,555.2
161.6781,113.2
161.6996,110.2
161.7265,17.7
161.7373,801.8
161.7602,105
161.9016,837.1
161.9281,82
161.9348,19.2
162.0072,198.4
162.0433,191.5
162.0505,18772
162.0656,350.3
162.0692,185.5
162.0889,171.9
162.1131,807.7
162.1614,145.8
162.209,137
162.339,679.2
162.3773,400.2
162.4329,1113.1
162.4593,175.1
162.5289,112.2
162.5381,18.1
162.55,517.8
162.5585,786.7
162.6213,236.8
162.648,566.5
162.6615,277.4
162.735,79.5
162.7684,19.8
162.8315,431.6
162.8419,20.8
162.8495,567.5
162.864,262.1
162.8828,131.1
162.888,203.5
162.914,391.6
162.9561,4340.4
162.9632,271.1
162.9774,329.2
162.9896,93.8
163.0157,1555.1
163.0287,361.2
163.0348,427.1
163.0423,248.2
163.0594,1040.9
163.0813,305.3
163.1484,26
163.1572,252.7
163.1688,582.3
163.2217,543.3
163.3446,112.7
163.3766,364.3
163.3959,568.8
163.4843,206.9
163.5244,90.9
163.553,276.9
163.5549,113.3
163.6351,500.2
163.6481,166.3
163.649,176.3
163.65,204.1
163.6625,971.3
163.6659,472.1
163.8039,101.9
163.9419,586.8
163.9535,278.5
163.9763,188.2
164.0244,408.5
164.0298,14656.9
164.0481,115.5
164.0664,90.9
164.1446,148.1
164.1736,196.1
164.1892,680.5
164.1974,105.3
164.2204,183
164.2675,20.3
164.2723,239.9
164.2772,451.6
164.2932,74.9
164.31,105.8
164.3507,417.1
164.4031,19.4
164.4178,608.9
164.4333,216.6
164.5368,416.5
164.5603,218.3
164.5626,898.1
164.5665,131.9
164.5695,810
164.7303,17.3
164.7635,109.6
164.8211,160.4
164.8441,169.4
164.8554,174.7
164.9209,6287.3
164.9304,14707.5
164.9354,1905.7
164.9929,3198.3
165.0437,294.8
165.0513,193.2
165.0914,1420.4
165.0973,277.2
165.178,667
165.2157,281.9
165.2473,136.9
165.2505,267.1
165.2582,17.8
165.2678,264.7
165.3102,122.3
165.3144,176.1
165.3514,147.9
165.3614,178.8
165.4028,206.8
165.4403,192.6
165.5637,233.5
165.5747,325.6
165.6582,731.8
165.6879,115.1
165.7274,239.7
165.7551,17.7
165.9648,590.4
165.967,1202.4
165.9791,3037.1
165.9881,4692.7
165.9952,54.7
166.0407,20.1
166.0708,273.9
166.1357,655.7
166.1472,94.9
166.1517,529.8
166.2327,321.9
166.2341,292.2
166.2547,129.6
166.2671,123.1
166.2795,133.4
166.2864,103.3
166.4137,90.9
166.4223,442.8
166.4549,116.8
166.4613,253.7
166.4981,103.9
166.5025,111.8
166.5059,719.1
166.5643,183.6
166.5794,88.2
166.6275,141.9
166.6435,132.9
166.6477,117.2
166.678,428.5
166.7062,19.1
166.7402,861.2
166.7531,793.2
166.8113,302.8
166.8694,423.2
166.8894,278.8
166.9511,21227.8
166.9686,83.9
166.9957,98.8
166.9987,215.4
167.0221,4447.8
167.0278,8478.3
167.0542,96.1
167.0644,94.6
167.077,358.9
167.0873,163.3
167.1688,391.3
167.1772,212.1
167.2202,110.3
167.2299,80.7
167.2317,429.6
167.2832,577.8
167.3215,194.6
167.3468,289.8
167.4105,142.5
167.5819,838.3
167.6387,24.6
167.6716,397.6
167.7087,595.1
167.7193,97.7
167.8735,127.6
167.8883,127.5
167.9948,3920.8
168.0061,489.1
168.0086,359.9
168.0813,583.4
168.1756,105.4
168.205,929.2
168.2688,324.6
168.281,470.9
168.3371,163.2
168.3437,177.6
168.3936,425.9
168.4696,184.2
168.6463,822.2
168.6561,115.8
168.6608,424.7
168.6671,459.2
168.7086,87.4
168.9095,969.1
168.9492,1813.4
168.9761,116.5
169.0339,103
169.0587,55068.3
169.0654,700.7
169.0953,596
169.1037,855.5
169.1533,605
169.1567,108.3
169.1602,156.1
169.1834,116.5
169.2204,95.6
169.2445,103.1
169.3409,366.4
169.3987,1411.9
169.4913,483.9
169.4941,232.7
169.5065,128.6
169.5291,753
169.563,622.8
169.7035,104.4
169.734,75.3
169.7399,730.3
169.754,300
169.7754,269.7
169.7848,286.8
169.8024,21.5
169.8577,186.1
169.8664,284.2
169.8777,176.6
169.9215,434.2
169.9277,215.4
169.9862,1377.2
170.033,3881.1
170.0418,145.1
170.0544,403.6
170.0622,665.9
170.0928,15085.6
170.1112,665
170.1506,78.7
170.1532,90
170.282,89.6
170.3578,587.3
170.3736,19.1
170.4334,183.3
170.4681,140.7
170.4707,103.1
170.5258,880.6
170.5983,15.9
170.632,17.3
170.6479,493.7
170.6504,237.3
170.6823,109.6
170.7718,307.2
170.7772,282.7
170.8089,534.7
170.8204,89.1
170.8547,4487.3
170.886,17.2
170.911,20.2
170.915,98.8
170.9408,83.2
171.0173,802.4
171.0283,364.2
171.0534,413.8
171.0562,106.1
171.117,19.8
171.1663,216.4
171.1727,387.2
171.2046,99.2
171.2213,177.9
171.2512,176
171.281,402.2
171.348,130
171.4064,882
171.4466,192.6
171.4813,153.6
171.4842,18.7
171.5448,67.6
171.5952,148.8
171.6092,109.7
171.8966,724.8
171.9559,534.7
172.0285,2130.2
172.0459,368.2
172.0592,215.3
172.0643,127.6
172.1255,390.2
172.1436,19.4
172.1818,357.4
172.184,94.4
172.2462,129.2
172.3024,417.5
172.3574,139.9
172.392,550.9
172.4206,174.4
172.4869,108.7
172.5283,187.9
172.531,562.6
172.5392,469
172.6889,543.7
172.7157,175.8
172.7263,139.3
172.7718,18.5
172.8018,699.8
172.8518,2841
172.908,19
172.967,856.6
172.9691,125.6
173.0272,355.2
173.0792,16.5
173.1053,582.9
173.2421,421.7
173.2829,439.7
173.3591,137.8
173.399,489.2
173.4077,276.2
173.4418,92.2
173.4631,138.7
173.5447,417.5
173.5769,98.3
173.6501,987.9
173.7235,100
173.726,682
173.7314,123.4
173.7414,18.4
173.793,772
173.8255,157.6
173.8537,122.7
173.9163,234.2
173.9247,597.8
173.9469,224
174.0332,17.8
174.0635,942.4
174.1224,276.7
174.2328,183.2
174.2682,98
174.2937,206.9
174.3311,73.1
174.4084,352.3
174.4406,20
174.5452,502.3
174.5582,351.4
174.5699,110.1
174.5913,209
174.6289,647
174.6544,656.5
174.7228,673
174.8102,143.3
174.822,943.7
174.8415,108.6
174.8492,561.4
174.855,79.6
174.8613,20.2
174.9078,306
174.9385,3100.2
175.0346,5769.8
175.0458,4767.2
175.056,186.7
175.0583,659.3
175.0732,581.2
175.0824,104.2
175.1194,89183.9
175.137,329.1
175.154,403.7
175.1833,376.2
175.2312,877.5
175.2399,22.1
175.2577,117.9
175.3414,854.5
175.3622,90.1
175.4117,268.6
175.4327,88.3
175.4667,195.4
175.5276,97.7
175.5556,21.5
175.5931,356.2
175.6203,87.6
175.7042,118.2
175.776,353.5
175.9111,19.9
176.0065,84.1
176.0089,7065.2
176.0412,463
176.0457,17.2
176.0607,17.1
176.0662,23492.8
176.1034,2036.4
176.1228,1446
176.1502,151.9
176.2884,373
176.2972,113.9
176.3292,172.9
176.429,412.1
176.4726,373.4
176.475,81.8
176.5163,766.8
176.55,770
176.6803,398
176.6914,158.4
176.7422,173.3
176.9376,662.8
176.9927,3162.1
177.0097,18.2
177.0252,5652.4
177.0563,134.7
177.0583,232.1
177.0614,6873.8
177.0685,112.9
177.0874,414.4
177.0913,23.8
177.1906,361.7
177.2733,170.6
177.2884,116.6
177.4252,101.5
177.5075,820.9
177.5358,355
177.5401,101.5
177.5543,276.2
177.5617,425.7
177.6097,166.1
177.7712,468.7
177.8881,88.6
177.9881,316.5
178.0091,14200.7
178.0245,9848.9
178.0592,7842.1
178.066,256.5
178.2298,425.3
178.3829,759.4
178.4391,186
178.4432,102.3
178.4879,18.7
178.5647,874.5
178.5806,235.4
178.6098,339.8
178.6243,97
178.6395,245.9
178.7026,128.4
178.8078,88
178.8283,438.3
179.0839,166.8
179.0923,670.6
179.1067,25.5
179.121,734
179.2772,381.3
179.2805,92.9
179.3363,102.8
179.4079,104.9
179.4553,174.7
179.4965,594.3
179.5841,146.7
179.6578,287.9
179.7247,864.7
179.7306,95
179.9104,92.6
179.9365,203.5
179.9581,19.5
179.9741,825.3
180.0038,8627.2
180.065,194.1
180.1182,609.9
180.1225,160.5
180.1404,217.6
180.173,20.9
180.2485,117
180.2734,129.5
180.2855,172.8
180.3057,478.5
180.3082,458.1
180.3872,196.5
180.419,193.9
180.4236,140.9
180.438,182.8
180.5369,396.3
180.542,445.4
180.6042,182.3
180.8109,100
180.8623,930.9
180.8885,56.5
180.8949,3695.7
180.9044,9821.3
180.9579,967.4
180.9744,463.9
180.9842,119.1
180.9909,96.4
181.0653,13882.2
181.093,254.1
181.1676,19
181.2083,125.7
181.2127,666.3
181.2388,110.2
181.3552,645.7
181.41,679.2
181.454,144.4
181.4882,85
181.501,115
181.5039,160.8
181.611,89.8
181.7004,88.8
181.7346,144.1
181.9689,402.4
181.994,644.3
182.0159,27.1
182.0429,41847.6
182.0516,227.7
182.0634,18
182.0669,412.3
182.0777,266.8
182.1433,598.6
182.1703,247.1
182.2277,88.6
182.2998,271.3
182.3523,210.4
182.4282,865.6
182.4602,18.7
182.4852,726.5
182.5242,120.3
182.5336,656.4
182.6729,112.3
182.7127,404.1
182.733,19.5
182.764,101.2
182.7799,99.4
182.7873,92.4
182.8264,484.6
182.903,63.7
182.9719,208.3
183.0206,162
183.0423,249
183.0449,1840.5
183.0723,16.6
183.1532,102.2
183.2159,377
183.2473,152.1
183.3388,319.6
183.4783,146.9
183.5725,159.1
183.5841,369.1
183.5864,491.3
183.642,91.6
183.6522,370.2
183.6556,326.1
183.6865,110.3
183.7134,277.7
183.7192,134.3
183.744,157.1
183.863,85.2
183.8986,705.6
183.9456,104.4
183.9652,258.3
184.0142,161.2
184.0274,180.9
184.0376,575.4
184.0738,4420811.5
184.0862,303.9
184.0886,713.9
184.1101,595
184.1174,376.4
184.1308,91.4
184.1588,132.7
184.1654,190.5
184.1703,29
184.1825,2349.6
184.194,121.5
184.2526,19.1
184.2728,398.8
184.3577,249.4
184.3811,242.7
184.4107,16.8
184.4656,350.5
184.475,609.9
184.4923,21.4
184.5517,302.9
184.5563,107.5
184.6329,18.4
184.7365,391.3
184.7446,201.8
184.7848,299.8
184.9631,379
184.9994,1060.6
185.0124,364.1
185.0327,55362.4
185.0588,381.2
185.0708,8404.7
185.0771,209258.1
185.0998,760.1
185.1957,129.9
185.332,101.7
185.3825,423.8
185.3878,459.2
185.4578,18.7
185.6046,300.6
185.6306,389.2
185.648,434.3
185.6502,82.4
185.6679,599.4
185.717,168.9
185.8431,114.6
185.8731,137.3
185.8806,113.2
185.9394,248.3
185.9603,1182.9
186.0241,16.4
186.0362,670.7
186.078,24212.8
186.1622,178
186.1749,108.7
186.2475,18.9
186.2525,790.8
186.2942,404.4
186.4325,18.2
186.6223,161.7
186.7459,149.4
186.7568,105.6
186.7617,77.2
186.7781,16.8
186.7879,96.5
186.9033,275.9
186.9126,1987.8
187.0307,2369.9
187.0581,7743.4
187.0718,1111.9
187.0755,113.1
187.1082,3169
187.1486,173.5
187.2161,97.9
187.2528,668.6
187.3005,924.5
187.3823,294.3
187.4585,483.6
187.5472,97.3
187.6027,76.4
187.6755,16.7
187.7704,509.1
187.8599,106.4
187.8827,145.1
187.8972,356.8
187.8999,510.4
187.961,552.8
188.1332,237.8
188.1484,94.7
188.3133,179.6
188.3493,683.9
188.4259,161
188.4567,459.8
188.5309,91.5
188.5844,22.5
188.5905,448.9
188.6679,725.9
188.6791,386.2
188.7349,81.4
188.7488,141.1
188.9064,96.8
188.9651,98.8
188.9752,225
189.0345,84.4
189.0615,2961.8
189.0792,419.2
189.0875,8310.3
189.0967,650.8
189.1217,20.2
189.2446,361
189.2597,917
189.3099,145.2
189.3734,425.9
189.3908,507.3
189.4155,110
189.46,452.7
189.5832,805.1
189.6529,206.1
189.6616,20
189.6869,558.1
189.7101,103.6
189.7863,147
189.8041,407.7
189.8516,477
189.8561,353.3
189.8655,95.9
190.1796,408.7
190.2754,100.6
190.4241,355.1
190.6062,269.5
190.6133,233.9
190.6669,171.5
190.7181,601.1
190.7292,146.3
190.8155,114.6
190.9125,80.5
190.9258,110
190.9281,136.6
190.9363,623.9
190.945,108.1
190.962,75.5
190.9723,665.4
191.0087,5923.3
191.0241,291.1
191.0408,125311.1
191.0739,116.1
191.0772,23478.7
191.1626,74.9
191.1878,579.4
191.2251,886.6
191.2313,88
191.3674,20.2
191.3992,142.2
191.4086,465.4
191.4337,272.8
191.4592,488.3
191.5092,480.4
191.6279,103.3
191.6865,244.8
191.7251,387.5
191.7277,435.8
191.7883,81.2
191.8585,577.9
191.9827,389.2
192.0322,740.1
192.0403,14098.8
192.0441,4127.8
192.0489,988.7
192.0778,497
192.1175,91.7
192.2672,137.7
192.2968,74.8
192.3357,486.8
192.3729,140.7
192.4019,18.5
192.4863,535.4
192.5811,94
192.585,254.5
192.6858,122.4
192.8156,261.4
192.9336,111
192.9744,114.2
192.9991,3983.5
193.0355,1746.8
193.1585,22.2
193.2117,483
193.4219,96.8
193.4297,768.2
193.4583,118.6
193.4672,93.9
193.4753,619.2
193.5051,152.9
193.5659,168.4
193.7515,425.2
193.773,288
193.8398,19
193.8606,212.1
193.9074,395.6
193.9143,18.6
193.9328,117.3
193.9985,1678.6
194.0051,2139
194.0109,555.3
194.0229,1152.8
194.0331,1913.5
194.068,442.6
194.079,18.5
194.0852,430.2
194.1546,203.6
194.1673,215.3
194.1821,137.4
194.2265,108.5
194.2832,647.6
194.3093,115.2
194.3716,128.8
194.4602,121.7
194.515,914.8
194.5469,136.9
194.6243,721.9
194.6298,456.6
194.6386,96.3
194.6767,574.3
194.7294,223.9
194.8579,107.6
194.876,164.2
194.9068,21.3
194.9098,103.7
194.934,425.1
194.9437,83
195.0928,368.3
195.1298,197.2
195.1712,191.2
195.1838,162.5
195.1872,582.1
195.2163,494
195.2631,739.2
195.269,105.6
195.4034,402.9
195.4166,393.5
195.459,328.3
195.494,281.5
195.589,23.2
195.6483,19.9
195.7152,164.9
195.7503,860.7
195.808,199.2
195.8286,93.5
195.8427,195.8
195.9058,89
195.914,219.2
195.963,129.6
195.978,581.5
196.0627,259
196.0796,126.3
196.1702,307.7
196.1997,131.6
196.2034,456.3
196.2423,213.6
196.3632,558.5
196.3719,389.6
196.4913,137.4
196.535,154.6
196.6407,209.4
196.6645,633.1
196.793,346.9
196.8237,102.7
196.8421,222.7
196.858,119.6
196.8618,694
196.8656,6928.2
196.8688,1013.3
196.8783,1468
196.9197,106.7
196.9373,186.8
197.1588,794.9
197.2038,17.5
197.2948,230.6
197.4011,204.6
197.4775,520
197.603,104.1
197.6209,112.6
197.6301,197.8
197.7662,405.9
197.7704,144.7
197.8833,232.2
197.9313,398.2
197.9439,22.3
197.9483,150.9
197.9754,109.5
197.9872,753
198.003,902.4
198.0082,412.5
198.0469,386
198.0853,8782.3
198.0896,1126.9
198.1193,113.4
198.1793,449.2
198.1858,7165.2
198.4759,234.6
198.5072,237.3
198.5568,190.1
198.6715,466.4
198.694,174.5
198.6995,130.5
198.7408,73.7
198.7602,722
198.7859,762.6
198.8043,76.4
198.8181,464.9
198.8627,4896.4
198.9347,318
198.9711,142.1
198.9742,71.6
198.9972,130.6
199.0369,197.1
199.0396,148.1
199.0624,112.8
199.0691,409.2
199.076,4217.6
199.0807,70
199.1705,320.3
199.1893,387.6
199.3343,733.3
199.404,247
199.4178,133.7
199.62,22.2
199.6751,112.6
199.8022,542.6
199.8087,124.4
199.8323,193.2
199.8372,19.8
199.8696,246.5
199.9306,157.9
199.9912,33789.9
200.0047,409.8
200.0412,15687.6
200.0729,816.9
200.1004,232
200.1185,3761.6
200.1206,4632.6
200.1235,7143.4
200.1403,134.6
200.1984,429.5
200.2004,107.9
200.2732,935.3
200.2995,1007.9
200.3203,136
200.3416,105.4
200.369,143
200.5222,417.6
200.5422,425.9
200.5469,108.1
200.5612,103.7
200.6306,17.1
200.6532,182
200.7192,96.2
200.7498,282.6
200.7647,293.5
200.7935,430.5
200.8222,266.5
200.8518,618.9
200.8599,1689.1
200.8816,20.5
200.9055,327
200.9358,219.7
200.9429,221.2
200.9579,408.9
201.0548,696.2
201.0601,230.7
201.0653,202.3
201.0876,314.5
201.107,143.7
201.3582,84.6
201.4351,339.2
201.4984,238.6
201.6177,89.2
201.8067,138.5
201.8157,257.7
201.8543,137.4
201.9056,185.8
201.988,195.1
202.0223,16
202.0964,107.4
202.0999,86.4
202.1795,121.1
202.1878,386.8
202.28,215.4
202.3007,395
202.3096,340.6
202.3138,126.8
202.3486,580.1
202.3795,103.1
202.4121,1081.1
202.4425,315.8
202.4659,104.2
202.4767,432.2
202.4807,18.3
202.4959,17100.8
202.503,469.9
202.507,280.4
202.5593,1049.3
202.5874,90.3
202.8806,412.9
202.9211,146.4
202.9393,115.3
203.0008,92.8
203.0323,1834.6
203.0531,1419452.3
203.0618,150.3
203.0772,10134.3
203.0937,173.5
203.1142,488.7
203.1241,179.2
203.139,700
203.1603,672.6
203.1884,19.9
203.2622,312.8
203.2819,20.8
203.3229,123.1
203.3315,105.2
203.3483,256.1
203.3709,689.8
203.5979,667.7
203.6514,86.1
203.6937,183
203.8701,182.1
203.9021,206.9
203.9411,756.7
203.946,19.7
203.973,694.9
204.0249,51013.2
204.0565,70665.2
204.0684,368.8
204.0804,132.8
204.0865,188.2
204.13,222.3
204.1432,18.5
204.2526,21.4
204.2942,433.5
204.3786,381
204.3911,125.9
204.4191,335.2
204.4933,431.4
204.5458,89.7
204.5831,108.8
204.6146,705.9
204.6485,110.4
204.7017,384.1
204.849,17.9
204.8842,879.2
204.9302,385.1
204.9955,39.3
205.0284,372.8
205.0396,665.9
205.0574,12195.3
205.0688,12497.4
205.084,88.7
205.0973,156.8
205.1598,20.8
205.1784,325.5
205.2246,586.4
205.3747,17.7
205.3879,316.8
205.4316,133.8
205.4375,135.6
205.4407,130.6
205.4759,437
205.6837,403.3
205.753,145.5
205.8738,344
205.8774,141.1
205.9102,175.5
205.9816,319.5
206.0219,274.6
206.0558,2525.4
206.0652,71.7
206.0664,73.7
206.1042,19.4
206.1297,794.8
206.1322,550.4
206.15,359.7
206.1745,19
206.1811,335.4
206.2402,547.2
206.345,626.7
206.3994,462.7
206.4311,101
206.5407,196.8
206.575,454.2
206.5955,767.7
206.7159,183.6
206.8158,19.9
206.8586,99.2
206.8944,16142.9
206.9172,22.9
206.9639,152.4
206.9826,3378.2
206.9914,157.5
207.0148,79453.8
207.0408,463.6
207.0448,2470.7
207.0512,10266.4
207.0606,19.4
207.079,121.9
207.2324,78.3
207.316,260.8
207.3804,131.4
207.5502,346.4
207.6299,141.7
207.7028,124.5
207.7516,765.1
207.8491,126.8
207.985,130.2
207.9987,123.7
208.0111,304.6
208.0142,1369.2
208.0186,1095.5
208.1079,278.8
208.1323,183.3
208.136,126.4
208.1871,209.1
208.2022,316
208.2068,651.7
208.292,105.9
208.3093,841.4
208.3194,805.6
208.3532,120.6
208.3815,690.7
208.4192,446.9
208.5802,338.9
208.7546,118.3
208.7933,187
208.8442,430.6
208.8612,539.8
208.8837,137.1
208.8916,12598.6
208.9072,300
208.9358,392.9
208.9446,18.3
208.9555,46
208.973,579
209.0128,2312
209.024,899.1
209.0774,97.2
209.0952,205.8
209.1632,276.5
209.261,409.7
209.3672,162.6
209.5635,19.6
209.6204,520.6
210.6501,558.4
210.6905,168.4
210.6975,662.9
210.705,117.6
210.7507,190.8
210.7721,115
210.8248,349.7
210.8762,738.2
210.9295,88.9
210.9353,116.9
210.9664,18.8
210.9828,186.4
211.0289,188.9
211.0567,412.8
211.0694,1705.8
211.0839,380.3
211.111,185.2
211.1638,152.5
211.1727,8412.7
211.1812,41550.1
211.1846,33819.4
211.1871,22253.5
211.1968,2852.6
211.2234,21.2
211.2643,742.7
211.2952,117.3
211.3847,523
211.5088,486.4
211.5138,177.3
211.6086,519.7
211.6501,109.4
211.7007,384
211.7496,832.8
211.8646,122.6
211.9786,114.1
212.0175,842.1
212.0744,122
212.1232,143.8
212.1306,197.3
212.185,210.6
212.2044,97.5
212.3186,122.8
212.3473,148.2
212.4093,187.9
212.4539,359.3
212.5381,738.8
212.5594,154.5
212.5867,154.8
212.5915,579.1
212.6879,637.4
212.6937,169.8
212.7473,103.9
212.7551,406.8
212.8122,16.6
212.8132,16.6
212.8397,2720.4
212.8692,20.3
212.9348,216.2
212.9651,128.1
213.0554,3678.2
213.068,303.3
213.0754,1100.7
213.0814,822.1
213.2911,98.7
213.3088,927.5
213.3412,210.4
213.4228,872.5
213.424,679.2
213.4796,128.5
213.4869,125
213.5549,272.8
213.6192,513.5
213.7232,140.7
213.7411,631.3
213.7632,620.9
213.7754,107.2
213.7844,117.4
213.8255,908.6
213.9625,101.8
213.9721,609.1
213.9852,471.9
213.9943,487
214.0069,645.6
214.012,789.3
214.0594,9834.7
214.0903,970.6
214.1163,99.2
214.156,362.7
214.1951,150.2
214.243,231.5
214.3941,84.6
214.4251,125.2
214.4605,95.5
214.5359,189.5
214.5652,99.7
214.5917,119
214.637,111.1
214.6872,220.3
214.6931,72.9
214.7076,218.6
214.7491,84
214.8366,2417.9
214.8931,942.1
214.9182,125.9
214.9235,99.1
214.9733,308.3
215.0054,18.8
215.0636,111.2
215.0936,48.7
215.2973,745.7
215.3678,297.3
215.4068,389.1
215.4544,534.1
215.5061,316
215.6685,664.5
215.797,183.5
215.8753,135.6
215.9563,90.2
215.965,936.8
216.0151,10430.8
216.0182,1360.3
216.1581,98.7
216.2176,133.2
216.2923,371.8
216.4404,127.6
216.5435,271.5
216.5721,363.4
216.5841,817.7
216.619,163.3
216.6353,22.1
216.679,17.1
216.7103,449.4
216.7551,180.1
216.7891,660.7
216.8621,98.5
216.9162,120.7
216.9233,43156
216.973,416.9
216.9846,27.9
217.0063,97.2
217.019,17.5
217.0327,313
217.0568,359.8
217.2069,315.3
217.2119,273.1
217.2637,19.1
217.2742,17.3
217.4292,17.9
217.4379,351.1
217.5268,511.4
217.7641,82.9
217.9054,207.9
218.0068,23.9
218.0162,19.4
218.0405,17.6
218.1262,776.4
218.1513,116.2
218.2619,214.5
218.3886,420.7
218.4085,183.4
218.4783,424.4
218.5113,270.6
218.5365,21
218.5551,135.7
218.636,257.4
218.6686,223.9
218.7239,205.4
218.7566,135.5
218.7887,18.1
218.8543,953.3
218.8573,17.6
218.8791,140.7
218.9203,11593.9
219.0183,1746.1
219.0271,1439367
219.0726,477.1
219.0834,9985.9
219.1551,34.2
219.2386,253.5
219.267,116.3
219.3161,704.5
219.3588,713.9
219.3656,93.5
219.4189,366.9
219.4334,870.8
219.5082,870.5
219.5746,302.2
219.668,102.3
219.6918,417.7
219.7048,627.3
219.7102,137.8
219.7171,455.5
219.7601,445.8
219.7854,154.5
219.8587,477.3
219.8757,124.5
219.9125,21.2
219.9275,97.4
219.9459,327.3
219.999,360.6
220.0305,78986.3
220.0674,9282.8
220.168,550.7
220.3371,172.5
220.4067,92.7
220.5117,126.1
220.5285,127.3
220.5609,117.2
220.6015,192.5
220.6293,72
220.6565,147.2
220.6937,138.1
220.701,126.6
220.752,434.7
220.8076,21.1
220.8153,202.5
220.8444,347.1
220.8666,691.9
220.9359,141.6
220.9498,450
220.9744,102.6
221.0206,1568.8
221.0253,93561.3
221.0315,11485.6
221.0427,6416.2
221.0515,1829.1
221.0839,172
221.0881,644.1
221.1714,19.8
221.3412,91.2
221.3551,330.5
221.5177,80.7
221.6664,158.1
221.7151,103.1
221.7509,862.5
221.7598,171.1
221.8749,175.4
221.9569,224.8
221.9843,3794.1
222.0286,2988.1
222.0737,97.4
222.1312,183
222.311,79.5
222.3504,18.5
222.4128,368.3
222.4536,86.1
222.5059,20.1
222.5301,847
222.5395,145.9
222.5551,107.2
222.5583,144.5
222.6623,523.8
222.7025,19.2
222.7825,214.5
222.8685,14749.7
222.8796,1454.2
222.8893,941.6
222.8993,51.2
222.9364,101.7
222.9817,98.2
222.9888,6865.5
223.0004,291.2
223.0079,175.3
223.0134,610.2
223.0252,552.6
223.0293,353.2
223.0376,1574.4
223.0405,1042.3
223.0482,203.9
223.0771,691
223.1916,407.4
223.2822,89.6
223.3016,187.6
223.3303,201.5
223.4279,165.3
223.5949,364.3
223.6474,463.4
223.6772,84.7
223.7682,152.6
223.8162,179.8
223.9538,57.8
224.0301,1461.8
224.0389,816
224.1631,113.5
224.1732,276.7
224.2292,463
224.2622,23.1
224.3196,890.2
224.3776,335.7
224.5068,189
224.6117,103
224.8415,659.5
224.8655,8423.5
224.9405,200.7
224.9516,109.9
224.9556,128.9
224.9718,211.2
224.9942,163.7
225.0165,303.2
225.0351,791.6
225.0553,37510.4
225.0852,222.4
225.1511,639.4
225.1994,257.5
225.2156,95.6
225.3931,17.6
225.4332,939.7
225.5438,239.1
225.6201,18.1
225.7559,134.9
225.8512,179.1
225.8813,248.2
225.9128,210.3
225.9526,58.6
225.9661,672.3
225.9902,166.8
226.0026,83.2
226.0071,1414
226.0247,8209.1
226.0337,224.3
226.0457,6080.4
226.0585,122.3
226.0856,163.7
226.1348,191.8
226.1535,116
226.217,872.2
226.4892,221.7
226.6447,77.7
226.6712,114.3
226.772,115.1
226.8313,93.4
226.9521,32683.2
226.9823,420.8
227.0134,131.3
227.0304,153.4
227.0346,500.9
227.051,269.8
227.0545,92.7
227.0796,1287.1
227.0867,281.9
227.0939,340.9
227.1555,19.3
227.1924,224.7
227.2256,680.7
227.3967,17.2
227.4302,646.7
227.4567,694.9
227.4908,167.4
227.5032,114.8
227.5634,846.5
227.6651,176
227.8312,136
227.9054,99.3
227.9175,120.5
228.0008,496.1
228.0225,424.9
228.0376,19.1
228.1796,170.2
228.2261,284.7
228.3053,18.4
228.3111,574.5
228.3779,728
228.4135,19.1
228.4249,1138.6
228.5007,137.6
228.5279,162.8
228.5601,757.3
228.657,408.8
228.8116,356.5
228.8213,153.5
228.8318,105.3
228.8401,87.8
228.9117,87.2
228.9808,142
229.0386,195.6
229.2322,149.1
229.3382,449.3
229.3462,861.2
229.3979,18.7
229.4501,422.6
229.5408,239.3
229.5477,141
229.5698,998
229.5709,1060.9
229.5873,147.3
229.6226,79.6
229.6787,167.4
229.699,103.8
229.828,18.7
229.8329,108
229.9576,421.7
229.97,762.7
229.9912,114.2
229.9957,144
230.0113,140
230.034,176.5
230.1025,534
230.1144,557.8
230.1732,454.1
230.226,252.5
230.2653,77.9
230.3722,102.1
230.548,400.2
230.7269,812.2
230.81,533.5
230.8906,23.1
230.9616,23.4
230.9911,928.5
231.0556,23.3
231.0845,655.3
231.1342,156.5
231.1719,19.2
231.2007,274.7
231.3072,440.3
231.314,106.7
231.3234,519.3
231.5168,95.4
231.6518,18.6
231.6663,84.3
231.7096,274
231.7317,217.2
231.7732,119.7
231.7771,100.6
231.8291,478.1
231.9218,623.1
231.9791,400
231.9958,332.1
232.0207,643.6
232.0267,121.6
232.0372,252.8
232.156,117.3
232.211,134.9
232.4072,226.3
232.4608,512.4
232.5154,158.9
232.5544,881.7
232.7106,143.2
232.8973,32704
232.908,148.4
232.9095,188.4
232.9105,197.5
232.9861,1988.6
232.9997,774.3
233.0516,10322.6
233.0999,114.3
233.2789,278.2
233.3434,185.9
233.399,149.2
233.4932,113.4
233.631,97.8
233.6651,120.8
233.8092,694.8
233.812,142.5
233.8551,97.3
233.8785,108.1
234.0702,92.3
234.0797,323.1
234.0952,436.3
234.1072,22.2
234.1672,413.4
234.3499,177.6
234.3603,586.2
234.3663,667
234.4436,579.1
234.4674,195.9
234.5795,129.4
234.6139,21.8
234.647,411.9
234.7546,338.3
234.861,105.1
234.8942,9494.8
234.9122,528.9
234.9168,197.1
234.9231,469.5
234.9821,5817.8
234.9916,862.5
235.0529,764.1
235.0575,5887.8
235.0672,2231.1
235.0731,98.5
235.0932,15005.8
235.1054,90
235.1995,125.9
235.3109,683.6
235.3313,365.8
235.3914,161.3
235.5353,205.1
235.5552,570.7
235.5777,569.2
235.6296,393.1
235.6541,118.4
235.6677,388.2
235.7157,92.6
235.8219,489.8
236.0416,5256.2
236.0598,531.4
236.0722,45940.9
236.0801,682.1
236.0963,134.9
236.3038,936.7
236.3942,76
236.4157,104
236.4516,145
236.4723,96.4
236.496,195.6
236.5079,1236.5
236.6803,949.5
236.7226,202.2
236.7316,155.1
236.7639,17.9
236.8015,412.1
236.8449,143.7
236.865,194
237.0606,89.2
237.0718,29.8
237.0758,2615.9
237.1392,118.1
237.1628,319.1
237.2524,19.9
237.7684,450.5
237.7963,82.3
237.8482,117
237.9079,101.3
237.9743,367.7
238.0034,85.5
238.0409,266.5
238.0681,489.7
238.125,17.9
238.2187,173.2
238.3672,79.4
238.4063,231.9
238.5161,101.6
238.5341,475.2
238.7036,1166.2
238.7458,114
238.7497,93
238.8425,4089.1
238.8533,1080.9
238.8632,465.6
238.9026,81.9
238.9436,22.7
239.0494,174.5
239.0533,329.9
239.0582,85.6
239.0642,574.4
239.0685,2237
239.0806,267.7
239.0849,99.7
239.1084,610.3
239.1922,329.3
239.4094,79.3
239.4258,106.2
239.5192,81.5
239.5405,106.8
239.6176,122.1
239.7071,100.3
239.7542,232.3
239.8183,460.5
239.9225,374.7
240.0317,917.1
240.1111,108.9
240.1351,309.2
240.1739,109.7
240.1972,908.6
240.392,357.3
240.4483,511.3
240.4797,179.2
240.6435,119
240.6669,134.1
240.7498,438.3
240.7616,132.9
240.8081,398.6
240.8131,188.3
240.8395,1446.6
240.9292,20.6
240.9553,1710.1
240.9675,1492.2
241.0096,364.8
241.139,97.6
241.2804,215.4
241.3122,718.8
241.3399,178.9
241.3566,159.8
241.4188,178.7
241.427,18
241.453,434
241.5038,605.8
241.5088,123.9
241.5279,178.3
241.584,205.2
241.6281,91.3
241.732,259.5
241.8066,164
241.8614,90.7
241.9803,160
241.9986,1642.5
242.0196,4162.6
242.1746,112.7
242.2627,419.1
242.2748,98.6
242.3208,697.8
242.5508,134.4
242.6906,79.6
242.7018,422
242.7372,685
242.8497,20.1
242.9262,16385.7
242.9485,140
242.9854,777.3
242.9985,110.5
243.0071,34.7
243.0345,606.8
243.0536,6449.9
243.0659,15688.4
243.0881,385.9
243.1686,872.9
243.2855,210.9
243.3209,325.1
243.3242,322.1
243.3486,368.8
243.4187,78
243.4357,526.6
243.5455,224.4
243.6442,94.9
243.7202,306.5
243.7513,141.7
243.7762,127.5
243.8469,187
243.9368,21.3
243.9734,219.1
243.9759,449.3
244.0132,320.1
244.1186,20.5
244.2916,137.6
244.3905,133.3
244.481,230.7
244.5177,281.6
244.6203,138.9
244.6766,524.7
244.7034,566.3
244.8713,6064.7
244.9274,282.9
244.9989,177.3
245.0071,22.6
245.0221,158.5
245.04,20.2
245.1162,440.4
245.1571,21.5
245.5249,264.1
245.5758,197.9
245.5998,105.3
245.6823,111.1
245.7606,108.2
245.7781,17.6
245.7893,19.2
245.8203,115.9
246.0002,1056.2
246.0116,48.5
246.0516,472.5
246.0845,383.7
246.1467,107.9
246.2129,379.2
246.2808,18.5
246.2932,104.5
246.3435,132.2
246.5633,110.4
246.7846,512.3
246.8299,380.2
246.8683,1227.5
246.8861,395.7
246.9762,18.7
247.0372,2550
247.0672,2240.9
247.0932,5716
247.1633,575.8
247.2732,145.6
247.2799,108.1
247.3027,245.4
247.6595,403.6
247.6821,205.7
247.7657,19.8
247.7705,20.2
247.7786,653.3
247.7822,607.5
247.9494,107.6
247.9897,324.9
248.0109,92.3
248.0821,130.7
248.0969,79
248.1247,17359.1
248.1624,94.8
248.185,186.4
248.2527,137
248.387,162
248.4282,24.8
248.5513,648.8
248.5856,341.8
248.6008,419.4
248.6315,155.2
248.6509,320.5
248.6809,149.5
248.6828,380.5
248.6839,401.7
248.7939,143.5
248.8208,17.7
248.8712,7013.7
248.9603,2998.3
248.9998,986.5
249.0164,1798.6
249.0314,622.1
249.0618,15755.4
249.0903,231.1
249.1091,684.9
249.1458,159.9
249.2457,693.1
249.3783,767.9
249.4201,185.2
249.4855,75.3
249.5206,160.8
249.8114,225.4
249.8899,406.7
249.9184,112.3
249.9513,19.2
250.0146,101.6
250.0385,193.8
250.054,583.5
250.0589,547
250.0655,687.5
250.1184,435.8
250.1554,19
250.1659,21.9
250.1782,714.6
250.1944,18.4
250.2504,24.1
250.3629,98.1
250.4085,769.8
250.5488,681.5
250.5942,921.6
250.8629,372.8
250.8681,1209.4
250.8827,143.1
250.9209,2635.6
250.9561,1898.7
250.9739,119.2
251.0012,118.3
251.0344,1568.9
251.066,461.4
251.0753,133.5
251.2027,416.1
251.2841,441.3
251.4242,305.3
251.6356,183.4
251.656,413.6
251.767,169.6
251.8615,809.3
251.8935,445.4
251.9651,258.1
251.9713,671.3
252.0375,180.4
252.0462,99132.4
252.0581,1127
252.2148,115
252.2307,156.7
252.8244,774.8
252.8499,774.6
252.9058,255.2
252.9181,1674.1
252.9981,46.3
253.0497,5549.1
253.1264,274.7
253.2879,678.7
253.5319,188.8
253.7156,827
253.7172,790.6
253.9093,137.9
253.9505,422.4
254.0046,21.8
254.0442,3186.9
254.071,21.7
254.1416,319.6
254.1702,172
254.2678,181.6
254.3435,17.4
254.3507,125.6
254.4424,147.8
254.5151,601.9
254.6079,73.3
254.6301,351.8
254.8163,539.3
254.8245,7306.9
254.9271,188.8
254.9965,22.6
255.0288,104.3
255.0336,26150.7
255.047,635.9
255.0934,615.7
255.1111,106.8
255.1205,222.8
255.1843,106.5
255.3458,254.3
255.3907,447.4
255.4386,864.4
255.5843,95.9
255.6049,125.8
255.6144,503.2
255.6331,567.2
255.697,141.6
255.7498,779.1
255.7521,862.9
255.7798,212.6
255.9788,924.3
256.0591,125.9
256.1966,197.4
256.2086,287
256.2567,331
256.2705,725.6
256.2963,154.5
256.535,167.7
256.5579,688.6
256.7261,160.7
256.7323,178.5
256.7735,18.9
256.8216,9777
256.909,168.7
256.9292,241.9
256.9624,21.7
257.0131,732
257.0176,426.1
257.0493,7376.3
257.0657,708.4
257.0752,55951.8
257.1468,116.6
257.1652,88.6
257.2082,248.4
257.3611,88.2
257.3756,130.1
257.4476,150.7
257.5782,20.6
257.5974,177.5
257.6021,402.4
257.6553,139.3
257.668,149.5
257.7658,209.2
257.7873,195.8
257.9369,419.6
257.9514,332
258.0294,33.7
258.0538,28.3
258.0657,125.9
258.0701,197.6
258.0748,158.3
258.0787,2276.7
258.1056,461.1
258.1109,29993
258.1164,250.9
258.1659,106
258.2833,492.9
258.3611,314.2
258.4182,398.9
258.5162,322.9
258.5291,181.2
258.5846,193.5
258.69,210.3
258.7283,319.8
258.7505,696.7
258.8187,5885.3
258.9004,1486.2
259.0044,18.5
259.0289,724.1
259.0386,659.6
259.0461,474.8
259.0869,19
259.1157,93.7
259.3884,709.7
259.4144,267.9
259.463,614.3
259.5166,19.5
259.5255,1465.9
259.5332,621.5
259.6171,105.6
259.644,553
259.6519,126.2
259.6847,832.1
259.7241,207.9
259.8274,392.2
259.8687,325.5
259.9421,410.3
259.944,551.1
260.0177,70.6
260.0796,117.7
260.1844,88.9
260.2743,126.6
260.4559,135
260.4682,120.7
260.5755,500.7
260.5938,102.5
260.7957,125
260.8209,1018.3
260.8301,188.6
260.8456,1667.2
260.8703,286.3
260.9152,194.2
260.9496,9132.1
261.0468,285.8
261.2415,143.9
261.3323,471.1
261.3507,18.4
261.4051,81.6
261.4538,406.7
261.4935,119.9
261.8403,302
262.0029,215.6
262.0821,998.5
262.1305,424.9
262.1905,174.5
262.2889,539.9
262.3591,171.9
262.3656,17.7
262.3733,499.5
262.4882,445.6
262.5254,431.9
262.6257,89.7
262.8425,432.9
262.8676,596.7
262.8854,118.7
262.8997,422.8
262.9175,16.8
262.9468,1352.7
263.0137,634
263.0322,99.5
263.0857,4447
263.1134,165.9
263.2451,100.8
263.3351,379.9
263.5876,493.9
263.6308,176.9
263.6355,812.6
263.6603,116.9
263.7049,400.4
264.095,612.1
264.221,143.4
264.3679,195
264.4674,290.4
264.4748,123.3
264.6981,681.7
264.7259,116.5
264.8454,882.8
264.8533,4030.6
264.9234,96.7
264.9341,2866.6
264.9741,484
264.9892,511.8
265.0169,211.6
265.0247,620.8
265.0308,158.8
265.0358,8031.6
265.0478,6210.3
265.0647,455.1
265.1083,89.2
265.1905,74.4
265.2025,78.3
265.4341,218.3
265.4384,253.3
265.4535,22.3
265.4783,954.5
265.5814,194.8
265.6819,22.5
265.6923,19.1
265.8047,395.1
265.8142,97.2
265.935,385.5
265.9699,189.6
266.1311,154.8
266.2065,24.4
266.2461,425.6
266.37,186.5
266.5212,425.4
266.6902,84.7
266.8098,134.7
266.8503,5171.6
266.8673,81.7
266.8949,2666.7
266.93,562.1
266.9331,377.5
267.0037,757.1
267.0146,168
267.0232,522.1
267.0574,209.5
267.3549,103.5
267.4047,112.1
267.6513,169
267.6681,162.4
267.6904,101.4
267.9934,21.6
268.0322,1599
268.0665,410
268.1682,833.8
268.2135,90.3
268.3639,102.5
268.6327,180.8
268.8215,101.2
268.8255,130.7
268.8313,138
268.8472,604.5
268.8917,1370.4
268.9553,172.1
269.013,51.6
269.0272,19.7
269.0308,243.2
269.0365,199.4
269.0455,21279
269.0493,44190.9
269.0786,143.4
269.1446,160
269.3599,374.1
269.4423,192.1
269.5007,98
269.5426,96.9
269.5578,879.6
269.575,325.2
269.6296,192.7
269.6925,989.1
269.8747,746
269.9946,1488.7
270.0254,1218
270.0416,142.6
270.048,30784.6
270.0848,18.3
270.142,441.9
270.1456,2307.7
270.4892,143
270.5289,574.1
270.6685,105.5
270.6943,561.6
270.7984,3894.8
270.9137,116.1
270.9786,13533
270.9933,114.4
271.0247,231.4
271.029,52.9
271.0514,365.4
271.0709,136.3
271.0785,1557.3
271.0908,689.7
271.1319,99.4
271.1668,170.9
271.1909,194.4
271.199,189.8
271.2572,188.6
271.2647,104.8
271.3051,280.6
271.3509,27.9
271.8233,230.6
272.0441,89.9
272.0552,24.6
272.0644,169
272.0807,1062.4
272.0906,50.6
272.1298,80.9
272.1677,114.1
272.2084,305.2
272.3428,19.1
272.6272,79.2
272.6735,88
272.7955,7018.9
272.8111,158.7
272.8405,140.9
272.931,408.5
273.0277,428.7
273.0492,3367.2
273.217,89.9
273.2494,298
273.2707,585.5
273.3997,111
273.4219,22.6
273.4646,280.9
273.4858,105.4
273.5954,99.3
273.6358,154.8
273.7457,18.9
273.812,517.8
273.9979,23.2
274.0414,24.9
274.0695,175.7
274.0932,1864.5
274.1316,265.5
274.1769,19.4
274.1995,230.1
274.2729,20.2
274.2899,127
274.7629,182.8
274.7689,645.9
274.7925,1929.6
274.8564,21.9
274.8663,19.4
274.8745,720.4
275.1184,283.5
275.1382,667.6
275.1553,98.3
275.1866,120.2
275.2141,394.4
275.2778,623.3
275.2885,99.3
275.3653,16.9
275.4804,19.2
275.645,113
275.7373,1058.6
275.8342,156.9
275.9217,300.7
275.9312,109.8
275.9397,703.8
275.9683,92.6
276.0042,139.5
276.0454,107.1
276.0857,99.6
276.0925,22
276.1414,435.5
276.1897,126.8
276.2452,159.1
276.3469,119.2
276.383,107.6
276.405,18.2
276.4913,20.6
276.5072,117.9
276.5515,652.7
276.57,292.5
276.682,194.1
276.9236,6815
277.0735,149.2
277.0955,4402.8
277.1033,203.1
277.202,569.4
277.2695,189.6
277.293,82.8
277.3403,131.8
277.362,250.2
277.4985,186.5
277.5421,18.4
277.61,249.3
277.6444,142.7
277.6571,245.1
277.7035,144
277.841,600
278.0007,20.7
278.0197,545.7
278.0374,19.4
278.0999,175.4
278.2791,112.2
278.3747,905.6
278.8033,606.1
278.8476,137.8
278.8949,97.1
278.9021,926.3
278.9202,544.3
278.9879,464.4
279.0127,769.4
279.0227,26.1
279.0284,797.9
279.0503,173.9
279.0573,44880.7
279.1845,153.9
279.2331,21.4
279.3268,638.9
279.4203,20.5
279.5002,620.2
279.5494,18.8
279.5543,98
279.5941,339.9
279.6054,103.7
279.7945,490.3
279.853,118.7
279.8614,20.3
279.8661,496.4
279.8783,115
279.8887,18.7
279.9794,403.4
279.9997,24.1
280.0167,336.3
280.0603,975.6
280.0931,2774.2
280.1499,116.7
280.1983,337.1
280.2055,609.4
280.3252,396.6
280.4102,18.4
280.4544,79.9
280.6179,445.4
280.7419,297.8
280.8274,2465.2
280.9525,143.8
280.9629,471.3
280.9809,17.8
281.0025,108.7
281.0098,365.8
281.0522,85.2
281.0628,183.4
281.0979,725.7
281.1691,19.8
281.179,427.9
281.355,137.3
281.4132,1027.1
281.4191,19.7
281.5797,323.9
281.6421,18.6
281.7313,125.7
281.827,88
281.8384,98.9
281.9663,107.4
282.0154,143.7
282.0531,23.2
282.0654,507.1
282.1354,81.9
282.2889,143.3
282.4973,19.4
282.5173,261.6
282.5741,216.7
282.6037,94.1
282.6272,251.4
282.7998,563.8
282.8244,2647.1
282.8362,102.5
282.8492,138.1
282.8555,369.5
282.869,500.1
282.9204,347
282.9415,720
282.9696,114.9
282.999,225.2
283.0289,1308.8
283.0657,23.8
283.0689,36.7
283.0944,905.5
283.2321,583.6
283.2373,104.8
283.2642,46.9
283.3105,115.8
283.3444,125.8
283.349,203.6
283.3722,18.1
283.4281,693.3
283.468,222.6
283.4949,265.8
283.6629,406.1
283.9277,256.5
284.0009,193.4
284.029,579
284.0513,48.4
284.0534,46.3
284.0652,513.7
284.0827,303.6
284.1598,103.5
284.3172,19.4
284.3325,19.8
284.5682,18.7
284.6132,168.9
284.7404,297.5
284.8536,660.3
285.0406,20.5
285.1242,2181.3
285.2361,129.8
285.2982,162.8
285.3183,136.6
285.4768,160.4
285.5071,319.3
285.6159,96.9
285.6606,115.5
285.8461,172.8
285.8558,184.9
285.8933,337.3
285.9449,146.8
285.9682,831.8
285.9772,137.2
285.9814,598.7
285.9982,93.8
286.0219,682.1
286.0587,158.5
286.0972,57.1
286.1025,460.2
286.1337,391.6
286.1644,104.3
286.1845,252.7
286.5341,318.5
286.5845,139
286.5954,543.7
286.6311,112.3
286.6386,18.7
286.6732,20.4
286.7475,136.1
286.7726,1444.2
286.7869,116.6
286.8879,329.8
286.9525,5048
286.9989,62.5
287.0478,166.4
287.056,49275.2
287.0666,74.9
287.1013,355.9
287.1065,87.3
287.1932,857.1
287.2073,415
287.2747,20.6
287.3998,136.3
287.4477,715.4
287.4817,496.2
287.5001,123.5
287.552,113.3
287.62,679.5
287.6571,210.5
287.6729,135.2
287.883,152.8
287.9036,108.9
287.9452,371
287.9544,479.3
287.9987,395.9
288.0593,1387.5
288.0855,146.6
288.1562,29917.5
288.342,425.8
288.3727,108.9
288.4747,435.4
288.5134,595.7
288.5571,138.5
288.665,129.2
288.7011,19
288.7696,2860.1
288.8104,25.7
288.8413,103.2
288.8657,384.7
288.881,2679.1
288.8925,3638
288.9024,4258.2
288.9172,11704.7
288.9236,14860.7
288.9276,12391.8
288.9349,15497.5
288.9403,18065.5
288.9442,17368.7
288.9505,20359.6
288.953,19740.6
288.9578,16156.4
288.9634,19962.3
288.969,22244.8
288.9765,15972.7
288.9831,14034.5
288.9948,6103.9
289.0002,3087.2
289.006,2479.1
289.0181,1015.6
289.0208,1092.5
289.0305,125.8
289.0555,612
289.0631,120.3
289.1083,107
289.1596,2189.8
289.1654,251.8
289.2039,19.7
289.2123,461.2
289.4073,244.2
289.4244,200.6
289.5172,133.7
289.5228,100.8
289.5314,99.2
289.6223,22.2
289.7529,723.7
289.9268,387.8
290.0732,123.7
290.1003,21.7
290.1452,512.1
290.3989,183.3
290.4349,120.4
290.4712,116.9
290.5271,20.7
290.7624,580.6
290.7664,995.8
290.8621,284.4
290.9945,24.8
291.0273,6751.1
291.0326,228
291.0768,462.7
291.2175,134.1
291.3916,576.4
291.4726,158.1
291.5349,296.9
291.7402,17.2
291.8012,85.6
292.0155,989.5
292.0605,20.1
292.0804,159.9
292.1036,837
292.2469,545.2
292.3037,20.1
292.5546,523.7
292.619,187.1
292.7633,421.8
292.8092,110.7
292.8799,223.1
292.8979,545.1
293.0061,244.2
293.018,229.2
293.0701,7998.2
293.0989,409532.8
293.157,389.9
293.1797,4534.6
293.3646,21.7
293.3801,185.3
293.4449,82
293.6234,20.7
293.6496,214.8
293.979,457.6
294.0961,572.2
294.1023,37744.1
294.1837,977.5
294.199,622.5
294.261,606.9
294.2957,144.5
294.3161,153
294.321,441.4
294.6301,18.2
294.7247,461.7
294.7496,154.7
294.8681,895.8
294.9608,171.5
294.9913,454.9
295.0135,187.7
295.026,405.5
295.0315,644.3
295.103,1797.2
295.1731,89.3
295.1953,25628.9
295.3305,93.8
295.3994,17.2
295.4505,129.2
296.0025,292.8
296.0447,684.8
296.0671,588.3
296.1988,3420.3
296.3208,208.7
296.3968,792.5
296.5077,102
296.572,117.7
296.637,421.1
296.6818,164.7
296.7049,121.1
296.8253,447.1
296.9227,19.7
296.9882,279.6
297.031,20.1
297.0429,326.7
297.1118,472.5
297.1303,79.7
297.1359,803.2
297.4401,115.8
297.4783,480.4
297.7572,623.7
297.7691,848
297.8418,703.1
297.9896,24.1
298.036,128.1
298.0429,19802.5
298.0981,89.5
298.1364,115.3
298.211,122.3
298.2597,112.4
298.4712,252.6
298.4988,507.7
298.5045,293.8
298.5134,102.5
298.798,524.1
298.8742,17.7
298.9229,567.6
298.9871,164.8
299.0236,2411.3
299.0464,692.1
299.0529,151.6
299.1114,684.9
299.1399,6724.6
299.1542,19.9
299.1703,198.2
299.1968,974.3
299.3444,116.9
299.3653,90.1
299.4785,230.1
299.6294,96.5
299.6611,124.5
299.6925,23.4
299.6959,18.7
299.7688,543.3
299.8201,502.1
299.9612,471
300.039,264.3
300.049,65.7
300.0761,514.1
300.1968,45.4
300.2397,304.5
300.3645,180.5
300.3832,81.3
300.7244,299.2
300.7321,108.2
300.9168,132.1
300.9213,121
300.9872,553.1
301.0016,1019.8
301.0224,644.5
301.0392,25045.8
301.0636,21.1
301.1014,299.2
301.1422,224.9
301.1725,356.2
301.2123,1860.3
301.2763,17.6
301.3915,17.1
301.495,193.4
301.544,73.5
301.6357,165.1
301.6521,103.6
301.6542,114.9
301.702,83.2
301.7304,18.9
301.7407,159.4
301.8107,126.9
301.8812,92.1
301.8923,340.9
301.9751,621.2
302.0204,104.1
302.0352,263.5
302.0648,5018.5
302.0735,30
302.1112,665.1
302.3998,1228.9
302.524,106.3
302.5255,102.2
302.5279,91.6
302.6031,420
302.6947,291
302.7063,505.4
302.7114,858.5
302.7411,823.5
302.7443,915.5
302.7919,655.2
302.8303,3116.4
302.9265,995.8
302.9585,213.6
303.0681,488.2
303.0745,1173.7
303.2181,1682.6
303.2414,246.8
303.3103,267.5
303.4852,133.1
303.5109,195.2
303.5849,610.6
303.7726,824.4
303.8631,24.7
303.9478,667
303.9806,461.2
304.0179,18
304.0373,466.4
304.0606,203.1
304.0904,120.9
304.132,97.6
304.5432,412.4
304.6447,189.8
304.731,20.7
304.7433,703.1
304.7558,592.2
304.8271,1817
304.882,899.6
304.9309,277.9
304.9547,114
304.9828,419
305.0405,278.3
305.1148,17.6
305.1798,18.3
305.2089,759.6
305.2464,979.2
305.3537,516.2
305.3796,86.3
305.8214,183.2
305.8506,18.5
305.9706,102.1
306.0054,136.9
306.0769,759.3
306.0884,269.1
306.0995,546.5
306.1528,106.3
306.346,87.4
306.3698,581.3
306.38,112.7
306.4294,135.6
306.4563,1084.8
306.5867,373.9
306.5963,23.1
306.6483,543
306.9775,2178.7
306.9994,701.8
307.0991,24.7
307.2363,87.6
307.3014,234
307.4259,547.9
307.4701,311.1
307.5584,209.8
307.6973,108.7
307.9587,381.3
307.9994,120
308.319,208.7
308.4148,547.6
308.4415,840.1
308.4892,300.9
308.5199,400.5
308.5459,605.3
308.8514,108.8
308.8796,2833.8
308.9314,457.5
308.9765,577.7
309.007,381.4
309.0163,693.3
309.0382,5597.7
309.0831,2149.9
309.1109,82.4
309.2338,88.2
309.419,489.1
309.5152,129.5
309.607,135.2
309.6234,171.4
309.7361,169.1
309.8613,128.7
309.8829,19.7
309.9309,907.8
309.9544,79.9
310.0457,646.2
310.1274,150.4
310.1819,871
310.372,86
310.4997,650.1
310.5895,407.4
310.6028,182.4
310.6113,122.6
310.6204,590.1
310.7221,20.1
310.7435,18.5
310.842,116.6
310.8765,2560.6
310.9289,342
310.9359,293.2
310.9618,155.6
311.004,198.7
311.0456,362.6
311.0913,110.5
311.1441,449.4
311.5462,71.9
311.6453,874.9
311.6664,202.2
311.7997,108.5
311.8816,117.1
311.9564,320
312.0101,521.3
312.0413,1298.4
312.1288,193.2
312.2249,87.9
312.2685,146.5
312.446,189
312.4496,436.2
312.5052,775.2
312.6023,192.6
312.6205,154.3
312.6499,181.6
312.6949,20.9
312.7651,90.2
312.7954,111.7
312.8601,604.5
312.8757,97.2
312.8901,276.3
312.945,153.9
312.9584,111.8
313.0027,50.7
313.034,148.5
313.2747,53306.9
313.2819,184.9
313.3164,539.7
313.4566,486.5
313.7315,296.8
313.8784,155.2
314.0155,390
314.0918,216.8
314.1263,103.9
314.2189,504.7
314.2783,4921.5
314.6494,494.6
314.6759,246.3
314.6889,106.5
314.7358,153.3
314.7476,855.8
314.7761,117
314.78,435.9
314.8377,6412.7
314.9023,616.8
314.9532,169.6
314.9669,656.5
314.9998,6144.6
315.0352,269.5
315.0438,588.7
315.0455,509.7
315.048,369.1
315.0562,7860.8
315.058,4809.8
315.0609,4535.5
315.0671,22766.6
315.0701,29954.7
315.0809,9388934
315.0889,24191.6
315.091,18371.4
315.093,11768.4
315.095,10205.8
315.1005,4635.6
315.1048,3650.6
315.1091,2868.1
315.1152,661
315.1179,588.9
315.1259,180.1
315.1306,377.8
315.1621,6179.6
315.2034,111.4
315.2105,195.9
315.2603,449.1
315.2706,816.4
315.3244,8962.9
315.3948,930.5
315.4868,1074.9
315.6041,140.2
315.6187,588.2
315.6753,192.1
315.6805,101.7
315.9147,122.4
316.0538,49.5
316.0703,813.4
316.0783,53505.3
316.0842,988944.3
316.1122,617.2
316.218,471.7
316.3902,414.3
316.4248,186.4
316.5867,255.1
316.7529,915.6
316.7958,1132.8
316.9218,322.6
317.0128,160.6
317.0568,763.5
317.0659,2354.1
317.0848,112783.1
317.1056,572.1
317.2332,396.5
317.2633,412.5
317.2868,115.4
317.5421,185.8
317.5729,1137.3
317.6408,194.8
317.7021,137.7
317.7749,204.8
317.956,74.5
318.0119,107.3
318.0883,12626.2
318.1242,97.5
318.1741,316.9
318.1888,867.8
318.2063,119.1
318.2489,465.9
318.3349,401.2
318.3906,346.6
318.5324,333.7
318.6093,328.2
318.6674,708.5
318.76,342.2
318.7932,27.8
318.8039,1779.8
318.8819,460
318.9076,412.8
318.982,142.3
319.0668,183.9
319.1506,150.5
319.1954,49944.3
319.3609,244.2
319.7331,20.7
319.768,487.1
319.934,105.7
320.0117,127.2
320.0755,221.9
320.1988,5175.2
320.2247,753.1
320.2595,1644.2
320.3181,567.2
320.4945,677.1
320.5671,143.8
320.7403,111.2
320.914,245.7
320.9391,239.2
320.9856,328.7
321.0334,16.6
321.2111,63305.7
321.2626,38.8
321.3246,125.3
321.5241,569.2
321.8195,546.1
321.8353,141.3
321.9681,142.6
321.9724,213.5
321.9925,654.3
322.0097,234.2
322.1245,211.6
322.1428,717.9
322.1738,97.5
322.2144,8652.6
322.3056,80.5
322.3923,189.8
322.8127,811.2
322.868,128.8
322.8871,965.3
322.9328,1024.3
322.9698,489.5
323.0212,11285.9
323.1157,438.4
323.1809,17.8
323.1893,92.6
323.2266,1661.2
323.2457,704
323.3058,100.1
323.332,75.8
323.6603,20.2
323.7542,144.3
323.8374,110.4
323.908,324
323.9451,716.6
324.0032,459.2
324.0601,251.5
324.4379,86.7
324.5236,568.2
324.5858,1305.2
324.5931,4837.5
324.6056,3177.7
324.6107,1001.5
324.6152,1102.9
324.6217,735
324.6909,164.2
324.7892,267.4
324.8092,544.6
324.82,849.6
324.8539,1496.5
324.9533,943.4
324.9845,295.8
325.0028,1404.7
325.0569,533.7
325.0753,460.5
325.1081,144.5
325.1853,215.6
325.2126,6939.1
325.3636,200.2
325.3885,152.8
325.4182,444
325.7599,610.6
325.8497,216.2
326.0054,103.3
326.0863,162
326.2151,117.5
326.2294,491.3
326.2988,17.9
326.3319,1049.5
326.4982,99.4
326.5715,136.7
326.6431,24.2
326.6778,138.9
326.7501,506.8
326.8508,2039.2
326.8797,710.3
326.9305,107.8
326.9966,395.9
327.0073,20.1
327.0164,2933
327.0527,837.4
327.1869,713.8
327.2184,586.4
327.2279,18425.8
327.4124,155.5
327.538,500.3
327.7448,414.2
327.831,128.6
327.8402,599.2
327.9268,113.6
327.9387,119.4
327.9993,149.8
328.2099,19.8
328.231,1491.2
328.3261,416.7
328.3579,221
328.4269,676
328.4364,104.5
328.4608,1135.8
328.4886,548.6
328.6329,153.1
328.6473,180.1
328.7376,109
328.7612,107.6
328.7716,81.2
328.83,219.7
329.0724,270.1
329.0968,3275.1
329.2552,670.3
329.2974,219.6
329.4669,137.1
329.6642,839.2
330.0597,238.6
330.2408,161.7
330.4117,334.7
330.4523,765.6
330.568,923.7
330.6184,137.4
330.6711,116.6
330.8296,98.3
330.8978,18.5
330.9273,382.1
330.9402,230.2
330.9582,581.1
330.9713,94.2
331.0202,1798.7
331.0367,100.5
331.0461,158226.7
331.0549,1357721.6
331.1017,186.7
331.1136,442.1
331.1319,107.1
331.1422,144
331.2956,19.6
331.3162,688.4
331.4791,620.8
331.5691,115.6
331.7326,110
331.7986,776.9
332.0489,10766.7
332.0583,121693.4
332.0778,18.4
332.1086,112.3
332.2451,124.7
332.4003,306.5
332.6183,425.2
332.7176,21
332.8704,244.4
332.8819,602.2
332.9609,1201.7
332.9709,251.9
333.053,78282.5
333.0586,15060.6
333.1208,491.9
333.1594,406.5
333.1732,20
333.2275,79.9
333.3825,205.4
333.4404,854.1
333.5261,19.3
333.6864,458.4
333.961,453.6
334.0564,6216.2
334.062,287.6
334.0913,75.6
334.244,636.7
334.4565,451.9
334.4655,131
334.8381,485
334.9294,93
335.0048,220.4
335.0215,355.4
335.0387,1346
335.2429,105.6
335.3535,216.3
335.9081,462.1
336.0629,387.9
336.1326,101.1
336.1706,200.8
336.2431,193.8
336.2701,936.5
336.613,146.5
336.6936,156.1
336.7191,884.7
336.9571,132.6
337.0371,11489.3
337.0505,25831.2
337.0629,790873
337.0767,712.5
337.0973,305.4
337.106,310.4
337.1183,171.9
337.1657,20.9
337.2378,392.4
337.2748,13912.5
337.3015,105.2
337.4373,219.9
337.5286,1004.3
337.765,90.8
337.8985,205.9
337.9233,565
337.9428,974.1
337.9732,570.6
338.0508,1049.6
338.0663,70287.9
338.1169,734.1
338.256,208.3
338.3435,28.4
338.3886,97.3
338.4737,134
338.5663,404.5
338.7108,610.3
338.725,135.8
338.7729,341
338.7873,347.3
338.8613,19.7
338.9075,908.4
338.9222,552.2
339.0391,2944.5
339.048,962.7
339.0668,7589.2
339.2515,2858
339.2904,12853.6
339.657,83.4
339.7643,146.4
339.8674,683.7
340.0236,640.4
340.0434,403.9
340.095,445.8
340.3897,105.7
340.7837,573.2
340.879,103.6
341.071,98
341.0993,918
341.1537,742.5
341.3061,6886.7
341.5953,91
341.6145,174.9
341.6403,135.6
341.6845,19.8
341.7275,487.2
341.9467,352.3
342.005,731.6
342.0161,251.7
342.1172,386.1
342.238,18.4
342.3563,95.2
342.3793,231.8
342.3912,93.3
342.5329,175.6
342.7777,281.6
342.8141,180.7
342.8699,507.8
342.9901,1383.1
343.1073,113.4
343.1108,122.3
343.1955,18733.2
343.243,645
343.3188,1231.6
343.3996,26.8
343.5215,643
343.6697,517.5
343.7767,822.9
343.9379,389.8
344.1602,308.9
344.1906,75.8
344.1988,2633.8
344.2247,106.8
344.2728,303.6
344.3675,334.6
344.5192,199.7
344.5758,156.1
344.8386,493.1
344.8848,21.1
344.9907,364.5
344.9934,383.5
345.1076,182.5
345.2023,19.1
345.211,2149.4
345.4593,90.2
345.5574,115.3
345.661,1024.4
345.7684,20.3
345.9847,2293.5
345.9945,205.6
346.0106,29.6
346.0161,454.4
346.041,1012.1
346.0873,105.8
346.1207,9499.7
346.1856,109.9
346.2047,202.7
346.3166,202.5
346.4909,89.4
346.5637,531.6
346.747,165.5
346.7968,202.1
346.858,274.8
346.9113,121.9
347.0984,205.9
347.5933,112
347.6866,195.1
347.7601,90.2
348.1482,17.9
348.281,622
348.4968,177.5
348.5249,346.4
349.1571,138.8
349.3821,410.3
349.5568,269.6
349.7345,373
349.7791,265
350.014,29.5
350.0192,902.1
350.0943,90.7
350.1938,259.7
350.2207,389.6
350.285,17
350.3554,377.9
350.5113,219.1
350.5436,483.4
350.5601,618.2
350.6581,718.9
350.7154,101.2
350.7218,441.3
350.811,528
350.9449,111.4
351.1916,953.8
351.2224,141.8
351.2895,626.2
351.358,102.8
351.3676,106.6
351.3733,238.8
351.4958,117.3
351.5406,144.5
351.5539,761.1
351.5587,696.5
351.7121,115.7
351.8599,105.2
351.8674,86.6
351.9718,1003.7
352.0491,946.8
352.2115,20
352.314,102.6
352.4458,249.2
352.8439,159.1
352.8988,961.3
352.909,343.3
353.028,177130.5
353.0369,250692.1
353.0827,646.6
353.1106,199.4
353.3663,496.9
353.6698,118.2
353.7961,894.7
353.8674,719.3
353.875,22.3
353.9128,383.3
353.9771,120.3
354.0312,16900.6
354.0403,23010.2
354.0636,515.8
354.1528,103.6
354.1604,298.8
354.438,631.1
354.6793,243.6
354.7734,334.8
354.7816,398.5
354.9255,742.2
355.0126,1760.6
355.0352,14511.6
355.0715,463.7
355.154,738.8
355.1843,174.6
355.8664,431
355.9961,93.3
356.0159,127.3
356.6086,212.6
356.7815,312.5
356.8271,18.5
356.8731,436.5
356.903,421.3
356.9696,108
357.0096,851.2
357.0209,309.8
357.2279,192.7
357.2362,19.6
357.2547,655.2
357.4973,174.5
357.5571,116.4
357.5955,693.4
357.6347,117.1
357.6416,494.7
357.6506,916.4
357.6611,603.5
357.7402,757.8
357.8114,108.1
357.9622,80.8
358.0096,60.8
358.0881,173.9
358.1423,22.1
358.1987,176.4
358.3435,837.4
358.6369,79.6
358.9247,283.3
358.9787,605.3
359.0099,725.9
359.0324,17411
359.0449,461875.4
359.0648,1061.3
359.0932,332.4
359.0968,397.3
359.1803,845.7
359.292,123.6
359.3292,417.4
359.4174,757.3
359.4496,730.5
359.4523,676.7
359.4729,992.5
359.4795,207.6
359.494,717.7
359.5132,903.6
359.5642,21.3
359.6128,180.2
359.9586,155.4
359.9789,222.3
360.0111,26.8
360.0482,42807.3
360.1066,343.5
360.1114,800.4
360.2017,348
360.325,312.5
360.406,542.8
360.5055,757.6
360.6906,492.3
360.8608,116.8
360.9215,145.4
360.9478,363.6
360.9935,108.6
361.0084,24.8
361.0212,6032.1
361.0298,369.1
361.0488,1682.8
361.1348,113
361.275,1317.8
361.3292,23.8
361.4531,408.9
361.6584,872.3
361.9727,363.2
362.0617,109.6
362.0944,668.1
362.1082,181
362.2788,115.6
362.3785,307.9
362.3892,201.8
362.4404,317.6
362.4576,192.5
362.7062,171.5
362.9277,898.9
363.0479,194.7
363.2617,508.3
363.7743,379.3
363.7916,24.7
363.8674,88.9
364.0598,21.7
364.2593,102
364.6115,102.2
364.6229,123.4
364.8467,94.5
364.9505,1012.6
364.9585,433.8
364.9969,201
365.0993,473.6
365.1065,2651
365.143,18.5
365.2316,112.1
365.265,17.8
365.3824,451
365.7977,122.4
365.9746,286.8
366.0266,298
366.0937,22.7
366.2974,84
366.3714,99
366.4937,376
366.5503,187.4
366.8745,716.6
366.8994,426.3
367.0703,141
367.1959,1158.9
367.2742,161.7
367.3513,457.5
367.3774,132.9
367.6314,336.7
367.6488,596.2
367.7539,19
367.8269,23.9
368.0102,728
368.1031,634.2
368.1728,815.5
368.2942,144.9
368.4192,105.9
368.4528,402.4
368.5069,426.8
368.5304,726.2
368.5524,163.5
368.614,123.1
368.7919,118.8
368.8255,212.4
368.9313,144.9
368.9527,127.9
368.9927,5097
369.002,21489.7
369.011,9279.8
369.2047,833.3
369.2149,547.8
369.2249,442.8
369.2473,82.7
369.3053,199.3
369.353,20.8
369.6297,19.1
369.7069,557.6
369.7788,655.9
369.9297,264.3
370.0057,302
370.028,158.4
370.1385,674.1
370.1819,19.6
370.4383,26.1
370.5271,152.1
370.5878,277.3
370.6053,217.6
370.6662,161.9
370.7616,133.5
371.009,214.6
371.0426,333.2
371.1539,153.1
371.2792,286
371.308,86.7
371.3203,22.8
371.5935,729.6
371.6667,20.3
371.768,629.5
371.9849,395.6
372.0322,218.7
372.199,147.1
372.4782,259.1
372.6404,22.1
372.6942,216.1
372.7578,102.9
372.7958,109.2
372.8726,353.4
373.1838,578.6
373.2019,482.5
373.4633,282.5
373.5633,121.2
374.0172,615.1
374.0563,95.1
374.168,130.4
374.1821,208.3
374.4387,90.8
374.4547,913.1
374.531,75.7
374.5886,709.2
374.6452,893.1
374.7364,344.3
375.0099,167372.8
375.0189,135807.4
375.0506,154.4
375.0929,137.8
375.1152,102.2
375.3708,21.6
375.697,143.8
375.866,243.6
376.013,13271.4
376.0223,13089.3
376.1308,205.8
376.1976,178.4
376.2271,817.3
376.2533,773.1
376.3823,1809.2
376.3942,919.7
376.4283,247.4
376.511,743.1
376.5332,96.6
376.586,851.4
376.595,656.4
376.6009,27.1
376.7787,197
376.9227,75
376.9409,578.6
376.9949,1328.5
377.0174,6486.9
377.0492,690.4
377.1062,322.3
377.1288,657.9
377.1494,84.9
377.1714,191.7
377.2116,88.4
377.2818,385.6
377.3498,119.9
377.6628,262
377.7462,889.8
377.9579,280.8
378.0889,19.3
378.1291,81.4
378.171,584.4
378.3356,311.9
378.3648,383
378.3888,149.7
378.4069,19
378.5566,174
378.5855,228
378.7142,18.8
378.966,156.1
378.9917,82.5
379.0055,261
379.0799,155.8
379.1369,112
379.2541,968.1
379.3649,92
379.5495,104.6
379.6137,715.1
379.6971,372.8
379.8895,307
380.0828,730.3
380.1166,590
380.3434,295.6
380.3966,362.3
380.4376,329.7
380.6556,547
380.7706,147.7
380.8112,412
380.8802,306.4
380.991,23.2
381.0143,25031
381.0269,245087
381.0371,87.3
381.0497,19
381.1127,78.5
381.1894,136.1
381.2105,19.2
381.4383,356.2
381.6788,140.9
381.9847,128.3
381.9956,168.7
382.0153,413.6
382.0302,18426.8
382.0658,334
382.1948,583.9
382.2824,1472.1
382.3767,148.4
382.6438,19.5
382.7679,535
382.8151,640
382.8741,388.6
382.9663,140.9
383.0303,268.6
383.0851,1087.9
383.1172,210034.7
383.1587,815.2
383.1753,365.7
383.1789,461.5
383.2708,148.8
383.8076,105.1
383.8181,314.4
384.0665,254.2
384.0731,117
384.1205,23115.1
384.2563,560.6
384.3363,18.9
384.4943,394.2
384.6731,148.6
384.7653,718.8
385.1144,18.4
385.1205,2054.2
385.1863,101
385.2267,551.1
385.5427,21.9
385.7065,107.1
385.7512,890.7
385.794,133.4
385.809,223.5
385.8234,41.9
385.8725,505.1
385.9801,263.9
386.286,86.6
386.3798,127.6
386.4239,184.5
386.5088,309.4
386.6066,21.3
386.7236,91.9
386.7456,265.3
386.9086,268
387.003,2133.9
387.0299,225.4
387.0333,345.4
387.2157,476.4
387.3491,97.8
387.4516,323.2
387.5273,274
387.9268,134.5
388.0879,136.8
388.187,796.9
388.2954,161
388.5194,189.4
388.5291,79
388.7541,446.7
388.886,152.6
388.9767,684.6
389.1991,636.9
389.474,390.1
389.5281,102.7
389.7558,396.3
389.8095,634.7
389.8781,117.4
389.9126,397
389.9747,2586
390.0165,160
390.07,141.5
390.2076,340.4
390.3568,895.2
390.4515,562.4
390.5856,809.1
390.8877,250.9
390.9012,646.4
390.9749,14830.9
390.9839,28860
390.9928,13844.9
391.0931,513.9
391.1762,212.1
391.2758,301.2
391.8528,140.3
391.8651,19.8
391.8936,135.8
391.9388,120.2
391.9868,1042.5
392.0098,129.8
392.0426,94.4
392.22,99.6
392.281,17.1
392.4055,174.5
392.565,115.3
392.6455,715.7
392.797,1358.7
392.9589,56
393.0464,104.3
393.0988,149
393.2449,123.1
393.3498,439.2
393.6868,613.5
393.8373,178.2
393.9132,101.5
394.2742,439.8
394.305,912.8
394.3855,136
394.5708,147.6
394.7488,849.5
394.7619,146
394.7934,446
394.8712,739.5
394.9687,483.5
394.9891,84.1
395.1523,289.8
395.1843,544.6
395.2571,157.7
395.2891,111.2
395.3523,121.7
395.3833,147.8
395.467,126.6
395.4979,358.2
395.5018,375.9
395.5586,116.4
395.6431,418.2
395.7255,342.8
395.7592,712.2
395.9483,147.5
395.9991,221.6
396.1698,359
396.2629,1105.9
396.4846,156.3
396.5172,366.6
396.5589,111.2
396.5891,829.5
396.878,95.5
396.992,196701.9
397.0009,73714.2
397.0533,933
397.0773,916.4
397.4085,572.8
397.5029,211.1
397.7111,435.3
397.9565,771.3
397.9951,15869.6
398.0043,5178
398.2053,579
398.5781,122.8
398.7253,17.7
398.7415,2439.8
398.7628,1146.8
398.8401,142.2
398.9239,348.7
398.9575,103.1
398.9767,90.7
398.9998,1258.6
399.1537,763.2
399.3172,739.3
399.4375,388.6
399.4525,417.7
399.5023,698
399.522,149.4
399.6092,99.6
399.8542,18
399.904,323.8
400.0824,281.9
400.117,123.3
400.2775,117.3
400.3057,228.7
400.352,106.1
400.4113,227
400.4445,395.2
400.531,185.6
400.7381,476.5
400.7889,548.9
400.941,374.5
400.9714,28.4
400.9848,421.7
401.0525,110.9
401.5376,375.1
402.2134,103.3
402.6324,557.7
402.8252,1273.3
402.9228,185.9
402.9857,1131.6
403.0089,268541.4
403.084,17.1
403.9969,470
404.0123,21894.1
404.1626,716
404.2095,132.9
404.4291,647.5
404.5737,130.2
404.6322,377.7
404.7485,24.1
404.7573,109.2
404.7849,143.3
404.9886,345.7
405.0136,3142.3
405.3774,601.2
405.4022,113.9
405.5112,153.4
405.5396,464
405.7408,106.3
405.7759,114.5
405.9484,1006.9
406.2895,147.2
406.2945,120.5
406.3307,1063.3
406.7736,525.7
406.7872,485.3
406.8373,19.5
406.9474,479
407.0154,609.2
407.176,692
407.3337,191.4
407.368,180.2
407.5327,105.1
407.5935,193.8
407.6883,461.1
407.8591,99.9
407.9256,18.6
407.9556,92.6
408.0103,426.2
408.0552,188
408.1502,147.9
408.2852,115.9
408.3882,196.2
408.5314,735.7
408.7708,1446.6
408.916,18.9
408.9854,2556
409.0791,1077.2
409.1784,579.3
409.2501,691.5
409.8228,365.2
410.0261,147.3
410.1024,18.7
410.2099,19
410.7683,323.6
410.8228,426.9
410.9646,188.7
411.0462,229.6
411.1172,853.3
411.3719,291.4
411.4123,140.8
411.6253,116.9
411.7866,699.6
411.9562,155.7
411.9644,110.1
412.0176,407.8
412.0921,153.9
412.1399,852.8
412.1481,88.7
412.2852,111.9
412.3223,1645.7
412.4929,130.4
412.5101,384.4
412.8144,502.8
412.8285,460.9
412.8389,154.9
412.8544,841.5
412.9659,33779.4
412.9748,12160
413.1581,161.1
413.2675,4619.3
413.3254,189
413.4991,20.4
413.5457,113.9
413.6747,500.5
413.6908,199.3
413.703,120.9
413.9922,234.4
414.042,1029.8
414.2712,233.9
414.4257,298.7
414.4798,613.4
414.6652,808.9
414.7158,593.2
414.8023,713.3
414.8215,602.1
414.9982,1828
415.0381,27
415.2225,1904.5
415.3963,129
415.6088,71.2
415.7803,118
415.8138,206.4
415.8522,204.5
415.9408,647.6
415.9673,398
416.1362,12006.8
416.2151,36065.6
416.2611,224.3
416.3312,113.1
416.3593,168.5
416.519,308.9
416.657,178.9
416.703,189.3
416.7292,270.4
416.7727,135.1
416.8034,403.9
416.8309,105.5
417.2185,3174
417.2664,103.2
417.283,243.7
417.3493,103
417.429,224.8
417.4857,713.1
417.9596,334.4
418.0072,767.8
418.2227,628.6
418.3599,629.4
418.5843,91.4
418.6061,152.9
418.9116,470.1
418.9315,251.8
418.9829,93609.1
419.0747,715
419.2371,88.8
419.2564,703.2
419.4091,201.1
419.5177,90.5
419.5395,421.5
419.5882,91.6
419.9391,220.2
419.9555,134
419.9738,747.4
419.9862,4799.4
420.1414,812.1
420.1497,230.9
420.1658,92.2
420.1978,18.5
420.2574,213.5
420.3726,286
420.4123,146.8
420.5462,805.7
420.7351,659.2
420.981,2642.6
421.5373,17.3
421.5965,84.4
421.7014,617.9
422.2211,848.3
422.2942,18.5
422.3049,57
422.4177,258.5
422.4733,377.5
422.748,637.4
422.7741,296
422.9539,23.7
422.9648,220.4
423.0738,108.7
423.1117,114.2
423.2448,605.3
423.371,109.9
423.4059,918.3
423.4668,96.8
423.6295,90.2
423.9893,96
424.2182,212.5
424.439,133.9
424.7277,100.9
424.874,793.5
424.9417,155.8
425.5802,755.9
425.7389,406.8
425.8209,120.9
425.8937,250.8
425.9541,156.1
426.1534,847.3
426.1615,193.2
426.1729,149.4
426.5524,18.2
426.7355,21.3
427.0034,18.4
427.0717,108.3
427.1545,146.6
427.3002,650.5
427.3682,103
427.5137,128.3
427.5426,20.2
427.7245,338.6
427.8176,160.7
427.8776,117.4
427.9832,763.9
428.179,263.9
428.4732,195.8
428.5325,148.3
428.5686,287
428.7569,102.7
428.7745,200.1
428.7998,184.3
428.8753,588.6
428.9191,368
428.9399,1281.9
428.9752,182.1
428.9846,977.5
428.9958,1336.8
429.0104,1815
429.0229,428.8
429.0904,135.9
429.2415,29.1
429.5316,18.4
430.1013,522.6
430.1467,159.2
430.1532,111.9
430.2637,163.3
430.2761,248.9
430.3317,393.4
430.4582,118.6
430.6972,418.9
430.9142,928.7
430.9368,81.2
431.0475,671.6
431.2181,7898.5
431.2384,317.5
431.2504,150.5
431.408,112
431.4535,178.2
431.6545,111.6
431.6998,593.7
431.8005,20
432.1315,20.7
432.2435,20.1
432.5617,96.9
432.6066,277.9
432.6746,778
432.6827,378.5
432.9613,390.3
433.0383,100.5
433.3896,193.4
433.781,914.9
434.3236,721.7
434.3372,295.9
434.4567,475.6
434.5356,779.9
434.5902,474.5
434.9569,15014.7
435.3077,286.4
435.6035,181.6
435.7613,208.2
435.8627,92.5
435.9602,653.8
436.1547,248.9
436.2617,144.8
436.3716,311.2
436.8489,361.9
436.9544,1201.4
437.0184,19.9
437.205,891.1
437.4729,391.9
437.6466,385.9
437.7585,96.5
437.9225,185
438.1753,220.3
438.1969,630.5
438.2126,21.4
438.2536,464.5
438.6551,106.2
438.6836,407.1
438.7076,82.8
438.8448,135.6
438.8633,622.8
438.9043,605.1
438.9732,3074.8
438.9856,4912.2
439.203,244.1
439.2571,87.9
439.4631,149.9
439.6622,94.7
439.7754,923.8
439.899,109.1
440.1256,107.6
440.4053,178.1
440.6386,335.1
440.7116,388.8
440.7261,1318.4
440.8827,459.2
440.9223,947.9
440.9707,572.1
440.9841,552
441.1131,1081.8
441.2386,1106.6
441.2991,208.4
441.4472,81.2
441.5203,1086.9
441.5371,511.2
441.5757,173.9
441.6654,463
441.7733,810.1
442.004,190.6
442.0718,20.6
442.3143,582.7
442.4404,533.3
442.6726,386.3
442.7235,1039.4
442.9192,85.2
442.9495,86.5
443.1454,886.6
443.2158,439.5
443.2258,516.1
443.3035,108.9
443.7616,461.1
444.1978,824
444.2284,116.7
444.4512,110.9
444.5141,479.2
444.5294,355.6
444.6925,238.5
444.7252,143.9
444.77,255.6
444.7805,131.3
445.1195,206.5
445.2337,2780.3
445.2705,1087.6
445.4215,384.2
445.5781,736.2
445.6322,19.5
445.6831,101.2
445.7436,124.3
445.7894,86
445.8587,95.2
445.9504,312
446.144,617.9
446.2277,144.2
446.3313,158.5
446.4515,901.5
446.5239,109.3
446.7203,80.2
446.8045,813.6
446.9068,272.1
447.0459,385.3
447.6389,18.7
447.6706,108.2
447.7816,277.3
447.7946,107.4
447.9362,208.4
448.0884,658.7
448.1302,125.9
448.5242,753
448.6695,848.8
448.9337,5574.8
448.9635,395.1
449.0484,155.6
449.1553,1618.6
449.3412,140.1
449.3595,516.6
450.1297,125
450.1586,268.7
450.4132,769.8
450.4722,509.4
450.479,385.9
450.6585,400.1
450.6916,557.5
450.7566,379.7
450.9912,111.4
451.1515,98.9
451.2803,237.8
451.7343,450.2
451.829,283.5
451.9379,440.9
452.2865,168.3
452.497,382
452.5433,215.8
452.643,25.1
452.8243,295.9
452.945,535.8
453.1744,1039.6
453.4877,201.8
453.4999,105.4
453.8476,17.7
453.8781,187.9
454.0042,85.9
454.1176,288.8
454.2969,831.9
454.4741,110
454.7337,226.5
454.8339,270.9
454.877,539.5
454.9508,43271.9
455.1538,316.9
455.213,448.8
455.2948,597.3
455.5517,97.8
455.5945,21.3
455.6125,294.6
455.672,327.1
455.7856,402.9
455.8592,20.9
455.9331,1246.8
455.9541,2086.3
456.1378,91.2
456.5425,803.2
456.5821,223.3
456.599,154.5
456.6341,131.2
456.6973,393.3
456.8582,18.3
456.9185,129
456.9481,8391.1
457.0352,98.6
457.1789,119.4
457.2338,21805.5
457.6058,90.8
457.8303,179.3
457.8483,99.9
458.0294,211.9
458.1053,137.5
458.2105,90.8
458.2367,1386.6
458.3783,437.2
458.7701,1007.7
458.9429,130.9
458.9625,3179.3
459.0281,192.6
459.1079,248.9
459.1991,197
459.2253,110.4
459.2495,568694.5
459.361,752.5
459.3883,174.2
459.415,480.3
459.541,23.4
459.5677,538
459.7933,121.8
459.8568,164.6
459.9776,676.8
460.2527,115346.9
460.3368,216.2
460.3573,193.1
460.6111,147.5
460.6327,476.7
460.7577,23.7
460.83,525.6
460.886,111.2
460.9676,78174.7
461.1174,383.4
461.1398,492.6
461.2566,8641.7
461.3343,325.2
461.4296,111.1
461.8142,303.6
461.8563,22.2
461.9711,4746.5
462.0713,731.2
462.1839,99.6
462.5743,404.6
462.9647,21423.6
463.1388,993.8
463.2027,967.3
463.219,790.4
463.331,336.2
463.6878,108.7
463.9674,577.9
463.9993,492.6
464.2128,24.5
464.3751,796.2
464.5998,131.1
464.6255,476.2
464.7342,900.2
464.7513,144.7
464.8317,340.9
464.9518,17.9
464.9794,11851.6
465.4101,121.4
465.822,646.6
465.9449,370.9
465.9821,415.4
466.2907,571.5
466.6802,450.1
466.7296,447.6
467.0208,150
467.3557,18.7
467.7742,110
467.7964,116.6
467.8299,697.2
467.9295,314.7
468.3098,3223.5
468.4923,108.3
468.7563,698.9
468.9986,409.2
469.0162,367.2
469.1265,847.1
469.1414,18.6
469.2689,391.7
469.4655,95.8
469.5537,402.4
469.6706,625.5
469.6961,83.2
470.6139,259.8
470.653,21.3
470.6675,934.4
470.7027,705.2
470.9246,15330.2
470.9963,3905.7
471.0365,605.1
471.0837,20.7
471.2506,639.9
471.2876,951.3
471.6336,770.2
472.1273,112.1
472.3824,121.7
472.4182,304.6
472.4456,108.7
472.4754,524.2
472.552,108.2
472.681,294.9
472.7349,407.8
472.8986,95.9
472.922,3619.9
472.9559,1127.8
472.9734,270.4
472.9849,1078.1
473,178.3
473.15,131.1
473.2658,4443.3
473.4354,387.4
473.5782,545.3
473.7686,631.5
473.782,470.2
473.9066,748
473.9734,137.1
474.1605,925.9
474.2686,750.5
474.4501,155.1
474.681,105.1
474.7435,474.3
474.9235,252.4
475.0302,458.1
475.2233,26640.4
475.2711,248.9
475.4983,419.3
475.9031,216.7
476.1326,99.2
476.1651,289.6
476.2271,3409.7
476.3137,1094.5
476.4151,90.1
476.4202,117.3
476.4242,111.3
476.7008,168
476.8715,675.3
476.8941,439.7
476.9415,45092.4
477.5693,594.1
477.635,18.6
477.7716,99.6
477.7804,515.5
477.9446,2870.6
477.957,84.4
478.2365,21
478.2964,773.2
478.3304,53936.9
478.4171,131.8
478.4388,110.8
478.611,167.6
478.6916,712.4
478.9385,11643
479.3337,11303.4
479.5195,332.4
479.5375,185.2
479.5846,446.5
479.8126,838.3
479.8385,874.1
479.9413,511.7
480.3032,258.6
480.3441,203.3
480.564,217.1
480.6035,388.5
480.8664,154.2
480.9537,1597.2
481.0297,566.7
481.0929,131.1
481.1479,90.1
481.1747,135.6
481.1895,108.2
481.2333,2180
481.4516,128
481.63,93.6
482.1573,111.5
482.3247,1656.8
482.3631,1032.6
482.4964,645.1
482.8378,132.5
483.0944,242.8
483.1805,18.6
483.2495,204654.1
483.3436,164.9
483.4209,87.9
483.7588,398.1
484.1698,475.6
484.1926,99
484.2528,45989.7
484.2903,320.5
484.332,170.9
484.6658,453.3
484.7024,466.9
485.0526,193.1
485.1294,115.2
485.165,18.9
485.2004,18.5
485.2651,168813.3
485.6138,23.4
485.6792,120.7
485.8911,458
486.0265,179.8
486.0855,489.1
486.2277,751.8
486.2684,37462.1
486.3282,148.8
486.4408,231.9
486.468,125.9
486.5185,20.2
486.8989,895.9
487.1515,37.3
487.1942,544.9
487.2604,909.1
487.2807,101607.7
487.3195,477.5
487.365,559.3
487.4373,200.2
487.4821,130
487.5012,91.5
487.5452,273.4
487.5583,133.9
487.6916,261.9
488.193,651.7
488.2042,109.3
488.2842,20789.6
488.492,86.6
488.6573,514.5
488.9209,267.4
488.9419,20.7
489.0869,46.4
489.1185,301
489.1355,986.5
489.2396,1779.2
489.2602,114
489.2875,1763.4
489.3049,981.4
489.3358,867.3
489.4416,146.1
489.5258,82
489.579,125.8
489.6203,21.9
489.919,98.2
490.0596,383.6
490.2918,10641.2
490.5866,273.4
490.6433,349.9
491.083,50.7
491.1034,832.7
491.2166,322.5
491.2946,902.2
491.454,214.7
491.6905,162.6
491.7764,18.2
491.7977,286.2
491.9335,18.4
492.3146,745.3
492.4713,906.1
492.5338,740.8
492.8608,107.9
492.8885,379.2
492.9157,7951.8
493.2346,120.8
493.2693,215.4
493.4231,103.6
493.7768,320.2
493.8859,163
494.0277,144.4
494.1958,305.8
494.3254,14377.9
494.347,506.3
494.6347,202.4
494.913,2327
494.9799,270
495.3301,1064.2
495.3739,398.4
495.7523,646.5
496.0177,250.6
496.3124,122.2
496.3411,588712.9
496.3868,351.5
496.4064,235
496.5157,590.9
496.5994,82.5
496.6649,340.6
496.9155,137.2
496.9316,979.7
497.0076,114.1
497.3444,141060.6
497.3844,100.7
497.5621,538.1
498.0579,112.4
498.2057,106.3
498.2496,565
498.2805,678.7
498.3088,98.9
498.3474,10867.3
498.3757,835.1
498.6863,545.3
498.9282,1722.6
499.162,141.6
499.2237,9824.7
499.2485,843.7
499.3608,211.8
499.4737,20.8
499.6034,746.1
499.8476,145.6
500.0149,170.5
500.2274,1218
500.3138,886
500.5961,390.9
500.8384,115
500.9815,192.4
501.2392,7786.5
501.6616,22.7
501.7196,107.9
501.7548,100.6
501.7692,688.1
501.7993,179.7
502.2419,1492
502.2586,459.3
502.2942,943.7
502.311,463.9
502.3303,19521.8
502.4353,257.4
502.4947,19.7
502.6826,136.2
502.8266,246
502.8305,220.8
503.1088,71.4
503.2542,5517.4
503.3332,884.4
503.3983,660.3
503.5079,199.8
503.6338,18.8
503.6762,174.3
503.9781,191.5
504.0504,822.8
504.2272,137.1
504.3073,5519
504.3457,13411.3
504.4607,394.5
504.8219,87.9
504.842,303.5
505.0024,120
505.0923,178
505.1297,166.9
505.176,182.4
505.2337,2542.6
505.2884,380.2
505.3044,751.4
505.331,120.6
505.6993,304.8
505.8207,393.8
506.362,6141.7
506.4462,871.6
506.7493,110.4
506.8925,3288.8
506.9036,98.8
506.9093,146.8
506.9135,123.5
507.0062,360.4
507.2495,45878.6
507.3369,668.8
507.3664,1676.6
507.4276,258.5
507.719,417.7
507.8143,223.7
507.8515,98.8
508.0684,110.8
508.1004,148.9
508.253,10525.7
508.3464,146.6
508.3606,105.6
508.4784,402.2
508.546,25.1
508.5703,255.9
508.7149,365.4
508.7866,102.2
508.8892,2886
509.0054,3443.9
509.1569,767
509.265,16068.3
509.3145,94
509.5172,258.7
509.6091,19
509.6738,754.7
509.843,201.7
510.2284,227.6
510.2685,2194.2
510.3568,5580.5
510.3843,348.7
510.4865,222.5
510.5981,384.3
510.6854,149.8
510.8831,438
510.9059,571.8
510.9456,305.2
511.1264,55.8
511.3411,133.9
511.3576,815.6
512.0885,732.2
512.4004,107.9
512.5633,110.2
512.6485,209.6
512.9093,16734.3
513.1287,988.3
513.6243,138.8
513.7024,210.5
513.8165,987.1
513.8598,18.5
514.0676,94.1
514.1782,488.5
514.4978,519.5
514.5008,496
514.5099,76.5
514.7457,145.3
514.9067,7185.1
514.9339,91.4
514.9666,272
515.0221,377.5
515.5098,128.2
515.6195,20.5
515.6885,102
515.7725,145.1
515.8435,188.2
516.2467,1042.8
516.3074,25218.7
516.6577,806
516.7177,146.8
516.9212,902.9
517.1194,613.9
517.2511,304.9
517.3108,3403.5
517.3684,515.3
517.3845,602.2
517.6754,417.5
517.8893,309.3
518.1386,98.7
518.1604,223.6
518.3231,981324.7
518.7875,281
518.8432,92.7
518.9262,28175.9
519.1343,861.4
519.2575,226.9
519.295,295.1
519.3264,240266.5
519.4439,107.1
519.919,221.2
519.9292,2071.2
520.0363,305.5
520.3411,184553.8
520.4132,220
520.6307,126.3
520.8005,21.1
520.8292,21.3
520.8506,88.7
520.9235,14799.7
520.9875,861.6
521.3313,1238.4
521.3445,46588
521.3606,190.9
521.7298,448.7
521.9268,775.2
522.0725,278
522.1459,243
522.186,262.6
522.2002,827
522.258,1103.3
522.2795,177.6
522.3567,177147.9
522.7695,794.2
522.9216,575.9
522.9381,5801.7
522.9588,416.3
523.0098,281.6
523.1358,115.1
523.1656,396
523.2232,2184.4
523.2835,136.8
523.3603,46014.3
523.4305,742.4
523.4833,166.7
523.5778,106.2
523.8336,135.9
524.0616,150.2
524.0751,444.8
524.0883,197.7
524.1138,151.4
524.1891,161.5
524.2764,1030.9
524.3724,147502.3
524.5649,137.2
524.9214,308.2
524.9352,1056.6
524.9781,473.3
525.2012,490.1
525.3385,22.8
525.3757,35107.3
525.7645,146.6
525.9367,432.1
526.3302,6172.6
526.3434,19.9
526.3792,2002.7
526.5309,18.6
526.7156,22.2
526.8347,374.8
526.8978,608.6
526.9527,714.2
526.981,896.8
527.1245,116.5
527.272,401.8
527.3332,1131.6
527.3536,630.5
527.4388,93.7
527.4886,442.7
527.6859,117.2
527.7697,549.9
527.8901,98
528.1794,425.9
528.2785,155.4
528.3455,366
528.5146,110.8
528.5809,235.8
528.6917,443.2
528.8834,4970.3
528.9552,2613.8
529.0197,161.5
529.2636,897.4
529.4004,20.8
529.6645,130.4
530.1755,191.7
530.3218,1254.8
530.3591,3084.3
530.4253,181.3
530.4367,634.4
530.5114,183.8
530.6333,434.1
530.6889,132.6
530.7125,110.3
530.8808,5920.2
530.9955,654.7
531.0398,905.4
531.22,793.9
531.2495,6085.2
531.2838,298.8
531.9906,319.3
532.1017,21.6
532.1426,386.8
532.2807,3652.8
532.3386,12266.5
532.7253,88.4
532.8246,667.4
532.8771,376.8
532.9037,17.9
532.9669,3052.6
533.0927,641.4
533.3423,2164.1
533.375,398.8
533.6689,872.1
533.7673,573.9
533.9,111.6
533.9443,79.6
534.0614,124.5
534.0982,19.4
534.297,226499
534.3158,548.7
534.4218,428.4
534.7161,321.5
534.8348,19.5
534.9003,15741.4
535.3003,51853.4
535.3474,533
535.3778,544.3
535.4387,401.3
535.4806,398.6
535.5206,128.6
535.5371,131.2
535.7621,237.5
535.9046,713.5
536.1809,167
536.2957,13999
536.3751,398.5
536.7917,438.7
536.8973,8639.7
536.9969,409.2
537.2704,451.6
537.2992,643.6
537.345,402.2
537.5459,164
537.7175,738.3
537.9015,545.9
538.2339,414.5
538.2377,411.6
538.8946,2241.1
538.9129,1880.9
538.9334,581.8
539.0513,109.1
539.0648,22.9
539.1161,222.8
539.1512,168
540.0231,634.9
540.3054,664
540.7849,779.2
540.8123,166.8
541.0214,131.8
541.0458,196.9
541.1677,494.7
541.3133,143.4
541.5752,255.6
542.0442,21.8
542.0896,147.6
542.2465,226.5
542.2615,159.3
542.3232,295746.1
542.5148,18.1
543.228,233.9
543.3266,78232.9
543.4039,1012.7
543.8202,119.1
543.9857,491.8
544.0045,95.3
544.027,196.9
544.0687,142
544.3388,306032.8
544.7116,239.6
544.858,534
544.914,134.2
544.9497,2154.7
545.0793,145.2
545.2206,153.4
545.3422,76385.8
545.363,196.4
545.4571,153
545.478,104.2
545.5481,188.8
545.6779,117.1
546.1335,323.4
546.2563,1067.5
546.3545,227218.6
546.4636,327.2
546.589,84.4
546.8534,570.2
546.9033,198.6
547.0196,198.8
547.0526,492.2
547.0852,230.8
547.3577,55240.1
547.7032,113.8
547.977,381.6
547.9888,278.2
548.0182,383.7
548.3227,107.2
548.3613,7442.2
548.582,171.3
548.6796,103.2
548.7002,214.5
549.3286,362.1
549.3799,171.1
549.4859,744.4
549.9193,128.1
550.1632,108.8
550.2701,19
550.3507,596.5
550.6837,19.1
550.7021,196.6
550.7893,942.8
550.8747,4274.7
550.9706,145.5
551.0072,320.7
551.0952,190.2
551.6008,976.9
551.9684,136.7
552.1213,207.1
552.2292,319.6
552.4995,185.5
552.8718,2173.2
553.5252,258
553.5629,334.5
553.7495,150.4
553.9551,25.4
554.1567,78.3
554.4442,110.7
554.4691,442.1
554.726,162.1
554.884,120.8
555.135,228.3
555.1706,152
555.558,224.8
555.7706,468.6
555.7958,93.7
556.2805,1261.9
556.5906,111.2
556.7573,111.4
556.8234,140.9
557.0444,285.8
557.1886,397.7
557.4453,21.5
557.5563,466.8
557.591,233.1
557.7058,23.8
557.8176,104.2
557.8403,943.7
558.2971,76867.9
558.8872,726.1
559.2386,389.2
559.3005,17037.6
559.5053,621.2
559.7657,131.1
560.0481,247.3
560.0731,448.2
560.2955,1259.2
560.3127,60780.4
560.3718,1031.5
560.5347,18.7
560.7246,108.1
560.7741,466.9
561.003,197.3
561.3163,14251.2
561.4136,7891.1
561.8133,317.1
562.3119,2541
562.3283,50331.1
562.8264,680.1
562.8644,17
562.9113,595.3
563.2069,18.9
563.3012,748.5
563.3317,10590.6
563.4286,1371.2
563.8471,102.3
563.9307,459.3
563.9957,17.4
564.092,173.1
564.3076,1762
564.3255,821.8
564.3955,102
564.5324,145.5
564.5632,636.2
564.8519,603.8
565.0426,545.5
565.0929,234.8
565.3184,121.4
565.3739,388.7
565.8738,294.7
566.3232,64780.5
566.3852,428.4
566.5714,99.9
566.5987,392.9
566.8488,647.7
566.9379,406.7
566.9647,455.5
567.0399,805.7
567.1847,637.6
567.3266,15272.1
567.4161,121.3
568.0393,281
568.0692,284.2
568.1914,134.4
568.2542,118
568.3391,30141.2
568.4801,268.9
568.6478,157.4
569.0818,466.2
569.3421,4927.9
569.3914,239.9
569.484,204.7
569.6264,610.4
569.8321,150.4
569.8941,21.2
570.3456,21.4
570.7321,114.1
570.8049,437.8
570.8682,5527
570.9332,150.7
571.0272,139.2
571.061,639.2
571.4096,24.5
571.5434,1069.9
572.075,141
572.3698,2197.2
572.3873,214.3
572.8653,4582.1
572.9192,168.4
572.9815,1468.7
573.5098,326
573.7702,115.3
574.1402,216.3
574.1842,355
574.2846,1595.6
574.4153,21.7
574.6086,548.8
574.8636,593.3
575.1954,494.9
575.327,393
575.5048,7685.7
575.6524,643.6
575.8297,437.9
575.9641,683.2
576.0678,115.3
576.2816,9882.3
576.5113,374.6
576.8205,769.3
576.8852,10469.9
576.9441,137.9
577.285,1470.9
577.2933,108.1
577.3154,455.3
577.3334,115.5
577.4202,125.3
577.5033,24.9
577.5201,937.4
577.6489,95
577.9965,473
578.2791,1709.7
578.7342,460.6
578.8824,8660.3
579.2661,208.7
579.4061,225.6
579.814,109.9
580.0083,128.9
580.1359,217.8
580.3099,146.8
580.3677,416.1
580.3952,119.6
580.5708,18.6
580.7084,373.4
580.8799,3627.7
580.8975,3047.4
581.3594,356.9
581.5129,120.8
581.6904,569.8
581.7638,862.6
581.8008,668.4
581.8517,139.4
582.1509,709.8
582.1735,299.9
582.1865,130.2
582.1987,18.3
582.2186,959.8
582.2542,333.5
582.2973,16698.7
582.3353,845.3
582.3478,99.2
582.4008,1042.1
582.4518,416.5
582.4568,569.1
582.4618,425.9
582.4759,721.8
582.4976,331.7
582.5409,152.3
582.6786,404.2
582.7939,146.9
582.8626,94.7
582.8932,1611.5
582.9798,584.2
583.0164,479.2
583.1375,715
583.2563,2276.4
583.3002,2188.2
583.3416,462.7
583.8848,89.2
583.932,138.7
583.9909,811
584.0703,137
584.2048,637.3
584.2446,118.9
584.2592,1045.4
584.3121,4492.3
584.491,382.9
585.1468,21.6
585.2557,88.1
585.2721,7260.3
585.312,137.1
585.3636,219.6
585.4357,187
585.4571,112.2
586.1074,373.5
586.275,1860.6
586.311,4981.9
586.3678,439.3
586.6414,361
586.8422,2437.5
586.8699,111.6
586.9143,1379.8
587.3023,98.3
587.3656,128.6
587.5329,143.5
587.8204,93.3
588.0066,550.2
588.0736,471.4
588.2596,930
588.7596,364.4
588.7653,362.4
588.8391,2770.4
588.9112,1100.2
588.9173,931.1
588.9235,937.6
589.1259,661.5
589.3895,106.7
589.4028,166.4
589.4438,602.9
590.1337,626.9
590.1876,1110.9
590.2989,819.3
590.3233,10649.4
590.4559,660.1
590.4881,756.6
590.9221,1114.5
590.9759,112.6
591.1727,412.7
591.3275,2009.7
591.5371,868.3
591.6443,416.1
592.0602,230.4
592.0898,641.5
592.1606,816.4
592.2548,1915.3
592.3391,588.6
592.5996,407.9
592.859,6778.7
592.908,446
592.9453,611.2
592.9816,424.7
593.2837,123.5
593.4937,457.5
593.5377,90.9
593.7959,343.9
593.8869,170.6
593.9896,800
594.1052,215.2
594.3557,435
594.5195,171
594.6221,589.6
594.8566,7256.3
595.0551,19.1
595.1748,296.5
595.2203,242.7
595.4371,974.8
595.5298,233.8
595.8184,23.7
595.9068,247.9
595.9537,615.2
596.1398,648.2
596.4392,1241.5
596.5424,529.4
596.6704,448.6
596.7281,1217.3
596.8545,1345.2
596.8714,615.8
597.3846,783.7
597.4607,3708.2
597.4868,10605.4
597.5341,105.5
597.5749,210.8
597.7848,596.5
598.4534,493.6
598.4754,185
598.5742,234.1
598.8465,248.4
598.8938,137.7
599.4705,1433.5
599.5063,564.7
600.1165,167.6
600.2288,17.3
600.2821,1135.9
600.3906,504.5
600.4632,1291.8
600.5206,129.9
600.5476,108.5
600.7558,453.3
600.8351,477.5
601.1297,366.4
601.1871,416.9
601.2097,106.9
601.4911,617.2
601.5204,1918.5
601.6536,855.8
601.7383,113.6
602.1181,587.9
602.135,640.1
602.2727,918.8
602.411,575.2
602.5274,249.5
602.5787,22.2
602.618,149.7
602.7665,118.7
602.8402,182.7
602.9071,1441.4
603.3348,101.9
603.398,644.7
603.5388,230.9
603.5865,214.5
603.7947,786.7
604.3141,1851.4
604.5404,103.7
604.5753,21
604.636,172.9
604.7062,207.4
604.7551,24.4
604.8123,586.7
604.857,571.2
604.9841,19.3
605.3303,561.9
605.5941,120.5
605.8048,24.2
606.2262,292.7
606.383,839.8
606.4574,742.7
606.4862,116.3
606.7024,616.5
606.7949,101
607.1722,5929.4
607.1966,278.1
607.239,127.5
607.3882,21.4
607.4654,868.4
607.8158,133
607.8543,203.3
607.8678,501.5
607.9695,413.6
608.1741,737.1
608.2546,143.9
608.3281,84.7
608.335,98
608.3396,106.3
608.833,1050.3
609.0092,397.2
609.0695,897.1
609.3185,545.2
609.3995,1023.9
609.4514,361
609.6714,419.2
610.564,185.2
610.8298,1358.1
610.9862,759.4
611.1835,110.3
611.2438,164.3
611.2945,233.4
611.5396,149.1
612.1801,104.2
612.2771,567.5
612.5981,542
612.818,188.8
613.3353,266.5
613.5135,536.3
613.6209,442.6
614.0231,19.1
614.1066,131.4
614.1211,114.1
614.7363,201.3
615.2269,515.9
615.4309,79.7
615.4448,373.7
615.4609,6061
615.598,206.9
615.7449,94.1
615.9638,920.7
616.1834,155.5
616.3923,456.7
616.4672,1542.7
616.4954,255.3
616.6005,123.5
616.6297,20.4
616.8533,89
616.9945,421.3
617.2401,158.9
617.4768,23973.3
618.0443,1116.4
618.2186,20.8
618.3844,218.5
618.4073,658.5
618.4207,22
618.4801,6056.7
618.7293,18.6
619.1294,117.4
619.1637,130.6
619.4687,541.7
619.4926,26354.3
620.0139,189.4
620.2371,1044.4
620.2696,20.7
620.4952,4849.7
620.5192,130.3
620.8392,1103.2
620.927,131.4
621.2554,456.4
621.261,1065.7
621.2651,975.1
621.421,21.7
621.4611,2227.5
621.4872,8289
622.0597,98.1
622.0827,685.4
622.3492,246.2
622.364,123
622.4635,174
622.4929,995.5
622.514,119.6
622.7887,485.4
622.8574,452.3
622.8889,904.3
623.1375,30244.9
623.2483,145.1
623.3489,285.4
623.3752,156.3
623.3978,107.9
623.4353,226.5
623.4686,1266.4
623.5064,528.3
623.6441,163.7
624.1409,5005.3
624.3357,19
624.3653,432.9
624.4677,766.6
624.5131,142.1
624.5864,21.9
624.9228,443.7
624.9365,189.3
625.1427,279.2
625.3075,165.5
625.3679,949.7
625.4922,141.1
625.5402,261.1
625.6577,200
626.157,19.1
626.5207,123.6
627.0326,391.6
627.4732,112.3
627.5082,196.9
627.5373,1237.6
627.8262,155.1
627.9228,23.9
628.5334,183.6
628.6216,151.5
628.7569,740.4
629.1214,861.4
629.1544,69367.1
629.2502,405.1
629.278,105.1
629.3189,651.8
629.3528,676.4
629.6707,193.2
630.1581,13475.7
630.2141,694.8
630.4042,171.2
630.6397,151.5
630.825,447.6
630.958,21
631.1332,250
631.1601,1453.4
631.4347,598.6
631.4743,82.3
631.5014,153.3
631.7176,381.9
631.8071,175
631.9025,221.2
632.2127,159.1
633.01,149.2
633.2596,1044.7
633.4526,1502.8
633.493,437.9
633.5509,426.4
633.958,724.4
634.0267,120.1
634.2347,696.5
634.2456,325.6
634.3644,107.2
634.5573,807.4
634.5824,134
634.642,466.3
634.8439,2354.6
634.9039,435.4
635.0701,511.5
635.163,728.9
635.404,115.2
635.4661,533.2
635.548,228.2
635.7067,141.1
635.8043,128.5
636.2029,113.5
636.2851,480.7
636.4284,1351.6
636.7362,220.4
636.7502,142.8
636.8409,3627.9
636.9158,114.8
637.0633,121.8
638.0555,18.6
638.1617,114.5
638.2442,23.7
638.4539,157.4
638.4806,103.5
638.7979,159.5
638.8373,1424.3
638.9964,658.6
639.2263,433.3
639.4303,100.2
639.5787,21.7
639.6926,227.8
639.8167,127
639.8236,106.3
639.8535,1033.9
640.1962,20.1
640.5996,276.1
640.7656,663.6
641.2195,270.9
642.0754,17.8
642.1193,545.4
642.6178,752.2
642.6657,436.1
642.884,133.3
642.9373,400.6
643.001,624.8
643.0658,190.1
643.2817,98.9
643.3625,105.9
643.4976,80.1
644.0275,220
644.101,137
644.3165,1074.4
644.6284,740.2
644.8734,363.1
645.1193,26908.2
645.3224,576.8
645.3381,819.9
645.4658,832.3
645.4839,319.8
645.8488,329.8
646.0316,836.5
646.1228,4041.1
646.2156,713.9
646.2981,230.6
646.4343,1485.8
646.6262,107.9
646.6864,475.5
646.7976,654.1
646.8706,698.8
647.0948,648.2
647.1253,226.9
647.148,240.8
647.1748,472.2
647.2015,152.5
647.2277,87.3
647.2935,244.8
647.3584,397.1
647.4518,135.5
647.4604,368.2
647.5074,410.6
647.5945,223.4
648.1417,828.2
649.0036,157.9
649.0975,115
649.2103,194.7
649.3342,165.8
649.3866,213.2
649.8227,131.6
649.913,591.5
650.1189,834
650.2605,140.1
650.4413,2463.1
650.4619,116.9
650.6123,174.9
650.7608,182.5
650.8192,716.6
650.8551,145.8
650.9465,215.9
651.1364,71528.6
651.1848,105.2
651.339,1186.9
651.5202,105.8
651.7439,432.4
651.7735,433
651.9479,162.8
652.1399,13881.5
652.44,226
652.4599,262.1
652.8146,2933.1
653.113,1047.6
653.1411,2268.5
653.462,203.4
653.5519,576.7
653.6273,839.7
653.9776,222.3
654.1122,201.4
654.6344,470.3
654.655,136.9
654.6741,703.9
654.8125,1075.5
654.8205,1173.8
654.8852,185.5
655.1408,184.6
655.3916,685.2
655.7651,144.6
656.0797,17.4
656.3752,143.4
656.4502,613.7
656.6506,182.6
657.313,19.8
657.6084,142.7
657.8535,81.8
658.4304,2340.5
658.532,130
658.914,104.1
658.9329,791.3
659.0279,539
659.1637,88.2
659.2504,1172.2
659.654,89.1
659.9122,644.2
659.9979,21.2
660.3233,123.5
660.6172,142.6
660.6375,197.9
660.8106,129.2
660.9495,456
661.0842,13948.1
661.6802,140.3
661.9453,491.4
662.0872,488.5
662.1442,456.6
662.4752,530
662.7644,124.1
662.7958,990.5
662.9926,88
663.2648,324.1
663.3284,169.4
663.4536,31.5
664.2039,80.4
664.3452,106
664.4399,526.2
664.6212,172.5
664.8209,828
664.9614,319.4
665.2068,120.2
665.4727,402.2
665.5071,79.8
665.6919,127.7
666.0699,264.6
666.4047,313.8
666.4843,7377.3
666.7917,595.8
666.8279,114.7
667.101,33845.1
667.4482,250.1
667.488,659
667.8773,691.7
667.9653,245.6
668.1051,5025.5
668.2768,626.3
668.3966,162.8
668.433,485.1
668.7754,554.1
668.7807,593.7
668.7893,537
669.1072,324.2
669.3087,576.5
669.3571,371.5
669.4841,102.5
669.615,974.3
669.7495,112.5
669.8022,1020.1
670.0849,94.1
670.8747,904.1
671.0965,329.1
671.1295,17.6
671.1891,514.4
671.2046,166.6
671.2219,435.3
671.3265,203.2
671.5743,2180.9
671.8279,899.2
672.2398,17.4
672.423,1507.4
672.5275,127.5
672.7584,20.8
672.9082,369.8
673.1184,78262.9
673.15,431
673.824,247.9
674.1219,15144.3
674.8992,27.2
675.0925,328.4
675.1232,744.3
675.2414,223.1
675.4415,402
675.4607,328.5
675.5459,12642.6
676.0507,124.2
676.5499,1138.1
676.5831,521.1
676.6457,18.8
676.7032,180.4
676.8887,168.6
677.058,94.6
677.3255,651
677.4515,529.8
677.5466,683.7
677.6177,366
677.927,939.2
678.0535,140.7
678.4877,135.5
679.7276,872.1
679.751,624.5
679.8951,752
679.967,123.5
680.4456,427
680.4946,450.9
680.5635,20.6
680.6118,115.2
680.7554,118.9
680.7977,456.4
681.3399,134.8
681.5374,600.5
681.7112,662.3
681.7418,392
681.7729,18.6
682.0657,1000
682.2227,191.8
682.2812,145.8
682.7595,433.7
683.0051,232.5
683.0656,7830.4
683.3275,216.5
683.4126,310.3
683.4531,1263.4
683.6155,115.2
683.9364,1032.4
684.0538,129.6
684.0781,737.7
684.4219,895.5
684.4557,1170
684.5647,90.4
684.7912,125.9
685.0628,111
685.4382,1414.9
685.563,393.7
685.6734,282.4
685.8865,159
686.0583,22.4
686.4055,153.8
686.4393,137.5
686.5029,20.5
686.5476,98.8
686.6429,222.8
686.7077,134
686.8909,205.1
686.9207,126.4
686.9833,21.6
687.0512,19.6
687.6656,445.1
688.4198,1173.1
688.5117,413.4
688.676,133
688.7136,150
688.8516,1126.4
688.8906,188.2
689.0148,141.6
689.0826,27189.8
689.5598,2303.2
689.6602,168.6
690.0872,2881.3
690.0949,2793.9
690.216,209.4
690.4432,17.6
690.7582,667.6
691.017,87.9
691.0868,596.2
691.5542,116.1
692.839,115.7
693.0752,126.2
693.1261,413.7
693.1411,371.4
693.3495,133.1
693.4026,75.6
693.8779,99.5
693.9572,824.4
694.8017,538.5
694.8214,335.1
695.1003,49131.4
695.2142,181.9
695.3472,807.7
695.3817,301.9
695.4659,1250
695.5107,2480.6
695.5782,607.1
695.7051,388.9
695.8267,117.7
695.9463,104.8
696.1041,9767.8
696.1548,159.7
696.2301,878
696.3351,488.8
696.5428,340.4
696.7109,106.2
696.7986,626.2
696.8462,764.4
696.9463,257.1
697.078,243.8
697.5277,19570.4
697.7204,640.3
698.0172,540.8
698.5307,4017.3
698.5751,378
698.8296,153
699.1235,918.1
699.3091,457.7
699.4118,83.6
699.5664,94
699.6527,198.2
700.0602,20
701.2764,155
701.5614,31891.9
701.8148,616.1
701.9366,100.9
702.2882,133.3
702.3435,2902
702.3776,850.2
702.4187,465.5
702.488,105.5
702.5651,10497.6
702.8698,415
703.3468,804.6
703.577,74722.3
704.0486,251.2
704.0802,486.6
704.3774,225.2
704.4499,2865.4
704.5805,28993.6
704.7756,622.7
705.0572,4724.9
705.5398,101.6
705.5835,2127.2
705.6808,144.2
705.7809,735.6
705.8067,409.4
705.92,407.2
706.2582,114.3
706.2976,105.8
706.4651,19.5
706.5415,1615.4
706.6536,399
707.1278,412.7
707.2221,106.2
707.9244,245.5
708.2087,203.4
709.1451,215
709.1824,271.6
709.2696,625.5
709.5515,705
709.705,371.2
709.9027,122.9
709.9854,173.4
710.3276,108.7
710.3466,139.3
710.5169,777.5
710.8671,579.5
711.0638,16034.3
711.0758,18496.3
711.1122,938.8
711.245,366.3
711.432,398
711.4783,1187.6
711.5427,1961.5
712.047,92.6
712.0743,2413.4
712.1615,167.3
712.2,315.6
712.5446,1077.6
712.7618,341.5
712.8754,815.9
712.9908,417.8
713.0632,955.4
713.1424,21.3
713.4368,209.2
713.8793,212.1
714.2796,113.8
714.5351,406.3
714.9185,514.9
715.3516,16.7
715.356,16.5
715.9451,175.2
716.246,228.2
716.7766,315.6
716.9137,99.2
717.0824,23472.4
717.3635,289.4
718.0847,1853.5
718.3947,330
718.54,514.9
718.7122,200.7
718.8909,130.1
718.971,232.8
719.0979,198.8
719.3638,98.1
719.4648,978
719.4914,456.3
719.5425,761.5
720.0193,84.8
720.1262,176.7
720.4555,863.7
720.8461,166.1
720.9113,423.6
721.0305,270.3
721.2092,19.1
721.2921,296.8
721.4034,165.8
721.48,60028.8
721.5076,17.7
721.6182,108.2
721.7484,406.2
721.9346,18.5
722.2042,177.4
722.3973,215.5
722.4836,20883.4
722.6131,561.8
722.6583,79.7
722.7473,131.9
722.8092,383.8
723.0281,257.6
723.4964,9296.4
723.5432,44068.7
723.6328,18.5
723.7781,87.7
723.8988,94.1
724.0198,277.6
724.16,822.4
724.4403,237.2
724.4995,1485.9
724.5467,14789.8
724.7673,267.8
724.7897,252.2
724.8303,620.7
724.9305,313.7
725.2734,345
725.2906,86.6
725.4804,954.5
725.5591,83378
725.8369,21.2
725.9838,344.3
726.4122,590.1
726.4762,257.1
726.5047,565.2
726.5624,33700
726.9503,171.9
727.0318,5533.2
727.2609,118.1
727.4126,765.2
727.565,4623.5
727.7946,424.6
727.9522,163.2
728.0348,607.6
728.1258,502.9
728.2201,149.2
728.5235,3284.6
728.5878,636.6
728.6664,95.4
729.0386,168
729.2431,124.6
729.4846,1057.6
729.5242,966
729.5928,6372.1
729.9299,221.1
729.9539,130.1
730.2158,224.3
730.3556,557
730.5401,9922.8
730.5962,1444
730.7315,212
731.0971,98.5
731.1467,250.9
731.4223,137.2
731.5453,832.8
731.6086,3355.3
731.9047,769.2
732.2942,265.7
732.3211,168
732.517,421.4
732.5561,47214.3
732.6118,1812.1
732.6654,101.2
732.8263,139.5
732.8531,147.1
732.8996,115.7
733.0454,10409.5
733.0581,10514.4
733.2907,21.3
733.5595,18244.6
733.617,464.5
733.8273,881.7
734.06,806.5
734.1869,181.3
734.315,216.6
734.5719,7377.1
735.5749,1087
735.8217,236.9
735.8717,18.6
736.6642,88
736.7709,109.6
737.0875,18.2
737.1739,426.2
737.2652,106.2
737.4543,10279.4
737.8271,132.2
737.8764,94.2
738.0686,18.2
738.2676,184.1
738.9781,130.9
739.0208,19.8
739.0644,14143.1
739.118,20
739.3164,478.2
739.356,448.5
739.3893,475.2
739.5182,3594.2
739.5743,1237.2
740.0399,113.4
740.0705,728.2
740.1801,769.9
740.4699,397.9
740.5274,152
740.64,181.2
741.4451,19.2
741.5332,6953.1
741.7306,189.8
742.0092,153.6
742.1931,428.1
742.2902,820.5
742.4334,583.7
742.5409,606.8
742.5772,6354.9
743.4552,276.8
743.5797,1952.8
743.9268,132.4
744.2125,534
744.5563,3862.5
744.593,9592.5
744.8577,113.4
745.0021,737.1
745.0244,136.3
745.4801,34837.3
745.5617,113.3
745.5972,3001.7
745.7291,667.1
745.9108,103.2
746.4549,676.1
746.4833,10495.1
746.5727,2007.2
746.609,2362.2
747.4968,9240.7
747.5553,458.1
747.5786,451.9
747.6115,290.5
747.6994,78.7
748.2427,104.8
748.4773,673.4
748.4989,3367.2
748.5454,235.3
748.5779,454.2
748.6681,99.6
748.8737,502.2
749.0113,3572.2
749.3143,111.5
749.466,234.7
749.5118,3486.9
749.5535,739.2
749.6317,120
749.9114,139.7
750.0244,606.5
750.6608,393
751.0236,335.5
751.0991,126.1
751.1081,173.2
751.356,101.3
751.375,118.2
751.4031,852.6
751.5747,7471
752.1025,224.4
752.2233,602
752.4277,788.5
752.5217,11034.9
752.577,2204.9
752.6387,137
752.8712,109.4
753.0587,137.8
753.5242,2979.1
753.5907,2430.6
753.9134,190.2
754.5383,44279.4
754.6015,158.2
755.0405,5702.9
755.4321,124.3
755.4868,174.9
755.5408,16081
755.7317,119
755.847,186.3
756.0315,414.9
756.1239,413
756.2169,104.5
756.3024,603
756.5558,53925.2
756.6807,452.8
756.705,775.4
756.8094,666.7
756.8356,107.5
756.9859,231.2
757.2905,527.7
757.5589,20798.5
757.6245,1291.5
758.1376,104.8
758.3929,102.3
758.572,1027683
758.6854,892.8
758.8366,448.1
759.0911,19.8
759.1427,444.4
759.5753,451357.5
759.6401,3383.3
759.6884,20.1
759.7231,890.5
759.7547,514.4
760.5886,350524.6
760.6445,1920.1
760.6683,325.3
760.9049,647.9
761.0466,3869
761.0893,204.7
761.2083,327.2
761.2214,97
761.2485,83.8
761.4546,3307.9
761.4897,95.2
761.5913,166142.6
761.8121,1129.3
761.9351,796.3
762.0144,811.2
762.2005,107.7
762.3093,166
762.4112,487.5
762.4591,880.6
762.5266,773.1
762.5939,40342
762.7784,572.3
762.8421,223.1
762.9532,856.7
763.4554,485.2
763.4746,650
763.5959,1847.7
763.9677,18.6
763.9924,170.1
764.032,858.9
764.0728,230.5
764.5586,3555.6
764.7751,104.1
764.9851,75.4
765.0191,177.6
765.4865,645.4
765.5285,177.5
765.5583,88.1
765.6739,161.9
765.7273,86.4
765.9415,152.9
766.5376,3501.3
766.5768,29742.3
766.7499,137.3
766.9783,130.3
767.3193,498.8
767.5801,11897.8
767.771,114.2
767.9612,606.6
768.2945,912.9
768.5548,5171.1
768.5928,37821.3
768.9787,179
769.4163,143.5
769.4789,4047.5
769.5578,1076
769.5962,14682
769.7355,725.5
769.8434,391.5
770.512,3712
770.573,796.7
770.6097,5693.5
770.9934,6337.7
771.0162,221.6
771.0776,584.2
771.2036,344
771.4132,103
771.4924,1055.8
771.6123,1307.8
771.7001,961.4
771.9464,380.5
772.4601,122.4
772.4978,677.2
772.5231,292.2
772.5877,11726.4
772.9939,149.8
773.3638,106.3
773.5077,892.1
773.5904,3965.9
773.7851,287.1
773.9692,506.1
774.1543,421.9
774.3512,322.3
774.5507,781.2
774.5723,823.8
774.6048,1757.6
775.0077,232.6
775.3941,132.8
775.4889,610.7
775.5462,124.2
775.6055,804
775.7823,152.2
776.0594,408.3
776.141,17
776.3383,184.4
776.5227,2294.8
776.6071,96.9
776.6604,18.9
777.0106,5193.8
777.1182,78.4
777.4849,635.2
777.5282,1000.6
777.6575,19
778.0458,1874.4
778.2498,254.5
778.4348,23.9
778.5384,37296.9
778.9625,122
779.5417,16035.3
779.6622,99.4
779.7535,144.1
779.8234,179
779.9118,429.2
780.0593,643.5
780.2903,120.3
780.554,763174.6
780.711,671.7
781.2264,865.7
781.3952,19.4
781.5573,353594.9
781.6584,278.5
781.9232,243.3
782.0131,103.8
782.1959,164
782.5086,728.2
782.5717,728623.9
782.6043,142.2
782.6251,111.8
783.028,4716.7
783.5748,348860.6
783.6364,387.3
784.1007,20.5
784.1484,614.9
784.5884,314359.3
784.8026,265.5
784.9521,19.2
785.0453,107.8
785.4899,581.4
785.5913,160778.7
785.6558,6936.8
785.8538,236.9
786.0998,19.2
786.1292,22.6
786.4742,216.8
786.518,124.3
786.6038,279021
786.6592,645.7
786.9695,678.5
787.2284,105.4
787.6069,135531.3
787.6721,2622.2
788.3762,744.5
788.5586,10715.1
788.6065,18424.8
788.6227,18392.2
788.6721,131.5
788.7784,871.7
789.0858,673.4
789.1587,20.8
789.5624,3749.4
789.6237,11061
789.6657,341
790.0474,933.1
790.4126,575.9
790.5173,506.4
790.5286,484.6
790.5519,2747
790.5751,23118.8
790.6274,664.5
790.6834,240.5
790.8389,1044.4
791.0669,129.9
791.2313,348
791.5784,8667.9
791.6251,846.1
792.0053,206.7
792.5549,1882
792.5922,18150.8
792.9828,796.7
793.2143,366.9
793.2276,463.3
793.473,203
793.596,4312
793.6662,99.1
793.7099,199.1
793.7698,19.7
793.8961,203
794.5112,4937.2
794.5702,6925.2
794.6085,43428.9
794.6686,217.5
794.999,122.7
795.6118,21491
795.9137,232.1
796.0654,417.4
796.444,818.1
796.5277,130302.2
796.5866,3293.2
796.6257,2342
797.004,286.9
797.0289,101.7
797.0511,687.7
797.5312,53706.3
797.5956,694.2
797.6262,1136.4
797.8328,439.2
798.1197,223
798.5449,36697
798.6052,313.2
798.8267,285.2
798.9103,859.4
799.0034,456
799.5468,14425.5
799.6704,863.9
800.466,93
800.5203,1049.6
800.5518,810.6
801.3276,102.2
801.5425,1137.6
801.5968,721.1
801.6247,99
801.6725,156
801.6907,144.5
802.0404,223.9
802.2642,429.6
802.538,46446.3
802.6926,149
802.7233,104
803.038,889.6
803.1813,119.4
803.2694,562
803.3339,90.3
803.5421,18840.8
803.6747,305.4
804.2237,230.8
804.5539,401688
804.7078,116.9
804.8618,123.4
804.9135,114.4
805.0901,104.9
805.3755,144.6
805.5574,187741.9
805.6471,153.5
806.5711,344370.2
807.5742,170407.7
807.6128,762.6
807.6392,1191.7
807.7779,154
807.8629,88
807.8959,139.8
808.2716,176.1
808.5871,236458.1
808.7036,112.2
809.5441,101.7
809.5899,121423.6
809.6531,305.1
809.9058,86.4
810.604,151109.4
810.7876,90.6
811.1359,246.3
811.6069,79874.9
811.6716,10607.5
811.7437,769.4
812.1114,117.6
812.3557,19.1
812.4539,122.5
812.5575,1073.9
812.6211,34150.8
812.6748,2327.7
812.8648,1000.9
813.1354,308.5
813.6231,16129.9
813.6875,12943.5
813.8144,795.5
814.416,430.6
814.5746,3400.7
814.6259,1432.5
814.6908,4829.4
815.4284,148.6
815.653,591.1
815.6919,159.1
815.7508,26
816.1767,146.4
816.3613,159
816.591,25642.7
817.1035,147.2
817.5934,7221.2
817.8309,807.5
818.4097,358.4
818.5141,4566.3
818.5688,1211.9
818.6081,3309.4
819.1033,181.7
819.3185,1567
819.5735,694.3
819.6105,1028.7
819.7731,298.1
820.1502,491
820.2999,171.1
820.5278,64178.9
820.6233,679.1
821.3666,78.1
821.5314,30198.1
821.8523,235.2
822.221,584.1
822.5443,32254.3
822.6048,855.4
822.6352,1029.2
822.7595,117.3
823.2024,118.6
823.5467,12788.7
823.6645,73.8
823.9517,548.9
824.0398,540.9
824.1413,163.2
824.5602,23761.6
825.0702,198.1
825.1039,311.5
825.2594,435.6
825.3547,88.6
825.5629,8170.2
825.6275,174.1
826.1786,22
826.5335,745.6
826.5713,591
826.808,663.3
827.5508,556.6
828.0521,80.7
828.5538,120439
828.6373,137.6
828.9122,84.2
829.0623,874.6
829.1071,223.7
829.354,993.1
829.4469,1181.6
829.5574,55253.3
829.6838,1103.9
830.1124,287.9
830.1561,111
830.3445,441.1
830.4547,455
830.5707,64059.2
830.6032,146.6
830.6712,19.8
831.243,474.4
831.5413,649.8
831.5733,35228
831.9139,814.2
832.0077,163.6
832.2794,157.8
832.4832,1713.1
832.5862,83397.8
832.6975,106.9
832.8763,85.3
832.9531,583.3
833.4269,447.4
833.5894,45165
833.6512,1737.4
833.9185,108.9
834.4974,21
834.6034,37293.4
835.1258,20.6
835.4038,203.3
835.5248,144.9
835.6058,16464.6
835.6693,1660.2
835.7255,843.2
835.7906,260.9
836.5394,881.6
836.6211,3346
836.6716,201.8
836.8912,18.3
837.3393,176
837.4708,22.3
837.4913,189.8
837.6229,2527.1
837.7383,775.4
837.9164,836.6
838.0259,94.4
838.3968,168.1
838.5114,868.4
838.6361,149.4
838.6578,23.4
838.7456,104.2
839.0626,125.3
839.1654,901.6
839.5087,177.5
839.578,426
839.8724,117.2
840.0282,589.2
840.041,335.9
840.1421,181.4
840.2614,170.5
840.7681,319.6
840.8085,239.1
840.8271,394.4
840.8732,1391
841.2404,690.5
841.2645,502.5
841.9262,155.5
842.7286,479.8
842.8437,981.7
842.9714,136.5
843.1264,158.9
843.1616,396.1
843.2006,465.4
843.347,628.4
843.5506,98.6
843.9264,428.7
844.286,147.6
844.4262,94
844.5278,17628.3
844.7413,1408.2
845.4456,20.7
845.5317,4822.5
846.3009,89.7
846.5439,5866
846.6487,136.3
847.2702,396.8
847.3741,22.9
847.5474,1410.8
847.6977,20.5
847.7498,289.7
848.1592,112.9
848.2821,155.5
848.5585,8498.8
848.7455,215.3
848.7793,138.3
849.5617,3695.8
849.673,390
849.9895,499.7
850.1488,419.4
850.3782,674.9
850.5713,1400.4
850.6747,431.4
851.0865,98.2
851.6259,116.5
852.0516,98.2
852.0937,198.1
852.1334,99.7
852.8644,356.7
853.3678,164.3
853.5289,144.5
853.7943,80.8
853.8304,230.5
854.3452,123.4
854.57,2413.4
855.0007,21.2
855.0553,127.4
855.3472,256.4
855.6003,183.5
856.1952,756.9
856.4518,367.8
856.5859,5428
856.6611,751.6
857.5926,325.3
857.8814,126.8
857.9374,113.2
858.1815,791.3
859.3989,1331.2
859.6937,509.1
860.0399,116.2
860.101,21.2
861.0295,1001.2
861.0533,685
861.387,191.5
861.3948,166.3
861.8949,1061.3
862.1526,81
862.2498,83.8
862.5155,699
863.6952,100.6
863.9623,131.9
864.0184,251
864.1304,710.2
864.8505,194.9
865.5211,644.8
866.2951,95.5
866.6133,266.6
866.676,347.8
866.7005,91.7
867.2184,227.4
867.7209,408.6
868.3348,131.3
868.4129,448.2
868.4752,186.7
869.1797,18.5
869.4162,800
869.4612,462.6
869.499,79.2
869.5512,314.5
869.5652,351.8
869.5915,296
869.6322,613.1
869.681,3238.2
869.7245,2819.2
869.7748,2459.5
869.7827,2583.5
869.8068,4232.8
869.8661,4450.6
869.8966,2713.4
869.9315,2931.7
869.9617,1809.1
870.0015,1468
870.0187,1525.1
870.4545,19.6
870.5426,132.3
870.5722,164.9
870.6097,865.2
870.643,81.7
871.3665,90.3
871.8727,117.3
871.9719,182.7
872.0548,1097.3
872.1357,665.7
872.2311,396.6
872.5447,861.1
872.8036,228.7
873.5213,140.6
873.5693,504.3
873.6978,357.8
874.2346,257.7
874.5644,95.2
874.7019,81.9
874.9866,437.3
875.1537,210.2
876.3172,199.6
876.3914,94.2
876.8022,759.9
877.0713,20.2
877.3159,115.9
877.6439,19.3
878.03,159.9
878.0522,322.6
878.3935,389.4
879.5939,114.2
880.0759,762.8
880.3951,125.4
881.0532,101.1
881.2266,664.1
881.3535,452.8
881.7502,706.8
881.9792,103.5
882.393,98.7
882.5806,159.4
882.7056,135.1
883.0373,148.9
883.528,288.3
883.6107,431.2
884.0086,927.3
884.624,264.1
884.8506,297.1
885.122,198.5
885.3709,443
886.4898,373.7
886.6552,227.7
886.9426,520.2
887.4382,106.5
888.4522,189.5
889.8547,1275.2
890.1381,957.3
890.3751,469.1
890.4468,524
890.7857,169
890.8458,220
891.2897,1183.2
891.3811,196.6
891.5429,1068.7
891.6039,917.8
891.7198,1232.7
892.0364,21
892.9948,834
893.019,1152.5
893.1106,146.4
893.4197,112.9
893.8093,1221.4
894.97,350.6
895.613,418.2
895.8242,116.1
896.0405,22.2
896.4216,154.7
896.4722,103.3
896.8049,18.9
896.9764,297.7
897.1058,279.1
897.6788,1027.2
898.2837,965.1
898.8388,1285.2
899.0582,116.1
899.1038,135.1
900.749,210
901.0339,118.4
901.9652,287.4
902.141,431.3
902.247,129.3
902.7135,193.8
903.1065,181
903.8768,96
903.9267,330.8
904.3858,22.1
905.0888,400.5
905.1924,165.3
905.727,119.4
906.4993,449.1
906.6175,96.8
906.69,93.7
906.768,907.4
906.816,438.7
908.5018,311.6
908.6176,21.4
908.6565,768.9
908.7716,167
908.7909,113.1
908.9847,89.9
909.32,126.2
910.6043,18.7
910.942,20.1
911.2377,356.4
911.495,92.7
911.9744,290.8
912.1774,77.5
912.3733,775
912.4017,701.4
912.4258,1924
912.8624,141.1
913.1254,129.2
913.2005,128.7
913.2933,455.4
914.5202,99.1
914.9139,362.5
914.976,507.4
915.078,115.2
915.1911,161.7
915.5445,361.1
916.3216,20.9
916.4934,373.4
916.721,156.1
917.1543,317
917.3184,722.8
917.4527,479.8
917.8799,217.4
919.4965,415.1
919.6571,608.8
919.837,17.3
920.1756,160
920.3909,920.9
920.9923,203.3
921.1994,298
921.3102,165.6
921.4367,147.3
921.6928,894.5
922.1648,241.8
922.361,319.9
922.505,506.7
922.5775,521.3
922.7703,221.4
922.8314,732.5
923.0057,110.3
923.1601,92.6
923.1964,378.6
923.4566,221.5
923.5698,136.3
923.7353,105.1
924.2044,617.4
924.3329,114.8
924.5537,19.3
924.6024,95.2
924.7118,229.8
925.6236,299.4
925.756,235.9
926.0217,427.3
926.3295,348.5
926.3983,120
926.5859,126.6
926.8615,172.5
927.1549,703.5
927.2997,1273.4
927.3236,952.8
927.3316,956.9
927.523,199.1
927.5616,249.5
927.8958,455.6
928.1307,133.7
928.1642,139.2
928.504,455.6
928.5853,88.3
928.861,245.6
928.8888,422.9
929.0175,518
929.0636,149.1
929.3574,189
931.093,480.2
931.7085,121
931.9017,1266.3
932.0152,882.2
932.1418,642.7
932.3555,734
932.8549,19.8
932.9118,20.1
933.5935,120
934.0267,411.8
934.2105,711.8
934.6155,120.5
934.7605,594.6
935.3819,96.1
935.4458,114.7
935.7227,118.5
936.3438,237.2
936.7546,894.4
937.3031,1387.3
937.875,914.3
938.0519,387.7
939.4871,285.3
939.5458,343.1
939.6862,632.5
939.7074,101
939.8203,90.3
939.9636,1295.7
940.4209,391.7
940.4668,841.7
940.709,459
940.725,136.2
940.9073,158.8
941.6272,672.3
941.7509,116.4
942.2232,1621.4
942.7228,786.8
943.229,458.4
943.516,355.8
943.8604,281.6
944.1872,232.1
944.9186,320.9
945.0931,498.2
945.9743,26.7
946.076,436.2
946.7541,123.9
947.6439,100.5
947.8379,435.3
947.9253,231.3
947.9586,87.2
948.368,1302.2
948.5197,734.1
948.8147,1056.5
949.5636,117.9
949.8069,783.2
950.1117,418.6
950.1466,1934.8
950.1848,895.1
950.3835,187.3
950.6768,267.8
952.2718,276.6
952.4067,388.8
952.4513,817.3
953.1719,266.6
953.7909,765.7
953.8234,453.8
954.3673,430
954.8838,282.4
954.9675,541.6
955.6328,117.3
955.7285,275.3
956.1116,174.7
956.4865,182.3
956.659,645.9
956.8833,164.6
957.1765,22.6
957.5754,550.1
957.8228,19.1
958.1261,722.1
958.3452,18.7
958.5279,19.3
959.196,100.6
959.2725,470.5
959.6028,110.7
959.7558,176.7
959.8427,909.5
960.0585,124.8
960.7933,756.1
960.9573,233
961.2301,110.1
961.4612,123.6
961.5263,101.2
961.8272,114.1
961.8744,2150.3
962.0572,112.4
962.0874,138.2
962.3224,434.8
963.743,139.5
964.0164,197.8
964.082,933.1
964.286,969.4
964.3716,1300.9
964.5004,759.6
964.6245,931.2
964.7611,104.3
964.8847,142
964.9316,110.5
965.0357,498.2
965.2111,942.8
965.2522,992.2
965.5481,92.1
966.0594,376
966.0984,21.6
966.1507,597
966.1764,713.8
966.2182,116.2
966.6317,214.1
967.3471,173.5
967.7099,145.2
967.93,229.8
968.2294,933.1
968.3668,188.9
968.86,601.1
969.2608,146.6
969.4617,590.3
969.8504,681.7
970.6158,667.4
970.9991,74.6
971.6472,2256.5
972.0855,21.4
972.5404,1282.6
972.8011,307.8
972.9263,167.1
974.4832,646.7
974.8699,549.9
975.3688,1984.7
976.0928,593.6
976.2416,158.2
976.3403,636.8
976.3715,810.9
976.3796,792.8
976.5819,190.1
976.8004,110.1
976.8536,1126.8
976.8921,163.1
976.9531,909.8
977.2337,338.3
977.5611,429.5
977.6856,340.5
977.7106,1393.1
978.1169,139.7
978.278,128
978.3247,615.7
978.4671,192
978.5905,169.8
978.6428,842.4
978.6767,393.5
978.7809,22.4
979.0194,498.4
979.3111,2227.5
979.6094,506.4
980.0399,163.2
980.1611,861.9
980.6685,190.1
980.9653,1080.4
981.1379,109.1
981.2054,137.5
981.4,190
981.4976,369.5
981.584,315.3
981.8921,92
982.1673,815
982.3137,140.8
982.4938,489.1
982.9559,400.9
983.443,732.9
983.7385,2535.6
983.8064,134.2
984.28,83.8
984.331,114.5
984.3927,20.5
984.543,162
985.0913,109.9
985.1439,978.7
985.1883,24.2
985.3237,575.4
985.3647,503.2
985.5172,2454.3
985.5519,203.7
985.6936,739.3
986.0282,1931.5
986.1251,19.1
986.781,430.9
986.933,19.2
987.1875,258.2
987.65,1058.6
987.8264,497.5
988.076,104.5
988.2174,657.3
988.3172,270.6
988.5732,19
988.8039,114.4
988.8987,307.3
989.2696,704.9
989.5413,512.5
989.6064,1052.4
989.7393,1527.6
989.8088,226.3
989.818,234.1
989.8315,139.5
991.176,124.2
991.2772,368.1
991.9874,455.7
992.2254,147.8
993.0993,258
993.3228,1042.2
993.9294,861.5
994.0869,567.5
994.3261,613.2
994.7916,954.7
995.2381,158.8
995.2952,92.5
995.4689,916.1
995.5004,507.5
995.7389,332.5
995.7905,168.3
995.8771,299.7
995.9799,692.4
996.1791,691.3
996.3035,172.5
996.3355,997.6
996.9195,900.9
997.0323,86.7
997.5939,429.7
997.9471,700.2
998.5713,154.8
998.8777,129.5
999.7379,678.2
999.8311,759.2
