SPECTRUM - MS,
QC_8.RAW,
FTMS + p ESI Full ms [50.00-1000.00],
Scan #: 1-40,
RT: 0.01-1.96,
AV: 40,
m/z,Intensity

50.0082,397.5
50.0093,383
50.0138,417.5
50.0248,458.9
50.026,72.2
50.0306,363.9
50.0382,94.5
50.0558,170.9
50.0644,415.3
50.0881,362.1
50.0941,369.5
50.1105,380.4
50.1192,156
50.1304,110.2
50.1643,92.2
50.1684,159.1
50.1914,88.9
50.1964,903.7
50.2034,133.3
50.2101,665
50.2109,399.6
50.2229,648.6
50.2417,369.4
50.2471,134.6
50.2561,771.1
50.2732,213.2
50.2831,188.5
50.3071,571.7
50.3079,99.7
50.3262,374.5
50.3373,88.2
50.3475,100.1
50.3533,672.9
50.3883,427.6
50.3905,557.9
50.3984,17.4
50.4061,116.6
50.4136,80.4
50.4201,191.4
50.45,21.9
50.4684,82.1
50.4831,116.7
50.5267,308.8
50.5332,90.3
50.5423,108.2
50.5507,18.9
50.5601,166.6
50.5617,183.9
50.5731,82.5
50.5874,257.9
50.5888,418.9
50.5907,79.5
50.6127,784.5
50.6199,154.6
50.6275,80.8
50.6313,22.1
50.6625,309.4
50.6645,19.6
50.7027,491.2
50.7256,358.3
50.7266,202.2
50.7273,18.1
50.7282,566.9
50.7323,937.9
50.7424,303.4
50.7551,190.3
50.7581,308.1
50.8129,308.5
50.8135,473.7
50.8183,406.3
50.8234,399
50.8436,605.5
50.8679,229.1
50.8795,90.6
50.8918,545.4
50.9201,557.1
50.9305,275
50.9367,568.4
50.9686,449.2
50.9882,323.9
50.9933,147.2
50.994,271.1
50.9999,369.8
51.0196,572
51.0246,133
51.0296,74.4
51.0379,429
51.0387,322.4
51.0566,83.4
51.0678,547.9
51.0908,111.3
51.094,552.2
51.096,388
51.1041,123
51.1137,122.7
51.1532,321.9
51.1675,16.7
51.175,94.2
51.1811,16.7
51.2051,88.3
51.2157,16.5
51.2222,471.2
51.2467,391.2
51.2476,130.3
51.2592,270.7
51.2656,261.8
51.2671,541.8
51.2684,360.2
51.2794,16.9
51.2814,78.8
51.2858,126
51.2872,171.6
51.2902,355
51.295,943.7
51.3006,174.2
51.3196,88
51.3221,231.8
51.3293,139.9
51.3373,16
51.3417,361.5
51.3458,344.6
51.3708,106.1
51.4163,630.6
51.4346,812.4
51.4368,144.4
51.4378,112.5
51.4797,160.1
51.505,108.8
51.5289,70.2
51.5399,871.2
51.5424,77.9
51.5479,223.4
51.5501,360
51.558,78.5
51.5603,16.8
51.5719,378.9
51.5728,594.1
51.6005,255.7
51.6082,19.4
51.6265,142.7
51.6291,119.3
51.6465,86
51.6566,770.9
51.6652,73.4
51.6681,107.4
51.672,91
51.6786,169.3
51.7119,281.8
51.7271,244.5
51.7407,101
51.7546,115.2
51.761,106.6
51.7685,174.4
51.7821,234.8
51.7879,15.5
51.7908,579.4
51.8046,420.9
51.821,119.8
51.8279,191.1
51.8305,158.2
51.8416,158.7
51.8511,302.7
51.8719,308.7
51.8765,191.6
51.8803,245.7
51.9007,625.5
51.9032,92.1
51.9138,825.6
51.9198,67.5
51.9448,533.6
51.9662,139.3
51.9726,389.4
51.9786,492
51.979,117.3
51.9876,298.9
51.9882,303.4
51.993,112.8
52.01,224.2
52.0107,410.3
52.0175,209.1
52.0203,137.3
52.0328,279.9
52.0331,155.6
52.0355,81.8
52.0411,81.1
52.0463,335.7
52.0546,18.2
52.087,448.6
52.0894,232.9
52.0955,77.4
52.113,83.4
52.1315,761.2
52.1344,351.6
52.1464,308.1
52.1622,18.5
52.1666,104.6
52.1695,366.8
52.18,231
52.1821,111
52.2012,120.8
52.2075,77.6
52.2105,893.8
52.2152,196
52.2262,117.8
52.2326,400.5
52.2419,16.4
52.2431,439.2
52.2437,71.6
52.2725,122.5
52.2798,105.4
52.2975,18.6
52.299,86
52.3102,639.6
52.3191,165.9
52.3278,94.4
52.3283,759.8
52.3383,80.9
52.3595,84.2
52.3744,15.3
52.3831,444.5
52.3842,262.1
52.3973,285.3
52.4166,109.3
52.4394,863.2
52.4555,116.2
52.4623,499.9
52.4721,538.2
52.4756,521.1
52.4822,128.1
52.4858,17.7
52.4876,565.4
52.4926,437.2
52.5138,104.8
52.5174,152.9
52.5319,730
52.5528,480.7
52.5534,133.6
52.557,108.5
52.5574,139.7
52.5632,19.1
52.5669,100.6
52.5704,17.1
52.5765,65.9
52.581,142.4
52.603,889.7
52.6114,463.9
52.6216,639.3
52.6425,79.7
52.653,260.3
52.6785,450.1
52.6946,433.6
52.7151,81.5
52.7243,102.6
52.74,629.1
52.7415,71.8
52.7482,129.3
52.7666,135.3
52.767,290.6
52.7998,330.1
52.8011,405.8
52.8018,790.7
52.8023,1477.9
52.8027,4038.7
52.8039,2346.1
52.8046,373.4
52.8054,1261.7
52.8129,249.1
52.8382,567.3
52.8473,316
52.8619,64.1
52.8639,112.2
52.8734,74.2
52.8947,15.7
52.9099,16
52.9171,74.9
52.9191,107.5
52.9196,369.5
52.9207,326.7
52.9217,90.3
52.9236,192.6
52.9305,776.2
52.9365,86.5
52.9395,153.2
52.9476,390.6
52.9529,218.8
52.9673,128.5
52.9736,79.1
52.9866,487.7
52.9873,100.5
52.9968,754.4
53.0031,191.9
53.0115,78.9
53.037,74.6
53.1014,160.7
53.1088,457.7
53.1125,83.3
53.1129,16.2
53.1166,186.9
53.1358,169.2
53.1399,17.5
53.1403,95.6
53.1459,183.1
53.1594,126.5
53.1654,77.3
53.1719,168.8
53.1728,160.6
53.1888,373.3
53.19,140.1
53.1941,207.8
53.2098,132.9
53.2112,16
53.2139,15
53.2156,92.6
53.2375,392.7
53.2408,16.8
53.2426,18.2
53.2477,17.7
53.2617,16.6
53.2668,618
53.2751,77.8
53.2991,113.7
53.3133,371.3
53.3218,510.8
53.345,89.4
53.349,235.2
53.3493,16.6
53.365,158.8
53.3733,347.4
53.3751,152.5
53.379,87.7
53.3821,16.2
53.3923,370.2
53.4135,351.9
53.4158,183.2
53.4199,346.4
53.4231,91
53.425,18.9
53.4461,91.5
53.4527,491.7
53.4732,104
53.4768,93.1
53.4996,588.3
53.5032,118.6
53.5119,130.8
53.5271,79.5
53.5283,85.1
53.5338,368.1
53.5357,162.5
53.5364,85.3
53.5866,163.6
53.5877,88.1
53.5897,205.3
53.6051,75.3
53.6295,435.6
53.6357,84.5
53.6689,20.5
53.6782,116.6
53.7087,298.6
53.7209,283.4
53.7225,378.4
53.7309,22
53.7499,150.6
53.7746,17.9
53.7754,188.9
53.7783,137.7
53.7971,583.7
53.7978,117.2
53.8062,151.5
53.8193,733.3
53.8292,124.8
53.8295,463.8
53.8377,100.3
53.8514,172.3
53.8773,18.1
53.889,312.2
53.9045,110.6
53.9128,242.1
53.9182,155.4
53.9225,129.6
53.9397,431
53.9509,99.6
53.9579,126.6
53.981,307.7
54.0035,119
54.0048,407.6
54.0067,217.2
54.0075,129.6
54.0175,367.2
54.0186,96.6
54.0274,74.4
54.03,246.9
54.0356,187.2
54.0454,175.8
54.0612,129.7
54.0655,137.9
54.0756,327.8
54.0814,289.5
54.0824,21.6
54.0829,81
54.0876,17
54.0943,17.1
54.1019,83.2
54.1057,204.6
54.1146,107.9
54.1173,222.2
54.1207,706.8
54.1252,68
54.1276,717
54.1378,638.6
54.1629,81.8
54.1633,16
54.169,218.3
54.1695,277
54.1815,267.7
54.1923,328.2
54.1935,288.6
54.2052,241.8
54.2303,210.5
54.2343,103.1
54.2355,359.2
54.2425,110.1
54.2463,363.9
54.2466,436.6
54.2531,565.6
54.2734,80.7
54.2802,419
54.2837,558.7
54.2965,77.9
54.3123,177.9
54.3211,363.8
54.3248,482.1
54.3497,128.6
54.3501,150.7
54.3514,77.7
54.3876,138.2
54.4002,15.1
54.4054,395.2
54.4099,307.4
54.4266,510.9
54.4275,115.8
54.4325,125.7
54.4362,106.5
54.4686,405.5
54.4804,77.2
54.5073,15.1
54.5087,73.2
54.5254,284.1
54.5321,100.9
54.5425,111.8
54.5451,212
54.5555,153.1
54.5737,107.3
54.5884,16.6
54.5932,88.9
54.6078,557.3
54.6196,130.3
54.6215,636.3
54.6257,591.8
54.6439,110.9
54.6587,91.9
54.6602,531.5
54.679,119.9
54.6813,207.4
54.7116,668.1
54.7139,121.1
54.7449,336.7
54.7633,124.8
54.7637,313.8
54.7652,640.2
54.7859,79.9
54.7912,16.1
54.8093,75.2
54.8588,85.4
54.8592,838.2
54.8696,243.9
54.8724,570.8
54.8745,99.9
54.8793,17
54.8891,76.5
54.9124,246.8
54.9141,321.6
54.9151,201.1
54.921,70.5
54.9318,71.9
54.937,786.3
54.9411,97.7
54.9477,81.1
54.952,455
55.0033,67.2
55.0208,149.5
55.0241,153.9
55.0306,74
55.0478,612
55.0504,450.6
55.0518,769.8
55.0537,582.7
55.0602,511.3
55.0792,214.2
55.0915,233
55.1046,213.9
55.1057,87.4
55.1099,947.5
55.1196,713.4
55.1227,632.2
55.1526,72.5
55.1705,101.3
55.1734,377.9
55.1748,530.3
55.1796,79.9
55.1979,100.1
55.2387,592.8
55.2641,741.4
55.2754,517.7
55.2837,286.9
55.2964,132.9
55.3201,20.5
55.3255,96.4
55.3267,68.4
55.3317,91.8
55.3566,16.4
55.3832,21.3
55.3984,403.7
55.4028,441.2
55.4069,157.6
55.411,270
55.4175,628.1
55.4185,190.7
55.4258,560.4
55.4511,269.2
55.4515,105.4
55.4531,331.8
55.4588,88.3
55.4681,345.7
55.4687,62.9
55.4827,16.6
55.4869,19.3
55.5279,200.7
55.5312,531.7
55.5435,108.9
55.5619,154.5
55.5676,283.8
55.5707,419
55.5907,206.6
55.6211,221.6
55.6545,254.4
55.6634,103.5
55.6756,151.1
55.6773,200.9
55.6802,118.6
55.7153,698.7
55.7459,88.5
55.7489,452.4
55.8016,122.7
55.8025,168.5
55.81,81.1
55.8238,765.2
55.8419,212.9
55.8616,176.7
55.8621,18.2
55.8767,218.6
55.8885,320.7
55.8957,150.2
55.9372,223.5
55.944,638.2
55.945,86.8
55.9456,506.1
55.9529,109
55.9554,256.3
55.9901,773.1
55.996,524.6
56.0035,210.4
56.0045,325.9
56.0185,131.1
56.0241,221.4
56.0343,581.6
56.0842,684.2
56.0915,76.1
56.095,93
56.1137,105.3
56.1196,145.6
56.1437,16.5
56.1603,70.3
56.1609,346.8
56.1644,211.6
56.1693,185.9
56.1739,308.3
56.1869,837
56.1999,98.1
56.2058,424.1
56.2088,207.6
56.2123,587.8
56.2394,654.2
56.248,126
56.2801,349.7
56.3047,337.8
56.3169,117
56.3229,160.1
56.3294,162.1
56.3537,391.2
56.3544,102.9
56.3742,284.3
56.3839,85.8
56.3862,474
56.3891,199.4
56.41,116.8
56.416,236.5
56.4166,224.9
56.4311,145.8
56.4413,79.6
56.4468,811.5
56.4586,724.1
56.4732,17.2
56.4851,147.6
56.5211,76.5
56.5219,119.5
56.5482,168.6
56.5876,17.2
56.6224,487.4
56.6229,148
56.6328,148.4
56.6343,165.9
56.6629,72.8
56.6723,92.3
56.6955,16
56.7019,847.2
56.7314,201.3
56.7711,302.7
56.7877,90.6
56.8127,105.6
56.8245,159
56.8492,188.2
56.8529,99.1
56.8962,198.1
56.9073,77
56.9259,477.4
56.9394,299.3
56.9676,155.6
56.9939,167.8
57.0092,69.5
57.0664,476.8
57.0692,478.3
57.0715,82
57.0834,287.4
57.0907,132.9
57.1089,165.8
57.1365,16.5
57.1416,351.8
57.1514,84.2
57.155,135.2
57.1567,436.6
57.1586,308.9
57.1818,15.9
57.1894,69
57.1998,805.3
57.2032,120.6
57.2728,360.2
57.3118,532.2
57.3281,230.7
57.3574,158.5
57.3656,134.4
57.37,135
57.3725,680
57.3812,125.1
57.4017,16.6
57.4488,214
57.4505,69
57.4573,18.2
57.4696,17.7
57.4722,650.8
57.4861,150.5
57.4876,86.7
57.5132,395.5
57.5267,456
57.5318,908.5
57.5331,17.6
57.5421,134.7
57.5535,785.4
57.558,17.1
57.5708,71.3
57.5778,81.2
57.5872,613.8
57.6011,409.6
57.6042,110.6
57.6049,194.8
57.6099,161.5
57.6113,153
57.6117,195
57.634,102.3
57.655,245.4
57.6649,755
57.6844,189.8
57.7043,110.2
57.7171,535.3
57.7211,355.2
57.7439,557
57.7638,136
57.7659,564.3
57.769,723.6
57.7824,122.5
57.8044,270
57.8127,80.5
57.8231,657.3
57.8708,17.2
57.8798,17.2
57.8928,178.2
57.8947,71.8
57.8963,16.2
57.9775,167
57.9845,516.3
58.0288,111.2
58.0436,127.1
58.0551,155.8
58.0632,133.7
58.0847,214.3
58.0892,212.7
58.094,144.2
58.0997,71.5
58.1003,17.1
58.1427,103.4
58.1454,556.9
58.1511,132.6
58.1645,357
58.1873,71.5
58.1959,777.2
58.1993,149.8
58.2174,16.4
58.2265,531
58.2401,626.6
58.2421,335.5
58.2531,574
58.2763,438.1
58.2839,388
58.2863,91.2
58.2903,85.7
58.3021,405
58.3457,396
58.3612,479.1
58.3636,315.8
58.37,79.9
58.3728,263.3
58.3756,166.3
58.385,16.4
58.3962,170.1
58.4055,457.2
58.414,396.1
58.4351,204.7
58.445,814.5
58.4573,98.4
58.4795,186.2
58.5083,772.6
58.5148,119.4
58.5296,577.4
58.5431,76.7
58.5763,64.4
58.5818,134.7
58.5902,146.2
58.6028,338.6
58.6395,175.3
58.6458,378.1
58.6557,332.6
58.6666,209.1
58.6864,228.9
58.7136,94.7
58.7451,97.7
58.7464,275.2
58.7591,520.2
58.7596,299.4
58.7755,161
58.7807,519.1
58.7852,286.9
58.7907,405.4
58.8252,277.8
58.8386,84.1
58.876,79.5
58.8915,583.8
58.9091,181.4
58.9139,161
58.9416,19.7
58.9482,115.5
58.9627,396.9
58.9861,131.1
58.9905,16.4
58.993,420.2
59.0221,107
59.0316,414.9
59.0332,88.4
59.0454,205.5
59.0589,148
59.0654,79.2
59.085,15.9
59.0877,405.3
59.0884,332.2
59.089,143.3
59.0918,186.3
59.1191,165.8
59.1197,172.4
59.1642,284.8
59.1693,200.3
59.1712,17.9
59.1837,18.1
59.1906,636.3
59.1946,457.3
59.2083,86.2
59.219,581.9
59.2273,161.7
59.2447,189.7
59.266,780.4
59.3003,112.4
59.3204,114.3
59.3367,158.6
59.34,113.3
59.3427,101.7
59.3624,475.7
59.3658,75.6
59.3695,379
59.3762,185
59.3895,161.8
59.4111,190.7
59.4147,651.5
59.453,87.3
59.4695,589.2
59.4747,144.5
59.4862,347.9
59.5081,267.2
59.5088,201
59.5263,176.8
59.5351,205.3
59.5378,546.6
59.5452,132.9
59.5468,127.5
59.5479,794.7
59.5516,426.1
59.552,161.2
59.5572,290.6
59.596,17.6
59.6001,206.8
59.6022,394.3
59.6184,415.4
59.6241,387.4
59.6357,207
59.6358,194.8
59.636,158.3
59.664,17.8
59.6682,450.1
59.6776,199
59.6811,92.2
59.6887,128.7
59.7067,15.6
59.7254,115.9
59.7307,83.9
59.7477,400.7
59.753,126
59.7612,218.6
59.7625,75.7
59.7686,393.5
59.7729,176.7
59.7772,95.1
59.7959,711.5
59.7998,187.6
59.8096,390.5
59.8424,460
59.8517,746.9
59.8644,156.4
59.8886,188.5
59.8924,96.3
59.9131,93.1
59.9137,742.2
59.9377,543.9
59.9713,73.1
59.9818,85
59.9867,165.6
60.0067,122.4
60.0079,96.2
60.0237,411.6
60.0285,345.6
60.0457,174.6
60.0545,91.1
60.0687,119.2
60.0916,218.9
60.0955,274.4
60.1091,839.8
60.1167,117.2
60.1173,339.8
60.1245,130.8
60.1306,410.7
60.1506,266.7
60.1581,692.2
60.1675,437
60.1804,168.9
60.1907,157.4
60.1942,301.5
60.2092,117.7
60.214,194.5
60.2155,561
60.216,674.6
60.2166,604.9
60.2185,334
60.2271,367
60.2309,210.6
60.2502,163.8
60.2535,205.2
60.2806,93.2
60.2853,441.4
60.2881,411.1
60.3013,557.6
60.305,502.8
60.3279,81.1
60.329,215.8
60.3295,144.7
60.3314,113
60.3341,122.1
60.3509,131.2
60.3585,815.4
60.364,524.6
60.3679,235.8
60.3739,82.9
60.3806,258.9
60.3809,111.1
60.3814,144.5
60.394,674.3
60.3981,630.6
60.412,82.4
60.4236,649.8
60.4362,79.6
60.4615,70.4
60.4945,312.3
60.4968,17.3
60.4978,595.7
60.4992,121.4
60.5104,167.2
60.5372,116.4
60.5476,129.5
60.5509,115
60.5704,100.4
60.5983,292.4
60.6014,294.5
60.6313,439.4
60.6378,558.3
60.641,121.1
60.6508,98.6
60.6734,286.1
60.6863,229.1
60.69,499.4
60.6922,94.8
60.6946,545.2
60.698,305.5
60.7138,254.6
60.7554,17.3
60.7581,167.4
60.7758,775.8
60.7827,508.2
60.8057,207.5
60.8219,287
60.8256,1083.1
60.8363,158
60.8469,767.3
60.8511,88.2
60.8532,389.4
60.8762,392.9
60.8875,689.1
60.894,19.4
60.8979,18.7
60.9248,158.8
60.9324,255.4
60.95,79.4
60.9773,943.6
60.9782,147.7
60.99,125.3
61.0031,784.8
61.0042,20.1
61.0068,171.1
61.0097,358.2
61.0244,186.9
61.0271,18.3
61.0454,16.2
61.0491,112.1
61.0762,212.2
61.0795,643.8
61.0814,183.3
61.099,16.9
61.1218,96.4
61.1366,995.9
61.138,96.5
61.1643,83.2
61.1891,122.8
61.1979,91.9
61.1995,496.9
61.2002,71.1
61.2277,147.2
61.2341,73.7
61.2392,238.7
61.2526,363.1
61.2574,337.4
61.2739,129.1
61.2826,98.3
61.2886,77.2
61.3002,14.5
61.3084,102.8
61.3137,330.4
61.3288,18.3
61.3691,801.1
61.3735,115.7
61.3831,105.1
61.3868,83.6
61.3951,332.8
61.4183,79.9
61.4324,80.8
61.4684,151.3
61.4917,19.1
61.4981,120.3
61.5019,336.3
61.5032,768.5
61.5123,18.1
61.5256,95.3
61.5309,170.8
61.5333,311.6
61.5649,17.2
61.5748,99
61.5856,103.7
61.5885,157.5
61.5915,870.6
61.598,407.4
61.5996,387.2
61.6134,155.2
61.6177,16.1
61.6187,293.3
61.6227,94.8
61.6398,484.9
61.6511,360.8
61.6587,347.2
61.7018,114.5
61.7283,909.3
61.7305,469.7
61.7347,344.2
61.7659,191.5
61.7837,110.2
61.794,516.3
61.7999,122.8
61.8338,355.1
61.8964,302
61.8998,17.5
61.9083,115.3
61.9104,22
61.9114,617.7
61.9349,870.6
61.97,182.9
61.988,91.5
61.9992,95.8
62.0044,212.9
62.0113,243.6
62.0294,114.2
62.0301,107.5
62.047,159.8
62.0554,75.1
62.0565,124
62.0913,398.6
62.1177,120.5
62.1455,82.9
62.1491,423.8
62.1682,677.2
62.1758,605
62.1995,653.6
62.2183,114.7
62.2434,96.4
62.2502,129.2
62.2518,330.7
62.2659,93.4
62.2709,187.6
62.2802,117.8
62.2857,18.7
62.2932,125.9
62.3032,17.6
62.3214,116
62.3246,661.3
62.3544,659.3
62.3628,427.4
62.3635,248.7
62.3643,698.9
62.3659,83.4
62.369,124.4
62.3992,86.2
62.4022,138.7
62.4048,18.2
62.4522,104.8
62.4818,138.1
62.5275,551.7
62.5319,542
62.5486,452.9
62.5528,86.3
62.5568,111.1
62.5693,731.7
62.591,17.7
62.5928,81.3
62.5978,420.4
62.6519,465.7
62.6729,101.4
62.6883,273.4
62.6984,172.3
62.7048,77.1
62.7156,86.6
62.7211,184.1
62.7375,293.2
62.7381,94.7
62.7547,18.8
62.7728,212.1
62.7749,1015.6
62.7842,580.7
62.8065,14.6
62.8237,128.1
62.8276,613.8
62.8304,121.1
62.8539,92
62.8561,84
62.8675,16.4
62.8855,94.3
62.8895,611.4
62.8955,874.2
62.9125,605.3
62.9169,170.4
62.9224,207.1
62.994,268.2
63.0066,156.4
63.0099,194.3
63.0173,213.9
63.0217,180.6
63.027,222.8
63.0512,96.9
63.0648,109
63.0751,571.6
63.0802,416
63.0951,331.4
63.098,234
63.0982,271.2
63.104,131.1
63.1241,179.7
63.1255,110.7
63.1332,180.6
63.138,18.2
63.1436,75.7
63.1578,320.8
63.1728,518.7
63.1751,480.4
63.1912,106.4
63.2097,398.7
63.2283,196.9
63.2468,162.9
63.2512,83.1
63.2757,116.9
63.2939,20.5
63.2995,291.5
63.316,159.9
63.3429,19.9
63.3624,160.3
63.3825,163
63.3935,138.1
63.395,83.4
63.4046,20.7
63.4074,98.6
63.4178,117.5
63.4216,79
63.4284,94.8
63.4352,440.5
63.4566,178.8
63.4586,419.8
63.4643,86.9
63.4736,260.3
63.4765,211.4
63.4863,308.1
63.4876,92.3
63.4993,217.5
63.5,159.1
63.5012,369.4
63.5118,121.3
63.513,371.8
63.5146,454.2
63.5191,386.7
63.5204,202.6
63.5296,396.5
63.5355,356.2
63.5551,161.3
63.5601,170.4
63.5985,155.7
63.626,811.3
63.6312,598.9
63.6341,351.1
63.6618,151.4
63.6717,18.9
63.6996,125.5
63.707,101.4
63.7227,17.9
63.7237,360.7
63.7324,89.4
63.7468,417.4
63.7544,16.6
63.7832,877.7
63.7839,764.6
63.7973,880.3
63.8055,100.9
63.8105,86.6
63.8161,149.7
63.8322,306.2
63.8342,16.7
63.8381,202.2
63.8411,652.4
63.8464,344.3
63.8495,239.6
63.8562,151.4
63.8602,181.7
63.8727,460.7
63.8803,750.7
63.8818,613.6
63.8969,162.1
63.9112,88.8
63.9141,109.9
63.9329,179.4
63.9448,576.3
63.9456,113.6
63.9543,69.4
63.9587,78.8
63.9769,193.6
63.9877,322.6
64.0265,169.2
64.0338,19.6
64.0504,18.3
64.0514,234.8
64.0602,147.3
64.0805,320
64.0958,17.2
64.1183,186.5
64.123,307
64.1315,628.1
64.1431,157.4
64.1452,435.7
64.1485,213
64.1616,17.4
64.1818,117.7
64.19,171.4
64.2014,311.1
64.2114,124.3
64.2181,396.2
64.2204,920.4
64.2226,68.7
64.2367,644
64.2549,15.3
64.2557,118.8
64.2961,100.2
64.3146,95.2
64.3279,403.4
64.329,19.2
64.3505,87.5
64.3786,152.9
64.3882,1024.5
64.4197,175.6
64.4447,149.2
64.4469,107.3
64.4511,525.5
64.473,106.6
64.4774,300.9
64.4856,107.3
64.499,216
64.5038,19
64.5048,132.7
64.5342,407.4
64.5524,780.7
64.5628,129.3
64.5654,77.6
64.6221,102.3
64.6251,274.2
64.6304,160.3
64.6615,648.1
64.6733,467.9
64.6776,352.5
64.6812,123.5
64.715,160.1
64.7174,16.5
64.7277,69.3
64.7293,128.3
64.7441,122.8
64.7597,290.6
64.761,110.7
64.7647,173
64.7679,700.4
64.7725,166.9
64.7892,169.1
64.801,119.6
64.8071,275.5
64.8188,894.2
64.827,130
64.8452,173.6
64.8526,432.6
64.8608,182.3
64.8738,161.4
64.8801,219.2
64.8826,123.7
64.9113,18.5
64.9205,392.2
64.9266,112.1
64.9289,199.7
64.933,609.9
64.9388,76.2
64.9618,91.7
64.9669,214.6
64.9685,1148.6
64.9831,729.6
64.9872,127.4
64.9911,79
64.9974,313
64.9982,192.8
65.0223,621.4
65.0285,619.6
65.0322,79.3
65.0363,402.1
65.043,151.7
65.0718,107.1
65.0804,226
65.0878,874.9
65.1084,18.5
65.1123,87.9
65.1134,84.6
65.1155,438.3
65.1253,160.1
65.1255,145.3
65.1339,326.8
65.1358,404.2
65.1381,17.4
65.1427,416.8
65.1509,129.7
65.1631,214.2
65.2112,333.2
65.2263,160.9
65.231,99.3
65.2467,635.3
65.2586,157.6
65.2595,139.1
65.2749,409.7
65.2829,211.4
65.3041,217.6
65.3103,125.1
65.3659,446
65.3719,435.5
65.3844,194.8
65.408,154.4
65.4381,19.2
65.449,131
65.4751,98.9
65.4799,127.9
65.4834,17.4
65.493,333.2
65.4955,269.4
65.5294,99
65.5309,359
65.538,737.3
65.5445,755.1
65.5521,253.3
65.5776,81.1
65.5981,194.4
65.5995,127
65.6106,590.4
65.6158,211
65.6333,631.4
65.6488,442.3
65.6498,88.8
65.7055,18.9
65.7126,159.3
65.7283,129.5
65.7458,16.7
65.7483,236.8
65.7489,240.2
65.7542,584.4
65.7616,406.5
65.7731,211.7
65.8138,542.7
65.8288,79.8
65.8328,177.7
65.8348,614.7
65.8382,531.6
65.8804,389.3
65.89,168.4
65.8915,22.5
65.9041,82.1
65.9149,20.5
65.9241,181.2
65.9312,1074.9
65.9448,222.4
65.9457,359
65.9467,123.4
65.9517,123.3
65.9554,15.1
65.9711,165.7
65.9868,201.8
66.0211,388.5
66.0357,1081.2
66.0393,20.5
66.0407,17.9
66.0706,19.1
66.0904,550.8
66.1072,16.5
66.1154,486.9
66.1249,323
66.1278,136.3
66.1426,600.3
66.2013,400.4
66.2067,87.4
66.2194,268.9
66.2211,590
66.2548,170.8
66.2602,241.4
66.2677,571.4
66.2943,274.3
66.3026,120.9
66.3116,342.6
66.3162,173.2
66.3366,646.1
66.34,141.7
66.3603,173.8
66.3672,358.8
66.3686,91.9
66.4448,139.8
66.448,17.1
66.4576,155.8
66.4595,577.5
66.4896,476.7
66.4923,103.7
66.4964,79.6
66.5092,157
66.5148,444.2
66.5207,861.5
66.5221,19.3
66.5495,162.4
66.5526,236.1
66.5884,418
66.641,517.8
66.6483,114.9
66.6545,527.7
66.6758,131.2
66.6843,152.9
66.6865,21.4
66.6937,15.9
66.6949,403.2
66.7236,17.2
66.7661,224.9
66.7803,194.9
66.7823,152
66.8005,74.6
66.8156,148.5
66.8172,151.4
66.8184,602.8
66.8258,115.7
66.8309,384.8
66.8335,305.1
66.8483,109.3
66.8494,114.4
66.8536,111.6
66.8626,173.9
66.8776,247.8
66.8953,522.7
66.9039,90.4
66.9054,342.7
66.9158,498.4
66.9382,137.9
66.9414,17.1
66.9447,311.3
66.9663,645.7
66.9708,248
66.9754,112.1
66.9819,116.1
66.9968,85.2
66.9993,165.1
67.0066,17.2
67.0074,399.5
67.0148,195
67.0273,213.6
67.0419,18
67.054,53.9
67.0571,362.8
67.0611,146.9
67.0749,293.5
67.0837,519.5
67.104,192.4
67.1253,892.6
67.1355,663.1
67.1642,238.9
67.1676,147.2
67.1735,125.3
67.1902,121.8
67.1922,259.8
67.1967,189.8
67.2018,26.8
67.207,99.3
67.2196,426
67.2392,16.6
67.2463,190.1
67.258,481.7
67.2997,133.7
67.3023,17.5
67.3032,114.1
67.3198,326.7
67.3328,107.6
67.3394,17.2
67.3521,129.8
67.3529,467.6
67.3542,266.2
67.3554,105.2
67.3609,139.1
67.3733,132.4
67.3766,63.3
67.3819,510.7
67.388,437.5
67.3926,116.4
67.414,308.6
67.4215,140.4
67.4267,19.2
67.4295,89.5
67.4317,363.5
67.4456,66.3
67.4941,328.9
67.5011,212.9
67.5038,87.6
67.5185,130.2
67.5309,184.8
67.5332,313.5
67.5491,601.8
67.555,73.2
67.556,189
67.558,415.1
67.5756,564.8
67.5994,88.6
67.6008,154.2
67.6035,362.1
67.6409,92.4
67.6735,133.3
67.6846,273.1
67.7091,775.3
67.7207,802.6
67.7585,518.3
67.7634,162.2
67.7669,91.3
67.7735,209.5
67.8329,364.3
67.8338,82.3
67.8475,116.1
67.8761,358.4
67.8951,100.7
67.9076,89.2
67.9411,137.1
67.9426,122.4
67.9454,88.5
67.9483,720.7
67.9515,821.4
67.9547,127.9
67.9556,78.9
67.9692,464.2
68.0115,17.2
68.0262,486.1
68.0504,69
68.0574,185.3
68.066,360.5
68.0754,362.5
68.0949,114.8
68.0989,141.7
68.1019,105.9
68.1028,126.2
68.1335,335.9
68.1426,70.5
68.1489,135.9
68.1783,139.8
68.2172,19.7
68.2177,370.4
68.2264,227.5
68.2332,135
68.2352,18.3
68.2491,110
68.2506,278.8
68.2628,434.4
68.2667,317.2
68.2711,732.5
68.2932,134.8
68.2991,129.3
68.3097,242.9
68.3271,532.5
68.3449,187.7
68.3481,493.6
68.3659,122.7
68.3946,429.2
68.4129,794.6
68.4202,20.8
68.4446,18.9
68.4495,618
68.452,544.1
68.4861,116.1
68.489,80.6
68.4934,394.5
68.5289,386.1
68.5341,127.5
68.5348,123.8
68.5447,836.1
68.5905,20
68.5953,511
68.6195,332.6
68.6414,510.5
68.6447,82.6
68.6599,459.3
68.6721,118.8
68.6879,498
68.6919,78.2
68.7008,335.7
68.7125,17.9
68.7135,17.6
68.7167,692.4
68.7456,78.2
68.7634,144.4
68.8116,287.4
68.8151,603.3
68.8272,80.5
68.8372,336.7
68.8411,70.6
68.8483,149.5
68.8536,116
68.8726,90.2
68.8891,178.3
68.8932,418.2
68.8948,89.7
68.9004,102.4
68.9018,83.8
68.9132,72.4
68.9198,256.8
68.9275,109.2
68.9327,160
68.9407,330.8
68.9482,802.5
68.9511,92.5
68.9528,386.5
69.011,129.3
69.0132,543.9
69.0149,300
69.0368,74.8
69.0593,137.9
69.0785,122
69.0951,19
69.1043,124.6
69.109,92.3
69.1492,124.9
69.1582,92.1
69.2086,144.4
69.2558,175.4
69.2695,235.7
69.284,380.6
69.2935,726.2
69.299,347.7
69.3065,533.9
69.3097,108.6
69.3214,144.4
69.3351,355.8
69.3747,98.1
69.3791,629.7
69.3828,933.8
69.4051,211
69.4064,301.9
69.4221,250.8
69.4358,130.6
69.452,134.3
69.4793,107.9
69.4828,474.6
69.4914,66.9
69.4946,17.5
69.523,136.1
69.5276,106.1
69.529,169
69.5312,93.3
69.5322,365.4
69.533,113.2
69.5522,17.1
69.5611,573.1
69.5674,140.7
69.569,216.5
69.5842,162.2
69.604,20.7
69.6062,18.4
69.6206,19.8
69.631,119.9
69.6357,268.6
69.6409,106.5
69.6412,117.4
69.6451,187.8
69.653,390
69.6562,634.8
69.6644,676.5
69.6745,94.3
69.6867,104
69.7248,94
69.7413,147.7
69.7644,746
69.7861,114.2
69.7897,110.3
69.7985,110.8
69.8045,88.4
69.8074,76.7
69.8255,657
69.8507,89
69.8757,303.5
69.8915,119.3
69.931,204.8
69.9391,468.3
69.9446,451.4
69.9465,122
69.95,94.1
69.9664,83.7
69.9705,105
69.9708,112.4
69.9883,19
69.9919,829.3
70.0051,154.9
70.0229,18.6
70.0649,522.3
70.0751,89.3
70.0776,285.5
70.0841,128.6
70.1,549.7
70.1157,83.2
70.1286,368.2
70.1293,16.2
70.1311,119.4
70.1428,371.4
70.1467,90
70.1883,160
70.2086,17.8
70.2173,83
70.2458,338.4
70.2836,155
70.2909,16.4
70.333,158.3
70.3358,256.8
70.3892,21.1
70.3913,109.8
70.3951,531.8
70.4252,665.8
70.432,190.5
70.4589,143.5
70.4695,329.4
70.5037,117.6
70.5107,324.2
70.5119,115.9
70.5205,426.8
70.5234,91
70.5311,100.9
70.5558,473.7
70.5599,202.5
70.5759,121.5
70.5766,170.5
70.6383,501.4
70.6471,16.9
70.6949,94.2
70.7027,556.9
70.7162,85
70.7178,227
70.7218,103.2
70.7622,67.1
70.767,403.5
70.7724,136.3
70.7899,120.4
70.8078,360.5
70.8312,173.8
70.8393,127.5
70.8482,109.7
70.876,327.2
70.8797,694
70.8882,377.8
70.8898,211.3
70.8914,16.2
70.9129,17
70.9154,77
70.9203,76.9
70.9394,153.5
70.9471,420.9
70.9524,170.1
70.954,331
70.9573,17.9
70.9631,968.6
70.9669,116
70.9691,95
70.9842,129.9
70.9884,282.8
71.0095,139.1
71.0431,160.9
71.0648,144
71.0671,84.5
71.0689,21.4
71.0735,17.6
71.0788,80.8
71.0874,107.6
71.1029,84.1
71.1097,173.7
71.1151,152.8
71.1207,501.2
71.1627,16.9
71.177,149.7
71.1819,79.2
71.2528,156
71.2741,20
71.2769,230.5
71.2908,468.4
71.3184,88.8
71.3394,150.4
71.3423,15.8
71.3439,522.9
71.3556,890.6
71.3645,138.7
71.3699,346.8
71.4115,444.3
71.4134,651.4
71.4281,329.3
71.4684,524.1
71.5086,130.6
71.521,109.3
71.5398,442
71.5528,292.3
71.5657,346
71.5669,121.7
71.5734,280.8
71.5747,22.4
71.6246,243.3
71.6264,164.1
71.6325,879.3
71.6486,19.4
71.6615,149
71.6699,17.4
71.6767,120.7
71.7162,137.2
71.7608,116
71.7774,171.2
71.7833,476.9
71.7892,175.3
71.7903,320.3
71.8261,758.7
71.8406,1010.3
71.8548,122.2
71.8682,136.7
71.8747,376.3
71.8773,163.5
71.8815,447.1
71.8911,279.6
71.8929,496
71.9161,178.7
71.9272,409.6
71.9644,15.8
71.9875,18
72.0007,386.6
72.0433,218.1
72.0578,735.3
72.0805,126.1
72.09,395.1
72.0916,78.7
72.0941,90.9
72.102,260.9
72.1053,18
72.1075,140.6
72.119,506.1
72.1196,140.3
72.1206,16.9
72.1251,90.8
72.1523,818
72.1827,638.5
72.2033,542.5
72.2037,423.8
72.2045,449.1
72.2051,592.2
72.2059,669.6
72.2068,159.8
72.2078,378.7
72.2081,272.2
72.2086,225.6
72.2092,499.7
72.2106,462.2
72.2118,1557.2
72.2126,952.7
72.2146,2207.4
72.2152,1151.1
72.2155,1195.4
72.2161,2023.8
72.2174,5012.4
72.218,4228.9
72.2187,1789.5
72.2201,2559.6
72.2206,2517.6
72.2216,2373.9
72.2222,2854.7
72.2235,1373.3
72.2241,1803.1
72.225,1434.7
72.2259,680.6
72.2265,1950.3
72.2274,840.2
72.2289,2574.1
72.2297,1122.2
72.2316,341.9
72.2325,299.8
72.2344,79.2
72.2352,105.7
72.2354,116.6
72.2358,199.7
72.2377,224
72.2392,111
72.2598,387.2
72.2849,117.6
72.297,317
72.2983,575.6
72.3149,75.1
72.3262,195.1
72.3301,98.1
72.3612,985.5
72.3676,108.9
72.3906,186.4
72.3978,147.8
72.398,151.1
72.3984,111.7
72.408,83.3
72.4191,316.6
72.4567,204
72.4673,16.4
72.4758,96.8
72.4968,792.8
72.5128,384
72.5419,73.9
72.5467,143.5
72.5829,237.9
72.6058,93.8
72.6243,219.5
72.6351,18.4
72.6615,158.2
72.682,140.6
72.6839,74
72.6974,72.8
72.7055,201.7
72.7195,69.9
72.7243,320.6
72.7294,117.5
72.7375,278.9
72.7434,420.5
72.7505,121.2
72.7564,928
72.7941,465.8
72.8072,363.5
72.8106,16.1
72.8342,332.5
72.8735,23.1
72.8838,89
72.8903,375.8
72.9019,703
72.9177,150.8
72.9212,643.8
72.9262,271.7
72.9943,147.8
73.0019,179.8
73.0146,443
73.0154,127.3
73.0273,94.7
73.0668,87.7
73.0838,120.2
73.0914,157.4
73.0925,159.3
73.0933,113
73.098,92.4
73.1065,947.1
73.1316,603.3
73.1482,156
73.159,18.9
73.1603,17.6
73.1935,162.5
73.217,22.4
73.2298,302.2
73.2325,174.8
73.2857,548.5
73.3038,134.9
73.317,217.7
73.3216,87.3
73.3298,213.5
73.3309,87.4
73.3595,18.7
73.364,529.5
73.3779,88
73.3912,485.9
73.3938,121.2
73.3993,108.1
73.4046,173.2
73.4053,114.4
73.4094,86.4
73.4267,176.9
73.4304,81.4
73.437,81.3
73.4424,193.1
73.4758,97.3
73.479,476.4
73.4792,474.2
73.4911,366.5
73.5187,149.5
73.5333,82.5
73.5556,186.2
73.5874,587
73.5915,177.7
73.5968,707.4
73.6372,87.7
73.6392,70.9
73.6439,182.1
73.6495,513.5
73.6528,137.6
73.6657,156.5
73.6739,81.7
73.7301,194.1
73.7592,74.8
73.7659,18.5
73.7785,853.2
73.7833,196.5
73.7945,445.9
73.8041,158.1
73.8195,74.9
73.8467,158.4
73.8798,20.4
73.8816,140.9
73.8931,17.6
73.9105,109.4
73.9349,142.1
73.9533,115.4
73.9541,106.5
73.9715,120.2
74.0144,19.4
74.0268,376.5
74.0348,123.5
74.0364,203.4
74.0407,160.3
74.0425,196.8
74.0598,5208.9
74.0622,68.7
74.0905,521.7
74.1174,297.2
74.1255,79
74.1303,382
74.1551,211.8
74.1669,412.3
74.219,139.7
74.2205,576.1
74.2221,84.5
74.2294,145
74.2514,112.2
74.2545,279.7
74.2871,212.6
74.2944,687.3
74.3471,77.9
74.3562,330.2
74.3588,170.5
74.378,514.3
74.3786,180.6
74.4415,168.5
74.4504,256.2
74.4759,428
74.4866,78
74.5265,222.9
74.5519,417.7
74.5584,400.9
74.5626,438.2
74.5757,131.9
74.5861,348.6
74.5864,340.8
74.6029,76.9
74.6241,771.9
74.663,103.9
74.7095,486
74.7223,190.3
74.7729,177.5
74.7809,160.4
74.7963,352.8
74.8064,136
74.8068,146.8
74.8401,388.7
74.8435,183.9
74.882,422.6
74.8879,473.2
74.9032,18.3
74.9122,109.4
74.9202,65.2
74.9244,544.8
74.937,449.3
74.9451,110.2
74.9467,17.3
74.9595,94.9
74.9642,94.1
74.9707,242.6
74.9806,150.8
74.9968,115.4
75.0072,452.4
75.0082,290.8
75.0189,488.7
75.0322,215.4
75.0592,245
75.0618,299
75.0886,94.2
75.1024,108.8
75.1307,1042.1
75.1434,272.6
75.1678,871.9
75.1923,83.8
75.209,398.8
75.2126,86.7
75.225,423.6
75.2403,162.7
75.2478,114.4
75.2554,205.8
75.2665,643.5
75.2827,132.6
75.2853,14.9
75.2856,15.1
75.2865,235.3
75.3211,111.5
75.3267,475.6
75.3277,295.6
75.3298,553.2
75.3377,123.7
75.3665,401.8
75.374,83.2
75.403,527.5
75.4103,108.5
75.4126,138.2
75.4138,173.8
75.4203,514.5
75.4427,158
75.4609,149.8
75.484,641.6
75.4959,437.2
75.501,86.4
75.5134,16.7
75.5381,865.1
75.5724,90
75.5809,90.1
75.6266,78.4
75.6301,149.1
75.6418,17.4
75.6755,572.6
75.6806,594.7
75.7341,204.5
75.7503,428.7
75.7573,238.6
75.761,159.5
75.7935,17.1
75.8009,168.4
75.8041,110.7
75.8204,540.2
75.8318,165.5
75.8448,157.3
75.8483,16.3
75.8516,143.7
75.8661,708.1
75.8779,97.4
75.9255,21
75.9993,953.8
76.0091,656.5
76.0135,128
76.04,113.6
76.0414,277.1
76.0963,132.9
76.098,492.8
76.1194,242
76.1331,226.5
76.1512,278.1
76.2241,18.1
76.2316,19.9
76.2636,104.7
76.2759,464.5
76.2838,697.9
76.2969,729.4
76.3043,327.8
76.3194,222
76.3244,900
76.3322,17.5
76.342,376.9
76.3489,90.2
76.3599,172.1
76.3844,126.7
76.3908,132.8
76.3951,19.3
76.4046,121.7
76.4287,101
76.4304,113.4
76.4343,561.3
76.4689,121
76.4697,88.5
76.5131,118.6
76.5258,138.8
76.5284,82.3
76.5321,396
76.5337,1339.8
76.5343,784.3
76.5452,206.9
76.5462,228.4
76.5488,125.3
76.5587,178.2
76.5761,571.7
76.5777,92.4
76.5863,150.4
76.5953,296.3
76.5968,216.2
76.635,17.7
76.6462,548.6
76.7296,17.3
76.7496,526.3
76.754,110.8
76.7687,93.2
76.7743,91.6
76.7943,206.4
76.8145,182.4
76.8165,109.1
76.8192,182.8
76.8788,16.7
76.8808,97
76.9037,176.5
76.9148,810.4
76.9207,16.4
76.9323,582.3
76.9392,160.9
76.9435,16.4
76.9472,578
76.9492,91.7
76.9767,590.2
76.9789,412.1
76.9809,17.9
76.9886,19.6
76.9975,214
77.0007,150.4
77.0127,508.1
77.0243,450.2
77.032,167
77.0351,304.9
77.0358,356.6
77.0384,139021
77.0443,128.8
77.0446,127.1
77.0556,642.7
77.0622,94.8
77.0723,549.6
77.0797,95.6
77.1107,164.3
77.1182,99.2
77.1285,208.7
77.1359,156.9
77.147,134.5
77.166,17.2
77.1854,99.9
77.1861,169.5
77.1883,340.3
77.1896,19.3
77.1969,443.4
77.2335,842.4
77.2437,269.7
77.2496,209.3
77.2515,116.2
77.2597,146.6
77.2604,163
77.2796,88.3
77.283,149.1
77.3023,183.5
77.3288,106
77.3532,95.3
77.3593,18.2
77.36,273.2
77.3752,555.7
77.4314,88.7
77.4343,840.6
77.4429,526.6
77.4612,228
77.4795,373.1
77.4994,213.7
77.5188,633.4
77.524,540.5
77.5264,500
77.5326,141.6
77.5703,396.3
77.5838,139.2
77.5913,115.7
77.5992,160.9
77.6216,162.3
77.645,430.5
77.6484,561
77.667,156.4
77.6917,137.6
77.7144,140.9
77.7191,328.8
77.7525,184.9
77.758,454.3
77.7697,215.1
77.7711,304.7
77.7914,90.7
77.7968,22.3
77.8171,104.1
77.8262,833.1
77.8395,423.3
77.8496,422.1
77.8603,163.9
77.8622,444.1
77.8686,88.4
77.8864,173.1
77.9194,17.7
77.9294,440.7
77.9321,286
77.9372,403.2
77.9616,171.3
77.9682,113.8
77.98,111.5
77.986,164.8
78.003,83.8
78.039,154.8
78.0418,5369.6
78.0441,551
78.0661,112.3
78.0861,20.3
78.0897,168.2
78.1326,103
78.1414,90.2
78.144,334
78.1588,72.2
78.16,624.3
78.1825,20
78.1863,169
78.2079,725.8
78.2245,100.8
78.2701,183
78.2732,256.9
78.2928,149.7
78.3017,16.6
78.3065,596
78.3173,113.4
78.3181,22.2
78.3699,396.6
78.3795,197.4
78.382,475.4
78.3871,91.3
78.3958,94.9
78.414,983.9
78.4156,204.5
78.4357,174.5
78.4469,73.3
78.4507,103.8
78.4539,108.9
78.4991,404.7
78.502,172.1
78.504,121.1
78.5119,120.1
78.5164,19.5
78.5178,17.9
78.521,285.1
78.557,181.7
78.5699,519.4
78.5804,87.8
78.6228,18
78.6629,604.9
78.6812,20.5
78.6975,184.8
78.7258,146.3
78.759,402
78.7628,336.9
78.7648,102.4
78.7858,92.3
78.804,539.9
78.8094,170.6
78.812,820.6
78.8194,163.7
78.8367,106.2
78.8632,21.1
78.8653,79
78.8711,18.2
78.8892,17.3
78.9143,18.9
78.9151,123.3
78.9822,242.5
78.9969,171.3
79.0262,15.6
79.0294,114
79.0342,16.6
79.0353,106.8
79.0388,172.2
79.0478,594.3
79.0511,20.2
79.0532,798.8
79.0541,2608.8
79.0584,101.3
79.0765,119.7
79.081,861.6
79.1248,396
79.1833,107.9
79.2106,121.7
79.2961,170.9
79.3121,85.9
79.3188,156.5
79.3312,164.8
79.3351,175.5
79.3381,90
79.3627,159.4
79.3738,90.2
79.3867,120.5
79.404,168.7
79.4288,106
79.4394,83.1
79.4531,357.8
79.4562,483.2
79.4791,113.1
79.4956,117.5
79.53,449.9
79.5309,108.7
79.5386,293.9
79.555,416.8
79.5595,88.2
79.5752,111
79.5921,589.4
79.5966,585.5
79.6099,147.8
79.6271,110.1
79.6412,112.3
79.6515,367.7
79.7904,88.1
79.7927,500.6
79.7998,347.6
79.8232,89.7
79.8373,391.3
79.8447,155.5
79.8535,267.3
79.8753,134.6
79.9146,237.8
79.9251,168.8
79.9574,392
79.98,193.6
80.0589,318.3
80.0624,161.7
80.0737,206.4
80.0935,179.4
80.123,276
80.1387,74.1
80.1439,87.4
80.1748,176.3
80.1787,286
80.193,184.9
80.2235,20.3
80.2685,118.3
80.2854,444.6
80.2951,182.7
80.3153,120.5
80.3593,623.1
80.3711,117.5
80.3903,558.8
80.4109,809.3
80.4301,86.9
80.4344,19.4
80.4959,149.3
80.4993,121
80.5173,212.3
80.5237,155
80.5578,18
80.5604,110.8
80.5886,1006.8
80.5997,162.1
80.6039,142.6
80.606,369.4
80.6196,91.9
80.6496,108.9
80.685,183.4
80.7185,173
80.7347,454.6
80.7478,160
80.7645,429.1
80.7963,442.1
80.7979,485.7
80.8009,83.3
80.8019,175.5
80.8302,17
80.8323,416.7
80.8345,142.1
80.8603,209.2
80.8693,89.5
80.8748,205.2
80.8783,132.3
80.8908,187.5
80.913,483.3
80.9208,103.5
80.9313,102.5
80.9458,224
80.9477,47316.2
80.9681,82.1
80.9739,173.7
80.9759,216.2
80.9853,71.8
80.9908,20.2
81.0004,138.4
81.0031,81.5
81.0187,85.3
81.0337,492.8
81.0673,310.8
81.0697,1034.4
81.0745,110.8
81.0782,330.7
81.0937,162.5
81.0998,95
81.134,333.1
81.1401,498
81.1427,103.7
81.149,483.2
81.15,944.8
81.1512,1595
81.1521,1178.8
81.153,909.4
81.1584,114.7
81.159,233.2
81.1609,149.7
81.186,115.1
81.2173,104.4
81.2394,832.3
81.2494,97.4
81.2789,111.3
81.3014,98.6
81.3126,186
81.3173,86.5
81.3208,72.8
81.3309,150.1
81.3474,103.5
81.352,18.7
81.3636,393.2
81.381,163
81.3922,78.5
81.4222,16.2
81.4329,169.2
81.4653,229.5
81.486,15.2
81.491,292.7
81.5176,932.2
81.5256,82.8
81.5303,320.3
81.5381,520.8
81.5635,16.8
81.5792,99.1
81.5819,981.1
81.5957,161.8
81.6214,220.5
81.637,349.7
81.6692,462.7
81.6921,846.6
81.696,895.5
81.705,161.9
81.7085,109.1
81.7104,477.5
81.7187,403.4
81.7225,270.6
81.7347,149
81.7569,200.3
81.7656,108.2
81.7833,180.3
81.7981,177.7
81.8045,87.6
81.8184,172.6
81.8486,298.6
81.867,451.3
81.8735,277.8
81.8778,521.3
81.8815,86.9
81.912,83.7
81.9471,598.4
81.9603,76.6
81.977,114
82.0047,167.9
82.054,515.4
82.0598,145.2
82.0711,130.8
82.0713,100
82.0813,391.5
82.1008,94.2
82.1197,141.7
82.1634,432.5
82.171,121.1
82.197,500.8
82.2084,95.8
82.2222,404
82.2377,236.3
82.3035,240.1
82.3175,113.1
82.3197,358.7
82.3242,208.7
82.3329,92.2
82.3387,184.9
82.3436,99.6
82.3564,235.4
82.4012,456.8
82.4064,356.8
82.4264,444.5
82.4506,287.8
82.4554,411.3
82.4626,115.3
82.4665,403.8
82.484,864
82.5066,163.5
82.5172,195.9
82.5314,201.3
82.554,127.2
82.5611,148.6
82.5636,313.2
82.5655,102.3
82.5915,467.3
82.6166,837.7
82.623,291.3
82.6572,185.2
82.6964,785
82.7216,95.5
82.7291,114.5
82.7383,162.9
82.7595,82.4
82.7691,405.2
82.7995,168.1
82.8202,118.8
82.8283,204.5
82.8459,96.4
82.848,247.4
82.8503,116.2
82.8908,93.7
82.938,132.5
82.9448,12068.7
82.9484,441.6
82.9499,69
82.9559,640.2
82.958,108.1
82.9667,280.1
82.9712,120.1
82.9896,191.8
83.0014,393.7
83.0293,197.7
83.0319,124.5
83.0465,162.8
83.0599,15.8
83.0698,81.7
83.0854,184.3
83.0962,16.9
83.1107,79.3
83.1244,178.6
83.158,199.6
83.1619,122.3
83.1665,156.7
83.1711,92.8
83.1792,100.6
83.2021,435.3
83.2101,16.8
83.2343,746.6
83.2746,162.4
83.2901,17.1
83.3025,438.4
83.3065,92.1
83.3199,77.5
83.3214,146.5
83.3344,275.2
83.3499,824.7
83.3768,455.8
83.3865,77.3
83.4234,120.9
83.4359,178.1
83.4398,16.3
83.4641,165
83.4727,19.1
83.4797,1068.6
83.4933,636.4
83.5053,307.4
83.5073,129.7
83.6272,286.9
83.6335,1189.5
83.6394,802.6
83.6429,167.4
83.6561,109.6
83.6648,18.7
83.7119,507.3
83.7234,297.8
83.747,327.6
83.762,428.9
83.7898,115.5
83.7978,86
83.8019,321.6
83.8268,259
83.8308,250
83.9337,171.2
83.9561,121.9
83.9864,345.7
84.0062,77.2
84.0227,778.4
84.083,193.6
84.0847,212.9
84.0892,21.2
84.1268,488.9
84.1386,179.5
84.1422,469.8
84.1457,174.8
84.1522,128.4
84.1574,108.8
84.1606,209.8
84.1694,88
84.179,181.5
84.1804,116.9
84.1868,135.4
84.2085,18.8
84.2248,377.5
84.2672,325.9
84.2827,488.6
84.308,243.1
84.3102,931.3
84.4697,186.9
84.4708,135.1
84.4983,110.9
84.5481,259.2
84.5596,541.1
84.5786,651.1
84.5852,300.7
84.6299,15.2
84.6349,471.8
84.6472,17.7
84.6537,77.5
84.6558,20.7
84.6901,82.6
84.7017,139.2
84.7178,374.1
84.7368,239.2
84.7466,236.7
84.7492,114.2
84.761,546.1
84.7781,18.1
84.8503,19.2
84.8562,20.2
84.9118,206.5
84.9596,26599.1
84.9659,185.4
84.9754,19.9
85.0047,100.4
85.0284,2170.2
85.0366,174.6
85.0701,17.2
85.0721,467.7
85.0731,632.3
85.0854,388.4
85.0897,121.9
85.1263,187.5
85.1437,613.1
85.1453,83
85.1774,174.4
85.1848,97.9
85.1929,239.8
85.2078,70.5
85.2155,19.1
85.2529,443.1
85.2881,157.5
85.2922,116
85.3065,189.2
85.3184,885
85.3263,389.5
85.3306,143.7
85.3423,196.7
85.3606,153.3
85.365,497.4
85.439,280.4
85.4481,254
85.4758,18.2
85.5497,17.9
85.5799,548.1
85.5833,85.6
85.5939,781.7
85.605,17.3
85.6162,170.2
85.6666,238.3
85.7082,95
85.7118,545.3
85.7228,154.2
85.7424,345.8
85.7645,19.7
85.7892,228.9
85.7933,164.2
85.8292,568.1
85.8329,83.8
85.9048,101.6
85.9151,126.8
85.9176,313.8
85.9354,122.9
85.9643,20
85.9798,93.7
86.0385,683.7
86.0599,45533.9
86.0619,125.2
86.0635,106.4
86.0963,137995.1
86.1151,440.2
86.126,139
86.1577,342.1
86.1838,130
86.1986,75.6
86.2175,125.6
86.2407,388.7
86.2426,847.6
86.3171,106.4
86.3266,86.4
86.3471,94.6
86.3474,102.4
86.3476,81.3
86.3679,169
86.393,137.3
86.4019,255.9
86.4339,18.1
86.4607,179.9
86.4614,270.3
86.4649,529.9
86.4728,84.4
86.4845,138.7
86.4889,194.1
86.5133,81.7
86.5214,435.7
86.5632,336.4
86.6041,84.5
86.6078,638.5
86.6216,453.3
86.6383,540.3
86.6527,341.2
86.661,124.2
86.6627,211.4
86.6964,139.8
86.7199,100.8
86.7216,134
86.7231,508.1
86.7564,18.3
86.7599,413.2
86.7722,158.7
86.789,82.9
86.8102,113.7
86.8521,19.1
86.863,20.8
86.8682,503.6
86.8717,18.6
86.8756,78
86.8902,164.2
86.9651,397.3
86.9747,478.9
87.0004,22.3
87.0596,167.9
87.0605,96.4
87.0892,114.6
87.0997,954
87.1665,99.8
87.1948,384.6
87.1997,165.8
87.2139,119.7
87.2201,135.8
87.2221,574.8
87.2335,22.8
87.2382,595.5
87.2498,636.1
87.2656,208.6
87.3161,140.3
87.3173,107.5
87.3335,163.3
87.3636,416.1
87.3812,116.1
87.4301,285.6
87.4332,578.5
87.4834,126.7
87.4943,156.3
87.5055,16.9
87.5077,92.4
87.5214,197.6
87.53,17.1
87.5346,422.8
87.5674,103.9
87.5694,106.4
87.5697,157.9
87.57,157.9
87.6405,320.4
87.6582,499.9
87.7174,19.9
87.7231,74.5
87.7941,370.5
87.7965,360.6
87.8474,114
87.8728,649.6
87.8797,20.2
87.9613,180.6
87.9825,135.2
88.0292,658.1
88.0392,10476.6
88.096,689.7
88.1183,548.2
88.1339,22
88.1401,100
88.158,18.7
88.1696,530.9
88.1739,603.5
88.1784,200.5
88.1992,184.6
88.2041,135.4
88.2048,74.7
88.2805,183.4
88.2849,864.2
88.2932,399.2
88.3192,169.2
88.3339,474.1
88.3445,135.2
88.3838,182.9
88.3971,92.7
88.4894,161
88.5053,397.2
88.525,709.5
88.5448,71.4
88.5734,746.1
88.5796,84.2
88.5975,1081
88.6527,68.2
88.688,159.3
88.6938,199.5
88.7532,79.4
88.7673,788.6
88.7704,463.1
88.8141,666.3
88.8807,123.7
88.9084,156.2
88.9561,452.3
88.9591,553.6
88.96,596.8
88.9745,184.5
89.0024,502.5
89.0114,90.8
89.0151,230.4
89.0226,19
89.0281,409.8
89.0408,18.8
89.0536,108.4
89.0931,131.5
89.1713,163.7
89.1849,127.9
89.2019,111.1
89.2052,228
89.2438,351.4
89.2489,351.5
89.2539,265.3
89.2739,106.2
89.3023,182.9
89.3083,814.2
89.421,105.4
89.4314,116.6
89.5122,108.9
89.5203,525.2
89.561,295.8
89.6488,120.5
89.6507,965.2
89.6836,196.3
89.6852,345.8
89.7445,277.1
89.7896,370.3
89.792,165.8
89.7973,334.9
89.8017,400.3
89.8728,123.2
89.9081,339.9
89.9322,100.2
89.9479,127.5
89.961,165.4
89.9681,16.8
89.9794,148.4
89.9826,228
89.9855,82.5
90.0157,77.9
90.0357,428
90.0582,624.3
90.0799,193
90.0865,94.8
90.1017,309.1
90.1062,435.9
90.1367,104.5
90.1535,229.3
90.155,102
90.1902,597
90.197,690
90.2134,339.5
90.2227,564.5
90.2386,486.6
90.24,211
90.2734,527.5
90.2787,361.9
90.2863,446.1
90.2924,507
90.3105,170
90.3229,93.1
90.3352,168.1
90.3736,121
90.3762,537.7
90.3813,914.3
90.3843,140.9
90.3904,130.3
90.4081,414.8
90.4138,187
90.423,498.3
90.4443,1167.1
90.4578,18.1
90.4593,242
90.4612,98.8
90.4888,499.4
90.4953,163.3
90.5025,95.4
90.5419,19
90.5876,132.4
90.5982,333.7
90.6125,127.6
90.6162,165.8
90.6214,22.7
90.6747,131.3
90.6835,621.8
90.6899,507.1
90.6924,345.2
90.6943,150
90.7178,693.6
90.7324,403.3
90.7444,362.3
90.7654,220.8
90.782,92.3
90.8162,97.9
90.8308,181.3
90.8638,108.5
90.8677,19
90.917,19.5
90.924,518.1
90.935,156
90.9476,55.5
90.9633,523.5
90.9766,6781.9
91.0024,381.8
91.018,117.1
91.0189,111.2
91.0267,356.8
91.0454,188.6
91.0542,4091.3
91.077,294.7
91.0828,114.2
91.1069,191.3
91.1261,569.4
91.1353,148.3
91.1993,495.2
91.2055,421.8
91.229,540.3
91.2359,16
91.24,162.3
91.2436,18.7
91.2759,186.4
91.3668,213.5
91.3957,556.7
91.421,158.9
91.4237,182.2
91.426,101.2
91.4355,575.7
91.4953,386.7
91.529,194.2
91.532,19.9
91.5368,92.9
91.5802,163.8
91.6167,116.9
91.6213,163.9
91.6255,783.1
91.6354,511.4
91.6357,607.3
91.636,328.7
91.6735,418.2
91.7084,147.4
91.7097,21.2
91.7223,340.9
91.7335,16.4
91.7611,79
91.7992,130.4
91.8166,81.1
91.8224,425.5
91.8437,205.4
91.8498,163.9
91.8633,16.8
91.9021,117.5
91.9311,576.1
91.9418,209.4
91.9489,101
91.9732,152
91.9954,116.3
92.0137,752.3
92.0144,205.7
92.0261,203.7
92.045,434
92.0737,149.2
92.1293,180.2
92.1324,250.7
92.1428,121.4
92.1572,153.6
92.1942,92.2
92.2407,128.9
92.2634,216.2
92.2781,18.8
92.2967,134.6
92.3038,581.4
92.3175,143.3
92.3614,18.4
92.3655,86.1
92.3664,427.5
92.3929,412.8
92.4134,174.9
92.4263,178
92.4586,164
92.4595,239.1
92.499,220.1
92.5176,481.5
92.5375,95.5
92.5681,273
92.6385,174.2
92.6429,19
92.6665,707.6
92.6725,159.3
92.6811,193.9
92.6976,109.4
92.7116,18.7
92.7151,109
92.738,664.9
92.8121,18.7
92.8176,121
92.8301,74.6
92.8377,947.7
92.8387,115.2
92.857,141.8
92.9129,80.2
92.9151,83.7
92.9657,84.6
92.9755,405.8
92.9994,183.3
93.0127,545.4
93.0691,484.2
93.0699,209.7
93.1316,401.7
93.1428,232.8
93.1607,91.6
93.1674,222.4
93.1822,94.2
93.1844,546.4
93.191,17.1
93.202,376.9
93.2087,438.4
93.2833,21.4
93.299,822.4
93.3124,92.9
93.3196,245.8
93.3251,227.7
93.3329,590.4
93.3547,19.5
93.4121,860.9
93.447,362.6
93.461,271.8
93.4719,18.2
93.475,149.9
93.5036,571.6
93.5076,418.7
93.5185,19
93.523,170.6
93.5436,110.3
93.5493,192.1
93.5508,300.9
93.5575,94.2
93.5688,435.5
93.5835,108.8
93.5869,121.3
93.6132,231.2
93.6314,125.5
93.6752,18.3
93.6769,17.2
93.7314,108.5
93.7979,566
93.8654,103
93.8788,94.7
93.9464,164.8
93.9497,210.4
93.967,80.7
94.0171,448.7
94.0326,219
94.0346,377.2
94.0413,75208.4
94.0462,73.4
94.0591,485.7
94.1224,135.5
94.1456,18.6
94.1667,18.9
94.1693,17.7
94.1938,253.2
94.2411,200.2
94.2489,237.6
94.2607,227.6
94.2694,512
94.2821,82.4
94.3128,881.1
94.3326,997.8
94.3419,389.1
94.3912,165.6
94.4068,115.4
94.4219,829
94.4239,198.1
94.4451,382
94.4603,329.3
94.589,403.7
94.6091,335.7
94.6145,194.9
94.631,16.2
94.6354,103.9
94.6691,17.4
94.6736,525.7
94.6739,531.8
94.6945,328.5
94.723,17.6
94.7485,694.6
94.7649,70
94.7985,807.7
94.8046,169.7
94.808,82.7
94.8342,73.6
94.8554,205.6
94.8785,17
94.9094,126.8
94.9201,329.7
94.9228,487
94.9507,417
94.9617,504
94.9952,77.2
94.9962,477.5
95.0026,18.1
95.0143,254.2
95.0357,67
95.0447,1409.5
95.0461,58.7
95.0467,33.9
95.0476,669.2
95.0491,484287.1
95.0518,43.7
95.0528,137.6
95.0557,564.4
95.0626,40.3
95.0716,227.9
95.0855,949.8
95.1213,98.4
95.1315,78.2
95.15,898
95.1563,523.3
95.1575,150.6
95.1711,137.4
95.189,94.8
95.2141,84.2
95.2221,84
95.2278,17.3
95.2285,91
95.2497,147.9
95.3276,142.3
95.3349,319.8
95.3401,235.1
95.3639,357.7
95.3811,146.1
95.398,174.1
95.4091,158.4
95.4443,206.5
95.4506,431.1
95.4982,400.4
95.561,130.1
95.6215,149.9
95.6593,559.8
95.7182,123.4
95.7499,170.8
95.7881,20.5
95.8403,277.6
95.8433,318.2
95.8779,130.2
95.8901,340.1
95.9093,207.6
95.9144,629
95.9296,193.5
95.9496,142.2
95.9538,1058.5
95.9573,19.3
95.9739,17
95.9851,144.4
96.0023,322.9
96.0524,22146.6
96.0925,120
96.1027,154
96.1228,897.5
96.1427,404.8
96.1572,83.5
96.1889,82.6
96.1927,184
96.197,285
96.2017,123.8
96.2058,114.4
96.2097,268.2
96.22,85.9
96.2383,80.6
96.3121,384.3
96.3164,137.2
96.3665,254.6
96.3682,197.5
96.4064,82.9
96.4765,243.7
96.4916,428.4
96.4993,558.4
96.5003,78.1
96.5156,100.2
96.5392,94
96.5428,741.3
96.5527,163.9
96.5962,203.2
96.6506,707.4
96.6573,17.5
96.7033,567.9
96.7228,815.8
96.7296,18.2
96.7492,125.8
96.7506,246.8
96.7691,605.2
96.8046,103
96.8663,122.6
96.8788,96.3
96.8833,131.4
96.8908,123.6
96.8967,117.6
96.9125,178
96.9217,139846.6
96.9573,442.7
96.9686,173.9
96.9778,347.9
97.0075,117
97.0461,97
97.0522,600.2
97.0533,28.6
97.0557,20.8
97.0646,84.2
97.0673,149.6
97.1012,23.8
97.1099,804.9
97.1117,78.9
97.1279,477.8
97.1307,107.3
97.1539,136
97.2036,83.3
97.2109,610.8
97.2211,20.4
97.238,858.3
97.2865,426.2
97.2913,456.5
97.3134,167.2
97.3206,549.1
97.3905,574.6
97.4089,342.3
97.4391,142
97.471,144.3
97.4773,518.3
97.4948,190.3
97.4989,377.3
97.5058,520.7
97.5368,843.3
97.5865,133.6
97.6392,127.2
97.6736,323.7
97.6791,334.1
97.6825,114.5
97.6969,82.2
97.72,294.3
97.7213,193.3
97.7587,461.2
97.7988,208.4
97.8752,125.7
97.943,852.2
97.9746,340.5
98.0485,988.9
98.0511,233
98.072,116
98.0778,134.5
98.0804,475.3
98.0861,118.5
98.1575,88.6
98.1751,451.3
98.1798,168.3
98.1947,358.8
98.2089,727.8
98.2277,737
98.2365,555.6
98.2381,218.1
98.27,115.7
98.323,15.7
98.3913,177.5
98.4014,162.2
98.4063,522.5
98.4131,188.2
98.4217,86
98.4306,191.1
98.4577,94
98.4985,497.6
98.5357,402.7
98.5422,15
98.552,145.1
98.5689,148.5
98.6442,846.7
98.6746,656.9
98.6968,18.4
98.7446,193.2
98.7472,75.5
98.762,17.6
98.7641,99.3
98.765,262.5
98.771,107.9
98.8096,17.3
98.8134,109.3
98.833,113.7
98.8352,221.6
98.8668,195.1
98.875,169.4
98.9056,170.4
98.9109,218.6
98.9145,393.2
98.9188,40122.2
98.9199,7730.9
98.925,323
98.9359,191.2
98.9473,439.7
98.9572,144.2
98.9753,18132.4
98.9842,61.3
98.989,97.7
99.0455,112.8
99.0628,17.7
99.0646,486.3
99.0656,759.4
99.1089,408.5
99.1119,20.4
99.1615,16.2
99.1987,794.8
99.2221,260.7
99.2437,422.6
99.2864,663.9
99.3053,214.5
99.3266,187.5
99.3656,172.9
99.3808,289.9
99.3873,860.7
99.4159,190.2
99.4347,99.2
99.4526,86.9
99.5218,111
99.5244,119.1
99.527,316.9
99.5283,86.4
99.5795,19.6
99.5942,229.1
99.6203,98.3
99.6488,909.8
99.6549,19.4
99.656,281.6
99.6957,104.6
99.7024,260.4
99.7047,132.8
99.714,18.8
99.7327,675
99.7721,100.8
99.8013,331.7
99.819,170.1
99.823,477.4
99.8552,322.9
99.8914,67.7
99.9208,157
99.9216,103.8
99.9472,95.7
99.9616,753.3
99.9684,880.2
99.9896,20.1
100.0053,142.7
100.0323,158.2
100.045,685.7
100.0617,201
100.0756,30.6
100.0862,95
100.1031,87.7
100.1185,308.2
100.132,512.2
100.1515,109.7
100.2088,576.5
100.2391,436.2
100.3031,122.1
100.3476,710.3
100.3512,346.4
100.3598,19.9
100.4074,114
100.4254,19.7
100.4485,20.1
100.4515,211.2
100.4528,207.6
100.4706,69
100.4789,781.6
100.4875,158.9
100.4945,394.9
100.5657,19.8
100.584,196.3
100.5874,76.3
100.6459,750.4
100.7147,251.2
100.7381,275.5
100.7709,291.6
100.7819,233
100.7938,17.3
100.8051,378.7
100.814,125
100.8197,112.3
100.8634,126.5
100.867,370.1
100.9005,501.2
100.9064,86.7
100.9169,920.8
100.9291,434.5
100.931,499.2
100.9421,88.6
100.9424,110.1
100.9566,889.5
100.961,797.3
100.9953,264.6
101.0061,140
101.0174,103.8
101.0328,86.9
101.0471,3137.4
101.0584,98.9
101.0646,355.2
101.0709,908
101.1114,460.1
101.1356,74.1
101.1538,95.6
101.1733,307
101.1818,297.9
101.2052,309.1
101.2447,226.3
101.2773,95.7
101.2817,101.9
101.2859,699.8
101.2961,121.1
101.3084,84.2
101.3163,16.9
101.326,672.4
101.3271,596.5
101.3863,165.1
101.3924,110.3
101.3962,97.6
101.3987,775.5
101.4021,425.2
101.4124,123.7
101.4636,340.8
101.4828,212.1
101.5175,78.3
101.5341,705.9
101.5651,127.3
101.5665,18.9
101.5884,519.1
101.6238,17.7
101.6258,398.1
101.6279,21.4
101.6398,490.5
101.6425,572.4
101.675,88.1
101.6871,261.4
101.6885,95.3
101.7686,20
101.7829,273.7
101.7974,536.7
101.8146,152.8
101.853,158.1
101.8856,139.1
101.9058,959.9
101.9168,103.9
101.9681,173.2
101.9976,439
102.0124,394.7
102.0202,139
102.0406,656.4
102.0469,348.5
102.055,5390.4
102.0645,110
102.069,139.6
102.0745,424.5
102.0947,506
102.1029,336
102.1045,911.7
102.2419,121.7
102.2549,531.1
102.2562,150.2
102.3191,83.1
102.3241,120
102.3453,95.1
102.3932,211.8
102.4185,541.2
102.4304,164.5
102.482,133.5
102.5046,130.3
102.5092,126.6
102.5379,335
102.5497,268.4
102.5507,303
102.5654,445.1
102.5682,424.7
102.5764,350.9
102.5809,151.7
102.6487,729.7
102.6617,121.1
102.6806,247.2
102.6971,858.3
102.7361,342.1
102.7549,404
102.7561,469.2
102.7689,768
102.7704,99.3
102.7736,136
102.8351,164.3
102.8473,252.4
102.865,503.7
102.8879,278.7
102.9703,525.5
102.9837,524.3
103.0275,170
103.0376,298.3
103.0542,110.9
103.0765,218
103.0802,81.9
103.0847,462.5
103.0907,251
103.1037,339.5
103.1238,155.6
103.1322,145.3
103.1374,162.2
103.1655,337.2
103.1813,98.9
103.2121,248
103.2147,97.9
103.2214,167.8
103.2717,353.4
103.2807,199.6
103.3564,190.1
103.4017,204.8
103.4067,363.6
103.4131,121.6
103.4918,18.7
103.5044,799.1
103.5145,168.3
103.5275,19.8
103.5347,290.4
103.5519,132.5
103.6049,148
103.619,764.1
103.6211,20.8
103.6236,174
103.681,85.8
103.6865,562.7
103.6974,148
103.7378,236.7
103.7559,147.6
103.765,541
103.7835,106.8
103.7883,860.8
103.8299,281.1
103.834,305.4
103.8483,386.9
103.8853,150.7
103.9218,86.7
103.9417,537.3
103.9635,93.7
103.9862,359.6
104.011,103.8
104.0137,318.2
104.0331,170.6
104.0662,158.2
104.0672,315.8
104.0927,16.2
104.0983,115
104.107,575042.6
104.1386,614.5
104.1393,914.7
104.1466,185.8
104.2205,765.2
104.2246,96.4
104.2327,497.3
104.2415,165.3
104.2489,579.2
104.256,160.6
104.2939,109.6
104.3232,155.7
104.3345,372.7
104.3543,680.2
104.4432,404
104.4511,17
104.4634,214.5
104.5543,470.5
104.5566,93.1
104.559,576.5
104.5661,288.7
104.5859,395
104.5952,366.4
104.618,208
104.6245,308.9
104.6294,113.1
104.6347,576.2
104.6539,165.6
104.6655,433.2
104.6928,566.3
104.7778,475.1
104.7846,110.6
104.8327,150.9
104.8397,19.3
104.8503,827.9
104.8817,248.5
104.9185,321.6
104.9382,240.6
104.9434,96
104.9547,531.8
104.9634,165.9
104.9729,17.8
104.9923,3424.8
104.9961,109.7
105.0082,319.4
105.0124,132.2
105.0294,160.4
105.0315,1006.3
105.0447,42362.9
105.103,19.7
105.1042,353
105.1103,20183.3
105.1276,21.7
105.1655,354
105.1847,526.7
105.1971,280.3
105.1982,456
105.2061,91.9
105.2122,491.8
105.2329,150.1
105.2412,184.5
105.2849,646.3
105.3533,1054.6
105.3691,187.9
105.4109,867.4
105.4209,433.3
105.4481,431.2
105.4666,146.4
105.4923,609.5
105.5074,228.4
105.5195,207.9
105.531,161.6
105.5752,18.2
105.5983,82.9
105.6426,368.1
105.6445,170.5
105.6782,87.9
105.6937,359.4
105.7177,168.1
105.7789,175.3
105.8348,80.8
105.8397,948.9
105.8938,93.3
105.9723,182.2
105.9859,126.9
105.9892,583.7
106.0002,180.1
106.0341,121.5
106.0417,21.2
106.0444,861.8
106.0481,1060.9
106.0573,195.2
106.0708,565.9
106.0731,721.2
106.0803,246.7
106.1,130.4
106.149,410.9
106.1575,90.4
106.1717,179.5
106.178,863.7
106.2023,18.4
106.2091,191
106.2111,948.1
106.251,19.6
106.2759,198.2
106.2913,565
106.295,239
106.3115,135.3
106.3229,108
106.3378,145.5
106.3871,208.9
106.4349,195.8
106.4367,182
106.4578,95.3
106.4655,161
106.4745,796.4
106.5202,288.3
106.5245,111.9
106.5263,477.6
106.5883,328.2
106.6608,731.8
106.6803,189.4
106.7097,79.7
106.757,100.8
106.7952,17.4
106.8036,562.1
106.8202,120
106.8617,146.2
106.9026,136.8
106.9061,430.9
106.9506,3322
106.9556,140.1
106.9651,17.7
106.9921,41.3
107.0185,157.1
107.0213,186.2
107.0284,120.2
107.0308,685.1
107.0419,130.8
107.0463,273.5
107.0492,724.9
107.0516,132.1
107.0642,480.1
107.0789,144.7
107.0852,205.9
107.0872,91.9
107.1221,206.4
107.1485,97.1
107.1529,143.6
107.1924,95.6
107.215,78.1
107.2164,504.9
107.2183,469.6
107.2239,715.6
107.2579,107.1
107.2614,211.4
107.2733,538.9
107.2749,635.7
107.2822,819.7
107.3089,451.2
107.3115,374.4
107.3397,335
107.3778,205.1
107.3823,209.3
107.3878,573.3
107.3931,161.3
107.4196,86.6
107.441,603.4
107.4539,89.2
107.4663,186.6
107.4761,745.3
107.4921,200.2
107.4978,18
107.5081,184
107.538,20.6
107.5471,16.3
107.629,168.9
107.6373,627.9
107.6395,173.3
107.6484,616.1
107.6591,19.3
107.6933,187.4
107.6957,485.9
107.7379,445.7
107.7504,622
107.7573,162.1
107.8074,85.5
107.8237,517.1
107.825,17.7
107.8313,515.9
107.8574,76.6
107.867,164.2
107.9076,245.4
107.9336,147.2
107.9686,303.1
107.9971,789.4
108.0049,91.7
108.0113,82
108.0505,183.1
108.0569,49.8
108.0712,187.5
108.0759,23.1
108.0791,454.9
108.0995,500.6
108.1466,86.6
108.1661,917.5
108.1871,175.5
108.1895,837.2
108.1916,431.7
108.2331,233.6
108.2548,840.6
108.3395,278.1
108.352,179.5
108.3627,296.6
108.4042,151.9
108.5022,426
108.5053,15.8
108.5147,18
108.5457,115.9
108.5499,194.4
108.5575,161.8
108.5636,198.3
108.5667,190.5
108.5803,18.9
108.6415,105.4
108.6925,175
108.7381,259.2
108.7576,163.6
108.8768,399.8
108.9145,216.5
108.9317,219.4
108.9401,541.4
108.9582,543.6
109.0319,339.4
109.0648,81340.1
109.0667,33.2
109.0976,131.2
109.259,186.9
109.262,151.7
109.3513,461.7
109.3531,152.8
109.3672,88
109.3824,999.9
109.4037,157.8
109.4179,18.1
109.4215,109.8
109.4303,168.1
109.4435,187.7
109.446,173.6
109.5057,113.1
109.5798,284.1
109.6003,138.3
109.629,345.3
109.6519,484.2
109.6811,242.1
109.6842,141.7
109.6946,644.5
109.7245,121.7
109.7671,268.7
109.7739,364.2
109.8097,110.1
109.8537,18.6
109.8698,18.7
109.8796,217.5
109.888,623.7
109.8927,470.5
109.9206,162.4
109.9219,198.5
109.9317,154.9
109.9413,16
109.9531,445.6
110.0682,3028.9
110.0714,1078.6
110.1436,174.4
110.1579,87.8
110.1869,84.5
110.1985,201
110.2406,427.7
110.2754,87.5
110.2858,78.3
110.2948,92.3
110.3146,153.1
110.3676,145.3
110.4036,94.6
110.4315,159.7
110.444,250.3
110.4959,359.7
110.542,634.9
110.5915,457.3
110.5932,16.8
110.6256,137.5
110.6472,80.4
110.6533,540.8
110.6631,174.1
110.6846,76.3
110.6876,93.5
110.7263,134.2
110.7594,139.5
110.7771,543.2
110.8032,89
110.833,134
110.8486,510
110.8786,17.4
110.8853,999
110.9162,129.4
110.9328,142.4
110.9805,651.5
110.9896,151.5
111.0058,484.8
111.0233,396.6
111.0441,426.8
111.0573,287.3
111.0592,111.9
111.0828,109.9
111.1168,23.5
111.1265,83.3
111.1316,419.4
111.1414,16.2
111.1946,17.1
111.2456,519.5
111.2494,820.8
111.2769,104.9
111.3186,335.5
111.3372,120.8
111.3724,423.1
111.4023,224.2
111.4395,121.4
111.4854,161.7
111.4961,892.3
111.5375,75.7
111.5927,17.2
111.6094,80.2
111.641,126.9
111.6646,187.8
111.6765,171.7
111.7204,96
111.7222,134.8
111.7361,146.5
111.7458,424.9
111.7761,102.2
111.8119,130.1
111.8232,19.6
111.827,366.4
111.8375,114.9
111.853,188.7
111.9502,111.9
111.9609,142.5
111.9796,899.1
112.0411,229.3
112.0744,286.6
112.0905,127.6
112.0991,129.2
112.1724,74.3
112.2089,188.2
112.2264,134.1
112.2694,75.1
112.2884,311.2
112.3136,145.6
112.3272,177.6
112.3339,444.4
112.3577,611.5
112.4247,17.7
112.4887,365.8
112.5875,459.8
112.593,157.9
112.6014,359
112.608,90.1
112.625,172.3
112.6576,16.8
112.7428,114.6
112.7916,466.4
112.8643,106.1
112.8709,372.3
112.8787,124.3
112.8958,388883
112.9015,222.5
112.9388,677.4
113.0132,394.2
113.0588,730.9
113.0654,144.4
113.0987,73.8
113.1124,154.8
113.1447,223.8
113.1531,675.6
113.1566,752.7
113.189,224.2
113.26,559.3
113.2659,679.7
113.301,105.7
113.3373,357.9
113.3563,101.7
113.4033,382.1
113.4226,122.9
113.485,21.2
113.6005,19.5
113.6177,103.6
113.6303,116.2
113.8048,226.1
113.8178,146.7
113.8215,173
113.8512,97.4
113.884,161.6
113.8914,162.9
113.9147,130.4
113.9818,130.4
114.0042,338.4
114.0214,648.5
114.0507,610.4
114.055,67719
114.0567,459.1
114.0622,116
114.0661,897.3
114.0916,19.8
114.1574,539
114.1708,227.8
114.1818,19.1
114.1992,393.1
114.2256,191.8
114.2667,19.2
114.3723,506.7
114.4055,112
114.4083,233.1
114.412,440.5
114.4607,17.8
114.5539,790.3
114.6734,621.8
114.6756,262.8
114.6943,18.9
114.6985,683.8
114.7398,453.8
114.7512,414
114.7593,142.7
114.7723,365
114.7903,96.1
114.7933,160.6
114.8016,491.9
114.8269,112.6
114.8763,362.1
114.8891,93.3
114.8928,115913.7
115.0267,782.6
115.0481,72.3
115.0583,1517.1
115.1437,165.5
115.1741,133.8
115.2327,86.1
115.2619,236.1
115.3084,380.6
115.3509,154.3
115.3563,75.1
115.38,96.3
115.3964,17.4
115.4593,73.8
115.4673,100.4
115.4799,116.4
115.5161,19.2
115.5669,18.2
115.5751,688.7
115.6451,85.6
115.6605,90.2
115.6646,20.3
115.7,397.4
115.707,629.2
115.7263,311.5
115.7513,268.6
115.7529,497.1
115.7911,334.7
115.7947,96.2
115.8033,531.1
115.8268,452.3
115.8792,354.1
115.9111,101.9
115.9366,80.3
115.9553,198.4
115.9751,199.8
116.0046,83.1
116.0088,109.6
116.0423,814.5
116.0706,4121.2
116.0793,454.6
116.0955,90.3
116.1217,148.9
116.1759,259.1
116.179,632.3
116.1947,828.2
116.2301,217.4
116.2497,319.6
116.3058,98.5
116.3706,848.1
116.4435,166
116.4526,89.3
116.4811,749.8
116.4944,90
116.5207,338.1
116.5218,120.2
116.5451,717.3
116.5578,18.1
116.6073,197.5
116.6159,487.7
116.6206,186.1
116.6228,552.6
116.6542,143.6
116.6692,116.9
116.7205,131.5
116.7503,89
116.7544,490.9
116.7954,139.7
116.807,18
116.8254,87.1
116.891,16749
116.9018,18.8
116.9117,85.9
116.9499,105.9
116.9859,1627.2
116.9961,188
116.9998,711.7
117.0163,203.4
117.0783,318.8
117.1342,195.2
117.1646,16.7
117.167,420.3
117.2102,508.6
117.2483,18
117.2579,207.2
117.2646,88.6
117.2718,208.5
117.3257,161.6
117.3534,125.2
117.4029,139.9
117.4389,80.7
117.488,194.9
117.5073,427.7
117.5144,87.3
117.5461,703
117.5635,833.6
117.5869,156.8
117.6008,89.3
117.6073,154.1
117.6367,860.8
117.6811,277.2
117.6838,841.8
117.7041,95.3
117.7343,140
117.7382,16
117.7787,865.5
117.8442,210
117.9056,335.4
117.9081,21.8
117.921,714.6
117.9298,275.5
118.0665,477.4
118.1143,17.7
118.1263,136
118.1474,17.2
118.186,17.5
118.1928,17.6
118.2343,407.8
118.3083,484.7
118.3194,278.7
118.32,297
118.3565,661
118.4146,675.3
118.4687,91.8
118.4805,890
118.4824,176.5
118.4986,452.1
118.5071,142.1
118.5282,19.1
118.5295,622
118.5343,820.9
118.5766,129.7
118.6124,17.3
118.6321,401.6
118.6457,17.6
118.6551,137.7
118.6669,21.2
118.6822,306.8
118.6973,80.6
118.733,400.2
118.7393,18.9
118.8106,17.8
118.8195,330.6
118.8503,339.5
118.9503,165.3
118.9791,42.2
118.9817,19.3
119.0108,706.5
119.0113,721.7
119.0248,142.6
119.0321,90.1
119.0634,682.9
119.0855,19
119.1253,126
119.1912,360.7
119.2051,86.4
119.2198,665.1
119.2541,20.7
119.2622,107.8
119.2747,419.6
119.3295,84.9
119.3503,17.4
119.3574,139.7
119.3671,99.4
119.4196,117.4
119.4378,160
119.4426,87.1
119.477,411.3
119.499,337.2
119.5283,97.1
119.559,155
119.5708,115.6
119.6139,132.5
119.6175,753.8
119.6624,831
119.6739,465
119.6914,89.8
119.7091,627.8
119.7807,825.5
119.8013,95.1
119.8411,617.5
119.8442,134.6
119.8504,369.4
119.8558,82.9
119.8919,154
119.9021,151.6
119.9235,144.1
119.9425,21
119.9952,355.6
120.0033,4092.4
120.0697,22.1
120.0808,16727.8
120.1778,449.7
120.2002,70.8
120.2367,124.3
120.2723,194.4
120.3905,126.2
120.4341,161.5
120.4434,225.1
120.4522,118
120.4569,107.6
120.462,313.6
120.4681,245.9
120.4986,405.3
120.5228,147.4
120.5501,185.2
120.5835,524
120.5895,148.6
120.6427,20.6
120.7389,180.7
120.8012,438.5
120.8265,259.4
120.8329,139.6
120.8783,438.7
120.885,406.6
120.8928,173.9
120.9088,166.3
120.9618,118.2
120.9663,418.1
120.9755,115.5
120.9809,168.2
120.9919,329.5
120.9937,282.9
121.0077,367.9
121.0165,150.4
121.0198,81.6
121.0284,233.2
121.0398,68
121.0635,92.9
121.065,18.4
121.075,551.2
121.1013,510.4
121.1346,442.9
121.1529,79.3
121.2156,87.5
121.2756,113.1
121.2875,737.6
121.3299,95.2
121.4063,139.1
121.4238,122
121.4255,98.4
121.4652,90.4
121.5636,20.7
121.5882,92.7
121.7189,146.9
121.7246,176.7
121.7797,75.5
121.8113,106.7
121.8827,20.2
121.8894,102.2
121.8951,757.8
121.9348,115.5
121.9544,181.4
121.9847,118.1
121.9958,240.3
122.0106,21.6
122.0291,169.5
122.0353,122.7
122.0396,112.5
122.0421,129.6
122.0437,97
122.1161,875
122.172,16
122.1939,18.2
122.2324,17.9
122.2677,237.1
122.2718,96.5
122.2897,147
122.2919,117.4
122.3024,830.4
122.3105,566.2
122.3195,282.7
122.3243,20
122.3309,105.1
122.3332,93.2
122.3877,376
122.3882,378.4
122.464,152.1
122.5164,132.2
122.5254,852.2
122.6018,377.7
122.6261,19.7
122.63,308.3
122.7087,157.5
122.7396,78.8
122.7491,266.7
122.7549,257.4
122.7685,236.6
122.7734,279.9
122.7869,87.7
122.8116,1044.7
122.8279,145.7
122.8419,214.7
122.8565,19.5
122.9246,13859.2
122.9794,844.3
123.0441,428.8
123.0551,84.8
123.0597,139.3
123.0762,475
123.0806,39.8
123.0828,277.5
123.1057,17.8
123.1138,155.1
123.1151,539.6
123.1171,469.4
123.134,273.1
123.1547,121
123.1607,1229.2
123.1984,480.6
123.2449,156.8
123.2488,559
123.3069,190.4
123.3099,368.3
123.3341,114.2
123.3614,438.7
123.3688,172.5
123.3799,329.3
123.3871,114.2
123.4468,133.4
123.4616,85
123.5903,183.1
123.5919,76.5
123.6133,305.3
123.6325,112.6
123.719,398.4
123.7914,89.9
123.7937,183.7
123.8092,126.1
123.8232,569.1
123.8358,18.4
123.8936,79.1
123.9025,456.9
123.9462,218
123.98,252.6
124.0071,651.3
124.0333,166.2
124.0372,104.9
124.19,329.5
124.2323,371.8
124.3233,130.1
124.3483,17.7
124.3706,222.2
124.3793,670
124.3965,134.8
124.4412,84.2
124.4545,788.4
124.4575,113.1
124.4619,166
124.5599,606
124.5727,506.5
124.6088,113.3
124.6362,136
124.6745,392.7
124.6802,156.4
124.7112,145
124.7269,439.4
124.757,110.3
124.7966,17.2
124.8099,178.2
124.8171,20.6
124.8428,99
124.8679,147
124.8913,201.6
124.8972,176.5
124.9034,126.5
124.9136,120.1
124.9228,683.9
124.9538,87.7
125,7007.1
125.0043,2235.9
125.0057,234.6
125.039,305.5
125.0576,631.9
125.0599,28.6
125.0677,96.3
125.0701,88.9
125.0951,757.7
125.105,88.3
125.1074,146.6
125.1225,617.3
125.1444,165
125.1729,676
125.1876,113.3
125.2239,531.4
125.2455,141.1
125.2501,94.3
125.2646,163.8
125.2744,21.3
125.2985,581.9
125.391,124
125.478,128.4
125.5217,88.9
125.5438,279.4
125.5887,219.5
125.6137,87.8
125.6157,456.5
125.7387,347.4
125.7598,147.9
125.771,132.6
125.7787,21.5
125.7882,136.8
125.8628,96.9
125.8696,424.9
125.9196,323.6
125.9528,166.7
125.9563,552.3
125.9952,450.3
126.0248,715.8
126.0294,85.8
126.0373,169.1
126.0819,1039
126.2237,180.4
126.3109,78.9
126.3227,112.6
126.3388,144.3
126.3533,70.7
126.3558,82.9
126.3961,252.4
126.4056,17
126.4088,146.5
126.4505,89.9
126.4758,896.4
126.5044,416.9
126.5136,862.4
126.5382,198.6
126.5503,267.7
126.5719,19.3
126.5738,139.6
126.6181,212.7
126.6467,156.6
126.6707,432.8
126.7915,18.4
126.8684,126.8
126.8785,187.9
126.926,356.5
126.9468,175
126.9562,202.8
126.9684,193
126.9703,357.7
126.9976,601.5
127.0068,404.3
127.0095,159.4
127.0117,189.6
127.0152,178.5
127.0479,79.2
127.0598,130.1
127.0877,308.3
127.1092,101.8
127.1442,375.5
127.1973,141.4
127.2145,569
127.2335,454.6
127.2501,183.9
127.2886,264.7
127.3044,16.7
127.3099,336.6
127.3336,21
127.4458,1061.1
127.45,185.2
127.4878,801.1
127.5266,491.4
127.5971,143.8
127.7088,314.3
127.7251,124.3
127.7657,246.1
127.7701,94.7
127.8629,230.3
127.8656,346.4
127.876,184.6
127.9082,114.6
127.9446,523
127.9516,696.3
128.0146,664.9
128.0447,142.7
128.1251,101.4
128.1459,103.3
128.1668,235.4
128.1709,370.4
128.2597,88.8
128.2934,190.5
128.3521,17.9
128.3916,211.7
128.4434,186.4
128.504,100.7
128.5322,185
128.5732,618.7
128.6057,161.4
128.6124,80.5
128.6189,186.7
128.6531,627.3
128.6951,93.9
128.6985,697.5
128.7049,205.3
128.7371,227.2
128.7604,28.7
128.7724,132.9
128.8234,164.9
128.8255,578.6
128.8395,115.9
128.8616,162
128.8638,118.7
128.8893,88.5
128.9064,116.3
128.9321,102.2
128.9396,16.4
128.9567,20.4
128.9617,99.3
128.9727,90.8
129.0034,599.1
129.0252,16.6
129.0364,313.3
129.0712,19.7
129.089,102.5
129.1316,289.3
129.1331,190.5
129.135,328.2
129.2556,21.5
129.2588,219.4
129.2635,164.9
129.3178,97.6
129.3881,113.7
129.3905,410.2
129.4135,564.4
129.4405,435.2
129.6067,192.7
129.6197,227
129.6437,292.6
129.7037,173.6
129.7428,84.9
129.7748,634.2
129.8083,207.7
129.81,273.4
129.9611,75.7
129.9686,254.6
129.9983,405.7
130.034,898.9
130.0445,661.7
130.05,8837.8
130.0633,17.5
130.0702,147.2
130.0957,282.6
130.1808,18.2
130.1893,313.4
130.1953,528.4
130.2021,172
130.2404,205.7
130.2539,20.9
130.2755,582.4
130.363,326.1
130.5313,356.3
130.5647,81.5
130.5779,84.8
130.7711,406.6
130.7959,134.9
130.8108,102.4
130.8191,158.9
130.9609,156
131.0021,110
131.011,98.4
131.0126,142.8
131.0216,323.3
131.0333,18.9
131.0729,27.9
131.082,500.4
131.117,203.8
131.1874,79.4
131.2478,240.1
131.2797,111.6
131.2945,100.8
131.2992,127.6
131.3532,499.6
131.3622,127
131.5616,152.8
131.5844,164.9
131.64,136.9
131.6522,16.7
131.6784,82.8
131.7148,100.7
131.7202,437.1
131.7321,458.9
131.7341,256.4
131.738,161.2
131.7423,99.4
131.8433,154
131.9077,301.1
131.9262,776.5
131.9414,95.6
131.9814,315.4
132.0033,31998.3
132.0087,278.5
132.0581,167.7
132.0657,111819.3
132.0768,1640.7
132.1018,18.2
132.1135,136.5
132.1462,477.9
132.3555,81.9
132.3716,94.8
132.379,237.5
132.3892,115.8
132.4091,17.9
132.5047,388.5
132.5343,161.4
132.5542,147.3
132.6245,527.3
132.639,170.9
132.726,745.5
132.7559,345.3
132.7671,237
132.8143,162.2
132.8203,147.6
132.8668,93
132.8816,120.4
132.903,26
132.9138,76.8
132.9255,209.1
132.9874,2624
133.0127,269.7
133.0425,519.9
133.0555,693.3
133.0647,148.5
133.069,3151
133.0797,231.3
133.0873,273.5
133.0973,18233.3
133.1012,358.9
133.1039,168.9
133.1515,289.1
133.1536,797.8
133.1787,103.1
133.2109,768.7
133.2308,106.5
133.2857,419.1
133.2875,692.5
133.3049,544.8
133.313,425.1
133.3149,136.3
133.4004,399.7
133.4171,97.4
133.4215,16.6
133.4252,80.6
133.454,174.8
133.4946,1293
133.5312,636.9
133.586,77.9
133.6117,19
133.6166,223.8
133.6206,21.1
133.6271,90.1
133.759,450.8
133.7678,20
133.792,861.5
133.8123,153.5
133.8719,79.5
133.8776,195
133.8896,429.2
133.9314,543.6
133.9474,194.7
133.9981,194.4
134.019,14961.1
134.0229,75.7
134.0695,629.7
134.107,236
134.1458,193
134.209,81.6
134.2579,493.4
134.2846,20
134.3526,401.5
134.44,97.2
134.4608,162.1
134.4827,164.5
134.5192,595
134.5206,127
134.5243,17.9
134.5835,752.9
134.6212,348.4
134.6389,281.1
134.6474,18.5
134.6502,122.1
134.6873,165.7
134.7276,277.9
134.7514,100.2
134.7606,544.7
134.8176,411
134.8261,205.9
134.9227,215.6
134.947,1109.3
134.9642,429.4
134.9828,550.8
134.9965,89
135.003,81662.2
135.0568,185.7
135.0732,226.4
135.0893,18.9
135.1037,96.7
135.1076,203.2
135.1118,215.2
135.1169,31.1
135.2387,465.9
135.2837,655.4
135.3007,125.5
135.3457,944
135.3475,17.4
135.3669,329.4
135.3798,84.3
135.3918,171.3
135.4642,173.5
135.5103,713.1
135.5439,469.3
135.6065,207
135.6415,17.2
135.6509,169.5
135.6607,550.7
135.6838,19.2
135.7238,149.4
135.7257,442.7
135.7324,98.2
135.7361,352.3
135.7465,458.8
135.7586,116
135.767,128.5
135.7908,491.6
135.8882,124.4
135.8898,20.8
135.9226,108.6
135.9552,145.6
135.9773,2497.1
136.0064,635.2
136.0259,215.3
136.0435,129
136.0483,11701.4
136.0619,46.5
136.0758,11334.7
136.2448,20.4
136.2463,96
136.2773,112.7
136.2839,445
136.3101,17.4
136.3518,109.6
136.3994,526.1
136.4444,163.1
136.4531,215.6
136.4696,18.5
136.4745,328.4
136.5502,132.3
136.5893,347.5
136.6347,158.8
136.6399,95.3
136.6635,830.5
136.6711,239.4
136.676,162.7
136.697,91.1
136.7737,154
136.8302,769.8
136.8318,19.5
136.8475,161.1
136.865,672.6
136.9164,661.3
136.9312,1142
137.0329,164.6
137.0598,45.3
137.0646,220
137.0853,92.8
137.0974,220.8
137.1075,124.5
137.173,130.1
137.1744,75.3
137.1799,590.9
137.237,72.9
137.2809,173.5
137.3263,146.2
137.3347,502.3
137.366,430.6
137.386,108.5
137.4196,790.7
137.4697,82.2
137.546,128
137.5907,19.4
137.6803,142.3
137.7219,297
137.7795,556.3
137.7864,203.1
137.8024,100.9
137.8271,926.3
137.8397,200.6
137.8603,382.7
137.8808,131.6
137.8885,282.6
137.918,96.6
137.9613,317
137.9648,649.8
137.9991,481.6
138.0527,8806.3
138.0664,24
138.1553,672.1
138.1886,109.8
138.1915,342.3
138.2033,42
138.2055,144.2
138.2218,421.1
138.2633,119.9
138.2723,602
138.2894,120
138.3008,179
138.3152,256.3
138.3717,327.7
138.3877,116.7
138.4219,920.1
138.467,19.7
138.5051,113.8
138.5193,370.7
138.5501,438.5
138.653,308.3
138.6675,147.5
138.6852,529.1
138.7033,109.1
138.7426,948.3
138.8112,329.6
138.8895,229.4
138.9066,1730
138.9155,124.3
138.9211,571
138.9261,18.8
138.9435,144.2
138.9847,125.8
138.994,545.1
139.0019,103.2
139.063,228
139.1136,296.3
139.1382,325.7
139.1417,102.6
139.1484,833.9
139.1813,836.4
139.2287,140.9
139.2423,253.1
139.2444,75.2
139.2617,750.5
139.263,134.6
139.2859,540.2
139.3532,366.1
139.373,440.4
139.3781,184.2
139.4007,19.7
139.4033,186.1
139.4159,351.6
139.4177,94.1
139.4462,223.6
139.4884,105.3
139.5106,712.3
139.5217,310.9
139.5278,121.6
139.5554,18.7
139.5658,473
139.5701,165.4
139.656,339.4
139.6917,446.1
139.6941,175.7
139.7213,109.9
139.7555,18.7
139.8619,153
139.8776,91.7
139.9842,503
140.0061,226.9
140.0166,1017.6
140.0332,755.3
140.0549,596.1
140.0619,212.4
140.0683,3781.7
140.0883,204.2
140.1073,694.5
140.1316,878.3
140.2893,143.5
140.2917,146.8
140.2937,612.2
140.3147,261.8
140.3467,184.9
140.3806,230.4
140.3922,182.5
140.4007,445.5
140.4184,82.2
140.5122,202.6
140.5347,19.2
140.5571,423.8
140.5981,492.2
140.6182,164
140.6225,507.2
140.6265,275.5
140.7005,82
140.7381,17.2
140.7951,165.4
140.7983,790.2
140.8344,109.6
140.8993,462.4
140.9034,619.4
141.0006,22593
141.02,45.3
141.0257,119.1
141.1022,487.2
141.1998,124.2
141.217,80
141.2187,21.1
141.2446,158.2
141.2471,18.9
141.2486,91.3
141.2505,106.5
141.2566,202.2
141.2577,188.6
141.319,443.5
141.3428,465.3
141.3513,210.5
141.4266,116.8
141.4485,102.5
141.4533,384.4
141.4842,98.4
141.4894,135.3
141.5244,438.7
141.6261,262.9
141.635,146.5
141.6446,191.8
141.6995,112.1
141.7836,157.6
141.7942,19.6
141.9207,143.3
141.9588,465.9
141.9999,56.1
142.0039,570.5
142.0176,740.3
142.0335,342.8
142.0739,57.3
142.1102,316.4
142.2187,164.4
142.2556,630.9
142.2661,345.3
142.2674,860.6
142.4045,590.3
142.478,17.7
142.5006,343.8
142.562,335.3
142.6052,19.4
142.6785,256.5
142.7319,95.7
142.7489,359.1
142.758,21
142.7648,99.9
142.8089,135
142.8205,126.6
142.842,144.1
142.8989,97.4
142.9269,149.3
142.942,82.8
142.9526,111.7
142.9562,589.2
142.9757,596.2
142.9964,279.9
143.0037,215.9
143.0089,137.3
143.0199,87.2
143.0428,84.7
143.0638,505.9
143.0818,406.4
143.087,298.5
143.115,88.1
143.1466,104.6
143.167,401.1
143.1714,162.7
143.1982,573.7
143.2325,421.8
143.2369,158.2
143.2734,18.4
143.2821,462.5
143.3323,20.1
143.3422,253.2
143.4533,262.9
143.5238,116.9
143.5845,237.2
143.5863,149.2
143.5883,217.7
143.6583,84.4
143.7012,169.3
143.709,130
143.7512,247.9
143.7815,97.6
143.8271,594.8
143.8712,16.7
143.9593,322.8
143.9706,250.2
143.9969,530.3
144.0007,701.9
144.1095,109.5
144.1185,128.4
144.1935,148.4
144.2011,637.8
144.3149,377.8
144.328,132.5
144.3881,171.6
144.3892,152.7
144.4648,637.7
144.4888,490.5
144.5006,127.4
144.5134,19.3
144.5237,339
144.5786,141.1
144.6109,153
144.6157,839.1
144.6589,407.9
144.6955,100.9
144.7014,189.9
144.7189,154.9
144.722,145.4
144.7354,630.5
144.7474,85.8
144.7803,273.4
144.8713,182.8
144.9024,104
144.9584,78.1
144.9754,85.6
144.9811,3878.7
144.9895,160.7
144.9914,265.5
145.0042,275.9
145.0939,90.1
145.1045,314.6
145.118,319.8
145.1231,193.9
145.222,470.7
145.2309,16.4
145.2459,144.5
145.2929,126.1
145.2981,585.6
145.3283,127.5
145.3355,84.4
145.3717,626.5
145.4019,292.6
145.4877,671.8
145.4917,79.2
145.5063,132.8
145.5469,20.9
145.5576,464.1
145.564,18.2
145.5745,550.7
145.6423,926.5
145.6522,234.9
145.6776,443
145.7864,306.7
145.9348,486.2
145.9485,285.7
145.9754,20.7
145.9784,119.8
145.9808,1156.9
145.9841,1031.1
145.9953,17.8
146.0126,4170
146.019,21196.5
146.0449,52.2
146.0523,171.2
146.0597,76.7
146.1386,252.3
146.1781,645.2
146.2588,535.3
146.284,18.9
146.3125,94.5
146.3742,683.6
146.4181,518
146.4495,81.9
146.4943,106.3
146.503,684.8
146.5074,307.2
146.5417,163.1
146.5576,78
146.5605,363.6
146.5911,296.1
146.5998,146.3
146.6319,98.6
146.6509,394.5
146.6937,416.5
146.708,632.4
146.7653,426.9
146.7806,20.6
146.788,792.6
146.7952,100.9
146.8014,487.3
146.8163,178.9
146.982,132548.1
146.9982,110.6
147.0077,935.5
147.0193,115.5
147.0291,413.5
147.054,16.1
147.0766,53877.3
147.113,27779.2
147.117,575.1
147.1669,833.5
147.1686,157.1
147.2877,841.4
147.3157,98.8
147.3183,276
147.394,471
147.4129,95.9
147.4147,222.9
147.4605,137.9
147.5016,333
147.5425,563.7
147.5588,523.1
147.5653,539
147.5833,184
147.6122,226.9
147.6284,183
147.6818,281.3
147.7101,516.3
147.7653,163.6
147.8863,360.9
147.9218,352
147.9439,476
147.9834,77.8
147.9853,867.3
148.0429,109.9
148.0609,820.6
148.0799,443.9
148.1053,23.3
148.1164,361
148.1697,205.4
148.3952,691.5
148.4426,81.5
148.5,81
148.5027,124
148.5323,3082.8
148.5362,206.4
148.5565,167.3
148.5658,146.2
148.6052,454.8
148.6287,390.4
148.7155,110.8
148.7282,358.1
148.7771,159.7
148.8934,159.2
148.9346,152.2
148.9614,3864.6
149.0028,55.4
149.0122,23.2
149.0146,889.8
149.0187,3014
149.0235,5980
149.0311,87.1
149.033,439.1
149.0889,158
149.1332,113
149.2199,233.5
149.2441,472
149.2828,21.5
149.3073,102.3
149.3142,17.2
149.3563,162.3
149.3776,334.6
149.433,247.5
149.4366,97.5
149.4403,121.2
149.4717,151.9
149.4921,539.7
149.5486,577.1
149.5608,100.1
149.5803,562.9
149.5933,74.3
149.5997,558
149.6064,158.3
149.6928,156.2
149.7656,333.8
149.8145,657
149.8801,138.2
149.993,6738.8
149.9964,116.6
150.014,4453.7
150.0268,163.4
150.0965,186.9
150.1076,18.4
150.118,778.3
150.2278,586.8
150.3048,355.7
150.337,459.8
150.4229,107.2
150.4913,230.8
150.5602,311.1
150.5646,17.3
150.6058,138.5
150.6287,609
150.6452,381.7
150.6757,322.6
150.7109,429
150.8075,85.1
150.8176,175.2
150.8259,278.6
150.8337,334.6
150.8574,88.5
150.8665,165
150.937,687.5
150.972,177.9
150.977,49815.4
150.9843,131.9
151.048,5023.6
151.051,202.2
151.0664,1096.8
151.1945,22
151.2155,664.5
151.2565,278.3
151.2791,112.5
151.3389,531
151.3614,175.6
151.4348,320.6
151.4667,170.8
151.5994,17.8
151.6802,524.7
151.6918,159.8
151.7035,85.9
151.7066,453.1
151.749,179.8
151.7556,325.3
151.8464,185.6
151.8615,338.8
151.9033,179.4
151.9112,384.9
151.9239,114.3
151.9804,438.3
152.0223,11543.3
152.0296,389.4
152.032,897.5
152.0473,990.8
152.1076,145.5
152.2355,249.7
152.2415,308
152.3373,299.6
152.4108,701.5
152.4914,297.4
152.509,20.6
152.5122,150.6
152.5298,113.2
152.5499,74.5
152.5574,483.3
152.5815,92.2
152.6274,75.2
152.7041,660.5
152.7269,175.9
152.7357,747.4
152.7765,301.4
152.812,851
152.8244,26.2
152.8274,69.9
152.8335,85.4
152.8545,118.3
152.9291,328.9
152.9331,173.2
152.9524,146.2
152.9752,1876.4
152.9862,186.1
153.0336,343.9
153.1247,125.3
153.1491,98.9
153.2414,451.1
153.2867,254.6
153.3064,334.8
153.327,141.3
153.5345,887.7
153.5655,353
153.6506,166.9
153.6798,159.6
153.6852,314.2
153.7439,265.4
153.7625,19.4
153.7761,21.1
153.835,25.8
153.8705,71.6
153.896,707
153.9676,175.5
153.9852,117.3
153.993,19.3
154.0114,452.4
154.0267,610.7
154.0589,1523.1
154.0934,241.5
154.1003,328.9
154.1328,22.3
154.4418,312.8
154.4495,244.1
154.4517,259
154.4988,70.8
154.5041,78.6
154.609,198.1
154.6349,121.7
154.6892,427.3
154.7752,178.7
154.8489,179.5
154.8809,970.2
154.9076,73.3
154.9276,214
154.9417,723.7
154.9498,125.2
154.9693,462.3
155.0495,124.8
155.0542,3912
155.137,955.4
155.2205,672.6
155.2397,18.1
155.2437,175.4
155.2521,103
155.276,159
155.2844,680.7
155.3083,102.7
155.3815,158.8
155.3987,322.5
155.4257,167.3
155.4711,273.8
155.4937,434.8
155.5405,975.8
155.5886,577.9
155.5939,17.2
155.672,21
155.8243,123.5
155.8691,115.5
155.9441,508.7
155.9813,507.1
156.0424,2672
156.0574,57
156.0721,568.4
156.077,56194.1
156.0906,18.3
156.1493,353.3
156.3954,180.2
156.4004,153.5
156.4258,119.7
156.5174,75.6
156.5604,538.3
156.6455,164.9
156.6495,18.3
156.6533,472.7
156.6932,317.1
156.7826,140
156.8064,142.3
156.8266,584
156.8407,331.2
156.936,272
156.9627,84.2
156.9747,28.5
156.9993,710.5
157.0022,652.3
157.0498,441.8
157.0802,879.2
157.0974,202
157.1534,75.8
157.2,295.6
157.2319,187.7
157.3225,137.2
157.3492,745.1
157.367,404.9
157.3788,293.8
157.3809,17.2
157.4113,90.3
157.4305,365.7
157.4382,510.5
157.4552,78.7
157.534,177.7
157.5439,751.1
157.5854,17.8
157.6149,17.5
157.6649,172.9
157.6728,109.1
157.7307,113
157.7432,20.3
157.792,82.3
157.8245,410.5
157.8839,241.3
157.9272,19.9
157.9837,198.8
158.0128,583.8
158.0273,5066.9
158.1064,211.7
158.158,626.3
158.1617,384
158.2175,121.6
158.2881,20.6
158.3423,151.8
158.3731,235.8
158.4405,445.4
158.4604,647.4
158.4655,434.2
158.4696,114.3
158.4718,16.8
158.5305,96.9
158.6839,118.6
158.7143,496.8
158.7224,397
158.7678,149.6
158.8096,443.7
158.815,179.8
158.8269,361.9
158.8363,93.3
158.8832,344.3
158.9566,73.8
158.9644,9785.3
158.9967,10481.1
159.0111,94.2
159.0274,638.7
159.0307,156.8
159.1076,22.5
159.1166,23.6
159.1811,123.5
159.1918,351.4
159.2203,774.3
159.2235,335.2
159.243,23.2
159.3137,129.3
159.3374,463
159.4033,97.7
159.4706,129.3
159.5209,112.3
159.5506,109.5
159.5621,183.8
159.598,92.3
159.6175,349
159.686,402
159.7103,79.2
159.7535,123.8
159.7687,120.1
159.8815,923.5
159.9111,336.9
159.9692,654.6
160.0138,23.9
160.0231,84.1
160.0284,124.2
160.0348,18406.1
160.0552,18.2
160.0607,107926.8
160.0915,79
160.1207,90.7
160.1691,454.5
160.2346,953.9
160.2407,471.8
160.3192,65.4
160.3268,176.7
160.3465,511.5
160.3711,71.5
160.3757,219.6
160.3982,457.9
160.4083,109.8
160.4492,160.4
160.4695,431.8
160.5326,100.6
160.5777,90.5
160.644,143.3
160.7762,209.9
160.8256,221.6
160.8349,99
160.8711,143.4
160.8969,18
160.9063,199.5
160.9668,331
160.9902,23.4
161.0186,477.4
161.0391,176.1
161.0641,5114.4
161.0961,120.9
161.1155,145.2
161.1582,76.3
161.2129,166.8
161.2472,829.4
161.2548,129.5
161.2939,146.7
161.3632,153.1
161.3973,711.2
161.4204,77.9
161.4591,285.7
161.477,125
161.4822,443.4
161.491,198.7
161.4988,231.4
161.532,119
161.558,826.1
161.5664,525.3
161.6116,896.8
161.655,90.1
161.6771,149.9
161.8947,18.3
161.914,152.4
161.9402,18.8
162.0176,148.8
162.0504,17831
162.1123,388.1
162.1748,18.1
162.195,292.6
162.2139,155.8
162.2169,476.7
162.2235,271.6
162.3133,190.6
162.3513,663.5
162.3733,325.4
162.3861,83.7
162.436,249.1
162.4988,170.3
162.5602,481.7
162.573,85.5
162.5749,412.7
162.6305,362.3
162.6396,314.6
162.6707,106.1
162.7013,222.6
162.724,19.3
162.7366,432.9
162.831,113
162.8598,364.3
162.9457,204.7
162.956,3773.7
162.996,544.9
163.0159,1282.2
163.019,19.9
163.0344,359.5
163.0394,41.2
163.0517,184
163.1102,22
163.1128,874.2
163.2228,99.4
163.2316,370.2
163.2538,308
163.2577,291
163.2907,88.5
163.3013,16.2
163.3944,377.8
163.4003,249.5
163.4315,245.3
163.5447,672.8
163.593,400.6
163.6039,901.2
163.6541,152.5
163.6627,626.4
163.6692,201.1
163.7278,320.3
163.8275,109.9
163.8389,177.9
163.8415,108.6
163.9214,879.1
164.0234,292.6
164.0297,16109.3
164.0728,147.1
164.0757,474.8
164.1533,115.5
164.316,22.1
164.3874,21.6
164.4795,499.4
164.5098,161.1
164.615,143.7
164.6207,487.6
164.6552,168.2
164.7056,21.2
164.7547,168.6
164.8201,150.8
164.8598,334.6
164.8966,317.8
164.9208,4721
164.9303,14412.2
164.9355,1534.3
164.9518,112.4
164.9636,80.2
164.9796,95.3
164.9928,1222.7
165.0239,505.7
165.0715,203.4
165.0913,2107.5
165.1526,152.4
165.1824,109.2
165.1881,165.6
165.2617,166.7
165.285,165.5
165.3761,129.1
165.3929,344.6
165.4032,859.4
165.4081,170.2
165.4205,92.7
165.4818,140.6
165.4947,18.6
165.5151,110.4
165.7297,183.4
165.7404,123.6
165.7882,355.9
165.7978,827.6
165.8204,240.6
165.8514,18.3
165.956,408.7
165.9669,1140.9
165.9791,2693
165.9881,3872.6
166.0078,642.5
166.0125,18.8
166.0229,176
166.0613,137.9
166.105,16.8
166.1527,456.8
166.1939,924.7
166.2142,221.5
166.222,76.6
166.2686,388.8
166.3219,795.5
166.5481,248.3
166.5914,253.4
166.603,93.3
166.6085,307.1
166.678,460.3
166.7442,397.1
166.75,641.4
166.8586,175
166.8789,120.8
166.951,19084.6
167.022,3099
167.0277,8374.8
167.0387,104.9
167.0555,135.7
167.0952,232.5
167.1432,20.9
167.2019,112.4
167.235,95.6
167.2771,143.4
167.2807,311
167.2939,21
167.2973,320
167.3299,858.7
167.394,250.4
167.4112,398.1
167.4707,697.8
167.5289,19.7
167.5845,95.7
167.6248,94.5
167.6288,717
167.6753,119.2
167.6909,164.5
167.7199,18.1
167.9077,600.9
167.9947,3399.7
168.1575,23
168.1618,188.2
168.1728,175.4
168.2596,164.7
168.3425,18.4
168.4025,180
168.4143,83.6
168.4963,529.8
168.5646,920.6
168.5762,266.1
168.5862,703.4
168.6032,81.7
168.6109,503.4
168.6214,83.3
168.8504,300.5
168.9322,124.9
168.9493,1304.3
168.952,17.6
168.9895,375
169.0587,56712.4
169.0651,1177.8
169.0951,3647
169.0975,663.2
169.194,175.1
169.2257,266.1
169.3289,186.8
169.3771,471.1
169.4514,81.1
169.5447,452.8
169.5512,439.6
169.6277,180.3
169.6515,688.2
169.6677,122.6
169.6745,446.8
169.7036,501.6
169.7382,19.9
169.7973,122.3
169.8201,434.2
169.8226,593.5
169.8335,89.8
169.8443,284.6
169.888,286
169.9057,108.8
169.9296,166.4
169.9861,678.6
169.9881,20.3
169.9967,20.8
170.0116,363.9
170.033,5222.8
170.0516,193.1
170.062,805
170.0927,14475.4
170.0962,135.9
170.1255,112.3
170.1595,96.5
170.229,194.2
170.2918,548
170.3179,80.3
170.3905,76.6
170.4045,16
170.4149,83.6
170.4237,133.6
170.4339,460.8
170.4459,338.8
170.4785,348
170.6,317.8
170.7271,83.1
170.7569,485.5
170.7779,84.1
170.8131,144.9
170.8212,386
170.8331,349.6
170.8519,79
170.8547,3832
170.9496,327.6
170.9536,91.2
170.9582,464.6
170.965,109.3
170.9815,104.9
170.9853,21.3
171.0171,1400.3
171.0283,363.4
171.0397,420.6
171.1287,1191.3
171.1665,927.1
171.2563,170.9
171.2854,400.9
171.2965,183.4
171.32,371.9
171.3965,448.2
171.645,94.7
171.712,187.4
171.7748,180.9
171.7884,17.1
171.8581,437.5
171.9002,220.9
171.9895,987
172.0284,682.4
172.0613,81.2
172.0847,381.6
172.2322,20.4
172.2811,18.2
172.3046,154.8
172.3212,121.5
172.3637,83.5
172.3663,876.7
172.4354,107.4
172.4409,171.3
172.4446,535.6
172.4493,92.8
172.5103,87.3
172.5499,403
172.5994,663.7
172.6349,113.9
172.7249,99.8
172.733,19.3
172.8382,511.5
172.8517,1294.4
173.027,440.9
173.0299,371.9
173.0352,18.9
173.0546,185.7
173.096,79.7
173.1214,363.7
173.1721,18.4
173.3438,17.7
173.3669,17.6
173.4314,263.4
173.5507,579.7
173.5539,18.2
173.649,543.4
173.7297,104.9
173.7397,168.8
173.7519,465.5
173.8214,139.8
173.8306,306.2
173.8622,137
173.9064,298.7
173.9513,119.7
173.9615,364.9
173.9998,331.6
174.0128,117
174.0459,349.2
174.0693,373.1
174.0714,645.3
174.0782,225.1
174.1308,628.6
174.1431,443.1
174.1804,118.4
174.1817,118.7
174.2173,97.1
174.2842,552.2
174.3219,353.7
174.3758,116.4
174.4529,205.4
174.5419,93.5
174.5952,91.3
174.6126,464.6
174.6385,248.7
174.65,235.1
174.6509,235.1
174.6833,96.5
174.8078,96.6
174.8359,18.5
174.8466,138.2
174.8824,123.7
174.9007,184.8
174.9384,2526.1
174.9617,82.8
175.0345,5389.9
175.041,96.2
175.0457,5087.8
175.095,121.3
175.1193,83168.3
175.1533,340.7
175.2239,339.7
175.3091,128.6
175.3698,240.4
175.6466,69.2
175.6508,551.8
175.6748,109.3
175.7612,217.4
175.8134,122.6
175.8294,361.8
175.938,19.1
175.9834,475.6
175.994,284
176.0088,6865.1
176.023,125.8
176.0297,505.7
176.051,371
176.0662,26914.5
176.1032,1750.6
176.1142,82.6
176.1225,431.1
176.1452,79.3
176.1625,325.3
176.1762,265.8
176.2034,18.7
176.2453,112
176.5347,85.3
176.5588,195.6
176.6078,188.6
176.6115,825.8
176.643,266.1
176.6616,445
176.7578,18.3
176.7788,430.8
176.8148,207.4
176.8951,173.9
176.9669,95.1
176.975,636.3
176.9928,1649.9
176.9994,258.2
177.0075,35.1
177.0251,4426.4
177.0615,4988
177.0693,320
177.0716,234.9
177.0873,1258.5
177.094,487.6
177.1686,233.6
177.2546,140.1
177.2656,299.1
177.362,126.9
177.3724,145.2
177.5856,77.9
177.639,109.8
177.6451,430.4
177.662,474.2
177.7195,206.3
177.7504,1050.4
177.8108,143.6
177.8956,124.5
177.8984,597.5
177.9101,284.6
177.9208,318.2
177.9679,225.5
177.9853,160.1
177.9863,181.7
177.9951,20.7
178.0091,12457.1
178.0244,8888.1
178.0449,91.7
178.0543,126.4
178.059,4111.5
178.0944,516.8
178.1046,18.6
178.1111,95.3
178.1448,102.4
178.1937,159.9
178.211,141.7
178.3377,181.7
178.3698,18.6
178.6056,779.2
178.759,371.3
178.7988,17.1
178.8159,99
178.8299,210.1
178.8397,196.4
179.0412,100.3
179.0493,92.7
179.0514,631.8
179.0782,86.4
179.1067,20
179.1547,561.1
179.2411,328.9
179.2463,884.2
179.2544,733.1
179.2786,19.1
179.302,526.9
179.334,86.7
179.5687,140.6
179.6105,521.7
179.6268,86.6
179.6323,110.3
179.6461,109.7
179.6752,551.8
179.7354,179.5
179.8169,174
179.8816,18.6
179.898,176.7
179.9079,263.4
179.9221,101.9
179.9527,192.8
179.9551,18.7
179.9764,563.8
179.9935,361.8
180.0037,7112.2
180.0511,104.8
180.1234,827.6
180.1517,107.7
180.1713,100
180.1801,149.2
180.2748,184.5
180.2796,114.7
180.2927,204.2
180.2988,103
180.3121,115.2
180.3331,197.3
180.4347,213.7
180.4732,126.6
180.5092,575.2
180.6119,816.1
180.6244,299.5
180.6856,620.1
180.7001,116.6
180.7446,734.2
180.7582,508.4
180.7829,151.9
180.8657,144.2
180.8948,3566.8
180.9043,10033.6
180.9304,94
180.9575,1028.2
181.0242,420.4
181.0266,582
181.0403,147.6
181.0491,106.5
181.0563,117.6
181.0652,10754.2
181.0717,651.1
181.0845,1393.3
181.0932,121.2
181.1328,150
181.1366,158.9
181.3252,545.6
181.3346,281.7
181.3529,344.2
181.4345,17.6
181.4451,262.5
181.4835,157.4
181.5058,300.6
181.6638,173.4
181.673,615.1
181.6897,278.7
181.7242,622.4
181.8474,294.2
181.8864,186.2
181.9005,490.9
181.9457,238.6
181.9647,16.5
181.9832,618
182.0013,800.9
182.0158,25.9
182.0314,780.4
182.0428,41487.7
182.0633,497.2
182.1718,396.2
182.2607,93.6
182.2909,551.4
182.2946,78.7
182.4146,148.4
182.5706,123.4
182.5906,18.2
182.5941,294.7
182.6266,104.5
182.6477,165.4
182.6639,886.3
182.6852,734.6
182.7045,252.1
182.7128,191.6
182.7412,194.1
182.7662,478.2
182.7929,328.3
182.7971,210.7
182.852,83.4
182.862,620.3
182.9025,79.6
182.9292,445.8
183.0082,152.7
183.0446,2665
183.058,176.2
183.0709,211
183.0982,118
183.1092,302.6
183.1183,292.7
183.2968,116
183.331,476.5
183.6458,84.6
183.7364,199.8
183.7619,17.6
183.7734,81.8
183.8076,182.4
183.8577,93.2
183.9036,284.9
183.916,137.9
183.9652,502.4
183.9792,174.1
184.0519,1009.4
184.0737,4276418.5
184.1293,308.9
184.1543,499.5
184.1702,49.5
184.1824,1512.9
184.193,208.7
184.1972,660.2
184.2013,161.5
184.2165,93.5
184.2452,122.7
184.2563,828.9
184.3355,16.9
184.3933,110.1
184.432,578.3
184.4386,344.6
184.4613,197.3
184.5398,135
184.5457,1031.3
184.6282,106.8
184.629,105.7
184.6323,203.4
184.672,283.7
184.8593,983.1
184.9087,733.2
184.9506,410.6
185.0032,147.3
185.0071,92.6
185.0327,53938.7
185.0706,7715.2
185.077,200317.7
185.0999,92.5
185.1198,176.7
185.1906,432.5
185.2268,323
185.235,164.4
185.239,402.6
185.389,654.2
185.457,212.2
185.4602,788.9
185.4725,80.2
185.6311,151.3
185.6448,729.5
185.6731,108
185.7394,17.7
185.7658,222.5
185.7734,531.7
185.7879,232.6
185.8987,96.4
185.9602,1191.8
185.9987,485.2
186.021,130.6
186.036,769.2
186.078,25179.7
186.0932,110.2
186.1351,430.2
186.1536,136
186.199,233.2
186.2842,144
186.323,98.7
186.3332,801.4
186.4147,125.3
186.5485,18
186.5582,570.8
186.5976,266.9
186.6139,118.4
186.893,622.9
186.9123,3451.4
186.9444,112.1
186.9516,142.6
186.9725,186.6
186.9745,169.2
186.9929,350.5
186.9958,446.3
187.0308,1536.9
187.0581,6359
187.0716,3884.9
187.108,2262.2
187.2606,230.7
187.3085,90.5
187.3546,227.8
187.3714,695.4
187.6108,608.4
187.6705,87.5
187.7365,195.1
187.8077,120.3
187.8123,404.8
187.8502,283.7
187.9355,147.6
188.0638,317.3
188.1657,24
188.1747,147.3
188.189,180.8
188.2531,148.1
188.296,92.1
188.3283,290
188.3566,85.6
188.4166,457.5
188.5172,179.3
188.5541,470.5
188.5593,372.2
188.651,120
188.7001,660.1
188.7034,261.6
188.7295,297.6
188.778,114.6
188.7998,221.3
188.8049,153.7
188.8726,20.3
188.9079,108
189.0214,114.1
189.0291,170.6
189.0489,107.2
189.0614,2599.2
189.0816,144
189.0874,10185.7
189.1601,615.1
189.1691,776
189.1723,78.9
189.1941,103.8
189.2004,160.2
189.2043,476.8
189.2382,17.3
189.4474,225
189.4817,306.1
189.6575,880.9
189.6716,81.7
189.7583,284.1
189.8311,244.3
189.8532,172.5
189.9689,436.7
190.04,860.1
190.0559,129.6
190.065,457.5
190.0726,18.4
190.1599,368.1
190.2322,402.1
190.2631,979
190.5858,353.7
190.7135,460
190.7826,18.4
190.9125,1284
190.9203,19.5
190.9447,130.8
191.0086,4739.6
191.0408,117156.7
191.0772,20523.6
191.0921,420.8
191.1011,152.8
191.105,422.9
191.1191,18
191.1275,624.5
191.1316,466.1
191.1948,803.9
191.3022,372.2
191.3248,745.9
191.4722,172.9
191.5306,141.2
191.5333,301.2
191.5884,18.7
191.6036,143.6
191.605,134.7
191.6895,364.6
191.7394,250.8
191.771,399
191.8586,78.7
191.8676,131.3
191.8761,566.9
191.8952,208.3
191.9043,165.3
191.9395,452.4
192.0293,233.4
192.0317,225.9
192.0401,14567.9
192.0441,4416.5
192.0941,850.7
192.1148,20.1
192.1317,589.9
192.1339,105.5
192.1911,117.2
192.229,486.3
192.2409,361.2
192.2858,268.6
192.3256,286.5
192.4208,619.7
192.5487,324.5
192.6926,102.2
192.7149,392.3
192.7311,152.3
192.7559,111.5
192.783,346.4
192.8459,233.7
192.8778,344.4
192.8836,341.8
192.9712,325
192.9991,2863.5
193.0058,600.6
193.0199,432.8
193.0245,291.2
193.0355,2698.3
193.0659,17.8
193.2216,85.4
193.3027,218.5
193.4544,327.4
193.4806,985.8
193.4897,179.8
193.5406,20.1
193.6031,177.9
193.6731,436.6
193.6814,435.5
193.7077,79.5
193.7152,235.7
193.7348,125.1
193.7639,18.8
193.7697,849.7
193.7743,238.4
193.7954,221.9
193.8603,340.7
193.885,134.8
193.8887,172.2
193.9355,94.4
193.9985,757.2
194.0019,403.2
194.0053,1796.5
194.0105,766.8
194.0157,145.7
194.0329,2799.5
194.0384,392.8
194.1137,492.6
194.1244,841.3
194.1544,89.4
194.1973,472.3
194.3291,178.9
194.3886,423.1
194.5252,418.5
194.5671,135
194.6412,259.5
194.8022,94.2
194.8127,152.4
194.8623,96.3
194.9569,180.6
194.9622,467.3
195.0422,544.5
195.0449,159.2
195.0975,137.1
195.1026,607.6
195.111,448.3
195.2662,184.1
195.31,806.7
195.3432,19.4
195.3679,161.2
195.4392,382.7
195.4772,83.8
195.4924,353.1
195.5099,267
195.5569,124.3
195.675,115.1
195.6896,89.5
195.7236,689.1
195.7866,130.7
195.7961,80
195.8059,422.1
195.9047,795.3
195.926,108.9
195.9739,25.2
196.0219,112.5
196.0593,100.8
196.081,170
196.1083,236.7
196.1701,268.3
196.2823,911.2
196.3287,202.2
196.3316,17
196.3682,97
196.4304,348.8
196.4333,19.3
196.5383,612.3
196.5643,19
196.6709,88.7
196.6763,299.7
196.7587,163.1
196.8235,377.5
196.8655,5814.3
196.8687,834.4
196.8782,2576.9
196.8974,17.3
196.9826,31.1
196.9896,943.4
197.055,528.3
197.0947,683.7
197.1012,569.2
197.1109,17.6
197.1468,221.4
197.197,468
197.2575,514.9
197.2995,171.1
197.3222,106.9
197.4141,372.3
197.4986,215.3
197.6061,329.3
197.6593,445.8
197.7059,384.6
197.7298,511.5
197.7322,204.2
197.7462,80.5
197.7972,324.9
197.8231,19.1
197.8703,283.9
197.9917,16.9
197.9964,214.8
198.008,260.6
198.0773,146.3
198.0853,8757.6
198.0896,110.5
198.1488,134.5
198.1496,134.3
198.1827,161.7
198.1857,5929.6
198.2365,813.4
198.2443,248.9
198.2781,81.5
198.3,458.2
198.5129,93.9
198.5281,21.4
198.5419,19.6
198.6615,790.1
198.721,156.1
198.8001,138
198.8626,4311.9
198.8771,346.2
198.9087,124.6
198.9128,306.2
198.9219,170.8
198.9743,94.2
199.0369,824
199.0391,174.8
199.0694,1586.4
199.0759,2404
199.0806,146.2
199.1645,586.9
199.1891,255.9
199.1931,17
199.3974,18.8
199.4121,236.1
199.5059,17.1
199.5453,18.1
199.5501,97.8
199.5883,141.7
199.7204,162
199.7669,831.5
199.7923,355.8
199.8312,461.1
199.8581,368.1
199.8712,396.1
199.9249,99.2
199.965,135.2
199.9911,33375.3
200.0085,681.3
200.0411,15117.2
200.052,311.4
200.0581,671.9
200.0775,1089.3
200.1104,97.6
200.1148,396.7
200.1598,12434.7
200.173,290.5
200.3237,199.4
200.423,24.3
200.4777,91.7
200.4996,157.2
200.5297,128.9
200.6895,149
200.7717,184.1
200.7772,17.7
200.8596,1126.3
200.9154,224.7
201.02,384
201.0551,390.1
201.0875,471.9
201.1102,114.7
201.2771,398.8
201.3098,196.9
201.3219,78.9
201.3296,348.6
201.4175,357.5
201.4953,507.9
201.5006,122.2
201.6712,123.5
201.7777,157.5
201.821,99.7
201.8889,21.7
201.961,400.4
201.9912,359.3
201.9976,18.3
202.0524,505.7
202.1664,19.1
202.3363,19.7
202.3408,197.4
202.3419,204.7
202.5057,164.1
202.5245,20448.3
202.5776,19.2
202.583,346.4
202.5971,267.3
202.6059,346.2
202.6084,103.9
202.6112,306.2
202.6849,19.2
202.8397,218.1
202.858,840.6
202.8871,727.6
202.9275,918.6
202.979,987.5
202.9957,35.9
203.0322,2874.8
203.0531,1377493.5
203.0613,112.1
203.0772,10560.3
203.0825,129.7
203.1235,90.3
203.1806,345.5
203.1848,860.8
203.2643,624.6
203.2913,140
203.3495,22
203.3593,310.5
203.3742,84.5
203.3781,93.2
203.4229,97
203.4298,224.3
203.4355,221.3
203.4454,395.3
203.4944,96.2
203.5508,551.1
203.5659,187.1
203.6203,624.1
203.6951,85.4
203.8048,203.2
203.8328,267.6
203.8405,93.1
203.8456,342.5
203.8944,177.1
203.9461,54.6
203.9703,103
203.9986,514.6
204.0248,56488.2
204.0564,74713.6
204.0637,1310.1
204.0747,71.8
204.0764,79.9
204.1033,139.3
204.125,153
204.1717,202.9
204.42,133.3
204.4628,399.6
204.4819,82.5
204.5463,102.5
204.5731,102.3
204.5916,129
204.6107,78.9
204.6137,99.7
204.6504,1081.9
204.7248,669.9
204.7653,171.8
204.7687,441.3
204.849,142.9
204.893,203.6
204.9561,208.3
205.0283,664.6
205.0574,12286.8
205.0687,13810.2
205.0841,34.3
205.1194,20
205.2001,449.4
205.2206,99.7
205.2691,405.9
205.3444,15.6
205.3483,323.5
205.3518,86.8
205.3623,393
205.3939,569.7
205.4305,780.4
205.4527,112.5
205.4996,134.2
205.5837,193.9
205.6021,19.4
205.7297,721.8
205.776,130.6
205.8177,18.5
205.9884,36.3
205.994,389.3
206.0556,5315
206.312,188.1
206.4195,70.2
206.4521,123.8
206.4832,271.9
206.5484,227.6
206.5757,107.1
206.5897,116.5
206.6068,451.9
206.6197,163.5
206.6554,95.5
206.6587,135.6
206.7713,18.1
206.7938,934.5
206.8326,19.3
206.8385,157.6
206.8944,16348.2
206.9413,18.9
206.9825,1611.6
207.0148,74315.8
207.0445,1642.5
207.0512,8894.5
207.1209,139.8
207.1259,124.3
207.1648,613.8
207.206,195.1
207.2116,259.2
207.2176,347.9
207.2693,74
207.4189,173.5
207.4724,161.6
207.4757,341.6
207.5376,18.7
207.5444,592.6
207.7117,265.1
207.7629,170.9
207.7639,160
207.8036,750.3
207.8268,18.6
207.9302,191.4
207.9331,87.8
207.9915,298.5
208.014,1532.4
208.0181,1959
208.0897,648
208.4247,100.8
208.6014,102.3
208.7022,101.7
208.7056,152.4
208.8915,9044.2
208.9359,943.7
208.9559,21.1
208.9677,204.1
209.0126,2168.2
209.0448,220.7
209.0657,85.3
209.0776,148.2
209.1306,166.8
209.2122,203.1
209.2441,83.3
209.2916,100.7
209.3164,707.3
209.383,308.6
209.4661,145.8
209.5244,96.7
209.6214,338.2
210.0994,19.2
210.6514,175.4
210.7015,176.8
210.756,166.6
210.7744,18
210.7832,220.7
210.7984,559.5
210.8135,162.9
210.8534,187.7
210.9115,196.7
210.9779,314.6
211.0284,140
211.0446,98
211.057,329.7
211.0695,1527.3
211.1198,101.8
211.1343,532
211.1931,322.2
211.2067,27033.4
211.2111,29903.6
211.2149,38196
211.2273,21.2
211.3221,447.4
211.3385,132.8
211.3575,448
211.3628,184
211.4631,219.1
211.506,113
211.6084,87.9
211.6344,317
211.6775,75.6
211.6893,383.1
211.795,121.9
211.9652,423.4
211.9726,478.4
212.0197,117.3
212.0228,24.7
212.0456,186.8
212.0573,106.1
212.0746,82.4
212.081,101.9
212.1539,164.4
212.2072,157.1
212.2492,190.5
212.2784,102.4
212.2812,80.4
212.289,442.9
212.3612,134
212.446,546
212.4719,235.9
212.4777,80.6
212.6679,129.3
212.734,17.8
212.8396,1548.3
212.8802,82.4
212.924,20.2
212.9733,284.2
212.9788,1037.7
213.0554,1464.7
213.1067,696.6
213.113,179.6
213.1363,96.2
213.2123,119.9
213.2841,486.8
213.345,115.6
213.3731,920.3
213.4,186.2
213.437,754.4
213.6498,562.2
213.7325,267.6
213.7632,128.5
213.7672,73.4
213.874,196.8
213.902,179.7
213.9053,486.4
213.9366,151
213.9628,25.3
213.9851,578.4
213.9919,707.8
214.0218,145.1
214.0342,738
214.0593,10312.5
214.0902,1216.5
214.194,347.2
214.3829,86.5
214.4432,20.1
214.5236,225.3
214.5334,166.2
214.5744,857.2
214.5982,150.3
214.6234,88
214.6888,100.5
214.8364,1288.7
214.9182,178.8
215.0286,963.2
215.0703,458.4
215.0935,86.8
215.1139,167.3
215.1376,18.8
215.1625,248
215.2874,165.1
215.354,131.1
215.3789,155
215.4001,83
215.5141,144
215.5182,730.1
215.5698,162.4
215.6041,17.2
215.629,966.9
215.7023,226.2
215.7261,18.8
215.7429,319.6
215.7682,82.7
215.7923,464
215.8977,521.3
216.0018,16.2
216.0151,10001
216.0179,1350.5
216.1015,19.8
216.1552,121.2
216.1738,486.2
216.2554,97.5
216.2986,201.5
216.3174,499.1
216.3314,120.3
216.6349,499.4
216.7806,107.5
216.8526,123.7
216.9232,42336.9
216.9389,360.1
216.9847,31.7
216.9916,857.9
217.0035,103.2
217.019,26.1
217.0799,177.7
217.1459,666.6
217.3028,238.9
217.3571,745.3
217.3756,157.5
217.4785,158.6
217.5159,21
217.5779,120.6
217.5822,438.9
217.6198,79.5
217.6554,106.6
217.7793,157.4
217.8094,166.5
217.8136,138.1
217.8247,122.3
217.8623,145.2
217.9844,196
218.0077,23
218.0154,20.4
218.0344,103.6
218.0848,103.1
218.0928,961.8
218.152,81
218.2369,322.6
218.268,205.5
218.2775,98.6
218.3295,362.1
218.3776,226.2
218.497,87.4
218.6068,888.3
218.6826,114.4
218.7376,729.8
218.8291,124.3
218.8697,126
218.8856,521
218.9203,13526.8
218.9387,397.1
218.9637,447.7
219.018,1435.7
219.0271,1438636.9
219.0366,91.9
219.0477,20.9
219.0665,201.1
219.0833,8044.6
219.1412,119.9
219.2243,544.1
219.3187,379.8
219.3337,646.4
219.3881,18.3
219.464,166.8
219.5111,136
219.5313,472.3
219.5516,19.2
219.6075,129.2
219.656,168.6
219.6615,571.4
219.7337,163.3
219.7475,522.1
219.8499,366.6
219.8613,187.6
219.9087,194.2
219.9147,367.3
219.9987,622.3
220.0304,79666.5
220.0377,1530
220.0674,9817.4
220.1678,456.7
220.2389,154.9
220.3025,22.4
220.3178,77.8
220.4167,20
220.4343,266.9
220.5123,17
220.5736,477.8
220.9267,846.1
220.9349,34.3
220.961,433.5
221.0201,824.3
221.0252,86355.4
221.0313,12164.7
221.0427,4978.4
221.0513,1938.4
221.085,130.7
221.0878,96
221.1171,237.4
221.226,145.6
221.2922,114.1
221.2953,447.2
221.398,631.7
221.4067,515.3
221.528,79.5
221.5754,123.8
221.6994,96.9
221.7708,86.2
221.8445,94
221.867,459.2
221.8847,106.2
221.9259,345.1
221.9566,140.1
221.9802,495.2
221.984,2362.9
222.0284,2868.5
222.26,89.4
222.3098,20.3
222.5125,23.8
222.6091,482.9
222.7701,152.4
222.8187,368
222.8565,674.3
222.8684,14038.6
222.8893,522.6
222.9888,6314.6
223.0249,1053
223.0313,665.3
223.0371,730.5
223.0397,1451.2
223.0648,19.8
223.0746,172.3
223.1013,300
223.1639,172
223.2728,127.2
223.3207,17.4
223.3284,439
223.3718,570.2
223.4343,254.1
223.5822,103.7
223.6339,132.7
223.8867,145.6
223.9149,137.7
223.9257,88.1
223.9537,50.9
223.9921,415.6
224.03,532.9
224.0487,98.1
224.056,162.9
224.2222,109.6
224.2353,143.5
224.4065,20.4
224.576,169.2
224.6363,923.6
224.6865,231
224.795,894.5
224.8046,20.5
224.8653,6654.4
224.9511,587
224.9582,941
224.9603,19
224.9872,354.1
225.0159,168.8
225.0552,32609.9
225.0852,618.6
225.1283,78.7
225.1823,72.4
225.4248,94.4
225.6047,498.2
225.6707,169.2
225.7305,967.2
225.7696,21.3
225.8302,18
225.8834,193.5
225.9347,282.3
225.955,237
225.9971,454.9
226.0014,563.3
226.0068,2211.7
226.0247,9502.8
226.0286,67.1
226.0302,70.4
226.0456,7045
226.064,416
226.0687,589.7
226.1189,560.4
226.1298,138.1
226.155,921.9
226.1842,219.3
226.1997,312.3
226.2078,232.9
226.4279,217
226.4513,185.5
226.5773,418.5
226.5918,93.3
226.6716,98.1
226.6854,183.9
226.7468,649.9
226.8622,447.1
226.8834,125.2
226.952,30617.1
227.0344,1744.3
227.0488,330.8
227.0803,455.1
227.0869,187.1
227.1107,455.1
227.1812,151.3
227.1887,98
227.2382,121.5
227.3095,763.1
227.3976,693.2
227.4103,707.8
227.4679,130.5
227.5144,78.9
227.5847,1272.5
227.6169,343
227.6669,158.4
227.6844,158.7
227.7111,18.4
227.7696,245.9
227.8619,500.4
227.8862,542.5
227.9267,18.3
228.0008,284.5
228.1229,474.5
228.1315,94
228.2001,195.4
228.2105,115.5
228.2483,137.3
228.3469,91.6
228.4042,407.9
228.4494,245
228.4538,203.7
228.4733,144.3
228.499,404.4
228.7326,321.3
228.7776,450.5
228.8005,135.8
229.0038,18.9
229.0267,482.9
229.1132,248.7
229.1311,653.5
229.278,984.4
229.3805,151.9
229.4586,191.6
229.8816,265.8
229.9575,213.5
230.0338,272.3
230.0879,19.8
230.1669,269.2
230.2467,85.4
230.3182,251.8
230.3412,198.5
230.3946,504.6
230.4939,172.4
230.5711,100.2
230.6191,403.6
230.6307,85.8
230.6477,89.3
230.6803,206.6
230.7557,194.2
230.9908,22.2
231.0167,104.5
231.0575,169
231.0714,19.7
231.085,486.6
231.1796,19.6
231.1977,943.7
231.3261,213.1
231.495,480.9
231.5022,18.4
231.6384,503.9
231.6684,105.4
231.6863,106.4
231.9859,100
231.9957,300.5
232.0498,307.2
232.2248,191.9
232.2887,113.8
232.301,487.6
232.3273,841.9
232.3846,279.6
232.4864,235.1
232.517,582.5
232.5572,644
232.6176,400.1
232.7444,17.9
232.7495,560.2
232.8583,180.9
232.8972,37990.7
232.9255,90.5
232.9861,3149.8
233.0515,10657.9
233.3023,523.7
233.3435,690.9
233.3941,692.7
233.4241,273.4
233.439,139
233.4901,82.6
233.497,130.6
233.7666,144.4
233.8729,111.2
233.9373,649.1
233.9678,871.6
233.9853,811.1
234.0387,18
234.0523,87.8
234.1232,626
234.1727,93
234.2679,749.7
234.3136,757
234.3684,81
234.4001,120.1
234.5206,148.3
234.5941,19.2
234.6161,19.8
234.6995,134
234.7164,549
234.7586,92.3
234.8942,7310.8
234.9384,294.6
234.96,423
234.9821,5152.2
235.0066,187.2
235.0099,188.9
235.0369,411.5
235.0574,4786.6
235.0671,2496.8
235.093,19284.8
235.1114,107.4
235.1508,615.6
235.1721,169.5
235.2019,458.5
235.2218,314.3
235.312,475.9
235.3226,96
235.3416,251.5
235.3655,138.5
235.4725,23.7
235.5415,1011.2
235.5599,98.3
235.6551,183.9
235.6791,580.8
235.7977,81.6
235.8185,962.7
235.8977,176.2
236.009,467.4
236.0414,5462.8
236.0528,183.4
236.0721,43680.4
236.0965,291.7
236.3147,86
236.3969,836.9
236.4403,74.7
236.5748,497.6
236.608,322.7
236.6823,114.6
236.8599,600.2
237.0199,101.1
237.0755,1290.5
237.1779,308.6
237.3377,523.3
237.3691,158.6
237.3744,199.2
237.4202,999.7
237.4397,138.4
237.6089,256.5
237.6504,499.3
237.6918,108.1
237.7275,156.5
237.7462,19.3
237.9238,89.5
237.9321,428
238.0109,85
238.0176,395.1
238.0567,1102.3
238.0679,410.7
238.0771,18.4
238.1394,163.5
238.1533,155.5
238.2555,874.2
238.3996,426.5
238.4298,148.7
238.7213,817.1
238.8423,3597.4
238.8535,457.5
238.8579,631.5
238.8708,123.4
238.8781,341.6
238.902,224.5
238.9694,17.8
238.9958,159.7
239.0203,130.6
239.0506,538.2
239.0612,119.6
239.0643,970.5
239.0685,666.1
239.1747,18.3
239.4004,457.1
239.4158,517.3
239.4605,655.5
239.4705,208.2
239.6097,179.8
239.6484,764.6
239.7537,140.9
239.7596,471.8
239.7773,353.1
239.9229,940.3
239.9809,345.6
239.9893,18.6
240.001,23.9
240.0039,427.8
240.029,533.2
240.1001,3403.3
240.1229,354.1
240.142,506.5
240.1542,20
240.3517,100.4
240.3863,90.1
240.4052,20.8
240.4659,86
240.703,19.5
240.7627,99
240.8394,2860
240.8428,655.1
240.9428,21.5
240.968,1893.7
241.0092,777.4
241.0132,120.4
241.0199,379.6
241.1188,307.2
241.1918,16.7
241.2669,166
241.3109,372.3
241.3121,395.7
241.3135,272.7
241.5865,111.5
241.6138,394.3
241.6581,194.5
241.6949,122.7
241.8315,212.2
241.8856,393.9
241.9799,143.5
241.9874,195.8
241.9987,1098.4
242.0197,2802.8
242.2622,325.6
242.4444,355.6
242.4781,18.7
242.541,223.3
242.5849,149.1
242.7535,21.2
242.7668,79.6
242.8275,257.5
242.8356,327
242.8615,184.2
242.926,16409.7
242.9461,88.2
242.9547,362.1
242.9581,264.8
243.0074,27
243.0536,5369.8
243.0658,14696.2
243.2652,291.9
243.3658,145.2
243.4253,517.1
243.4804,623
243.6361,79.3
243.7239,204.8
243.7615,18.5
243.8973,164.1
243.9511,514.2
243.9733,79.8
244.0131,296.8
244.0217,890.8
244.0529,839.7
244.1103,140.1
244.1519,120
244.2453,249.5
244.2887,328.6
244.3642,784.4
244.4184,22
244.5148,359.3
244.5341,129.9
244.6063,17.6
244.6435,243
244.7638,21.1
244.7798,242.1
244.7879,466.9
244.8711,6111.5
244.9241,906.4
244.9361,368.3
244.9456,147.2
245.0512,376.2
245.0767,94.7
245.1295,84.5
245.1972,960.6
245.3203,159.5
245.4275,441.1
245.5707,135
245.5969,127.8
245.8078,274
245.9631,367.6
246.0017,196
246.0115,102.4
246.1819,179.6
246.275,74.3
246.3384,153.4
246.4466,171
246.4553,19.4
246.5177,223.2
246.5886,20.1
246.7515,79.6
246.7734,125.2
246.8682,494.8
246.9312,113.4
246.9444,107.8
247.0148,19.6
247.0312,362.6
247.0371,785.2
247.0494,189.7
247.0669,2331.9
247.0931,5744.9
247.1081,166.8
247.1478,91.7
247.2365,307.6
247.2845,80.8
247.4788,949.4
247.5327,354.7
247.5608,166.7
247.6218,151.1
247.6511,143.1
247.7112,173
247.7921,88
247.8123,169.8
247.8917,22.7
247.9964,939.9
248.0011,246.3
248.0584,372.6
248.0962,84.5
248.1246,16704.9
248.1509,21.9
248.2867,343.9
248.2897,780.8
248.316,439.1
248.5606,899.2
248.5868,365.6
248.6446,207.5
248.6775,142.1
248.6797,184.5
248.8078,286.8
248.8713,9870.8
248.9506,620.8
248.9601,2363.6
248.9995,1229.5
249.0164,1470.5
249.0353,102.1
249.0616,15554.8
249.1086,252.3
249.1696,753.2
249.174,130.8
249.2295,219
249.2492,21.5
249.2822,339.4
249.3012,146.1
249.33,178.9
249.3696,196
249.5481,143.2
249.6767,989.7
249.7398,374.7
249.7845,515.7
249.9125,1030.1
249.9587,188.1
250.0072,128.3
250.0203,250.2
250.0645,352.4
250.2382,103.8
250.2672,110
250.5507,183.2
250.575,21.8
250.7154,916.4
250.7531,144.8
250.804,340.4
250.8308,231.3
250.8359,27.2
250.8684,954.9
250.9207,1943.4
250.9558,1349.6
250.9849,1053.4
250.9933,690
250.997,22.1
251.001,137.2
251.0341,743.1
251.0962,73.2
251.1033,89.5
251.1346,208.8
251.2343,86.9
251.2739,86.7
251.2894,113.5
251.3032,21.1
251.3375,520.9
251.4309,154.8
251.457,88.2
251.6461,201.9
251.8434,1000.4
251.862,99.8
251.8771,76.4
251.8905,165.9
251.9509,538.4
252.0008,353.4
252.0373,206.6
252.0461,99292
252.2313,271.2
252.3638,813.6
252.4223,211.6
252.4401,89.4
252.5428,85.2
252.5908,619.7
252.6318,790.2
252.6426,278.7
252.72,119.6
252.7395,651.6
252.7875,196.2
252.7958,122.4
252.862,120.6
252.8733,147.2
252.8876,85.9
252.9175,1210.3
252.9977,22
253.0493,4147.7
253.0801,106.7
253.1841,350.3
253.229,1175
253.231,882.4
253.2327,411
253.2945,81.1
253.4438,700
253.5809,19.4
253.5885,394.8
253.765,133.1
253.845,117.1
253.9397,139.4
254.0442,2447.7
254.053,394.5
254.0718,397
254.1485,745.2
254.1766,141.6
254.193,852.4
254.3679,931.6
254.4723,557.8
254.5008,137.2
254.5122,18.7
254.5217,735.6
254.5404,151.4
254.687,79.7
254.7515,87.7
254.8162,406.6
254.8245,7320.9
254.8369,379
254.8412,126.1
254.8905,121.3
254.9028,168.3
254.9849,118.7
254.9961,37.5
255.0335,27797.1
255.0381,982.9
255.0471,1725.5
255.1671,95.7
255.3498,124.8
255.3586,135.8
255.6152,97.5
255.6307,144.4
255.6648,608.4
255.857,131.3
256.059,87.4
256.0669,380.1
256.224,20
256.3254,150.1
256.3604,21.7
256.5322,99.6
256.5529,203.4
256.7229,936.2
256.8142,342.5
256.8215,10706.5
256.9828,345.5
257.0491,8017.4
257.0658,888.6
257.0751,68911.8
257.0995,89.7
257.2142,132.5
257.3112,351.3
257.435,167.8
257.4484,176.4
257.5654,645.6
257.5922,179.1
257.6214,991.7
257.6624,19.4
257.7073,457.2
257.9319,85.5
258.0285,53.5
258.0535,24.4
258.0746,221.7
258.0784,2129.1
258.1108,27146.2
258.1372,348.5
258.1656,20.2
258.1723,87.5
258.2026,472.6
258.2262,21.4
258.2369,156
258.2739,380.6
258.3963,89.3
258.4442,90.8
258.4707,448.3
258.5235,697.8
258.7078,139.1
258.7849,342.8
258.8187,3921.8
258.9003,2591.4
259.028,967.6
259.2159,1024
259.372,23.8
259.5098,287.4
259.5334,633.1
259.5372,91.3
259.6516,861.4
259.7325,172.8
259.8425,179.2
259.8608,184
259.969,86.4
260.0131,191.4
260.0176,83.8
260.0324,182.7
260.0496,909.8
260.2113,130.6
260.2208,185.7
260.2336,893.6
260.2779,885.2
260.2827,409.3
260.3468,122.8
260.44,137.9
260.4572,97.9
260.485,128.3
260.5896,711.6
260.7081,259.2
260.8454,3103.7
260.8495,17
260.9496,8145.1
261.0358,306.1
261.0462,542.7
261.1365,231.3
261.1595,217.9
261.2002,102.1
261.4051,157.9
261.4412,424.8
261.4649,168
261.485,99.8
261.5031,17.5
261.5426,105.2
261.5469,133.1
261.583,167.2
261.7134,86.9
261.739,164.9
261.8502,416.9
261.8567,113.5
261.8634,378.4
261.8871,84.9
261.9751,90.3
262.0342,451.1
262.0722,137.7
262.1188,564.9
262.1622,333.6
262.1976,114.8
262.2466,188.5
262.4908,80.5
262.5058,106.8
262.5445,562.9
262.575,473
262.6224,102.9
262.6697,97.8
262.7869,184.2
262.8052,159.3
262.8443,154.2
262.8472,896.6
262.9293,303.3
262.9464,1117.5
263.0223,410.3
263.0319,314.7
263.0854,2944.5
263.089,321
263.1645,278.2
263.194,166.2
263.236,545.5
263.268,387.9
263.3833,149.2
263.4335,130.1
263.5653,903.4
263.6148,158.9
263.8181,315.3
263.9377,146.4
263.9469,248.7
263.9956,606.1
264.1444,126.3
264.1527,327.9
264.3798,350
264.3865,84.9
264.4551,110.3
264.476,552
264.5643,699.5
264.6075,259.9
264.6307,318.4
264.7966,471.2
264.8382,498.6
264.8453,1300
264.8531,4516
264.9156,91.4
264.9343,3325
264.9896,220.4
265.0167,266.2
265.024,617.2
265.0358,9851.4
265.0481,3466.1
265.0654,99.1
265.0719,158.1
265.0761,195.4
265.1786,246.6
265.4096,81.8
265.4537,110.7
265.5364,387.1
265.5904,183.2
265.9091,417.1
265.947,24.3
266.0034,898
266.0162,441.4
266.2173,136.1
266.2584,355.1
266.3331,933.2
266.5229,383.9
266.5908,18.3
266.6556,306.9
266.6788,159.7
266.7672,278.7
266.7774,408.7
266.8317,146.9
266.8503,4457.2
266.8699,157.7
266.8952,1386
266.9348,647.8
266.9761,22.4
266.9934,188.3
267.0137,93.3
267.064,19.3
267.1084,323.7
267.1189,127.7
267.1415,240.9
267.1555,149.5
267.4271,901.8
267.4662,23.7
267.4876,202.7
267.5236,78.5
267.5392,22.3
267.5474,100.8
267.5584,115
267.682,265.6
267.8117,111.3
267.8524,257.1
267.8859,117
267.9178,332.9
267.9255,163.3
267.9512,125.3
267.9621,98.1
268.0321,297.8
268.1606,879.3
268.1953,87.4
268.3426,172.6
268.4158,456.8
268.5509,127.1
268.5903,20
268.731,302.8
268.7542,177
268.7704,23.1
268.8474,1098.4
268.8697,144.5
268.8916,810.7
268.9322,171.8
268.9547,226
268.9659,614.4
269.0126,56.6
269.0247,333.7
269.0316,756.2
269.0362,412.8
269.0454,20585.4
269.0491,46599.7
269.1637,194
269.2049,165.1
269.2263,108.6
269.2631,123.2
269.4034,463.2
269.4125,425.5
269.5886,21.7
269.6104,146.9
269.7016,18.4
269.7311,472.2
269.7902,18
269.7986,125.5
269.9042,454.7
269.9595,381.8
269.9946,914.1
270.0203,23.4
270.0254,580.1
270.0479,31401.5
270.0524,758.5
270.1307,268
270.1457,354.6
270.3431,21.2
270.4354,266.1
270.7578,975.4
270.7674,1176.9
270.7983,2954.4
270.8338,220.3
270.8395,23.5
270.9785,15734.2
271.0243,509.4
271.0283,25.7
271.0514,420.2
271.0645,103.5
271.078,808.7
271.0907,776.5
271.0962,109.8
271.1014,84.1
271.1179,101.3
271.204,448.9
271.2294,74.3
271.2513,930.4
271.4225,19.3
271.4336,120.4
271.5036,157.4
271.5259,89.9
271.5495,128.2
271.6488,99.1
271.6691,20
271.6725,439.3
271.6811,288.3
271.7365,78.2
271.8387,83.5
272.0436,116.6
272.0549,90.8
272.0811,524.1
272.3181,88.8
272.3457,21.4
272.4555,148.8
272.5068,300.9
272.5869,101.7
272.6083,94
272.632,137.6
272.6394,265.9
272.7294,127.4
272.7676,316.5
272.7954,4925.1
272.9918,506.3
273.049,5142.3
273.0796,21.5
273.2702,371
273.2939,915.8
273.4204,126.4
273.5605,117.4
273.6172,107
273.6782,1068.2
273.6894,18.8
273.8662,108.4
273.9444,172.2
273.9624,160.3
273.9732,656.2
273.994,97.6
274.0575,83.1
274.0698,201.5
274.093,1367.7
274.1188,250.1
274.1712,153.2
274.3334,213.5
274.378,918.6
274.4499,108.8
274.4733,441.8
274.5289,353.8
274.7344,678.7
274.766,202.9
274.7844,424.5
274.7923,2325.1
274.825,501
274.898,17.5
274.9245,352.6
274.9342,241
275.0101,384.2
275.0565,232.4
275.1339,92
275.1556,600.8
275.1772,242.5
275.1999,126.3
275.223,1042.1
275.2279,616
275.2824,147.1
275.308,121.8
275.414,287
275.5379,189.3
275.5483,102.9
275.5756,175.5
275.6146,549.7
275.6256,101.8
275.771,199.4
275.941,980.9
276.004,141.1
276.0588,530.9
276.0852,75.7
276.119,126.9
276.2099,486.3
276.2214,580.2
276.2541,170.9
276.3505,206.5
276.4111,345.6
276.676,381.7
276.7078,491.3
276.7344,90.1
276.7701,515.4
276.8237,178.9
276.9015,82.1
276.9236,7150.1
276.9863,392.3
277.0305,180.9
277.04,93.5
277.0944,969.4
277.119,451.4
277.138,169
277.1424,17.8
277.1495,201.6
277.169,505.6
277.1798,166.7
277.1947,172.7
277.4458,330.6
277.4903,104.2
277.4943,92.4
277.5042,129.3
277.5992,233.2
277.6476,19
277.6692,160.6
277.7449,21.3
277.8089,239.5
277.9696,208.9
278.0195,504.4
278.2783,133.6
278.3022,188.6
278.3685,599.9
278.4325,158.5
278.438,95.3
278.4781,496.8
278.6812,74.5
278.6979,97.7
278.8384,377
278.9878,979.1
279.0023,20.6
279.0571,49026.9
279.0642,524
279.2038,291.9
279.2526,100.2
279.4378,82.2
279.4664,121.2
279.5279,158.2
279.5535,218.6
279.5917,102.9
279.6515,567.2
279.8327,422.7
279.8552,21.5
279.8672,209.2
279.8719,24.1
279.8781,609.9
279.9521,154.6
279.9655,82.2
280.0006,136.3
280.0165,271.9
280.0323,427.5
280.0603,820.6
280.0927,4055.7
280.2293,70.1
280.2666,89.8
280.2932,130.1
280.3702,145.9
280.3794,17.9
280.5145,18.6
280.6942,174.8
280.8058,125.2
280.8271,2761.9
280.8388,351.9
280.8431,147.9
280.9039,453.8
280.9618,740.8
280.9843,327.8
281.0104,695.1
281.0249,191.5
281.0339,217.7
281.0521,167.5
281.1917,96.4
281.2053,312.7
281.3203,175.9
281.4974,428.3
281.52,170.5
281.5611,412.6
281.6563,335.9
281.7028,80.7
281.7206,79.3
281.7879,18.8
281.9143,741.6
281.9709,99.7
281.9886,108.9
282.0152,300.8
282.0367,99.6
282.0652,552.2
282.1058,18.7
282.135,538.9
282.1812,102.8
282.1898,191.4
282.197,337.9
282.2533,93.5
282.2936,16.4
282.3339,701.3
282.3592,374.1
282.5706,264.6
282.6602,18.2
282.7176,181.3
282.7681,277
282.824,3007.8
282.9054,23.5
282.9104,220.9
282.918,715.4
282.9532,181.7
283.0284,1358
283.0655,20.8
283.4275,119.9
283.5845,110.7
283.6219,399.7
283.6725,120.4
283.6869,231.6
283.7134,110
283.7427,80.6
283.779,669.9
283.7805,688.9
283.7832,431.4
283.8128,476.5
283.8524,554.6
283.8569,963
284.0353,371.8
284.0536,74.5
284.0634,154
284.2942,955.6
284.336,822
284.3461,132.4
284.4825,990.8
284.5861,548.7
284.6697,125.9
284.7848,368.1
284.9126,276.7
284.9254,95.2
284.9785,287.7
285.0136,237.7
285.0238,110.7
285.0408,82
285.0483,236.4
285.1235,941.7
285.1509,179.4
285.1651,23.6
285.2143,534.8
285.327,98.8
285.4138,131.9
285.4819,154.5
285.5167,202.9
285.5375,225
285.5491,370.3
285.5557,140.5
285.5635,351.7
285.6526,18.4
285.6596,19.5
285.6789,75.5
285.7436,573.7
285.7728,235.3
285.7824,814.8
285.811,177.8
285.8311,671.8
285.8832,181.4
285.9553,378.8
286.02,209.9
286.0427,22.6
286.0966,123.5
286.4963,224.9
286.7721,1362.6
286.8571,90.3
286.8879,104.9
286.9071,620.9
286.9267,741.4
286.9525,5834.7
286.9706,422.7
286.9827,97.5
286.9991,64.8
287.0161,876.8
287.0559,45248.5
287.088,162.4
287.3711,902.2
287.3913,164.9
287.4368,22.2
287.4798,324
287.6167,698.4
287.6999,240.7
287.7875,18.2
287.8104,188.9
287.866,135.3
287.8932,300.7
287.9919,113.9
288.0142,86.5
288.0591,1283.1
288.0854,182.7
288.1155,98.8
288.1482,18.8
288.1561,28538.6
288.1676,142.8
288.2332,96.2
288.3237,279.6
288.4317,141.5
288.4439,250.9
288.5401,267
288.7694,3905.7
288.8159,3620
288.8232,7181.1
288.8311,4939.9
288.8384,7927
288.8432,8284.7
288.8444,8106.2
288.8531,13116.8
288.8597,15855.6
288.8641,19492.6
288.8683,23182.3
288.8761,25182.6
288.884,25691
288.8964,17549.6
288.9013,12218.2
288.9106,10235.5
288.9154,8541.5
288.9236,3534.9
288.9294,2591
288.9371,982.9
288.9464,478.6
288.9492,300.3
288.958,127
288.9689,117.5
289.0011,84.6
289.0098,349.4
289.0279,359
289.0619,25.8
289.1137,96.1
289.1593,2058.3
289.2184,424.5
289.3969,199.7
289.4635,1097.1
289.5191,148.8
289.6349,213.1
289.6512,17.9
289.7304,21
289.788,296.4
289.8155,151.8
289.8375,203.7
290.1009,99.2
290.1219,18.8
290.1828,250.1
290.3812,178.7
290.6788,110
290.7392,200.7
290.7673,413.9
290.8445,208.5
290.8877,24.5
290.987,260.4
290.9943,21.5
291.0034,154.4
291.0098,314.9
291.0274,4390.6
291.4766,19.7
291.5627,522.5
291.723,99.5
291.7467,404.2
291.771,541.8
291.8372,321.5
292.0803,162.8
292.127,88
292.5429,427.8
292.6386,111.1
292.6519,20
292.6682,295.8
292.6697,323.4
292.6716,267.6
292.69,108.7
292.7579,397.6
292.8856,127.5
292.8977,850.9
293.0069,2142.8
293.0699,11758.9
293.0987,368340.2
293.1139,81.8
293.1795,5833.9
293.2572,99.8
293.2949,115.7
293.3111,329.2
293.3982,221.4
293.4099,90
293.4417,19.7
293.4722,195.6
293.5399,115.9
293.5805,344.8
293.7118,109
293.942,360.8
294.0142,29.4
294.0445,297.8
294.0627,169.9
294.0731,426.4
294.0962,318.7
294.102,32971.8
294.1694,24.8
294.2534,107
294.3684,322.3
294.3988,131.4
294.613,160
294.6932,21.8
294.737,229.5
294.7868,331.9
294.822,816.5
294.8337,21
294.9911,516.8
295.0309,2256.9
295.0948,103.6
295.1028,1469.7
295.1395,241.4
295.1553,300.1
295.1627,311.7
295.1762,207.7
295.1953,25667.9
295.2087,83
295.2721,182.8
295.3346,227.8
295.4128,105.5
295.4513,697.6
295.4809,129
295.5981,606.9
295.7082,113.9
295.7585,293.3
295.8063,161.3
295.9389,399.7
295.9515,17.2
295.964,185.4
295.9918,341.8
296.0237,99.9
296.0548,159.8
296.0628,17.8
296.0666,446.1
296.0977,143.2
296.1987,3769.9
296.2146,113.8
296.4627,209.1
296.5178,21.3
296.5763,133.8
296.6867,761.2
296.8723,456.2
296.9382,317.3
296.9583,651.3
296.9881,288
297.0296,365.4
297.0867,21.2
297.122,536.9
297.3787,18.8
297.4986,635.8
297.6974,465.6
297.7833,881.9
297.7972,306.2
297.8472,127.3
297.9387,904
298.0254,1257
298.0429,20632.7
298.1636,253.9
298.2022,138.2
298.2171,97.2
298.4019,136.4
298.4282,260.9
298.5958,973.9
298.6374,18.8
298.6433,433.1
298.7376,118
298.7475,447.7
298.7913,801.4
298.8637,358.1
298.92,84.3
298.9869,137.6
299.0238,3317.5
299.0382,105.5
299.0463,1380.2
299.1055,191.3
299.1398,5715.8
299.1972,1243.8
299.2188,124.3
299.2661,279.8
299.2924,383
299.3535,356.7
299.3977,269.3
299.9569,480.3
300.0387,235.2
300.0493,104.7
300.0759,583.4
300.1094,273.7
300.136,202.6
300.1964,48.9
300.2065,697.4
300.2708,73.1
300.3303,152.2
300.3765,122.7
300.5545,178.1
300.8005,361.1
300.8498,240.6
300.9684,743.2
301.0391,25765.8
301.0796,23.2
301.1022,323.2
301.1089,191.5
301.1418,205.8
301.1617,112.2
301.212,3157.9
301.2758,102.5
301.3785,513.5
301.4301,137.9
301.4441,590.1
301.7454,19
301.847,255
301.8554,236.7
301.9543,438.1
302.0207,99
302.0358,109.3
302.0436,858.5
302.0522,22.4
302.0646,5459.4
302.1218,88.1
302.1706,71.2
302.1927,128.9
302.3147,91.8
302.3867,19.8
302.5619,596.6
302.7038,138.8
302.7129,828.6
302.7218,132.9
302.7284,308.5
302.7306,379
302.83,1960.7
302.9179,85.5
303.0349,21.6
303.0427,237.4
303.0494,357.1
303.0555,431.6
303.0679,502.3
303.075,1407.2
303.0953,19.7
303.1335,201.6
303.137,373.1
303.2177,2563.4
303.2285,500.9
303.3264,126.9
303.5636,23.6
303.6108,127.3
303.6526,76
303.6675,742.7
303.7066,92.4
303.8099,161.2
303.8432,175.5
304.01,444.5
304.0604,185.9
304.1173,516.7
304.1943,475.1
304.2612,169.7
304.5084,520.2
304.6151,20.5
304.6614,19.6
304.7219,220.9
304.7437,343.8
304.7569,196.8
304.8,78.5
304.8273,488.8
305.0591,439.8
305.1429,994.6
305.2124,404.7
305.2336,1089
305.3205,349.2
305.322,403.3
305.3246,321.9
305.3474,467
305.4099,17.1
305.5011,170
305.6346,465.9
305.7065,195.4
306.0245,51.6
306.096,120.8
306.1333,155.3
306.3207,168.5
306.3786,423.8
306.5606,293
306.7615,765.2
306.9776,3040.9
307.0535,422.9
307.0807,88.2
307.2982,99.3
307.3032,172.6
307.3202,91.1
307.5756,546.5
307.8729,19
307.9582,336.3
308.0263,166.4
308.1934,20.3
308.2206,409.7
308.2873,158.5
308.2952,107.1
308.3506,380.4
308.3666,467.2
308.5989,120.1
308.6668,640.2
308.7332,152.4
308.7549,103.5
308.763,151.5
308.842,337.4
308.8792,2368.3
308.9144,394.3
309.007,441.1
309.0379,4601
309.0469,99.7
309.0831,2127.4
309.5508,347.6
309.5719,18.1
309.7211,293.3
309.8179,358.6
309.8899,344.6
309.9023,19.4
310.0443,24.5
310.0544,241.4
310.129,157.1
310.2743,19.4
310.5201,218.2
310.7685,178.9
310.7735,268.1
310.8768,3278.1
310.974,131.9
311.004,218.7
311.0995,129.4
311.2583,743.9
311.3294,493.5
311.339,424.7
311.4419,18.5
311.4599,93.4
311.6951,292.3
311.8051,82
311.9178,80.2
311.947,93
311.9694,126.9
311.9792,323.5
312.0415,1667.4
312.1277,871.3
312.1627,124.7
312.2833,375.6
312.5553,471.9
312.5928,894.3
312.7886,331.4
312.8734,457.6
312.8916,118
312.8976,21.1
312.93,185.3
312.969,90.6
313.0024,116.9
313.0807,125.4
313.1707,323.7
313.2176,198.8
313.2264,485
313.2746,56829.7
313.3622,492.3
313.4825,939.4
313.522,529.9
313.5269,142.1
313.574,127.5
313.6367,521.3
313.7123,446.5
313.7609,533.4
313.8381,526.4
313.858,136.6
313.9771,20.6
314.0154,303.9
314.0916,188.1
314.1519,693.2
314.2495,447
314.2779,8694.9
314.383,87
314.5258,306.5
314.5643,131
314.707,18.6
314.7227,124.5
314.7847,210.8
314.8375,4923.8
314.9013,157.4
314.9399,369.4
314.9913,284
314.9996,5619
315.0199,19.7
315.0315,140.5
315.0328,169.7
315.04,293.2
315.0442,615.5
315.046,980.1
315.0524,4461.7
315.0559,9035.5
315.0637,7159.9
315.067,23987.4
315.07,32531.2
315.0722,19158.6
315.0807,9296736
315.089,21751.3
315.091,13615.7
315.0961,6945.9
315.0986,7079.9
315.1006,6306.4
315.1026,5021.5
315.1046,3342.5
315.1069,2624
315.1134,960.2
315.1199,204.9
315.1304,185.4
315.1619,6378.2
315.2275,138.5
315.2611,373.9
315.2871,456.1
315.3243,6765.7
315.366,285.2
315.4864,350.7
315.5123,123.9
315.5249,21.5
315.6229,526.2
315.6952,76.9
315.7826,484
315.8468,783.4
315.8822,326
315.917,483
316.0534,79.6
316.0591,365.5
316.0693,763.9
316.0781,50006.6
316.084,977083.1
316.1117,446.5
316.1372,189.3
316.1532,179
316.2524,103.5
316.4764,452.2
316.5305,252.4
316.5399,135.2
316.5763,247.4
316.6088,148.5
316.6372,118
316.7038,371.9
316.7274,84.6
317.0007,79.7
317.0566,1045.1
317.0657,2926.9
317.0846,107716
317.657,176.3
317.7113,235.2
317.9921,124.5
318.0642,549.2
318.081,201.8
318.0882,11942.1
318.1348,377.6
318.2964,353.6
318.4802,416.7
318.5286,17.5
318.5998,898.7
318.6393,260.2
318.7217,862.5
318.7923,21
318.803,416.7
318.8185,557.1
318.9034,110.3
318.9499,746.6
318.9898,182.9
319.1952,51126.3
319.3854,477.1
319.3931,426.6
319.6056,154.8
319.6306,128.4
319.9708,84.5
319.9932,475.6
320.0553,99.8
320.0752,197.4
320.1984,6702.3
320.2482,257.4
320.2593,1213.8
320.426,372.4
320.5041,696.2
320.6231,83.8
320.6404,307.9
320.6911,177.4
320.8019,1267.7
320.8328,384.9
320.8912,128.9
320.9096,424.1
321.0139,93.1
321.1222,96.7
321.2043,897.6
321.2109,60557.9
321.2513,410.4
321.2625,89.5
321.2964,139.5
321.364,99.6
321.4159,240.9
321.4575,684.7
321.5274,94.3
321.5369,231.1
321.5422,84.4
321.7764,648.6
321.9082,396
321.984,121.1
322.0096,237.9
322.0141,425.5
322.1644,351.6
322.2143,9910.6
322.282,186.7
322.4847,210
322.5117,116.7
322.7389,97.3
322.8603,95.1
322.9323,1420.8
323.0211,10527
323.0282,967.2
323.1982,776.4
323.2264,4165.2
323.4389,174.6
323.5785,95.6
323.6177,371.3
323.6508,275.6
323.8277,168
323.882,252
323.8881,158.7
324.0055,118.1
324.2532,90.2
324.5943,2427.6
324.6027,4308.5
324.608,4175.1
324.614,3873.9
324.6263,695.1
324.6333,539.7
324.6361,606.2
324.6435,205.6
324.8092,1080.7
324.8533,1458
325.0027,2267.3
325.0286,582.9
325.1512,408.7
325.2121,8239.8
325.4023,571
325.4284,478.3
325.5059,289.4
325.5601,194.2
325.5724,124.5
325.5993,316.4
325.6341,343.6
325.692,908
325.8143,309.6
326.0046,269.8
326.0283,455.2
326.0638,319
326.1022,227.1
326.1629,158.1
326.1797,238.9
326.2152,1404.2
326.2362,795.2
326.4326,136.1
326.5658,96.9
326.7902,236.3
326.8506,2125.7
326.9428,499.1
327.0162,3111.7
327.0524,1841.1
327.1027,481.9
327.2187,489.9
327.2279,19402.2
327.2679,391.5
327.2962,325.9
327.3333,20.7
327.4727,636.3
327.6115,272.1
327.6561,595.4
327.7403,683
327.7516,86.3
327.7973,429.7
327.8758,115.8
327.9087,178.2
327.9275,527.8
328.0119,812.5
328.0342,20.7
328.1027,18.6
328.2315,1297.7
328.2526,115
328.4587,1203.8
328.4689,888.5
328.7713,147.9
328.797,492.5
328.8474,457.2
328.9386,19.8
329.0113,658.7
329.0964,2103.5
329.2434,362.1
329.2603,296.9
329.5093,404.4
329.5165,251.8
329.6881,121.5
329.7491,100
329.8285,174.2
329.9713,366.8
330.0597,239.3
330.0697,46.7
330.141,235.7
330.1806,154.2
330.1874,294.3
330.211,126.8
330.2273,116.4
330.3745,77.7
330.3839,541.4
330.4305,97.6
330.4842,517.9
330.8912,118.5
331.02,1880.9
331.0459,156815.8
331.0547,1343944.1
331.2603,120.9
331.3163,100.6
331.4792,347.1
331.59,103.9
331.6515,134.2
331.7666,191.8
331.7959,113.7
331.8179,161.1
331.972,92.5
332.0486,8900
332.058,121635.4
332.0693,18.2
332.2843,87.6
332.2955,18.4
332.3565,290.4
332.576,173.6
332.5982,428.7
332.612,499.9
332.7797,150.4
332.8534,321.1
332.9058,440.7
332.9613,1173.1
333.0528,79472.7
333.0584,15031.6
333.1311,272.5
333.2926,102.6
333.2993,490.4
333.3055,20.7
333.3543,152.3
333.4895,97
333.6102,87.7
333.6563,431.7
333.6676,253.8
333.8391,121.3
333.9117,356.5
334.0561,5151.6
334.0627,96.7
334.0911,60.1
334.2691,17.5
334.3519,374.1
334.6341,885.5
334.8215,426.8
335.0068,318.9
335.0229,122.9
335.0386,771.1
335.0569,120.8
335.1272,82.8
335.1446,113.7
335.3092,81.2
335.3397,383.2
335.4356,367.7
335.5497,425.4
335.6001,434.4
336.1138,692.6
336.1422,178.9
336.215,118
336.2613,187.7
336.3712,20.8
336.4112,80.8
336.5705,142.5
336.6184,177.1
336.6501,186.5
336.9071,181.8
336.919,18.4
336.979,133
337,22.6
337.0367,11646.1
337.0502,27543.6
337.0627,812451.8
337.1519,187.7
337.2233,855.6
337.2509,559.1
337.2745,15464.6
337.3314,106.7
337.4785,479
337.5244,92.5
337.6034,92.1
337.6685,107.4
338.0502,510.5
338.0661,73961.4
338.1501,20.3
338.3436,30.1
338.3643,949.9
338.3816,117.4
338.4612,236.9
338.5085,339.2
338.5246,927
338.7621,448.8
338.7918,124.3
338.8038,322.2
338.8593,332.5
338.8866,705.4
338.9214,625.3
338.9956,473.8
339.0389,2888.7
339.0477,1733.6
339.0664,5781.4
339.1538,173.9
339.2517,3537.6
339.2905,7783.9
339.3379,17.4
339.5092,115.8
339.6055,25.6
339.7621,292.2
339.9968,147.4
340.0713,255
340.1696,666.4
340.2155,122.3
340.245,559.3
340.2667,333.5
340.2944,1004.9
340.8181,18.7
341.0185,297.2
341.1811,705.8
341.2309,17.8
341.3058,5486.4
341.4452,904.8
341.542,514
341.7837,104
341.8138,143.6
341.8827,292.3
342.0692,27.6
342.1284,154.1
342.1754,86.4
342.3929,114.9
342.4298,691.6
342.6804,122.1
342.7785,334.1
342.8805,140.2
342.9406,16.9
343.0918,180.4
343.1515,409.4
343.1757,285.4
343.1954,17843.5
343.2018,1865
343.2165,446.1
343.2471,79
343.407,518.2
343.4113,496.2
343.6789,189.9
344.1551,89.3
344.1761,1131.8
344.1871,157.6
344.1943,821.5
344.4809,92.6
344.5641,184.9
344.8865,416.9
344.9409,489
345.0096,882.6
345.1424,185
345.1941,1004.7
345.2111,1871.3
345.2235,380.1
345.2713,951.3
345.2861,183.6
345.2992,355.9
345.3374,642.6
345.4616,632.5
345.5867,513.2
345.7089,24.7
345.728,560.9
345.7697,19.3
345.8705,544.9
345.8981,551.8
345.9387,19
345.9841,557.5
346.011,26.3
346.1205,9998.8
346.2141,471.7
346.2587,907.5
346.2672,19.8
346.3703,364.9
346.4334,132.8
346.6133,1059.5
346.6859,340.2
346.791,100.4
346.809,195.2
346.8509,20.7
347.1097,130.4
347.2471,146.6
347.5649,716.2
347.6243,538.5
347.6361,18.3
347.7835,108.8
347.8612,95.7
348.066,483.7
348.3278,156.5
348.353,471.8
348.5682,446.7
348.6275,524.4
348.8228,359.9
349.063,276.4
349.107,166.7
349.1881,574.7
349.2194,561
349.2552,84.2
349.3611,17.7
349.3812,132.4
349.4869,1116.1
349.5724,441.5
349.6098,126
349.6559,245
349.7013,17.2
350.0052,21.5
350.0144,46.3
350.4232,634.3
350.5624,96.2
350.721,132.1
350.8702,19.5
350.8876,300.8
350.991,17.7
351.0175,112.7
351.3248,349.6
351.4579,94.5
351.4726,191
351.6292,787.8
351.6612,22.3
351.7018,80.8
351.7093,218
351.7817,353.2
351.8283,502.4
351.9354,857.2
351.9895,343.6
352.1086,208.9
352.344,227.2
352.925,143.7
352.9919,22.1
353.0278,182458.4
353.0367,258360.3
353.083,134
353.0931,19.2
353.3318,20
353.3384,292.6
353.3583,185
353.4749,727.4
353.5259,195.8
353.5823,365.6
353.7733,80.9
354.031,14819.3
354.0401,25172
354.075,18.5
354.1696,164.8
354.2068,144.4
354.3198,452.2
354.3709,274.9
354.4504,215.6
354.6596,181.8
355.0125,2630.4
355.0351,14051.1
355.0466,92.9
355.071,230.4
355.0747,424.4
355.0765,428.7
355.0976,804.9
355.1356,522.6
355.1964,22
355.272,229.8
355.7238,120.4
355.8247,88.8
356.0154,103.6
356.038,109.7
356.113,20
356.2247,121.9
356.2965,20.6
356.3291,99.5
356.4046,237.6
356.416,17.8
356.4864,21.5
356.6402,89.8
356.7739,582.8
356.8033,373.8
357.0093,933.8
357.0201,199.5
357.0921,20.3
357.1407,376.6
357.3089,1368.2
357.3188,298.2
357.3365,19.1
357.3672,114.7
357.4338,696.4
357.5446,411.6
357.6105,107
357.6325,1130.9
357.6474,1620.2
357.6576,202.2
357.6787,165.3
357.88,134.3
357.978,245
358.0099,78.7
358.0303,329.6
358.0848,92.5
358.2153,82.5
358.226,195.1
358.3297,949.4
358.3505,173.1
358.4054,83.9
358.4558,312.7
358.4719,134.6
358.531,97
358.6764,677.1
358.694,149.1
358.728,20.6
358.745,542.5
359.0083,774.3
359.0323,15923.6
359.0447,484583.2
359.2342,154.5
359.285,237.2
359.3002,18.9
359.352,370.4
359.3743,144.4
359.3859,122.4
359.3962,175.6
359.4131,166.3
359.4286,184.8
359.4382,130.6
359.4514,1380
359.4621,425.7
359.4682,1207
359.481,826.3
359.4929,774.5
359.507,98.9
359.5295,269.3
359.5536,755.3
359.6221,483.5
359.6386,509.1
359.6652,191.5
359.6852,595.2
360.0117,64.8
360.0316,87.4
360.0481,43080.5
360.1096,19.6
360.3246,220.4
360.4918,110
360.5207,382.3
360.5275,230.2
360.7112,509
360.8258,146.5
360.8936,480.5
360.9199,116.5
360.9802,256
361.0208,6225.5
361.0302,613.9
361.0487,2578
361.1163,77.1
361.2751,2267.6
361.5946,18.7
361.6813,240.6
361.6951,121.8
361.7083,650.4
361.7423,206.2
361.7647,184.7
361.8636,873.5
362.1878,86.7
362.2595,192.6
362.3276,187.1
362.349,222.1
362.473,332.4
362.6038,322.2
362.7768,112.1
362.8039,112.4
362.835,178.9
362.9336,452.2
363.1531,126.2
363.3911,25
363.4812,803.6
363.5462,107.6
363.5657,93.4
363.5776,165.8
363.6655,454.9
363.7442,495.9
363.7862,185.4
363.9789,98.6
364.2595,108.6
364.3353,903.1
364.3911,165.1
364.5407,118.3
364.7853,514.9
364.8695,430.7
364.9079,318.1
364.9326,1268.6
365.0593,540.7
365.1066,2427.2
365.6575,19.8
365.9585,21
365.9643,275.4
365.9841,140.3
366.0627,23.3
366.1316,1083.5
366.3174,18.2
366.3546,342.9
366.8367,147
367.0028,160.2
367.0456,121.9
367.0533,159.7
367.0565,164.4
367.0603,126.5
367.1035,932.4
367.1219,818.4
367.1736,328.7
367.1955,4558.1
367.2307,123
367.2688,647.8
367.5251,694.2
368.0429,180
368.1029,1328.9
368.1987,723.1
368.2431,262.8
368.2569,133.3
368.5006,906.1
368.5612,412.4
368.6463,344.6
368.7774,201.5
368.985,347.1
368.9929,4425.2
369.0018,20531.7
369.0107,10353.9
369.1777,275.3
369.3032,139.9
369.35,307
369.4077,926.4
369.4912,860.9
369.962,599.3
370.0069,282.8
370.0487,82.9
370.1831,761.9
370.2572,364.2
370.5718,18.7
370.6153,20.7
370.7637,104.7
371.036,553.2
371.2299,205.3
371.3122,127.8
371.4797,542
371.5245,162.9
371.5343,74.2
371.6103,553.4
371.7761,497.8
371.8456,256.7
372.023,136.9
372.0687,338.3
372.2641,141.2
372.3657,198.2
372.3903,166.3
372.4228,146.6
372.5962,521.1
372.8206,300.6
373.1075,181.6
373.224,132.5
373.2984,289.8
373.5177,212.6
373.5992,18.7
373.6565,526.3
373.7089,128.2
373.8773,181.1
373.9448,624.9
374.036,621.2
374.3149,636.9
374.4065,172.9
374.414,552.8
374.8059,827
374.9145,19.3
375.0098,167984.4
375.0187,139345.6
375.0964,969.2
375.2591,162.8
375.4404,818.3
375.4622,127.9
375.5528,19.4
375.5638,84.4
375.5896,762.8
375.6694,123.9
375.7169,533
375.7347,897.9
375.7948,519.5
375.8453,360.5
376.013,11041.1
376.022,11338.6
376.0572,554.6
376.2505,99.4
376.2874,181.5
376.3271,22.5
376.3363,416
376.3616,456.7
376.3699,123.4
376.4205,210.3
376.5813,1091.4
376.6179,155.8
376.6848,388.4
376.7348,443.5
376.8197,388.6
376.9947,1629.9
377.017,6512.8
377.0524,233
377.1975,78.3
377.2723,440.7
377.5365,129.4
378.02,247.9
378.1348,182.9
378.2812,17.8
378.288,20.7
378.3353,310.6
378.5232,439.8
378.5864,93.7
378.7241,112.8
378.8585,188.2
378.9911,122.9
379.0899,1102.2
379.1266,18
379.1931,18.3
379.227,81.2
379.3388,53.4
379.4831,204.2
379.657,130.2
379.7597,17.1
380.157,89.4
380.3952,17.9
380.5397,644.4
380.632,69.5
380.7706,1212.3
380.8921,78.3
380.9566,253.1
380.9905,51.9
381.0025,172.3
381.0142,23549
381.0267,258342.6
381.0487,290.6
381.1936,160.4
381.2962,93.7
381.329,123
381.6165,369.6
381.8973,160.8
381.9374,326.4
382.0137,886
382.0302,22721.4
382.093,882.3
382.1057,86.5
382.2935,159.5
382.4395,143.3
382.6301,427.1
382.6379,137.2
382.7174,388.5
382.768,1165.3
383.0123,393.8
383.0244,1170
383.0502,79.5
383.1003,269.3
383.1171,198388.5
383.2243,23.4
383.445,309.2
383.7645,698.5
383.9244,121.7
383.9985,964.5
384.0123,396.7
384.1203,22365.8
384.2505,17.9
384.2732,98
384.4621,689.2
384.5143,865.2
384.5744,318.3
384.6642,187
384.7069,22.3
384.7646,664.5
384.8882,579
385.12,4316
385.2123,222.1
385.2559,538.5
385.3516,143.9
385.3898,668.2
385.6492,464
385.7048,94.8
386.043,533.1
386.2529,803.3
386.4428,81.7
386.468,606.1
386.4824,21
386.6762,80.4
386.7453,432.2
387.0034,3129.5
387.076,480.3
387.1296,111.9
387.2643,418.9
387.4481,540
387.476,388.5
387.5323,86.8
387.5509,90.9
387.5998,85.7
387.6276,936.7
387.7663,22
388.3184,117.2
388.4386,87.9
388.525,228.2
388.7124,438.5
388.8275,626.3
388.8471,150.5
388.8597,701.5
388.886,176.5
389.0848,194.8
389.1149,648.9
389.2535,689.8
389.3026,95.3
389.4058,168.4
389.7554,85.3
389.8606,88.7
389.868,160
389.9744,1372.1
390.0684,23.6
390.0841,21.5
390.2135,127.1
390.2452,186.4
390.2672,100.9
390.5985,528.3
390.6713,252.2
390.7096,463.9
390.7985,590.6
390.8619,128.2
390.8932,1990.9
390.9175,189.1
390.9747,12860.4
390.9838,29753.8
390.9926,16036.3
391.0079,135.4
391.1996,292.9
391.3487,75.9
391.3558,161.4
391.591,315.8
391.6013,220
391.7331,334.2
391.7507,164.4
391.7871,529.6
391.8156,18.4
391.83,582.1
391.8817,175
391.9788,623.7
391.9963,97.1
392.0377,177.4
392.1019,771.4
392.1291,19.6
392.2959,344.7
392.3831,173.6
392.4199,253.7
392.4905,165.1
392.5269,355.9
392.6837,19
392.7052,135.9
392.7443,104.7
392.7968,1768.7
392.8538,427.5
392.9481,231.6
392.9597,82.2
392.9941,108.1
393.008,404.8
393.0501,101
393.0807,122.5
393.0846,185.2
393.2989,29.6
393.5796,331.7
393.6804,401.8
393.9254,17.6
393.927,17.9
394.0534,585.9
394.1332,289.3
394.1867,171.7
394.208,598.8
394.2848,150.6
394.3002,85.7
394.3102,18.6
394.6482,660.9
394.6885,68.9
395.0626,560.3
395.1195,308.2
395.1718,434.1
395.3279,137.9
395.3686,356.2
395.5219,450.1
395.9025,19.7
395.9795,19
396.1326,794.5
396.1973,485.8
396.2913,349.4
396.3248,98
396.4917,20.1
396.7454,846
396.7806,100.6
396.9918,192054.2
397.0006,83502.6
397.2693,83.6
397.283,325.8
397.4694,85.8
397.5078,247.7
397.5332,678.7
397.8748,309.2
397.9631,519.9
397.9952,18568.4
398.0039,5574.7
398.2039,861.9
398.243,134.8
398.3136,210.6
398.4619,239
398.4762,120.9
398.4939,330.8
398.6504,149.1
398.6997,450.2
398.709,153.8
398.7417,1476
398.7628,2100.1
398.9688,149.8
398.9765,133.4
398.9858,194
398.9986,1532.9
399.1255,413.6
399.4625,218.8
399.4976,362.7
399.652,213.8
399.7132,440.3
399.846,100.8
400.0047,94.6
400.0498,374.7
400.1995,22.4
400.2717,603.3
400.3923,197.5
400.4656,19.9
400.7389,1187.2
400.8287,1003.1
400.9741,23.1
401.0749,421.1
401.236,20.7
401.7137,20.8
401.9775,20.5
402.0402,204.6
402.312,596.3
402.5359,170.6
402.6953,122.2
402.7362,426.8
402.825,495.3
402.8886,163.4
402.986,149.3
403.0087,262975.9
403.0864,352
403.234,535.5
403.2433,19.5
403.3293,93.2
403.5954,72.4
403.6043,550.5
403.6901,146
403.7242,21.8
403.8344,126.7
403.9813,497.1
404.0121,19941.2
404.0352,112
404.1363,398.4
404.3157,476.7
404.4059,163.8
404.5798,94.9
404.7029,147
404.7541,252.8
404.9213,181
405.0148,294.4
405.214,308.6
405.4668,98.7
405.7562,159.5
405.9494,215.3
406.0614,162.3
406.0995,120.4
406.1541,151.4
406.3303,1595.4
406.7582,129
406.773,904
406.796,127.8
406.9518,120.4
407.0278,128.7
407.0942,302.8
407.1124,345.7
407.3092,100.9
407.3336,272.4
407.4018,17.7
407.4272,109.8
407.4559,98.5
407.6106,16.7
407.8065,581.8
408.1036,106
408.222,496
408.3075,686.9
408.3287,123.1
408.338,22
408.3469,119.5
408.3562,483.5
408.4916,234.2
408.7581,146.2
408.7703,1938.1
408.8472,397.9
408.9706,471.5
408.9854,2245.2
409.0399,399.1
409.055,735
409.1102,324.6
409.1639,95.5
409.2167,176.9
409.35,596.8
409.3768,137.9
409.4515,183.6
409.5155,72.2
409.8294,363.8
410.0941,167.3
410.4518,489.6
410.5432,99.6
410.6036,162.7
410.8153,115.4
410.8575,907.7
410.9702,52.2
410.9925,149.2
411.0503,168.2
411.0741,127.5
411.1903,21.3
411.5447,266.5
411.6479,95.8
411.6818,202.9
411.8776,198.1
411.9774,200.3
412.0169,636.1
412.1683,115
412.322,2129.4
412.3629,460.4
412.5227,568
412.538,126.7
412.6081,351.8
412.718,391.5
412.7806,151.6
412.837,243
412.9121,138.5
412.9293,135.8
412.9658,32138.6
412.9745,13421.2
413.2559,376.6
413.2673,4792.5
413.3256,129.7
413.3494,152.1
413.5801,737.4
413.596,451
413.6343,683.2
413.7748,19.3
413.7929,689.2
413.8675,109
413.9694,496.9
413.9777,229.8
413.9937,404.8
414.2708,267
414.34,289
414.534,96.5
414.6088,173.8
414.6491,20.2
414.7153,614.4
414.8434,325.4
414.855,886.7
414.9175,118.2
414.9634,913.9
414.9743,122.6
414.9983,2236.3
415.1285,106.7
415.2234,1789.3
415.2825,1748.4
415.2969,21.4
415.3129,113.1
415.5247,103.8
415.6407,147
415.7087,347.9
415.9568,291.7
416.1361,9878.5
416.215,34916.5
416.4888,116.3
416.5694,17.1
416.7141,393.1
416.7529,190.3
416.8098,322.7
416.836,936.4
417.0656,84.7
417.1247,176.8
417.1377,441.3
417.1971,409
417.2182,1777.2
417.2457,220.6
417.3007,825.5
417.8321,17.8
418.1563,974.1
418.2237,19.7
418.5122,103.2
418.5944,600.8
418.6897,92.1
418.8001,1338.7
418.9826,88226.6
419.0196,196.8
419.1139,97.3
419.2567,1107.3
419.45,241.2
419.8338,913.8
419.8739,427.9
419.986,4572.9
420.7659,107.9
420.9578,641.2
420.9812,2384.9
421.0134,382.7
421.0652,16.8
421.2483,162.4
421.4308,305.7
421.5612,79.9
421.7779,19.9
421.8148,22.8
421.8575,20.1
422.3041,25
422.3685,174.4
422.6192,310.4
422.9816,1058.4
423.0126,587.7
423.1194,119.7
423.24,307.7
423.3276,341.5
423.5956,166.9
423.7299,133.2
423.7433,708.7
423.8814,979.9
423.8933,336.1
423.9696,206.9
424.5093,92.6
424.5552,369.7
424.6151,161.2
424.6407,435.9
424.741,238
424.9739,24.6
424.9897,126.1
425.0853,262.5
425.3271,155.4
425.3732,132.7
425.5342,562.4
425.5809,843.2
425.8161,188.7
426.0936,148.8
426.1563,18.9
426.2754,132.5
426.3831,89
426.5091,303.2
427.0445,21
427.192,316.2
427.4124,442.3
427.5384,97.1
427.7472,73.3
428.06,527
428.2721,186.8
428.5735,934.7
428.6208,863.3
428.7685,75.9
428.8825,292.7
428.9397,1257.8
428.9739,20.7
429.0007,1063.4
429.0089,189.9
429.0175,347.8
429.0368,127.4
429.0901,142.1
429.243,364.5
429.2688,566.7
429.3254,889
429.5793,193.5
429.7773,162.6
429.9743,19.3
430.0897,39.7
430.202,113.6
430.3061,293.8
430.3309,257.4
430.4874,140.4
430.6909,359.6
430.8411,492.1
431.0103,179.9
431.218,4786.9
431.3631,568.5
431.6084,383.2
431.6137,465.4
431.7967,407.6
431.9543,351.8
431.9665,105.8
432.1021,27.7
432.2199,636.5
432.2768,438.9
432.8926,708.8
432.9558,708.9
433.0801,572.6
433.1092,292.6
433.1522,944.6
433.2027,81.7
433.6238,263.9
434.274,234.2
434.4588,185.1
434.4929,175
434.6481,263.7
434.8599,299.5
434.9566,14050.7
435.0213,177.6
435.076,562.6
435.1174,114.7
435.14,822
435.3041,17.2
435.4223,112.9
435.4359,124.6
435.5701,277.4
435.9553,178
435.9881,17
436.1248,934.6
436.3889,128.7
436.7447,407.9
436.8216,376.4
436.9541,543.9
437.053,87.1
437.2061,566.3
437.5819,566.8
437.6099,236.8
437.7123,1076.2
437.7553,139.3
437.8507,254.4
438.1069,23.9
438.2009,798.8
438.2533,530.1
438.4753,16.7
438.5688,242.4
438.5797,152.2
438.7246,157.4
438.9113,473.7
438.9728,2538.9
438.9853,5322.8
439.2035,102.9
439.2288,282.6
439.3233,390.2
439.4887,249.3
439.6504,214.3
439.8163,548.6
439.896,150.1
439.9884,339.1
440.0279,166.3
440.103,199.8
440.2936,509.7
440.5058,498.4
440.5162,246.4
440.6522,101.7
440.7125,187.2
440.7271,408.8
440.7364,234.9
440.7605,1070
440.8512,915.9
440.9689,1008
440.9828,805.3
441.1352,163.2
441.1506,17
441.2132,406.4
441.2383,976.2
441.2817,494.4
441.2985,218
441.3206,104.8
441.5071,538.7
441.7761,268.9
441.8042,876.8
441.8203,120.9
441.8302,217.5
441.9004,830.5
441.9168,288.6
442.0074,795.5
442.111,87.7
442.2163,17.8
442.2709,186.3
442.3021,49.9
442.7243,380.3
442.7645,466
442.8405,17.8
442.9457,313.7
443.1015,17.3
443.1065,16.5
443.238,114
443.2547,1080
443.3081,114.6
443.5741,214.3
443.6318,481.3
443.7714,473.2
443.8052,87.3
443.8686,383.8
443.988,468.3
444.0096,177.9
444.0322,663.4
444.3099,271.7
444.4195,832
444.4479,134.7
444.5279,259.4
444.7124,379.3
444.7611,475.7
445.0812,17.7
445.1596,81.8
445.2342,985.2
445.27,613.9
445.297,458.2
445.6499,826.8
445.854,225.5
445.9671,590.5
446.032,98.6
446.166,600.6
446.2196,20.9
446.2679,366
446.2961,17.5
446.3035,21
446.4325,513
446.5371,219.7
446.6646,850.1
446.7627,394
446.8084,92.7
447.0012,98.3
447.2997,128.1
447.346,373.5
448.0536,659.6
448.325,103.8
448.6687,813.4
448.7173,17
448.7707,157.9
448.9335,4825.2
449.0027,423.4
449.1551,1726.4
449.1774,170.5
449.9799,99.3
450.1496,340.6
450.1586,306.8
450.2331,407.7
450.3501,502.5
450.3865,317.4
450.4866,93.5
450.5161,99.7
450.5493,173.1
450.6887,404.2
450.7747,596.7
450.9004,524.4
450.9306,563.4
451.0981,438.9
451.1215,142.4
451.1512,136.2
451.3948,595.2
451.4906,96.9
451.5057,630.1
451.5174,129.8
451.5993,473.3
451.6079,539.9
451.8824,560.9
452.0041,20.3
452.2225,250.5
452.4593,362.4
452.6208,391.7
452.6831,531.4
453.0639,97.9
453.1365,19.4
453.1738,2028.5
453.2457,384.8
453.3634,83.5
453.6267,22.7
453.787,420.3
454.0092,201.9
454.4319,255
454.4416,17.8
454.5584,84.1
454.5979,443.3
454.6769,205
454.9191,165.6
454.9506,41222.9
454.9704,19.4
455.0951,17.2
455.3014,93.8
455.3448,19
455.3612,18.5
455.4637,566.1
455.5079,495.1
455.563,19.5
455.6339,635.6
455.7645,104
455.9546,1023.9
456.1792,104.6
456.2947,88.7
456.3681,86.7
456.4769,446.9
456.6554,701.2
456.7008,1606.5
456.7383,19.2
456.9478,8956.8
456.9984,557.5
457.1021,676.7
457.2336,18407.9
457.3586,165.3
457.6618,298.7
457.8332,363.3
457.884,212.3
458.0802,782.4
458.1189,359.6
458.2367,3420.2
458.2853,195.3
458.589,86.3
458.6375,118.2
458.6965,485.7
458.7128,949
458.7878,182.7
458.9438,483.8
458.9622,2788.4
459.2493,552905.9
459.4225,231.1
459.4976,574.2
459.6772,194.9
459.7041,122.5
459.9268,18.2
460.1037,227.9
460.2527,110552.4
460.7235,139.7
460.953,781.8
460.9673,78293.2
461.009,996.9
461.0357,102.1
461.1032,172.1
461.1587,741.4
461.2562,7940.8
461.2777,101.2
461.4533,167
461.5985,306.7
461.6339,280.6
461.7333,451.6
461.8086,323.4
461.9707,5730.5
462.1834,617.7
462.4388,153
462.5877,594.1
462.7704,90.1
462.8525,177.8
462.9645,19324.1
463.0814,18.9
463.2015,644.9
463.2885,96
463.5085,982.9
463.7326,147.4
463.8597,183
463.9682,1427.9
464.0076,22.3
464.6772,486.7
464.7684,940.3
464.9177,175.2
464.9502,538.5
464.9794,8906.3
465.0607,194.9
465.2906,18.8
465.824,391.2
465.8771,448.5
465.9826,1115.5
466.3256,81.4
466.3387,326.1
466.4097,18.9
466.5328,365.7
466.7714,163.4
466.8677,165.7
466.9383,352
466.9457,345.1
467.2012,613
467.3628,162.5
467.4613,220
467.5881,226.5
467.7474,296.6
467.8672,490.1
468.0009,93.1
468.1871,102.4
468.3095,4389.1
468.3438,127
468.8111,495.1
468.9214,921.4
469.0393,166
469.1171,131.5
469.1483,589.2
469.2031,470.6
469.2139,704.9
469.3135,90.4
469.3293,1182.4
469.3935,355
469.4078,117.6
469.4543,903.8
469.5211,96.4
469.5474,87.3
469.738,484.3
469.8364,126.4
470.0395,97.2
470.0875,105.4
470.165,433.4
470.2281,481.9
470.6501,145
470.9244,18434.7
470.996,4123.3
471.1466,129.4
471.2066,563.2
471.2756,22.1
471.2855,2301.6
471.4541,156.7
471.5778,19.5
471.596,114.5
472.0111,240.1
472.2015,205.2
472.306,1079.6
472.3345,322.4
472.5879,594.4
472.7749,19.9
472.8406,841.2
472.9216,3340
472.9731,957.5
472.9872,779.5
473.0047,300.9
473.0122,339.6
473.0235,84.3
473.0522,796.2
473.1508,166.9
473.2649,4816.4
473.6225,905.7
473.7486,359.5
473.7959,151.2
473.9192,187.2
473.9451,135.9
474.0467,513.2
474.3293,541.4
474.4717,93.7
474.7194,245.6
474.9269,101.9
475.2232,27499.1
475.2445,765
475.3793,459.2
475.5154,102.5
475.8388,553.8
476.1947,280.9
476.2053,916.1
476.2266,2257.6
476.409,314.8
476.7585,454.9
476.8863,386.6
476.9412,44687.2
477.2207,736.3
477.3242,211.2
477.3377,883.7
477.7464,312.3
477.9441,2577.1
478.2646,95.3
478.2944,940.5
478.3302,51264.3
478.5274,194.7
478.5512,643.6
478.7869,580.8
478.9385,12488.1
479.1445,168.5
479.2975,785.9
479.3333,7340.6
479.7671,355.6
479.777,135.8
479.9077,19.4
479.9418,922.2
479.985,515.2
480.029,337.4
480.1126,306.1
480.1939,350.1
480.2141,389.5
480.3448,721.2
480.4707,453.3
480.5788,198.9
480.6559,503.1
480.7222,380.2
480.7471,739.7
480.8855,130
480.9528,1480.4
480.9691,21
481.0631,139.5
481.0921,24.3
481.2341,4032
481.4045,491.1
481.8883,462
482.0282,251
482.3257,2035.2
482.3615,1082.5
482.433,168.6
482.4564,271.9
482.4844,187.5
482.8692,687.3
482.9422,184.3
482.9921,161.8
483.0066,137.1
483.2493,190250
483.6061,108.6
483.7905,390.4
483.8516,691.2
484.0697,631.1
484.2527,41948.4
484.4123,708.2
484.583,163.5
484.9599,96.2
485.0594,317.7
485.265,169006.2
485.3187,608
485.6042,198
485.6893,796.8
486.0347,586.8
486.0613,124.7
486.2683,33934.6
486.3489,129.6
486.8982,1343.2
487.0084,101.3
487.0279,485.9
487.0652,141.1
487.0908,279.4
487.1527,27.5
487.2806,101706.9
487.3574,398.3
487.3771,540.9
487.5064,234.7
487.5715,177.3
488.0306,321.6
488.1011,114.2
488.1554,911.7
488.1866,329.7
488.2524,662.7
488.2839,24835.6
488.7066,520.2
488.8546,392.8
488.8983,876.5
488.9735,221.7
488.9923,124.6
489.037,149.3
489.0581,22.4
489.0856,42
489.1029,888.2
489.1666,123.4
489.1944,136.9
489.213,1182.7
489.2187,1008.7
489.2337,110.5
489.2878,18.5
489.3552,1129.2
489.6866,94.3
489.9222,197.1
490.0415,21.3
490.1847,83.2
490.2916,8416.4
490.5005,113.3
490.5182,110.3
490.5674,500.3
490.6984,1129.2
490.7389,300.7
490.7959,412.5
491.0359,20.5
491.1725,126.4
491.2959,638.1
491.3564,235.6
491.3716,2415.5
491.6507,77.6
491.8118,262.6
491.8862,122
492.0404,115
492.3807,333.6
492.4874,95.7
492.8551,83.4
492.9152,7030.2
492.9733,130.3
493.0827,18.5
493.133,20.5
493.1875,671.7
493.3344,297.1
493.3533,437.2
493.4863,121.2
493.5001,580.9
493.632,585.9
493.6421,136.4
493.6855,101.2
493.7859,197.5
493.9576,201.6
494.2064,165.8
494.2612,117.3
494.2868,1458.9
494.3253,14153.7
494.3726,331.3
494.487,160.1
494.5484,196.4
494.6017,523.9
494.9124,2965.8
495.1502,289.5
495.2406,243.2
495.329,1183.6
495.5093,85.6
495.8161,367.5
495.8775,144.4
495.9609,439.6
495.9816,112.5
496.0059,210.3
496.1635,215
496.3409,547479.4
496.791,138.1
496.9335,886.8
497.0797,178.6
497.127,103.5
497.3443,140269.6
497.3819,299.5
497.5038,200.6
497.5759,415.7
497.6078,341.8
497.7341,17.6
497.8667,177.6
498.271,291.3
498.3071,94.8
498.3474,9440.5
498.3746,225.8
498.486,121.4
498.5901,242.9
498.7921,379
498.8413,177.1
498.8591,17.9
498.8705,110
498.8836,217.3
498.9292,837.7
499.2232,9238
499.2434,256
499.3589,19.7
499.4152,90.2
499.4727,202
499.704,96.9
499.7439,864.1
499.8094,173.6
499.9575,294.5
500.2274,701.4
500.9852,417.7
501.0287,176.9
501.2224,392.8
501.2392,6286.9
501.9347,984.2
502.029,111.2
502.0397,361.1
502.094,187.3
502.184,126.4
502.2423,659.4
502.2925,917.1
502.3302,20542.7
502.7316,176.2
502.9893,1289.1
503.2211,783.8
503.2543,7739.8
503.2755,74.9
503.3346,1256.9
503.5056,186.2
503.6126,918.8
503.6955,767.3
503.7891,122.4
503.8778,76.5
504.3072,6263.2
504.3455,7927.5
504.944,99.6
504.9728,804.3
504.9963,541.2
505.0096,582.3
505.2336,2423.4
505.2809,167
505.2926,199
505.3495,231
505.4466,680.8
505.8197,415.9
505.9496,154.8
506.0447,126.2
506.0928,1168.5
506.2434,606.6
506.2665,506.6
506.319,20.1
506.3618,7353.5
506.6268,377.5
506.7564,347.5
506.8921,2612.4
507.0432,99.7
507.1177,576.3
507.2129,324.2
507.2493,43427.6
507.3636,954.1
507.5919,122.8
507.6377,454.4
507.6897,204.8
507.91,18.9
508.0367,390.7
508.2525,9934.8
508.3469,239.6
508.3782,1026.6
508.7125,453.8
508.7926,147.8
508.8344,92.6
508.8764,99.4
508.8896,2749.7
508.9393,457.7
508.9517,179.6
508.9771,19.4
508.9897,125.7
509.0053,4552
509.2139,105.6
509.2647,16704
509.2977,19
509.4023,888.1
509.6978,145.4
510.0414,555.5
510.1059,463.6
510.1858,110
510.2688,1933.1
510.356,3472.2
510.6839,21.5
510.7113,628.8
510.8877,537.6
511.0914,769.1
511.1247,46.1
511.1632,171.5
511.1857,301.5
511.2437,603.6
511.2608,149.1
511.434,97.5
511.5317,253.3
511.5436,412.7
511.5715,141.7
511.9371,18.7
512.005,83.8
512.3472,878.2
512.7938,107.5
512.9092,13629.6
513.3333,88.7
513.4047,19.6
513.5538,435.4
513.8602,118.4
514.2476,825.7
514.6072,1009.3
514.9064,8283.5
514.9445,117.6
515.0223,590
515.1551,77.4
515.1741,481
515.2785,219.3
515.4278,340.8
515.5033,682.8
515.7039,343.4
516.053,479.5
516.3071,25422.6
516.6385,353
516.9213,1870.3
516.9491,113.2
517.3102,3715.8
517.4027,20.2
517.4243,20
517.4872,84.4
517.5397,132.1
517.5679,699.9
517.9473,547.2
518.0295,102.5
518.2314,115.2
518.2441,95.5
518.2871,166.9
518.3229,962748.5
518.5393,179.6
518.6074,401.5
518.6486,22.1
518.8547,361.7
518.926,28774.4
518.9481,499.1
518.9719,164.5
519.083,19.5
519.1318,199.5
519.2082,174.5
519.3262,227254.3
519.4352,180.4
519.5139,21.1
519.6825,83.7
519.9293,1350.6
520.3409,180242.9
520.8055,133.5
520.9232,19227.8
520.995,994.2
521.1217,200
521.2029,74.3
521.3443,48700.8
521.6664,224
521.6771,100.6
521.7226,101.7
521.7667,105.2
521.9256,764.1
521.9733,94.7
522.21,696.6
522.2917,139.1
522.3565,174636.5
522.5015,97.4
522.8944,119.1
522.9202,1050.9
522.9379,4254.6
522.9694,460.8
523.2534,93.4
523.3041,218.5
523.36,47186.5
523.6064,455.3
523.8425,127
523.9488,22.5
524.0763,1162.6
524.0797,1217.8
524.0955,25.8
524.1012,16.3
524.1722,322
524.3513,101.6
524.3722,135198.6
524.6982,18.1
524.7901,684.6
524.9168,19.1
524.9352,1245
524.98,323.2
525.1569,182.3
525.2796,100.9
525.3756,31119.5
525.8858,389.4
525.9485,100.9
526.2074,24.8
526.3297,2957.5
526.4757,126.6
526.8225,87.3
526.9118,135
526.9842,507.1
527.0047,546.1
527.0758,16.7
527.1216,219.1
527.1617,636.7
527.286,99.6
527.7124,19.8
528.0517,93.4
528.1819,121.6
528.3458,169.8
528.5555,100.3
528.8181,204.1
528.8833,5229.5
528.9552,3553.9
529.0679,129.5
529.1499,17.8
529.3436,137.6
529.357,107.5
529.3776,19
529.5443,425.5
529.5587,88.2
529.7089,727.6
529.7322,1138.7
529.7638,135.7
529.8036,192.7
529.8654,209.8
530.2173,119.3
530.3238,655.1
530.3587,2147.5
530.4194,251.9
530.4589,171.3
530.4677,243.4
530.6801,157.3
530.7083,533.9
530.7331,269.7
530.8807,3103.4
530.8918,162.5
530.984,334.6
531.1184,655.3
531.2495,5316.7
531.3135,116.5
531.3889,127.7
531.5431,78.4
531.6009,735.4
531.6954,859.3
531.7823,357.4
531.8451,148.1
531.9424,448.6
532.0506,215.4
532.2512,597.2
532.2811,3820.2
532.3385,11830
532.4633,421.9
532.5011,171.8
532.5615,155.9
532.7211,112.6
532.9677,2575.9
533.1387,486.2
533.2658,1164
533.2858,653.1
533.3418,1586.2
533.3873,873.7
533.4228,18.2
533.5534,187.6
533.6313,170
533.8202,110.2
533.8805,316.8
533.903,241.1
534.2969,224392.2
534.353,675.3
534.5016,141.2
534.5379,196
534.7175,428.2
534.7966,22.5
534.8999,16277.4
535.0428,182.5
535.3003,55102.2
535.9026,1724.2
535.9404,137.9
536.2955,10855
536.3443,1000.5
536.3801,765.7
536.4875,189.2
536.5399,131.4
536.6169,18.4
536.651,243.6
536.751,829.1
536.8973,11469.2
537.1787,16.5
537.2582,99.9
537.2994,1004.5
537.3421,290.5
537.4302,229.8
537.8673,580.2
538.0584,363.6
538.1016,19
538.3449,975.5
538.3732,567.5
538.4411,511.2
538.5747,190.8
538.8935,1432.3
538.9122,1352.7
539.5409,252.8
539.5444,223.9
539.9399,194.3
540.0488,150.5
540.1272,88.4
540.3047,518.1
540.4976,176.2
540.6106,20.2
540.7121,130.3
540.997,961.8
541.1173,440.2
541.2577,253.9
541.395,126.7
541.5531,165.8
541.98,20.7
542.1852,312.5
542.323,282858.5
542.3381,593.1
542.7667,177.7
542.8555,84.4
542.9432,20.1
543.0729,98.3
543.226,394.2
543.2977,461.1
543.3263,71927.8
543.403,1416.1
543.6768,273.1
543.7012,111.9
543.7168,150.1
544.2733,1394.4
544.3387,291594.5
544.4405,108.2
544.5799,247.4
544.6561,89.7
544.6961,329.8
544.8495,1068.7
544.9294,1038.2
544.9477,503.3
545.1454,303.5
545.2568,635.4
545.342,74437.9
545.4823,101.4
545.8395,88
545.9104,206
545.9306,239.8
545.9707,885.5
546.3543,225777.8
546.626,115.7
546.6561,693.8
546.8565,246
546.9766,628.9
547.0618,698.2
547.3576,59834
547.6413,20.2
547.6693,20.6
548.0953,304.7
548.3116,763.2
548.3225,115.2
548.3607,6462.5
548.3835,110.5
548.4626,161.5
548.4756,182.9
548.5412,292.7
548.7206,98.1
548.984,92.1
549.1853,352.9
549.4105,225.4
549.5812,377.2
549.6272,118
549.8223,23.3
550.0067,477
550.1066,140.3
550.7306,120
550.7478,332.1
550.7612,166.7
550.8742,3989.3
551.0139,18.9
551.1751,431.6
551.1973,341.1
551.4151,130.4
551.5024,141
551.7467,130.5
551.8064,524.7
552.8706,1795.1
553.0612,153.3
553.1646,17.8
553.1789,207
553.2659,204.6
553.4819,73.6
553.7988,180.4
553.979,162.9
554.0149,312.1
554.201,127
554.4896,125.9
554.5213,287.7
554.7644,188.4
554.8696,576.5
554.8887,328.9
554.972,191.2
555.0441,89.7
555.0555,138.4
555.3996,22.1
555.8004,197.6
555.8918,191.5
556.0975,241.8
556.1865,586.1
556.2191,247.6
556.277,571.2
556.3751,645.5
556.4916,348.9
556.575,456.9
556.6105,987.7
556.7716,249.4
556.8629,1129.7
557.2021,89.7
557.4585,117.4
557.6726,116
558.1568,332.4
558.2971,73548.8
558.4767,504.1
558.6975,162.8
558.7713,19.5
558.879,169.3
559.0016,523.4
559.105,478.5
559.1832,120
559.3003,15657.1
559.4205,89
559.4861,260.2
559.5908,170.8
559.6331,19.2
559.9159,529.5
560.296,3671.1
560.3127,67021.2
560.3786,538.2
560.5317,441.4
560.7529,159.9
560.8828,867.6
560.9126,365.9
561.0796,1115.4
561.316,16771.8
561.4132,3443.2
561.6132,158.3
561.6623,158.3
561.6737,833.4
561.741,350.5
561.9492,139.9
561.9915,163.7
562.3107,564.5
562.3283,43869.7
562.419,984.3
562.6947,162.1
562.841,348.2
563.0646,354.3
563.0866,651.5
563.3319,11024.9
563.4296,3385.3
563.5246,229.5
563.9676,276
564.0789,77.1
564.3072,2401.2
564.3272,835.6
564.4217,187.5
564.4336,1045.2
564.4738,478.5
564.5498,100.7
564.5924,140
564.6106,151.2
564.7857,457.5
564.846,1301.6
564.9574,167.4
565.0001,352.3
565.0431,859.3
565.1276,116.7
565.6149,205.1
566.0621,832.3
566.323,67151.8
566.5996,18.6
566.8213,94.1
566.9639,959.2
567.0685,113.6
567.3268,16000.8
567.3557,781.3
567.3872,951.9
567.4562,863.8
567.4679,414.5
567.7497,157.7
567.8552,84.6
568.2098,535.7
568.312,196
568.3388,25327.2
568.419,183.5
568.5035,374.6
568.5911,220
568.6501,102.4
568.7784,112.8
568.8414,1065.9
568.8639,140.1
568.9657,509.3
569.0407,372
569.3415,4906
569.5136,160.9
569.5781,158.8
569.924,138.1
570.0401,20.7
570.354,2650.4
570.868,5445.9
570.9274,555.7
571.0483,114.3
571.2883,114.4
571.3556,387.2
571.4555,132.3
571.599,129.7
571.6657,174.8
571.962,627.9
572.1601,650.5
572.2055,189.5
572.2394,157.2
572.3702,1802.7
572.5077,174
572.8655,3970.4
572.9812,499.2
573.012,880.7
573.0873,1045.4
573.1989,107.2
573.7001,128.8
573.7335,230.6
574.0082,98.3
574.2847,1851.4
574.4604,352.7
574.5641,333.8
574.8256,157.1
574.865,468.5
574.8762,103
575.3592,453.7
575.4315,156.8
575.5048,9442
575.5339,717.4
576.0056,365.8
576.0251,227.7
576.2295,116.3
576.282,9527.1
576.3106,528.2
576.3404,206.4
576.52,489.7
576.885,6525
577.2555,146.1
577.2857,1430.8
577.3142,372.4
577.3483,93.9
577.3914,227.1
577.451,785.6
577.4617,117.1
577.5215,607.4
577.6542,254.4
577.7103,482.7
577.776,722.5
577.9146,21
577.9783,584.8
578.1309,125.6
578.2788,3158.5
578.3013,346.8
578.5352,197.9
578.8819,9448.9
579.2587,24.3
579.2815,503.1
579.4246,165.7
579.4473,19.7
579.5312,355.6
579.8492,175.4
579.9561,96.2
580.2941,896.7
580.3726,206.1
580.3898,166.4
580.66,108.9
580.7268,350.5
580.8787,2251.9
580.8965,1847.6
581.3411,128.3
581.6873,738.6
581.9888,576.2
582.0257,326.5
582.0644,380
582.1123,191.2
582.1772,734.4
582.2004,471.9
582.2175,868.4
582.2403,19.7
582.2554,888.1
582.2969,13708.1
582.3413,588.2
582.5099,24.1
582.8939,1328.8
582.9346,449.4
582.9866,117.1
583.2167,228.5
583.2564,2769.7
583.2992,998.9
583.5064,157.9
583.6337,543.4
583.6456,121.5
583.8929,210.8
583.9236,505.2
583.9376,524.5
583.9516,221.4
584.0398,17
584.0542,207.1
584.291,333.1
584.313,1600.6
584.934,479.7
584.9566,258.2
585.0944,207.9
585.1216,462.7
585.2715,4260.9
585.3157,753
585.4026,969
585.446,203.9
585.6871,106.8
586.276,1050.3
586.3102,5831.6
586.4142,126.4
586.4777,148.1
586.524,20
586.7292,335.8
586.8422,1887
586.9127,825.3
586.9813,152.7
587.0269,202.5
587.574,577.9
587.6819,20.6
588.0383,126.1
588.084,187
588.1419,702.7
588.2434,1074.1
588.3672,279.6
588.3886,187.4
588.5755,21
588.6153,86
588.6337,207.7
588.7196,753.4
588.7712,19.8
588.8386,2031.6
589.1601,19.7
589.4716,817.8
590.0597,584.7
590.0872,192
590.1404,94.3
590.3232,12796.2
590.4021,95.5
590.7922,452.8
590.8289,679.3
590.8348,523.7
590.9265,823.2
590.9622,359.7
591.0309,178
591.0641,150.4
591.1935,112.9
591.2994,1097
591.3258,1453
591.3523,248.3
591.3862,195.3
592.0459,487.5
592.0673,134.8
592.174,125.6
592.2555,1423.5
592.4678,1007.6
592.7793,348.4
592.8585,7787.4
593.0626,362.5
593.1138,150.9
593.3591,18
593.4747,722.6
593.9645,328.4
594.006,446.1
594.072,350
594.1763,703.3
594.361,478.7
594.4361,145.6
594.47,233
594.7468,266.7
594.8561,5803
595.0105,765.4
595.2174,23
595.8978,364
596.3084,1016
596.5155,750.6
596.5348,21.8
596.852,1876.6
596.8714,682.7
597.4507,5413
597.4866,9536.5
597.544,442.8
597.7668,1033.9
598.0056,192.4
598.402,618.4
598.4528,1793.8
598.4914,1034.1
598.5774,388.5
598.9386,464.2
598.976,157.4
599.2904,463.3
599.4662,2274.9
599.5031,1698.5
599.5676,168.1
599.6412,237.3
599.9728,388.5
599.9943,215.7
600.1186,147.5
600.2812,3221.9
600.6826,91.4
600.7874,414.1
600.9191,198
600.9564,218
601.0629,91.9
601.4796,140
601.496,81.5
601.5212,841
601.6182,523.2
601.6977,119.3
601.7962,181.2
601.845,149.2
602.023,248.2
602.2965,720.1
602.4162,152.2
602.7866,563
602.9627,607.8
602.9807,970.6
603.1581,451.2
603.3466,434.6
603.5356,466.8
603.6778,672.8
603.9272,185.9
604.1317,364.5
604.2181,106.2
604.358,797.7
604.6654,153.9
604.8135,643
604.8731,692
604.8948,379.3
605.0612,247.8
605.1578,492.2
605.308,168.1
605.328,846.3
605.3695,187.4
605.5399,537.3
605.8987,21.1
605.9609,163.5
605.9879,19.4
606.0178,407.1
606.296,860.7
606.3111,996
606.3386,19
606.6068,137.5
606.6677,135.8
606.7254,455.5
606.8321,310.7
606.9103,121
606.9964,173.9
607.172,5235.8
607.1971,176.9
607.2071,167
607.3938,147.3
607.5984,273.8
607.8864,161.7
608.0226,190.7
608.0736,222.1
608.0934,182.8
608.198,20.9
608.2521,305.8
608.6777,420
608.7503,188.3
608.8337,2171.6
608.8759,19.2
609.0614,466.8
609.2026,190.4
609.557,20.1
609.6922,953.8
610.3105,767.6
610.8299,1334.1
612.0488,1025.8
612.1999,356.8
612.2489,172.8
612.4276,998.9
612.7394,184.4
612.8729,521
613.2608,25.3
613.3151,340.3
613.3493,317.7
613.4324,188.2
613.6033,123.2
613.7424,836.3
614.0011,138.9
614.0205,975.2
614.0892,243.4
614.3996,308.6
614.4277,191.1
614.5749,179.1
614.8233,159
614.989,132.7
615.0675,358.5
615.1347,149.5
615.2476,133.7
615.4301,425
615.4611,6044.5
615.8215,633.6
616.0652,22.7
616.4435,1078.5
617.0216,364.7
617.3342,112.4
617.4766,25365.1
617.5163,94.5
617.6042,965.5
617.6475,264.7
617.8558,451.7
617.9373,184
618.1124,22.6
618.2036,410.8
618.4387,109.1
618.4798,5821
618.926,94.2
619.4924,23712.6
619.7396,918.2
620.2239,522.3
620.3108,176.1
620.496,3151.9
620.8625,18.9
620.9093,244.9
621.4562,694.7
621.4713,863.7
621.4878,6740.6
621.5436,476.3
621.6404,196.9
621.8094,82.4
621.8185,80.1
621.85,943
621.8716,142.7
622.0064,21.3
622.4461,167.1
622.4578,929.4
622.5601,343.7
622.5934,96.1
622.7769,96.5
623.0449,103.3
623.1371,28237.9
623.1736,525.1
623.3525,99.6
623.4683,272.8
623.4781,792
623.505,1112.5
624.1407,4543.3
624.1671,677.9
624.1825,93.4
624.343,151.9
624.4476,180.1
624.4732,673.2
624.4877,247.1
624.6106,18.3
624.7106,620.9
624.7187,583.6
624.7846,407.1
625.0115,640.9
625.1456,254.9
625.483,796.8
625.5208,1188.1
626.4603,669.8
626.4988,485.8
626.9154,136.5
627.3299,301.1
627.536,870.9
628.1635,176.8
628.232,276.4
628.3958,193.2
628.5392,200.3
629.0195,346.5
629.0523,187.3
629.154,64430.7
629.177,355.7
629.2853,882.7
630.0032,127.3
630.131,220.8
630.1577,12550.8
630.2571,190.5
630.3222,676.1
630.4418,161.8
630.6416,393.1
630.724,96.1
630.7641,1214.4
630.7735,793.5
630.8247,472
631.1275,95
631.1583,814.2
631.2618,114.1
631.4365,999.2
631.5084,305.4
631.6877,127.9
631.7834,496.1
631.9338,208.4
632.0849,926.4
632.5001,89.3
632.5755,249.5
632.6119,1315.1
632.9554,22.8
633.3966,737.9
633.4508,2555.7
633.5329,325.1
633.6529,113.2
633.6981,205.2
633.8151,111.8
633.9387,102.2
634.0451,187.7
634.3858,867.1
634.5198,18.2
634.5653,81.4
634.5947,415.5
634.8445,3214.8
634.9682,515.4
635.1575,100.2
635.3252,413.6
635.4434,469.2
635.467,645.4
635.5709,412.4
635.6026,103.3
635.9056,98.4
636.139,832.7
636.1834,361.8
636.3625,537
636.3824,743.4
636.4985,22.8
636.6541,279
636.841,4332.4
637.2333,193.1
638.4505,408
638.4863,138.8
638.5707,20.4
638.837,1011.5
638.8521,885.2
639.0033,660.4
639.5104,118.8
639.8798,633.9
640.2604,631.5
640.3016,165.4
640.3344,145.3
640.8257,317.6
640.8926,362.9
640.9428,95.7
641.135,455.4
641.4379,564.9
642.4654,445.4
642.4883,1092.6
642.6174,907.8
643.2081,88.6
643.5287,211.4
643.5523,447.2
643.673,115.4
643.9971,592.6
644.3149,272.6
644.6239,230
644.7944,198.2
644.8443,1166.2
644.8727,569.4
645.1189,24685.5
645.3207,213.2
645.3761,1642.5
645.4407,500.3
645.4615,270.9
645.7925,518.5
645.8307,109.1
645.939,156.9
646.0322,2489.5
646.0631,234.6
646.1229,3395.5
646.43,1313
646.4641,828.2
646.4917,559.8
647.0953,673.3
647.1271,168.9
647.2612,699.1
647.4539,160.9
647.5036,1253.4
647.744,153.6
647.9315,425.3
648.0967,107.6
648.1734,82.9
648.882,154.8
648.9545,194.1
649.1917,179.1
649.2528,352.2
649.3203,939.7
649.4532,372.8
649.9956,398.5
650.0786,480.5
650.4399,1049.7
650.4914,117.1
650.6017,119.9
650.8177,2135.4
650.9019,831.7
651.136,70450.5
651.2785,381.2
651.4967,1040.6
651.574,751.7
651.6592,371.4
651.7215,735.5
651.9568,88.5
651.9907,1422.1
652.0805,23.2
652.1395,13787.2
652.3485,582.8
652.4062,153.7
652.6453,102.9
652.673,346.1
652.7063,180.6
652.8146,3123.3
653.1113,1424
653.1406,1418.8
653.2418,276.3
653.928,415.6
654.0682,394.1
654.0869,194.6
654.1447,96.5
654.2198,256.8
654.3758,143.8
654.6472,464.4
654.8114,524
655.5175,85.3
655.8629,167.2
655.958,375.1
656.5078,111.6
656.8828,71.5
657.4683,311.3
657.691,21.5
657.7132,817
657.8788,269.7
657.9226,196.4
658.0668,152.9
658.2208,116.3
658.4301,905
658.9092,454.5
659.181,482.8
659.1893,471.6
659.2609,519.9
659.4371,969.7
659.5913,336.3
659.6612,271.5
659.767,24.5
659.8672,21.1
659.9385,1861
660.0583,92.4
660.3583,177.8
660.4026,662.3
660.6434,79.3
660.9651,446.5
660.9769,855.8
661.0838,14588.3
661.2179,21.5
661.2568,185.4
661.4475,976.7
661.4672,675.1
662.0858,103.2
662.2161,208.8
662.3522,244.4
662.9903,656.1
663.0943,438.8
663.4552,55.7
663.5129,224
663.598,184
663.8125,176.4
664.0276,77.8
664.0793,518.8
664.1392,724.5
664.2803,237.1
664.3648,135.4
664.4688,1193
664.5798,451.3
664.6836,117.1
664.7306,350.7
664.8688,19.9
665.5283,709.2
666.1106,715.8
666.1912,161.9
666.3908,127.3
666.4332,320
666.485,5164.8
667.1004,35803
667.1843,87.9
667.2732,126
667.3014,418
667.3247,101.9
667.4829,459.5
667.6598,107.3
667.7834,20.1
668.1055,4611.9
668.6893,139.3
668.9647,308.6
669.079,133.6
669.1082,236.2
669.4969,631.7
669.5201,19.3
669.5791,375.6
669.716,292.7
669.8589,570.1
670.0848,303.2
670.4417,805.8
670.5004,533.9
670.7862,443.6
670.843,134.2
671.424,18.2
671.576,1667
671.7284,105.5
672.3865,101.5
672.4233,4448.1
672.7701,384.9
672.7936,107.3
672.8159,268.7
672.9334,90.2
673.0429,120.4
673.118,80707.2
673.4268,714.2
673.5719,276.1
673.7086,136.2
673.9057,554.4
673.9811,177
674.1004,200.3
674.1216,16093.2
674.4974,444.1
674.6644,149.1
674.6858,358.3
674.7089,74.8
675.0938,392.6
675.1228,740.9
675.1729,139.5
675.3745,515
675.5454,12363.2
675.6547,182.5
676.5491,3025.3
676.6991,114.1
676.7992,19.8
677.3304,164.3
677.4395,795.4
677.7641,458
678.0793,244.7
678.3778,88.4
678.483,114.8
678.5595,456.9
678.8472,397.9
679.215,19.8
679.5115,599.2
679.5417,200.8
679.5593,1035.1
679.7904,120.9
680.1386,524
680.1752,307.5
680.2005,688
680.2123,400.5
680.5955,21
680.9632,447.3
681.3673,110.8
681.4136,213.7
681.7764,777.7
681.9751,78
682.0651,234.9
682.5786,19.6
682.6513,169.8
683.0655,9435.7
683.2645,957.4
683.3041,19.8
683.4518,2166
683.5108,197.6
684.0695,680.7
684.223,336.8
684.3039,355.4
684.6256,96
685.0715,123
685.3943,211.6
685.4386,836
685.6445,169.2
685.8149,724.1
685.9422,792.2
686.7112,153.7
687.3661,1063.5
687.8848,21.1
687.9353,439.6
688.1027,342.8
688.119,95.9
688.491,17.4
688.6934,95.4
689.0409,268.3
689.0824,26002.9
689.0915,23242.2
689.1831,476.8
689.3529,214.7
689.5606,630.2
689.7959,342.1
689.8535,159.7
690.0873,3365.8
690.0952,3452.5
691.0091,414.8
691.0683,148.2
691.1858,171.6
691.3287,586.6
691.7207,1031.4
691.8425,178.2
692.2922,192.5
692.8055,851.1
692.9992,404.8
693.1525,240.9
693.8439,241.4
694.0869,208.2
694.1319,391.1
694.3156,687.4
694.6699,269.4
694.7994,1284.4
695.0496,326.6
695.1001,54767.4
695.1575,208.6
695.4314,342.5
695.4611,782.5
695.5114,4029.8
695.5518,96.9
695.5779,1378.1
695.6136,99.8
696.1037,10520.5
696.1391,119.4
696.4216,739.6
696.4666,19.5
696.5162,972
696.8656,549.2
697.076,255.8
697.1066,386.5
697.3704,139.2
697.5273,20721.4
698.3335,106.9
698.5312,5265
698.8464,493.1
699.0008,97.2
699.3874,226.2
699.8168,665.9
700.1066,344.3
700.1462,243.1
700.1754,152.2
700.5279,465.5
701.1391,20.3
701.2714,20.1
701.3052,190.9
701.4204,365.3
701.5064,121.9
701.5612,31690.9
701.8017,632.2
701.9057,468.6
701.9249,600
702.344,3389.8
702.3936,1004.4
702.5645,11926.8
702.8301,124.4
702.8436,668.4
703.0182,97
703.3478,185.3
703.432,18.3
703.5767,75587.2
703.6653,557.4
704.0103,193.6
704.3056,172.7
704.3683,105.9
704.4296,177.9
704.4497,4009.2
704.5598,100.9
704.5804,29497.6
704.6531,305.2
704.7166,211.2
704.8082,491.6
705.0488,4234.5
705.0569,4999.9
705.1951,365.5
705.2092,75.3
705.2494,126.7
705.5294,171.8
705.5371,272.8
705.5833,957.2
706.0074,95.9
706.3893,171.5
706.5405,1493.7
706.8866,274.4
706.9856,130.6
707.1425,228.6
707.3185,178.4
707.8383,228
707.9872,158.4
708.375,100.9
708.419,194.5
708.4511,522.8
708.7884,468.4
709.1344,95.6
709.3163,972.9
709.9087,106.8
711.0636,15526.3
711.0749,19310.1
711.5431,3612.9
711.8882,989.4
712.0685,1673.1
712.0766,1685.2
712.1486,331.3
712.5094,132.3
712.7714,387.7
713.0872,227.2
713.5017,974.2
713.716,551.1
714.2582,234.3
714.3539,952.3
714.4366,518.6
714.649,342.7
714.708,127.2
715.0591,181
715.0838,132
715.1812,112.1
715.4629,696.1
715.4833,680.2
715.5892,818.1
715.7527,137.5
715.7992,266.9
716.0057,736
716.1894,1015.5
716.6667,219
716.7867,549.6
717.0542,117.7
717.0819,26677.9
717.6365,137.7
717.7845,247.6
717.9338,188.7
718.0851,4402.6
718.2285,882.2
718.2627,79.3
718.8183,423.1
718.8309,878
719.4629,1048.1
719.7496,20.1
720.0563,247.7
720.123,24.7
720.867,102.6
720.9831,330.6
721.067,131.2
721.1839,120.1
721.3901,442
721.4798,54680.1
721.6281,86.1
721.9473,21.2
722.0269,627.9
722.4834,21500.5
722.6717,742.1
723.2241,896.6
723.2454,217.6
723.4402,154.7
723.4962,11087.4
723.5431,40931.1
724.0542,137.4
724.1394,218.8
724.4989,1948.2
724.547,15359.5
724.7664,21.3
725.1413,159.2
725.1948,228
725.3243,150.7
725.559,80143.1
725.8964,131.2
725.9143,98.6
726.5067,768.9
726.5625,32358.9
726.9149,422.4
727.0336,3436
727.1755,733.6
727.261,160.1
727.5164,794.6
727.5678,1324.9
727.5743,1344.4
728.0314,338.7
728.1583,109.3
728.4493,1315.9
728.522,2221.7
728.6105,180
729.0159,273.5
729.1743,133.3
729.362,18.8
729.526,955.9
729.5925,8266.2
729.6363,20
729.7968,121.6
730.061,155
730.1455,369.3
730.5404,8874.3
730.5972,1033.2
730.7203,174.5
731.313,114.8
731.5441,2128.7
731.6086,6430.3
732.5557,43743.4
732.6115,1668.6
732.6913,414.6
732.7794,88.8
732.963,110.7
733.0451,9532.2
733.0571,9806.3
733.5594,15816.1
733.6722,442.6
733.7461,178
733.8202,527
734.0538,656.3
734.4999,117.1
734.5724,9106
734.757,22.8
735.0523,278.2
735.2253,417.8
735.2512,18.3
735.2829,143.7
735.5253,453
735.5741,442
735.7586,111
735.8068,112.4
736.058,310.8
736.2304,284.1
736.9021,164.9
736.9409,124.3
737.3111,87.2
737.3376,1024.2
737.454,10103
737.557,131
737.6095,181.9
737.7576,903.9
737.7996,19.2
737.8255,277.4
738.142,109.4
738.4271,196.8
738.4579,1999
738.4784,624.1
738.8867,174.2
739.0061,153.5
739.0326,441.7
739.0642,15895.2
739.5171,3301.5
739.6106,490.3
739.7331,516.6
739.8539,334.4
739.9942,431.9
740.0687,783.9
740.1557,227.5
740.4548,141
740.5018,372
740.5614,837.4
740.6683,168.7
740.9879,167.5
741.0906,108.1
741.2784,208.2
741.358,20.5
741.5329,7503.2
742.5381,3342.4
742.5766,6027.8
742.6918,267.4
742.9767,986.5
742.9922,1024.7
743.1679,85.9
743.4633,2549.8
743.58,2303.9
743.8221,164.6
744.0106,97.1
744.1373,161.6
744.3974,110.2
744.556,3172.6
744.5922,7803.3
744.686,297.7
745.3265,102.2
745.4798,33268.2
745.5569,510.1
745.597,2433.9
745.8675,190.7
746.1798,18.4
746.4835,12560.2
746.5716,2435.9
746.6078,3139.2
746.8611,263.8
747.05,436.4
747.2787,147
747.2966,190.2
747.43,298.7
747.4959,8311.9
747.5752,811.7
747.7103,92.6
747.9689,594
748.6376,373.4
748.6949,113.3
748.7308,462.4
748.8735,198.9
748.8958,98
749.0326,580.4
749.152,771
749.5094,2101.9
749.5656,218.2
749.6413,563.2
750.0233,193.9
750.4399,734.5
750.513,183.4
750.8501,197.8
750.9127,473.1
751.0642,497.7
751.161,845.5
751.2548,20.5
751.576,3652.2
751.6838,242.9
751.7628,190
751.7841,187.6
751.9063,677.1
751.9326,231.3
752.0111,226.1
752.1568,779.6
752.435,153
752.4643,928
752.5223,12909.7
752.5801,1594.9
752.7544,477.2
752.8157,230.2
753.1729,1547.5
753.2006,118
753.3783,21.4
753.4317,164.9
753.5254,2468.8
753.5924,913.9
754.5381,43858.4
754.6342,19.5
755.0383,5606.1
755.5415,16806.1
755.8211,22.4
756.0252,438.6
756.0443,101.3
756.1348,564.3
756.3326,267.8
756.3708,153.9
756.4729,191.3
756.5557,51034.1
756.608,260.1
756.7094,198.8
756.7562,510.2
756.7849,377.1
757.0536,317.2
757.3574,376.1
757.3997,19.7
757.5188,125.5
757.5288,140.6
757.559,18890.6
757.6244,759.9
757.6877,466.1
757.731,450.6
757.896,595.4
757.9279,566.8
758.086,18.2
758.1179,430.3
758.3418,128.7
758.4543,19.7
758.5716,999343.8
758.6332,239
758.6517,402.8
758.7632,108.6
759.3561,124.7
759.5108,101
759.575,436126.5
759.6393,1555.7
759.8467,501.2
759.8862,458.4
759.9412,357.5
760.0261,642.2
760.1355,182
760.5883,343644.3
760.6427,224.4
760.9279,648.3
761.0462,5551.5
761.3054,152.9
761.4543,2292.2
761.5909,160314.1
761.7087,469.7
762.2175,312
762.4309,217.7
762.5937,39127.4
763.2086,408.8
763.2766,143.2
763.5964,4125.2
763.7284,99.7
763.9387,156.9
763.9851,136.9
764.093,144.6
764.14,147.5
764.2174,225.2
764.5583,5132.1
765.102,212.2
765.4803,1179.9
766.0179,105.4
766.2188,182.4
766.4872,100.7
766.5362,3730.9
766.5762,28964.4
766.6221,1175.3
766.6431,84.4
766.682,20.1
766.7631,233.8
767.3687,115
767.5382,941.5
767.5784,8431.3
767.6626,197.3
768.253,432.9
768.3359,18.9
768.554,6247
768.5926,40345.4
768.6709,185.1
768.9466,777
769.0492,443.2
769.3912,376.5
769.48,4925.9
769.555,118.4
769.596,16613.2
769.6572,794.8
769.701,20.6
770.4856,886
770.5107,3611.4
770.5708,1118.5
770.609,3541.2
770.8365,224.3
770.9941,5595.9
771.0543,21.3
771.2731,822.1
771.5111,2128.1
771.6131,758.8
771.9962,737.7
772.066,110.9
772.1875,688.5
772.5879,13606.3
772.6216,327
772.773,714.3
772.8056,231.1
772.8587,200.9
772.8827,792.5
772.9222,128.4
773.5226,164.3
773.591,2970.1
773.6733,263
774.2239,125.3
774.5057,596.6
774.5801,117.1
774.6037,2255.6
774.9394,226.1
775.1459,79.8
775.2776,253.2
775.4484,310
775.5019,600.3
775.607,199
776.3236,349
776.369,555.9
776.5229,2964.9
776.8714,942.1
777.0093,2849.3
777.5266,2169
777.5426,1148
777.9438,155.1
778.0483,1209
778.0727,456
778.2594,105.4
778.4364,87.4
778.4469,102.9
778.538,36935.6
778.617,427.4
778.7727,89.9
778.9094,169.4
779.3035,797.7
779.3703,93.6
779.5416,16109.5
779.8626,547.2
779.9211,168.6
780.5537,760336.5
780.5908,184.4
780.6439,153.8
780.673,1092.7
781.2657,229
781.5571,335352.3
781.5912,158.3
781.6177,795.3
781.6489,442.9
782.5712,719624.9
782.7349,160.1
782.9127,179.2
782.9394,168.1
783.028,3771.6
783.1467,150
783.3445,650.2
783.4156,1063.7
783.4579,633.1
783.5745,341284.4
784.3221,221.9
784.3479,136
784.4397,442.9
784.4573,103.6
784.4945,223.3
784.5881,313210.4
785.3651,108.6
785.483,686.2
785.5431,108.8
785.5909,154468.3
785.6549,5292.3
785.9127,19.3
785.9966,95.3
786.1011,124.5
786.6034,283917.4
786.6585,1384.7
787.6065,142665.6
787.6706,3293.8
787.7463,698.1
787.8231,651.1
788.3833,870.8
788.5595,12109.7
788.606,19186.6
788.6219,17760
788.8587,109
789.0502,251.5
789.1266,96.9
789.162,211.5
789.3424,104.8
789.4777,369.8
789.5604,4389.7
789.6232,8864.9
790.0467,2113.5
790.4903,113.1
790.545,1497.8
790.5746,21975.3
790.6258,322.4
791.0556,1093.1
791.2268,242
791.3204,768.4
791.5779,7600.1
792.0585,877.5
792.5538,1807.5
792.5922,13629.9
792.8186,105.5
792.886,159.9
792.987,674.2
793.5955,3416.1
793.8709,128.7
793.9719,92.8
794.3938,19.5
794.5111,3653.8
794.5698,8221.3
794.6082,41757.2
794.761,438.6
795.1039,173.8
795.5207,1443.9
795.6111,20480.1
795.9627,19.7
796.5274,124585.9
796.5877,3316.4
796.6251,3912.2
796.699,164.7
796.7194,120.2
796.7651,249.5
796.8043,126.2
797.1224,162.8
797.3866,557.2
797.5309,58967.1
797.5899,1269.7
797.6266,1715.7
797.647,20.7
798.2367,133.1
798.5029,541.6
798.5442,32113.4
798.6005,947.4
798.6671,330.5
799.0013,555.3
799.5463,13479.1
799.6075,80.6
799.6715,952.4
800.0373,934.7
800.0972,18.1
800.3288,97.5
800.5532,494.4
800.6372,167.8
801.4228,172.2
801.5408,1116.2
801.6877,385.9
802.2895,97.3
802.353,322.7
802.5379,43362.8
802.68,673.1
802.8033,686
803.0289,184.1
803.138,186.3
803.5418,19522
804.1512,408.1
804.2062,591.6
804.5537,388028.1
804.8655,132.2
805.3025,307.2
805.5571,189778.5
805.6314,206.7
805.9635,159.9
806.1588,467.8
806.3183,136.6
806.5708,343341.3
806.773,581.9
806.8437,176.3
806.8794,1153.9
807.5739,170919.4
807.6356,140
808.0063,639.8
808.3028,159.8
808.5867,237908.9
808.7521,307.2
809.009,363.4
809.178,81.1
809.2828,524.6
809.5895,125633.7
809.6521,973.1
810.0003,158.7
810.536,148.4
810.6036,150915.2
810.68,76.5
811.1186,218.7
811.521,122.9
811.6065,75738.3
811.671,13510
811.7513,260.4
811.7869,131.6
811.9276,104.5
812.5065,392.7
812.5642,363.8
812.6208,29357.3
812.6736,3016.3
812.838,331
812.9665,18.4
813.0413,713.2
813.6228,15637
813.6869,10558.8
814.339,19.4
814.439,256.3
814.5745,3434
814.622,424.4
814.6903,4732.9
814.7292,20.7
815.2118,409.8
815.5719,536.8
815.6361,153.4
815.6585,22.4
815.7065,177.1
815.7234,308
816.1242,124.5
816.3394,523.6
816.4013,86.1
816.5903,24909.8
816.6748,491.2
816.754,481.4
816.9521,204.1
817.5936,7879.5
818.5115,5397.9
818.608,2644.7
818.9883,308.3
819.1191,160.2
819.4257,608.8
819.4982,310.1
819.6105,1029.9
819.6607,383.8
820.3921,102.4
820.5277,73292.2
820.6245,382.2
820.8342,286.9
821.5311,31762.2
821.6317,111
821.8827,462.5
821.9263,128.8
822.5442,32989.9
822.736,818.2
822.91,331.8
822.9682,18.5
823.1933,546.3
823.3073,462.9
823.3948,127.8
823.5468,13237.4
823.8511,618.5
824.3233,206.2
824.5596,24871.1
824.8345,102.5
825.0116,440.3
825.2026,1133.7
825.5621,9300.2
825.6952,906.6
826.2291,240.6
826.4225,162.6
826.5406,951.9
826.5732,429.5
826.7362,98.2
827.4085,117.1
827.4931,139.3
827.5712,177.2
828.3279,1563.7
828.3536,323.2
828.5536,110810.2
829.5572,52650.1
829.6992,714.4
829.9507,216.7
830.5703,73329.3
830.6984,153.4
830.7875,141
830.9379,135.9
831.4266,134.9
831.5181,523.9
831.5732,34163.1
831.8234,109.4
832.1998,767.2
832.3997,20.7
832.5471,580.8
832.5858,87184.8
832.9819,149.9
833.5417,29.2
833.5888,42643.7
833.6553,1900
834.0737,107.3
834.4827,116.4
834.6033,35427.1
834.7953,527.7
835.0138,183.1
835.1203,473.6
835.2263,149.9
835.4122,593.9
835.6058,14194
835.6415,1189.6
835.6698,2150.8
835.6934,1977.8
835.7306,191.4
836.111,933.6
836.62,4274.5
836.6817,107.9
836.7239,435.6
836.8734,515.1
836.9163,627
837.0085,112.6
837.2345,84.8
837.4918,425.8
837.6227,905.9
837.9467,19.9
838.1574,22.2
838.3737,20
838.5149,901.8
838.5582,1000.6
838.5782,111.9
839.4733,373.9
839.4889,460.8
839.4967,501.4
839.6327,462.5
839.7502,19.9
840.0509,392.9
840.147,202.3
840.354,156.7
840.51,323.7
840.5882,158.3
840.7711,125.1
840.8319,125
840.8643,657.5
840.9758,616.8
841.0308,164.1
841.5704,506.6
841.9704,82.7
842.1051,123.1
842.329,20.9
842.7285,794.1
842.8889,223.8
843.4064,881.7
843.5728,541.1
843.6994,542.4
843.9097,236.2
843.9162,236.3
844.4613,902.8
844.5278,17498.2
844.6744,118.5
845.3206,335.3
845.5313,6116.2
845.7887,541.5
845.9425,137.1
846.5442,5334.4
846.6165,19.1
847.0672,19.3
847.1054,175
847.3016,1164.9
847.3625,129.8
847.5442,379
847.7951,248.9
848.2262,299.4
848.2955,607.8
848.3824,567.5
848.5593,8906.9
849.0306,18.6
849.2097,19.9
849.2796,185.1
849.4391,176.6
849.5632,4324.8
849.6489,168.5
849.8584,469.7
850.6649,172.9
851.1913,377.9
851.2259,89.6
851.2857,135.7
851.7791,204.5
851.8113,586.5
851.9852,129.3
852.0429,1340.1
852.1249,241.3
852.9259,464.7
853.0791,80
853.1458,177.6
853.2042,19
853.317,180.6
853.6082,123.4
854.0277,419.9
854.4989,107
854.5701,2575.5
854.6377,661.4
854.7445,259.7
855.5634,248.9
855.839,861.4
856.1237,463.7
856.1297,455.1
856.5852,6129.4
856.7362,89.8
856.8969,782.7
857.0569,360.4
857.2673,102
857.382,405.1
857.5624,90.2
857.587,2235.6
858.0288,224.7
858.1525,590.4
858.409,460.8
858.6071,205.2
858.9074,393.3
858.9238,438.4
859.1531,20.9
859.6052,512.3
859.7387,99.8
861.0704,252.7
861.4217,523.7
861.7042,189.3
861.9351,101.6
862.3299,599.7
862.4556,684.6
862.8607,19
863.0319,215.1
863.0732,92.2
863.3886,1132.2
863.4695,137.8
863.5127,708.9
864.3081,216.9
864.5144,223.1
864.7072,1726.6
865.1154,662
865.2273,155.4
865.4759,124
866.1832,204.6
866.2649,569
866.3312,1011.3
866.3903,130
866.426,316.4
867.0062,196.3
867.698,427.5
867.7879,992.1
868.1961,108.4
868.8558,459.5
869.3052,163.3
869.325,757.9
869.3837,24.1
869.442,650.8
869.4627,942.2
869.5591,1565.3
869.594,1457.2
869.6185,966.8
869.6493,2055.9
869.6832,1190
869.7089,1804.7
869.746,2412.5
869.8095,2285
869.8798,2185.8
869.9228,2548.2
869.9775,490.7
869.9913,515.6
870.0279,182.8
870.0536,378
870.1189,327.1
870.2504,16.2
870.3389,107.2
870.396,650.1
870.4595,119.2
870.4971,741.4
870.8711,499
871.0984,138
871.3581,182.8
871.5455,288.6
872.0461,190.9
872.1728,211.3
872.5122,309.4
872.5518,792.4
873.9871,250.7
874.0536,668.6
874.3521,405.2
874.5031,455.3
874.8557,175.1
875.0102,138.4
875.1105,1059.7
875.2563,452.6
875.4587,749.1
875.8214,186.9
875.8693,1005.6
875.9859,27.2
876.0328,195.1
876.1214,20.5
876.2711,20.8
877.008,133.8
877.0637,494.2
877.9816,228.9
878.3045,99.3
878.668,223.6
878.8137,238.9
878.8604,552.3
879.0609,130.8
880.1286,182.2
880.6091,368.6
881.1625,19.4
881.3643,122.9
881.9006,171.5
882.5339,104
882.5635,128.3
882.5908,151.3
882.6794,143.5
882.7457,119.1
882.9965,193
883.2293,180.5
883.4983,19.7
884.3424,134.7
884.41,697.7
884.6764,392.6
884.9606,549.3
885.0196,190.3
885.0956,167.6
885.3874,552.8
886.0914,164.1
886.1167,92.9
886.2051,291
886.3112,20.1
886.6544,150.8
886.6694,145.2
887.1023,630.2
887.8926,233.2
888.0225,1141.5
889.0685,97.4
890.2392,125.8
890.6727,168.7
891.0979,96
891.7208,150.1
892.0097,795.3
892.2358,111.4
892.4018,96.2
892.5458,846.6
892.6933,214.3
893.8319,87.7
893.945,108.5
894.4173,447
896.2538,19.8
896.5014,263.9
896.5897,590.4
896.7533,210
896.9905,118.2
897.4549,246.6
897.6934,867.9
898.2482,98.8
898.9348,833
898.9666,100.3
899.1601,180.5
899.3108,849.8
899.3356,346.7
900.3141,22.3
900.4936,759.9
900.8419,628.3
901.4843,230.7
901.6331,424.9
902.1958,19.7
902.6979,463.8
903.008,1013.8
903.7792,266.2
903.8057,103.9
903.9837,149.2
905.6063,252
905.7806,810.7
905.8526,169.6
906.0363,314.5
906.5889,451.3
906.6027,450.5
907.1117,688.8
907.2908,307.9
907.7272,416.7
907.8277,621.3
908.2952,908.6
908.4733,164.3
908.7133,439.3
909.2287,443.5
909.4033,668.3
909.6317,649.2
909.8259,158.5
910.2476,383.7
910.4547,101.8
910.9366,85.1
911.1952,162.5
911.4328,901
911.4775,17.7
911.6371,18.2
911.7202,690.3
912.2225,1634
912.5234,232.1
912.6,95.7
912.847,1010.7
913.0856,449.5
913.1317,264.1
913.2787,176.9
913.5591,253.3
913.708,426.2
913.8507,22.8
913.8855,2331.1
914.0128,17.7
914.3218,188.5
914.4852,21.4
915.2032,306.5
915.4862,273.4
915.6521,361.1
915.9223,390.7
916.061,99.3
916.1075,974.4
916.3266,262.4
916.3577,110.5
917.2267,692.1
917.4034,174.5
917.6518,152.3
917.781,82.3
918.2265,178.6
918.2756,182.4
918.7099,453.8
918.9845,530.3
919.5126,267.1
919.5211,237.7
919.6263,531.8
919.6555,1181.4
919.8272,102.7
920.2153,93.2
920.334,83.9
920.465,499.5
920.563,784.6
920.8345,737.1
920.8863,215.8
921.3101,904.1
921.7419,463.4
922.2434,235.5
923.0288,821.2
923.1253,25.8
923.2903,444.5
923.8549,817.5
924.1197,128.7
924.2339,236
924.3276,292.5
924.4614,1118.9
924.8636,20.1
925.081,728.7
925.1814,303.1
925.3404,104.7
925.3666,756.7
926.0704,815.4
926.1224,798.2
926.1783,698.2
926.5232,459.1
927.5674,1045.7
927.9555,20.6
928.0032,242.6
928.0471,176.2
928.2824,1044.8
928.5637,134.1
928.5948,253.1
928.6412,258
928.986,22.1
929.0831,19
929.4265,96.6
929.4915,194.8
929.6978,315.1
929.9507,123.4
930.2217,1019.8
930.6951,597.1
931.2832,289.6
932.3851,490.1
932.5025,260
932.7061,160.8
933.01,105.3
933.3148,203.2
933.989,169.3
934.223,478.6
934.71,188.3
934.9029,324
935.0443,195.5
935.5232,141.6
935.9448,20.1
936.3939,18.6
936.6006,262.8
936.7906,586
937.1999,129.7
937.3613,529.4
938.1033,951.3
938.36,728.7
938.8747,2104.4
939.3109,226.5
939.4443,18.7
939.6852,19.1
939.8228,17.6
940.049,983.2
940.2189,449
940.2578,455.5
940.3577,542.3
940.7319,558.8
940.7873,207.6
941.3076,90.9
941.4839,18.1
941.8044,370.8
941.8502,21
941.8837,600.5
942.5037,536.8
942.7091,1939.7
943.3885,728.4
943.4271,108.8
943.6215,110.5
943.6587,99.3
943.9047,916.7
944.0155,879.8
944.4516,1753.5
947.1973,113
947.5033,234.8
947.673,526.5
947.9482,548.3
948.0456,143.5
948.3563,128.4
948.6586,418.6
950.0872,249.1
950.1665,1618.8
950.2167,185.1
950.2583,358.1
950.4348,125.3
950.5216,18.7
950.6096,789.9
951.1516,1178.8
951.1965,168.7
951.2631,269.9
951.4407,281.3
951.6997,2201.3
952.3353,523.1
952.6323,209.7
952.7582,152.2
952.9154,337.5
952.9613,497.6
953.0582,927
953.3326,352.8
955.938,497.8
956.1917,1474.1
956.3828,860.1
956.5631,464.3
956.7764,1124.8
956.9197,439.2
957.3242,122
957.649,556.3
958.0321,161.1
958.1536,864.7
959.2006,521.8
960.2691,1165.2
961.1899,19.3
961.9334,182.2
962.2382,90.3
962.8241,688.6
962.9253,968.8
963.6194,934.9
963.6915,19.8
964.0027,206.9
964.5342,20.1
965.2113,296
965.2826,609.1
965.3276,271.1
965.4823,683.5
965.5602,1451.3
965.6629,242.6
965.7146,334.5
965.7659,176.7
966.2578,227.7
966.4915,125.1
967.5084,588.3
968.4047,488.2
968.9959,185.7
969.0975,399.4
969.1952,22.9
969.5991,120
969.7941,347.8
970.3716,205.6
970.538,526.1
970.661,1933
971.3534,202.7
971.6907,619.7
972.4807,932
972.7633,107
972.8897,607.4
973.2657,605.6
973.658,839.8
973.9034,125.5
974.3464,245.2
974.9412,138.2
975.3057,654.4
975.8451,455.5
975.9658,1445.3
976.2242,375.5
977.5251,21.9
977.7182,258.1
977.8324,177.4
978.089,960.1
978.4368,371.3
978.6876,350.5
978.9619,243.4
979.1602,1797.9
979.407,252.3
979.4497,635.4
979.5136,216.5
979.5331,257.4
979.6836,175.7
979.8369,288.4
980.1674,1034.4
980.2247,199.6
981.2924,20.2
981.3631,595.3
981.4888,148.4
981.6816,1103.8
981.8737,1240.8
981.9268,954.4
982.0666,300.4
982.2366,360.8
983.2096,162.7
983.2956,135.6
983.5377,571.1
983.6372,127.2
983.6913,172.3
984.2498,818.6
984.2899,247.3
984.5696,864.8
984.6346,955.8
984.6891,512.4
984.8255,171.4
985.761,980
986.061,214
986.4521,701.6
986.504,435.4
986.6033,638.1
986.946,520.6
987.1159,233.8
987.1854,105.3
987.2187,858.2
987.38,171.3
987.5341,278.2
987.7044,1303.6
987.8324,255.1
988.1326,208.5
988.7195,583
988.8468,109.9
989.2524,137.4
989.5582,443.5
989.6062,766.2
989.7142,173
989.8271,415.6
990.3732,476.6
990.6926,1439.8
991.3742,515
991.5893,913.9
991.651,190.3
991.7359,25.9
991.9799,372.3
993.0309,181.3
993.264,518.8
993.5134,130.4
993.6584,301.6
994.675,859.1
995.0366,530.5
995.2623,1350.2
995.7773,469.2
996.0599,836.1
996.1661,205.8
996.2957,713.1
996.5687,22.4
996.6619,903.1
997.08,717
997.2289,195.6
997.4383,526.7
997.7276,108.8
997.9175,314.5
998.7049,740.5
998.9375,675.5
999.372,701.9
999.4725,616
999.9318,1717.3
