SPECTRUM - MS,
119.RAW,
FTMS + p ESI Full ms [50.00-1000.00],
Scan #: 1-40,
RT: 0.01-1.97,
AV: 40,
m/z,Intensity

50.013,612.4
50.0304,116.8
50.037,263.6
50.0383,215.4
50.0424,197.1
50.0691,632.2
50.0708,206
50.0745,134.7
50.0809,283.6
50.0897,27
50.0977,96
50.1012,277.1
50.114,16.4
50.129,189.9
50.1333,81.3
50.1514,107.5
50.162,18.9
50.179,206.8
50.1799,168.1
50.1839,241.7
50.1872,653.1
50.1879,87.7
50.2292,86
50.2305,391
50.2635,303.7
50.2864,20.2
50.3078,332.2
50.3116,131.8
50.3198,166.5
50.324,245.3
50.3297,175.5
50.3815,268.4
50.3971,246
50.4027,16.6
50.4115,150.7
50.415,545.3
50.4451,119.6
50.4561,201.2
50.4667,318.2
50.4697,138.7
50.4813,385.1
50.4974,195.8
50.5059,81.7
50.5136,437.7
50.5297,249.8
50.5476,105.2
50.5627,101.3
50.5704,17.4
50.5935,401.1
50.6017,108.9
50.6154,440.6
50.6192,17.2
50.6491,15.3
50.6534,178
50.6594,343.6
50.6672,659.1
50.6703,104.2
50.6804,417.1
50.687,233.6
50.7028,16.3
50.7039,315.2
50.7122,78
50.7174,94.6
50.7213,101.8
50.753,268.1
50.7679,117.1
50.7692,193
50.7712,16.8
50.7991,596.1
50.8278,207.8
50.8302,308.6
50.8363,304.8
50.8448,261.9
50.8549,75.3
50.8584,83
50.8641,92.8
50.8699,158.2
50.8838,186
50.8871,311.4
50.9114,101.1
50.9201,128.9
50.9219,140.8
50.9243,348.2
50.9418,546.1
50.9579,677.7
50.9724,177.1
50.9813,180.6
50.9838,184.6
50.9873,110.8
50.9984,112.9
51.0041,188.8
51.0158,356.2
51.0164,306.6
51.0652,18.4
51.0668,84.5
51.0786,148.7
51.0813,24.7
51.0856,29.4
51.0945,209.5
51.0966,214.1
51.1017,15.8
51.1022,184.8
51.11,83.8
51.1104,17.4
51.1112,297.8
51.1151,630.1
51.1434,350.2
51.1544,136.6
51.1635,185.8
51.1875,306.6
51.1988,295.6
51.202,16.9
51.2049,172.7
51.252,516
51.2632,125.7
51.2803,163
51.2819,16
51.3214,351.3
51.33,79.9
51.3309,401.7
51.337,114.6
51.3415,105.9
51.3617,16.3
51.3623,244.1
51.3651,16
51.3656,394
51.3777,400.5
51.3842,674
51.3988,86.4
51.4097,260.5
51.4277,147
51.4383,424.6
51.452,397.9
51.5316,240.4
51.5325,19.2
51.5429,203.6
51.5458,320.5
51.5476,211.3
51.5491,219.3
51.5572,175.7
51.6146,561.3
51.615,212.3
51.6209,118.1
51.6763,251.5
51.6769,14.8
51.6788,142.7
51.707,95.8
51.7125,614.2
51.7216,166.2
51.727,116.7
51.7384,657.8
51.7452,561.3
51.7597,125.7
51.7625,612.1
51.7695,376.1
51.783,32.3
51.7889,226.4
51.7956,761.5
51.8312,177.7
51.8445,18.2
51.8495,29.2
51.8669,149
51.8802,230.2
51.885,98.8
51.8891,129.6
51.9011,23.2
51.9126,186.6
51.9208,16.4
51.9306,332.2
51.9371,166.1
51.9398,411.8
51.9439,416.3
51.9468,225.7
51.9613,236.3
51.9622,588.3
51.9765,290.8
51.9941,117.8
51.998,194.5
52.0042,205.7
52.0221,223.4
52.025,311.7
52.0595,184.2
52.0641,19.2
52.0716,191.4
52.0782,115.3
52.0932,422.9
52.094,145.8
52.1264,327.8
52.1287,182.9
52.1433,295
52.1518,16.1
52.1692,261.6
52.1759,138.7
52.188,260.1
52.1901,18.1
52.1912,178.5
52.2079,89.9
52.214,16.2
52.2299,739.5
52.2335,219.1
52.2551,176.9
52.2591,302.1
52.2667,579.5
52.2768,137.7
52.2838,189.6
52.2983,402.6
52.3008,16.4
52.3015,386.9
52.3026,515.2
52.3247,141
52.3399,511.2
52.3448,148.7
52.3463,16.8
52.3742,300.5
52.3844,290
52.4062,208.2
52.4073,376.1
52.4102,252.8
52.4159,646.1
52.4324,244.8
52.4428,105
52.4469,169.5
52.4522,17.6
52.4586,223.2
52.4622,16.8
52.4643,279.9
52.4657,152.8
52.4867,405.5
52.5075,600.1
52.5169,226.4
52.521,189.9
52.5234,275.4
52.5242,537.9
52.5246,346.5
52.5342,102.9
52.5458,177.2
52.5543,236.6
52.5676,217
52.5732,147.6
52.5975,93.9
52.6122,16.8
52.6145,84.8
52.6175,231.3
52.6205,302
52.622,97.7
52.6269,225.9
52.6277,175.6
52.6302,306.7
52.647,178.6
52.6689,316
52.6769,101.2
52.6813,217.8
52.6887,335.5
52.7006,412.4
52.7073,85.2
52.72,462
52.7217,322.8
52.7302,250.6
52.7387,159.7
52.7503,185.4
52.7557,16.7
52.7617,283.6
52.7646,239.2
52.7816,207.3
52.7873,292.7
52.7924,124.8
52.828,461.8
52.8284,668
52.83,909.2
52.8304,1114.4
52.8307,764.8
52.8313,971.7
52.8316,1224.5
52.832,643
52.8322,859.6
52.8327,557.2
52.8373,89.8
52.8387,138.7
52.8473,212.3
52.8496,170.6
52.8808,237
52.8824,231.1
52.9101,333.8
52.9146,568.9
52.9191,312.9
52.9401,27.5
52.9412,17.2
52.9438,105.3
52.9487,107.1
52.955,333.1
52.962,434.8
52.9826,694
52.9863,335.1
52.9923,347.3
53.0096,530
53.0152,28.3
53.0381,179.9
53.0663,551.9
53.0719,17.2
53.0805,87.3
53.0902,108.2
53.1112,535.1
53.1173,16.7
53.1227,230.2
53.126,28.7
53.1297,150.5
53.1447,355.9
53.1648,193.9
53.1811,352.7
53.193,338.1
53.2003,143.4
53.201,162.6
53.2125,32.8
53.2251,155.5
53.25,562.7
53.2524,166.4
53.2726,151.4
53.2806,670.5
53.2928,292.8
53.2964,432.3
53.3057,207.3
53.328,211.7
53.3361,175.1
53.3501,215.1
53.3652,137.2
53.3675,136.2
53.3716,430.9
53.3827,208.5
53.3945,19.5
53.3981,192.7
53.4203,298.2
53.426,231.6
53.4375,294.9
53.4503,98.1
53.4604,260.1
53.4789,247.9
53.4851,77
53.4941,159.8
53.5035,275.9
53.5106,384.9
53.5361,264.7
53.5531,673.2
53.5544,459.7
53.5558,237.2
53.5587,139
53.5597,176.1
53.5782,205.6
53.5863,358.3
53.6074,188.9
53.6287,188.6
53.6368,168.4
53.6467,310
53.6486,243.6
53.6526,168.7
53.6598,142.5
53.6755,609.4
53.6763,215.1
53.6806,231
53.6871,126.3
53.6956,17.5
53.7154,111.4
53.7341,15.6
53.7427,172.9
53.7515,281.1
53.754,800
53.7622,179.5
53.7864,98.3
53.7886,115.1
53.7968,203
53.835,117.7
53.8373,219.4
53.8529,217.7
53.8677,315.4
53.8702,25.6
53.8768,196.1
53.8774,252.8
53.8798,131.4
53.8821,351.9
53.8871,113
53.8908,28.6
53.8923,24.9
53.9043,138.3
53.9393,383.4
53.9399,492.3
53.9472,87.7
53.954,320.8
53.9623,133.8
53.9651,325.7
53.9707,193.4
54.0084,286.4
54.0294,428.2
54.0368,607.8
54.0417,226.5
54.0546,282.4
54.0569,261.6
54.0576,210.6
54.065,82
54.0764,326.7
54.09,89.1
54.0952,508
54.1075,167.4
54.1341,133.9
54.1439,84.6
54.1497,214.8
54.17,120.1
54.1731,93.7
54.174,236.8
54.1964,112.2
54.2171,80.8
54.2223,206.3
54.2682,255
54.269,234.6
54.2761,325.8
54.2827,280.3
54.288,180.5
54.2895,86.1
54.2915,220.9
54.2949,212
54.3064,77
54.3185,212.8
54.3376,245.7
54.3469,16.9
54.3568,472.8
54.3582,518.1
54.3636,518
54.3762,89.9
54.3975,187.6
54.4056,14.6
54.4071,114.5
54.4103,412.9
54.4171,210.6
54.4204,91
54.4436,400.8
54.4449,89.5
54.4459,17.3
54.4482,17.9
54.4514,104.6
54.4552,607.5
54.4595,110.9
54.4786,368
54.4995,161.7
54.4998,221.4
54.5063,193.8
54.5156,140.2
54.5272,102.2
54.5396,112.5
54.5475,107.2
54.567,240.1
54.5892,450.7
54.5948,18.4
54.6111,217
54.6113,220.3
54.6222,201.5
54.6261,371.9
54.6293,91.7
54.65,208.8
54.6642,19.2
54.6651,244.8
54.6994,423.6
54.717,237
54.7306,160.7
54.7456,27.3
54.7585,101.3
54.7663,130.3
54.7688,250.8
54.7725,17.8
54.7756,276.7
54.7901,19.6
54.7944,186.9
54.7965,102.2
54.8035,307.3
54.8046,110.3
54.8121,335.1
54.8249,358.6
54.8268,332.9
54.8405,299.8
54.8463,232.8
54.8487,192.9
54.86,173.8
54.8644,251.8
54.8741,102.3
54.8749,149.6
54.882,258.8
54.9166,377.7
54.9238,189
54.9483,254.5
54.9547,534.2
54.9694,332.3
54.9699,303
54.9737,201
54.9774,112.5
54.9869,518.8
54.9932,17
54.9973,125.5
55.0085,76
55.0108,252.3
55.0211,159.3
55.032,215.6
55.0335,141.3
55.0535,143.1
55.0554,315
55.0632,214.1
55.0647,110.6
55.0726,90.6
55.0762,352.1
55.098,261.9
55.1352,116.6
55.16,15.6
55.198,152.7
55.1995,136.6
55.2221,592.1
55.2251,182.7
55.2298,192.5
55.2337,217.3
55.2375,17
55.2402,143.9
55.2454,115.3
55.2502,180.8
55.2593,208.8
55.3009,128.1
55.3077,100.7
55.3118,19
55.3176,111.4
55.3451,614.8
55.3484,210.2
55.3515,515.9
55.3662,191.2
55.4018,683.3
55.4161,191.1
55.4226,718.7
55.4263,151.4
55.4504,99
55.4631,118.5
55.4651,184.2
55.4736,220.3
55.4843,148.4
55.4857,18.4
55.4922,138
55.4963,161.6
55.4986,91.5
55.5049,127
55.5166,241.8
55.5178,386.4
55.5453,164.1
55.5488,332.8
55.5622,249.8
55.5909,120.3
55.6017,478.4
55.6282,130.3
55.6685,191.9
55.6808,476.8
55.7033,16.1
55.7043,195
55.7062,93
55.7139,173.4
55.7309,16.5
55.7495,534.3
55.7564,465.4
55.7705,181.8
55.7772,107.8
55.7779,540.3
55.8526,133.7
55.8715,454.7
55.8937,300.5
55.8958,17.7
55.9125,326.5
55.9249,140
55.929,18.1
55.9314,156.8
55.9333,153.8
55.9413,230.1
55.9479,422.7
55.9615,696.4
55.9657,320.1
55.9746,16.4
55.9848,116.3
56.0025,113.8
56.0079,105.5
56.0332,187.4
56.0397,202.1
56.046,279.7
56.0729,118.4
56.0911,102.8
56.112,368.4
56.1204,168.9
56.1355,573.7
56.1609,364.4
56.1711,111.2
56.1784,17.1
56.1897,122.1
56.2021,15.6
56.2159,99.9
56.2371,33.9
56.2472,103.5
56.248,697
56.254,289.5
56.2578,405.3
56.2664,140.5
56.2686,343.7
56.305,130.7
56.3086,255.2
56.3174,313.6
56.3202,283.1
56.3311,108.3
56.3449,220.8
56.353,378.5
56.3679,400.2
56.3683,189.5
56.3758,173.7
56.3948,329.4
56.4099,326.9
56.4122,215.6
56.425,16.4
56.4329,317.9
56.4455,208.6
56.4544,336.9
56.461,392.2
56.4631,89.1
56.4763,297.3
56.4788,176
56.4884,197.3
56.4899,228.6
56.4987,185.5
56.5172,94.2
56.5493,119
56.5549,110.5
56.5749,143.1
56.5979,319.5
56.6172,209.3
56.6173,203.3
56.6269,78.9
56.632,153.7
56.633,296.5
56.641,26.8
56.6429,135.6
56.6641,138.7
56.6778,352.6
56.7187,261.3
56.7401,100.3
56.7416,15.9
56.7442,29.7
56.7688,97.1
56.7738,297
56.7805,307.4
56.7825,107.2
56.7881,364
56.7954,571.3
56.8015,181.1
56.8062,251.9
56.8066,196.5
56.8083,531.6
56.859,525.8
56.8605,449
56.8648,267.5
56.8743,99.1
56.8894,146.3
56.907,103.6
56.913,164.2
56.9159,119.9
56.9277,17.5
56.9287,424.4
56.9342,119.4
56.939,553.3
56.9407,242.8
56.9485,689.2
56.9661,199.4
56.97,92.3
56.9909,247.6
56.9916,26.4
57.0534,195
57.0722,724.4
57.0732,197.1
57.074,227.1
57.1156,146
57.1331,461.6
57.1432,16.8
57.1468,112.3
57.1585,79.3
57.1649,123.7
57.1806,200.8
57.1884,106.7
57.1892,105.2
57.2259,215
57.2479,98.2
57.2576,108.7
57.2699,326.9
57.2737,433.3
57.3202,186.8
57.3344,150.1
57.3454,134.8
57.3799,314.1
57.382,212.2
57.3836,140.3
57.3868,360.8
57.4072,587.9
57.4247,148.3
57.4387,17.9
57.4424,480
57.4623,326.9
57.4848,404.3
57.4885,188
57.499,221.7
57.5079,104.3
57.5163,129.8
57.5168,223.6
57.5243,385.3
57.5265,17.3
57.5304,93.8
57.5338,272
57.5463,220.3
57.5548,306.5
57.5576,242.2
57.5681,110.6
57.6024,514.5
57.6286,288.9
57.6589,545.6
57.6622,16.7
57.6657,293.7
57.6684,338.3
57.6696,585.9
57.6857,16.4
57.6866,161.5
57.7155,265.8
57.7178,135
57.7264,151.7
57.7282,214.6
57.744,19.3
57.8136,90.9
57.8163,15.9
57.8204,124
57.824,544.4
57.8337,464.3
57.8389,200.8
57.8423,202.1
57.8447,209.8
57.8697,176.1
57.8713,199.3
57.881,192.6
57.8905,323.8
57.8925,157.2
57.9053,200.4
57.9372,195.9
57.9542,218.6
57.9568,110
57.9603,98.6
57.9618,191.3
57.97,333.3
57.9725,290.8
57.9784,150.8
58.0265,238
58.0334,28
58.0343,18
58.036,214.1
58.0538,146.6
58.0637,236.9
58.0686,394.4
58.0706,196
58.0725,141.9
58.0751,549.4
58.0777,130.3
58.0787,208.9
58.0878,248.2
58.0882,391.5
58.0891,305.6
58.106,308.4
58.1078,358
58.1198,107.1
58.1214,166.6
58.13,193.8
58.1363,148.5
58.1368,17.8
58.1554,224.6
58.1686,175.8
58.1723,490.7
58.1754,95.9
58.1793,17.4
58.192,19.1
58.2192,445.8
58.2306,171.2
58.2409,187.1
58.2459,549.6
58.2479,150
58.2523,183.9
58.2663,212.7
58.2752,107.1
58.2835,178.8
58.2978,116.4
58.3172,149
58.3329,519.9
58.3435,129.7
58.3503,127.3
58.3581,664.1
58.376,87.8
58.3823,174.9
58.3962,593.8
58.3983,160.5
58.3997,259.7
58.414,157
58.4208,634.7
58.4255,206.8
58.4278,249.6
58.4331,277.2
58.4463,18
58.4495,99.8
58.4543,212.3
58.4641,629.8
58.4789,349
58.4933,319.2
58.5072,81.2
58.5087,289
58.5173,226.2
58.5304,156
58.5438,15.7
58.5538,15.3
58.5546,19.7
58.5693,37
58.5994,216.8
58.6145,154.1
58.6149,532.9
58.616,101.3
58.6212,481.2
58.6433,281.6
58.6641,144.9
58.6672,578.2
58.685,155.2
58.6861,407.7
58.7126,158
58.7161,105.9
58.7455,157.8
58.7486,18.2
58.7567,136
58.7583,370.4
58.7663,463.7
58.7685,263.9
58.7759,211.1
58.7945,550.6
58.8093,93.3
58.8532,19.7
58.8581,18.8
58.8703,375.6
58.889,497.7
58.9065,270.6
58.9136,31.7
58.9191,469.1
58.9451,209.4
58.9495,92.6
58.9826,373.2
58.9835,19.6
58.9909,187.2
58.9936,157.1
59.0144,177.5
59.033,206.6
59.039,89.1
59.0405,142.4
59.0444,17.4
59.0539,95.8
59.0722,190.4
59.0767,382.6
59.0886,527.1
59.0896,122.7
59.0932,279.7
59.136,232.2
59.1427,97
59.1458,306.5
59.1469,105.3
59.1489,159.6
59.1744,173.5
59.1745,142.9
59.1805,217.1
59.1834,239.5
59.1894,134
59.1972,17.6
59.1989,80.7
59.2019,212.3
59.2185,443
59.2321,312.4
59.234,194.2
59.2425,213
59.2451,20.2
59.2602,180.8
59.2822,18.6
59.2864,127.3
59.3057,278.5
59.3158,379.4
59.3163,17.4
59.3222,414.4
59.3275,85
59.3289,16
59.33,155
59.3403,319.3
59.3469,605.8
59.369,231.1
59.3698,452.3
59.3716,144.2
59.3746,130.4
59.3784,375.7
59.3789,157.9
59.3862,624.1
59.3947,170.7
59.4158,108.9
59.4331,444.3
59.4347,207.4
59.4355,164.6
59.4386,400.1
59.4625,124.7
59.4778,512.1
59.4942,16.1
59.4971,712.3
59.5213,166.1
59.5233,259.3
59.551,464.6
59.5895,161
59.5914,161.7
59.5931,19.6
59.5995,373.5
59.6127,168.9
59.6155,140.4
59.6177,525.9
59.6184,198.6
59.6247,323.2
59.6362,223.3
59.6549,130.6
59.6587,476.8
59.6602,119
59.6644,86.5
59.6723,144.4
59.6781,152.1
59.6832,149.3
59.6968,343.4
59.716,229.5
59.7319,318.3
59.7479,192.6
59.7561,297.8
59.7573,469.9
59.7667,192.8
59.7699,163.2
59.7724,133.9
59.8111,185.7
59.8188,138
59.8193,110.1
59.8209,211.9
59.8284,200.3
59.845,181.7
59.8647,113.3
59.8709,78.6
59.8801,136.8
59.8858,146.5
59.8892,152.6
59.9071,110.6
59.9089,89.7
59.9203,84.3
59.9289,18
59.9379,850.6
59.9388,16.7
59.9404,206.2
59.9415,413.3
59.9492,211.5
59.9581,527.7
59.962,15.7
59.9642,108.7
59.967,243.6
59.9678,435.4
59.9699,18.8
59.9714,409.9
59.9733,227
59.9986,194.9
60.0121,217.4
60.0333,159.8
60.0345,193.6
60.0385,16.9
60.0513,252.9
60.0922,291.2
60.1076,417.5
60.1138,25.7
60.1205,28.9
60.1309,156.1
60.1418,313.3
60.1478,147.7
60.1608,81.5
60.1644,167
60.1846,231.1
60.1895,215.6
60.2109,387.5
60.2131,86.7
60.2363,400.6
60.2433,328
60.2438,16.8
60.2526,216.9
60.262,251.8
60.2773,394.3
60.3131,273.5
60.3209,161.7
60.3265,248.1
60.3306,418.8
60.3369,147
60.3386,125.7
60.3407,364.1
60.3421,165.3
60.3499,239.3
60.3553,16.4
60.3623,581.7
60.3674,100.9
60.3774,115.2
60.4017,108.7
60.4347,222.3
60.4424,87.7
60.453,104.3
60.454,504.7
60.4586,182.1
60.4685,412.1
60.4727,201.2
60.4758,146
60.4798,32.6
60.487,539
60.4914,149.3
60.4935,408.9
60.4944,493.8
60.496,109.9
60.4994,109.4
60.5087,264.9
60.5153,15.8
60.5252,155.5
60.5271,232.2
60.5287,238.6
60.539,115.4
60.5424,126.3
60.5479,722.5
60.5608,217.5
60.5673,183
60.5777,155.4
60.5807,184.3
60.5931,20
60.5991,389.5
60.6044,200.6
60.6137,263.6
60.6279,129.4
60.6324,751.1
60.6367,122.5
60.639,78.8
60.6553,692.8
60.6628,635.6
60.6801,814.7
60.6896,276.3
60.6946,104.9
60.7006,16.3
60.708,198.7
60.7232,18.3
60.7318,17.3
60.7394,194.7
60.756,228.9
60.7606,115.5
60.762,107.3
60.7656,285.7
60.7793,17.7
60.7857,927
60.7908,224
60.7923,207.8
60.7952,479.5
60.8062,15.6
60.8128,163.9
60.8134,158.3
60.8208,215.2
60.8222,197.7
60.8298,16.6
60.8326,686.7
60.8378,21
60.8401,172.2
60.8414,153.9
60.8422,237.7
60.8967,17
60.9092,143.1
60.9217,19.8
60.9227,458.8
60.936,207
60.9371,113.4
60.9563,336.3
60.9741,18.4
60.9903,187.7
61.0059,210.4
61.0094,229.5
61.0139,18.1
61.0228,87.5
61.086,189.6
61.0882,142.6
61.1077,191.8
61.1168,431.2
61.1489,124
61.1581,122.6
61.1717,440
61.1806,18.3
61.1942,134.8
61.1973,400.8
61.2162,374.5
61.2396,22.5
61.2525,326
61.2855,164.8
61.3043,151.2
61.3175,146.8
61.33,272.7
61.3616,121.1
61.3859,226.6
61.3906,412
61.4322,173
61.4342,365.6
61.4395,17.6
61.452,125.4
61.4844,398.9
61.4962,269.2
61.5019,204
61.5139,412.1
61.5204,330.1
61.521,331.4
61.551,112.3
61.5914,257
61.5969,155.1
61.6037,204.9
61.6083,725.9
61.6421,580.7
61.658,99
61.703,138.3
61.7238,366
61.7824,382.9
61.7869,167.8
61.8083,81.3
61.8108,216.2
61.812,89.6
61.8168,652.2
61.8274,407.8
61.8393,324
61.868,397.6
61.8758,533.4
61.8797,100.9
61.8904,207
61.9065,336.5
61.9189,105.2
61.9299,208.6
61.9521,659.8
61.9546,210.5
61.9601,211.7
61.9712,240.4
61.9893,302.1
61.9984,106.7
62.0076,90.4
62.0154,295
62.0236,104.1
62.033,221.5
62.0361,208.6
62.0549,17.4
62.0773,298.5
62.085,518
62.0883,548.8
62.1089,349.7
62.1165,18.4
62.1177,127.1
62.1187,117.3
62.1214,32.4
62.1322,217.7
62.1376,119.5
62.1482,381.9
62.1576,20.1
62.1712,247.8
62.181,124.9
62.1845,93.6
62.1937,242.4
62.2019,18.8
62.2118,468.9
62.2147,111.5
62.2297,426
62.2564,91.3
62.2701,17.5
62.2994,118.2
62.302,160.1
62.3146,133.2
62.3284,268.8
62.3513,136.8
62.3523,415.9
62.3532,18.7
62.363,104.9
62.3666,292.6
62.3851,120.1
62.3879,87.6
62.4064,442.3
62.4088,383
62.4123,107.4
62.4145,117.9
62.4183,562.1
62.466,384.3
62.4856,504
62.4879,81.8
62.4903,632.4
62.4951,20.4
62.5051,645.4
62.5115,99.2
62.5429,18.1
62.5632,105.6
62.567,195.7
62.5757,139.2
62.5764,19.5
62.5771,651.2
62.5836,27.3
62.6135,538.9
62.6326,331.2
62.6377,86.5
62.6425,287.5
62.6488,521.6
62.6609,227.8
62.6663,165.2
62.6674,562.8
62.6924,203
62.7031,90.5
62.7234,151.3
62.7263,193
62.753,141.5
62.7579,131.4
62.8064,18.7
62.8225,220.3
62.8348,228.6
62.8531,187.4
62.8731,308.4
62.8753,280.6
62.8852,140.1
62.8942,18.9
62.9119,210.5
62.9212,105.1
62.9377,257.6
62.9388,30.7
63.0067,130.3
63.0083,184.1
63.0153,90
63.0237,17.2
63.0283,144.9
63.0637,118.7
63.0659,268.5
63.0671,325.9
63.0705,16.6
63.0716,316.9
63.0783,535.3
63.084,467.1
63.1313,269.4
63.1387,158.7
63.1427,144.3
63.1507,439.7
63.1652,17.8
63.1709,219.6
63.1725,160.5
63.1816,285.9
63.2106,17.4
63.2231,17.2
63.2297,654.4
63.2688,99.8
63.279,259
63.2914,663.8
63.3012,16.8
63.3052,213.3
63.3087,227.3
63.3214,248.3
63.326,262.5
63.3302,825.3
63.3325,242.6
63.334,354.4
63.3952,270.3
63.4034,17
63.4163,18.7
63.4242,655.9
63.432,30.5
63.4423,327.1
63.4661,211.3
63.4693,495.5
63.4707,101.2
63.4797,97.2
63.482,156.3
63.4928,17.4
63.5023,228.3
63.5118,19.7
63.5163,20.3
63.5305,169
63.542,300.2
63.5635,303.4
63.57,99.7
63.5838,224.9
63.5991,110.2
63.6016,102.9
63.6156,20.6
63.6193,359.7
63.6258,152.9
63.6295,409.1
63.6476,17.5
63.6531,617.9
63.6607,16.1
63.6661,318.6
63.6956,277.3
63.6982,121.4
63.7039,144.8
63.7054,235.3
63.7222,516.1
63.7359,298.4
63.7601,28
63.7658,19
63.7835,361.5
63.7894,101.8
63.7917,397.8
63.8002,142.7
63.804,203.8
63.8111,298.2
63.8871,196.2
63.889,16.5
63.9124,285.4
63.9187,421.8
63.9475,245.2
63.9533,92
63.9543,177.2
63.9639,377.6
63.9806,247.6
63.9821,166.1
64.0232,18.3
64.0254,515.4
64.0264,204.1
64.0307,163.5
64.0415,213
64.0474,278
64.0528,18.5
64.0712,474.2
64.0819,140.4
64.1046,850.6
64.1094,370
64.1179,18.8
64.1325,105.3
64.1385,265.8
64.1389,501.1
64.1753,200.9
64.1786,140.2
64.1848,318.6
64.1919,326
64.1952,988.1
64.1991,112
64.2225,173.9
64.2321,491.2
64.2353,151.7
64.2484,125.7
64.2552,156.2
64.2707,532
64.2756,121.8
64.2857,193.9
64.2924,193.6
64.3121,678.3
64.3192,154.9
64.3395,315.2
64.3439,229.2
64.3756,17.2
64.3761,126.3
64.3828,500.2
64.395,18.6
64.4171,144
64.439,18.1
64.4428,112.5
64.4443,104.6
64.4532,201.4
64.4756,16.1
64.4858,17.1
64.4957,170.6
64.5127,187
64.5316,170.3
64.547,240.9
64.5505,382.8
64.5588,470.8
64.5624,528.3
64.5746,371.6
64.6167,565.8
64.629,114.6
64.6487,297.6
64.6508,632.1
64.6616,154.3
64.6836,340.2
64.6974,29.1
64.7038,603.2
64.7182,29.2
64.732,16.6
64.7429,237.9
64.7474,427.8
64.7577,118.3
64.7697,212.3
64.7711,299.6
64.7729,278.1
64.7735,204.7
64.7796,560
64.8123,660.7
64.8416,242.4
64.8576,141.5
64.8583,678.8
64.8758,306.7
64.8825,305.8
64.8861,423.3
64.8867,254.1
64.8926,434.1
64.8947,521.5
64.9023,19.3
64.9098,192.8
64.911,18.8
64.9152,619.8
64.9206,31.5
64.9235,146.2
64.926,129.9
64.9326,335.7
64.9354,329.4
64.9447,271.3
64.965,17.4
64.9724,15.6
64.983,163.7
64.991,282
65.0145,300.9
65.0151,333.3
65.0196,384.6
65.0341,180.1
65.0405,229.7
65.0472,168.5
65.0478,306.7
65.0705,215.5
65.0884,224.8
65.0918,164.1
65.1205,21.4
65.1241,455.1
65.1247,561.7
65.1276,114.3
65.1392,332
65.1418,249.3
65.1802,157.1
65.2016,227
65.2023,140.6
65.2067,226
65.214,558.1
65.223,168
65.225,183.2
65.235,287.3
65.2469,462.7
65.252,242.5
65.2631,328
65.271,206.5
65.283,234.7
65.2882,230.8
65.3042,286.2
65.3165,489.3
65.3348,29.1
65.3423,31
65.3451,228.5
65.3457,122.1
65.3489,405.3
65.3601,36.5
65.4028,326.2
65.4138,456.3
65.4188,145.4
65.4236,120
65.4319,317.9
65.4366,151
65.4478,182.5
65.4858,15.8
65.4958,691.1
65.505,227.1
65.5069,156.3
65.5346,225.5
65.5372,324.2
65.5378,19.2
65.5395,315.1
65.562,103.6
65.5713,108.4
65.5763,143.9
65.6155,102.6
65.6469,473.9
65.6484,203.3
65.6534,321.8
65.6842,149.8
65.6864,229
65.7424,412.6
65.7607,18.7
65.7854,273.7
65.7887,142.8
65.7908,145.3
65.8008,14.9
65.8045,36.7
65.8224,346.6
65.8935,149.3
65.8953,211.2
65.8985,115.3
65.9171,330.7
65.9616,550.1
65.9639,111.4
65.9707,139.7
65.9832,19.9
65.9851,250.4
65.9858,19.8
65.9909,258.6
65.9996,394.1
66.0036,135.9
66.0139,448.9
66.0425,508.9
66.0481,582.8
66.0562,627
66.0851,130
66.0918,250.7
66.121,100.1
66.1365,18.8
66.1501,394.2
66.1665,188.9
66.1728,386.6
66.1923,214.7
66.2065,16
66.234,94
66.2417,549.5
66.2485,402.8
66.2606,183.8
66.2641,165.4
66.2835,422.4
66.2947,535.9
66.3376,350.5
66.3474,130.7
66.3605,716.6
66.3757,117.7
66.3781,168
66.3813,152.1
66.4139,398.5
66.4287,142.4
66.43,256.7
66.4503,115.3
66.4571,127.8
66.4587,193.6
66.4884,428.6
66.4885,412.9
66.4979,375.2
66.529,121.2
66.5314,159.5
66.5331,16.2
66.5337,138.6
66.5587,148
66.5826,785.4
66.6071,196.5
66.6165,347.4
66.6462,202.5
66.6745,231.7
66.6767,391.3
66.6825,15.2
66.6843,17.3
66.6925,100.2
66.6958,312.1
66.7079,296.5
66.7156,671.5
66.7353,267.1
66.7512,563.8
66.764,220.5
66.7843,505.9
66.7985,32.6
66.8291,236.1
66.8741,338.9
66.8862,165.4
66.8997,183
66.9029,18.3
66.9099,17
66.9117,82.6
66.9122,230.8
66.9214,367.8
66.9365,18.4
66.9411,172.6
66.9435,289.2
66.9515,111.2
66.9542,125.9
66.9571,18.6
66.9714,19.1
66.9726,301
66.9778,300.1
66.9924,134.3
67.0265,362.6
67.0464,160.7
67.0473,17
67.0479,100.4
67.0539,27.4
67.0654,99.4
67.066,19.7
67.0708,344.5
67.0812,250.2
67.0954,259.2
67.1035,477.2
67.1065,150.1
67.116,317.9
67.1213,554.9
67.1284,224.1
67.1342,217.9
67.1348,95.4
67.1575,206.2
67.1637,326.4
67.1746,16.5
67.1792,190.5
67.1825,15.4
67.1832,605.8
67.1838,571.5
67.1973,18
67.2137,308.6
67.2261,143
67.2278,105.7
67.249,118.2
67.2565,317.3
67.2669,157.1
67.2814,19.2
67.2904,19
67.3144,93.7
67.343,209.8
67.3701,158
67.3896,226.4
67.4032,498.8
67.4151,174.7
67.4216,142
67.427,156.4
67.4293,106.9
67.4418,354.3
67.4463,122.9
67.4913,299.6
67.5229,256.1
67.5334,527
67.5548,355.3
67.5846,269.9
67.613,263.5
67.6237,246.1
67.6333,211.7
67.6338,255.6
67.6646,209.4
67.6723,221.3
67.7,811.5
67.708,207.3
67.7095,158
67.7311,504.8
67.7693,346.3
67.7714,491
67.7743,310.3
67.7778,149.2
67.7867,39.7
67.8008,208
67.8056,17.6
67.8079,343.1
67.8169,110
67.8305,547.3
67.836,343.6
67.8614,31.3
67.866,39.6
67.8679,17.1
67.88,106.6
67.8956,224.2
67.911,583.1
67.9434,612.6
67.9482,425.8
67.9524,190.3
67.9826,95
68.0019,27.5
68.0334,666.9
68.0668,162.9
68.0856,403.8
68.0936,668.8
68.1099,217.8
68.1274,290.4
68.1644,338.5
68.1875,345.8
68.1948,145.3
68.2054,16.3
68.2143,293.7
68.2738,490.4
68.2892,17.8
68.3104,135.9
68.3133,307.8
68.3245,192.3
68.3369,106.7
68.3382,113.9
68.3413,181.7
68.3622,386.3
68.368,248.8
68.3888,260.4
68.4008,213.8
68.4045,20.7
68.4128,512.1
68.4189,19.1
68.4206,123.5
68.4241,143.4
68.4327,827.3
68.4398,165.1
68.4566,235.1
68.5053,106.5
68.5145,313.5
68.516,398.9
68.5253,335.2
68.5434,87.9
68.5505,249.6
68.5526,21.9
68.5562,188.9
68.58,107
68.6018,227.1
68.6078,153.6
68.6102,117.7
68.6186,226.8
68.6366,148.5
68.6384,156.1
68.6658,272.8
68.6729,207.4
68.6782,252.1
68.6986,17.5
68.728,17.7
68.7382,157.6
68.7388,639.9
68.8054,225.6
68.8639,16.2
68.8652,111
68.9033,246.2
68.9142,18.3
68.9175,157
68.9439,336.9
68.947,99
68.9529,151.5
68.9546,37.4
68.9731,18.6
68.9989,17.5
69.0657,197.4
69.0729,18
69.0749,293
69.1053,134.1
69.1288,396.5
69.1296,106.8
69.1322,18.4
69.1731,214
69.1773,456.9
69.18,116.8
69.1845,177.2
69.2097,587.6
69.2153,161.3
69.2264,344.3
69.2299,355.4
69.296,19.3
69.2978,272.8
69.322,22.3
69.3377,141.3
69.3874,252.5
69.3894,94.5
69.3924,197.2
69.4122,195.7
69.4153,355.1
69.4222,283
69.4241,105.3
69.4359,164.9
69.4364,494.8
69.4397,630.5
69.4449,639.8
69.4519,366.7
69.4693,215.6
69.4711,111.3
69.4859,108.9
69.5017,138.9
69.5036,209.9
69.5136,17.9
69.5284,315.8
69.5303,633.8
69.5326,109.6
69.5458,160.4
69.5512,462.9
69.5648,17.1
69.5749,223.3
69.5908,237
69.6431,210
69.6567,277.8
69.663,309.2
69.6762,699.2
69.6774,126.8
69.6895,350.4
69.7453,189.5
69.7558,628.2
69.7649,372.7
69.768,534.3
69.7754,18.6
69.7802,481.7
69.7962,214.2
69.8014,18
69.8061,382
69.809,393.7
69.8147,118.8
69.8322,225.7
69.846,289.1
69.8517,246.4
69.866,132.2
69.8937,797.6
69.9257,232.8
69.9328,161
69.9594,245.6
69.9692,408.9
69.9706,207.6
69.9904,107.9
70.0079,137.6
70.0106,117.5
70.0148,17.5
70.0208,379.6
70.0317,90.9
70.0497,118.5
70.0515,111
70.0648,401.5
70.0779,295.5
70.0913,125.4
70.1017,359.5
70.1223,121.9
70.1343,237.7
70.1478,341.2
70.1493,216.1
70.1504,110.8
70.1714,259.6
70.1851,126.5
70.204,150.4
70.2312,482.8
70.2498,297.8
70.2614,515.5
70.2666,647
70.2919,554.6
70.2955,576.1
70.3009,120.9
70.3452,182.1
70.3502,344.9
70.3583,158.8
70.3788,155.7
70.3888,365.6
70.3961,227.9
70.4037,143.7
70.4199,18.3
70.4263,85.2
70.4405,271
70.4415,619.1
70.4732,410.6
70.4828,761.4
70.4835,146.9
70.4959,139.9
70.5161,128.4
70.5391,125.5
70.5636,115.1
70.5682,119.8
70.5848,683
70.5896,504.5
70.5918,707.1
70.6144,18
70.6261,18.8
70.6279,31.4
70.6307,17.6
70.636,687.5
70.6787,251.3
70.7029,243.4
70.7074,232.5
70.717,119.3
70.7189,728.7
70.7292,272
70.7311,91.6
70.747,140.7
70.7516,206.5
70.7745,314.4
70.7815,134.2
70.8008,147.6
70.8093,18.1
70.8144,233.3
70.8657,137.4
70.923,97.9
70.9307,413.4
70.947,323.3
70.9565,475.6
70.9748,103.4
71.0004,136.1
71.0054,151.7
71.0128,199.8
71.0142,17
71.0474,314.2
71.081,104.1
71.093,101.2
71.0956,18.3
71.1179,265.4
71.12,32.2
71.1228,98
71.1313,692.1
71.1342,291.6
71.1512,123.1
71.1575,333.8
71.1586,276.9
71.1825,153.8
71.2433,562.1
71.2455,118
71.2482,16.2
71.2588,202.8
71.2927,187.7
71.2979,211.3
71.3152,763.2
71.3168,97.8
71.3259,147.5
71.3352,249.5
71.3366,349.5
71.3536,519.5
71.3715,104.9
71.4046,340.7
71.4212,133.9
71.424,357.6
71.4459,145
71.4517,729.2
71.4594,162.9
71.4892,147.4
71.4922,214.5
71.5049,187.2
71.5172,329
71.5382,119.8
71.5413,19
71.5488,20.6
71.5693,30.4
71.5737,17.9
71.6188,234.7
71.6239,173.8
71.6375,138.3
71.643,138.6
71.6614,108
71.6686,98.9
71.6732,16.5
71.6826,147.5
71.6884,125.8
71.7214,374.2
71.7448,156.6
71.7515,185.8
71.779,281.1
71.787,485.9
71.7999,391
71.8188,232.9
71.8246,122.7
71.8463,167.6
71.8654,113.6
71.8896,487
71.8929,218.3
71.9113,246.8
71.9218,227.8
71.9227,395.9
71.9257,189.5
71.9498,264.7
71.9607,404.8
71.9633,203.9
71.968,171.8
72.009,957.6
72.0277,122.8
72.0287,163.8
72.0331,135.4
72.0506,619.1
72.0662,151.4
72.0741,243.1
72.0804,608.3
72.0926,294.2
72.0939,205.6
72.1134,203.6
72.1265,209.5
72.1375,625.9
72.1503,126
72.1569,577.8
72.2183,104.2
72.2194,415
72.2215,153.3
72.2223,638.3
72.2252,855.2
72.2261,684.5
72.227,1226.9
72.2279,1935.4
72.2284,1363.5
72.2296,1690.3
72.2303,1707.5
72.2328,2403.8
72.2333,1567.6
72.2339,2358.7
72.235,1686.9
72.236,2415.3
72.2375,4538.4
72.2381,2822.3
72.2384,3191.6
72.239,2396
72.2408,3553.5
72.2418,2463
72.2436,1516.6
72.2449,702.9
72.2458,992.5
72.2468,1302
72.2475,805.7
72.2498,701.9
72.2511,296.7
72.2549,116.7
72.261,202.1
72.3044,338.5
72.3067,201
72.3443,304.7
72.3602,167.8
72.3744,96.7
72.3816,182
72.405,141.9
72.4156,178.8
72.4177,214
72.4309,690.8
72.4429,155.7
72.4515,217.5
72.4547,327.8
72.5099,629.8
72.5119,18.9
72.5153,237
72.5342,281.5
72.5426,18.2
72.5478,223.6
72.5927,18.2
72.6004,197.8
72.6215,98.5
72.667,149.8
72.6722,661.3
72.6891,27.3
72.6998,112
72.7046,220.7
72.7126,498.9
72.7489,172.6
72.7546,165.7
72.7932,89.3
72.8097,17.2
72.8637,211.7
72.879,207.3
72.8817,530.5
72.9193,269.6
72.9246,657.9
72.9368,725.8
72.9512,885.7
72.9549,242.8
73.0279,254.8
73.0756,217.2
73.0873,607
73.101,17.3
73.1098,93.5
73.1124,100.2
73.1181,272.3
73.1292,16
73.1378,110.4
73.1444,325.1
73.1614,827.2
73.1696,130.9
73.1973,319.8
73.2205,413.5
73.2211,117.8
73.2596,170.9
73.2696,83.4
73.2797,342.9
73.2899,184.9
73.295,343.4
73.3015,221.5
73.328,172.1
73.3314,117.1
73.3345,141.9
73.3855,345.4
73.39,206.2
73.3996,116.1
73.4009,28.9
73.4028,559.5
73.4038,120.3
73.4044,219.5
73.4144,159.1
73.4185,138.6
73.4303,226.8
73.4447,131.8
73.4744,491.9
73.478,606.1
73.4861,18.4
73.502,241.9
73.5532,245.7
73.5685,438
73.5698,493.3
73.5719,23.2
73.5732,111.3
73.586,181.7
73.5955,145
73.6458,190.2
73.6626,408.7
73.684,152.8
73.6907,16.2
73.703,88.7
73.7146,188.7
73.7268,394.8
73.736,113.3
73.7865,627.6
73.796,238.8
73.8214,15.1
73.8424,17.4
73.8716,588.2
73.8761,243.2
73.8771,238.7
73.8816,417
73.8875,17.5
73.8929,158.1
73.8957,17.2
73.9139,215.2
73.9415,663.1
73.9471,146.9
73.9622,18.8
73.9633,783
74.0529,207.8
74.0598,1288.6
74.0613,250.6
74.0715,204.8
74.0743,162.8
74.0839,152.5
74.0852,720.5
74.0863,479.3
74.1056,112.8
74.1084,35.6
74.1104,154.3
74.1173,333.8
74.1281,599.2
74.1426,283.3
74.1654,234
74.1671,154.9
74.1788,190.3
74.1924,207.2
74.2081,212.6
74.2139,112.3
74.2152,142.3
74.2221,239.3
74.2349,161.7
74.2488,110.2
74.257,305.8
74.2761,606.3
74.2837,15.7
74.2915,109.7
74.3034,95.5
74.3453,277.6
74.3462,655.5
74.3555,18
74.368,263.6
74.3956,632.1
74.4167,17.6
74.4367,21.7
74.4395,175.6
74.4531,88.1
74.4581,200.5
74.4624,618.1
74.4675,423.7
74.4794,18
74.4922,404.8
74.5062,353.5
74.5097,189.6
74.5172,416
74.5315,167.8
74.5442,334.9
74.5449,17.9
74.5666,206.6
74.5826,335.2
74.5856,658.8
74.587,305
74.592,18.3
74.6122,186.7
74.6378,122.7
74.6517,99.3
74.6574,250.7
74.6677,30.8
74.6699,148.9
74.6816,209.1
74.7103,186.1
74.7655,304.7
74.7699,203
74.7744,134.2
74.7794,343.3
74.7833,416.8
74.7876,468
74.7936,331.9
74.801,224.8
74.8141,20.2
74.8178,82.4
74.8383,126.2
74.8537,99.2
74.8619,80.3
74.8626,105.4
74.8655,188.6
74.8663,164.3
74.8866,165.3
74.8875,16.2
74.9456,107.9
74.9477,124.8
75.0186,121
75.0222,128.4
75.035,18.7
75.0424,385.1
75.0503,215.9
75.0583,634
75.1057,184.4
75.1189,471.1
75.1541,113.7
75.1734,92
75.1759,21.8
75.1941,212.9
75.1987,303.8
75.2329,583.4
75.2566,139.5
75.2845,96.4
75.2879,171.2
75.2898,299.8
75.2968,82.4
75.319,623.7
75.3198,115.3
75.3298,107.7
75.3615,437.5
75.366,209
75.3791,325.6
75.3817,16.6
75.3924,134.5
75.3969,148.4
75.4092,113.1
75.4207,197.5
75.448,138.5
75.4968,197.1
75.507,210.6
75.5097,558.4
75.5113,195.9
75.5331,690.2
75.54,384.4
75.5427,18.6
75.5634,171.3
75.5713,235.9
75.5735,714.6
75.5917,402
75.6095,17.4
75.6236,398.5
75.6317,587
75.6456,227
75.6639,104.7
75.691,99.9
75.696,318.6
75.7,100.5
75.701,519.4
75.7063,125.4
75.7369,638.5
75.7417,17.4
75.7435,266.4
75.7483,214
75.7493,378.5
75.7646,99.8
75.771,164.4
75.7931,19.4
75.806,16.1
75.8402,219.8
75.8638,16.8
75.8652,165.8
75.8706,85.8
75.8773,636.8
75.8804,207.9
75.8968,436.3
75.9102,99.3
75.9191,353.7
75.922,783.4
75.9538,148.2
75.9724,152.9
75.9977,304.6
76.0222,144.6
76.0456,155.1
76.0532,262
76.0617,123.6
76.0641,96.9
76.0994,154.5
76.1005,306.5
76.1044,153.5
76.1215,16.7
76.1233,423.6
76.1479,17
76.1634,112.6
76.1692,122.2
76.176,709.1
76.1822,125.6
76.2247,217.5
76.2304,153
76.2725,119.8
76.2777,327.8
76.2831,167.5
76.2843,97.6
76.3068,21.6
76.3232,407.1
76.3365,230.5
76.3658,398.1
76.376,217.9
76.3818,16.4
76.3919,145.6
76.3944,116.3
76.4097,396
76.4128,85.9
76.4408,224.6
76.4494,19.4
76.4688,16.9
76.4872,443.2
76.4903,395.9
76.4969,138.1
76.509,18.5
76.5099,341.6
76.5439,411.7
76.5783,144.7
76.6292,182.5
76.6397,18
76.6468,357.2
76.6911,303.9
76.7261,322.3
76.7287,438.7
76.7318,119.7
76.7338,189
76.7507,445.6
76.7586,292.4
76.7607,424
76.7948,222
76.7958,19.2
76.8006,228.9
76.8036,302.9
76.816,230.2
76.8171,297.7
76.8253,119.5
76.8381,17.7
76.8492,145.7
76.8607,287.2
76.8723,450
76.879,154.9
76.9272,17.7
76.9431,116.5
77.0092,296.2
77.0112,587.2
77.0285,431.5
77.0339,193.2
77.035,35.2
77.0363,21.5
77.037,99.1
77.0383,103261.7
77.0406,198.6
77.0636,124
77.0655,145.3
77.077,16.4
77.0886,189.5
77.0936,410.5
77.148,501.1
77.1752,108.2
77.1947,275.1
77.2424,301.5
77.2441,111.7
77.2739,386.3
77.2766,16.8
77.3023,689.9
77.3114,384.4
77.3146,263
77.3186,95.1
77.3277,123
77.3374,16.8
77.3507,227.4
77.3672,17.5
77.3747,88.9
77.3917,123.6
77.3993,430.7
77.4066,230.1
77.4607,412.3
77.4715,160.1
77.4771,485.7
77.479,232.8
77.4822,354.7
77.4896,744.7
77.4949,197.4
77.53,535.7
77.5537,206.1
77.5641,16.5
77.5663,16.9
77.5694,267.1
77.5847,289.2
77.5924,18.6
77.5941,264.6
77.5984,457
77.6102,230.6
77.6339,117.4
77.6594,251.1
77.6631,122.5
77.6743,271.4
77.6773,18.6
77.718,113.7
77.7187,284.1
77.7193,550.3
77.7266,203.8
77.7379,637.3
77.8954,336
77.8972,831.2
77.9452,106.4
77.9472,726.7
78.0147,17.8
78.0215,233
78.0405,226.3
78.0416,3463.3
78.0454,19.3
78.0664,223.3
78.0977,98.5
78.1041,283.8
78.1628,16.5
78.2013,264.3
78.2079,137.9
78.228,180.4
78.2403,767
78.298,635.6
78.3019,706.1
78.309,160.2
78.3294,181.6
78.343,317.9
78.3491,140.2
78.3569,20.5
78.3984,199.4
78.4024,397.9
78.4116,260.6
78.421,96.5
78.4442,100.6
78.449,652.3
78.4562,125.7
78.4686,16
78.4709,257.6
78.4866,437.4
78.4937,211
78.4971,202.5
78.5058,186.5
78.5075,320.9
78.5424,291.3
78.5557,367.6
78.5589,17.2
78.5645,340.4
78.5694,112.7
78.6185,512.3
78.6365,404.5
78.6569,373.9
78.6595,152.5
78.6615,325.3
78.6643,33.7
78.6673,220.3
78.6875,143.7
78.7254,242.6
78.7442,105.8
78.7666,273.3
78.7762,115.9
78.7839,301.5
78.7989,161.3
78.8442,364.8
78.8453,223
78.8894,710.2
78.9416,400.7
78.9483,19.3
78.9541,203.8
78.958,444.9
78.9613,114
78.9707,254.6
78.9968,106
79.0471,261.2
79.0539,1434.2
79.0665,17.3
79.0741,762.5
79.0891,150.4
79.1004,99.4
79.1168,146
79.1206,415.6
79.1248,440.1
79.1305,163
79.1467,18
79.148,193.8
79.169,392
79.1729,774
79.1758,90.5
79.1775,224.3
79.1802,210.4
79.194,114.3
79.196,552.8
79.203,146.4
79.2146,403.1
79.2236,299.5
79.2268,122.3
79.2975,84.6
79.3123,129.2
79.3199,224.9
79.3392,19
79.3524,18.8
79.3729,212.2
79.3763,83.2
79.3887,402.8
79.4431,18.5
79.4445,159.6
79.4516,138.5
79.4904,153.1
79.5062,160.6
79.5205,297.4
79.5319,17.3
79.5478,255.1
79.557,17.8
79.5654,438.4
79.5709,98.8
79.5819,166.1
79.5834,350.4
79.5863,524.4
79.6215,22.1
79.6347,183.4
79.6484,636.9
79.6612,996.8
79.6656,318
79.6926,174.2
79.6947,179.3
79.7043,596.1
79.7082,120.8
79.7302,234.9
79.7438,286.9
79.7941,92.6
79.7988,227.7
79.8459,262.4
79.8983,222.5
79.8999,342.7
79.9002,275.7
79.9035,468.4
79.9322,625.8
79.9374,163.1
79.9381,115.8
79.9473,24
79.9627,100.5
79.9798,233
79.9965,478.1
80.0069,18
80.0081,18.3
80.0244,654.8
80.0336,214.2
80.0346,113.6
80.0364,255.6
80.0492,17.2
80.0572,20
80.0587,201.6
80.0639,695.1
80.0779,477.7
80.0992,18
80.1011,203.8
80.1059,147.1
80.1112,153
80.1119,362.4
80.1148,129.8
80.1202,227.9
80.1228,766.7
80.1321,145.4
80.1332,188.2
80.1607,16.4
80.1981,226.9
80.2172,132
80.2378,288.7
80.2729,243.1
80.2846,229.4
80.297,224.6
80.3052,160.9
80.3158,18
80.3187,213.3
80.3211,624.4
80.348,145.7
80.3489,609.5
80.3631,159.9
80.3741,104.2
80.3777,131.4
80.3854,99
80.4203,134.9
80.4389,92
80.4656,238.8
80.4765,487.7
80.5288,303.7
80.5431,571.7
80.5467,20.8
80.5531,166.7
80.5854,384.8
80.6255,211.9
80.6395,185.9
80.6708,15.9
80.6818,587.4
80.6887,22.9
80.692,286.8
80.7011,198.4
80.7033,631.2
80.7053,353.7
80.7245,116.1
80.7451,654.5
80.7824,17.1
80.8071,215.1
80.8099,145.2
80.8134,124.1
80.8217,30.1
80.8229,821.3
80.8362,163.6
80.844,21.3
80.854,15.9
80.8875,149.6
80.8889,284.6
80.9009,235.2
80.9064,223.1
80.9078,257.1
80.9213,223.1
80.9476,48380.8
80.9642,670.5
80.9819,199.8
81.0373,378.6
81.0696,1305.1
81.0839,630.9
81.0852,163.5
81.1596,590.4
81.1623,112
81.1686,168.4
81.1724,370.2
81.1738,339.2
81.1762,758.2
81.177,1046.8
81.1778,800
81.1794,272.8
81.1824,123
81.1835,156.5
81.2004,401.2
81.2651,266.7
81.3031,105.2
81.3232,28.2
81.3243,181.4
81.3265,313.8
81.3602,222.2
81.379,167.4
81.3798,681.4
81.4026,720.6
81.4303,246.4
81.4566,173.5
81.4745,197.4
81.5057,386.4
81.5183,159.1
81.5217,184
81.5225,20.8
81.5402,29.4
81.5519,105.9
81.5735,383.2
81.5947,16.3
81.5948,16.3
81.6041,1062.3
81.6173,255.2
81.6239,328.1
81.6456,300
81.6569,618.5
81.6961,322.3
81.7614,100.1
81.762,17.8
81.7897,262.6
81.7983,252.3
81.8388,260.6
81.8491,224.9
81.8589,286.9
81.8834,244.2
81.8876,175.3
81.8931,226.8
81.9115,320.5
81.923,89.4
81.9347,348.4
81.944,242.7
81.9493,352.5
81.9642,466.9
82.0192,226.5
82.053,104.6
82.0541,443.2
82.0587,94.2
82.0923,31
82.0945,159.5
82.0956,108.2
82.1166,150.6
82.1412,368.4
82.1509,132.9
82.1658,225.3
82.1828,547
82.2074,16
82.2112,261.2
82.2336,206
82.2364,148.1
82.2986,634.5
82.3293,369.7
82.3411,199.6
82.3413,193.8
82.3415,161.9
82.3486,618.4
82.3582,451
82.3647,548.6
82.3736,637.4
82.3756,165.3
82.3766,378.9
82.3832,646.5
82.3987,369.9
82.411,106.4
82.4731,112.2
82.4808,306.3
82.5032,120.8
82.5277,155.4
82.5466,278
82.556,334.6
82.5704,200
82.5776,152.9
82.5853,472.9
82.5869,243.7
82.6109,297.4
82.6646,233.6
82.6899,157.2
82.6961,132.7
82.7003,279.8
82.7232,242.9
82.7248,206.6
82.7329,164.3
82.7537,18.6
82.7711,159.4
82.7899,93.3
82.796,211.8
82.7996,101.9
82.8044,160.3
82.8089,640.1
82.8119,18.6
82.8268,203
82.8666,303.3
82.9081,112.2
82.935,304.6
82.9446,13477.3
82.95,588.5
82.9655,215
82.9874,708.7
83.0116,314.7
83.0184,18.9
83.0214,255.2
83.0256,611.7
83.0285,99.2
83.0658,148.2
83.0802,381
83.1028,469.2
83.1372,564.3
83.1413,17.9
83.1478,20.4
83.156,19.9
83.2254,170.2
83.2377,101.1
83.2478,114
83.2582,102.8
83.2617,670.6
83.285,136.1
83.2925,624.5
83.3026,254.3
83.3034,17.1
83.3056,437.4
83.3335,238.6
83.337,144.9
83.3423,145.7
83.3679,149.2
83.3957,379.8
83.418,156.8
83.4311,359.3
83.4387,96.9
83.4973,445.7
83.5083,350
83.5421,97.4
83.5541,19
83.5597,17.5
83.5617,450.2
83.6073,148.1
83.6337,204.7
83.6349,240
83.6652,325.3
83.6683,200.9
83.6731,32.8
83.7058,276.2
83.709,577.5
83.7189,172.2
83.7217,135.1
83.723,27.9
83.7934,228.2
83.8016,398.9
83.8051,122.9
83.8358,211.6
83.859,111.5
83.8697,370.6
83.8862,258.5
83.8924,88.5
83.9339,222.7
83.9389,235
83.9464,16.7
83.9734,198.1
84.0145,115.6
84.0189,376.1
84.0201,31.3
84.044,349.6
84.0653,137.5
84.0955,21.4
84.1163,210.9
84.1179,111.8
84.1354,848.1
84.1552,207.6
84.2052,306.6
84.2447,105
84.3219,105.8
84.3248,126.4
84.3597,145.3
84.4062,166.1
84.4102,213.8
84.4213,221.4
84.4266,218.3
84.4275,708.7
84.4611,110.8
84.4989,215.8
84.535,18.1
84.536,16.4
84.5386,20.6
84.5508,501.2
84.5704,389.8
84.5899,310.5
84.5949,17.5
84.6035,367.1
84.608,219.4
84.609,417.5
84.6545,219.3
84.6818,103.7
84.7428,358.9
84.7545,313
84.7624,460.3
84.7843,325.9
84.8086,145
84.8525,287.8
84.8571,194.5
84.874,126.2
84.911,17.7
84.9429,134.2
84.9594,16493.2
84.9756,349
84.9828,17.5
84.9847,165.1
85.0034,33
85.0171,255.1
85.0219,484.7
85.0236,106
85.0281,4685.2
85.0324,123.2
85.0373,380.3
85.0769,22.5
85.0784,218.3
85.0883,180.7
85.0937,263.8
85.0966,110.8
85.0979,376.9
85.0993,18.1
85.1052,114.8
85.1479,280.6
85.1568,340.1
85.1641,463.3
85.1704,107.8
85.1776,17.9
85.2109,17
85.2174,17.6
85.2337,125.1
85.3339,104.8
85.3404,218.1
85.3608,158.2
85.379,94
85.4217,18.3
85.4639,146.7
85.4659,110.1
85.4674,354.4
85.5222,20.2
85.5388,368.6
85.5497,96.8
85.5653,94.3
85.5704,208
85.6326,20.2
85.6586,362.4
85.6993,162.2
85.8408,165.3
85.8625,112.8
85.8776,132.7
85.9028,143.6
85.9658,241.3
86.0194,256.9
86.0518,100.6
86.0579,248.8
86.0598,18480.9
86.0779,94.4
86.0907,24.8
86.0962,108164.2
86.1756,125.7
86.1802,17.5
86.1851,176.1
86.2142,167
86.2157,124.4
86.2249,31.9
86.2261,291.1
86.2317,218.5
86.2378,634.9
86.2621,260.3
86.2755,124.4
86.279,712.6
86.3174,117.8
86.3257,214.7
86.3637,137.3
86.3893,89.3
86.394,586.3
86.3957,336.7
86.4025,21.6
86.426,233.1
86.4764,18.8
86.4925,363.4
86.5122,214.2
86.5245,257.7
86.5284,218.1
86.5566,356.2
86.5646,382.2
86.5741,497
86.6376,18.9
86.643,127.7
86.6745,230.1
86.7216,338.8
86.738,114.2
86.7842,753.2
86.7896,168.1
86.8019,316.8
86.8326,19
86.8854,176.1
86.906,18.3
86.9326,235.3
86.9405,248.5
86.9525,21.4
86.9578,116.4
86.9903,112.6
87.0258,642.9
87.0277,19.3
87.0412,287.6
87.0476,290.5
87.0692,597.9
87.0838,377.8
87.0864,672.4
87.0947,201.5
87.0996,1350.8
87.1113,163.6
87.1215,416.4
87.1369,319.8
87.1395,148.9
87.1585,304.6
87.1826,339.6
87.2309,628.2
87.2349,17.8
87.2401,29.7
87.2523,194.8
87.2663,95.7
87.2752,99.6
87.2823,85.9
87.3416,303.3
87.3917,501.7
87.4165,18
87.4256,119.1
87.4618,230.3
87.4681,315.5
87.4852,236.6
87.5177,229.7
87.5231,164.2
87.584,137.4
87.5872,219.6
87.5926,348.1
87.6086,157.6
87.6633,17.8
87.6876,110.6
87.716,324.1
87.7229,166.5
87.7378,343.2
87.739,149.4
87.7491,612.3
87.7651,153.5
87.7763,209.1
87.7777,407.2
87.7983,427.4
87.8308,335.9
87.848,337.5
87.8841,336.8
87.8871,420.6
87.8926,109.7
87.9406,393.8
87.9702,20.6
87.9779,19.6
87.9929,305.4
88.0138,596.8
88.0155,435.1
88.0181,410.2
88.0391,3219.5
88.0434,239.4
88.0448,20.7
88.0667,253.4
88.0838,654.6
88.0842,691.7
88.0896,18.1
88.1041,18.6
88.1099,612.5
88.1107,288.7
88.1809,194.8
88.196,171.1
88.2149,744.1
88.2411,301.2
88.2936,452
88.2947,175.5
88.3076,132.5
88.3301,396.6
88.3455,558.1
88.3594,234.1
88.3689,272.3
88.377,373.8
88.4001,398.4
88.4107,245.4
88.4239,94.7
88.428,327.1
88.4539,16.4
88.4798,197.2
88.4937,224.3
88.5195,114.3
88.5718,596.9
88.5893,349
88.5999,303.9
88.646,431.2
88.6735,362.6
88.7625,158.2
88.7734,143.2
88.8228,602.8
88.8296,235
88.8965,399.6
88.9033,243.3
88.9393,17.1
88.9524,128
88.9908,403.2
88.9953,156.3
88.9975,17.4
89.0065,266.7
89.0069,241.8
89.0093,469.6
89.0256,582.4
89.0444,235.1
89.0504,491.9
89.0595,23
89.0637,34.9
89.0697,247
89.0722,268.2
89.0801,111.2
89.0926,681.9
89.101,151.1
89.1119,348.2
89.1198,357.4
89.1482,159.8
89.1957,170.8
89.2337,115.5
89.2427,239.3
89.261,107.7
89.2677,230.1
89.2951,291.6
89.3398,311.4
89.3565,125.7
89.4041,343.2
89.4358,108
89.4694,246.6
89.4824,634.3
89.4863,17.5
89.5014,584.1
89.5161,761.6
89.5238,139.2
89.5254,127.3
89.5287,485.4
89.5417,632.8
89.5519,312.1
89.5627,271.7
89.5682,111.6
89.5952,386.3
89.6018,20.6
89.6104,92.9
89.6126,326.4
89.6911,16.4
89.7124,132.5
89.7407,121.5
89.7421,611
89.7466,17.7
89.7716,648.3
89.7853,159.2
89.8105,245.9
89.8226,275.7
89.8625,310.1
89.9012,240.5
89.9231,220.8
89.9232,223
89.9333,374.5
89.9635,437.4
89.9685,535.4
89.9717,345.8
89.9726,187.4
89.9753,343.2
90.0053,447.3
90.0264,176.6
90.0577,200
90.0932,138.9
90.096,375.4
90.1076,218.4
90.1231,133.1
90.1397,700.4
90.1439,200.2
90.1451,577.5
90.1575,110
90.1665,535.9
90.2091,162.3
90.2154,292.4
90.2232,487.2
90.2444,368.6
90.2485,136.3
90.3175,219.5
90.346,434.7
90.3476,229.6
90.3575,218.1
90.387,275.9
90.404,280.1
90.4268,677.7
90.4434,437.1
90.4481,256.1
90.4765,702
90.4842,198
90.4975,145.5
90.5133,152.3
90.5586,532.5
90.5765,18.5
90.5895,149.3
90.603,21
90.6037,298.9
90.6396,628.8
90.6546,100.8
90.6978,20.4
90.7245,689.6
90.7304,20.5
90.7538,125.5
90.8171,562.8
90.8642,416.7
90.8717,117.9
90.8835,238.2
90.8919,114.8
90.903,384.8
90.9118,326.3
90.9208,180.1
90.9211,186.8
90.9312,218.8
90.9437,17.5
90.9475,3192.7
90.9681,18.7
90.9764,9416
90.9978,251.9
91.0511,212
91.054,1927.5
91.0594,108.4
91.063,20.1
91.0684,939.9
91.0892,231.5
91.1054,118.9
91.1249,127.4
91.1274,121
91.1378,685.9
91.152,226.9
91.1562,336.6
91.1624,151.9
91.1684,17.1
91.1726,136.6
91.2102,30.6
91.2173,141.7
91.2389,19.2
91.2717,270.7
91.2948,296.7
91.3163,110.4
91.3335,219.4
91.3417,279.2
91.35,22.6
91.3606,109.4
91.3745,125.2
91.3765,216.6
91.3872,18.9
91.3914,134
91.3954,239.7
91.415,29.5
91.432,18.8
91.444,202.7
91.4471,293.9
91.4812,133.1
91.5158,191.1
91.5408,655.1
91.5692,93.1
91.6047,143.4
91.6193,579.7
91.6252,113.7
91.6386,137.3
91.6425,204.6
91.6473,119.6
91.6556,135.2
91.6576,17
91.6652,105.3
91.7266,395.1
91.8333,306.8
91.8756,161.7
91.8797,834.6
91.8824,278.1
91.8983,21.6
91.9137,108.2
91.9572,264.8
91.9929,592
91.9946,233.6
92.022,108.9
92.0234,294.6
92.0493,194.6
92.0589,21.7
92.1137,23.4
92.1454,215.8
92.1532,244.1
92.161,225.2
92.2608,20.1
92.302,157
92.3044,324.2
92.3058,246.3
92.3161,202.2
92.3208,116.4
92.3223,140.4
92.3233,233.3
92.3386,738.6
92.346,109.9
92.3579,197.3
92.379,253.5
92.384,110.7
92.4335,17.4
92.5985,291.2
92.6192,30.5
92.6307,104.3
92.65,283.1
92.6947,219.5
92.7029,173.5
92.7263,17.7
92.7605,115.3
92.806,215.5
92.8284,356.1
92.8337,482.9
92.8518,360.9
92.8884,224.9
92.8953,174.2
92.9001,74.8
92.9047,480.9
92.9147,209.3
92.9241,270.8
92.9268,220.2
92.9402,402.9
92.976,163.7
93.0049,91.5
93.0125,419.5
93.0247,248.5
93.042,482.3
93.0505,205.9
93.0572,20.7
93.1467,553.9
93.1525,16.9
93.1878,180.1
93.1913,218.3
93.2048,203.6
93.2118,377.6
93.2188,569.4
93.2223,28.1
93.2648,798.7
93.266,116.1
93.2786,715.8
93.2872,485.3
93.3024,701.8
93.3052,22.1
93.3102,507.1
93.3413,247.7
93.3424,306
93.4036,34
93.4129,166
93.4139,19
93.4201,662.5
93.4238,230.7
93.4337,224.1
93.4539,280.9
93.4817,208.5
93.5008,451.4
93.5362,126.4
93.6054,151.3
93.6752,20.5
93.7674,451
93.8465,193.6
93.8532,19.3
93.8581,97.4
93.8821,233
93.906,343.2
93.911,238.1
93.9309,532.3
93.9435,302.6
93.9779,266.3
94.0279,521
94.0376,18.4
94.0382,31.3
94.0411,53675.5
94.0537,580.2
94.1006,686.6
94.1068,18.6
94.1139,17
94.1246,336.6
94.1421,278.6
94.1533,226.9
94.2145,302.2
94.2243,222.9
94.2427,276.2
94.248,544.2
94.2713,21.8
94.316,298.4
94.3193,172.7
94.3333,115.8
94.3516,500.4
94.3634,16.9
94.3695,205.6
94.3705,113.9
94.3762,192.7
94.3852,147.8
94.4271,272.6
94.4467,106.1
94.4606,117.3
94.4621,20.7
94.476,764.1
94.4902,92.9
94.5133,261.6
94.5443,120.2
94.5769,242.9
94.6065,221.5
94.6089,199.8
94.6311,527.6
94.6367,199.3
94.6667,270.6
94.6698,383.4
94.6788,343.4
94.757,139.7
94.7768,354.8
94.7814,38.6
94.8218,240.7
94.8244,127
94.8789,330.5
94.9407,208.1
94.943,138.1
94.9724,506.7
94.9824,385.4
95.0125,18.6
95.0356,24
95.0389,20.1
95.0445,1003.8
95.047,84.4
95.0475,190.9
95.0489,379137.1
95.0513,28.7
95.0585,20.7
95.0854,442
95.0948,250.5
95.0973,150.7
95.1004,771.3
95.1043,240
95.1128,157.4
95.1669,314.4
95.1726,160.7
95.1778,207.5
95.1972,110.3
95.2112,191.4
95.2122,204
95.2221,722.1
95.239,162.2
95.2495,356.5
95.2515,245.9
95.2947,210.4
95.3552,19.8
95.3851,472.3
95.3894,17.8
95.4046,559.9
95.4317,33.8
95.4384,31.1
95.4783,534.3
95.5418,356.8
95.5599,139.5
95.561,687
95.5692,245.2
95.578,243.1
95.6102,129.9
95.6271,112.7
95.68,582.1
95.6887,264.7
95.6954,312.9
95.6996,273.5
95.7283,18.9
95.7991,160.2
95.8198,251.1
95.8423,235
95.8775,21.6
95.9726,281.6
95.9967,17
96.0048,142
96.0523,19224.9
96.0551,22.7
96.0698,318.8
96.0854,210.9
96.0864,91.9
96.1002,134
96.1053,303.4
96.1672,627.6
96.1972,195.3
96.2071,378
96.2183,500.7
96.2332,150.6
96.2432,327.7
96.2702,396.1
96.2731,117.9
96.3018,335.9
96.3145,89.2
96.3702,231
96.4058,139.6
96.4154,812.2
96.4528,19.5
96.4541,761.7
96.4753,293
96.5078,409.4
96.5222,177.1
96.5273,632.1
96.5497,17.7
96.5676,297.1
96.6145,117.8
96.6249,20.2
96.6524,17.2
96.669,453.7
96.6974,120.5
96.7149,158.5
96.7727,138.8
96.7858,118.9
96.7979,107.7
96.8075,104.1
96.9216,145165.9
96.9455,115.2
96.9794,440.9
97.004,552.8
97.0074,76.4
97.0087,20.5
97.021,174.6
97.0351,265.1
97.0532,43.9
97.0556,19
97.0649,18.4
97.0792,21.4
97.0799,243.8
97.0861,176.6
97.0902,348.9
97.0948,168.5
97.1009,106.2
97.1294,201.8
97.1998,404.1
97.2264,141.6
97.2356,127.8
97.2483,204
97.288,293.3
97.3332,219
97.3379,87.4
97.3511,216.9
97.3636,20.1
97.3732,17.4
97.3919,180
97.4497,360.4
97.4843,179.7
97.5165,19.2
97.5607,82.2
97.5985,414.7
97.6305,229.6
97.6321,120
97.6366,258.9
97.6753,18.9
97.6864,460
97.6948,436.3
97.698,241.4
97.8156,169
97.8427,116.9
97.909,102.6
97.9383,509.2
97.9803,109.1
98.0031,159.1
98.0097,356.1
98.0268,208.5
98.0647,264.8
98.0881,245.6
98.0965,17.1
98.1059,105.5
98.1306,488.4
98.1498,21.2
98.1769,242.8
98.1948,303.1
98.2617,161.8
98.2814,127.1
98.3406,17.7
98.3701,18.1
98.3926,133.3
98.4671,203.7
98.486,164.9
98.4944,135
98.5123,164
98.5451,215.6
98.5471,313.7
98.5639,89.9
98.5941,129
98.6168,110
98.6256,151.4
98.6567,359.2
98.662,108.4
98.6631,441.3
98.6722,17.4
98.6786,16.3
98.6966,195.3
98.7079,297.7
98.7217,128.9
98.7436,275.9
98.7581,120.7
98.7674,127.9
98.778,243.5
98.7926,204
98.7936,227.2
98.8021,102
98.8314,179.1
98.8763,19.9
98.8887,313.7
98.8936,17.7
98.9186,42203.7
98.9197,6978.7
98.9318,224.7
98.9555,659.1
98.9724,221.3
98.9738,36.7
98.9751,15061.5
98.9839,195.5
98.9952,18.3
99.0609,154.2
99.0641,34.2
99.0698,310.7
99.0719,341.2
99.0913,315.8
99.0973,249.7
99.0995,93.2
99.1031,291.6
99.1763,340.6
99.1906,19.9
99.2114,244.3
99.232,258.4
99.2684,376.8
99.28,369
99.2867,527.8
99.3014,306.4
99.3041,254.2
99.3097,262.3
99.3497,219.3
99.4139,17.9
99.4239,118.3
99.469,312.4
99.4727,114.6
99.4768,169.2
99.5071,216.1
99.5088,151.3
99.558,638.5
99.591,17.2
99.6041,222.7
99.6072,135.8
99.6111,223.9
99.6265,84.8
99.631,16.4
99.637,157.3
99.6445,17.3
99.6758,168.8
99.6902,520.5
99.72,422.5
99.7588,220.2
99.7688,16.4
99.7704,216.3
99.7811,421.8
99.7985,699.6
99.8188,211.6
99.8331,123.7
99.8443,401.3
99.864,948.4
99.893,35.7
99.9507,401.9
99.9527,312.5
99.9625,141.1
99.9769,184.1
100.0104,159.8
100.0268,17.6
100.0403,16.2
100.0423,242.2
100.0755,72
100.0864,101.4
100.0934,164.4
100.149,300
100.1895,754.3
100.2217,158.3
100.2612,194
100.2902,214.9
100.3,119.8
100.3119,125.8
100.3286,294.5
100.3298,223.1
100.35,106.8
100.4021,582.3
100.4122,333.2
100.4753,101.6
100.4764,343.1
100.4792,152.8
100.512,125.3
100.5177,553.8
100.5201,210.2
100.5439,240.4
100.5978,223.9
100.6265,183.6
100.6275,448.3
100.6535,361.9
100.7093,19.3
100.7281,122.6
100.7383,17.2
100.7423,187.2
100.8003,29.4
100.8263,20.5
100.8571,385.7
100.9048,16.9
100.9167,728.2
100.9355,663.9
100.953,256.2
100.967,349
100.9868,282
100.9956,227.1
101.013,714
101.047,652.2
101.1254,198.4
101.1391,253.1
101.1765,423.6
101.1814,571.9
101.1834,19.4
101.2561,154.9
101.2617,332.6
101.2818,259.7
101.2912,151
101.3156,119.8
101.3279,206.9
101.4226,119.7
101.5341,558.7
101.5354,97.6
101.5372,253.6
101.5476,19.7
101.6011,202.6
101.6186,120
101.6224,300
101.6523,826.4
101.6778,469.9
101.7253,20.2
101.7269,236.7
101.7316,525.1
101.7508,255.5
101.7633,110.3
101.7852,116.8
101.7969,124.8
101.8332,255.8
101.8431,232.8
101.8521,219.2
101.8804,210.2
101.8838,149.5
101.9391,219.7
101.9427,139.3
101.9558,140.8
101.9634,413.2
102.0208,138.6
102.0548,1356.1
102.1017,146.4
102.147,126.8
102.1513,239.5
102.1643,16.7
102.1859,105.7
102.1914,430.3
102.2212,288.3
102.2328,230.9
102.3277,221.6
102.3318,281.3
102.3386,246.2
102.3445,115.8
102.3873,219.4
102.4018,412.8
102.4104,838
102.4107,785.8
102.4154,23
102.4317,203.2
102.4386,241
102.4825,28.2
102.4829,27.1
102.5843,20.4
102.5865,228.4
102.6026,385
102.6071,366.1
102.615,102.3
102.6502,233.3
102.661,406.4
102.6657,688.1
102.6692,420.7
102.6851,138.9
102.737,220.5
102.7393,152
102.7425,111
102.7675,663.1
102.7708,385.5
102.7849,421.6
102.8159,425.1
102.8344,429.4
102.8608,196.6
102.8961,115.2
102.9434,95.5
102.9454,216.5
102.9476,20.4
102.9679,68.7
102.9701,355.4
102.9715,16.6
103.0079,156.2
103.0121,310.6
103.0135,223.6
103.0391,99.8
103.0701,301.7
103.0881,155.2
103.1208,17.2
103.1287,164.2
103.227,624.6
103.2281,478.1
103.2315,236.3
103.2456,654.1
103.2672,161.9
103.2827,560.5
103.2898,335
103.2922,154.1
103.302,120
103.3568,223.2
103.3815,594.9
103.3896,248.2
103.3972,169.3
103.4322,540.5
103.4649,84.4
103.4957,20
103.5174,260.7
103.5404,335.6
103.5663,484.2
103.5708,99.7
103.5856,115.2
103.592,148
103.6254,231.8
103.6401,17.6
103.6483,274.1
103.6756,295.9
103.679,156.8
103.6988,150.7
103.7065,191.2
103.7511,219.3
103.7542,195.4
103.7623,162.3
103.789,18.2
103.8271,311.5
103.8306,20.3
103.8352,217.8
103.8448,188.2
103.8473,20.4
103.8528,16.8
103.8857,206.3
103.9521,88.8
103.9574,251.8
103.979,777
104.0073,558.4
104.0083,118.4
104.0395,88.7
104.062,19.1
104.0849,310.7
104.1068,460630.3
104.1497,105.6
104.1605,18.8
104.1892,32.1
104.1926,351.8
104.2145,534.4
104.232,362.9
104.2547,156.6
104.2577,159.3
104.2895,406.6
104.3177,163.6
104.3526,93.1
104.3682,286.9
104.3786,216.5
104.3881,226.5
104.413,237.5
104.416,313.2
104.4384,17.9
104.4517,343
104.4874,369.7
104.5434,18.2
104.621,303.2
104.6294,212.9
104.6416,18.5
104.659,206.2
104.6671,17.6
104.6839,353.4
104.6858,17
104.713,18.4
104.7626,34.9
104.7681,272.5
104.7897,321.3
104.8281,134.8
104.8375,328.2
104.8458,116.3
104.8818,17.7
104.9238,89.1
104.94,130.1
104.9419,124.1
104.9479,105.6
104.9632,3856.2
104.9784,567.8
104.9921,2053.1
104.9977,118.3
105.0029,19.4
105.008,319.3
105.0228,505.4
105.0314,17.5
105.0446,33659.9
105.0611,209.8
105.0908,367.9
105.1102,14250.5
105.1563,315.6
105.1719,355.3
105.1812,20.9
105.2124,399.8
105.2811,590
105.3072,184.1
105.3141,698.6
105.3509,209.1
105.3609,326.7
105.3643,15.8
105.3811,33.6
105.3836,670.5
105.4076,242.8
105.4111,203.1
105.4204,493.8
105.4688,205.4
105.5361,614.7
105.5386,220.9
105.5422,332.9
105.7295,314.5
105.7322,281.9
105.8499,213.8
105.8932,326
105.9231,160.1
105.9247,109
105.9587,122.5
105.9636,55.6
105.9814,536.9
106.0273,361.7
106.0479,378.2
106.0521,537.4
106.0649,165.2
106.0684,307.4
106.084,88.8
106.163,240.1
106.2094,607
106.2189,296
106.2298,121
106.2673,160.2
106.2999,293.3
106.3252,317.2
106.3336,341.7
106.3597,30.8
106.3688,135.3
106.4196,245.2
106.4365,364
106.4641,244.7
106.4957,16.5
106.5084,338.4
106.5177,202.6
106.5194,16.6
106.536,94.4
106.5384,243.6
106.5996,202.2
106.6027,600.9
106.6522,142.1
106.6673,157.7
106.6905,779.6
106.6944,209.2
106.6978,160.3
106.7007,222.5
106.7075,105.4
106.7332,19.8
106.7671,169.8
106.7704,152.1
106.7781,131.6
106.802,184.2
106.8056,17.3
106.8085,445
106.8278,18
106.8295,193.2
106.931,221.7
106.9353,39
106.942,606.1
106.9433,20.5
106.9489,566.9
106.9504,3853.9
106.9529,410.3
106.9568,133
106.9636,109.5
106.9805,97.4
106.9917,33.5
107.0282,19.9
107.0473,222.7
107.049,433.4
107.0594,321.4
107.1262,160.4
107.1964,563.7
107.2077,130.5
107.235,18.8
107.2631,465.1
107.3425,154.3
107.357,16.8
107.3726,603.8
107.3788,148
107.4063,495.4
107.4097,19
107.6512,157.9
107.6888,93.9
107.6908,18.5
107.7145,29.6
107.7207,636.1
107.7226,210.2
107.728,121.1
107.7367,102.1
107.7443,402.5
107.787,588
107.7884,224.1
107.8166,489
107.8844,124.1
107.8982,566.8
107.9606,313.2
107.982,374.8
108.0022,139.8
108.0102,17.1
108.0212,226.8
108.0635,248.4
108.0658,742
108.1216,209.8
108.1305,480.7
108.1549,87.5
108.1867,376.3
108.2631,104
108.2697,624.5
108.2792,17.3
108.3091,102.3
108.3437,415.2
108.3454,183.4
108.3508,307.1
108.3838,111.1
108.3985,17.2
108.4631,121
108.4876,507.2
108.4921,17.9
108.505,608.5
108.5661,106.7
108.5743,673.5
108.6264,103
108.6592,240.9
108.6737,142.2
108.6748,116.1
108.6759,220.2
108.6988,424.5
108.7255,218.3
108.7769,388.1
108.8155,135.8
108.843,44.6
108.8583,99
108.879,135.6
108.9081,208.5
108.9136,39.4
108.9273,211
108.9414,220.1
108.9431,205.3
108.9547,116.2
108.9581,88
108.974,16.2
108.9761,398.1
108.9942,17.1
108.997,120.8
109.0432,202.3
109.0646,54889.9
109.0727,301.2
109.0821,434.9
109.099,665.3
109.101,99.6
109.1125,218.2
109.1673,175.5
109.1932,110.1
109.2887,134.5
109.4088,225.4
109.42,181.3
109.4411,16.3
109.4451,226.4
109.4466,305.7
109.4592,295.5
109.4806,295.9
109.4854,363.2
109.5008,305
109.5329,129
109.5365,137.1
109.5517,385.5
109.5905,526
109.5936,165.7
109.6378,94
109.6434,472.4
109.663,131.1
109.6782,102.1
109.7467,96
109.8518,112.8
109.8975,17.3
109.9187,221.1
109.9782,428.3
110.0079,348.5
110.0219,306.2
110.0293,198.8
110.0308,267.9
110.068,1571.4
110.0711,257.5
110.0781,204.6
110.08,121.6
110.0812,177.1
110.1097,260.7
110.1201,562
110.1695,118.1
110.1975,588
110.2243,117.7
110.2372,681.1
110.2444,133.3
110.2953,338.3
110.3421,98.9
110.3622,158.3
110.3714,19.9
110.3762,319.5
110.3771,281.2
110.4139,329
110.5164,22.6
110.5289,195.3
110.5631,130.3
110.6483,656.1
110.7074,287.8
110.7885,382.8
110.808,310.5
110.8386,130.1
110.9067,130.9
110.9329,407.1
110.9528,604.5
110.9578,94.6
110.9657,17.1
110.9967,1140
111.0063,96.1
111.0231,195.5
111.0304,199.3
111.0439,264
111.0803,24.3
111.0907,16.6
111.1155,120.1
111.1319,17.9
111.1362,232.5
111.2683,137.9
111.292,380.4
111.304,255.8
111.3822,259.6
111.3878,103.7
111.3986,637.7
111.4492,840.7
111.4667,159.7
111.5009,365.1
111.5213,159.5
111.5293,593.2
111.5349,160.7
111.5376,340.1
111.5833,144.1
111.5882,127.7
111.6399,130.6
111.6524,605
111.6742,342.1
111.6876,122.5
111.6896,113.1
111.7983,386.8
111.8098,338.3
111.8398,565.2
111.8414,18.6
111.8508,235.9
111.8713,609.4
111.8954,287
111.9149,259.5
111.9774,320.8
112.0089,226.1
112.0689,368.5
112.0751,102
112.0844,32.7
112.0962,146.9
112.0977,139.6
112.0993,41.1
112.2047,340.7
112.2389,120.2
112.3337,342.2
112.3606,88.3
112.3809,254.1
112.4057,227.3
112.4101,284
112.4145,94.3
112.4189,304.4
112.4344,315.4
112.4518,275.8
112.4571,746.4
112.4632,33.4
112.4796,256.9
112.486,140.7
112.5071,305.7
112.518,147.8
112.5639,126.3
112.5697,20.4
112.6048,297.3
112.6338,233
112.6881,206.8
112.7387,128.4
112.8249,19.9
112.8616,587
112.8631,98.7
112.8956,405828.7
112.9133,204.3
112.9665,125.9
112.9728,215.9
112.9983,176.4
113.0677,680.8
113.074,545.8
113.1072,325.4
113.1845,104.1
113.1873,179.4
113.189,296.2
113.2174,228.3
113.2456,115.1
113.2652,680.1
113.2965,460.5
113.3083,104.5
113.3168,20.2
113.35,528.9
113.3892,433.7
113.3966,18
113.4214,219.8
113.4245,166.9
113.4418,630
113.4429,109.7
113.5084,347
113.5113,444.9
113.5452,114.1
113.5464,356.7
113.6327,840.6
113.6341,29.9
113.695,245
113.7244,18.2
113.7357,169.5
113.7971,157.2
113.8072,238.9
113.8315,353.8
113.8825,105.4
113.891,430.3
113.8966,345.5
113.9034,291.8
113.9494,101.6
113.9633,19.8
113.9677,86.8
113.998,207.4
114.0449,109.8
114.0548,26980.6
114.0611,21.2
114.066,780
114.0913,22.4
114.1192,174.2
114.1268,310.4
114.1293,17.5
114.1519,108.2
114.166,189.8
114.2351,196.1
114.2467,388.1
114.2515,107.9
114.2693,699.6
114.3764,229.7
114.4079,474.4
114.4292,411.6
114.4627,163.4
114.4788,87.6
114.4862,20.9
114.4925,305
114.5375,162.2
114.5602,142.9
114.5677,109.3
114.5692,214.2
114.578,19
114.606,18.3
114.6202,157.9
114.629,20
114.6401,196.8
114.6496,110.6
114.6766,266.1
114.6866,151.7
114.8768,308.5
114.8806,288.6
114.8926,126533.6
114.9419,341.2
114.948,439.2
114.9586,33.4
115.0078,86.4
115.0212,109.5
115.0346,648.8
115.0364,75.9
115.0409,311.2
115.0486,571.9
115.0523,696.1
115.0582,132.8
115.0628,104.6
115.0743,403
115.1102,326.7
115.1345,115.1
115.1547,172.3
115.1768,300.6
115.1802,678.9
115.2105,204.5
115.2287,136.1
115.2455,160.2
115.2524,686.6
115.2532,95.1
115.3202,121.8
115.3525,17.8
115.4119,122.8
115.4144,16.9
115.4307,170.4
115.4352,18
115.4727,120.3
115.515,350.5
115.5967,84.7
115.6235,561.8
115.6745,776.9
115.7196,346
115.7476,186.4
115.7555,16.6
115.7846,320.5
115.8144,98.2
115.8866,344.9
115.9275,96.8
115.9314,331.4
115.9484,19.4
115.9642,23.2
115.9681,224.1
115.9792,597.3
115.9908,541.2
116.0213,119.4
116.0572,223
116.0705,8518.6
116.0746,16.2
116.0841,31.3
116.0905,316.2
116.1318,19.6
116.1616,148.4
116.1648,736.7
116.1894,87.7
116.2363,352.2
116.2386,185.7
116.3046,226.6
116.3117,456.7
116.4515,16.7
116.4664,20.5
116.4698,113.5
116.5082,304.3
116.5285,303.9
116.53,392.7
116.5435,115.9
116.6566,702.8
116.6585,376.9
116.6662,34
116.6861,17.8
116.6903,272.2
116.7129,240.4
116.722,18.4
116.746,560.2
116.7515,851.6
116.7644,102.2
116.7684,285.7
116.7872,18.7
116.792,218.9
116.8561,18.7
116.8577,522.3
116.8642,112.8
116.8651,237.9
116.8674,351.5
116.8705,137.3
116.8907,14671
116.9373,244.1
116.9632,220.9
116.9844,24.4
116.9858,242.5
117.0091,545.8
117.0261,111.3
117.0515,94.5
117.0696,33.4
117.0727,256.5
117.1075,615.8
117.1408,98.5
117.1561,16.4
117.1939,373.7
117.2434,224.4
117.2519,198.7
117.2685,459
117.3099,147.9
117.3112,18.8
117.3141,189.1
117.3436,718.9
117.4289,20.2
117.4295,22.6
117.4331,236.2
117.4431,35.8
117.4578,474.9
117.4617,274.2
117.473,672
117.4939,139.9
117.5066,197.1
117.5745,556.5
117.6094,323.2
117.6149,223.4
117.678,117.9
117.6843,279.7
117.6911,160.6
117.6937,182.7
117.6978,133.8
117.7022,312.7
117.7038,124.8
117.7495,334.4
117.7859,202.6
117.8671,202.9
117.8958,134.4
117.9067,110.7
117.9157,17.8
117.9218,112
117.9465,230.1
117.9992,187.2
118.0105,228.8
118.0127,103.7
118.0203,102.1
118.0234,132.9
118.0267,418.9
118.0652,263.1
118.0868,241.4
118.0972,345
118.2102,285.4
118.2403,121.7
118.2517,18.8
118.2846,434.5
118.2915,18.1
118.305,211.3
118.3178,378.1
118.3477,28.1
118.3514,145.5
118.4579,317.7
118.4901,258.5
118.5022,353.3
118.5407,146.4
118.5592,156.5
118.5797,117.9
118.5958,600.2
118.6139,317.7
118.6194,97.2
118.6328,300.8
118.645,176.9
118.7477,347.8
118.8349,364.9
118.8767,99.1
118.8894,282.1
118.9098,206.4
118.9321,170.1
118.9388,334.1
118.9424,797.6
118.945,18.6
118.9583,126.7
118.9666,399.9
118.9787,978.8
119.0188,23.6
119.0416,413.7
119.0669,22.5
119.07,19.1
119.1518,92.6
119.1671,409.1
119.2273,118.7
119.2501,296
119.2838,454.4
119.2933,741
119.2972,317.4
119.3278,217
119.3298,23.5
119.336,219.6
119.3478,193.2
119.3786,621.3
119.4143,262.5
119.4471,171.2
119.4488,121.8
119.4576,234.8
119.5173,160.3
119.5308,335.5
119.64,274.8
119.6544,116.4
119.6937,366.3
119.7006,146.6
119.7356,101.4
119.743,227.2
119.7928,108.3
119.8142,442.8
119.8185,667.7
119.836,119.9
119.8456,309.6
119.9237,111.3
119.9429,20.8
119.9858,106.1
120.003,4563
120.006,287.6
120.0127,162.7
120.0752,304
120.0806,6349.7
120.1027,109.2
120.132,31.3
120.1546,126.3
120.1704,452.3
120.1728,18.4
120.1843,636.7
120.1895,224.5
120.2021,126.7
120.2739,320.8
120.3118,233.1
120.3159,19
120.3345,18.7
120.3513,126.1
120.3911,405.1
120.447,19
120.4812,467.9
120.5167,639.4
120.5189,1299.4
120.54,351.6
120.5636,420.5
120.6068,17.8
120.6205,16.8
120.6263,185.8
120.715,30.5
120.7488,235.5
120.759,17.2
120.8349,217.1
120.8708,424
120.9004,428.6
120.9667,204.8
120.9792,20.1
120.9807,117.4
121.0075,171.4
121.0283,301
121.0395,73.7
121.0557,102.8
121.0893,18.8
121.101,47.1
121.1131,222
121.1268,273.1
121.2202,245.9
121.2251,169.1
121.2549,313.6
121.2795,312.5
121.2989,444.7
121.3075,265
121.3167,267.1
121.3331,227.6
121.361,200
121.3778,121.8
121.3885,16.6
121.4061,277.1
121.4361,169.6
121.4381,152.9
121.4867,18.3
121.5122,203.1
121.5547,427.6
121.6436,17.8
121.7169,280.9
121.7779,223.1
121.7809,250.6
121.7986,20.3
121.8025,106.1
121.8298,222.6
121.8394,145.5
121.8524,240.9
121.8793,236
121.9063,254.6
121.9121,119.7
121.9563,17.1
122.0219,120.3
122.0811,908
122.092,207.1
122.0937,684.5
122.1156,127
122.1473,727.7
122.2228,105.9
122.2445,149.9
122.2661,107.3
122.2767,18.5
122.3012,17.4
122.3054,19
122.3141,107
122.3465,122.4
122.3939,684.2
122.4796,285.3
122.4879,230.8
122.5216,104.7
122.5719,216.3
122.5922,356.1
122.5953,196.4
122.6818,327.3
122.6966,115.4
122.7146,17.2
122.7221,30.3
122.7246,146.6
122.7545,128.5
122.8241,148.1
122.8305,334.1
122.8558,17.2
122.8709,214.7
122.8932,160.2
122.9244,21747.5
122.9264,572.6
122.9293,94.4
122.9306,680.3
122.9378,91
122.9738,172.7
122.9971,165.5
123.0059,309.9
123.0673,367.7
123.0788,142.6
123.0844,140.5
123.1057,183.8
123.1167,21.9
123.2549,325.1
123.304,251
123.3707,679.3
123.4731,107.6
123.4841,92.3
123.5391,162
123.5539,19.1
123.5628,526.3
123.5953,230.7
123.6101,211.7
123.658,232.5
123.6902,16.7
123.7257,108.3
123.8199,114.4
123.822,97.1
123.83,221
123.8536,503.2
123.8695,100.3
123.8858,119.8
123.8928,167.3
123.9154,514.6
123.9542,368.1
123.9599,30
123.9939,139.8
124.0058,129.5
124.0126,189
124.0595,100.6
124.0953,651.9
124.1277,112.4
124.143,96.5
124.1755,227.5
124.1918,597.5
124.2401,167.8
124.2649,18.4
124.2705,550.1
124.2881,432.4
124.2894,29.5
124.3269,174.2
124.3768,282.3
124.3787,299.4
124.4045,287.6
124.4278,88.6
124.4359,202.4
124.5788,446.5
124.5857,18.5
124.5896,18.4
124.593,179.8
124.5999,505.5
124.616,120.8
124.6195,213.6
124.6426,245.5
124.6883,253.7
124.7421,372.2
124.7552,35.3
124.7572,245.1
124.7613,440.2
124.7812,713.2
124.7838,20
124.8001,224.7
124.8197,19.2
124.8837,400.8
124.9119,253.8
124.9223,1736.1
124.9267,18.2
124.939,228.6
124.9442,19.7
124.972,20.2
124.9765,299.5
124.9813,207.3
124.9857,368.5
124.9997,5383.3
125.0054,1166.5
125.0388,157.9
125.0596,44.9
125.1074,235.3
125.118,115.8
125.136,136.6
125.1389,249.3
125.1474,314.1
125.1599,545.6
125.1614,198.1
125.1691,280.6
125.1797,329.7
125.2185,178.7
125.2413,405.5
125.3954,167.2
125.4118,500.4
125.4236,256.8
125.4621,312.3
125.5105,343.2
125.5206,103.7
125.5451,114.5
125.563,217.7
125.6288,670.1
125.6447,17.8
125.6672,311.6
125.6724,137.2
125.6887,445.2
125.7353,138.8
125.7801,21.6
125.8108,314.7
125.8359,280
125.8826,99.3
125.9098,677.6
125.916,215.8
125.9643,406.9
125.9723,138.4
125.9818,106.2
125.9999,137.6
126.0007,221.4
126.0012,219.4
126.0332,165.9
126.1179,429.7
126.1224,406.7
126.1371,331.6
126.1554,153.7
126.1759,395.8
126.2235,115.7
126.2448,20.2
126.258,176.3
126.2774,232.5
126.3185,121.9
126.3211,18.8
126.3514,89.7
126.3646,661.8
126.3749,173.3
126.3972,143.8
126.4285,362.8
126.4433,149.9
126.481,18.5
126.4876,470.6
126.4993,508.5
126.5324,211
126.575,335.9
126.6117,266.7
126.6219,170.6
126.6736,127.4
126.7016,394.9
126.7209,229.8
126.7404,643.1
126.742,100.9
126.7482,241.8
126.8848,627.4
126.8985,363.8
126.9141,220.8
126.9164,376.9
126.967,133.4
127.0096,466.3
127.0477,314.7
127.0505,116.1
127.0584,18.4
127.0833,413.4
127.0857,126.8
127.1203,89.2
127.1228,153.7
127.1406,207.6
127.1709,343.1
127.1808,151.6
127.1892,399.2
127.2166,144.5
127.2218,161.5
127.2311,737
127.2378,335
127.26,271
127.3045,93.5
127.4219,135.2
127.4573,218.6
127.4625,123.2
127.5541,172.4
127.5731,91.1
127.5916,18.2
127.6028,113.5
127.6121,222.4
127.6251,708.1
127.6379,209.2
127.6482,135.4
127.6536,470.4
127.671,373
127.7153,649.5
127.7202,99.6
127.7438,223.7
127.7787,321.7
127.7836,124.1
127.8194,497.2
127.8607,208.5
127.87,136.7
127.9489,189.5
127.951,328.6
127.9524,126
127.9864,677.2
127.9905,551.7
128.0487,107.5
128.0562,411.4
128.0767,146.9
128.0921,117.7
128.1062,164.2
128.1335,258.8
128.1703,153.6
128.272,374.9
128.2952,311
128.3023,19.8
128.318,222.6
128.4024,223
128.4147,225.8
128.4193,632.6
128.5225,371.5
128.6749,438.2
128.6819,227.1
128.7104,294.7
128.7355,424.2
128.7512,604.4
128.8196,397.8
128.83,478.8
128.8363,122.9
128.8909,103.7
128.9138,18.2
128.9474,572.6
128.9638,230
128.9719,445.8
128.9757,388.4
128.9998,159.5
129.0031,731
129.0167,30.9
129.0535,333.5
129.0572,469.4
129.0658,955.5
129.0729,211.6
129.1022,332.4
129.1101,257.3
129.1831,18.1
129.2315,306.1
129.2509,31.2
129.2596,448.8
129.2635,241
129.2642,240.2
129.4065,136.2
129.4306,169.4
129.4391,16.4
129.5118,223.5
129.5295,124.7
129.5433,298.6
129.6303,32.4
129.6507,311.1
129.7012,295.2
129.811,439.3
129.8214,195.9
129.8452,18.5
129.8514,405.5
129.8994,232.8
129.9053,581.6
129.9274,20.4
129.9523,16.1
129.9585,237.2
129.995,90.2
130.0216,414.9
130.0221,428.1
130.0498,10977.9
130.0623,347.8
130.1191,293
130.1516,371.1
130.1826,175.3
130.237,18.3
130.2438,38.2
130.2623,112.1
130.3117,122.1
130.3222,310.1
130.3538,136.7
130.3614,29.7
130.3971,406.8
130.4189,20.3
130.4216,18.4
130.4485,249.3
130.4631,104.8
130.4663,272.8
130.4845,21.5
130.4922,119.9
130.533,17.7
130.5593,573.3
130.6001,266.6
130.6023,122.6
130.6091,227.9
130.6734,19.6
130.6787,135.5
130.6813,224.6
130.6827,117.2
130.7468,406.4
130.8065,193.4
130.9158,19.4
130.9395,373.2
130.948,254.6
130.9524,373.8
130.9791,19.5
130.9999,309.8
131.0015,21
131.0091,141.6
131.0253,712
131.043,116.3
131.0516,123.6
131.153,18.2
131.1904,105.3
131.2096,391.2
131.2398,165.1
131.255,21
131.2762,303.7
131.2818,245.5
131.304,136
131.3184,365.4
131.3655,225.9
131.395,419.2
131.4591,380.2
131.5065,510.5
131.518,293.8
131.5376,295
131.5605,21.9
131.5789,463.8
131.5822,150.6
131.5983,154.8
131.6007,850.1
131.6205,229.5
131.6234,221.6
131.6264,366.9
131.7289,378.5
131.7475,203.5
131.8217,211
131.883,114.6
131.9702,35.2
131.99,20.1
131.9978,109.5
132.0031,33832.4
132.0361,214.5
132.0654,44524.3
132.0869,18.5
132.0903,18.6
132.1434,187.3
132.1553,153.7
132.1731,231.9
132.2013,104.3
132.2119,135.8
132.268,500.9
132.2838,133.4
132.3064,601.3
132.3213,129.7
132.3891,18.5
132.4662,180.5
132.4922,247.5
132.5019,355.2
132.5967,308.9
132.6117,1031.1
132.627,109.9
132.7199,318.7
132.7667,401
132.7775,178.2
132.8044,764.1
132.8731,92.1
132.8909,197
132.9287,18.1
132.9581,1247.8
132.9695,67.5
132.9872,3070.1
133.0184,115.7
133.0347,379.7
133.0365,233.1
133.059,268.5
133.0688,825.5
133.075,163.2
133.097,28677
133.1011,97.4
133.1106,110.9
133.1353,18.8
133.1483,190.5
133.2017,19.4
133.2047,317.6
133.2169,216.2
133.2674,118.9
133.2838,109.9
133.3107,544.8
133.3432,94
133.3598,229.5
133.3889,179.8
133.4096,255.5
133.4444,181.9
133.452,273.2
133.5141,427.1
133.5766,117.5
133.587,28
133.5885,423.6
133.6113,126.1
133.637,216.2
133.6598,29.7
133.6812,660.8
133.7325,31.4
133.7363,21.4
133.8549,19.6
133.9079,430.1
133.9811,23.1
133.9851,118.6
134.0104,18.5
134.0188,10083.5
134.0377,266.6
134.1499,100.7
134.1877,19.1
134.2277,19.7
134.2302,682
134.263,95.9
134.2908,577.5
134.3233,429.8
134.3338,275.7
134.3362,711.5
134.341,17.1
134.371,108.6
134.3745,310.9
134.3888,288.4
134.4047,345.8
134.4082,103
134.4376,134
134.4535,272.5
134.5382,125.6
134.5958,310.1
134.6562,604.7
134.756,20.1
134.7953,433.5
134.8656,20.7
134.867,17.9
134.8842,113.6
134.9278,280.7
134.9746,435.8
134.989,132.1
134.9966,37.2
135.0028,77076.9
135.0502,96.8
135.071,382.1
135.0805,22.8
135.1166,440.2
135.1291,230.7
135.1655,93.4
135.1939,627.9
135.2067,591.1
135.2143,164.6
135.216,249.8
135.2551,88
135.3079,19.5
135.3369,20.7
135.3499,294.8
135.4022,136.7
135.4287,110.9
135.4383,153.2
135.5273,818.9
135.5401,478.9
135.5857,22.9
135.6036,18.4
135.6062,391.7
135.7181,219.8
135.8598,200.3
135.8614,158.3
135.8771,35.2
135.8912,104.3
135.9484,703.7
135.977,2262.4
136.0063,1087.7
136.0481,5476.6
136.0616,66.1
136.0669,88.7
136.0755,4110.6
136.088,212.7
136.2949,18.5
136.3762,335.1
136.4191,20.5
136.4425,325.1
136.4559,704.3
136.4578,189.1
136.4606,501.9
136.5243,296.2
136.5685,118.8
136.5836,323.5
136.6012,104.9
136.6675,157.7
136.7334,23.2
136.7631,110.3
136.8742,431
136.8867,207.2
136.9059,878.5
136.9309,1165.7
136.953,106.7
136.9669,130.7
136.975,17.4
136.9843,17.6
136.9895,35
136.9917,18.3
137.046,461.9
137.0687,524.5
137.079,405.2
137.1314,240
137.1487,266.9
137.1596,16.3
137.1808,361.2
137.1957,18.2
137.217,433.2
137.2479,153.6
137.2969,123.5
137.3935,301.4
137.4036,111.5
137.5045,32.6
137.5221,350.6
137.5303,146.1
137.5492,659.6
137.5787,394
137.6111,369.4
137.6289,524.6
137.6296,365.7
137.6374,697.7
137.6657,157.2
137.6937,166.5
137.7052,341.3
137.7239,399.3
137.8806,120.2
137.8894,213.2
137.9587,233.9
137.9776,191.4
137.9926,232.5
138.0292,120.6
138.0346,121.4
138.04,204.9
138.0525,7653.6
138.0661,120.6
138.1416,122.7
138.1538,275.2
138.1593,105.7
138.205,249.6
138.2099,22.1
138.2165,325
138.221,713.4
138.241,548.3
138.2495,18
138.3552,169.6
138.3567,109.3
138.4233,152.3
138.5058,513.6
138.5226,256.8
138.5795,567.4
138.6025,137.9
138.6638,343.5
138.7309,268.6
138.7791,16.3
138.8225,361.5
138.9064,1497.6
138.931,357.8
138.9494,498.2
138.9557,201.3
138.9715,173.1
139.0156,360.4
139.0651,19.5
139.1004,170.2
139.1082,103
139.1166,343.9
139.1525,216
139.1997,99.1
139.2582,337.9
139.3284,314.7
139.3304,242.4
139.3646,19.5
139.4074,248.4
139.4328,235.1
139.5811,224.2
139.6454,275.6
139.8372,388.2
139.8493,131.9
139.9053,378.1
140.0164,5038.9
140.0465,136.1
140.0681,3970.5
140.1043,350.9
140.1181,21.1
140.1713,240.2
140.1816,370.4
140.1832,210
140.2641,17.7
140.2905,292.5
140.2931,593.4
140.303,786.8
140.3263,320.8
140.3859,283.6
140.4508,20.1
140.4558,18.8
140.4584,122.2
140.5038,634.2
140.5261,19.2
140.5274,398.2
140.5325,115.1
140.5668,223.4
140.5714,127.8
140.6608,735.2
140.7274,378.9
140.7415,180.7
140.7604,43.8
140.7871,190.4
140.9034,933.3
140.9059,121.7
140.9667,386.5
140.9831,397.3
141.0004,16062
141.0197,98
141.0521,349.4
141.0731,23
141.0745,232.6
141.0839,383.4
141.0896,491.1
141.1001,891.9
141.1029,519.4
141.1034,531.9
141.1052,781.7
141.1109,233
141.1729,167.3
141.2571,91.4
141.2648,376.5
141.3368,158.8
141.3469,247.5
141.3824,348.9
141.4199,383.8
141.4644,137.7
141.4819,283.8
141.4854,651.7
141.5136,285.4
141.5222,371.1
141.5318,198.3
141.5578,277.5
141.566,311.5
141.5705,141.6
141.5926,198.2
141.6128,421.3
141.674,526.8
141.7249,139.7
141.7344,18.8
141.8037,135.8
141.8321,565.1
141.8578,164.8
141.889,189.4
141.9221,443.9
141.9682,287.4
141.9948,397.3
142.0038,336.7
142.0122,110.5
142.0153,35.1
142.087,125.4
142.1056,294.1
142.1124,231.9
142.1427,152.5
142.1733,658.2
142.2352,18.6
142.2364,631.2
142.3543,31.7
142.3871,125.3
142.4294,205.3
142.4394,25.8
142.4513,231.8
142.5082,162.6
142.5135,19.7
142.5181,291.7
142.5197,175.6
142.6003,399.9
142.659,17.4
142.7105,128.1
142.7483,91.6
142.7593,338.5
142.7709,551.8
142.9231,449.6
142.9386,435
142.948,738.5
142.9506,160.6
142.9544,134.8
142.9962,213.9
142.9997,22.2
143.0047,22.9
143.0189,1157.8
143.0314,519.1
143.0538,523.4
143.0566,99.4
143.0643,242.9
143.0726,186.1
143.0812,22.3
143.1672,652.5
143.2387,118.3
143.2932,18.8
143.299,164.9
143.3176,352.6
143.3586,296.2
143.3713,87
143.4153,335.4
143.5111,129.6
143.515,370.3
143.5265,531.6
143.5764,229.1
143.5867,352.1
143.6329,19.2
143.6468,170.6
143.6863,497.4
143.7228,159.1
143.7458,423.6
143.7773,238.4
143.7802,39.1
143.7832,255
143.8363,617.8
143.8621,276.6
143.8728,132.4
143.8848,30.4
143.9447,237.6
143.9768,23.3
143.9967,197.8
144.002,356.7
144.0075,267.5
144.0106,953.1
144.0631,409.2
144.0903,117.5
144.1189,766.8
144.1194,917.5
144.1318,518.6
144.1501,100
144.1939,175.3
144.2068,351.5
144.2083,136.7
144.212,165.4
144.2155,232
144.2706,437.9
144.274,222.8
144.3066,307.8
144.3326,155.8
144.3356,238.3
144.3727,18.1
144.4181,123.7
144.4246,208.6
144.4582,159.2
144.4687,488.2
144.4691,492.9
144.4722,156
144.5119,246
144.5421,358.5
144.5523,354.7
144.5662,646.6
144.5982,480.8
144.6021,358.9
144.6081,297.5
144.61,243.4
144.6218,267.9
144.6856,214.6
144.7067,133.3
144.7112,242.4
144.7428,18
144.7658,439.5
144.7746,249.7
144.7997,102.5
144.8316,247.4
144.8672,249.6
144.8738,18.8
144.8869,16.8
144.8908,634.3
144.9807,1149.4
145.0116,349.3
145.016,26.5
145.0329,117
145.0572,191.7
145.0726,648.1
145.0814,185.1
145.1299,112.2
145.2178,371
145.2831,175.5
145.3285,206.2
145.3843,18
145.3867,141.5
145.4152,347.2
145.4202,423.5
145.438,100.2
145.44,96.7
145.4463,261.1
145.4716,218.1
145.5068,19.6
145.5392,16.1
145.5397,16.6
145.5419,130.4
145.5459,316.5
145.5752,270
145.6257,17
145.7063,18.7
145.7442,120.7
145.7758,451.6
145.8298,164.1
145.8732,413.7
145.9199,171.8
145.9275,129.8
145.9628,127.2
145.9802,324.1
145.9917,343.4
145.9924,495.2
146.0003,552.6
146.0041,339.9
146.0052,122.7
146.0124,2541.2
146.0188,21630
146.0261,120.3
146.0447,130.8
146.0507,276.7
146.0963,20.7
146.1188,23.6
146.1413,21.3
146.1742,464.7
146.2506,89.2
146.3153,270.7
146.3445,131.5
146.3959,255.4
146.4033,689.7
146.4124,18.8
146.4374,261.5
146.5351,246.6
146.5485,21.3
146.5664,365.2
146.689,213.2
146.7048,311.4
146.7847,19.4
146.8714,237.4
146.8989,18.4
146.9332,137.7
146.9587,533.9
146.9638,252.4
146.974,29.5
146.9817,118538.6
146.9991,192.7
147.0114,192.7
147.0544,17.5
147.0763,60182.3
147.1106,193.7
147.1127,30737.3
147.1166,53.1
147.1227,35.6
147.175,109
147.2107,320.9
147.2159,197.2
147.2363,171.7
147.2696,389.7
147.2959,654.4
147.3567,831.5
147.3761,237.5
147.4062,330.9
147.4237,633.4
147.4268,116.5
147.4829,121.9
147.4917,764.5
147.582,603.7
147.6206,165.2
147.6302,224.3
147.6777,407.8
147.7038,19.7
147.8278,91.2
147.8628,206.3
147.8712,309.5
147.8827,422.7
147.9116,235.3
147.9211,604.8
147.9232,17.1
147.9509,199.7
147.9636,465.8
147.9769,458
148.0505,368.4
148.0555,414.2
148.0869,463.4
148.1052,561.1
148.1119,23.1
148.116,568.7
148.1928,251.2
148.2056,175.5
148.2278,305.4
148.2328,229.5
148.2827,268.2
148.2862,159.9
148.3421,144.3
148.3817,243.5
148.499,233.2
148.5041,33.4
148.5118,404.1
148.532,4374.5
148.6357,281.8
148.7892,588.8
148.8179,118
148.8344,202.5
148.9069,88.7
148.9085,463.2
148.9228,177.5
148.9449,17.6
148.9496,170.4
148.9554,204.3
148.9611,1501.5
148.9886,132.9
149.0026,24.5
149.0184,5324.4
149.0233,4053.8
149.0448,525.9
149.0575,114.7
149.0781,119.4
149.1244,344.2
149.1675,155.4
149.169,355.8
149.1816,443.5
149.2057,143.5
149.2446,276.9
149.3419,20.5
149.4035,618.5
149.4639,19.2
149.4922,21.8
149.4959,17.1
149.5732,121.5
149.6167,22.8
149.6575,282.3
149.7617,221.9
149.7909,113.4
149.7958,110.6
149.8047,122.9
149.8406,556
149.8521,295
149.8757,226.6
149.9078,730.8
149.976,25.5
149.9872,35.9
149.9927,5653.8
150.0138,8452.6
150.0227,23
150.0267,42.6
150.0722,18.1
150.0782,411.9
150.1113,19.1
150.1149,18.5
150.1525,17.7
150.174,574.5
150.2292,228.1
150.256,257.1
150.2813,111.9
150.2853,103.2
150.3375,314.3
150.4284,479.9
150.4625,160.7
150.4813,265.2
150.5472,282.4
150.5522,205.5
150.5758,146.3
150.6475,98.8
150.6609,124.4
150.674,161.5
150.7366,296.6
150.7484,523.7
150.7799,589.8
150.8021,493.4
150.812,156.8
150.8722,336.4
150.9009,155
150.9463,396.3
150.9504,174.3
150.9688,18.8
150.9768,46397.8
150.984,5877.1
151.0477,4694.1
151.0866,286.3
151.0953,15.4
151.1026,479.5
151.1717,19.4
151.1788,150.6
151.2421,451.8
151.2789,458.1
151.434,231.3
151.4924,316.8
151.4955,703.6
151.5085,228.5
151.5585,134.8
151.6438,231.9
151.7263,150.3
151.7868,127.2
151.8312,190.1
151.8601,287.9
151.8607,277.4
151.887,199.2
151.8973,209.8
151.9038,133.4
151.951,948.1
151.9805,347.8
151.9874,218.8
152.0151,701.8
152.022,8076.9
152.0317,5213.2
152.0559,447
152.1778,482.8
152.1888,144.3
152.2326,209.7
152.2759,371.3
152.3422,165.1
152.3803,286.8
152.4141,22.4
152.4216,121.2
152.6774,17.8
152.7406,296.5
152.7498,320.3
152.8714,137.5
152.8841,103.9
152.9144,125.6
152.937,19.1
152.9613,20.8
152.9748,2208.3
152.9844,40.3
152.9962,119.2
152.9999,18.9
153.0645,156.4
153.1061,411.4
153.1101,314.8
153.119,19.8
153.1612,364.5
153.1694,438.2
153.1822,157.9
153.2224,234.2
153.2563,18.7
153.3618,222.7
153.3772,16.8
153.4242,283.4
153.4626,108.7
153.5125,868.4
153.6022,445.6
153.6192,17.9
153.6918,516.4
153.6997,115.5
153.7785,434
153.8203,781.9
153.8331,153.9
153.8792,18.2
153.9479,349.3
153.9701,354
154.0066,156.2
154.0112,347.4
154.0265,740.8
154.0588,351.2
154.067,744.8
154.1,18.2
154.1954,118.9
154.2051,211.3
154.2269,147.8
154.2333,129
154.2771,20.3
154.3364,257.9
154.3578,389.6
154.44,189.4
154.4536,216.4
154.4587,149.3
154.4612,391.9
154.4645,227.9
154.4693,1064.1
154.5392,104.1
154.5477,116.8
154.5677,18.7
154.6081,19.4
154.69,601.9
154.753,340.4
154.7846,273
154.787,216.8
154.8527,372.5
154.9073,59
154.9416,24.4
154.9556,18.8
154.969,454.6
155.0412,330.5
155.0427,1228.8
155.0517,269.2
155.0539,5393.5
155.0791,1364
155.1093,160.3
155.143,261.5
155.1448,162.9
155.1501,140.6
155.2098,18.4
155.216,119.6
155.2448,115.9
155.3493,206.8
155.3519,379.5
155.371,103.4
155.4012,106.7
155.5938,399.4
155.6004,150.1
155.6248,17.2
155.6423,313.4
155.7431,296.3
155.7935,441.8
155.9111,420.7
155.993,155.6
156.0302,257.7
156.042,3363.3
156.0514,23.2
156.0573,75.5
156.0767,45958.9
156.0982,217.2
156.1096,215.9
156.179,17.2
156.2398,117.6
156.2537,152.2
156.2729,159.4
156.3474,349
156.3664,173.9
156.3807,17.6
156.445,298.5
156.4772,276.1
156.5274,522.5
156.5485,227.8
156.5511,22.9
156.5854,163.8
156.6004,630.2
156.7053,153.7
156.7081,155.1
156.7443,17.6
156.8474,368.5
156.8607,17.6
156.8775,445.5
156.9107,252.7
156.9702,19.3
157.0056,433.2
157.013,174.4
157.0422,221.3
157.0464,594.9
157.0969,24.9
157.1207,216.5
157.2479,238.5
157.2866,33.8
157.3107,417
157.4288,311.4
157.4586,18
157.521,369.6
157.5267,117.4
157.5388,393.5
157.5571,111
157.5716,152.8
157.6719,115.3
157.6787,682.5
157.7692,380.1
157.9148,517.5
158.0132,19.3
158.027,2830.9
158.0605,19.2
158.0929,267.3
158.1256,405.7
158.149,164.2
158.1574,566.8
158.2307,137.4
158.2515,118.6
158.2757,112.5
158.2999,230.6
158.3408,391.5
158.3582,360.3
158.3916,217.7
158.5126,355.1
158.5404,676.5
158.5847,650.5
158.6607,343.6
158.6924,125
158.7312,169.9
158.7555,163.2
158.758,276.6
158.7631,165.7
158.9113,205.4
158.9278,1125.8
158.9369,332.6
158.9388,345.7
158.9641,9794.6
158.9964,7456.6
159.0214,125.2
159.0304,73.5
159.0959,229.1
159.1293,419.4
159.1331,411
159.1956,188.7
159.2125,292.2
159.2609,204.7
159.3312,138.8
159.3939,28.8
159.4023,172.9
159.4042,178.4
159.4097,114.4
159.4574,156.8
159.4688,385.6
159.499,123
159.5692,467.9
159.6071,359.8
159.6144,402.1
159.7109,360
159.722,117.6
159.7255,19.4
159.7429,121.2
159.8414,206.9
159.8612,209.3
159.9068,114.4
159.918,840.4
160.0239,118.6
160.0345,21404.9
160.0604,40980
160.0961,110.1
160.2024,21.2
160.2906,30.5
160.3454,29.8
160.3857,105.5
160.4788,234.5
160.4993,33.3
160.5197,266.1
160.5276,546.5
160.5312,208.8
160.5581,18.9
160.5597,205
160.5953,97.4
160.6064,364.1
160.6282,241.9
160.6802,212.5
160.7045,349.8
160.7513,703.6
160.8029,107.8
160.8443,269.6
160.9578,329.1
160.9832,120.2
160.9921,206.8
161.0023,807.3
161.0185,1013.7
161.0214,138.6
161.0346,158.7
161.0638,1424.4
161.0762,135.5
161.0824,280.8
161.0967,351.5
161.1048,109
161.1274,682.2
161.1717,394.4
161.2345,164.1
161.2634,174.6
161.2696,426.5
161.2853,589.9
161.4343,135.4
161.4614,362.5
161.48,219.7
161.5274,17.1
161.8928,123.4
161.8985,541
161.9232,18.7
161.9602,902.5
161.9706,341.8
161.985,153.9
162.0501,17544.9
162.0994,334.4
162.1279,470.9
162.1632,764
162.1677,18.4
162.2265,28.6
162.238,121
162.2839,337.5
162.2926,22.4
162.3222,18
162.3491,161.9
162.3777,273.3
162.4181,176.3
162.4327,397.8
162.4884,129.2
162.4993,129.4
162.5743,182.1
162.6796,395.6
162.6883,18.1
162.7202,110.7
162.7558,118.7
162.762,127.5
162.8775,184.6
162.9208,22.1
162.9386,17.8
162.9558,5775.4
162.9644,600.5
162.9769,688.9
162.9926,114.6
163.0063,112.9
163.0155,3997.5
163.0342,3160.5
163.058,93.9
163.0606,81.8
163.0779,933.8
163.1123,96.9
163.1219,549.9
163.1347,15.8
163.1479,214.6
163.187,26.5
163.2339,121.6
163.2575,343
163.3633,215.9
163.3732,428.7
163.4085,143.5
163.4228,26.9
163.4787,640.8
163.4989,170.1
163.5092,354.7
163.5245,160
163.5285,204.6
163.5413,330.5
163.6003,202.7
163.6192,249
163.6413,142.5
163.6772,229
163.6798,279.2
163.683,664.1
163.6913,304.2
163.7332,155.1
163.833,121.9
163.8566,96.9
163.8856,21.3
163.9445,367.1
163.9483,297.7
163.9995,29.4
164.0294,16126.1
164.0536,175.6
164.0957,112.3
164.1216,180.8
164.1723,798.5
164.2495,435.7
164.3064,156.5
164.3887,20.5
164.4981,37.9
164.5745,190.8
164.5904,801
164.5995,143.3
164.6845,107.2
164.7036,371.5
164.7417,634.5
164.7712,864.3
164.7748,113.1
164.8237,98.5
164.8298,122.8
164.858,165.7
164.8757,17.8
164.9079,444.5
164.9205,3821.3
164.93,14227.7
164.9351,2041.9
164.9613,21.3
164.9847,41.4
164.9925,3057.7
164.9955,32
164.9997,496.8
165.013,690.2
165.0794,121.1
165.1175,616.4
165.2075,184.3
165.226,166.3
165.25,16.5
165.2863,465.9
165.3033,140.3
165.3598,391.2
165.3796,99.9
165.4564,522.3
165.4614,169.4
165.4796,148.7
165.508,97.9
165.5768,333.4
165.5944,123.2
165.6137,174.6
165.6379,189.2
165.8249,35.3
165.8533,121.7
165.8678,165.3
165.9144,19.7
165.9466,224
165.9614,334.4
165.9667,475.8
165.9709,27.3
165.9788,679.9
165.9877,5255.8
165.995,2563.6
166.0209,532
166.0492,215.3
166.0839,1890.9
166.1066,130.1
166.1951,155.5
166.2587,18
166.2643,97.8
166.2712,101.3
166.3188,159.4
166.4608,165.3
166.4961,154.2
166.5204,158.4
166.5616,98.4
166.6268,160
166.6321,117.5
166.6554,311.2
166.7283,248.5
166.7871,315.5
166.8168,162.8
166.8512,401.6
166.8648,748.1
166.9357,296.3
166.9445,233.8
166.9508,17278.7
166.9627,579.5
166.9998,60.1
167.0217,7964.2
167.0663,19.7
167.1186,120.7
167.1631,160.3
167.2421,19.1
167.2591,19.8
167.4334,228.9
167.6083,169.4
167.6174,362.5
167.6179,362.8
167.644,432.4
167.7442,178.1
167.7916,358.9
167.8064,241.3
167.8122,720.1
167.8313,18.5
167.9469,154.7
167.9893,621.8
167.9946,1585.6
168.0058,565.3
168.1233,305.5
168.2029,396.2
168.2357,100.3
168.3148,326.8
168.3397,373.7
168.5046,119.3
168.5139,166.5
168.5613,139.4
168.5811,172.5
168.5884,374
168.6487,315.4
168.7176,189.7
168.7295,172.3
168.7442,254.3
168.7627,295.6
168.7947,96.3
168.8203,796.4
168.9251,79.4
168.9374,128.3
168.9489,1761.9
168.9523,197.4
169.0506,139.6
169.0584,80819.1
169.0644,120.1
169.0946,2354.1
169.1651,245.6
169.1765,618.5
169.2868,251.4
169.3051,238.8
169.3391,494.2
169.3413,294.5
169.3653,19
169.435,91.1
169.4517,276.5
169.5125,478.7
169.6357,215.2
169.6781,350.8
169.6893,217.6
169.7103,364.7
169.727,465.1
169.7579,326.5
169.7843,18.5
169.8372,739
169.8503,234.4
169.8857,335.4
169.8903,160.4
169.9338,127.8
169.9375,17.4
169.9425,217.8
169.9826,216.2
169.9857,2383.3
170.0193,24
170.0327,502.9
170.056,120.1
170.0616,2053.3
170.0925,1934.9
170.1419,103.8
170.1534,16.7
170.1913,686.5
170.2152,191.2
170.2504,19.2
170.2571,95.5
170.2714,37.4
170.3928,121.4
170.4178,261.6
170.4272,550.3
170.501,161.6
170.5614,241.8
170.5701,22.4
170.8544,4214.8
170.8593,20.8
170.9141,166.6
170.987,174.2
171.0166,808.4
171.0219,97.1
171.0279,303.8
171.0356,137.7
171.053,1276.4
171.0581,242.9
171.0679,108.6
171.106,501.4
171.1696,267.2
171.1814,173.6
171.2831,30.4
171.2871,17.6
171.3055,467.8
171.4047,227.5
171.4595,131.1
171.5098,16.7
171.5179,607.7
171.5234,187.3
171.5244,172.9
171.6109,127.9
171.6236,21.4
171.7592,806.4
171.8522,111.2
171.8675,407.2
171.8866,136.4
171.8921,114.4
171.904,20
171.9111,193.8
171.9146,225.8
171.9218,738
172.0281,394.8
172.0889,395.4
172.0958,389.9
172.1286,276.7
172.1526,383.8
172.1914,103
172.2749,313.3
172.3509,356.1
172.3557,115
172.3634,645.7
172.3715,556.4
172.4543,393.9
172.4848,161.1
172.4894,269.8
172.491,124.3
172.5867,164
172.6351,218.8
172.7872,228.4
172.8004,183.1
172.8193,241.1
172.8215,17.1
172.8279,19.6
172.839,101.4
172.8514,2238.3
172.9212,120.5
172.9285,208.1
172.9566,123.2
172.9644,268.5
172.9775,21
173.0269,292.1
173.0297,2054
173.0956,663.9
173.1283,20.6
173.2011,260.2
173.214,671.4
173.2219,160.9
173.2229,138.6
173.314,384
173.4594,32.8
173.5668,205.7
173.6043,29.1
173.6187,198.6
173.633,247.4
173.7014,97.6
173.7509,365.7
173.7582,632.5
173.7626,554.1
173.7659,767.9
173.7846,18.1
173.7972,133.7
173.8347,20.6
173.8698,64.4
173.9091,427.4
173.9818,118.7
174.0138,168
174.0571,283.3
174.1133,16.9
174.2245,223.9
174.2286,243.6
174.2812,341.4
174.3332,462
174.3409,217.4
174.3914,147.8
174.4249,168.8
174.4641,17
174.4889,555.7
174.5115,112.6
174.5347,207.8
174.5869,481.3
174.5891,129.5
174.6901,125.7
174.7052,189.9
174.7381,709.3
174.7599,298.1
174.7693,243.4
174.8073,408.6
174.8354,234.9
174.9002,153.6
174.9339,191.7
174.9381,5518.8
174.9689,1674.5
174.9845,19.1
174.9923,275.8
175.0181,98.6
175.0207,77.2
175.0342,7312.1
175.0418,148.4
175.0455,1194.1
175.0577,2480.9
175.119,102983.5
175.2641,364.5
175.2911,33.1
175.3731,177.2
175.3942,186.3
175.408,708.3
175.4128,157.3
175.4482,121.6
175.4728,364
175.5923,361.5
175.6105,475.1
175.6379,572
175.6437,20.8
175.6575,165.3
175.6872,107.7
175.7984,304.5
175.8409,104.5
175.9174,32.4
175.9299,283.4
175.9524,99.2
176.0006,50.9
176.0085,10800.6
176.0382,393.2
176.056,623.2
176.0659,25597.7
176.0819,7806.4
176.103,2262.2
176.1223,3384.4
176.2004,301.1
176.2015,295.4
176.2142,178
176.2337,167.9
176.2384,341.2
176.3206,137.4
176.3305,346.5
176.4065,227.9
176.42,128.9
176.4724,378.5
176.485,669.8
176.5368,264.3
176.5925,552.9
176.6759,112.5
176.6942,122.1
176.7619,348.3
176.8399,18.3
176.8508,241.4
176.8758,98
176.878,21.1
176.8935,108.3
176.9425,455.8
176.9839,291.3
176.9925,1474.9
177.012,290.2
177.0247,5817.2
177.0611,8166.4
177.069,351.9
177.1208,20.5
177.136,266.3
177.2822,92.7
177.3289,149.8
177.3647,110.3
177.3782,371.7
177.399,106
177.4039,17.5
177.4133,136.3
177.4423,409.7
177.4524,121.5
177.609,98.6
177.6242,424.2
177.6262,94.2
177.6623,19.6
177.8089,139.6
177.8298,113.8
177.912,282.3
177.9619,134.4
177.9711,147
177.9948,35.1
178.0088,7527.3
178.0165,30.1
178.0241,10899.5
178.0587,3541.9
178.0728,129.3
178.1283,19.2
178.1304,153.4
178.173,266.8
178.2613,316.4
178.2729,251
178.3679,207.1
178.3769,685.9
178.4305,283
178.5032,260.5
178.5223,102.7
178.5585,19.5
178.8044,234.6
178.8833,199.9
178.8858,304.8
178.893,58.4
178.9592,19.9
178.9998,21.9
179.0027,176.9
179.0082,2030.8
179.0152,29.2
179.0435,158.4
179.0491,130.1
179.0938,174.8
179.1857,109.5
179.2381,23.4
179.2782,118.1
179.3005,332.2
179.3263,242.2
179.3383,19
179.4008,702.4
179.5178,123.6
179.5229,141.3
179.5574,270.8
179.5801,88.6
179.6026,658.4
179.625,526.1
179.7132,18.1
179.7178,314.3
179.727,370.4
179.7673,120.3
179.8846,685.1
179.8907,648.4
179.9674,154
179.9827,178.5
180.0034,10045.3
180.0106,428.1
180.0189,20.7
180.0613,18.3
180.0993,708
180.119,497.2
180.2988,19.1
180.3694,125.2
180.6911,243.3
180.793,103.9
180.8322,171
180.8881,791.4
180.8945,3385.9
180.9041,5150.7
180.9528,321.3
180.9666,384.9
181.0154,63.6
181.0261,465.8
181.0327,17.2
181.0594,24.9
181.0649,6583
181.101,212.5
181.1304,19.9
181.2627,268.2
181.3588,18
181.3815,245
181.4006,32
181.5034,202.3
181.602,176.4
181.6693,187.5
181.6725,319.5
181.7113,257.7
181.739,337.1
181.8603,33.1
181.8674,259.5
181.8885,767.6
181.9258,460.8
181.9582,399.8
181.9675,34.4
182.0111,21.1
182.0424,27015.1
182.0757,165
182.1529,546
182.198,290.8
182.2995,891
182.3713,165.7
182.4397,630.1
182.471,378.1
182.4899,228.3
182.5089,852.1
182.5235,210.7
182.6175,116.8
182.6408,307.7
182.6439,293.7
182.6712,417.9
182.7349,383.3
182.8645,249.2
182.9024,22.4
182.9366,280.8
182.9466,119.9
182.9657,167.3
182.9714,156.6
182.9978,487.1
183.0443,1647.5
183.0927,17.5
183.0966,665.3
183.1686,19.4
183.1753,574.4
183.2289,324.7
183.3142,381
183.3585,570.7
183.3786,15.9
183.4509,940.1
183.5084,101.6
183.5333,162.9
183.6401,17.1
183.6588,304.3
183.6664,19
183.7082,513.2
183.8728,615.5
183.9618,18
183.9646,408.3
183.9886,205.9
184.0137,118.9
184.0314,24.1
184.0371,1179.9
184.0609,267
184.0662,1782
184.0734,4305205.5
184.0801,1893.5
184.1022,490.6
184.1096,464.2
184.1703,21.2
184.1822,1324.9
184.202,694
184.2227,104.4
184.388,19
184.4888,105
184.5285,111.5
184.5457,219.4
184.7431,320
184.7776,127.8
184.7815,329.8
184.8768,18.3
184.8925,247.6
184.9299,26.7
185.0143,372.7
185.0289,277.8
185.0323,82037.4
185.0703,9003
185.0767,205261.7
185.165,22.8
185.2177,150.2
185.2844,17.1
185.3105,23.7
185.3265,628.5
185.4258,168.4
185.4518,287
185.5452,94.6
185.652,366.9
185.7294,23.6
185.8525,124.3
185.9271,194.2
185.9303,100.2
185.9353,231.1
185.9503,272.2
185.9598,2444.1
185.998,211.3
186.0358,1280.1
186.0522,375.7
186.0776,25842
186.2317,195.6
186.2634,178.6
186.3388,554.8
186.4868,409.8
186.5596,17.3
186.6687,157.1
186.6942,345.2
186.7012,318
186.7571,293.1
186.7738,141
186.7982,721.3
186.8142,419.6
186.8278,427.9
186.8439,390.5
186.8788,26.2
186.9093,308.7
186.9121,2092.3
187.0304,3182.7
187.0533,120.1
187.0578,13207.6
187.062,475.8
187.0715,228.6
187.13,335.3
187.2005,697.3
187.2229,165.3
187.281,378.2
187.3092,256
187.3743,20.1
187.3956,393.5
187.4463,479.7
187.4657,123.7
187.5164,204.4
187.576,384.5
187.6016,267.6
187.6587,350
187.6647,20.1
187.8737,331.3
187.8851,239.4
187.9039,124.9
187.979,171.7
187.9849,506.3
187.9868,206
188.088,179.8
188.1128,515.7
188.1726,449.1
188.2156,360.7
188.2764,182.6
188.2928,625.2
188.3443,216.1
188.3623,179.6
188.3926,192.8
188.4247,18.6
188.4777,198.4
188.5293,417.5
188.5338,20
188.5606,460.9
188.6599,307.6
188.7276,280.6
188.8556,373
188.9102,368.6
188.9246,22.6
188.945,737.3
188.9884,19.2
189.0037,861.6
189.0071,514.1
189.0209,116.2
189.0552,266.6
189.0611,4626.6
189.0871,4721.7
189.1086,161
189.1263,117.9
189.1744,388
189.196,274.8
189.2282,499.2
189.2516,272.9
189.3389,271.7
189.4098,221.6
189.4806,19.5
189.5955,97.8
189.6507,18.4
189.6938,284.6
189.7164,106.6
189.7495,379.4
189.7747,103.7
189.8508,208
189.876,20.6
189.8838,145.8
189.9924,113.5
190.0227,22
190.0582,18.2
190.3191,36.5
190.3612,315.9
190.4183,205
190.4547,206.7
190.5534,288.1
190.6405,263
190.7161,460.1
190.8019,125.3
190.8323,414.2
190.8723,592.7
190.8921,375.9
190.912,1925.8
190.9515,220.3
190.9646,235.8
191.0001,150
191.0082,3598.4
191.0197,332
191.0239,59.8
191.0404,134535.5
191.0503,124.9
191.0768,19203.8
191.1699,18.8
191.1944,248.9
191.1986,228.2
191.2823,370
191.3478,279
191.398,503
191.4418,162.7
191.4957,106.3
191.5794,21.6
191.6277,20.4
191.665,192.1
191.7099,517.2
191.7239,782.2
191.7452,420
191.8018,773.1
191.8513,491.4
191.8665,127.7
191.873,236.3
191.8801,18.2
191.9407,23.7
191.9595,581
191.9824,1646.6
191.9856,127.1
192.0111,24.1
192.0268,17.9
192.0398,15743.1
192.0436,4658.2
192.0585,462.9
192.0982,340.3
192.103,152.7
192.1563,215.4
192.1619,698.2
192.2005,21.5
192.298,161
192.3291,97.2
192.4189,383.2
192.4582,111.2
192.4906,108.4
192.5901,674.9
192.5926,719
192.6143,180.5
192.6594,113.2
192.6737,126.4
192.6933,228.5
192.6973,262.2
192.7223,263.4
192.7513,20.8
192.8007,328.1
192.8292,90.9
192.8442,459.3
192.9107,70.7
192.9728,664.7
192.9987,5294.3
193.0178,310.6
193.0351,3671.3
193.0429,343.4
193.0523,30.4
193.1911,614.2
193.323,376.9
193.3999,505.2
193.423,17.2
193.4803,667.7
193.5231,132.9
193.686,698
193.7216,430
193.7704,285.5
193.8964,146.4
193.9805,540.8
193.998,2070
194.005,322.5
194.0102,149.8
194.0167,17.6
194.0223,398.5
194.0329,1448.1
194.0434,631.6
194.0789,698.5
194.1215,555
194.1477,162.2
194.154,264.2
194.2501,284.5
194.3061,687.3
194.3586,127.6
194.3959,18.1
194.462,686.1
194.4705,142.9
194.4896,93.2
194.5678,420.7
194.6192,290.8
194.7025,143.4
194.7542,88.2
194.8124,240.1
194.9038,221.2
194.9112,18.5
194.9197,267.3
194.9597,163.5
194.9812,529.2
194.9941,18
195.0765,370.6
195.0897,163.1
195.182,177.1
195.2395,205.2
195.2606,115.6
195.2745,228.9
195.3101,695.7
195.3168,289.9
195.4076,100.3
195.4221,287.1
195.4488,212
195.4531,318.8
195.4875,395.6
195.4954,515
195.6931,304.8
195.7087,252
195.735,188.1
195.8253,21
195.8344,170.3
195.8956,169.5
195.9136,114.6
195.9517,23.6
195.9668,391.5
195.9819,22.2
196.0792,438.9
196.1135,568.1
196.1207,162.2
196.1696,552.3
196.1909,535.1
196.2214,416.7
196.2259,241.7
196.3191,484
196.3475,19.3
196.406,116.8
196.429,452.5
196.6348,262.6
196.6913,386
196.7366,354
196.7793,526.4
196.784,291.8
196.8653,5089.3
196.8685,953.7
196.8781,1865.8
196.9324,229.1
196.9517,524.7
196.9687,47.5
197.1012,1015.3
197.3541,106.5
197.3807,348.5
197.4583,469.5
197.5632,193.4
197.8431,726.1
197.8697,20.5
197.8909,27.7
197.9053,97.8
197.9285,231.6
197.9433,339.9
197.9533,207.1
198.0208,651.4
198.0849,13751.9
198.1854,5492.6
198.2137,133.5
198.2152,138.4
198.2159,130.3
198.2355,109.6
198.4288,325.8
198.4511,324.8
198.4583,787.7
198.4791,261.5
198.4908,569.6
198.4951,147.7
198.5412,104.7
198.5989,16.5
198.7254,172.7
198.7324,165.6
198.7758,191.8
198.7794,123.2
198.8543,180.8
198.8623,5520.7
198.9418,205.8
198.9928,277.7
199.0164,388.2
199.0214,796.8
199.0365,409.9
199.0449,20.1
199.0689,192.9
199.0753,990.9
199.0801,71.5
199.0825,240.6
199.0889,261.7
199.1439,239.3
199.1467,128.4
199.157,277.7
199.1668,133.9
199.1705,586.5
199.1788,131.9
199.1887,248.6
199.2179,731.3
199.2601,316.2
199.3267,18
199.434,373.9
199.5048,95.7
199.5585,127.7
199.6154,136.2
199.6849,189.6
199.7757,178.6
199.7895,149.4
199.791,152.1
199.8751,300.6
199.9542,200.8
199.9907,29827.4
200.0407,12813.6
200.1934,352.7
200.2228,406.3
200.227,106.3
200.2378,568.9
200.2424,198.7
200.2713,642.4
200.2736,683.2
200.2937,35.4
200.3235,8900.2
200.3315,97.8
200.3358,452.6
200.373,585.3
200.4043,296.2
200.4188,555.9
200.4296,375.5
200.4496,127.9
200.5218,739.3
200.5382,20.2
200.6155,127.4
200.6409,266
200.734,161.2
200.8233,720
200.8244,649
200.8539,309
200.8592,2130.5
200.8943,3015.8
200.9658,371.1
201.0552,346.8
201.0634,21.2
201.0871,178.4
201.1138,247.1
201.2092,92.6
201.2479,250
201.2519,244.7
201.3223,128.8
201.3398,268.4
201.4825,28
201.5563,18.2
201.6833,322.6
201.8438,118.7
201.8647,148.3
201.8798,222.3
201.8943,139.5
201.9249,405.6
201.9335,545.4
201.9941,281.8
202.0163,49
202.0203,167.5
202.1193,719.1
202.3041,176.2
202.3523,171
202.3643,112.5
202.4426,220.2
202.4594,18.8
202.5874,545.1
202.6556,8453.5
202.6601,635.6
202.6622,686.4
202.6631,655.2
202.7012,129.7
202.725,347.6
202.7342,193
202.772,283
202.8553,201.4
202.8638,117.1
202.894,48.4
202.9116,351.6
202.9883,332.6
203.0319,4935.3
203.0484,1080.6
203.0527,1551404.8
203.0768,7633
203.1029,1096.5
203.1503,319.6
203.2209,17.3
203.3234,20.6
203.3639,17.9
203.4396,104.1
203.4419,110.8
203.4989,130.9
203.5844,18.5
203.6571,17.6
203.6741,505.3
203.7737,421
203.8285,348.1
203.8317,311.6
203.8567,150.4
203.8916,304.3
203.8983,307
203.9144,366.2
203.926,139.4
203.9279,135.3
203.9684,285.4
203.9981,604.5
204.0037,382.3
204.0082,306.5
204.0244,38863.8
204.0317,60
204.0357,463.2
204.056,81324.9
204.063,1698.1
204.1046,126.9
204.1129,328.2
204.1551,686
204.1975,19
204.2503,394.4
204.3228,163.8
204.3391,468.1
204.3469,894.5
204.3505,18.8
204.4628,93.9
204.5639,18.5
204.6552,167.9
204.7033,166.6
204.7584,20.2
204.8883,1127.2
204.8977,235.2
204.9412,589.4
204.9778,219.1
205.0016,402.6
205.0156,24.5
205.0241,417.5
205.0276,130.1
205.0465,516.5
205.0569,14190.9
205.0835,44.3
205.0887,200.4
205.106,459.5
205.16,135.8
205.1899,401.9
205.1947,179
205.2579,366.4
205.264,223.7
205.4436,141.9
205.5008,105.1
205.5048,216.4
205.518,300.1
205.5954,126.7
205.6291,164.1
205.6717,222.5
205.7657,330
205.7812,264.5
205.9931,115.5
206.0125,213.9
206.0305,734.3
206.0405,18.7
206.0477,171.7
206.0553,1185.5
206.1035,20.3
206.1319,17.3
206.1677,236.7
206.2593,396.5
206.269,106.6
206.2858,153.8
206.3243,16.6
206.3326,134.9
206.3613,187.9
206.3723,271.6
206.4346,19.1
206.4543,246.7
206.4625,191
206.6122,32.3
206.7239,168.7
206.7696,212
206.8776,17.8
206.8878,160.3
206.894,16497.1
206.9168,224.8
206.9395,19.2
206.9563,506.4
206.9822,2696.4
206.9934,18.3
206.9978,209.4
207.0144,85836.7
207.0439,1587.1
207.0508,8430.9
207.0574,184.4
207.0682,321.6
207.0795,323
207.1183,127.6
207.1441,125.8
207.2374,189.3
207.2608,115.1
207.2824,25.2
207.3692,111.8
207.3855,223.2
207.4732,103.2
207.4786,153
207.4834,617.7
207.4946,21.8
207.544,226.7
207.5681,122.5
207.6122,18.1
207.6137,21.2
207.6147,21.2
207.684,21.6
207.7595,534.7
207.7678,283.1
207.7949,493.2
207.8836,251.1
207.8864,49.9
207.9167,314.5
207.9419,28.8
207.9834,593.7
207.9907,949.6
208.0067,113.1
208.0135,1610.1
208.0178,1418.6
208.0227,127.1
208.0396,225.6
208.129,197.8
208.276,162.2
208.2926,208.8
208.299,116.1
208.3371,256.1
208.4188,133.1
208.6031,19.7
208.6181,18.6
208.6472,21
208.681,168.5
208.6889,153
208.7611,288.5
208.8451,403.2
208.8665,730.5
208.8703,203.4
208.876,109.7
208.8831,1564.2
208.8911,10105.5
208.9357,481.8
208.9757,391.5
209.006,124.7
209.0125,2674.8
209.0272,20.4
209.0441,246
209.0575,18.9
209.1452,270.1
209.187,642.5
209.1971,317.6
209.2529,154.3
209.2855,137.8
209.3055,691.7
209.4355,119.3
210.2813,18.2
210.5515,20.8
210.7062,395.9
210.7889,185.9
210.878,286.9
210.8833,25.9
210.8881,1040.2
210.9479,27.4
210.9736,853.9
211.0215,185.5
211.0255,110.9
211.0557,152.3
211.0691,1034.3
211.0722,125.2
211.2742,190.4
211.2933,781.5
211.2987,16.5
211.3075,272.1
211.3142,10025
211.3224,40547.7
211.3254,29108.1
211.3304,21731.1
211.34,24.3
211.391,581.8
211.4538,104.3
211.5558,501.8
211.5607,414.6
211.7449,417.1
211.7903,22
211.8498,621
211.8691,404
211.9566,121.6
211.9593,22.9
211.9665,69.1
212.0248,290.1
212.031,345.5
212.06,656.9
212.0741,87.1
212.1479,361.8
212.2083,347.8
212.2131,511.7
212.2177,29.7
212.2257,490.2
212.2812,158.4
212.4123,749.4
212.4451,169
212.6344,315.8
212.6808,288.3
212.7452,20
212.8015,124.3
212.8393,1521.2
212.8789,27.1
212.8855,143.2
212.9146,220
212.9238,161.1
212.9347,230.3
212.9649,29.2
212.978,880.7
212.9914,282.6
213.0091,39.7
213.022,311.4
213.0324,26.8
213.0383,23.4
213.0548,1245
213.0746,1202.4
213.0797,123.2
213.0831,294.7
213.176,112.2
213.2212,660.8
213.2828,753.1
213.2885,168
213.3205,307.1
213.3371,21.4
213.4217,180.7
213.4464,110.4
213.4942,130.7
213.5107,148.9
213.5137,19.1
213.5295,30.2
213.6141,263.3
213.7453,126.7
213.8353,615.8
213.8511,156.7
213.9184,424.7
213.9469,393.1
213.9621,3021.8
213.9842,562.5
214.006,1125.5
214.0512,216.8
214.0589,13648.9
214.0898,1675
214.107,284.4
214.1341,123.3
214.3472,260
214.3758,647.1
214.3781,17.6
214.4066,305
214.4724,659.8
214.5566,19.7
214.5645,136.3
214.5988,222
214.6691,112.5
214.6866,107.6
214.7097,263.6
214.8363,1852.3
214.8733,388.9
214.9099,381.6
214.9176,1558.9
214.94,870.9
214.9651,79.7
214.9864,182.4
215.0311,166.9
215.0934,21.8
215.1728,249.5
215.2163,326.3
215.3308,274.6
215.4516,279.8
215.4727,118
215.4951,707.5
215.6494,18.7
215.726,613.1
215.8812,29.7
215.9102,23.6
215.9399,388.8
216.0146,7290.2
216.0486,161.4
216.0538,160.1
216.1355,104.6
216.1914,467
216.2447,141.3
216.2994,267.9
216.5428,17.8
216.6075,174.8
216.6966,19.5
216.7438,488.9
216.7705,636.7
216.7908,35.3
216.9229,51790.2
217.0271,229.8
217.0526,227.8
217.0681,174.6
217.0899,237.3
217.0981,291.6
217.1251,155.9
217.151,23.4
217.2148,113.4
217.2964,19.4
217.4434,135.1
217.4473,124.3
217.4857,157.1
217.493,309.3
217.6344,203.2
217.6652,246.8
217.6871,227.9
217.6964,21.9
217.755,578.8
217.9785,223
218.0149,112
218.0337,590.4
218.1517,34
218.2068,205.5
218.3185,424.6
218.3845,17.2
218.3935,313.4
218.4319,241.1
218.4626,340
218.5264,699.2
218.5415,150.9
218.5613,883.8
218.5868,118.8
218.6554,126.9
218.7165,371.1
218.7534,181
218.8675,162.6
218.8984,18.6
218.9045,296.5
218.9199,11892.7
218.9368,460
218.9625,130.1
219.0178,1467.9
219.0267,1594557.9
219.0316,769.8
219.0327,541.4
219.0389,125.5
219.083,9976.1
219.1655,373
219.2975,113.1
219.3859,18.5
219.4038,171.1
219.4503,595.2
219.5129,374.6
219.5189,21.5
219.5318,252.7
219.6135,463.3
219.6192,175.2
219.6339,227
219.6577,174.5
219.6678,112.1
219.6704,173.7
219.6996,110.3
219.7189,149.8
219.7865,378.4
219.8151,145.3
219.9045,20.6
219.9596,137.2
219.971,280.2
219.9986,308.8
220.03,80805.2
220.0367,492.6
220.067,11325.5
220.0861,671.3
220.1129,216.6
220.1673,417
220.2935,271.7
220.3221,587.6
220.3796,18.8
220.4099,386
220.4689,483.8
220.791,213.1
220.8285,171.8
220.8835,27.9
220.9033,43.6
220.9347,577.8
220.9682,136
220.9782,170.6
220.9895,138.7
220.9986,338.3
221.0055,386.3
221.0207,704.1
221.0248,95718.6
221.031,14343.1
221.0432,191.3
221.0511,1010.9
221.0844,1081.3
221.1256,140.8
221.1499,104.5
221.1844,346.4
221.2388,172.3
221.2761,139.8
221.3457,409
221.3905,17.7
221.4062,369.9
221.4358,120.1
221.5057,101.8
221.5668,131.5
221.7102,30.6
221.892,21.9
221.9394,19.7
221.9563,49.2
221.9838,2311
222.0226,386.3
222.0279,2553.7
222.0359,256.9
222.0393,528.8
222.0841,46.2
222.294,203.3
222.4438,131.9
222.4639,230.3
222.5093,150.7
222.5193,175.2
222.5507,251.5
222.6254,310.4
222.6929,128.8
222.8028,251.1
222.8679,15551.2
222.8792,586.7
222.8988,504.1
222.954,2018
222.9665,18.2
222.9883,11239.4
223.025,557.2
223.037,225.9
223.0638,51.5
223.0821,45
223.1418,20.3
223.2782,292.7
223.4469,179.5
223.4688,534.4
223.5931,123.5
223.6936,241.4
223.8637,253.3
223.873,253.4
223.9446,106.5
223.9533,23.2
224.0116,539.5
224.0295,4863.7
224.0765,299.4
224.0877,646.5
224.1201,509.5
224.1492,202
224.2638,107.5
224.2901,95.9
224.3162,204.4
224.3237,309.1
224.3718,180
224.3785,202.9
224.42,108.7
224.6052,19.3
224.8274,99.6
224.8649,7269.5
224.8911,586.5
224.9203,817.5
224.9274,155.5
224.9541,523.7
224.9868,290.9
225.0235,21.6
225.0433,22.1
225.0548,21069.7
225.0843,1020.6
225.146,18.5
225.1956,34.7
225.3471,455.4
225.4138,18.2
225.4494,654.2
225.4623,162.9
225.4698,275.4
225.4956,155.2
225.5554,504.6
225.636,283.5
225.6389,239.6
225.6594,352.7
225.7918,259.5
225.8262,404.8
225.923,140.3
225.9521,30.4
225.9622,22.6
225.9729,623.9
225.9913,424.2
226.0018,83.7
226.0063,684.6
226.0242,8968.9
226.0451,9585.2
226.1552,382.7
226.1854,257.6
226.217,125.7
226.2563,132
226.3232,309.5
226.3786,341
226.4274,328.2
226.4909,175.3
226.5902,148.7
226.6405,256.7
226.6611,352.1
226.6871,167
226.7665,542.3
226.8106,218.2
226.8181,324
226.8493,25
226.8785,98.9
226.9516,44570.9
227.009,319.9
227.0219,21.5
227.0275,233.6
227.0344,125.5
227.0423,118.1
227.0648,274.3
227.0726,114.2
227.0792,1455.4
227.0863,210.4
227.1352,326.7
227.2155,700.9
227.3166,18.9
227.4775,133.2
227.5471,337
227.606,150.6
227.648,612.8
227.6909,100.8
227.8979,22
227.9449,303.6
227.9499,750.9
227.9616,331.9
228.0005,824.7
228.0142,300.3
228.0221,933.7
228.0436,170.4
228.0561,305.4
228.08,195.6
228.0984,551.6
228.2327,19.7
228.3025,144.2
228.3436,441
228.4082,336.5
228.4165,21.6
228.5562,432.5
228.5687,244.8
228.5919,107.7
228.7468,120.4
228.7563,238.5
228.7753,108.5
228.813,768.2
228.8719,215.3
228.8894,26.4
228.9466,153.1
228.951,22.4
228.9602,147
229.06,20.4
229.1151,167.6
229.2908,563.9
229.3714,522.4
229.3786,606.1
229.3871,112.7
229.3975,205.1
229.4341,609.5
229.4811,401.6
229.5585,163.9
229.6147,18.7
229.6844,123.2
229.7017,260.5
229.7094,260.6
229.9126,77.7
229.9232,20.3
229.957,9854.4
230.0274,291.4
230.0335,102.2
230.2233,280.4
230.2282,604.7
230.3118,119.2
230.3277,250.2
230.3651,107.7
230.4006,644
230.4339,514
230.5065,437.7
230.5254,184.1
230.5711,106.8
230.5838,351.9
230.6404,285
230.6887,220.1
230.7357,423
230.7543,201.2
230.8533,19.5
230.8651,383.5
230.8826,233.9
230.8901,508.2
230.9227,541.7
230.9252,236.4
230.9379,714.8
230.9437,452.8
230.9604,373.1
231.0839,2042
231.0902,18.3
231.1706,100.6
231.2388,161.8
231.2926,18.5
231.3614,25.5
231.4949,169.1
231.5767,485.2
231.5921,25.5
231.5998,673
231.6883,241.7
231.7032,303.5
231.9111,303.2
231.953,206.8
231.9574,421.7
231.9618,21.1
231.9725,172.6
231.9952,84
232.0037,20
232.011,156.3
232.0968,237.6
232.202,196.3
232.2489,141.2
232.3962,245.3
232.4942,93.4
232.5775,131.4
232.5894,19
232.6268,154.1
232.6699,344.8
232.7012,18.6
232.7355,1023.2
232.8836,67
232.8968,40785.7
232.9229,34.7
232.9384,1266.4
232.964,286.9
232.9856,1487.6
232.9907,506.5
232.9951,17.1
233.051,8425.3
233.0584,114.4
233.1134,122.8
233.242,109.3
233.3387,352.2
233.3494,309
233.4375,740.3
233.4867,811.9
233.5421,383.8
233.6513,285.3
233.9313,255.7
233.9531,23.1
233.9922,133.1
234.0244,362.5
234.2016,108.9
234.454,133.5
234.4626,351.6
234.4859,480.8
234.6227,625.2
234.7475,640.8
234.8938,11200.7
234.8999,103.5
234.9368,199.9
234.9534,684.9
234.9816,7054
235.0569,4561.7
235.0666,1401.8
235.0926,4732.7
235.1285,144.7
235.2619,172.2
235.3131,118
235.4293,482.6
235.5653,164.7
235.6301,19.2
235.7831,382.1
235.9653,32.3
235.992,94.4
236.007,26.8
236.0218,154.5
236.041,5542.6
236.0717,67940.5
236.0771,19.9
236.1108,304.4
236.4339,18.9
236.4952,218.9
236.5425,173.9
236.5442,223.2
236.5453,225.6
236.6389,177.3
236.7055,104.1
236.8087,430.2
236.8781,279.1
236.9069,22.1
236.9222,104.6
237.0393,268.7
237.0708,150.8
237.0751,2772.2
237.1244,173.2
237.1346,708.1
237.2823,326
237.3477,247.2
237.3541,23.3
237.4091,30.6
237.4582,374.8
237.6551,20.4
237.6664,260.2
237.8173,351.5
237.8301,319.7
238.0043,377.5
238.0675,1070.4
238.0784,62.4
238.1569,35.3
238.2436,610.4
238.2953,692.3
238.3291,250.1
238.3346,154.6
238.3638,101.2
238.4089,259.3
238.45,589.8
238.4734,160
238.5569,257.7
238.5973,1049.7
238.6558,117.9
238.8419,6424.6
238.8532,970.7
238.8625,266.5
238.8632,268.3
238.9431,28.3
239.0011,173
239.0091,4837.4
239.0371,40.1
239.0477,283.6
239.0546,226.3
239.0595,96.1
239.0638,224.2
239.0679,1545.4
239.2394,504
239.2466,313.3
239.3564,188.5
239.4275,106.5
239.4584,151
239.4942,18
239.5046,114.6
239.5158,494
239.5527,436.6
239.609,216.8
239.6672,436.7
239.7306,130.6
239.7662,686.7
239.8502,23
239.9674,340.3
239.9792,18.4
240.0036,1871.1
240.0089,117.6
240.0239,280
240.0312,276.2
240.0984,507.6
240.1558,298.9
240.1843,165.5
240.3402,285.9
240.3896,506.9
240.4916,358.5
240.7055,224.6
240.809,166.4
240.8384,2308.3
240.8563,119.7
240.9549,1148.2
240.9596,297
240.9673,1138.5
241.0062,264
241.0352,23.1
241.0588,18
241.0655,468.9
241.3576,210.7
241.4141,222.6
241.566,264.6
241.5746,192.6
241.5953,639.8
241.6076,623.9
241.842,107.8
241.9725,28.8
241.9777,150.9
241.9982,2305.9
242.0095,96.8
242.0192,3146.4
242.043,579.6
242.2052,282.8
242.2368,18.6
242.2663,119
242.2961,383.4
242.3275,164.1
242.3824,349.5
242.4178,807.7
242.5234,158.7
242.5955,208.6
242.608,87.8
242.6245,138.9
242.7447,358.9
242.9256,22637.3
242.9305,358.9
242.9576,117.8
242.9649,16.6
243.002,106.9
243.0065,164.3
243.0373,197.8
243.0531,7048
243.0654,5415
243.1032,324.3
243.1844,406.3
243.215,423.6
243.2612,31.7
243.3151,357
243.3889,20.2
243.5637,209.3
243.5671,233.6
243.7318,157.5
243.7605,19.8
243.7831,20.2
243.8044,145.3
243.8139,161.6
243.8412,168.6
243.8446,125.5
243.8611,528
243.9159,586.4
243.9727,3718.9
243.9949,393
244.0125,216.8
244.0222,654.7
244.1616,262.5
244.2796,309.4
244.4133,231.2
244.4144,234.5
244.4907,124.7
244.8708,5524.8
244.9758,191.3
245.06,545.3
245.1803,293.3
245.2173,727.2
245.2267,102
245.3586,174.6
245.4009,179.1
245.6345,18.9
245.7438,19.6
245.7504,105.9
245.8959,112.5
245.9067,172.1
245.9499,589.9
245.9686,26.7
245.9734,24.8
246.0013,90.5
246.0103,42.4
246.03,294.5
246.0845,159.2
246.0891,127.6
246.1633,739.8
246.2806,328
246.3581,584
246.5341,503.4
246.54,521.9
246.6018,549.8
246.621,143.3
246.7632,168.6
246.7684,118.2
246.7734,177.2
246.8073,32
246.8404,426.4
246.8425,483.9
246.8625,440.4
246.9002,143.3
246.9518,3144.7
247.037,315.3
247.0527,297.1
247.0579,833.3
247.0666,1888.4
247.0926,2229.5
247.1712,170
247.3658,177.7
247.3855,206.7
247.4201,312.1
247.443,285.7
247.5284,471.2
247.791,33.2
247.7978,672.5
247.8651,20
247.8799,107.7
247.9232,118.9
247.9676,704.4
247.9832,748.9
247.9884,273.5
248.003,582.9
248.029,303.3
248.0699,19.5
248.0904,134.1
248.1243,9774.4
248.4074,404.8
248.4924,211.5
248.5827,174.8
248.6258,579.3
248.8136,16.7
248.8218,241.7
248.8708,10525.2
248.8788,21.6
248.9009,140.9
248.9154,35.9
248.9484,176.5
248.9597,968.9
248.971,24.7
248.9788,162.5
248.9988,495.3
249.016,1971.7
249.0529,343.4
249.0612,17290.4
249.07,16.3
249.0868,172.9
249.0947,210.2
249.1109,38.7
249.1697,167.9
249.2149,372.8
249.3993,159.9
249.5275,313
249.5489,678.3
249.6787,22.5
249.6959,98.9
249.7933,20.8
249.8773,341.9
249.8862,54
249.936,427.2
249.9561,116.9
249.9624,18.8
249.9676,21.2
250.0385,828
250.0645,762.2
250.1006,169.8
250.1335,18.9
250.1408,352.8
250.1601,489.1
250.1782,2843.2
250.1835,231.6
250.3443,225.3
250.3938,16.3
250.4557,119.4
250.6266,144.5
250.6723,560.7
250.8184,693.6
250.8266,122.2
250.8675,1367
250.8937,205.2
250.9204,1980.5
250.9552,2532.3
250.9963,135.7
251.0091,25.8
251.0297,234.2
251.0338,191.4
251.0489,254.9
251.1279,660
251.1636,296.9
251.1948,448.6
251.2122,393.2
251.3201,132.5
251.3802,115.3
251.4876,358.2
251.6875,302.3
251.7058,348.6
251.7895,20.7
251.8211,509
251.9018,213.7
251.9231,196.8
251.9697,357.9
251.9807,895.4
251.9976,382.1
252.0367,50.3
252.0457,115716.6
252.2094,237.1
252.2572,122.2
252.2736,104.6
252.5216,149.5
252.5501,32.4
252.7253,30.6
252.8107,148.8
252.8163,128.5
252.8443,252.1
252.893,122.2
252.9097,234.1
252.9174,1133.7
252.9512,48.6
252.9557,401.4
252.9765,347.3
253.0254,139
253.049,7051.4
253.1347,158.6
253.376,142.5
253.5013,581.9
253.5334,181.5
253.5605,339.9
253.6109,734.3
253.6839,120.1
253.7135,351.3
253.7418,293.4
253.8939,336.6
253.9222,119.4
254.02,290.1
254.0246,388.6
254.0369,708.9
254.0438,4578.1
254.0734,122.5
254.0955,126.9
254.1116,117
254.1203,74.1
254.1768,458.2
254.2356,18.9
254.3825,234.2
254.466,422.7
254.4951,463.3
254.5631,617.1
254.5957,211.3
254.6264,380
254.8072,287.3
254.8159,1201.3
254.8239,7035.4
254.8505,352.2
254.9497,116.8
254.9861,115.1
255.0247,242.9
255.033,26677.8
255.0381,594.2
255.047,298.5
255.0516,221.9
255.0743,105.4
255.1344,111
255.1989,301.3
255.3137,98.8
255.415,18.9
255.6645,19
255.8298,521.1
255.8313,499
255.8327,449.9
255.9342,107.7
255.9643,21.3
255.9734,54.2
255.9781,1909.4
255.996,115.6
256.0035,1839.1
256.0356,151.5
256.0431,315.2
256.0586,17.9
256.0767,834.8
256.1044,531.2
256.1213,132.3
256.1413,21.5
256.3285,278.6
256.5833,566.7
256.6559,111.4
256.786,36.3
256.803,36.9
256.8209,12086.6
256.9288,833.9
256.9324,953.6
256.9773,115
257.0066,32.1
257.0222,211.7
257.0305,225.4
257.0362,247
257.0487,7170.6
257.0652,431.4
257.0746,44789.8
257.1017,327.1
257.3525,204.7
257.8073,20.4
257.8311,117.8
257.8709,514.6
257.952,306
257.9883,124.3
258.0149,115.7
258.0303,304.3
258.074,92.6
258.078,1301.5
258.1103,17767.5
258.176,298.1
258.2653,122.9
258.5535,266.7
258.648,245.9
258.6546,587.9
258.7201,991
258.818,3986.2
258.8353,376.2
258.8629,71.1
258.8756,18.6
258.8996,4321.3
258.9144,110.2
258.9318,788.6
258.9714,446.5
259.0287,1642
259.0806,695.2
259.2105,380.9
259.3756,235.8
259.5636,443.6
259.5794,137.9
259.653,20.9
259.6614,736.4
259.7453,146.5
259.8124,307
259.8402,362.9
259.881,119.7
259.9469,19.5
259.9989,196.8
260.2502,239.1
260.3237,106.2
260.3278,314.5
260.389,452.2
260.5039,465.2
260.6111,657.6
260.6413,218.6
260.7567,262.6
260.7676,165.8
260.8076,229.2
260.8151,414.4
260.8449,2595
260.8785,37.2
260.8881,91.5
260.9328,420.3
260.9491,6689.2
261.0467,373.2
261.1204,103.7
261.3055,174.8
261.3708,133.7
261.5399,136.9
261.6324,685.7
261.7127,376.8
261.7817,23.3
261.7966,275.9
261.8196,20.4
261.9264,127.7
261.9549,309.7
261.9579,168.1
261.9833,223.3
262.0819,1022.8
262.2336,277.1
262.253,50.4
262.5539,21.7
262.5597,243
262.5943,18.1
262.7565,111.9
262.8404,18.4
262.9061,422.1
262.9177,415.6
262.9464,1028.9
262.9641,21.1
262.9888,458.6
262.9934,183.2
263.0132,1723.6
263.0303,154.3
263.0541,721.5
263.0852,2330.5
263.1312,265.5
263.2045,361.7
263.2364,277.8
263.3501,341
263.4066,162.4
263.5255,338.2
263.5729,19.8
263.5829,147
263.7095,289.4
263.777,121.6
263.8725,364.4
263.9311,20.1
263.9492,123.8
263.9551,113.5
264.04,125.9
264.251,139.8
264.2688,337.3
264.2875,467
264.3156,337
264.579,142.2
264.6777,18.7
264.8447,1607.8
264.8527,6257.6
264.8731,135.2
264.9341,361.3
264.9885,13484.6
265,358
265.0076,172.7
265.0232,907.3
265.0352,8805.9
265.0476,1872.9
265.0649,246.6
265.1932,20.9
265.2211,194.9
265.2333,17.8
265.3403,399.1
265.4135,227.2
265.9339,68.7
265.95,19.7
265.9573,88.3
265.9783,368.5
265.992,147.1
266.0331,205.8
266.1221,270.4
266.1738,614.7
266.3148,375.7
266.3837,392.4
266.4468,254.8
266.4713,242.8
266.5636,104.5
266.6634,98.7
266.7754,284.1
266.8286,466.9
266.8498,5612.3
266.8943,1743
266.9579,25.1
266.9915,324.9
267.0033,458.8
267.0591,391.9
267.09,225.4
267.0981,378.7
267.1418,187.7
267.1495,801.5
267.169,181.4
267.2108,476.1
267.2539,324.8
267.3438,131.9
267.3841,364.8
267.5379,692.9
267.6473,1017.2
267.8206,110
267.8451,366.9
267.8594,34.1
267.9277,333.3
267.9744,273
267.987,595.7
267.9938,880.6
268.009,76.9
268.0294,730.6
268.0583,274
268.0805,466
268.1815,246.4
268.5148,149.5
268.5834,239.8
268.6092,709.8
268.6798,313.6
268.7753,31.6
268.7852,20.9
268.847,1125
268.8721,288.5
268.8912,1280.5
268.9271,23
268.9971,24.3
269.0145,129.8
269.0279,743.5
269.0369,162.4
269.0449,11365.1
269.0487,39159.3
269.1045,278.6
269.153,469.1
269.2664,142.3
269.3555,168
269.4481,143.6
269.495,132.5
269.6792,621.3
269.7266,222.1
269.8482,235.7
269.9058,101.6
269.9103,289.6
269.9142,195.1
269.946,167.7
269.9519,65.8
269.9893,368.2
269.9941,1300.9
270.0095,62.1
270.0248,16466.9
270.0474,23344.4
270.0526,216.7
270.1452,363.9
270.1873,149.3
270.4088,111.6
270.7173,719.8
270.7979,3968.1
270.803,176.7
270.805,310.8
270.8068,303.8
270.9024,344.6
270.9604,40.1
270.978,14139
271.028,1317
271.0392,124.9
271.0505,232.9
271.0613,124.5
271.0779,304.8
271.086,366.1
271.0904,3243.9
271.258,528.5
271.3631,258
271.4038,279.8
271.4184,108
271.5673,226.5
271.5738,115.3
271.7162,126.9
271.8521,255.8
271.9004,143.8
271.9256,360.6
271.9672,424.4
272.0053,28.3
272.0206,542.1
272.0296,153.8
272.0448,41.8
272.0465,32.1
272.0543,94.9
272.0603,148
272.0648,261.1
272.0805,206.9
272.2027,402.1
272.2201,264.9
272.396,448.1
272.4902,217.3
272.5779,247.8
272.7872,631.8
272.7949,3506.2
272.8237,28.6
272.8985,222.8
272.908,31.8
272.9436,550.3
272.9574,195.2
273.0484,1812.5
273.0834,124
273.098,126.8
273.1311,315.7
273.3146,20
273.5003,22.8
273.5088,246.4
273.6455,428.9
273.7011,95.7
273.7288,735.3
273.8273,177.4
273.8665,130
273.9469,298.1
273.9566,125.7
273.9627,17034.8
273.9856,133
274.0692,101.1
274.0922,1092.2
274.1856,188
274.3138,180.7
274.3532,383.9
274.3728,394.7
274.4487,618.6
274.494,612.9
274.5196,415.3
274.5251,243.6
274.6372,19.2
274.6522,276.7
274.7784,342.4
274.792,1534.8
274.8592,17.4
274.8819,474.7
274.9375,252.7
274.9607,126.4
274.965,932.7
274.9706,198
274.9841,272.7
275.0647,205.4
275.1566,307.2
275.1747,387.6
275.1796,239.1
275.2232,462.2
275.2438,265.4
275.2573,207
275.2704,273
275.2907,315.1
275.3633,328.1
275.3799,311
275.4465,228.5
275.4692,157.8
275.499,210.2
275.6177,125.2
275.7358,312.9
275.778,172.4
275.8253,808
275.8808,328.9
275.9699,433.4
276.0036,31.5
276.166,20.5
276.1778,216.9
276.2239,344.2
276.2352,16.5
276.2365,16.4
276.2783,211
276.2895,112.2
276.3443,157.1
276.3475,470.5
276.6625,287.1
276.7146,515.5
276.8025,29
276.8185,29.7
276.8303,326.2
276.8623,140
276.8732,57
276.9087,43.8
276.923,6722.5
276.9977,207.1
277.0133,358.5
277.2741,107
277.2897,19.7
277.4677,97.1
277.4731,122
277.4862,343.5
277.5965,115.7
277.6013,18.6
277.6658,100.9
277.6704,19.4
277.7103,35.7
277.7572,243.4
277.8069,162.2
278.0002,51.7
278.0191,369.4
278.632,154.6
278.7846,222.6
278.8893,43.9
278.8934,1718.4
278.92,366
278.9873,3385.4
279.004,1868.3
279.0566,34922.6
279.3366,151
279.4892,31.5
279.5329,236.1
279.5489,423.4
279.6134,277.8
279.6465,106.7
279.746,232.4
279.8247,711.9
279.8994,262.9
279.9057,172.7
279.9079,409.3
279.9205,178.2
279.9777,354.5
280.012,647.8
280.016,167.6
280.06,321.9
280.092,1466.3
280.0961,18.8
280.1686,261.5
280.2389,109.7
280.307,373.7
280.378,32.5
280.574,270.1
280.5822,234.1
280.6109,113.2
280.6592,510.2
280.7013,580.6
280.7773,123.3
280.8267,2352.2
280.9624,2652.9
280.9955,21.7
281.0026,161.9
281.0094,1451.1
281.0514,709.9
281.1168,238
281.2151,125.4
281.2424,229.5
281.2686,278.2
281.2909,132.4
281.4529,161.3
281.616,591.3
281.6509,811.2
281.6738,199.1
281.7687,290.8
281.8393,494
281.9305,224.4
281.9662,18
281.9902,199.6
282.0148,90
282.0513,58
282.0646,327.1
282.3223,385.6
282.3368,167.4
282.4034,730.8
282.4132,21.1
282.4871,19.2
282.5557,329.9
282.6815,21.6
282.6928,304.1
282.7098,317.8
282.8238,2133.7
283.0476,25.7
283.1063,112.4
283.2637,20
283.3408,590.8
283.3481,465.4
283.3619,264.2
283.3825,303.2
283.4648,557.1
283.5105,193.6
283.55,165
283.5578,178.2
283.6311,325.9
283.6401,312.9
283.7864,18.8
283.8118,107.8
283.8396,183.2
283.8432,351.3
283.9003,31.6
283.9986,383.5
284.004,34.8
284.0092,30
284.0242,193
284.0543,22.1
284.063,108.5
284.1941,124.3
284.3461,352.3
284.4373,215.5
284.4629,437.8
284.5243,198.5
284.5498,391.4
284.6898,217.2
284.7908,170.5
284.9135,120.6
284.9933,1102.8
285.0229,758.2
285.0498,235.6
285.2224,655.4
285.2628,302.5
285.3019,242.4
285.3033,271.2
285.3059,240.8
285.3634,337.3
285.4828,127.9
285.5032,281.6
285.601,546.1
285.7403,687
285.9143,96.1
285.9676,1078
286.0197,4517.8
286.1053,123.6
286.1289,162
286.2515,266.7
286.355,370.9
286.3902,22.4
286.4804,242.7
286.4974,338.1
286.6456,163.8
286.7346,24.8
286.7717,2482.6
286.9183,548
286.952,7198.1
287.023,346.3
287.0553,25473.2
287.1266,273.2
287.2644,170.7
287.4376,145.2
287.5166,148.8
287.6493,595
287.8174,305.3
287.8768,581.1
287.8942,360.5
287.9403,517.5
287.9492,80
287.9663,704.7
287.9961,506.3
288.016,125.6
288.0353,93.6
288.0592,151.1
288.0845,50.2
288.0945,275.7
288.1555,2231.1
288.2139,19
288.2176,202.9
288.4256,237.6
288.6219,276.3
288.7688,2468.3
288.7978,344.6
288.8078,108.3
288.8498,759
288.8645,502.4
288.8708,1173
288.8814,4234.9
288.8869,4666.8
288.8921,3891.4
288.902,7982.2
288.9047,7417.5
288.9088,7317.3
288.9161,11669.3
288.9212,15196.9
288.9321,18237.3
288.935,20021.4
288.9435,16516.6
288.9447,16540.3
288.95,14936.3
288.9539,16583.5
288.9629,15804.1
288.9641,15783.8
288.97,14516.3
288.9743,9108.1
288.9791,7947.6
288.9877,7304
289,2447.3
289.0094,1093.1
289.0151,459.6
289.0182,373.5
289.0197,368.5
289.0247,196.8
289.0477,878.9
289.0676,117.7
289.1111,31.9
289.1418,18.6
289.1838,120.3
289.228,222.9
289.3302,135.6
289.3421,317.7
289.4202,733.1
289.5375,142.1
289.5739,16.8
289.7864,147.7
289.8387,171.7
289.9295,290
289.9366,3763.1
289.9509,289.7
290.026,389.7
290.0852,147.1
290.1005,34.4
290.1118,459.3
290.1584,348.3
290.2693,188.2
290.2915,20.3
290.3134,365.2
290.4663,250.2
290.5271,17.2
290.6005,369.5
290.6563,22.4
290.75,602.7
290.7631,658.6
290.7644,663.2
290.7972,57.5
290.8349,30.9
290.8551,441.2
290.8898,226.4
291.0269,1455.5
291.0544,141
291.091,19.7
291.3451,256.3
291.3835,21.6
291.4851,571.2
291.7721,600
291.7986,131.3
291.8275,168.3
291.8972,100.1
291.9565,231.3
291.9734,346.9
291.9844,346.3
292.0343,727.2
292.0795,30.3
292.0865,103.8
292.2477,580.7
292.2705,318
292.3202,305.3
292.3419,18.2
292.4561,288.8
292.6187,114.4
292.8622,22.3
292.8971,499.7
292.9398,795.7
293.0057,336.8
293.061,121.6
293.0722,1525
293.0982,132386.7
293.1793,3114.1
293.3383,146
293.4458,758.4
293.5702,357.1
293.6603,32.1
293.8212,732.4
293.846,313.5
293.9928,523.3
294.0229,364.3
294.0408,195
294.0477,241.1
294.0781,155.6
294.096,96.6
294.1016,9113.8
294.2031,136.5
294.2179,111.8
294.3698,20.7
294.4125,19
294.4307,146.6
294.4906,38.4
294.571,361
294.6215,243.8
294.7266,234.3
294.7794,384.1
294.8053,591.1
294.8278,23.5
294.8649,21.9
294.8766,281.7
294.9392,703.6
294.9459,19.1
294.9908,228
295.0045,206.4
295.0134,116.8
295.0305,623.6
295.1028,310.9
295.1947,21638
295.2907,142.8
295.5385,680.3
295.5662,644.7
295.5826,178.3
295.6281,287.7
295.8717,124.7
295.9098,320.9
295.9947,702.6
296.0094,1770.7
296.0159,23
296.0224,810.4
296.1041,878.6
296.1977,2284.3
296.3458,128.2
296.4486,299.6
296.5859,170.2
296.6555,124.9
296.6661,427.1
296.6984,172.5
296.7213,300.8
296.7296,179.1
296.8564,457.3
296.9135,132.2
296.9465,129.4
296.9873,128.6
297.0465,23.8
297.059,172.1
297.0797,213.2
297.1077,35.9
297.1393,285
297.1509,19.7
297.1951,251.4
297.2287,294.8
297.2652,105.3
297.3031,117.6
297.3735,134.4
297.4482,306
297.6254,772.7
298.025,1540.3
298.0423,15243.7
298.1004,25.6
298.11,20.9
298.5629,32.3
298.6015,315.2
298.6906,324.6
298.8088,450.7
298.8867,118.2
298.8916,623.2
298.9862,81.8
299.0234,2010.6
299.0459,471.1
299.0621,158.7
299.0829,534.1
299.1393,2373.9
299.3125,111.8
299.3475,197.1
299.6787,231.9
299.8355,659.6
299.9858,19
300.0047,717.9
300.0354,1010.5
300.0754,271
300.1691,204.1
300.1961,46.8
300.2617,150
300.2876,560.4
300.4212,23.3
300.4902,718.4
300.5555,125.9
300.6242,591.6
300.6763,611
300.7728,832.9
300.7928,297.1
300.8013,385.1
300.8197,32
300.8638,18.4
300.891,341.7
300.8976,17.1
300.9867,127.2
301.0159,162.3
301.0386,20289.5
301.0747,319.4
301.1007,307
301.1061,202
301.1174,524.2
301.1415,232
301.2117,3966.5
301.2285,175.6
301.2492,17.9
301.2885,22.9
301.361,253.8
301.372,143.6
301.4564,426.6
301.5515,167.7
301.5883,127.7
301.6011,599.4
301.6457,19.4
301.672,121.6
301.734,217.8
301.9103,327.6
301.92,263.9
301.9305,795
301.9546,676.3
301.9754,529.3
301.9939,10406.8
302.0123,758.6
302.0199,770.4
302.035,20.9
302.0404,387
302.051,581.5
302.064,2768.1
302.1481,138.4
302.372,143.5
302.3779,221.3
302.5379,248.8
302.7052,283.6
302.7269,195.4
302.7316,342.7
302.7458,582.5
302.7567,514.5
302.768,384.7
302.7775,463.8
302.7836,892.4
302.8004,117.1
302.8295,3201.3
302.9494,578.9
302.9932,248.1
303.0074,21
303.027,125.9
303.0385,18.9
303.0673,267.3
303.2169,4369.9
303.2297,538.7
303.2865,88.1
303.3583,19
303.5436,146.7
303.5632,104.1
303.6713,439.4
303.8276,236.9
303.8579,334.4
303.8856,649.8
303.9105,662.1
303.9203,350.8
303.9407,120.4
303.9708,325.1
303.9858,823
304.0758,19.8
304.1726,494.8
304.2283,214.8
304.3916,628.4
304.4034,744.2
304.4166,385.1
304.551,271
304.6165,592.5
304.726,338.1
304.7427,579.8
304.8268,1127.7
304.836,157.7
304.8412,334.8
304.8518,22.8
304.896,636.6
304.9054,64.5
304.9899,32
305.0122,455.5
305.0282,161.5
305.0473,114.6
305.0602,218
305.0688,20.8
305.1892,144.9
305.2322,776.2
305.3377,226
305.6657,407.8
305.9105,108.1
305.9771,142
305.9829,218.6
306.0954,28
306.2792,20.9
306.3715,242.6
306.4278,475.7
306.4387,683.3
306.4849,343.8
306.5885,112.5
306.6173,328.7
306.6796,111.4
306.8835,260
306.894,33.2
306.9322,161.4
306.9489,298.2
306.9577,424.6
306.9629,214.1
306.9775,2724.1
307.0058,141.6
307.0175,219
307.1444,163.5
307.2272,19
307.2903,132.4
307.3158,258
307.3348,106.1
307.4153,280.3
307.4404,397.3
307.4599,525.3
307.5766,285.8
307.6943,595.1
307.8126,243.4
307.8485,93
308.0104,105.9
308.0832,380.7
308.1824,93.6
308.2402,229.6
308.46,205.2
308.6423,510.8
308.6526,18.9
308.6717,388.4
308.7096,20.5
308.8082,118.3
308.8788,1627.7
308.8995,191.8
308.9963,38
309.0062,167.5
309.0375,4203.5
309.0824,1204.1
309.1167,135.1
309.1381,758.2
309.1513,137.7
309.2976,275.4
309.3499,110.9
309.4753,224.1
309.5211,229.8
309.6089,266.3
309.6286,128.7
309.6401,179.1
309.8969,161.2
309.9319,382
310.0206,30.7
310.079,203.6
310.3734,215.6
310.4065,278.9
310.4113,207.2
310.5006,140.6
310.6595,20
310.6825,131.2
310.6861,533.1
310.8037,82.5
310.8072,745
310.8762,1115.2
310.9193,240.2
310.9698,363.4
311.003,44.5
311.0075,226.3
311.1482,222.3
311.1671,370.6
311.2555,25.8
311.37,268.3
311.386,651.1
311.3924,543.2
311.4026,290.5
311.4571,19.8
311.6617,323.6
311.7168,18.7
311.915,347.6
311.9984,889.3
312.0194,110.2
312.0293,84.2
312.0406,3022.6
312.0573,856.7
312.1228,200.7
312.5583,30.5
312.5866,112.2
312.6042,364.1
312.6795,497.5
312.7289,198
312.7393,125
312.8579,762.9
312.9019,122
312.9615,333.3
312.9731,794
313.0177,211.2
313.0362,728
313.0775,24.7
313.2283,283.8
313.274,38466.3
313.4325,139.3
313.4594,367.6
313.6044,126.5
313.7119,589.2
313.7606,155.4
313.9984,607.2
314.0147,5096.8
314.0751,245.5
314.0851,20
314.091,108.3
314.2189,125.5
314.2772,2735.6
314.4191,250.5
314.4526,246.3
314.5189,733.6
314.5397,153.1
314.6284,256.5
314.78,335.4
314.7874,231.8
314.798,487.7
314.8099,377.5
314.837,3743.1
314.8997,157
314.9992,4936
315.0043,909
315.0124,361.2
315.0182,448.8
315.028,406.4
315.0463,155.9
315.0552,7765.2
315.0595,2427.7
315.0639,6181
315.0661,10660.6
315.07,15085.4
315.0736,19634.1
315.0802,6725283
315.09,13225.6
315.0919,7438.5
315.0943,4885.7
315.0966,4088.7
315.0985,5256.8
315.1002,2934.2
315.1026,2300.6
315.1047,1806.2
315.1087,558.8
315.111,529.1
315.1538,132.8
315.1612,4500.6
315.2283,191.2
315.2606,113.2
315.3237,4608.4
315.4447,363.8
315.4862,289.1
315.5032,19.1
315.8035,232.9
315.9267,135.9
315.9436,21.4
315.9709,221.1
315.9797,677.7
316.0104,63.7
316.0678,353.7
316.0775,38549.2
316.0835,699858.9
316.1159,117.7
316.1179,119.6
316.1758,179.6
316.2487,564.4
316.3914,201.5
316.4656,296.7
316.7188,115.7
316.7467,154.5
316.7978,20.6
316.8352,19
316.9803,392.3
316.9867,3071.7
317.0564,21.5
317.0652,569.6
317.084,80909
317.1132,377
317.2344,20.1
317.2726,363.9
317.2875,628.2
317.5457,401.8
317.6596,18.6
317.8214,86.1
317.8796,256.9
317.9363,345.3
317.9686,119.8
317.9764,304.9
317.9859,561.4
318.0876,7282.2
318.1315,629.8
318.2045,679.2
318.229,242
318.2752,120.6
318.2991,129.4
318.315,192.5
318.4003,237.7
318.406,117.3
318.7362,373.2
318.7924,563.6
318.8033,2631.9
318.8632,410.3
318.8722,160.4
318.8806,151.3
318.9074,393.5
319.0491,167.1
319.1085,31.4
319.1947,65114.1
319.2035,590.8
319.3273,19.2
319.3928,226.7
319.4227,261.1
319.5655,20.9
319.5991,130.5
319.7468,718.9
319.7695,180.8
319.7998,31.8
319.8408,215.8
319.9639,589
319.9717,136.7
320.0363,203.8
320.057,546.3
320.0748,52
320.09,238.1
320.1438,147
320.1795,242.5
320.1981,7305.3
320.2588,4196.1
320.3596,492.6
320.3828,158.6
320.7585,124.9
320.801,963.9
320.8309,25.2
320.9034,316.5
320.9308,172.3
320.9866,138.6
320.9978,577.6
321.0419,17.8
321.1892,61.4
321.2104,39077
321.262,152.6
321.2826,131.4
321.3166,112.4
321.4912,180.4
321.5283,234.2
321.7025,642.8
321.709,157.1
321.8748,283.9
321.9615,315.1
321.9965,137.6
322.0091,86
322.0406,613.6
322.1946,347.5
322.2137,7027.1
322.2881,538.3
322.3154,298.3
322.3483,217.2
322.4728,19.8
322.5432,106.4
322.6989,18.9
322.7833,29.6
322.8114,377.7
322.923,114.8
322.932,1449.4
322.9517,387.6
323.0206,10600.7
323.1095,332.7
323.2182,199.7
323.226,4572.4
323.3354,19.3
323.4693,161.6
323.5782,126.3
324.0018,9922.3
324.2714,21
324.3301,598.5
324.4931,112.6
324.5653,171.1
324.6612,262.7
324.7018,5159.4
324.7094,3510.6
324.7145,1813.7
324.7228,574.4
324.7332,401.7
324.7446,106.8
324.7753,104.8
324.7799,170.1
324.7899,854.9
324.853,1782.9
324.9194,577.3
325.0042,612.2
325.0414,190.4
325.0728,123
325.2116,10719.4
325.2915,310.5
325.5379,249.9
325.6874,232.1
325.8017,570.8
325.8184,394
326.0039,32.8
326.024,378.9
326.0643,223.3
326.0758,206.1
326.0956,173.4
326.2151,1732.2
326.2243,157.9
326.3152,19.4
326.379,23
326.4946,225.8
326.6016,228.3
326.6505,21.9
326.7723,374.7
326.7878,20.6
326.7947,351.2
326.85,1582.9
327.009,272.5
327.0155,5490.4
327.0516,1575.8
327.2273,13793.1
327.367,19
327.4336,243.2
327.5702,226.4
327.7064,449.9
327.7247,156.2
327.8358,21.6
327.904,129.7
327.9868,495.3
328.0153,744.3
328.03,24.2
328.0627,127.4
328.1438,322.5
328.2495,296.7
328.3921,183.3
328.3937,181.1
328.451,122
328.4744,104.7
328.4831,140.9
328.499,145.6
328.5171,565.4
328.6341,204.7
328.7202,145.7
328.7727,18.9
328.814,170.1
328.8533,236.1
329.0203,563
329.0959,1190.7
329.1204,209.3
329.1654,34.7
329.1958,541.4
329.2705,392.5
329.3008,560.9
329.461,24.2
329.4906,267.9
329.6216,108.5
329.7076,230.2
329.9086,519.8
329.9781,794.9
330.0592,91.3
330.2012,171.3
330.2724,276.2
330.3165,351.3
330.4976,265.3
330.6585,109.4
330.6743,151.2
330.7367,232.1
330.8663,129.7
330.8893,244.8
330.8977,535.7
330.9651,173.6
331.0202,727
331.0453,70863.7
331.0541,769245.8
331.0731,131.9
331.0869,156.8
331.1332,203.5
331.6247,19.2
331.7849,127.5
331.8102,120.5
331.838,22.4
332.0242,442.3
332.048,3180.6
332.0575,70252.7
332.4158,111
332.4235,589.2
332.4397,279.4
332.691,35.5
332.8084,47
332.8188,105.7
332.875,342.7
332.9645,18.5
333.0523,42368.9
333.058,7237.9
333.1042,20.7
333.1512,1234.2
333.2277,334.9
333.2757,19.7
333.2943,653.5
333.4248,19.5
333.641,293.7
333.6842,605.7
334.0555,3281.1
334.0912,31.1
334.2903,351.8
334.6202,194.9
334.7073,261.8
334.7395,314.6
334.8368,61.3
334.8551,22.5
334.937,629.9
334.9502,675.9
335.0945,758.5
335.1171,337
335.1672,5128
335.2792,128.4
335.3137,533.7
335.3939,223
335.7883,122.7
335.8069,263.8
335.8324,74.8
335.8459,342.2
335.872,120
335.9326,108.4
335.9742,20.7
336.0089,565.8
336.1706,927.2
336.215,300.6
336.4214,254.7
336.5739,684
336.6725,318.4
336.7558,152.4
336.9227,230.5
337,362.3
337.0363,11682.5
337.0497,15821
337.0621,479326.9
337.1825,2567.2
337.2495,119.6
337.2562,568.6
337.2741,10032.7
337.4303,31.2
337.5688,341.8
337.7137,245.4
337.7639,307
337.9202,139.5
338.0514,207
338.0655,45526.1
338.1862,51.3
338.3362,210.3
338.3416,29.1
338.4534,440.5
338.6642,393.2
338.7854,403.7
338.8664,17.2
338.9039,463.1
338.9209,1065.1
338.9944,331.8
339.0383,1014.6
339.0544,115.9
339.0658,3392.8
339.1985,206.4
339.2403,633
339.2895,3463.3
339.3265,98.3
339.4122,93.1
339.5126,325.8
339.528,118.3
339.5902,779.9
339.6007,139.3
339.6684,235.5
339.7457,19.5
339.9323,403.1
339.9669,1113.9
339.9758,1081.7
340.0861,180.1
340.1153,240.5
340.196,151.7
340.2876,391.5
340.3695,265.2
340.5731,290.7
340.6808,229.2
340.7824,985.3
340.8452,354.2
340.9196,339.6
340.9364,551.8
341.0181,312.7
341.0264,360.6
341.3054,7859.2
341.3371,618.9
341.3622,23.2
341.4369,493.6
341.587,635.3
341.5948,122.1
341.6351,99.8
341.967,530.2
341.9895,159.3
342.0153,4228.4
342.0262,123.1
342.404,222.4
342.4743,285.8
342.645,292.3
342.6831,339.7
342.6955,167.2
342.8146,22
342.8241,210.7
342.8692,1660.1
342.9897,1308.6
343.017,24
343.0254,815.5
343.1948,17008.6
343.2015,774.6
343.2896,249.8
343.7602,21.6
343.7981,19.4
343.823,161.8
343.8393,234.2
343.9403,376.1
343.9885,1730.3
344.0162,285.4
344.1981,886.8
344.2268,136.9
344.2865,298.3
344.3463,187.2
344.5105,177
344.5301,215.7
344.5749,96.1
344.956,289.4
344.976,166.5
344.9877,283.4
345.0745,213
345.117,162.7
345.1453,141.7
345.2103,897.7
345.6013,683.7
345.8163,31.4
345.8672,269.8
345.8882,121
345.9387,110.8
345.9838,58103.1
346.0097,211.8
346.0258,628.3
346.0407,85.2
346.0948,182.4
346.1226,158.8
346.1591,149.1
346.2001,783.7
346.2304,268.8
346.3681,180.2
346.4613,469.2
346.4982,110.9
346.5614,19.6
346.5745,428.3
346.6363,361.2
346.665,100.9
346.713,291.6
346.7771,115.7
346.9874,1429.7
347.0174,1424.4
347.1689,280.5
347.3504,21.4
347.429,392.8
347.6366,22.9
347.7904,19.1
347.8402,293.2
347.8736,209.9
347.9297,167.7
348.0799,438.7
348.3813,23.4
348.3874,759
348.4662,259.5
348.517,338.8
348.6711,172.6
348.7976,98.9
348.8136,652.8
349.0176,869.1
349.1,671.3
349.2004,203.7
349.2927,20.9
349.5486,20.2
349.616,21.6
349.618,21.8
349.8405,236.3
350.051,19.4
350.2545,517.6
350.6391,155.1
350.8995,567.4
350.9501,418.9
351.1182,16.8
351.3274,22.2
351.3362,357.8
351.4571,136.5
351.5395,722.9
351.6367,232.5
351.8142,479.6
351.8282,239.3
351.9227,636.1
351.9631,258.2
352.1556,17.5
352.1743,165.2
352.257,520.1
352.6589,361.4
352.8985,749.7
353.0272,109900
353.0361,172986.9
353.0741,761
353.2708,251.3
353.3219,241.4
353.4159,338.6
353.5044,111.5
353.5306,277.7
353.581,114
353.5973,210.4
353.6098,127.5
353.8633,19.9
353.8971,396.5
353.9806,132.8
354.0304,7024.6
354.0394,15661.3
354.0656,245.4
354.1434,171.1
354.5795,143
354.648,186.5
354.8307,46.9
354.8382,431.5
355.0119,720.8
355.0344,10218.8
355.0578,572.3
355.0701,2418.6
355.1335,34.8
355.175,473.6
355.2329,244.1
355.381,182.2
355.5706,151.7
355.616,156.2
355.7997,153.6
355.9215,116.9
355.9391,19.7
356.0163,66.8
356.0305,24.2
356.042,624.9
356.0677,745.5
356.1824,130.8
356.2438,108.3
356.2977,115.5
356.7735,19.6
356.9407,360.2
357.0087,350.4
357.0679,28.2
357.1559,407
357.1672,32.3
357.172,257.1
357.1906,113.4
357.2052,17.1
357.2791,711.6
357.3773,473.8
357.5278,126.1
357.6758,138.3
357.6956,124.2
357.8116,291.7
357.9375,190.5
357.968,205.1
357.9779,1364.3
358.1397,198.2
358.1798,388
358.3874,234.2
358.4037,108.5
358.5416,269.2
358.6095,131
358.6561,391.6
358.6876,160.1
358.8913,20.1
358.8967,124.1
359.0074,216
359.0317,11702.7
359.0441,349780.1
359.1668,854
359.192,19.5
359.259,663.9
359.2766,261.5
359.3094,388.7
359.3309,474.2
359.3386,634.4
359.3464,120.6
359.3581,33
359.3743,224.9
359.3838,808.9
359.3978,1063.1
359.4243,490.2
359.432,149.1
359.4417,164.7
359.4474,732.2
359.4546,778.2
359.4837,295.3
359.4965,130.1
359.5084,533.4
359.704,113.4
359.7449,125.4
359.7593,276.4
359.856,125.6
359.9988,217.8
360.0233,333.8
360.0322,557.2
360.0474,31814.3
360.1424,175
360.324,6120.9
360.4664,121.6
360.5371,104.2
360.7471,18.8
360.7631,196.1
360.8988,116.8
361.0115,1071.9
361.0204,4593.4
361.0479,1078.6
361.0539,739.4
361.0761,132.7
361.1824,419.8
361.2442,132.9
361.2743,254.2
361.3746,126.7
361.8339,148.4
361.8689,477
361.9294,210.3
361.9448,153.3
361.9578,18111.3
362.1041,859.2
362.2597,677.3
362.3,145.9
362.3792,275
362.4248,223.6
362.6868,21.5
362.7415,140.7
362.8199,230.5
362.9269,1345.2
362.9608,139
363.177,436.5
363.2363,21.9
363.2457,150.8
363.2896,247.5
363.7061,477.3
363.7246,17.3
363.7439,190.7
363.7856,420.5
363.8279,122.1
363.8515,131.6
363.885,23
363.9624,104.7
363.9976,2001.9
364.1575,458.5
364.19,242.7
364.2528,173.5
364.2681,119.8
364.4595,218.7
364.5439,114.6
364.849,137.3
364.936,1004.2
364.9457,110.4
364.9481,110.8
365.1059,1441.9
365.2813,192.1
365.5906,228.8
365.7527,223.1
365.8725,21.3
365.9506,287.3
365.9857,27.5
366.0417,663.9
366.2328,243.6
366.2404,224.1
366.3677,115.3
366.5185,309.1
366.6229,273.2
366.7368,147.2
366.8582,17.2
366.8721,416
367.0308,299.3
367.0369,243.2
367.0637,19
367.0739,18.4
367.1074,188
367.1212,4224.5
367.1673,135.2
367.1946,476.8
367.2319,561.4
367.2488,383.9
367.6539,152.4
367.7722,147.7
367.8136,334.8
367.9919,2125.8
368.0023,480.1
368.0309,22.3
368.2202,122.9
368.3792,169
368.6213,19.8
368.6316,524
368.7811,236
368.8072,163
368.8719,619.6
368.9921,2777.7
369.0008,9510.2
369.01,5219
369.0869,212.6
369.3515,56.8
369.3598,249.9
370.0502,217.8
370.1915,425
370.334,19.9
370.5079,115.8
370.604,340.9
370.6124,245.7
370.8357,796.1
370.8751,349.6
370.9307,673.6
370.9997,1380.2
371.0412,800.1
371.1013,24.1
371.1191,172.2
371.243,421.9
371.265,1923
371.3488,136.5
371.4948,251.4
371.5842,235.4
371.6625,116.1
371.7858,238.9
372.0148,442.7
372.0686,616.5
372.1022,108.3
372.1647,374.2
372.2003,368.4
372.2746,354.7
372.6114,119.4
372.7148,236.6
372.738,489.3
372.8591,229.5
372.8652,236.6
372.8726,503
372.9521,23.4
373.1174,374.7
373.162,159.4
373.3142,210.7
373.3756,451.3
373.4291,101.4
373.4439,18.9
373.5136,264.6
373.5704,691
373.6642,750.2
373.7194,22.6
373.7318,19.1
373.8115,100.2
373.9376,181.6
373.9499,56.3
374.0211,191.5
374.0785,161.7
374.1231,209.9
374.2322,125.3
374.3848,217.5
374.4074,106.8
374.529,410.9
374.5736,98.1
374.6281,19
374.8008,18.2
374.8147,307.7
374.8354,268.1
374.9749,234.7
374.9941,286.6
375.0091,124862
375.018,92080.5
375.0369,390
375.2356,237.5
375.2937,120.4
375.363,131.6
375.4537,444.8
375.6957,236.9
375.8103,260.1
375.9181,120.1
375.9519,456.6
375.9608,18.7
376.0123,10281
376.0214,8016
376.2963,2519.9
376.4311,418.8
376.4998,253.5
376.6981,175.5
376.8353,27.5
376.8504,423
376.8841,829.7
376.9938,909.5
377.0164,4004.4
377.1823,342.8
377.3053,384.2
377.3366,479.1
377.6314,339.2
377.6478,21.6
377.8079,23.3
377.9318,986.7
378.0061,178.3
378.3347,122.6
378.661,171.3
378.7599,452.1
378.9008,1200.4
378.9912,29.8
379.1097,28.3
379.2837,127.7
379.3379,20.5
379.584,309
379.6802,136.6
379.7899,483.9
379.8842,598.7
379.9181,20.6
380.0175,219.5
380.0596,293.1
380.4622,133
380.4645,138.2
380.4688,120.9
380.7553,620.2
380.77,820.7
380.8303,97
380.8431,19.7
380.9108,999.3
381.0135,20391.8
381.0261,212937.2
381.1543,202.7
381.1936,125.5
381.8861,245.4
382.0174,405.8
382.0293,20072.8
382.0817,116.1
382.3018,236.5
382.3245,229.6
382.4371,692.1
382.5111,33.7
382.7489,361.4
382.7674,2384.2
382.8259,365
382.8875,347.7
382.9149,141.6
382.9361,322.6
383.0103,311.3
383.0297,670.6
383.0713,102.4
383.0852,94.9
383.1163,219282.2
383.1332,196.7
383.193,170.4
383.2239,676.2
383.2824,478.7
383.4706,29.9
383.5363,108.1
383.5995,608.1
383.6608,312.1
383.7077,288.9
383.8342,211
383.9658,720.6
384.1196,21009.5
384.4431,243.8
384.4557,543.4
384.4888,285.1
384.4975,338.3
384.7641,1080.3
384.8808,274
384.8961,398.6
384.9733,214.4
384.9805,172.8
385.0362,437.2
385.053,158.8
385.1197,1143.1
385.1476,222.8
385.2567,413.5
385.3358,199
385.3737,20.3
385.4136,29.8
385.4519,107.8
385.5175,150.1
385.5736,21
385.6151,371.4
385.6346,34
385.6646,440.7
385.6743,239.6
385.7544,342.1
385.7719,156
385.9793,11579.3
386.1147,33.9
386.1212,395.2
386.3825,126.7
386.8188,119.9
386.9064,301.4
386.9773,329.8
387.0027,1701.6
387.1311,255.6
387.1894,313.4
387.2126,201.7
387.4775,162.8
387.7484,205.4
387.8925,159.4
387.9783,1250.6
388.0127,22.1
388.0321,390.6
388.07,524.7
388.095,171.5
388.1352,163.7
388.3196,601.5
388.5449,114.7
388.5823,20.5
388.6267,673.2
388.7122,564.5
388.8058,392.4
389.2448,127.8
389.306,140
389.5697,132.7
389.7329,342.4
389.9244,169.7
389.9736,55866.8
389.9831,249.5
389.9952,19.9
390.3027,18.3
390.3083,806.7
390.4406,18.8
390.6246,18.1
390.7986,1328
390.8228,152
390.8409,284.1
390.8654,426.8
390.8795,270.3
390.9346,513.6
390.9569,154.9
390.9745,10495.5
390.9827,19702.9
390.9919,9871.7
391.112,515.8
391.5577,232.7
391.7341,179.7
391.9156,33
391.9877,269.7
392.0044,37.8
392.0145,224.7
392.1035,924.6
392.1169,366.8
392.2366,20.3
392.3018,249.6
392.3105,531.3
392.4411,352.6
392.5167,123
392.6967,255.3
392.7073,307
392.7961,3118.8
392.8218,246.5
392.8399,500.5
392.9819,3668.5
392.9905,311.1
393.007,362
393.0754,502.6
393.1353,116.9
393.4668,265.2
393.4769,18.4
393.6731,230.6
393.6983,622.8
393.9843,134.9
394.0183,19.4
394.119,262.1
394.1783,459.9
394.2574,137.7
394.27,540.4
394.6116,153.4
394.7206,204.8
394.7817,234.1
394.7929,1111.6
394.8708,644.4
394.9104,131.4
394.9778,324.7
395.0323,20.3
395.1151,262.8
395.287,115.3
395.3738,23.2
395.9661,18.4
396.0886,19.8
396.1813,140.4
396.1926,342
396.5921,185.2
396.7441,494.9
396.7778,17.4
396.9399,118.4
396.9911,171243.7
396.9999,62799.1
397.0631,21.1
397.1448,405.8
397.1693,161.3
397.3238,290.1
397.41,268.8
397.5803,591.6
397.8908,156.6
397.9445,19.7
397.9822,252.2
397.9945,13288.4
398.0033,1892.2
398.104,306.3
398.2419,4606.3
398.2807,193.3
398.6091,208.5
398.6638,18.1
398.7412,1864.5
398.7593,254.7
398.9298,597.8
398.9761,134.3
398.9972,878.1
399.2173,150.1
399.2452,770.5
399.3512,303.9
399.4438,375.2
399.6694,310.5
399.7546,120.6
399.8129,282.1
400.1306,105.9
400.1378,290.3
400.4403,316.5
400.7071,131.5
400.7389,1046.6
400.7925,262.6
400.8146,712.7
400.8279,511.9
400.9831,841.5
401.0734,328.3
401.1542,119
401.185,362.1
401.2862,103.2
401.4056,222.5
401.4897,174.7
401.5224,19.4
401.5588,181.8
401.605,567
401.7158,347.2
401.8831,22
401.9271,209.1
401.9531,2568.5
402.0685,122
402.2789,184.4
402.3871,138.3
402.4634,404.8
402.5332,593.8
402.7947,356.8
402.8246,1115.7
402.8373,539.8
402.9944,17.9
403.008,255658.4
403.332,156.2
403.4146,216.2
403.6585,292.7
403.6884,124.4
403.9142,33.3
403.9289,630.6
403.9424,4204
403.952,490.8
404.0113,25771
404.0239,278.2
404.0322,279.8
404.2258,395.2
404.3081,22.4
404.471,93.4
404.5388,410.7
404.5727,139.3
405.0126,1402.9
405.1109,123.5
405.1738,277.6
405.1915,282.9
405.2987,17.5
405.4772,601
405.5591,168.2
405.5998,451.1
405.6395,19
405.9475,30529.7
406.1449,376.3
406.1907,463
406.2487,19.8
406.3295,985.4
406.387,402.7
406.3944,223.2
406.5132,171
406.7058,18.3
406.7194,225
406.7524,18.1
406.7725,1056.7
406.8072,118.2
406.9536,1502.6
406.9807,22.4
406.9925,18.2
407.131,127.2
407.3122,146.5
407.3327,174
407.4175,105.1
407.553,304.3
407.5792,18.3
407.6285,356.9
407.6371,644.2
407.8176,1208.7
407.8775,125.8
407.9461,798.5
408.0711,703.7
408.3083,1171.8
408.3737,22
408.5787,117.5
408.7699,2234.4
408.8169,47.8
408.956,136.9
408.9846,3105.7
409.0811,99.2
409.1424,338.9
409.3993,377.2
409.9196,407.8
410.1776,202.9
410.1925,163.3
410.2057,274
410.2256,166.7
410.6792,629.7
410.7561,31.5
410.767,478.3
410.9409,22.2
410.969,230.3
411.0001,375
411.1721,367.5
411.2359,279
411.406,245.9
411.4476,153.1
411.4687,212.3
411.5944,459.4
411.7971,221.9
411.8435,134.4
411.9693,309.2
412.1002,307.9
412.271,125.8
412.3214,4255.8
412.4688,140.5
412.7619,167.9
412.9407,175.3
412.9641,43373.4
412.9739,8748.6
413.124,30.3
413.2669,4154.8
413.3092,124.8
413.3246,312.6
413.3624,473.9
413.51,281.7
413.5367,157.9
413.5863,17.9
413.7149,126.6
413.8049,174.6
413.811,118.1
413.8351,138.1
413.9391,207.8
413.9679,2387.6
414.1471,18.3
414.2698,208.1
414.348,28.5
414.3554,607.9
414.7152,335.9
414.8096,144.5
414.8537,170.3
414.964,1932.4
414.9975,1503.7
415.0363,82.2
415.2238,611.1
415.2724,384.9
415.4565,131.6
415.5338,322.4
415.6987,238.7
415.8456,252.6
415.8861,20.1
415.9048,222.5
416.0154,142.5
416.0499,128.8
416.0861,573.8
416.1353,13319
416.2142,18124
416.4131,316.9
416.6452,520.8
416.8016,565.6
416.8142,23
417.0317,469.2
417.0368,447.6
417.0992,358.1
417.2174,1741.1
418.0365,493
418.072,31.8
418.3368,111.6
418.4103,150.1
418.452,234.7
418.5353,725.6
418.7994,697.3
418.8094,578.9
418.8497,241.2
418.9244,121.8
418.9819,82142.3
418.999,274.3
419.256,943.2
419.2715,444.4
419.3021,186.2
419.4217,112.5
419.4579,340.4
419.7423,189.6
419.7962,119.3
419.8369,19.8
419.9159,157.9
419.9851,4759.4
420.0007,22.8
420.052,316.1
420.4208,309.5
420.7381,18.7
420.7649,317.7
420.8856,692.5
420.9228,17.1
420.9573,1287.7
420.9688,155.4
420.9801,2318.2
421.0464,305.8
421.0664,19
421.0957,129.4
421.1659,249.1
421.1841,290.5
421.5325,393.4
421.5691,305.3
421.8334,452.6
421.9215,11167.1
421.9555,216.2
422.1634,364.7
422.1876,391.2
422.2789,359
422.5,533.4
422.5272,637
422.6958,146.1
422.8127,455.7
422.8346,220.2
422.8941,102
422.9538,323.3
423.0615,659.6
423.9195,155.6
423.9737,383.9
424.0302,797.8
424.0682,155.3
424.1353,553.2
424.2825,6029.7
424.43,189.6
424.461,20.9
424.7783,21.3
424.8567,489.2
425.2258,773
425.2872,469.9
425.3,49.9
425.3434,165.4
425.3581,176.1
425.4211,232.8
425.4898,305.4
425.5733,607
425.6248,650.4
425.8273,314.9
425.8543,386.1
425.9054,17.9
426.1901,33.3
426.2056,394.3
426.2893,389.8
426.3616,172.2
426.6235,317.6
426.7242,130.3
426.9422,86.6
427.5814,249.3
427.5975,511.2
427.6519,169.6
428.0051,347.3
428.1182,22
428.1927,491
428.279,232.5
428.4066,610.3
428.7929,140.3
428.9375,8652.3
429.0325,33.4
429.049,402.2
429.0624,400.2
429.0735,385.4
429.0889,1343.3
429.2452,316.6
429.3351,557.9
429.8719,120
429.921,124
430.0753,469.2
430.0882,244.4
430.2541,319.6
430.4684,245.6
430.5672,132.7
430.8123,134.5
430.9134,1017.8
430.9373,502.9
431.0857,147.7
431.0943,131.3
431.217,1382.5
431.5418,89.1
431.9069,126.6
432.1559,647.4
432.4091,17.4
432.487,163.5
432.5204,468.7
432.7729,312.7
432.7929,129.1
432.9579,266
433.1931,739.6
433.2496,73.5
433.3988,191
433.5274,105.6
433.755,17.3
433.8526,101.1
433.9606,133.2
434.1785,20.6
434.2531,24.9
434.5103,176.1
434.6893,238.9
434.8246,588.6
434.956,13932.4
434.9889,142.2
435.0785,19.3
435.545,654.1
435.6017,189.3
435.6402,657.1
435.747,123.2
435.839,696.9
435.8485,97.9
435.8939,247.7
435.9454,109.6
436.074,278.2
436.4115,118.8
436.8212,138.7
436.955,457.2
436.9884,118.5
437.2086,832.5
437.2282,374.1
437.3602,259.9
437.5,357.1
437.522,131.9
437.6791,229.7
437.7743,636.9
437.8604,171.9
438.0253,314.1
438.1968,418
438.6313,160.1
438.6809,131.7
438.9722,2212
438.9848,4765.6
439.0135,132.5
439.161,126.9
439.2307,18.2
439.2792,636.6
439.5823,227.3
439.8701,299.2
439.9797,21.4
440.0385,225.8
440.0631,526.1
440.1046,31.4
440.5948,387.2
440.7258,612.6
440.9575,29.5
441.2979,199
441.3716,111.2
441.4362,18.4
441.5474,153.3
441.658,249.1
441.6824,134
441.8028,128.6
441.8232,201.6
442.0091,746.8
442.0936,740.2
442.1269,249.5
442.181,201.4
442.2532,226.4
442.3019,44.9
442.6185,19.4
442.7331,567.5
442.7634,345.7
442.7781,228.2
442.7845,222.2
442.8616,20.6
442.9847,367.7
443.2538,928.4
443.2806,323.4
443.4534,695.6
443.5945,20.9
443.7142,348.8
444.0668,537.3
444.1046,698.3
444.1771,93.8
444.3085,455
444.3468,220
444.4269,169.7
444.8177,245.4
444.9098,143.2
444.9484,241.2
444.968,108.5
445.0367,573.6
445.1925,116.2
445.377,188.6
445.3959,20.5
445.7775,470.9
446.1146,909.4
446.3361,448.3
446.5331,21.6
446.6715,340.7
446.7306,102.1
446.762,160.6
446.7873,227.7
446.8444,174.2
446.8876,601.8
446.953,166.6
446.9616,122.1
447.0839,377.8
447.21,123.6
447.2344,371
447.2712,254.7
447.4231,674.1
447.5088,116.4
447.602,545.7
447.9323,7929.2
448.072,503.9
448.2585,244.1
448.3145,712.9
448.3408,209.7
448.3505,166.1
448.7335,101.1
448.8817,594.7
448.9322,3007.8
448.9852,586.2
448.9934,220.9
448.9996,463
449.0753,211.9
449.1543,3748.8
449.1725,340.6
449.2143,326.4
449.361,374.6
449.392,20.2
449.7107,364.6
449.855,227.5
449.9293,786.2
450.1576,652.8
450.8415,551.6
450.9301,455.6
451.0288,184.6
451.1502,278.6
451.2552,113.4
451.2656,18.6
451.3257,176.8
451.3513,116.6
451.4669,644.2
451.58,668.1
451.9501,22.1
452.154,28.8
452.1722,355.5
452.1895,309.9
452.4449,248.1
452.613,161.4
452.7758,131.5
452.7869,99.3
452.8506,296.6
453.1365,339.9
453.1739,2454.9
453.2436,666.7
453.3768,429.4
453.5024,230.3
453.5531,365.1
453.8447,20.5
453.9747,391.3
454.131,176.9
454.7268,18.1
454.7728,117.1
454.9358,325.9
454.9497,43326.8
455.0729,513.9
455.0945,212.4
455.2415,231
455.462,127
455.7173,17.7
455.859,234.5
455.9525,705.1
456.1643,731.9
456.2316,771.4
456.5106,246.3
456.6262,646.6
456.7004,403.6
456.7145,113.4
456.7277,219.9
456.7756,869.4
456.7903,18.9
456.9298,104.6
456.947,9332.1
456.961,783.1
456.964,803
457.233,10122.6
457.3202,19.5
457.3503,22.2
457.6526,272.8
457.8828,132.6
457.9962,564
458.1559,116.8
458.1904,627
458.265,294.5
458.294,784.9
458.3563,128.4
458.6371,653.4
458.7562,179.3
458.8082,917.1
458.947,171.5
458.961,2731.9
459.1288,168.7
459.2298,17.7
459.2485,418492.5
459.3543,244.3
459.392,149.1
459.5028,105.4
459.5138,343.2
459.5436,193.3
459.5886,114.5
459.9047,165.5
459.9277,640.4
459.9532,138.8
460.2047,29.4
460.2518,87937.8
460.3405,31.3
460.6615,21.1
460.8466,122.8
460.9666,81514.1
461.0722,151.5
461.2547,3712.4
461.3252,604.9
461.6749,199.7
461.7612,125.3
461.8793,726.3
461.9701,2521.2
462.0859,131.3
462.1139,258.5
462.352,281.6
462.5528,160.5
462.9637,21764.1
462.9843,267.3
462.9983,515.3
463.1819,295.1
463.2208,291.7
463.25,36.2
463.6143,137.4
463.6669,209.5
463.8068,47.9
463.8799,109.4
463.906,2486.6
463.926,331.7
464.2844,698.7
464.745,20.1
464.794,655.1
464.9785,9978.6
465.1254,189.7
465.3745,136.7
465.7288,358.3
465.7809,272.1
465.904,303.7
465.9182,185
465.9823,723.4
466.1661,314
466.3118,133.6
466.4437,354.1
466.595,19.9
466.8827,648.7
467.0325,353.9
467.1515,18
467.2726,316
467.2907,116.7
467.3093,1077
467.433,186.3
467.7316,19.1
468.0633,252.2
468.0967,124.6
468.2124,393.1
468.3649,119.3
468.9254,100.4
469.2601,431.7
469.3927,185.7
469.4693,128.1
469.8377,277.9
470.0915,441.1
470.2804,243.2
470.5541,418.9
470.7148,936.4
470.7815,278.7
470.9235,15423.2
470.9953,2294.3
471.1233,455.1
471.1409,598
471.2437,32.1
471.2553,346
471.2849,1343.3
471.3091,104
471.6225,239.6
471.6521,18.2
471.6968,175.6
472.3926,162.7
472.6737,389.5
472.7122,110.4
472.8113,345.4
472.9206,3546.3
473.0163,294.8
473.0317,1007.7
473.0594,592.6
473.0944,160.9
473.2642,5088.7
473.4937,135
473.9846,110.8
474.4741,251.2
474.5041,122.7
474.6572,19.1
475.2223,18182.1
475.2769,343.1
475.3064,134.4
475.3843,113.3
475.3976,163.6
475.9846,104.4
476.0412,93.2
476.2257,3364.5
476.3841,632.3
476.8283,258.7
476.9264,471
476.9405,37486.9
477.1096,132.3
477.4833,154.4
477.5362,109
477.5915,312.2
477.6478,291.8
477.8211,34.7
477.9123,140.3
477.9439,1521.9
477.9945,173.5
478.0842,20.4
478.241,201.9
478.3293,53624.8
478.3441,300.1
478.399,289
478.6426,173.8
478.9377,10359.4
479.004,177.1
479.0237,323.6
479.3325,10857.9
479.3587,165.9
479.5412,434.2
479.6797,314.3
479.8479,138.1
479.9404,920.8
480.0194,154.1
480.2559,243.3
480.3435,855.2
480.6234,484.1
480.7161,19.9
480.7893,37
480.9525,2419
481.0915,1618.8
481.2337,1427.2
481.7919,123.5
481.8649,333
482.0583,25.2
482.095,325
482.3233,603
482.362,182
482.4537,342.2
482.5518,287.5
482.7035,383.1
482.8867,119
483.0888,191.4
483.2484,151942.7
483.389,20.1
483.7182,114.9
483.7538,807.7
483.8411,612
484.0628,181.2
484.2518,32614.1
484.4682,118.7
484.4854,141.1
484.6029,328.9
484.8888,21.7
484.97,118.8
485.1276,131.1
485.2188,396.4
485.264,86125.7
485.5177,217.6
485.7337,311.5
485.841,694
485.9587,216.6
486.0121,429.5
486.0579,273.7
486.0637,310.5
486.2673,18370.8
486.4245,266.1
486.4422,449.8
486.5598,249.8
486.666,18.1
486.8967,2056.7
486.999,189.2
487.0886,33.1
487.1191,319.4
487.2797,125528.8
487.358,268.1
487.5314,721.5
487.5646,261.6
487.7945,564.9
487.9215,284.8
488.1124,393.4
488.283,26479.8
488.3706,295.1
488.5185,216.2
488.6278,280.5
488.9492,163.7
489.0559,27.5
489.086,18.9
489.1115,1109.2
489.1669,38.2
489.1919,151.5
489.2156,209.9
489.2382,1134.4
489.2601,524.2
489.2711,170.3
489.2857,1310.3
489.2966,20.2
489.3098,637.7
489.355,1004.5
489.4497,18.9
489.5964,118.7
489.7341,19
489.8055,20.2
489.9325,157.7
489.959,308.3
490.2898,3048
490.7399,355.8
490.8937,386.7
490.9135,500.7
490.9216,115.1
491.3707,807.6
491.8296,198.9
491.9295,19.2
492.0653,818
492.1314,248
492.3307,21.4
492.8421,51.4
492.8596,97
492.9145,4958.5
493.0756,118.9
493.2747,777
493.2897,202.3
493.3311,198.3
493.9591,762.2
494.2326,538.9
494.2703,23.9
494.2937,106.5
494.3233,1406.6
494.6346,17.8
494.6997,20.8
494.9114,2210.7
494.968,343
495.0526,123.9
495.2851,435.3
495.5885,470.6
495.8441,220.8
496.0652,107.4
496.1655,390.7
496.2217,242.2
496.2379,274
496.2912,446.7
496.305,408.8
496.3399,329328.6
496.4403,19.2
497.0805,344.1
497.1915,303
497.2286,17.5
497.3433,79291.3
497.5809,106.7
497.7713,702.6
497.8217,694.5
497.9189,22.2
498.0012,258.2
498.1421,146.1
498.1519,240.5
498.346,4510.3
498.4563,20.4
498.5164,129.9
498.7302,226.6
498.753,279.5
498.7803,23.4
498.7969,248.1
498.8899,601.7
499.1254,119.8
499.2227,6331.1
499.2978,304.2
499.3834,110.8
499.4921,107.1
499.569,469.1
499.7025,567.4
499.7401,223.6
499.8925,222.9
499.94,491.1
499.9431,434.8
500.0415,173.4
500.0995,255.9
500.1586,130.9
500.2257,443.4
500.3363,260.9
500.5171,120.6
500.6476,23.6
500.8198,264.6
501.0893,245.5
501.2382,926.8
501.546,269.2
501.7526,388.2
501.8077,829.2
502.1711,269.3
502.2431,717.6
502.2949,382
502.3292,28761
502.3565,447.6
502.3728,205
502.5249,666.8
503.1096,454.6
503.1376,448.7
503.2534,5185.4
503.2773,117.7
503.3327,4408.5
503.4427,190.7
503.6722,18.7
503.924,305.3
504.1209,305.1
504.2558,532.4
504.2824,20.6
504.3064,4792.8
504.3443,6948.1
504.4672,128.7
504.8035,149.5
504.8526,234.2
504.9126,252.5
505.0736,142.4
505.1034,19.6
505.1777,664.2
505.3198,180.1
505.3485,1084.8
505.3967,146.3
505.4144,113.2
505.5673,17.8
505.5995,388
505.8908,2041.6
506.0303,17.2
506.1227,176.3
506.3606,10641.8
506.4262,115.7
506.5025,289.9
506.8636,242.5
506.8914,3968.3
507.1005,852.5
507.2483,33018.5
507.3164,653.5
507.329,18.9
507.364,1554.1
507.8236,230.1
507.8902,474.6
508.252,6966.7
508.3768,338.3
508.411,145.9
508.6369,300.5
508.6538,341.1
508.8886,268.9
508.9064,20.8
508.9339,358.7
508.9587,172
508.9703,234.7
509.0042,4209
509.043,294.8
509.2022,422
509.2476,582.6
509.2642,7357.3
509.8239,120.4
509.9212,115.3
509.9322,180.4
510.048,175.4
510.267,2520.2
510.3023,352.9
510.3555,2078.8
510.4353,474.9
510.4834,255.5
510.62,705.1
510.6462,354.2
510.7045,151.5
510.838,316
510.8694,225.4
510.9426,460
511.0866,230.8
511.1268,22.7
511.2092,286.9
511.2596,130.2
511.2707,350.6
511.3239,416.5
511.3404,385.1
511.4321,132.6
511.4714,734
511.9309,32
511.9697,596.3
512.2139,598.5
512.3327,375.6
512.3622,701.6
512.3831,487.7
512.8662,158.2
512.9083,19307.5
512.9349,18.5
512.9728,94.5
513.1957,379.7
513.2298,104.8
513.26,785.2
513.2825,514.9
513.2968,936.9
513.3086,117.5
513.6716,515.1
513.7221,254.6
514.1507,640.1
514.6576,356.5
514.8755,540.5
514.9054,8079.4
515.0214,597
515.0453,20.5
515.2491,19.1
515.5293,250.8
516.0706,172.8
516.0872,20.8
516.184,18.2
516.241,163.4
516.2665,418.6
516.3064,11411.1
516.5656,235.6
516.6557,420
516.7835,166.6
516.9021,756.3
516.9195,1643
517.3093,490.1
517.4621,364.5
517.7292,118.5
517.7513,18.7
517.9675,440.9
517.9803,403
518.044,201.3
518.0722,21.7
518.138,347.7
518.1553,109.9
518.2237,567.3
518.3219,713416.2
518.5097,230.3
518.702,720.2
518.925,28370.6
519.1089,725.1
519.1527,108.6
519.2312,103.2
519.3253,173325.3
519.416,622.3
519.4355,178.4
519.5881,502.7
519.7122,165.6
519.7657,115.1
519.9279,689
520.1448,18.7
520.3287,19251.7
520.3399,109586.9
520.3779,30.9
520.6051,333.4
520.6845,16.8
520.8981,191.9
520.9223,17301.1
521.2822,271.7
521.3431,29087.1
521.8279,226.1
521.8437,443
521.8665,143.1
521.9252,821.9
521.9528,193.5
521.9777,1767.7
522.1468,203.3
522.162,171
522.2573,392.4
522.3556,72772.1
522.4115,20.1
522.6892,305.8
522.9195,1730.1
522.9376,4382.6
523.154,159.4
523.2219,1222.3
523.3589,14538.6
523.4889,415
523.5317,101.3
523.6542,202.3
523.6646,20.2
523.7013,438.4
523.7374,552.6
523.8607,282.8
523.9029,281.4
523.9687,241.7
524.0809,21.9
524.1299,418.6
524.1439,561
524.164,586.5
524.1832,205.1
524.2253,108.6
524.2494,125.1
524.3712,121664.8
524.4006,214.2
524.8557,326.5
524.9337,1278.9
524.9802,752.1
525.1348,141.8
525.1753,167.4
525.2509,21.8
525.3747,31874.5
525.7714,272.8
525.8787,524.8
526.0991,379.1
526.1938,406.3
526.3293,5172.1
526.3775,1389.6
526.6247,420.6
526.7455,551.3
526.9477,1948.5
527.0347,109.7
527.1271,384.5
527.2945,219.9
527.3319,641.5
527.446,216.4
527.4829,208.5
527.73,17.2
527.8004,123.9
527.9434,547
528.0403,469.6
528.13,21.7
528.213,246.9
528.2569,102
528.3443,102.4
528.6541,175.1
528.727,747.1
528.882,7274.6
528.9538,1558.5
529.2895,334.4
529.4883,186.5
529.5388,33.1
529.7977,21.5
530.0593,300.4
530.3308,584.1
530.345,420.2
530.3597,1445.7
530.5902,143.1
530.7434,206.7
530.7875,316
530.8792,3769.8
530.9507,496.7
531.22,8412.5
531.2488,4648.9
531.4354,396.9
531.4945,201.5
531.6257,244.8
531.8102,244.6
531.9905,19
532.037,99.1
532.2253,470.9
532.2535,449.5
532.3378,9293.6
532.3707,269.5
532.6716,243.5
532.9662,1634.4
532.9819,330.4
533.0091,164.3
533.262,794.1
533.6416,229.7
533.7553,228
533.8001,370.9
533.8177,21.5
534.1738,440.6
534.296,172674.2
534.4201,19.7
534.565,341.3
534.7725,23
534.8992,12118.7
535.0982,190.2
535.1326,219.5
535.2992,43805.9
535.4782,19.4
535.8812,448.3
535.9018,129.6
535.9529,610.9
536.2561,390.6
536.2946,9941.6
536.4205,241.2
536.4425,147.7
536.551,32.8
536.8962,9916.9
536.9561,497.8
537.0705,18.4
537.1755,532.6
537.2413,19
537.2978,1753
537.4489,22.4
537.6311,374.7
537.6516,243.8
537.8785,24.1
537.8989,1193.6
537.9508,684
538.3042,531.2
538.3392,452.1
538.5148,260.5
538.8938,676.1
538.9116,2386
538.9323,466.6
539.0717,626.6
539.1094,431.1
539.1443,251.7
539.1727,674.6
539.2841,145.6
539.6129,269.9
539.6724,253.2
539.6874,117.3
539.763,449.9
540.1507,524.9
540.3072,980.4
540.3504,490.9
540.7959,606.3
540.8458,146.9
540.925,21.7
540.981,190.2
541.0079,392.3
541.0254,313.5
541.1619,128.2
541.3755,199.6
541.3873,810.3
541.4786,489
541.4929,423.3
541.8148,126
541.8229,19.7
541.9068,181.1
542.2068,208.3
542.322,224059.7
542.4915,1266.7
543.1845,280.5
543.3253,58356.2
543.4749,128.8
543.5319,420.2
543.7885,99.6
543.8391,234.6
544.0865,159.2
544.2299,293.3
544.2731,1051.6
544.3377,146200.5
544.362,128
544.6078,147.6
544.7995,295.9
544.8729,472.5
544.9475,430.4
545.2366,274.2
545.3411,37997.7
545.803,474.7
546.3533,264846.9
546.4638,701.1
546.6203,116.2
546.685,20.5
546.8302,167.9
546.8878,32.6
547.092,272
547.1834,181.8
547.3565,67436.7
547.4327,144.5
547.8356,377.4
547.948,20.4
548.2237,21.7
548.312,991.1
548.3599,5046.8
548.5684,219.6
548.7858,285.1
548.81,341.2
548.8257,20.5
548.9224,18.9
549.1147,199.8
549.52,259
549.6925,647.1
549.8175,658.7
549.8775,440.7
549.8925,170.6
549.9067,281.6
550.0094,117.2
550.0664,408.3
550.2975,128.4
550.3268,661.8
550.4569,29.6
550.5609,255.2
550.7092,113.5
550.8226,465.8
550.8735,2649.8
551.1829,19
551.258,442.6
551.41,759.8
551.5767,21.6
551.7265,526.9
551.8972,158.1
552.2405,165.7
552.4678,109.8
552.4945,371.9
552.5184,174.9
552.6931,100.6
552.8711,1056
552.9289,23.6
552.9852,641.9
553.3873,287.1
553.4245,263.2
553.478,361.9
553.7217,209
553.8387,156.1
554.09,139.4
554.1061,773
554.2209,131.1
554.2411,203
554.7948,174.4
555.8552,286.2
556.8297,259
556.8776,101.5
556.944,231.1
557.1066,243.3
557.1753,22.5
557.2706,115
557.6158,282.6
557.654,96.3
557.9419,245.9
558.0466,131.4
558.0934,397
558.1159,157.7
558.1389,103
558.2106,666.4
558.2959,60771
558.3457,162.3
559.0289,112
559.2995,13045.4
559.6154,25
559.8833,130.7
559.9889,351.5
560.2933,865.9
560.3115,34955.2
560.4435,298.6
560.6251,326.6
560.7513,460
560.8246,148.2
560.9128,396.8
561.3148,7608.4
561.4121,943.4
561.5836,214.3
561.6261,134.6
561.9327,231.5
562.0279,224.8
562.0695,108.8
562.1064,135.2
562.3273,58061.9
562.5263,98.5
562.6193,233.6
562.9679,171.8
563.3305,13878.1
563.5118,23.6
563.657,21.3
563.6924,19.4
563.7903,196.7
564.3062,698.1
564.3293,833.2
564.5487,158.2
564.6162,170.3
564.6704,260.7
564.7913,313.2
564.8365,163
565.0056,171.2
565.2931,129.6
565.5599,312
565.6632,392.2
565.6908,251.6
566.0475,334.2
566.3221,47723.2
566.4697,244.5
566.4976,21.2
566.6577,387
566.8099,192.7
566.8875,531
566.9673,1080
566.9837,794
567.3256,13178.1
567.3437,32.5
567.4003,18.5
567.6756,234.7
568.03,348.7
568.3375,9607.6
568.6031,283.6
568.6843,353.4
568.8536,121.7
569.0213,26
569.3393,1298.6
569.3647,297.7
569.6469,222.4
569.7628,505
569.8759,558.9
570.3544,1114.5
570.5948,211.2
570.7479,19.3
570.7811,210.8
570.867,5018.2
570.8852,370.1
570.8937,151.3
570.94,612.5
570.9812,485.1
571.0571,306.1
571.1939,22.1
571.428,201.6
571.652,131.1
571.6686,195.2
571.8699,355.8
572.3299,253.4
572.5588,363
572.8638,3926.5
573.0061,94.6
573.8075,182.7
573.8343,422.4
573.9686,896.4
574.0184,200.4
574.3822,418.3
574.4631,338.9
574.8597,702.2
574.9986,543.6
575.1876,633.5
575.1981,532
575.5035,18078.5
575.6233,147.8
575.7596,617.6
576.0157,396.1
576.0642,685.5
576.2803,9129.3
576.3195,224.2
576.361,111.3
576.4306,161.7
576.5065,3944.4
576.6328,449.1
576.8838,8167.6
577.2838,533.4
577.5141,797.2
577.6003,32.1
577.8839,20.1
578.278,1190.3
578.5203,26
578.5952,19.6
578.8808,8912.3
578.9243,308.5
579.0164,445.8
579.0503,331.8
579.1275,159.3
579.4874,125.8
579.782,110.8
579.8374,253.3
579.8796,364.8
580.0932,179.3
580.1244,35.7
580.3378,382.9
580.3576,160.1
580.3881,246.1
580.3996,19.9
580.8785,1549.7
580.896,686.2
581.1972,309
581.4513,265.4
581.8809,268.7
581.9971,350.8
582.0816,219.8
582.1117,314.9
582.1333,146.3
582.1639,1008.1
582.1934,740.1
582.2306,607.7
582.2411,907.8
582.2668,446.5
582.296,10992.3
582.32,207.2
582.3798,182.9
582.4138,128.1
582.5406,245.7
582.5608,297.4
582.6069,262
582.7009,340
582.7218,32.3
582.8079,257.3
582.8935,1304.2
583.1131,378.4
583.1898,20.5
583.2545,1126.1
583.2986,1079.7
583.44,105.4
583.5091,124.6
583.5365,277.1
583.9804,185.4
583.9928,422.8
583.9995,380.1
584.0052,334.3
584.0327,436.1
584.1435,184
584.1735,155.2
584.1799,178.5
584.2059,395.2
584.3116,668.5
584.7093,435.3
585.1058,456.1
585.2716,3319.6
585.7028,241.5
585.778,319.9
586.1714,219.4
586.2711,581.8
586.3095,5889.4
586.4234,500.6
586.5421,273.6
586.6373,130.6
586.7522,193.3
586.8411,2420.6
586.9121,1118.6
587.313,648.9
587.5677,543.2
587.6473,399.2
587.7018,120.8
587.8793,274.1
587.9235,21.2
588.0637,374.7
588.1307,151.8
588.7678,134.3
588.8376,2560.8
588.8514,121.7
588.9123,371.3
588.9765,275.9
589.1606,284.9
589.2576,153.3
589.8281,19.9
589.9148,424.2
589.9897,475.6
590.009,437.2
590.0338,138.4
590.244,20
590.3225,4412.7
590.4768,20.6
590.7259,254.8
590.7566,695.1
590.9067,217.8
590.9256,524.8
591.0014,18.8
591.2087,392.5
591.687,686.9
591.7939,251.1
592.253,557.7
592.2914,183.9
592.3361,440.5
592.3916,257
592.6748,375.4
592.8576,3924
592.8956,159.7
593.1341,231.5
593.2595,522.7
593.3849,784.6
593.4484,751.7
593.6324,486.8
593.7724,429.9
593.9967,158.7
594.0106,377.5
594.1549,127.2
594.33,324.2
594.3402,20.8
594.406,652.8
594.4785,142.2
594.5622,576.6
594.8554,5406.3
594.9512,265.4
595.0289,283.9
595.082,20.4
595.3188,23.2
595.4304,615
595.4989,325.2
595.8181,466
596.1349,240.8
596.333,432.2
596.6077,35.6
596.7668,19.3
596.8389,295
596.852,1317.2
596.8903,560.7
596.9958,222
597.4248,338.4
597.453,4650.4
597.4858,17869.4
597.8193,663.4
597.9211,19.9
597.9574,206.4
597.9947,100.2
598.4554,3474.6
598.4898,2453
598.5095,311.1
598.8844,613.1
599.0541,24.2
599.0983,202.2
599.2494,162.5
599.3629,158.6
599.4603,1319.2
599.4787,163.1
599.5035,4288.6
599.5344,113.1
599.5762,21.8
600.2807,1400.3
600.4101,141.7
600.8168,628.2
601.5192,1268.2
601.5552,192.8
601.572,20.2
601.93,269.7
601.9539,125.5
602.0349,374.1
602.227,20.3
602.4364,764.9
602.8162,393.4
602.853,244.9
602.8881,400.1
603.3138,262.5
603.4625,221.5
603.5343,447.4
603.6865,344.4
603.9511,150.4
604.0437,242.1
604.1466,378.7
604.1744,18.8
604.3121,614.6
604.3446,286.3
604.5386,57.8
604.7785,299.1
604.9282,217
605.1084,180.8
605.2774,705.3
605.6348,103.5
606.0451,228.8
606.119,455.9
606.3018,396.6
606.3717,269.8
606.8693,220.1
606.9344,22.8
607.1612,354.6
607.1821,654.5
607.3266,104.2
607.3558,257.7
607.3878,343.9
607.9991,414.1
608.0821,298.1
608.3545,391
608.4117,21.4
608.5108,241.5
608.5145,243.8
608.5202,231.6
608.5269,182.5
608.5392,52.2
608.6449,393.7
608.6761,130.1
608.7244,578.1
608.8012,40.4
608.8312,610.8
609.1818,130.9
609.3116,164.4
609.523,809.7
609.5849,121.4
610.0499,186.9
610.3083,538.2
610.3268,249
610.4245,636.3
610.6905,21.5
610.8283,497.1
611.0261,250.2
611.4003,146.9
611.54,34.8
612.0662,119.8
612.0902,187.1
612.1923,317.8
612.3884,19
612.4312,308.7
612.5921,291.9
612.7003,200
613.1173,141.2
613.3487,737.4
613.4038,423.8
613.4803,19.7
613.7567,695.1
613.8577,112.6
614.2256,329.1
614.3404,859.3
614.8169,192.2
614.8318,425.2
615.1488,249.7
615.338,33.8
615.4561,125.5
615.5863,107.4
615.8944,248.4
615.9086,463.7
616.313,275.8
616.4809,171.2
616.9212,132.2
617.2789,519.5
617.4374,466.2
617.475,3510.5
617.5524,213.8
617.798,326.9
617.9082,693.2
617.9375,363.7
618.139,25.1
618.4892,248
618.5557,544.1
618.9163,274
619.1981,816
619.491,1137.7
619.6266,163.2
619.9083,37.5
619.932,238.1
619.9873,203.8
620.4921,855.7
620.576,206.4
620.6466,299.9
620.667,578.9
620.8559,140.4
620.9044,675.7
621.1279,126.9
621.2531,120.9
621.3464,439.5
621.4483,1753.5
621.4858,12989.1
621.8396,526.3
621.8869,273.1
622.4622,1393
622.487,320.3
622.5805,92.7
622.9012,122.9
622.9875,382
623.1014,357.3
623.1361,6670.8
623.3855,398.1
623.4266,434.5
623.4681,1367.9
623.5018,1505.8
623.7618,119.7
623.779,461.1
623.9636,39.5
624.0066,222.3
624.0875,116.2
624.4413,299.6
624.4873,888.7
624.648,126
625.1353,116.7
625.2169,34.8
625.2805,112.8
625.2973,20
625.4927,266.5
625.5052,206.6
625.518,683.7
625.7384,556
625.8812,463.4
626.0438,244.5
626.4602,341.7
626.484,392.4
626.7305,346.4
626.7608,342.2
626.8009,186.9
626.915,306.8
627.4169,99
627.5202,314.8
627.5354,1310.7
627.7016,201.7
627.7245,233.9
628.2894,411.6
628.5075,184.4
628.5383,110.2
628.6311,546.5
629.1529,16083.8
629.396,276.8
629.4656,262.3
629.5543,268.6
629.9586,221.3
629.991,314.1
630.0391,224.5
630.0851,21.2
630.1566,1809.4
630.1789,268
630.3979,313.3
630.4631,531.6
630.603,620.2
630.7834,24.3
630.8222,504
631.0081,214.6
631.5083,240
631.895,641.7
632.0077,19.7
632.0572,163.9
632.2448,20.7
632.3095,600.2
632.4807,162
632.7896,185.2
632.9516,157.5
633.517,359.7
633.5657,115
633.6989,23.5
634.5025,669.2
634.8167,623.2
634.8425,2599.6
634.9411,113.4
635.4886,143.9
635.7579,339.8
635.7721,255.3
636.1479,165.9
636.3104,216.7
636.5421,218.2
636.641,133.6
636.6854,172.7
636.7514,222.5
636.8395,1222.6
637.2491,294.6
637.2776,187.5
637.5472,18.9
637.6688,95.2
637.6915,129.3
637.8174,119.5
638.3472,283
638.4534,1205.6
638.7358,454.6
638.8371,572.9
638.987,153.9
639.3397,577.4
639.3678,400.2
639.419,984.4
639.8302,246.6
639.9284,121.8
640.0395,274.3
640.2283,18.8
640.2891,121.8
640.5542,312.6
640.6656,507.9
640.9472,611.3
641.5182,717.5
642.1672,358.2
642.3858,466.8
642.4142,373.5
642.829,256.8
643.2384,18.4
643.3296,648.9
643.4844,35.3
643.8636,21.1
644.4294,873.8
644.7073,587
644.9452,209.2
645.0077,180
645.0227,119.4
645.1179,6271.7
645.144,105.1
645.311,654.3
645.4158,20.7
645.6894,225.5
645.9607,127.1
646.1192,116.3
646.2623,299.6
646.4829,396.1
646.5811,20.3
646.7969,581
646.8144,321.1
647.0974,158.6
647.2196,156.8
647.8474,604.8
647.9992,172.8
648.2111,555.1
648.3873,1650.3
648.6247,346.9
648.8434,219.7
648.9661,172.1
649.4009,242.2
649.4898,96
649.5448,349
649.5911,19.2
649.8324,219.5
650.4389,1645.8
650.5368,28.1
650.6266,122.5
650.817,1635
650.9572,370.8
651.0091,112.1
651.0251,358.3
651.1006,337.6
651.1347,22119.5
652.1386,3600.5
652.2092,19.7
652.3761,22.2
652.5681,248.6
652.6187,832.3
652.7224,22.7
652.8137,2427.1
653.6787,20.7
653.9472,303.9
654.0085,400.7
654.3094,186.9
654.3399,19.8
654.6664,222.6
654.739,127.6
654.8105,939.3
655.1031,92.2
655.1569,252.6
655.3357,806.1
655.7059,257.2
656.3929,94.5
657.1495,402.5
657.2341,866.1
657.4334,134.1
657.4832,173.1
657.5602,673.6
657.6724,508
657.8215,21.5
658.1493,399.8
658.4297,801.9
658.7972,330.4
658.9308,727.4
659.1703,19.3
659.3652,19.9
659.4374,359
659.6901,23.2
659.8265,601
659.9373,877.7
660.0341,253.6
660.0823,1612.5
660.1184,116
660.4696,121.7
660.576,34
660.8098,310.1
660.9458,692.8
660.9788,20.1
661.0827,2785.3
661.1343,557.4
661.2978,32.5
661.4683,1428.4
661.5043,119.6
662.6198,18.7
662.7709,239.9
662.8736,648.3
663.1995,375
663.2584,22.6
663.4298,573.4
663.4535,1802.2
663.7421,256.8
664.2329,290.8
664.3392,119.8
664.467,3064.3
664.6955,160.6
665.472,1043.5
665.6643,376.4
666.1509,399.8
666.2562,290.7
666.3357,110.8
666.4128,471.7
666.4839,10778.7
666.639,495.9
667.0732,442
667.0995,14040
667.2035,341
667.487,4156
667.6996,161
667.8359,307.1
668.1046,786.1
668.3617,16.9
668.3729,19.7
668.4418,286.2
668.8078,257.3
668.8532,350.2
668.9777,799.2
669.2669,525.4
669.4104,283.3
669.4584,274.8
669.4946,2332.3
669.6054,170.5
669.6541,19.5
669.8187,25.4
669.8743,523.9
670.3413,716
671.0567,248.9
671.2575,18.9
671.4378,1117
671.7441,109.4
671.9035,19.8
672.1008,933.7
672.2405,336.7
672.3326,566.1
672.4216,1773.5
672.8584,272.2
672.8964,345.9
672.9414,21
673.0003,201.3
673.0476,177.5
673.1168,39163.8
673.2385,701.1
673.3189,286.8
673.4038,328.6
673.4709,656.3
673.7015,138.8
673.7465,469.1
673.797,238.2
674.1201,7175.3
674.6713,953.4
674.7131,390.4
674.7519,91.4
674.7733,795.5
675.0662,365.7
675.0921,164.3
675.1225,588.3
675.2263,134.4
675.3751,147.5
675.544,12627.8
675.6227,207.1
675.7473,357.4
676.001,322.6
676.0472,3329.7
676.1267,228.5
676.5475,4047.5
676.7115,268.9
676.747,477.5
676.899,521.3
677.0486,23.1
677.5408,203.9
678.1401,219.7
678.3607,214.9
678.6647,662.7
678.6873,622.1
679.0477,156.3
679.3693,357.4
679.858,1008
679.8891,230.7
679.9448,447.2
680.2963,142.6
680.6401,426.6
680.6887,161.1
680.8687,603.2
680.9254,210
681.3652,293.7
681.5212,609.3
682.0644,8576.6
682.1688,119.6
682.1901,226
682.524,292.7
683.0649,2089.7
683.3616,254.1
683.5275,21.7
683.6696,264.1
683.7874,131.3
684.0672,190.5
684.122,90.6
684.3477,568.2
684.5235,528
684.5945,256.5
684.9094,18.5
684.9635,583.1
685.1277,141.2
685.3025,102.5
685.4361,10221.2
685.6317,244.1
686.1455,18.6
686.4391,1469.6
686.5478,623.1
686.5754,191.4
686.5919,230.5
686.9072,300.6
686.965,19.3
687.2227,342.8
687.5774,312.6
687.7979,352.3
687.8641,251.3
688.0709,199.9
689.0809,13343.8
689.5595,4480.7
689.7779,535.9
689.8078,396.5
690.0865,356.9
690.1003,264.9
690.1645,309.2
690.2045,327.7
690.5256,170.2
690.563,1626.6
691.286,265.2
691.4134,746.8
691.5528,455.8
692.5612,750.5
692.9822,259.6
693.6628,475.1
694.1333,712.5
694.6764,278.2
694.7975,1178.6
694.805,716.1
694.9596,20.3
695.0987,31500.2
695.1558,21.7
695.5098,1755.6
695.9231,33.3
696.0368,113.7
696.0687,315.7
696.1025,4048
696.1372,382.6
696.153,247.8
696.1728,206.2
696.21,40.7
696.2794,358.7
696.6765,400.7
697.0773,318.3
697.0828,279
697.3083,325.2
697.4326,18.9
697.4856,32.7
697.506,20.3
697.5259,26232.1
697.7027,121.8
697.9233,216.5
698.0291,2575.3
698.0904,476.1
698.4325,683.6
698.529,8926.2
698.5713,671.4
699.0319,255.8
699.9432,389
700.4523,1213
700.5766,702.4
700.7412,241.7
701.1172,233.5
701.4109,844.9
701.5596,33548.5
701.6665,33.5
701.7398,465
701.7694,242.6
701.7895,136.7
702.0145,17.7
702.3433,2882.6
702.4153,579.4
702.563,10340.4
702.7525,211.2
703.1608,610.7
703.3083,120.9
703.5754,94117.6
703.9077,19.6
703.9374,309.4
703.9887,270.9
704.0464,8657.5
704.2838,504.5
704.4471,2613.2
704.5036,770.8
704.5787,35857.3
704.7787,147.3
704.8332,134.6
704.8913,18.1
705.0468,2031.9
705.1908,54.8
705.385,589.7
705.4492,460.2
705.5648,310.1
705.5819,3557.9
705.894,157.4
706.0504,129.1
706.2676,186.9
706.2967,118.1
706.5157,602.4
706.5401,871.6
707.0536,301.8
707.3321,717.4
707.3722,582.8
707.6221,130.7
707.9635,368.2
708.0017,130.5
708.2023,567.2
708.5197,120.5
708.5383,528.2
708.6401,342
708.6567,233.3
709.3911,167.8
709.4861,809.2
709.6434,737.4
710.1843,170.1
710.659,348.2
710.8762,169.7
711.0039,250.8
711.0631,7803.8
711.0735,8989.4
711.4054,751.6
711.5417,7997.3
711.5793,123.9
712.0773,643.3
712.1912,200.6
712.5441,3162.9
712.5878,296.5
712.9194,533.3
713.1268,377.6
713.4999,1743.2
713.6381,638.2
714.5072,810.8
714.6165,41.3
715.0247,164.7
715.0683,189.8
715.1936,31.2
715.2933,18.7
715.3971,728.2
715.8191,126.9
715.8563,160.4
716.018,139.3
716.2224,228.4
716.5835,671.3
716.9489,373.2
717.0808,15007.7
717.2119,87.8
717.4367,217.4
717.7288,575.4
717.8096,148.4
718.0216,172.1
718.085,711.3
718.1751,144
718.2345,163.8
718.5745,289
718.6191,131.8
718.964,253.3
719.01,219.1
719.4625,2128.7
719.7754,591.3
719.8887,150.1
720.0214,2875.1
720.5806,156.3
720.7141,139.2
720.8789,401.8
721.0826,382
721.4782,78480
721.5169,260.9
721.9859,148.9
722.0429,118.6
722.2854,247.8
722.4602,138.7
722.4818,30440
722.8656,98.1
723.1961,395.3
723.4317,276.6
723.4947,4454.4
723.5417,51108.6
723.6989,22.4
723.9824,250.9
724.0163,257.5
724.0635,253.9
724.1963,259.6
724.5453,20434.2
724.9616,482.4
725.5086,111.6
725.5574,128502.9
725.782,159.1
725.8046,34.2
726.0019,278.6
726.0286,5045
726.2957,33.2
726.5609,49728.3
726.6366,429
727.028,1418.1
727.1284,215.5
727.2491,345.6
727.4536,282.8
727.5139,828.1
727.563,6981.9
727.7857,172.5
728.1092,258.5
728.4472,1509.3
728.5216,1178.7
728.6039,182.3
729.5907,9351.4
729.7515,166.1
729.7918,482.9
730.0617,460.5
730.0994,136.3
730.2206,373.3
730.4618,1048.7
730.5388,6931.1
730.5947,1451.1
730.7248,335
731.4988,167.5
731.5414,1048.8
731.607,4307.5
731.7866,717.1
731.8698,110.4
732.5544,24067.4
732.6099,540.8
732.6897,136.2
733.0445,6179.7
733.0555,5115.7
733.1997,438.7
733.5149,407.8
733.5317,88.9
733.5578,7971.3
733.6738,233.8
734.232,654.5
734.2591,210.4
734.2885,171.1
734.4588,171.2
734.5702,10668.5
734.7184,857.4
734.7459,793.1
735.0313,18.4
735.051,247.8
735.5735,2328.4
735.6752,543.9
735.755,217.4
735.9851,424.4
736.3552,126.5
736.4334,268.2
736.4881,195.6
736.5758,232.3
736.6731,178.4
736.7477,538.4
736.7822,219.6
737.1143,20.4
737.4521,16556.2
737.8964,272.8
738.2151,470.3
738.4559,5911.2
738.4775,17.9
738.6998,103.5
738.7616,752
738.779,19.9
738.8896,292.8
739.0624,10417.2
739.1093,361.8
739.128,776.3
739.3651,424.6
739.4433,392.7
739.464,575.5
739.5157,5042.1
739.7492,95
739.8775,126.8
739.8997,17.2
739.9474,21.4
740.006,92
740.0651,372.2
740.1581,206.6
740.2465,181.5
740.5192,910.6
740.9425,792.2
741.2157,670.3
741.2721,277
741.531,13685.7
742.0044,1039.2
742.1715,19.8
742.5356,5689.9
742.5746,8714.7
742.8664,329.2
743.0104,165.9
743.2022,18.1
743.4496,20.5
743.5782,1549.9
743.617,298.7
743.6761,470
743.7085,415
743.9753,88.8
744.5542,8506.3
744.591,6470.1
744.6473,252.6
744.7126,36.6
744.9334,404.7
745.093,167.2
745.3123,115
745.4786,34049.3
745.5009,283.4
745.5577,1158.1
745.5948,1629.7
746.1194,150.2
746.4,357.9
746.4819,14901.9
746.5713,1716.1
746.6073,3116
747.0368,224.3
747.1035,257.6
747.4947,8999.1
747.5773,280.1
747.6102,299
747.6638,303.9
747.9168,152.4
748.0106,2030.7
748.2777,18.3
748.4986,2476.2
749.01,1698.3
749.3218,363.1
749.3802,17.5
749.4657,184.4
749.5097,7441.4
749.5474,180.9
749.7323,281.7
750.154,23
750.4323,369
750.5126,1536
751.5735,7759.2
751.8039,619.3
752.2666,210.8
752.403,724.5
752.4572,401.8
752.5205,12390.3
752.5751,2151
752.7383,18.2
752.8093,178.3
753.3619,166.3
753.4874,215.7
753.5234,1731
753.5862,434.1
753.9959,217
754.1905,458
754.5368,24235.2
754.5643,508.8
754.5926,421.8
754.7789,129.1
754.81,330.5
755.0285,2852.4
755.0383,3791.6
755.2506,147.5
755.4321,16.7
755.4771,17.9
755.5396,7316.7
755.6,20.4
755.7454,388.3
756.0263,392.2
756.034,374.2
756.0459,203.3
756.5541,50518.4
756.8404,19.6
756.9587,343.2
757.2542,486.6
757.3837,491.9
757.5578,18016.9
757.6225,1301.1
758.0228,114.3
758.1816,649.3
758.2184,420.1
758.5701,1217251.5
759.1676,18
759.4824,89.2
759.5735,527783.6
759.6376,183.5
759.6962,245.2
760.575,72229.7
760.5874,197605.8
760.6394,125
760.7847,301.4
761.0447,4045.7
761.1421,355.8
761.453,1582.4
761.5316,116.4
761.5897,98949.5
761.7039,216
761.8481,259
761.8765,355.8
762.0143,95.6
762.0476,197.1
762.3859,325.4
762.4547,916.8
762.5497,306.2
762.5924,18996.1
762.7642,159.8
762.9517,229.7
763.319,17.5
763.3713,355.9
763.47,742.9
763.5957,1002.7
763.7532,21.2
763.9742,482.1
764.0322,100.5
764.5569,3158
764.6738,247.6
764.8423,128.8
764.9028,333.9
764.9747,575.3
764.9954,134.1
765.2096,229.5
765.2351,342.2
765.3978,18.5
765.4975,22.9
765.5618,421.3
765.6273,117.3
765.8209,169.9
766.1712,754.2
766.2705,454.2
766.4054,462.5
766.5366,4314.6
766.5749,31532
766.696,187.8
766.7471,313.5
766.798,410.3
766.9147,238.4
767.0693,19.7
767.5786,12975.9
767.6974,132
768.1374,283
768.3567,20.8
768.5539,1371.4
768.591,36862.6
769.0695,171.9
769.4773,3050.4
769.553,387.7
769.5944,14844.8
769.93,504.5
770.0156,292.3
770.4812,714.1
770.5099,2017.4
770.5692,401
770.6079,3416
770.9925,5645.3
771.1053,183.4
771.386,108.8
771.4943,1793
771.6065,658.5
771.6351,313.6
771.6728,17.4
771.8083,133.5
772.1018,207.3
772.4998,649.2
772.5317,153.6
772.5859,15965.9
772.6249,173.3
772.9293,141.3
772.9808,255.8
773.0311,169.4
773.1638,373.7
773.4741,235.7
773.5102,2664.3
773.5892,3623
773.7198,482.8
774.0593,216.1
774.2621,35.5
774.33,367
774.5109,682.8
774.6029,455
774.625,213.5
774.6614,277.1
774.9422,186.5
775.5097,31.2
775.6027,122.6
775.7423,643.8
776.0782,430
776.4433,122.5
776.521,698
776.6694,19.8
776.712,312.6
776.8218,765.2
776.8893,703.3
777.0093,6320
777.0522,109.5
777.2908,114.2
777.5421,449.8
777.9598,659
778.0452,2464.4
778.5365,38653.1
779.1066,491.7
779.1974,352.9
779.5053,398.5
779.54,18572.1
779.5704,890.6
779.6036,332.1
779.9183,241.7
779.9506,136
780.5522,951761.4
780.5932,269.2
780.6489,166.8
780.8078,246.4
780.9387,131.5
781.0403,660.7
781.1129,273.7
781.2616,288.8
781.5555,423198.3
781.7536,302.6
782.0009,283.7
782.4255,199
782.57,641415.8
782.6831,263
782.8447,769.6
782.993,19.5
783.0266,4817.4
783.5733,292638.5
783.6477,346.5
784.5866,266718.6
784.7054,196.7
785.0442,22.3
785.2951,32.7
785.5895,133533.2
785.6537,3606.1
785.7422,128.1
785.8188,274
786.3663,135.2
786.5303,412.5
786.602,284536.9
786.6558,1069.6
786.96,707.5
787.1249,20.3
787.3674,252.9
787.605,140220.5
787.6693,950.1
787.8864,150.8
788.4119,121.9
788.4683,328.5
788.5572,18426.3
788.6059,24419.8
788.6207,3489
789.0034,214
789.1096,213.7
789.5418,3731.7
789.5605,5465.1
789.6215,2702.2
789.9056,117.3
790.0444,1899.2
790.2361,208.1
790.5734,22742.2
790.6175,109.2
791.0493,357.6
791.425,359.1
791.5403,468.7
791.577,7999.3
792.1272,20.9
792.341,578.5
792.5155,734.5
792.5906,12203.9
792.6798,19.2
792.7464,339
792.8925,833.6
792.9822,693.1
793.0708,249.5
793.2243,127.4
793.2878,31.3
793.5942,4438
794.1302,23.5
794.2412,19.9
794.2609,475
794.3223,657.7
794.4312,303.7
794.5102,3489.6
794.5688,8779.5
794.6066,41017.4
794.7705,141.9
795.5687,393.4
795.6099,17765.5
795.6938,18.4
795.8071,256.8
796.0273,186.9
796.0667,22
796.171,433.4
796.5261,167262.5
796.585,5627.2
796.6239,4148.4
796.7194,174.6
797.2034,318
797.2855,32
797.3471,282.3
797.5295,74354.3
797.5863,801.9
797.6262,1890.3
798.226,23.1
798.5444,17906.9
798.6066,399
798.6628,185.1
798.6933,246.4
799.298,109.2
799.4927,114.2
799.5452,9546.6
799.6698,328.7
799.7981,159.8
799.9026,28.8
800.0632,266.1
800.3367,112
800.5251,566.5
801.0412,21
801.0802,154.8
801.2877,436.1
801.5808,440.3
801.6834,56.3
802.2981,514.3
802.47,38.5
802.5364,27836.9
802.5679,692.6
802.968,368.5
803.091,362.5
803.3043,239.3
803.5401,10290.7
803.7183,125.6
803.9019,24.2
804.0555,731.7
804.0992,520.2
804.5521,397845.5
804.6293,117.3
804.7334,169.2
805.1051,122.9
805.5555,189150.7
805.768,522.7
806.4953,33.8
806.5694,262053.3
807.5722,136642.4
807.6341,274.3
808.5849,231197.7
808.7019,20.2
809.0959,19.9
809.5105,123.9
809.5879,115806
809.6539,1385.5
809.6926,26.2
810.2009,19.4
810.6021,157835.2
811.0905,123.1
811.2907,706
811.6049,80265.6
811.6696,8896.9
812.6032,7868.7
812.6203,18230.4
812.6731,3312.9
812.9382,691.5
813.0701,472.1
813.4676,299
813.5916,159.5
813.6217,11418.8
813.6865,6572.7
814.5725,2362.5
814.6212,48.9
814.6881,1767.1
814.9735,346.8
815.6312,239.1
815.9895,253.7
816.2513,436.5
816.4264,37.5
816.5542,563.7
816.5889,22450.5
816.7462,418.6
816.8259,219.6
816.8646,248
817.1192,18.7
817.4347,352.9
817.5915,8073.7
818.1239,277.6
818.4315,693.1
818.5106,2328.6
818.5688,376.3
818.6062,1928.2
819.3858,313.9
819.5095,890.8
819.6113,658
819.7761,234.5
819.9458,170.8
819.9664,640
820.0881,167.8
820.27,782
820.5259,72486.4
820.6237,1697.7
820.7873,271.4
821.0201,169.2
821.3939,189.5
821.4677,217.1
821.5293,31453.2
821.6274,179.1
822.2296,232.2
822.3933,22.6
822.5429,28293.6
822.6398,427.9
822.6999,328
823.1356,265.4
823.5455,13786.5
823.7725,133.6
824.0112,208.6
824.2629,144.3
824.5142,361
824.558,27932.4
825.0048,216.7
825.0926,240.8
825.444,40.3
825.5616,10114.8
826.0938,19.7
826.4076,604.3
826.5541,1155.4
826.8374,277.7
826.9142,124.8
827.2527,227.1
827.5019,19.8
827.5489,933.8
827.5748,120.9
828.0388,440.4
828.2565,1092.7
828.4744,145
828.552,78464.8
828.9834,366.2
829.1098,20.6
829.1944,824.6
829.3764,331.8
829.5555,39130.3
829.6963,579.7
830.0732,310.6
830.5685,56927.4
830.6637,338.4
830.89,20.8
831.4006,362.2
831.4635,812.3
831.5179,242.5
831.5717,26824.9
832,19.2
832.0434,307.1
832.3844,159.5
832.584,90276.6
832.6192,647.7
832.7629,243.6
833.1692,308
833.2967,751.8
833.5871,47090.8
833.6436,516.5
834.0086,415.4
834.3917,113.7
834.4277,121.6
834.4792,534.9
834.5098,615.5
834.6021,28231.3
834.6517,425.1
835.1089,325.1
835.2797,240.8
835.3577,123.6
835.3847,266.5
835.4068,230.3
835.6044,13253.9
835.7456,113
835.8006,591.6
836.1329,427.3
836.1696,22.4
836.179,20.3
836.5039,263.6
836.6183,3341.5
836.6696,262.7
836.7542,114.7
836.922,341.9
836.9752,126.2
837.2384,19
837.62,474.6
837.758,238.6
837.9993,185.3
838.334,133.1
838.412,18.3
838.4832,322.9
838.5115,3728.5
838.548,828.3
838.6362,244.4
838.6707,152.4
839.3255,711.8
839.4999,110.9
839.6367,326.5
840.0996,337.8
840.2614,257.7
840.4193,243.9
840.6012,412.6
840.9229,511.6
840.9717,653.8
841.0045,652.2
841.0442,170.2
841.4845,142
841.6141,145.8
842.2056,119.2
842.5857,247.4
842.9922,25.9
843.462,443.6
843.6065,249.4
843.8502,363.1
844.3058,287.5
844.5264,13407.2
844.6295,125.6
845.5293,2096.8
846.5422,7051.8
846.7519,324
846.9897,126.8
847.0784,20
847.4189,474.5
847.5468,1797.1
847.9614,241.5
848.2442,329.6
848.5576,12270.4
848.9052,199.1
849.3393,32.9
849.4667,331.1
849.5598,2640
849.6272,147.1
849.7108,190
850.1903,117.7
850.5705,267.7
850.8052,234.9
850.8428,522.1
850.9765,36.6
851.0594,282.9
851.278,167.6
851.5071,643.6
851.5666,194.8
852.0618,1188.4
852.0904,145
852.5231,219.1
852.5907,368.1
852.739,477
853.9196,319.5
854.4724,329
854.5226,183.4
854.562,824.5
854.6562,245.3
854.7633,19.6
855.5712,133.7
855.8958,393.3
856.0083,22.6
856.194,32.9
856.2839,420.9
856.5387,1185.9
856.584,5746.5
857.1808,105.9
857.5849,2000.4
857.6898,21.6
858.0127,94.5
858.6224,242.5
858.7977,656.6
859.3784,132.2
859.9678,116.7
860.1211,127
860.4479,208.6
861.4688,17.2
861.5098,452.7
861.7614,104.2
862.0829,24.9
862.5079,150.6
862.7132,32.7
863.086,864.5
863.464,105.6
863.9441,18.6
864.0877,352.2
864.8925,872.9
865.0809,346
865.7016,32.7
865.7623,679.1
866.2068,395.2
866.4336,20.9
866.8009,117.7
866.8203,119
868.2703,344.8
868.8193,403.6
868.8381,386
868.9105,226.1
869.0419,854.2
869.1125,130.2
869.2155,238.7
869.3321,22.9
869.3628,587.7
869.4179,285.9
869.4492,1181.7
869.473,258.7
869.5178,2066.6
869.5351,1582
869.5629,761.2
869.6067,2131.1
869.6463,3008.6
869.6745,2084.2
869.7098,2919.6
869.7455,4969.9
869.7636,4203
869.8042,2418.6
869.8369,2105.3
869.8854,389.8
869.9193,211.5
869.9565,723.3
870.0225,170.8
870.2843,163.7
870.4991,104
870.5561,237.9
870.7354,140.1
871.0149,748
871.0499,345.4
871.2921,261.9
871.6096,797.7
871.6722,126.5
872.2133,129.4
872.4544,120.4
872.5988,515.8
874.0872,33
874.1339,135.9
874.2538,590.6
874.57,344.3
875.0791,112.8
875.6599,19.7
876.4841,97
876.5651,564.2
876.879,354.1
877.4817,111
877.5376,372
877.5894,129.9
878.2439,152.8
878.6686,727.5
878.9972,184.9
879.0764,334.7
880.3236,245.5
880.4526,667.5
880.5065,301.9
880.8073,277.6
881.1117,363.1
881.4182,220.8
881.596,291.6
881.8201,251.2
882.2043,443.2
882.344,842.5
882.6029,705.7
884.7622,773.7
885.1929,20.8
885.5478,341.7
885.6143,19.3
885.653,646.1
885.8444,776.7
886.1783,172
886.5284,42.2
886.6111,255.3
886.9602,351.9
887.3883,136.2
887.5196,334.4
888.0389,505.4
888.1939,172.2
889.1431,604.3
889.4229,17.7
889.9744,114.3
890.1032,128.2
890.1603,114.1
890.9568,676.4
891.4787,432
891.8475,671
891.9666,19
892.2821,794.5
892.3217,91.7
892.3964,231.4
892.6561,622.5
892.743,194.4
892.7786,105.1
893.4356,240.3
893.4742,552.9
893.5042,310.3
893.6632,20
894.0581,343.8
894.4873,444.6
894.6096,29.9
894.709,1007
895.0294,304.6
895.0523,194.2
895.1925,223.5
895.5934,229.7
896.346,351.9
896.386,115.4
896.9971,201.7
897.5279,357.4
897.7251,359.2
897.8555,434.5
897.8926,410.9
899.7034,124.5
899.7612,506.9
899.7904,275.8
900.1001,22.6
900.7392,316.8
901.001,710
901.0911,364.1
901.4713,332.4
902.0882,183.3
902.6937,232.6
902.7948,132.3
903.4313,399.8
903.6839,161.3
903.8107,627.5
903.8375,186
904.3375,278.7
904.8406,33.1
905.077,611.9
905.1097,210.5
905.3099,142.5
905.4518,35
905.804,20.2
906.0341,320.5
906.2538,367.2
907.4072,89
907.4844,249.3
907.6024,171.3
908.0624,535.2
908.1837,23.9
908.311,156.9
908.3767,229.7
909.1694,129.2
909.3206,243.4
909.4108,130.1
909.4548,106.6
909.4859,20
909.6199,19.3
909.7387,327.3
910.0019,295.9
910.5573,252.9
910.6883,169.8
911.0823,788.2
911.1861,263.1
911.2078,109.4
911.3891,262.3
911.4955,598.3
911.6329,410.4
912.0786,335.3
912.8143,513.8
912.9148,372.1
912.9971,470.4
913.2143,313.8
913.8879,222.1
913.9228,20
914.3568,33.4
914.6073,163.3
915.0497,317.4
916.8447,550.4
917.0432,688.3
917.2202,120.3
918.1903,181.4
918.8675,133.6
919.3023,305.1
919.4374,434.8
919.6917,766
919.7159,132.3
919.7857,732.5
920.2609,446
920.4073,141.1
921.1367,388.5
921.2455,727.5
921.5279,352.1
921.6381,23.2
923.2832,132.8
923.9846,646.2
925.1759,517.6
925.5144,181.2
925.9582,111.1
927.723,729.3
928.202,175.4
928.3397,251.2
928.3736,20.2
928.4526,19.1
928.6967,336
928.7232,17.4
928.7466,417
929.0619,390.4
929.4198,733.7
930.0143,144.7
930.3206,230.9
931.0628,169.1
931.2095,1378.6
931.3203,171.1
931.9279,178.1
932.2516,36.2
932.501,145.2
932.6285,329.3
933.522,349.9
934.1674,241.3
934.4086,155.6
934.487,372.2
934.5331,218.9
935.122,226.2
935.8425,142.6
936.07,742
936.1005,166.8
936.3813,112.4
937.1967,179.8
937.3788,151.2
937.568,170.5
938.1305,674.4
938.4992,129.2
939.5398,520
939.5782,22.2
940.5064,2905.3
941.4448,314.2
941.7515,871.4
941.9715,1231.6
942.2043,354.4
942.3329,169.3
942.3567,21.8
942.3897,324.8
942.7442,692.3
942.9976,115
943.2033,19.9
943.2332,21.1
943.6623,447.7
944.2329,147.8
944.5896,299.8
944.6221,428.9
944.7813,155.2
944.9116,248.5
945.0124,718.4
945.0597,19.6
945.163,497.2
945.9326,255.6
947.5308,484.7
947.8327,376.1
948.2063,19.3
948.268,279.8
948.714,224.7
949.1075,331.4
949.448,34.6
950.3463,266.9
950.4006,24.5
950.429,157.1
950.4958,36.9
950.683,498.6
951.0775,294.5
951.2286,584.5
951.8966,147.6
952.5422,248.4
952.5885,32.4
952.7215,765.1
953.2069,419.2
953.7682,185.3
954.404,237.2
954.5489,164.2
954.6459,330.7
955.0085,487.8
955.2458,135.1
956.0499,229.1
956.2254,186.4
956.2804,275
956.4742,167
956.6377,406.7
956.7222,440.4
956.7545,312.9
956.9111,349.7
957.5372,256.5
957.8277,140.1
958.0852,191.1
958.8376,122.6
958.9166,320.3
959.2584,195
959.3358,17.9
959.4333,349.1
959.4857,190.1
959.6505,389.1
959.9587,181.6
961.2066,1354.1
962.1594,123.8
962.256,636.5
962.9315,489.2
963.3489,122.7
963.5827,1080.2
964.3678,188.4
964.9755,264.4
965.2939,1153.6
965.3676,314.6
965.4046,622.8
965.4521,369.1
965.6624,950.1
965.7356,19.7
965.7723,535.8
965.8637,586.2
966.0646,180.2
966.3086,576.2
966.4336,133.2
967.1621,764.1
967.6817,20.7
967.8535,121.1
968.2629,144.9
968.6865,892.6
968.9005,155.7
969.0366,142.4
969.0886,371
969.5317,481.2
969.7075,176.3
969.7507,355.1
970.5251,504.4
971.0418,24.6
971.2165,19.5
971.3053,382.9
971.3771,152.7
971.8347,324.4
972.3366,287.1
973.2631,522.8
973.364,444.8
973.4288,282.9
973.4604,216.6
973.8319,121.9
973.8901,322.8
974.6055,212
974.6554,20.1
974.7971,794.1
974.9911,215
975.7596,351.3
975.883,371.4
977.1566,120.7
977.2572,327
977.3201,342.6
977.759,19.2
977.9496,456.6
979.0065,38.7
979.6751,152.2
979.718,172.1
980.1175,185.1
980.1579,203.8
980.7091,34
980.9282,818
981.0341,1032.8
981.1426,164.2
981.2866,168
982.3573,18.1
982.4467,252
983.2841,422.7
983.4766,878.9
984.0466,601.5
984.201,1084.6
984.404,426.6
984.4736,562.8
985.0103,255.6
985.1439,177.9
985.2421,138
985.3247,122.6
985.5962,449.3
986.5912,1024.1
986.7792,131.2
986.8104,250.7
987.1909,129.6
987.2506,866.8
987.8974,165.3
988.491,801.5
988.5654,47.5
988.7847,18
989.0335,362.1
989.1405,355.8
989.571,540.4
989.738,23.1
990.7659,376.3
991.4312,394.1
993.0659,135.5
994.4135,113.3
994.5935,17.4
994.6706,95.1
994.7393,185.4
994.9796,20.5
995.6071,158.8
996.0412,19.7
996.151,308.1
996.8043,377.4
997.1433,20.5
997.3958,19.5
997.5038,383.3
997.5368,238.5
998.9624,129.4
999.1622,131.8
999.9464,180.7
