SPECTRUM - MS,
166.RAW,
FTMS + p ESI Full ms [50.00-1000.00],
Scan #: 1-40,
RT: 0.01-1.97,
AV: 40,
m/z,Intensity

50.0147,83.7
50.0177,280
50.019,284.6
50.0196,109.9
50.0217,473.6
50.0223,240.9
50.0231,19.2
50.0285,196.8
50.0298,20.5
50.0398,51.8
50.0406,103.6
50.0433,138.1
50.0522,366
50.063,781.9
50.0685,341
50.0699,245.6
50.0748,687.2
50.0792,633.1
50.0844,503.7
50.0924,193
50.1019,98.8
50.1155,626.9
50.1285,20.6
50.1402,839
50.1451,106.5
50.1535,15.5
50.1559,58.9
50.1577,21.2
50.1603,155.3
50.1787,206.6
50.185,586.8
50.1921,93
50.213,496.5
50.216,201.6
50.225,265.3
50.2332,627.3
50.2354,17.8
50.2449,299.3
50.2621,264.4
50.2685,311
50.2738,304
50.3015,576.8
50.3032,165.2
50.3108,93.5
50.3318,532.2
50.3323,369
50.3354,141.8
50.3604,245.4
50.3665,112.8
50.3749,116.5
50.3782,157.2
50.383,96.5
50.388,275.7
50.3978,679.6
50.3998,318
50.4452,102.7
50.4508,525.1
50.4562,155.1
50.4606,364.6
50.5097,261.6
50.5182,18.7
50.529,129.7
50.5392,205.3
50.5571,145.2
50.5904,286.6
50.5989,16.8
50.5999,439.8
50.6037,15
50.6052,143.4
50.615,17.3
50.6324,16
50.6362,316.8
50.6609,381.6
50.6669,564.7
50.669,121.9
50.673,114.9
50.6759,115.9
50.7124,397.7
50.7144,381.4
50.7253,342.3
50.7283,106.7
50.7299,269.7
50.7454,80.4
50.753,204.2
50.7543,631.1
50.7653,313.6
50.77,58.3
50.7881,80
50.7907,216.4
50.7965,295
50.8066,110.4
50.8076,18.2
50.8132,96.2
50.8257,270.6
50.8593,19.8
50.8692,146.4
50.8755,207.7
50.8846,274.9
50.8857,449.5
50.8973,95.4
50.9073,214.7
50.9138,145.4
50.9321,15.5
50.9411,23.6
50.9436,582.2
50.9533,15.8
50.9566,595.8
50.9719,68.7
50.9762,626.3
50.9826,17.1
50.9858,21.2
50.9938,379.3
51.007,58.8
51.0072,91.6
51.0073,94.4
51.0086,135.4
51.0198,375.5
51.0369,715.8
51.0453,121.4
51.0473,644.8
51.0593,530.6
51.0871,20.1
51.093,120.9
51.0947,110.5
51.1137,461.8
51.1264,167.9
51.1516,131.1
51.1541,211.6
51.1599,206.3
51.1634,315.8
51.1833,145.1
51.187,107.4
51.2141,278.2
51.2255,270.5
51.2261,237.6
51.2609,623.9
51.2868,289.8
51.2987,314
51.3076,516.6
51.31,345.7
51.3303,345
51.3477,159.8
51.3491,17.1
51.3601,133.2
51.361,220.9
51.3834,18.9
51.3848,363.2
51.3889,153.5
51.4035,481
51.4098,113.1
51.4164,234.8
51.4354,70.3
51.4507,105
51.4608,295.5
51.4661,301.8
51.4782,416.4
51.4913,299.4
51.4929,152.7
51.4963,277.3
51.4989,338.5
51.5011,71.1
51.5175,196.4
51.5524,275.6
51.5539,175.2
51.5573,556.1
51.5577,108.3
51.5586,116.9
51.5868,308.3
51.5975,359.4
51.5981,422.1
51.6101,286.6
51.614,181.2
51.6273,18.7
51.6304,57.5
51.6341,318.8
51.636,167.5
51.6416,84
51.6527,147.1
51.6571,136.4
51.6599,238.1
51.6802,247.2
51.7055,531.8
51.7176,245.7
51.7192,465
51.7372,19.1
51.75,16.6
51.757,170.3
51.7634,861.3
51.7866,360.1
51.82,109.5
51.8543,198.7
51.8702,260.4
51.8719,124.6
51.8738,205.8
51.885,15.3
51.9092,110.4
51.9195,539.1
51.9214,354.2
51.9233,327.2
51.924,105
51.9268,555.8
51.9445,322.3
51.9532,211.1
51.9878,63.7
51.9941,415
52.0093,19.3
52.0154,411.4
52.0182,110.7
52.0289,235.1
52.0334,57.5
52.0421,344.6
52.0506,116.6
52.0512,314.8
52.0633,167.5
52.0641,111
52.0686,155.8
52.085,106.2
52.0972,264.7
52.1032,438.6
52.1061,18.2
52.1087,411
52.1137,337.8
52.1207,17.9
52.1316,391.5
52.1401,188.5
52.1525,61.5
52.1824,287.1
52.1827,284.9
52.1951,79.8
52.1965,246.9
52.2,96.5
52.2101,273.8
52.2431,419.2
52.2612,677.3
52.2669,112.5
52.2721,541
52.2727,119.9
52.2758,553.2
52.291,191.9
52.2921,503.3
52.2932,112.3
52.3034,509.2
52.3038,224.6
52.3048,469.1
52.3063,487.8
52.3252,465.5
52.3487,101.7
52.352,17.1
52.3963,88.1
52.4174,199.2
52.4209,391.9
52.4295,189.9
52.4352,115
52.4392,337.1
52.4518,118.7
52.4548,395.2
52.4646,276.5
52.4748,377.7
52.5108,247.1
52.5217,121.5
52.5266,508
52.5515,457.6
52.5586,581.6
52.5609,577.9
52.5662,408.2
52.5731,148.5
52.589,399
52.6167,323.6
52.6237,650.9
52.6339,454.9
52.6414,336.9
52.6502,193.6
52.6665,152.1
52.6836,105.9
52.6844,483
52.6972,380.6
52.7121,571.7
52.721,131.8
52.7517,382.3
52.7545,561
52.7568,70.5
52.7754,644.8
52.7839,142.8
52.789,133.5
52.8038,276.2
52.8279,217.2
52.8286,554.8
52.8292,1369.2
52.8297,1079.9
52.8302,1049.2
52.831,1840
52.8316,894.4
52.8322,1331.5
52.8328,1530.9
52.834,501.9
52.8613,15.9
52.8768,478.1
52.8792,204.9
52.8878,299.9
52.9062,195.5
52.9186,171.4
52.9342,569.8
52.9555,196.2
52.9579,16.4
52.9875,708.3
52.9946,602.8
53.0145,241.8
53.026,636.2
53.0301,383.7
53.0376,95.6
53.04,103.8
53.053,244.5
53.061,772
53.0686,157.7
53.1201,199.8
53.1281,238.1
53.1502,498.7
53.1541,317.3
53.1876,224.8
53.202,245.5
53.2126,15.7
53.2343,268.1
53.2356,60.8
53.2368,365.9
53.2399,132.5
53.2471,118.4
53.2499,237.4
53.2661,112.8
53.2722,631.2
53.2726,18.2
53.289,314.1
53.3166,226.9
53.3233,142
53.3371,271.5
53.3524,68.5
53.3658,156.6
53.3762,488.3
53.3921,54
53.3933,196.4
53.3969,223.2
53.4031,300.1
53.4145,665.3
53.4222,84.5
53.4252,106.1
53.4271,318.7
53.4317,347.1
53.4579,114.8
53.4624,18.6
53.4671,287
53.4771,420.1
53.4788,122.7
53.4888,19.8
53.4976,225.3
53.5009,202.8
53.5305,71.9
53.5351,165.8
53.5707,421.5
53.578,383.1
53.5824,281
53.5881,14.9
53.5913,18.2
53.592,93.7
53.5925,670.6
53.6008,14.7
53.6071,109.8
53.6161,170.3
53.6194,144.5
53.635,95.4
53.6519,205.4
53.6571,304.1
53.6653,422.9
53.6874,254.3
53.6895,17.9
53.6899,374.5
53.6996,362.3
53.717,108
53.7208,479.3
53.738,259.3
53.7411,144.6
53.7613,20.1
53.7792,273.8
53.7978,353.2
53.7994,436.3
53.8027,16.8
53.8041,78.5
53.8122,111.8
53.8188,118.5
53.8225,326.4
53.825,433.1
53.8441,585.1
53.8713,188.5
53.884,17.4
53.9006,237.4
53.9019,276.2
53.9096,18.9
53.9292,303.2
53.9317,201.6
53.9706,700
53.977,116
53.9847,531.4
53.9987,17.8
54.0059,289.8
54.0183,131.2
54.0236,604.4
54.0539,191.4
54.0706,111.4
54.0879,62.5
54.1006,17.2
54.1034,193.5
54.1045,587.1
54.1102,125.2
54.1132,136.4
54.1373,305.1
54.1585,418.1
54.1643,523.7
54.1792,177.6
54.1843,112.6
54.1866,329.9
54.1974,138.5
54.2065,168.3
54.2109,16.4
54.212,558.4
54.2161,111.7
54.2259,334.9
54.2374,104.5
54.25,166.3
54.2532,126.9
54.2549,147.3
54.2577,65.2
54.2819,264.5
54.2952,190.9
54.2979,281.5
54.299,289
54.319,396.4
54.3204,332.3
54.3319,126.5
54.3389,190.9
54.3707,232.6
54.394,579
54.4003,172.1
54.4027,20.9
54.4157,385.1
54.4167,350.9
54.4366,305.2
54.4375,324.6
54.445,152
54.4516,16.7
54.4621,226.4
54.4693,319.4
54.4703,201.8
54.4828,90.5
54.4854,112.5
54.5316,120.7
54.536,278.1
54.5432,120.9
54.5445,121.4
54.5554,62.6
54.5602,306
54.5752,95.9
54.5823,60.8
54.5935,393.5
54.6033,113.9
54.6149,501.6
54.6291,15.3
54.641,612.7
54.6463,308.2
54.652,215
54.6747,16.4
54.6798,467.1
54.6923,272
54.6993,553.1
54.7142,485.1
54.7279,125.3
54.7377,302.1
54.7397,380.6
54.7514,421.6
54.7838,420.3
54.7994,108.9
54.8241,441.7
54.846,160.7
54.8493,181.2
54.8569,110.6
54.8624,144.7
54.8647,410.1
54.875,87.1
54.8903,187.1
54.9014,17.4
54.9082,637.2
54.9306,140.3
54.9397,283.1
54.9562,523
54.9839,274.2
55.0073,104.4
55.0214,593.1
55.03,412.9
55.0442,204.5
55.0515,107.3
55.0594,303.7
55.0815,236.6
55.0923,118.2
55.0944,17.3
55.1011,391.3
55.1246,210.5
55.133,181.2
55.1472,337.1
55.1559,86.2
55.1662,20.1
55.1703,232.7
55.1757,565.5
55.1783,94.4
55.194,104.6
55.1958,625.6
55.2015,278.7
55.2166,16.5
55.219,129.1
55.236,60.5
55.2435,149.8
55.2526,380.7
55.2543,231.6
55.2912,541.3
55.2923,232.4
55.3064,137
55.3081,356
55.3134,23.6
55.3221,544.6
55.3376,144.1
55.348,135.1
55.3803,332
55.4125,136.1
55.4139,16.6
55.416,234.1
55.4347,175.1
55.4454,216.8
55.4489,198.5
55.4532,17.1
55.4587,130.8
55.4808,427.8
55.4933,576.9
55.495,117
55.5068,337
55.5073,16.8
55.5104,80.9
55.5132,724.7
55.5423,138.1
55.5424,137.4
55.5527,218.8
55.571,19.6
55.5721,696
55.5738,384.3
55.578,487.5
55.5783,278.6
55.6134,236.9
55.619,147.4
55.6246,554.7
55.6339,130.6
55.6373,500.5
55.6376,62.8
55.6388,612.5
55.6464,74.3
55.6586,16.2
55.6639,324.2
55.6679,19
55.673,18.9
55.7108,134.5
55.7141,129
55.725,304.6
55.7342,93.6
55.7411,339.1
55.7487,427.7
55.7527,325.3
55.7684,174.9
55.7702,354.5
55.7843,18.1
55.7877,283.8
55.8074,394.6
55.8312,125
55.8617,136.8
55.8669,496.2
55.8754,130.9
55.8767,509.4
55.9201,128.6
55.9258,361.4
55.9278,241.3
55.9629,313.4
55.998,408.7
56.0151,422.2
56.0374,420.2
56.0414,416.6
56.048,251.4
56.0632,155.8
56.069,368.3
56.078,241.3
56.0918,17.5
56.0926,385
56.0963,316.3
56.1011,100.3
56.1031,116.7
56.1081,422.1
56.1095,91.6
56.1357,225.1
56.1361,121.8
56.1453,307.3
56.1534,143.1
56.1568,218.3
56.16,381.6
56.1748,357.5
56.179,319.5
56.1827,162.5
56.185,214.8
56.194,383.9
56.2115,501.7
56.2121,186.2
56.2479,350.6
56.2496,246.1
56.2508,495.7
56.2513,965.4
56.2522,229.7
56.2566,514.1
56.2595,163.5
56.2608,278.1
56.2735,565.4
56.2974,123
56.2996,180.4
56.3015,353.5
56.3089,18.6
56.3139,600.3
56.3185,309.6
56.3194,17.6
56.3215,16.5
56.322,581.1
56.3229,345.7
56.3257,330.9
56.3323,269.3
56.341,557.2
56.3417,528.6
56.3514,166.1
56.3531,75.8
56.3719,232.9
56.3847,91.7
56.4093,271
56.411,147.1
56.4116,119.1
56.4261,118.5
56.4472,269.5
56.4705,16.9
56.4872,140.7
56.4948,17
56.5113,305.4
56.5196,130.7
56.5231,163.2
56.5267,209.6
56.5318,408.1
56.5328,74.6
56.5407,290.1
56.5511,128.3
56.5703,283
56.5794,169.3
56.5829,156.7
56.6084,167.7
56.6228,235.8
56.6688,626.9
56.6723,107.4
56.7057,18.9
56.718,327.9
56.7188,608.8
56.7205,57.2
56.738,119.9
56.7394,126.7
56.7485,534.9
56.7705,402.5
56.7731,408.8
56.8227,97.8
56.8387,421.2
56.8394,322.6
56.8445,400.7
56.8449,110.4
56.8555,99.3
56.8587,251.2
56.8636,132.4
56.8939,17.7
56.92,138.8
56.9273,129
56.9422,255.4
56.9491,57.6
56.9602,130.1
56.9868,23.1
56.9906,433.7
56.9917,65.3
56.9963,90.5
56.9983,264.6
57.0624,15.7
57.0723,151.9
57.0753,279.6
57.0799,276.7
57.1003,111.1
57.103,235.2
57.1114,400.1
57.112,148.7
57.1239,126.4
57.1412,118.7
57.177,263.3
57.1886,246.7
57.201,327.9
57.2153,693
57.2366,261.3
57.2384,561
57.2438,127.9
57.2493,712
57.253,404.4
57.2713,231.1
57.2822,216.1
57.2962,250.9
57.2998,269.5
57.3174,206.2
57.3224,371.7
57.324,689
57.3431,119.1
57.35,423.3
57.359,137.6
57.3616,686.4
57.3637,129.3
57.3667,245
57.3674,337.6
57.3685,153.7
57.3914,20.1
57.3937,87.8
57.4217,351.3
57.4312,120.7
57.4692,483.3
57.5094,450.3
57.5104,136.2
57.5194,289.9
57.5302,252
57.5318,120.8
57.5559,123.9
57.5599,112.1
57.5644,101.3
57.6032,125
57.6047,233.4
57.6112,107.7
57.6217,112
57.6265,119.9
57.6647,198.1
57.6848,693.3
57.6915,396.9
57.7148,157.5
57.728,342.8
57.7309,226.8
57.7613,248.7
57.8005,207.9
57.8121,123.2
57.8207,153.5
57.8643,135
57.8722,505.7
57.875,109.9
57.8887,15.6
57.8894,233.3
57.8925,266
57.9038,231
57.9077,302.9
57.9507,99.1
57.9579,352.9
57.9634,400.2
57.9677,149.4
57.9783,17.1
57.9811,231.5
58.0104,404.1
58.0148,377.1
58.0296,489.6
58.0628,235.5
58.0644,234.3
58.096,598.6
58.1179,385.9
58.1429,108.3
58.146,203.6
58.1604,84.4
58.1969,383.9
58.2094,257.9
58.2203,425.3
58.2409,219.4
58.2616,330.3
58.2639,322.3
58.3099,288.2
58.3182,608.6
58.3329,119.5
58.3544,163.3
58.3568,288.2
58.3639,156.5
58.3662,177.6
58.3707,674.6
58.3832,580.3
58.3978,16.1
58.419,15.4
58.4196,388.4
58.4325,273.2
58.4328,105.5
58.4412,235.6
58.4469,292.2
58.4528,133.6
58.4535,133.5
58.4577,150.9
58.4582,119.3
58.4847,111
58.4866,238.8
58.4952,341
58.5028,112.3
58.5135,100
58.517,198.5
58.5321,157.1
58.5454,452.9
58.5494,579.2
58.5523,107.1
58.5545,409
58.568,182.7
58.5864,307.8
58.5962,639
58.5989,330.1
58.6032,624
58.6098,114.8
58.6141,120.7
58.6406,303.5
58.6436,479.7
58.6473,250.2
58.6848,16.4
58.6989,239.5
58.7044,449.7
58.7045,406.7
58.7105,283.7
58.7162,286.6
58.7298,415
58.7443,286.1
58.7503,119
58.7529,151.3
58.777,123.2
58.7834,221.1
58.7901,126.6
58.7916,479
58.8108,622.9
58.8139,249.6
58.8211,646.2
58.8275,125.6
58.8498,368.1
58.8525,227.6
58.8621,276.4
58.8749,15.8
58.8819,461.4
58.8969,16.5
58.9043,518
58.9258,176.4
58.9326,366.6
58.941,108.9
58.9473,17.7
58.9488,432.5
58.9872,96.3
58.9992,216.4
59.0261,562.1
59.0303,273.4
59.0654,223.5
59.0669,141.3
59.0791,162.1
59.0882,278
59.1123,84.3
59.1182,283.8
59.1266,21
59.1274,276.7
59.1645,116.3
59.1918,328.9
59.2027,110.8
59.2048,279.5
59.221,164
59.225,195.2
59.2358,463.7
59.2384,112.8
59.2408,414.5
59.2576,481.3
59.2619,15.6
59.2729,183.1
59.2895,328.9
59.3111,183.2
59.3244,379.3
59.3293,281.9
59.3328,420.9
59.3528,136.2
59.3729,138.2
59.3781,144.5
59.3858,404.7
59.3939,390.1
59.4001,587.1
59.4013,530.3
59.4164,124.6
59.4217,177.2
59.4256,117.9
59.4655,137.3
59.4793,454.8
59.5536,102.2
59.5718,392.5
59.5751,400.8
59.5814,265.9
59.6058,586.3
59.6103,137.6
59.6289,248.2
59.6477,362.3
59.6542,486.6
59.6714,90.8
59.689,111.7
59.6945,327.7
59.7247,405.6
59.7259,452.2
59.735,124.3
59.7397,17
59.7414,19
59.7482,83.3
59.7866,17.3
59.802,17.7
59.8209,115.8
59.8226,118.7
59.8453,82.1
59.8601,168.1
59.8766,218.9
59.8861,623.5
59.8889,350.9
59.8925,157.3
59.8948,371.7
59.9054,131.8
59.9068,301
59.9075,164.2
59.9108,687.2
59.9112,16.1
59.9266,253.2
59.9461,111.3
59.9574,135.8
59.9647,66.1
59.9736,194.8
59.9783,84
59.9978,117.5
59.9997,141.5
60.0036,799.9
60.0096,545.5
60.0112,141.1
60.0385,351.6
60.0402,102.8
60.0519,236.1
60.0566,61
60.0618,115.7
60.07,520.1
60.0837,157.4
60.0858,520.6
60.1385,264.6
60.1416,511.4
60.1482,157.5
60.15,195.3
60.1672,369.3
60.1911,127.6
60.2025,300.9
60.2123,164.9
60.2195,15.7
60.2268,68
60.2291,682.3
60.2375,19.3
60.2442,275
60.2619,123.5
60.285,138.4
60.3035,194.3
60.3041,215.7
60.3093,428.4
60.3201,295
60.3341,184.2
60.3361,296.4
60.3573,727.9
60.363,249.4
60.3648,112
60.366,201.6
60.3677,231.1
60.3742,15.2
60.3882,623.4
60.4142,126.1
60.4186,291.6
60.4472,155.2
60.4719,408.7
60.5085,17.8
60.5117,146.4
60.5124,447.2
60.513,116.2
60.5414,138.4
60.5458,531.8
60.5544,289.4
60.5593,312.9
60.5662,19
60.5683,21.3
60.5854,675.5
60.5863,166.3
60.5912,223.9
60.5924,207.1
60.6045,137.1
60.6059,313.1
60.6117,562
60.6123,219.1
60.6134,117.8
60.6157,423.9
60.652,15.3
60.6751,16.5
60.6863,575.2
60.7029,443.9
60.716,132.9
60.7263,16
60.7294,313.5
60.7372,104.1
60.7388,713.6
60.7518,96.7
60.7557,203.7
60.7582,495.7
60.8075,397.8
60.8453,471.9
60.8741,497.4
60.8754,17.4
60.885,58.1
60.8892,432.4
60.8893,415.9
60.9191,17.8
60.9256,273.3
60.9354,136.6
60.968,234.7
60.9713,132.3
60.9742,553.4
60.9873,183.9
60.9897,668.5
60.9919,302.9
61.0144,156.2
61.0193,90.5
61.0299,113.4
61.0415,18.3
61.0499,312.7
61.0727,545.6
61.0774,257.8
61.1009,183.6
61.1147,442
61.1179,18.2
61.1187,303.5
61.1527,254.8
61.1595,16.6
61.1604,571.5
61.1612,137.1
61.1624,126.5
61.174,16
61.1746,455.5
61.1879,281.1
61.2,138.9
61.2103,202.8
61.2155,78.9
61.2297,84.4
61.2459,107.3
61.2825,366.1
61.2943,116.7
61.3019,149.8
61.3189,245.4
61.3212,651.5
61.3317,179.3
61.3553,203.1
61.358,17.7
61.3628,267.6
61.3796,127.6
61.3937,17
61.4071,116
61.4293,401
61.43,173
61.4335,97.5
61.4873,84
61.5327,15.9
61.5407,244.4
61.5453,89.3
61.5517,393.9
61.5535,116.4
61.5561,438.7
61.5726,434.8
61.5811,364.5
61.5949,349.4
61.6015,483.9
61.6173,177.1
61.6279,496.5
61.6418,193.2
61.668,303.6
61.6685,586.3
61.6793,240.1
61.7016,376.4
61.7077,438.1
61.7126,266.2
61.7394,214.7
61.74,101
61.7516,116.9
61.7554,282.3
61.7704,113.4
61.7717,344.5
61.7964,213.4
61.8121,401.3
61.8146,163.3
61.8162,369.6
61.8499,18.8
61.9169,123.4
61.9187,99.7
61.9209,94.6
61.9283,116.6
61.9544,334.2
61.9563,407.5
61.9724,269.6
62.007,237.1
62.0072,234.8
62.011,347.3
62.0178,128.5
62.0333,360.2
62.0649,19.7
62.0721,542.9
62.0926,434
62.0971,276
62.1062,444.7
62.1102,354.2
62.1108,124
62.1171,351.4
62.1251,305.5
62.1435,233.3
62.1532,313.9
62.165,101.7
62.1811,119.6
62.2,17.8
62.2119,350.6
62.2128,600
62.2224,348.7
62.2236,104.2
62.2345,175.5
62.2698,265.9
62.2976,127.6
62.3131,430.8
62.3139,343.6
62.3176,596.5
62.3247,375.8
62.3322,560.5
62.3553,99.2
62.3724,112
62.3764,664.3
62.4299,228.3
62.4306,154.5
62.4358,130.3
62.4454,105.4
62.4545,485.8
62.4564,16.9
62.4674,546.3
62.476,95.5
62.4951,17
62.5016,327
62.5022,255
62.5145,341.4
62.5342,304.3
62.5468,15.4
62.5486,262.7
62.5554,184
62.556,126.1
62.5672,342.5
62.576,276.3
62.5861,163.3
62.6067,115.9
62.613,435.5
62.6157,112.8
62.6166,154.9
62.6221,93.5
62.6246,70.5
62.6451,137.3
62.664,315
62.6786,673.6
62.6801,131.8
62.6987,255.4
62.7215,279.7
62.7309,625.7
62.7975,290.3
62.7982,258.8
62.8007,395.5
62.8423,509.2
62.8492,290.9
62.8501,82.7
62.8604,168
62.8744,311.6
62.8852,220.9
62.922,17
62.9243,235.6
62.929,449.4
62.9452,311.9
62.9569,112.5
62.9666,253.6
62.9681,348.5
62.975,85.4
62.9824,240.4
62.9856,269.7
62.9977,15.7
63.0001,273.1
63.0041,333.5
63.0149,379.6
63.0168,20.2
63.0216,285.2
63.043,100.9
63.0674,290.7
63.0739,18
63.0753,198.2
63.0846,556.3
63.1063,380.3
63.1223,616.3
63.1245,91
63.132,363.7
63.1402,151.7
63.1479,395
63.1543,715.5
63.1611,113.8
63.2198,517
63.2223,383.4
63.2385,125.5
63.2487,138.9
63.2491,384.3
63.2543,220.2
63.2983,279.5
63.3107,299.7
63.3225,151.1
63.3284,242.2
63.3285,260
63.3337,17.3
63.3486,279.1
63.3814,123.6
63.3861,248.8
63.4434,17.4
63.4574,277.6
63.4708,361.5
63.4901,15.7
63.5093,103.6
63.5371,18.4
63.5647,63.8
63.5741,125.2
63.5758,92.7
63.5837,338.3
63.6209,266.4
63.6641,365.9
63.6658,77.9
63.6929,634.7
63.699,166.9
63.7018,385.3
63.7027,123
63.7071,136.5
63.7203,84.7
63.722,131.4
63.7263,157.6
63.7349,396.5
63.7378,417.8
63.7626,105
63.7648,123.9
63.7771,161.6
63.7824,19.3
63.7857,16.7
63.7972,303.3
63.8288,355.6
63.8329,488.2
63.8578,120
63.8618,155.7
63.8885,17.2
63.9039,684
63.9192,117.8
63.9257,220.7
63.94,133.3
63.9461,259.3
63.9531,596
63.9537,122.7
63.9664,269.2
63.9692,622.6
63.9733,234.6
63.9877,517.7
63.9888,96.2
63.9934,299.2
63.9951,16.2
64.0103,120.8
64.0235,665.7
64.0409,19.4
64.0596,161.1
64.071,159.4
64.0839,211.1
64.1005,425.6
64.1223,92.5
64.1421,134.4
64.1468,216.2
64.1483,18.1
64.1611,522.1
64.1626,777.9
64.1633,160.2
64.1667,100.8
64.1967,402.8
64.2157,170.3
64.2229,16.2
64.2348,16.9
64.2372,118.8
64.2438,128.8
64.255,15
64.2571,151.8
64.2581,223.7
64.286,118.7
64.2897,280.6
64.2977,66.2
64.3285,196.1
64.3287,173.4
64.3304,582.5
64.3479,17
64.3586,101.6
64.3628,349.9
64.3631,365
64.3634,393
64.3692,152.4
64.3841,358.4
64.3971,215
64.4006,199.3
64.4063,571.3
64.408,178.3
64.429,104.5
64.4324,331.5
64.4332,306.9
64.4354,153.1
64.4414,788.6
64.4567,22.9
64.4598,133.9
64.4624,113
64.4746,145.2
64.5064,362.2
64.5127,518.1
64.519,430.8
64.5378,19.9
64.5413,129.4
64.582,442.4
64.5825,170.4
64.5896,88.7
64.6031,266.6
64.6221,133.4
64.6337,143.6
64.6357,634.9
64.6482,607.6
64.6663,267.4
64.6873,217.7
64.7294,600.3
64.733,541.8
64.7428,258.1
64.7505,554.7
64.7711,18.1
64.7733,234.3
64.778,413.4
64.7955,273
64.8177,19.3
64.8228,380.6
64.8356,65.6
64.8379,126.1
64.8549,144.6
64.8658,111.5
64.9209,206.5
64.9454,394.1
64.9462,445.5
64.9619,224.4
64.967,393.1
64.9685,286.1
64.9701,158.1
65.0004,263.8
65.0097,654.2
65.0126,190.8
65.0142,159
65.0252,121.9
65.0277,17.1
65.0306,17.2
65.0614,87.9
65.0631,143.2
65.0655,558.6
65.0664,19.3
65.0711,123.5
65.0844,234.9
65.086,236.9
65.0863,495.1
65.0866,513.7
65.0868,493.7
65.1005,71.9
65.1189,303.1
65.1375,171.5
65.1491,107.9
65.188,196.7
65.1893,379.6
65.2048,272
65.2547,155
65.2686,510.1
65.2819,308.5
65.2824,234
65.2914,444.7
65.2977,259
65.3059,231.2
65.311,22.4
65.3183,604.9
65.355,219.6
65.3582,391.6
65.3597,18.6
65.3738,290.3
65.398,314.9
65.4111,108
65.4202,583.5
65.425,103.6
65.433,565.2
65.4338,14.9
65.4343,91.7
65.4526,413.8
65.4728,17.6
65.4786,151.6
65.4919,266.6
65.4984,427.4
65.5031,133.4
65.5324,214.2
65.5588,377.1
65.5615,17
65.5999,198.9
65.6452,17.6
65.6487,385.5
65.6546,374.8
65.7177,609.4
65.7187,519.1
65.738,126.7
65.74,155.8
65.7666,227.6
65.7755,116
65.8046,581.6
65.8071,378.1
65.817,238.7
65.8252,140.9
65.8268,16.9
65.8566,379.5
65.899,130
65.9169,299.7
65.926,149.9
65.929,188.8
65.9361,20.2
65.9408,118.5
65.9418,346.1
65.951,143.8
65.9551,17.6
65.9557,17.8
65.9602,110.9
65.9667,548.4
65.9717,447.2
65.9776,244.8
65.9794,102.7
65.998,593.6
65.9998,424.2
66.0049,195
66.0174,124.3
66.0267,16
66.0284,146.6
66.0396,18.1
66.0427,20.8
66.05,275.7
66.0578,18.4
66.0708,144.8
66.0916,165.9
66.1138,776.6
66.1456,260.9
66.1851,253.6
66.1965,557.1
66.1996,257.4
66.2012,269.6
66.2021,157.6
66.2116,103
66.2197,568.6
66.2351,670.4
66.2363,460.8
66.2401,302.7
66.2417,405.7
66.2615,118.9
66.2627,161.6
66.3117,17
66.3173,104.9
66.3343,147.3
66.3454,175.2
66.3644,364.5
66.3657,307.4
66.368,605.8
66.3727,322.3
66.39,451.4
66.4174,582.4
66.4272,179.7
66.4392,396.5
66.4462,207.2
66.4643,107.2
66.4651,349.3
66.498,871.6
66.5164,256.5
66.5181,141
66.5287,157.5
66.5368,125.6
66.5576,103.8
66.5757,598
66.5771,642.7
66.6229,365.1
66.6573,297.8
66.6734,118.7
66.7147,94.5
66.716,100.1
66.72,83.8
66.7233,656.5
66.7248,645.5
66.7336,188.9
66.7379,378.1
66.7592,322.1
66.7639,550.8
66.7647,657.5
66.7804,533.4
66.7892,283
66.7988,90
66.8033,440.9
66.807,547.6
66.808,127.5
66.8173,21.1
66.8233,374.1
66.8257,86.4
66.8293,315.3
66.836,651.1
66.8426,325
66.8477,97.8
66.8615,251.5
66.8651,17.9
66.8909,176.2
66.8941,378.6
66.8956,134.8
66.9187,315.6
66.9321,20.1
66.9571,800.5
66.9633,303.8
66.9838,125.5
66.987,849.9
66.9956,364.3
67.0001,336.9
67.0193,19.6
67.0539,51.2
67.0591,618.1
67.0714,155.8
67.0769,264.2
67.087,176.9
67.0876,221
67.096,17.2
67.0992,114.6
67.1088,531.3
67.1226,139.4
67.131,396
67.1531,118.5
67.1573,106.7
67.1594,112.1
67.1612,413.8
67.1728,423.2
67.2277,252.4
67.2369,179.8
67.2875,309.6
67.3079,200
67.3174,119.4
67.3286,197.4
67.3517,17.1
67.3584,115.7
67.3722,447.8
67.3834,17.8
67.4019,77
67.416,198.7
67.4711,173.1
67.4735,15.3
67.4829,104.9
67.5087,17.1
67.5125,115.3
67.5173,202.6
67.5589,454.2
67.5628,189.9
67.573,307.8
67.5782,214.5
67.5872,341.9
67.5928,473.2
67.594,279.3
67.5959,20.7
67.6007,346.5
67.608,155.2
67.6246,411.2
67.6257,371.1
67.6364,304.2
67.6412,230.6
67.6438,122.1
67.6657,19.6
67.6826,252.3
67.6864,129.9
67.732,16.7
67.7393,212.9
67.7408,387.1
67.7525,142.1
67.7719,156.3
67.779,208.1
67.7855,359
67.7942,558.4
67.8002,82
67.8026,143
67.8249,19
67.8348,160.8
67.8372,180.4
67.8476,673.6
67.849,266.8
67.8522,755.9
67.8831,312.5
67.8911,287.1
67.9101,457.2
67.9272,288.9
67.9486,249.5
67.9612,193.4
67.9642,173.6
67.972,98.3
67.9843,306.7
68.0165,365
68.0186,534.2
68.0682,78.8
68.0738,18
68.0778,18.2
68.0904,140.3
68.1128,16.9
68.1328,68.5
68.1707,94.9
68.1736,219
68.1816,129.9
68.1947,179.5
68.1971,137.2
68.2072,291
68.2079,113.8
68.2101,202.4
68.2235,587.9
68.2371,246.1
68.2389,104.6
68.2505,147.4
68.2555,518.7
68.2589,212.7
68.2713,140.1
68.2729,118.7
68.3141,131.8
68.3172,414.2
68.3228,254.2
68.3309,289.4
68.3382,136.5
68.3385,135.4
68.3397,120
68.3484,299
68.3643,122.3
68.4023,117.9
68.4525,501.8
68.4564,145.4
68.4601,124.6
68.47,479.1
68.4897,361.5
68.4908,371.5
68.5,76.8
68.5056,136.6
68.5099,253.2
68.5415,120.7
68.5479,17.3
68.5528,266.9
68.5791,393.1
68.5872,259.5
68.6008,188.9
68.6134,422.9
68.6182,174.4
68.6314,159.3
68.6403,347.5
68.6589,452
68.6595,149.8
68.6792,196.9
68.7047,262.1
68.7076,218.3
68.7096,206.2
68.7269,167.2
68.7404,153.6
68.7467,267
68.785,86.5
68.7945,336.3
68.803,446.3
68.8054,20.9
68.8075,177.3
68.8111,338.4
68.8213,350.4
68.8384,103
68.8561,175.3
68.8589,287.9
68.8652,219
68.8693,404.4
68.8826,444.6
68.8834,405.2
68.9139,280.1
68.9171,399.3
68.9336,17.2
68.9344,131.6
68.953,133.2
69.0079,419.8
69.0207,136
69.0309,465
69.0465,17.3
69.0643,98.5
69.0698,16.2
69.0912,228
69.0939,122.6
69.0974,248.9
69.1172,17.4
69.1512,17.8
69.1551,373.9
69.1655,156.6
69.1692,105.7
69.1756,184.4
69.1787,500.4
69.194,169.5
69.1946,270.1
69.2246,271.9
69.2301,520.3
69.2406,237.1
69.2488,414.9
69.2681,646.6
69.2872,412.9
69.3101,16.5
69.3125,268.3
69.3216,377.2
69.3333,183
69.348,337.2
69.3687,570.3
69.373,64.2
69.3925,599.6
69.3992,146.1
69.406,142.7
69.4094,131.3
69.4541,476.9
69.4626,18.1
69.4675,115
69.4682,17.8
69.4718,109.8
69.5028,120.6
69.5067,363.2
69.5138,358.9
69.5459,332
69.5578,469.2
69.567,450.2
69.5985,298.9
69.6021,539.2
69.6357,173.9
69.6532,208.5
69.6656,219.5
69.6968,128.4
69.7223,118.4
69.7361,17.4
69.7416,140
69.7739,624.8
69.8182,116.6
69.8647,340.7
69.8809,131.6
69.9462,244.5
69.9626,151.1
69.9865,139
69.9878,349.1
70.0169,62.6
70.039,279.8
70.0417,150.2
70.0631,371.1
70.0648,160.8
70.123,110.7
70.1274,180.2
70.1376,105.3
70.1389,421.9
70.1406,270.8
70.1425,320.9
70.1498,158.1
70.1546,286.5
70.1588,234.6
70.1618,158.7
70.1737,145.6
70.2061,17.3
70.218,629.9
70.2197,610.7
70.2303,302.1
70.2485,272.7
70.2501,236.7
70.2551,15
70.2725,160.9
70.3139,314.6
70.3203,16.9
70.3228,248.4
70.3449,103.2
70.3468,141.1
70.3742,17.6
70.3876,108.8
70.4106,259.2
70.4539,17.2
70.4556,169.1
70.4577,159.4
70.4614,649.3
70.4753,176
70.4898,189.9
70.4926,168.5
70.5079,288.4
70.5145,342.3
70.5162,108.7
70.5177,139.8
70.5332,18.8
70.5488,136.5
70.5687,103.2
70.5694,15.5
70.5835,373.5
70.6044,130.9
70.6191,321.2
70.6281,281.4
70.6467,107.9
70.6526,115.9
70.6604,105.1
70.6895,108.2
70.6948,122.4
70.7094,208.9
70.7224,106.4
70.734,450.7
70.7548,16.2
70.7746,109.6
70.7751,633.7
70.7783,271.5
70.7974,149.1
70.8029,241.9
70.8252,126.6
70.828,289.9
70.8381,419
70.8445,146.2
70.86,124.9
70.8629,17.5
70.8682,596
70.8796,169.5
70.9061,213.3
70.919,208
70.9252,176.5
70.9391,667.5
70.9443,16.5
70.9553,267.5
70.9568,16.1
70.9606,18.5
70.9879,147.3
71.022,270.6
71.0495,139.1
71.0526,310.4
71.0703,231.9
71.0796,260.6
71.0963,133.2
71.0996,887.8
71.126,171.3
71.1277,90.2
71.1435,488.5
71.1583,412.3
71.1629,61.4
71.1653,243.9
71.1683,391.6
71.1754,323.4
71.1902,181.2
71.2025,134.2
71.2105,298.1
71.2341,15.8
71.2581,72.6
71.2639,21.9
71.2752,207.4
71.2849,124.9
71.2903,288.8
71.3244,230.4
71.3333,177.8
71.3352,179.3
71.3632,435.2
71.4028,422.7
71.429,175.8
71.4295,105.2
71.4319,59
71.449,16.6
71.451,69.9
71.4834,462.8
71.515,501.5
71.5358,285.9
71.5411,656.1
71.5432,123.8
71.5757,607.4
71.5838,84.4
71.5965,113.1
71.6063,233.3
71.6112,268
71.6147,203.1
71.6249,400.1
71.6287,715.7
71.6381,333.4
71.6498,152.6
71.6678,140.9
71.6716,129.3
71.6906,92.5
71.6917,136.7
71.6925,414.6
71.6992,335.9
71.7126,395.6
71.7209,128.4
71.752,277.1
71.7699,109.4
71.7706,115.6
71.799,401.7
71.8007,369.9
71.8029,718.5
71.8214,19.7
71.8243,536.1
71.8409,417.9
71.847,87.7
71.8735,90.7
71.8749,66.6
71.88,519.2
71.8885,295.7
71.8912,288.2
71.9026,160.8
71.9049,22.1
71.9115,309
71.9152,365.2
71.9161,578.3
71.9184,121.6
71.9256,19.5
71.9295,657.5
71.9792,411.7
72.0068,19
72.0415,318.9
72.0613,147
72.0713,219.2
72.0751,119.8
72.0805,454.3
72.0817,665.9
72.084,377.2
72.0938,117.3
72.0956,224.8
72.103,295.5
72.1131,17.4
72.1384,135.9
72.1547,424.6
72.1614,489.9
72.1652,127.7
72.1776,279.2
72.1791,270.3
72.1888,118.6
72.1924,196
72.1951,343
72.2004,287.5
72.2015,619
72.2147,618.4
72.225,19.1
72.2264,22
72.2275,721.6
72.2281,877.5
72.2291,2179.8
72.2308,885.6
72.2321,2344.8
72.2329,467.2
72.2337,1667.7
72.2355,3121.6
72.2364,2695
72.2383,3070.1
72.2386,2933.8
72.2399,2152.3
72.2404,1753.4
72.2411,3337.2
72.2422,924.8
72.2428,2552.8
72.2435,3181.6
72.2444,2453.3
72.2453,1454.8
72.2463,2809
72.247,1852.9
72.2481,634.4
72.2485,647.4
72.2498,933.9
72.2507,1405.2
72.2513,953.1
72.2516,796.8
72.2533,466.1
72.2553,255.8
72.2634,71
72.264,300.2
72.3083,302.8
72.3116,118.1
72.3267,136.9
72.3295,162.1
72.3542,301.6
72.3561,695.3
72.3625,106.3
72.3672,342.7
72.3774,181.2
72.3941,144.7
72.4025,324.3
72.4084,69.4
72.4296,179.6
72.4313,188.1
72.4358,294.4
72.4493,143.2
72.4651,24.4
72.4661,20
72.4737,16.1
72.4916,460.2
72.4948,173.2
72.5075,130.3
72.5111,123.9
72.5119,347.5
72.5177,134
72.5352,262.2
72.5384,408.6
72.5465,323.1
72.5657,194.4
72.5827,450.2
72.5906,96.6
72.6078,231.6
72.6117,94.2
72.6492,275.4
72.6526,256.8
72.6537,657.8
72.6628,19.3
72.744,282.8
72.747,319.5
72.7652,266.4
72.7691,18.8
72.7765,108
72.8461,293.3
72.8501,266.1
72.8705,141.1
72.876,329.1
72.8995,277.6
72.9042,269.9
72.9139,117.1
72.9211,344
72.9303,377.1
72.931,605.3
72.9368,820.7
72.9404,186.9
72.9465,721.9
72.9616,158.6
72.9816,136
72.999,432.2
73.0127,385
73.0149,135.9
73.0285,142.2
73.0335,321.5
73.0536,138
73.0552,104.8
73.0585,547.3
73.0826,427.7
73.0893,168.2
73.1015,299.7
73.1084,120.5
73.1219,17.5
73.1484,203.3
73.1511,257.5
73.1913,412
73.2068,434.8
73.2384,142.6
73.2409,534.3
73.2779,17.4
73.306,268.2
73.316,15.3
73.3189,153.1
73.3256,133.7
73.3528,817.8
73.3568,392.9
73.3862,163.9
73.4183,558.8
73.4219,133.6
73.4341,302.9
73.4404,268.2
73.4587,374.1
73.4615,647
73.4633,64.7
73.5175,383.1
73.5374,18.5
73.5383,440
73.5406,114.7
73.5705,17.2
73.5721,290.9
73.5737,130.8
73.5768,342.6
73.5842,102.2
73.5915,355
73.5968,566.6
73.605,81
73.6097,213
73.6212,389.5
73.6488,179.6
73.6633,508.7
73.6666,75.4
73.68,303
73.6964,324.3
73.6967,325.3
73.7015,434.4
73.7045,394.8
73.7063,25.8
73.7348,16.2
73.7416,521.5
73.7422,249.2
73.7513,135.9
73.764,488.6
73.7837,85.4
73.7892,163.2
73.7923,233
73.8074,715.9
73.852,375.4
73.8745,144.5
73.8864,291.4
73.8894,723.1
73.9025,100.5
73.9062,246.4
73.9226,110.8
73.9309,843.4
73.9451,585.7
73.9507,374.8
73.9964,232.8
73.9989,416.5
74.0223,95.9
74.0358,330
74.0597,759.2
74.0622,632.9
74.0702,274.8
74.0911,152.5
74.0944,913.9
74.1274,270.9
74.1279,211.1
74.1331,442.5
74.1532,125.3
74.1744,255.5
74.18,137.8
74.2366,15.5
74.2609,445.6
74.2689,20.6
74.2863,129.6
74.3205,563.7
74.3327,115
74.3512,246
74.3535,194.9
74.3621,113
74.3667,153.6
74.376,214.7
74.3949,430.2
74.4015,226.3
74.4042,390.4
74.4231,127.6
74.4523,394.3
74.4961,162.3
74.5001,14.9
74.5265,94.5
74.5337,22.2
74.5346,435.8
74.5605,128.8
74.5618,127.4
74.5882,17.6
74.5899,180.2
74.5991,690
74.6073,508.5
74.6129,23.2
74.6269,318.1
74.6337,221.8
74.6425,128.8
74.643,134.8
74.6458,17.9
74.6623,233.4
74.6625,232.9
74.6666,275.7
74.6716,155.7
74.6743,213
74.6916,127.2
74.6974,113.2
74.7091,270.4
74.7168,160.8
74.7461,287.2
74.7677,433.8
74.7715,470.8
74.7747,486.4
74.7924,402.1
74.8282,115.9
74.8497,149.4
74.8761,170.4
74.8787,508.5
74.8995,223.4
74.9115,277.7
74.9134,304.6
74.9297,319.8
74.9304,265.8
74.9412,283.8
74.9441,193.7
74.9559,669.3
74.9981,20.7
75.0122,537.1
75.023,148.8
75.029,231
75.0304,169.4
75.0485,435
75.054,172
75.0706,228.5
75.0738,172.4
75.1298,17.3
75.1465,585
75.1478,16.3
75.18,550.6
75.1865,158
75.2063,123
75.2133,363.9
75.2197,247.8
75.2258,620.4
75.2457,260.2
75.256,428.9
75.2644,306.6
75.2745,164.9
75.2779,659.2
75.2922,615.2
75.3119,82.1
75.341,322.4
75.3627,118
75.3775,491.8
75.3803,23.8
75.3903,216.9
75.3964,103.4
75.3975,389
75.4142,146.4
75.424,435.6
75.4275,18.2
75.4417,407.3
75.4485,380.6
75.4516,282.2
75.4538,18.2
75.4729,1247.1
75.4995,211.1
75.509,104.6
75.5133,71.2
75.5257,185.3
75.5605,345.8
75.5617,305.3
75.5749,316.6
75.5967,147.9
75.6035,99.2
75.6069,144
75.6207,296.8
75.6374,261.7
75.638,448.8
75.6403,96.2
75.6505,664.2
75.6518,361.5
75.6709,143.3
75.6868,424.3
75.6939,228.4
75.7014,16.2
75.7054,162.6
75.7136,15.1
75.7145,695.1
75.7304,615.4
75.7736,96.6
75.8074,230.7
75.8085,19.3
75.8473,138.4
75.8687,108.9
75.8756,97.4
75.8891,345.4
75.9205,368.8
75.9258,184.6
75.9594,666.3
75.9842,136.3
75.9897,152
75.9953,119.3
76.0035,20
76.0155,396
76.0451,143.6
76.047,281.1
76.0563,84.9
76.0617,223.9
76.0726,102.5
76.0862,195.1
76.0997,572.2
76.1059,292.6
76.1612,166.7
76.1691,16.8
76.1785,365.9
76.1988,158.8
76.2188,278
76.2428,126.8
76.2545,286.7
76.2603,19.1
76.281,101.5
76.3038,157
76.3276,100.2
76.3541,145.5
76.3663,344.5
76.3677,355.1
76.3829,256.9
76.4001,142.7
76.4044,397.8
76.4112,276.9
76.4128,121.8
76.4204,19.7
76.4248,98.3
76.4263,753.9
76.4874,19.9
76.5078,337.7
76.5135,337.2
76.5391,524.9
76.5449,455
76.5508,149.2
76.6159,239.8
76.6286,325.7
76.6321,371
76.6939,16.8
76.7105,148.2
76.7224,111.9
76.7264,18.6
76.7294,244.3
76.753,16.8
76.7841,104.2
76.7981,244.1
76.7989,138.7
76.8188,198.2
76.8264,130.7
76.8291,100
76.8317,133.6
76.8329,214.9
76.8881,125.3
76.8957,18.2
76.9261,115.9
76.9424,290.5
76.9529,23.5
76.9584,205.9
76.9687,183.3
76.9875,169.7
77.035,40.7
77.0356,24.7
77.0383,107429.1
77.0404,505.6
77.0875,227.6
77.1115,327.1
77.1534,63.3
77.1835,271.5
77.1848,21.2
77.2069,384
77.2084,637.2
77.2103,557.5
77.2106,557.7
77.2206,288.4
77.2254,220.4
77.2291,17.5
77.2379,101
77.2406,114.9
77.2483,566.1
77.2703,143.3
77.2749,281.8
77.2812,263.8
77.2954,209.8
77.3193,587
77.3797,386.3
77.3934,147.9
77.4193,690.2
77.4209,189.9
77.4602,139.9
77.482,514.3
77.5028,194.9
77.5247,214.4
77.5353,193.1
77.5571,464.1
77.5622,262.2
77.5968,143.2
77.6285,469.1
77.6349,324.6
77.6389,178.5
77.6535,348.1
77.6763,535.6
77.6797,62.8
77.707,82.1
77.7101,228.2
77.7202,545.7
77.7229,672.3
77.7358,175.2
77.7394,383.1
77.7427,169
77.783,393.2
77.8065,168.5
77.8147,96.7
77.8445,604.1
77.8576,365.1
77.8624,853.6
77.8679,325.6
77.8721,63
77.8891,20.4
77.9204,17.3
77.9295,20.4
77.9357,87
77.939,298.5
77.9424,511.9
77.9768,720.9
77.9935,654.1
78.0387,173.2
78.0416,2688.8
78.0461,17.7
78.0723,413.1
78.0757,638.7
78.0954,265.5
78.1,103.1
78.1043,130.4
78.1123,677.3
78.1405,306.1
78.151,131.3
78.158,234.1
78.1837,124.5
78.1908,16.6
78.208,158.3
78.2383,265.1
78.2524,546.7
78.2613,88.2
78.2672,266
78.2769,109.1
78.2809,153.2
78.3089,103
78.3116,361
78.3285,67
78.3316,109.7
78.3504,136
78.3673,293.9
78.3688,129.5
78.3739,130.3
78.3782,134.6
78.3839,116.8
78.4075,17.7
78.417,141.4
78.4762,20.2
78.4824,151.7
78.4869,281.1
78.5036,335.2
78.5288,513.1
78.5335,642.9
78.5528,119.2
78.5758,153.9
78.6052,162.9
78.6092,435.5
78.6121,246.9
78.6227,207.8
78.6666,146.6
78.6769,16.6
78.6906,229.2
78.6934,212.9
78.7245,19.8
78.7476,134.5
78.7534,445
78.7641,418.7
78.7854,401.1
78.8086,300
78.8216,104.8
78.826,191.1
78.831,467.3
78.8349,526.7
78.8538,485.6
78.8547,228.4
78.8971,208.6
78.9586,457.8
78.983,345.8
78.9843,95.2
78.9968,124.5
79.037,643.5
79.0465,607.3
79.0485,353.7
79.054,1504.8
79.0605,115.2
79.0723,370.3
79.0741,197.9
79.0813,19.1
79.0864,105.9
79.1861,162.8
79.1949,489.1
79.2083,153.8
79.2516,181.9
79.2556,657.2
79.2939,19.5
79.2982,146.5
79.3463,401.8
79.3729,479.8
79.3893,145.1
79.3999,292.9
79.4066,87.3
79.4097,21.5
79.4194,199.3
79.4358,500.5
79.4511,159.8
79.4586,514.4
79.4763,663
79.5071,120.9
79.5087,18.2
79.5227,326.7
79.5372,267.9
79.5535,138.2
79.5882,164.3
79.6295,98.6
79.6308,460.5
79.6319,164.9
79.6348,136.9
79.6373,654.1
79.6474,636.1
79.6636,120.4
79.6788,127.1
79.689,544.7
79.6907,404.3
79.6978,240
79.703,319.1
79.7106,145.8
79.7355,108.8
79.7426,770.5
79.745,135
79.7466,176.5
79.7705,256.6
79.7711,298.7
79.7899,84.5
79.8148,276.6
79.8388,625.5
79.8441,578.2
79.8716,408.2
79.9085,17.5
79.9122,16.8
79.9269,130.2
79.9392,128.9
79.969,151.6
79.9799,159.3
79.9833,298.2
79.9913,272
80.0168,500.5
80.018,111.5
80.0471,18
80.0526,191
80.0575,17.5
80.0738,609.1
80.0791,188.8
80.1216,354.1
80.1311,468.1
80.1547,182.2
80.1574,552.7
80.163,368.6
80.1738,670.8
80.1859,120.4
80.1882,121.1
80.1977,292.8
80.229,83.5
80.2538,476.1
80.2975,379.8
80.3189,249.4
80.3457,374.6
80.3488,104.6
80.3601,361.1
80.3674,249.5
80.4078,347.5
80.4096,357.3
80.4119,587.8
80.4295,18.3
80.4446,18.8
80.4508,129.2
80.4848,165.5
80.4952,771.7
80.4996,99.2
80.5284,534
80.549,148.2
80.5528,585.1
80.6038,120.9
80.6097,18.6
80.6244,445.3
80.6483,752.2
80.6509,274
80.6622,362.4
80.6804,356.6
80.7699,632.7
80.8106,633.4
80.8286,225.5
80.9476,56474.4
80.9845,19.1
81.0136,107.4
81.0146,18.1
81.0212,586.7
81.0286,317.8
81.0398,129.3
81.0611,17.1
81.0697,1034.3
81.0819,409.3
81.0867,61.2
81.1071,626.9
81.1381,706.7
81.1408,85.1
81.1427,95
81.1445,89.4
81.1582,99.4
81.1622,364.9
81.174,1497.4
81.1747,1979.7
81.1781,242
81.179,308.7
81.1795,287
81.1821,103.3
81.1867,249.7
81.2046,262
81.2272,98.7
81.231,178.9
81.2404,340.9
81.2548,128.3
81.2617,387
81.267,276.1
81.2912,380
81.3024,17.6
81.34,537.1
81.3531,126.5
81.3828,131.6
81.4384,125.5
81.4459,274.7
81.4467,61.9
81.4512,110.9
81.4621,119.5
81.4678,328.6
81.4835,129.1
81.5682,168.2
81.6006,418.6
81.6286,15.9
81.6343,456
81.6391,175.9
81.6538,538.3
81.6781,236.4
81.6894,443.4
81.6989,17.7
81.735,133.2
81.7595,129.8
81.8155,178.9
81.8298,452.8
81.8344,516.9
81.8472,528.4
81.8548,415.5
81.8792,16.6
81.8825,220.2
81.8836,127
81.8964,337.4
81.9446,61.4
81.948,167.2
82.0145,16.7
82.0658,345.1
82.073,23.6
82.0799,156.8
82.0841,283.4
82.1093,17.4
82.1284,110.8
82.1388,17.9
82.1571,21.4
82.1682,124.9
82.1828,97.6
82.193,110.6
82.1939,212.5
82.1995,573.8
82.2025,92.6
82.2042,321.3
82.2367,135.4
82.25,17.4
82.3276,475.4
82.334,16.4
82.3468,167.4
82.3723,459.4
82.3775,71.6
82.3864,369.9
82.3904,19
82.4341,372.4
82.4358,175.7
82.449,290
82.4566,676.2
82.4804,318.3
82.5082,129.5
82.536,149.3
82.5644,16.6
82.5769,195.9
82.5831,136.8
82.5981,17.4
82.6063,114.7
82.6229,160.6
82.627,134.1
82.6342,114.4
82.6384,440.3
82.6415,533.7
82.6452,174.2
82.6498,241.1
82.6655,134.7
82.6842,144.7
82.6906,175
82.6959,114.8
82.719,275.5
82.753,553
82.7881,683
82.7957,18.2
82.8023,152.4
82.8362,81.6
82.8422,102.5
82.8485,68.4
82.8533,342.5
82.8769,218.4
82.8795,87.3
82.8798,89.1
82.8899,17.2
82.8907,120.9
82.9446,14480
82.9658,143.7
82.9674,294.1
82.9894,297.5
82.9993,247.4
83.0213,643.8
83.046,17.4
83.0789,78
83.085,116.4
83.1012,121.1
83.1064,141.3
83.1263,18.4
83.1362,516.7
83.1528,20
83.1699,16.5
83.1802,354.7
83.2513,133.3
83.2649,351.1
83.2751,18.6
83.277,106.2
83.2849,112.3
83.2897,267.5
83.2981,490.7
83.3263,314.9
83.3441,23.4
83.351,465.9
83.3726,226.3
83.373,314.4
83.3732,290.5
83.3788,22.1
83.4005,513.7
83.4179,597.1
83.4392,338.4
83.4468,107
83.4764,144.2
83.4886,112.7
83.5318,154.2
83.5451,18.8
83.5484,151.9
83.5498,296
83.5549,89
83.5686,145.2
83.589,298.1
83.5903,336.8
83.5932,18.8
83.6129,299.9
83.6138,240.1
83.6611,276.1
83.6777,164.8
83.6877,16.6
83.695,621.9
83.7094,516
83.7135,400.4
83.7475,431.2
83.7615,382.1
83.7839,325.9
83.7855,108.3
83.786,99.4
83.8503,404.5
83.8561,555
83.8705,445.4
83.872,372
83.906,19.4
83.9467,520.1
83.986,747.1
83.9862,809.4
84.034,331.3
84.0379,285.4
84.039,22.2
84.0441,27.5
84.0673,18.5
84.0806,505.9
84.0808,520.6
84.1018,302.1
84.1042,143.6
84.1051,133.9
84.1284,18.1
84.2311,227.4
84.2628,468.7
84.2767,251.9
84.3364,389.7
84.3375,304.7
84.3471,329.7
84.3775,165.3
84.3847,16.8
84.4241,19.5
84.5034,170.6
84.5507,138.8
84.5573,19.3
84.5615,18.5
84.6033,89.4
84.6135,117.2
84.6292,256.4
84.6345,178.1
84.6573,305.4
84.6743,675.2
84.6876,688.2
84.7078,387.4
84.7112,75.6
84.7121,119.3
84.7241,106.3
84.7413,558.4
84.7666,375.4
84.7788,102.2
84.7848,527
84.7867,629.9
84.8294,422.1
84.8375,565.4
84.8547,605.7
84.8573,427.9
84.8646,291.8
84.8726,326.5
84.8997,365.1
84.9132,152
84.9397,128.6
84.9426,74.1
84.9595,18571.1
84.9955,155.6
84.9988,370.7
85.0061,123.8
85.0188,292.8
85.0282,1978.8
85.0337,627.8
85.043,176.4
85.0526,120.4
85.0585,313.9
85.0629,165
85.1142,288.2
85.1165,130.9
85.1231,88.4
85.13,463.5
85.1449,135.7
85.1821,104
85.2143,108.8
85.2169,142.7
85.2481,311.6
85.2495,438.6
85.2605,100.5
85.2705,352.6
85.2757,666.5
85.2791,101
85.2955,79.2
85.3035,656.5
85.3044,602
85.306,231.2
85.3266,21
85.3448,223.3
85.3577,223.7
85.4313,63.5
85.4533,449.6
85.4647,17.3
85.4713,622.1
85.5066,237.4
85.5075,997.6
85.6179,280.8
85.6223,23.1
85.6686,115.9
85.6824,407.8
85.6882,142.9
85.7131,105.6
85.7283,104.9
85.7393,318.6
85.7824,15.6
85.7838,215.7
85.826,93.6
85.8488,578.8
85.8576,298.3
85.8691,201.4
85.9044,395.7
85.9094,571.1
85.9205,293.8
85.9508,469.7
85.971,162.9
85.9877,17.5
86.0295,329.4
86.0346,440.7
86.0362,482.9
86.0598,19083.7
86.0756,319.2
86.0777,80.9
86.0835,386.2
86.0884,419.7
86.0962,101952.9
86.1063,101.3
86.1497,155
86.2024,171.6
86.2305,251.9
86.2329,204.7
86.2466,535
86.2646,856.4
86.2879,294.4
86.3301,267.3
86.3825,542.3
86.4487,295.6
86.4627,532.3
86.4834,17.9
86.4964,471.8
86.5181,122.1
86.5233,265.4
86.5275,136.6
86.5451,137
86.5587,126.2
86.5796,136
86.6149,142.3
86.6233,563.7
86.64,184.4
86.6634,175.6
86.6671,119.8
86.6704,212.5
86.6718,181.1
86.7089,280.8
86.7583,98.4
86.7613,70
86.7671,430.4
86.7777,516.3
86.8276,448
86.8474,483
86.901,17.7
86.9329,330.8
86.9429,121.9
86.9486,439.3
86.9526,78.9
86.9972,109.3
86.9977,108
87.0208,681.3
87.0253,166.8
87.0291,361.3
87.0447,317.1
87.1209,366.6
87.1219,166.5
87.1627,167.2
87.214,15.3
87.265,111.1
87.2741,142.6
87.2981,149.3
87.3002,125
87.3286,174
87.3292,420.1
87.3381,162.7
87.3683,551.2
87.371,157.5
87.3738,475.7
87.3765,349.9
87.4619,544.5
87.4634,18.3
87.5071,394.6
87.5183,20.1
87.5247,78.5
87.5462,19
87.5726,591.2
87.5808,17.8
87.5969,414.4
87.6027,146.6
87.615,189.1
87.64,93.5
87.6531,140.5
87.7052,155.7
87.7277,19.4
87.7571,121.6
87.7576,146.7
87.7858,154.5
87.8063,431.6
87.8246,745.7
87.8568,103.2
87.8669,468.2
87.8747,119.7
87.9009,142.2
87.9065,497
87.9072,308.7
87.919,738.8
87.9338,379.7
87.9402,109.1
87.9552,115.7
87.9571,305.1
87.9766,126.3
87.9871,413.7
88.0151,124.5
88.0178,361.6
88.0263,374.3
88.0312,369.6
88.037,399
88.0391,4287.8
88.0981,158.8
88.1082,117.6
88.1148,732.8
88.1453,561.3
88.1594,135.2
88.1658,360.8
88.1823,136.2
88.2201,155.6
88.2343,263
88.2657,289.5
88.2729,260
88.2937,609.1
88.2972,212.1
88.3044,669.3
88.3146,203.4
88.3235,441.5
88.3387,129.3
88.3524,662.7
88.354,18.4
88.388,250.7
88.4019,420.3
88.479,514.7
88.5181,308.4
88.524,408.4
88.5366,17.3
88.5429,377.6
88.55,473.7
88.5585,17.1
88.5604,448.8
88.5685,321.2
88.5767,171.4
88.5987,289.4
88.6517,298.6
88.6596,452
88.6902,168.7
88.7025,339.9
88.7228,136.9
88.7333,134.6
88.7973,528.5
88.8017,102.8
88.8101,120.1
88.8181,385
88.8312,349.7
88.8738,125.1
88.9444,79.9
88.9522,31.2
88.9532,23.4
88.9713,140.5
88.9795,284.1
88.9877,135.9
89.015,117.7
89.0202,22.9
89.0312,407.9
89.0356,18.8
89.0566,115
89.0803,81.9
89.1126,264.2
89.2174,353.8
89.23,184.6
89.2475,254
89.3114,313.7
89.34,135.7
89.3484,145.2
89.356,512.5
89.3649,259.3
89.378,236.1
89.3836,19.8
89.4275,118
89.5485,105.5
89.5526,18.4
89.5623,213.1
89.589,22.8
89.6121,225.5
89.6148,225.1
89.6581,558.6
89.6645,135.4
89.6966,576.1
89.7197,256.7
89.7251,438.9
89.75,333.3
89.7603,550.4
89.7727,728.7
89.7805,97.2
89.8516,357.4
89.8713,193.5
89.8763,139.8
89.9072,154.9
89.9231,159.7
89.9412,575.4
89.9635,458.7
89.9811,400.9
89.9936,117.1
90.0483,246.5
90.0971,115.9
90.126,60.8
90.1373,373
90.1521,143
90.1822,399.6
90.208,400
90.2461,137.3
90.2663,536.8
90.3089,635.5
90.3523,293.2
90.4212,59
90.4276,291.2
90.4378,525.5
90.4688,605.8
90.4698,382.8
90.4839,739.7
90.4927,321.3
90.5127,575.4
90.5222,418.2
90.5335,123
90.5456,147.1
90.5495,372.5
90.5516,159
90.5961,177.2
90.6068,318.7
90.6314,185.6
90.6433,253.6
90.6597,16.4
90.6695,17.9
90.6811,268.4
90.682,430.8
90.693,275.5
90.6982,171.4
90.7005,19.8
90.7046,113.7
90.7276,146.3
90.7354,441.9
90.759,188.8
90.7691,299.8
90.8017,366
90.8475,16.9
90.8509,124.3
90.8718,127.9
90.9031,116.2
90.9159,151.7
90.942,166.9
90.9475,3738.4
90.9606,181.4
90.967,328.6
90.9764,9356.2
90.9892,257.4
91.0081,123.8
91.0357,18.7
91.054,1899.1
91.0669,567.8
91.071,20.3
91.0771,109.3
91.0949,191.3
91.1269,18.7
91.1665,16.5
91.2094,113.7
91.2105,408.1
91.256,167.1
91.2646,149.5
91.2663,72.9
91.2853,252.1
91.2868,154.9
91.2947,92.7
91.3805,352.2
91.4353,120.2
91.482,352.5
91.5352,169.2
91.5554,112.8
91.5732,141.9
91.5886,221.3
91.6168,471.3
91.6297,127.8
91.6375,221
91.6487,66.6
91.651,305.1
91.6568,107.8
91.6723,134.6
91.6809,470.8
91.6936,17.8
91.7375,118.6
91.7481,115.1
91.7722,19.2
91.8899,372.1
91.927,356.5
91.929,17.6
91.9363,355.7
91.9457,274.3
92.0149,332.3
92.0422,490.7
92.0493,132.8
92.0574,19.8
92.1067,476
92.1098,19.6
92.1222,315.1
92.1244,121.2
92.1718,307.6
92.206,232.6
92.2161,19.9
92.2179,287
92.3145,142.1
92.319,143.3
92.3406,265.4
92.3644,96.4
92.414,323.8
92.4321,21.5
92.4373,190.5
92.4684,134.6
92.4736,19.3
92.478,334.6
92.4845,467.7
92.4972,519
92.5027,19.6
92.508,18.4
92.5161,342.9
92.5381,165.8
92.5392,133.1
92.559,464.7
92.5764,561.2
92.6019,293
92.7078,17.9
92.7719,268.2
92.7763,101.8
92.7889,20
92.7912,20.5
92.8051,18.7
92.8228,153.6
92.8336,223.9
92.8705,284.2
92.8727,214.1
92.9262,129.7
92.9379,448.8
92.9479,16.2
92.983,137.8
93.0038,232
93.0076,133.8
93.0126,341
93.0703,438.1
93.1135,92.6
93.1687,19.6
93.1725,157.5
93.1757,15.4
93.1858,330.3
93.1899,362.6
93.2155,138.4
93.2356,541.5
93.2803,90.4
93.2997,230.7
93.3281,20.4
93.3753,143.6
93.3869,156.5
93.4041,435.3
93.4065,631.2
93.4212,414
93.4561,125.7
93.4807,367.1
93.5426,387.8
93.5784,439.3
93.5802,336.2
93.6803,283
93.6846,253.3
93.7244,22.3
93.7565,576.8
93.7585,67.7
93.7695,285.7
93.7886,162.8
93.7892,176.6
93.7933,177
93.8018,89.7
93.8257,418.8
93.8475,425.3
93.8534,237.5
93.8546,390.6
93.8602,127.7
93.8872,336.5
93.9143,150.9
93.9179,17.7
93.937,114.1
94.0209,276.3
94.0308,133.9
94.0411,54422.6
94.0425,67.7
94.065,39
94.1063,96.2
94.1552,21.3
94.1828,97.7
94.184,237
94.1902,425.8
94.2097,19.1
94.2686,179.8
94.2989,228.4
94.3117,170.2
94.3464,240.2
94.4027,675.9
94.4104,440.4
94.4149,123
94.4194,109.4
94.4304,180.3
94.4612,298.8
94.5138,18.3
94.5266,142.3
94.5289,109.1
94.5367,19.4
94.5756,245.2
94.5852,17.3
94.624,141.3
94.643,164.5
94.646,201
94.6642,142.7
94.7497,141.1
94.7663,308.2
94.7861,370.6
94.7997,610.6
94.802,768.8
94.8131,401.5
94.8179,161.5
94.8493,18.4
94.8509,360.2
94.8896,163.6
94.9129,295.8
94.919,98
94.92,301.2
94.9709,138.1
94.974,238.7
94.9749,130.5
95.0238,135
95.0322,184.3
95.0446,840.2
95.0457,29.5
95.0463,51.8
95.0489,373528.7
95.0503,268.7
95.0624,42.4
95.0661,287.6
95.0854,1250.8
95.0891,65.2
95.098,103.3
95.0995,187.6
95.1514,111.1
95.154,708.8
95.1643,19.6
95.1716,327.2
95.2126,120
95.2232,515.1
95.225,136
95.2425,196.6
95.2441,309.7
95.2524,280.5
95.2636,147.8
95.3264,377.2
95.3684,368.6
95.3935,22.2
95.4069,21.3
95.4251,248.4
95.4307,17.3
95.4582,569.3
95.48,184.5
95.5146,806.7
95.527,115.1
95.5509,381.8
95.5812,16.4
95.6214,368
95.6459,528.5
95.6551,110.4
95.6569,589.2
95.6704,183.4
95.6762,386.1
95.679,567.7
95.682,314.2
95.6911,141.8
95.7009,137.1
95.7394,131.1
95.8132,17.5
95.8143,127.8
95.8167,253.3
95.8256,295
95.8288,188.3
95.8347,544.1
95.893,112.9
95.9076,24.3
95.924,102.1
95.9371,166.3
95.9809,459.9
96.0119,101.4
96.0176,102.2
96.0369,62.9
96.0471,235.5
96.0523,17578.5
96.0557,16.4
96.0589,172.2
96.0593,172.2
96.0598,217.7
96.069,20.4
96.0987,170.3
96.1068,22.7
96.1131,58.9
96.1353,186.8
96.1392,90.6
96.154,242.5
96.1561,420.9
96.1662,341.5
96.1885,279
96.2155,232.9
96.273,174.3
96.2856,17.3
96.3033,127.4
96.3038,208.6
96.3092,688
96.3139,522.6
96.3365,104
96.3424,317.2
96.357,17.3
96.375,358.5
96.3834,557.8
96.4162,466.4
96.4954,180.8
96.5089,117.9
96.5228,18.2
96.5416,651.3
96.5649,110.6
96.656,311.6
96.6593,786.2
96.672,359.3
96.679,245.2
96.6824,500.2
96.6979,22.4
96.704,132.1
96.7147,193.6
96.7227,109.9
96.7411,593.1
96.7803,208
96.7945,409.9
96.8121,405.4
96.8232,326.9
96.8309,296
96.8415,240.3
96.8794,775.7
96.8996,136.4
96.9041,137.4
96.9216,151409.1
96.9312,138.4
96.9374,86.1
96.9518,232.1
96.9829,712.8
96.9976,65.8
97.0075,80.5
97.0105,43.1
97.019,179
97.021,127.6
97.0296,169.1
97.0485,97.9
97.0532,30.2
97.0557,40.8
97.0965,112.9
97.152,184.8
97.1641,460.1
97.1948,316.8
97.2039,253.8
97.2368,21.7
97.238,346.9
97.2404,270.5
97.2462,126.2
97.2622,263.4
97.2664,278.4
97.3578,204.4
97.3822,721.2
97.3834,150.2
97.4229,242.1
97.4265,136.2
97.4868,248
97.5107,177.8
97.5557,373
97.5594,381.8
97.5641,573
97.5773,292.8
97.5854,280.2
97.5966,132.2
97.6424,541.6
97.6822,110
97.6962,231.6
97.6986,287.3
97.7069,20.6
97.7325,19.3
97.7378,20.4
97.7391,129.7
97.741,338.2
97.7422,273.3
97.7739,401.2
97.7754,156.3
97.8135,625.4
97.8405,154.6
97.8798,358.6
97.8868,16.3
97.8911,66.5
97.8945,99.7
97.9389,665.5
97.9407,188
97.953,22.6
97.9636,348.1
97.9984,249.7
98.0006,373.2
98.0382,81.7
98.065,99.5
98.0762,378.1
98.0773,371.4
98.1067,131.7
98.1204,706.7
98.1487,119.8
98.1617,24
98.164,676.8
98.2631,678.4
98.2961,462.5
98.3009,15.9
98.3223,382.5
98.3351,149.7
98.3416,282.7
98.345,763.5
98.3528,221.3
98.3607,212.3
98.3751,666
98.4116,123.9
98.4213,223.3
98.4331,475.8
98.526,135.7
98.5417,319.4
98.5465,461.9
98.5635,152.9
98.5694,293.5
98.5773,429.6
98.6004,652.3
98.6082,229.4
98.6094,24.9
98.6217,460.5
98.704,452.2
98.7468,135.6
98.7757,594.6
98.7893,302.7
98.8303,120.7
98.8448,281.2
98.8687,148.5
98.8869,139.3
98.9186,42471.7
98.9197,4675.7
98.9552,147.1
98.9716,259.1
98.9752,10282.1
98.9839,468.8
98.9858,167.7
99.0265,106.1
99.1257,136.4
99.126,130.2
99.1387,119
99.1694,122.3
99.2268,354.5
99.272,127
99.2931,470.5
99.3052,267
99.3146,683.2
99.3232,300.8
99.3356,912.7
99.3495,142.6
99.3957,161.1
99.5512,632.6
99.5642,148.8
99.5851,23.4
99.6069,93
99.6213,318.5
99.7112,539.9
99.7132,17.6
99.7218,172.4
99.7816,267.4
99.8017,272
99.8181,118.5
99.8659,17
99.8795,267.7
100.1055,713.3
100.112,628
100.1235,107.1
100.1282,296.4
100.1389,154.2
100.2286,152.8
100.2316,277.9
100.2407,326.7
100.2453,124.5
100.2781,632.6
100.2854,294.5
100.3143,90.7
100.3189,270.8
100.3558,344.7
100.3652,283.7
100.3702,69.5
100.409,565.2
100.4408,264.1
100.4466,119.5
100.4643,109.2
100.4659,18.8
100.4688,171.5
100.4708,113
100.4813,276.6
100.4977,133.7
100.5487,19.4
100.5895,392.6
100.617,16.5
100.6176,16.3
100.6555,100.2
100.6984,64.6
100.7127,140.2
100.7415,538.8
100.7919,102.7
100.8185,161.5
100.8239,440.9
100.8335,373.3
100.8846,473
100.9021,169.6
100.907,71.5
100.9167,445
100.9458,369.3
100.9624,155
100.9685,243.5
100.9879,116.7
101.0132,192.8
101.0206,306.5
101.0354,534.4
101.0364,300.7
101.0385,142.9
101.047,623.7
101.1014,126.6
101.1076,434.1
101.1171,17
101.1204,127.6
101.147,420.4
101.1589,105.1
101.186,513
101.1943,219.2
101.2053,193.7
101.218,568.2
101.2455,96.6
101.2727,442.7
101.2742,213
101.327,167.5
101.3596,617.5
101.3701,160.5
101.4042,206
101.4474,227.4
101.4533,581.3
101.4743,18.3
101.5362,18.2
101.5588,97.8
101.5646,197.2
101.6186,298.5
101.6228,17.7
101.6803,188.7
101.6848,554.5
101.7008,661.4
101.7088,114.2
101.7125,374.7
101.715,583.4
101.7165,116.6
101.7274,384.4
101.73,253.8
101.7443,104.3
101.7508,299.7
101.7892,216.3
101.8126,116
101.8181,456.1
101.8387,407.1
101.859,129.3
101.8778,127
101.8816,270.5
101.9176,21.2
101.9636,240
101.9664,223.3
101.9909,22.2
101.9954,180
102.0058,21.2
102.0287,748.9
102.0548,1756.3
102.0721,353.5
102.0863,119.9
102.1101,197.6
102.1602,149.5
102.1922,198.2
102.1973,16.5
102.2039,294.5
102.2622,774
102.2931,22.4
102.2967,434.7
102.3061,392.6
102.3153,118.7
102.3416,138.6
102.3528,456.9
102.454,357
102.4623,111.4
102.4829,278.2
102.4864,678.1
102.5041,62.8
102.5213,147.9
102.5499,138.9
102.5738,84.7
102.5752,153.5
102.5931,147.6
102.6072,121.1
102.6488,117.8
102.6663,95.5
102.7066,138.1
102.766,704.8
102.7841,342.3
102.7851,223.5
102.7876,148.9
102.8381,18.3
102.8743,23.5
102.8755,346.3
102.886,20.9
102.9402,441.8
102.9475,19.8
102.968,141.7
102.9701,390.5
102.9844,152.3
103.0488,282.8
103.0501,424.7
103.068,116.2
103.0986,16.9
103.1065,109.7
103.199,282.3
103.2324,499.3
103.2726,599.2
103.2829,452.2
103.306,143
103.336,20.9
103.3697,362.3
103.4468,141.2
103.4537,499.7
103.4784,252.2
103.4901,135.7
103.4914,318
103.5022,293.7
103.5049,19.4
103.5654,261.9
103.6117,533.1
103.6388,305.9
103.6431,728.9
103.6456,292.5
103.6593,159.5
103.6733,133.1
103.6818,144
103.6864,159.6
103.7081,258.9
103.7288,414.7
103.7628,155.4
103.7978,683.8
103.8229,384.3
103.8257,516.5
103.8653,156.9
103.909,321
103.9142,138.3
103.975,100
103.9792,280.8
103.9842,151.4
103.9855,228.5
104.0171,407.4
104.0551,661
104.1068,469207.7
104.1104,127.9
104.1252,62.5
104.128,321.3
104.1705,498.7
104.1855,18.2
104.1986,133.6
104.2073,200.4
104.2321,17.7
104.2442,406.7
104.2635,460.9
104.2714,672.7
104.332,424.8
104.3828,269.5
104.3891,607.3
104.4902,77.1
104.553,89.3
104.6033,180.5
104.6058,675
104.6099,311.7
104.6162,762.4
104.6499,344.6
104.6641,500.9
104.7504,275.7
104.7904,223.2
104.8155,137.7
104.8185,113.1
104.8243,119.1
104.872,381.5
104.9055,277.5
104.9092,64
104.9242,271.4
104.9297,137.9
104.9479,113.2
104.9632,4665.9
104.9922,2029.3
105.0202,16.6
105.0229,127.6
105.0292,77.3
105.0446,35041.4
105.0697,19.9
105.0963,311.5
105.0973,313.3
105.1102,15808.3
105.1211,159.6
105.1256,135.2
105.1707,356
105.2011,95.5
105.2608,315.7
105.2631,271.9
105.3009,22.1
105.3513,175
105.3765,326.1
105.3772,218.2
105.3954,196
105.4349,596.5
105.4615,117
105.5216,279.8
105.5406,286.7
105.5433,19.9
105.5643,17.5
105.5689,20.4
105.6282,209.2
105.6587,215.8
105.6679,201.4
105.676,144.5
105.6946,214.6
105.706,164.8
105.7242,737.1
105.7323,21.9
105.7488,232
105.7646,103.4
105.7704,252.4
105.8178,296.8
105.9614,203.6
105.9636,19.8
106.0141,19.1
106.048,595.3
106.0644,636.2
106.0759,288.4
106.1057,529.7
106.1234,103.7
106.1538,316.3
106.1777,308.2
106.1887,793
106.2218,86.8
106.2249,17.1
106.2333,120.1
106.2464,146.5
106.3148,104.4
106.319,803.1
106.3231,221.2
106.3266,255.7
106.3496,138.8
106.3586,278.2
106.384,643.3
106.4006,125.3
106.4166,622.2
106.4339,177.7
106.4502,251
106.4695,303.9
106.5044,86.2
106.5848,439.3
106.5982,20.5
106.6154,125.9
106.6453,92.7
106.7013,99.1
106.7401,309.8
106.7781,120.9
106.8025,189.3
106.8124,141.6
106.8277,118.2
106.8302,17.2
106.8565,258.3
106.8984,507
106.9003,206
106.9145,123.3
106.9435,26
106.9504,4406.7
106.9547,398.7
106.9636,96.6
106.9867,325.8
106.9919,19.8
107.0032,110.3
107.019,18.5
107.0282,60.1
107.0442,143.7
107.049,366.4
107.053,570.6
107.0794,336
107.0855,43.9
107.1028,17.3
107.1535,137.8
107.1734,173.4
107.2403,626.8
107.2488,659.1
107.2799,16.9
107.2816,289.6
107.2856,116
107.3082,293.9
107.3177,344.6
107.3202,291.2
107.3337,133.7
107.3347,103.5
107.376,251.4
107.4272,208
107.454,735.7
107.4618,25.7
107.4779,497.1
107.4885,122.5
107.5159,18.1
107.536,335.5
107.5496,131.5
107.6511,205.7
107.6784,109.1
107.7058,245.2
107.7339,282.2
107.7412,120.5
107.759,115.5
107.7849,21.6
107.8108,167.9
107.8193,301.9
107.8864,286.2
107.9004,102.9
107.9267,291.3
107.9329,150.6
107.9401,176.6
107.9522,145.4
107.9574,569.9
107.9839,502.9
107.9996,324.5
108.017,109.2
108.0361,422.6
108.0527,20.1
108.0603,132.9
108.0818,18.1
108.1793,221.2
108.1974,117.6
108.2273,17.8
108.2397,150.3
108.2416,79
108.2592,453.2
108.2911,283.1
108.3176,149.2
108.3391,60.1
108.4027,96.7
108.416,669.6
108.4172,291.9
108.4507,111.6
108.4688,276.4
108.4819,131.6
108.4827,23.4
108.5511,101.7
108.5589,349.2
108.5613,94.1
108.6702,265.6
108.679,165.8
108.6823,137.3
108.6884,115
108.6896,98.1
108.727,330.5
108.7576,385.7
108.7908,112.8
108.806,16.3
108.8317,158.3
108.9041,178.4
108.9582,92.6
108.9592,242.2
108.974,519
108.9924,360.8
109.0105,72.1
109.0187,102.1
109.0579,269.5
109.0647,57157.4
109.082,102.6
109.0927,17.5
109.1011,40.1
109.128,168.5
109.1654,326
109.1895,137.3
109.2754,309.5
109.3066,607.1
109.332,174.1
109.3327,316.1
109.3332,268.6
109.3356,293.3
109.3369,282.9
109.3891,22.1
109.4157,124.4
109.4176,317.3
109.4189,625.3
109.4636,465.1
109.4648,234.6
109.5348,646.5
109.5374,155.4
109.5549,107.2
109.5634,18.5
109.5698,166.2
109.5754,679.1
109.5927,139.9
109.6635,159.5
109.674,269
109.6985,649.8
109.7078,108.3
109.7126,666.5
109.7191,117.3
109.7266,112.8
109.7656,125.2
109.8054,606.5
109.8133,374.1
109.8211,168.8
109.8859,366.2
109.9824,117.5
110.038,737.1
110.0541,577.7
110.068,1292.3
110.0711,2046
110.0728,388.1
110.1591,17.1
110.1603,439.3
110.2002,183.4
110.2067,240.7
110.263,259
110.2862,111.7
110.3199,18.4
110.338,819.7
110.3492,529.9
110.3713,355.3
110.4481,763.1
110.4585,142.5
110.4868,105.1
110.5067,355
110.5368,355.9
110.5565,259.7
110.5583,308
110.5677,277.5
110.6035,110.3
110.6461,68.9
110.7194,774.3
110.7278,297.8
110.7391,164.7
110.7524,579.1
110.7662,97.9
110.7946,131.7
110.8054,18.2
110.8093,138.3
110.8415,17.7
110.8808,70.1
110.9145,214.8
110.9383,796.8
110.9695,155.1
110.9734,17.8
110.9862,401.4
110.9917,258.5
111.0232,203.3
111.0368,128.1
111.0439,235
111.0605,512.2
111.0769,274.2
111.0804,19.8
111.1419,243.6
111.1689,229.7
111.1719,213.3
111.1781,135.1
111.2093,234.6
111.2138,97.5
111.2454,759
111.2479,221.6
111.3414,259.4
111.345,350.1
111.4289,19.5
111.436,154.9
111.5118,573.4
111.5294,111.7
111.5327,119.6
111.5445,437.7
111.5903,256.9
111.6098,720.5
111.614,306.4
111.6491,253.3
111.6609,261.2
111.6661,372.4
111.677,18.6
111.7046,218.7
111.7216,221.3
111.7319,19.3
111.7375,19.1
111.7508,425.8
111.8077,293.3
111.838,134.5
111.847,293
111.8716,19.5
111.8779,184.5
111.884,194.1
111.8886,192.8
111.8939,269.5
111.9178,98.7
111.9304,531.5
111.9486,112
112.0124,495.6
112.0906,93.7
112.0995,30
112.105,93.8
112.1519,88.9
112.1917,114.2
112.2191,20.3
112.222,104.2
112.2281,186.2
112.2393,266.1
112.2837,167.9
112.3095,23.8
112.394,390.4
112.3953,131
112.4301,180.3
112.5174,161.6
112.5282,404
112.5712,408.3
112.5851,578.4
112.5935,298
112.6687,188.5
112.6853,17.5
112.6956,637.6
112.7039,134.9
112.7158,167.8
112.7323,858.4
112.7697,229.3
112.7715,116.6
112.7941,302.4
112.809,216.1
112.8395,175.1
112.8697,317.7
112.8769,17.6
112.8792,67.5
112.8956,420043.6
112.9019,249
112.9134,610
112.9273,98.3
112.9356,427.7
112.9736,20.3
112.984,298.5
112.9868,438.5
112.9945,338.8
113.0091,716.6
113.0191,18.4
113.0638,244.6
113.1072,403.3
113.1099,473.4
113.1228,249.1
113.157,94.7
113.1831,19
113.1875,447
113.2294,176.4
113.2875,441.7
113.2981,21
113.3499,248.7
113.3613,494.8
113.3753,392.1
113.3861,798.5
113.426,16.9
113.4279,273.1
113.4299,297.2
113.4373,124.3
113.4587,20.1
113.4614,93.1
113.4724,329.9
113.4993,440.2
113.5217,256.3
113.538,403.8
113.5587,445.2
113.6136,304.3
113.6179,684.2
113.6192,16.7
113.6254,148.2
113.6565,19.9
113.668,123.8
113.6779,198.4
113.6927,232.9
113.6947,81.8
113.7041,766.1
113.7282,596.1
113.7353,485.4
113.7524,153
113.7548,19.3
113.7562,208.1
113.7651,114.3
113.7761,101.4
113.7916,291.7
113.8005,441
113.8508,259.9
113.8594,297
113.91,644.6
113.9326,89.6
113.9638,20.5
113.9739,196.4
113.9838,20.9
114.0128,316.6
114.036,20.9
114.0548,25310.9
114.0661,1967.1
114.1442,124.6
114.1796,124.9
114.2231,106.2
114.232,459.6
114.2429,91.6
114.2768,120.8
114.3342,71.9
114.3465,100.3
114.3585,395
114.3742,148.4
114.417,130.2
114.4189,465.3
114.426,127
114.434,268.8
114.4372,20
114.503,341.8
114.5302,388.9
114.5323,139.4
114.5433,66
114.5531,128.8
114.5784,143.1
114.5808,137.7
114.5997,375.7
114.6537,270.9
114.6628,423.8
114.6637,265.8
114.762,21.5
114.7951,316.2
114.7977,158
114.8076,313.5
114.8386,102
114.8593,167.1
114.8768,371.7
114.8927,131008.1
114.9156,149.4
114.9222,459.4
114.9481,560.6
114.9873,18.6
114.992,345.3
115.046,119.9
115.049,553.8
115.0542,456.7
115.0561,706.9
115.0677,122.3
115.0696,292
115.0812,107.2
115.1064,92.2
115.1239,827.9
115.1503,423.3
115.1626,18.7
115.1867,125.8
115.2692,447.8
115.313,685
115.3296,18.7
115.3593,380.6
115.37,700.5
115.3757,379.8
115.3783,132.7
115.4366,386.2
115.4729,433.2
115.5046,479.6
115.522,179.5
115.5459,241.7
115.5619,101
115.625,237.5
115.6744,16.3
115.684,104.9
115.6857,209
115.689,285.6
115.7095,383
115.7247,355.7
115.8091,191
115.8386,117.6
115.844,398.8
115.8744,331.2
115.8918,104.6
115.9128,429.2
115.9352,632
115.9482,24.6
115.9642,15.6
115.9792,696.5
116.0225,411.4
116.0705,2173.4
116.0782,23.1
116.0945,384.5
116.1011,18.1
116.1068,432.9
116.1521,99.8
116.1682,22.6
116.2161,444.7
116.2208,105.7
116.26,553.4
116.2999,532.7
116.3355,322.7
116.3464,594.4
116.3996,412.4
116.4123,117.5
116.42,434.8
116.4344,234.5
116.4583,356.1
116.4759,699.3
116.4901,99.3
116.5217,179.4
116.5281,803.3
116.5296,396
116.5388,85.5
116.5538,176.7
116.5887,949.6
116.6341,358.6
116.6429,163.1
116.6558,108.8
116.6637,258.4
116.6684,134.4
116.7143,280.6
116.7351,205.8
116.7463,279.9
116.777,316.7
116.7879,686.7
116.8139,180.5
116.8592,677.3
116.8908,13787.2
116.9271,100.3
116.9427,258.3
116.9497,159.1
116.9564,62.4
116.9632,120.2
116.9691,538.1
116.9771,18.3
116.9837,19.2
116.9858,1987.8
117.0699,33.3
117.1051,178.1
117.1495,128.6
117.1565,422.9
117.1596,122
117.1747,480.7
117.2037,21.1
117.2359,144
117.2792,153
117.3685,747.8
117.3733,108.6
117.3996,130.8
117.4425,268.7
117.4685,690.6
117.472,93.9
117.5174,80.6
117.5812,116
117.6419,188.5
117.7066,36.7
117.729,118.9
117.8113,788.4
117.8586,726.4
117.8737,469.4
117.8846,109
117.9456,24.5
118.0246,475.5
118.0584,17.4
118.0648,199.4
118.0989,157.2
118.127,492.9
118.1536,756
118.1646,429.2
118.1922,438.5
118.2001,246.4
118.2136,292.7
118.2218,250
118.2432,258.5
118.2796,16.7
118.2964,493.8
118.361,270
118.4398,146.3
118.4491,17.4
118.4641,277
118.4793,94.9
118.4999,361.9
118.5223,463.9
118.5437,644.1
118.5502,133.4
118.5636,283
118.5946,114.1
118.6023,246.7
118.6095,601.7
118.6138,330.5
118.6337,308
118.6687,109.8
118.6773,115.7
118.6792,428.5
118.6941,588.4
118.7339,264
118.8004,397.5
118.8153,553.8
118.8317,537
118.844,18.7
118.8498,137.3
118.9162,320.2
118.9425,843.5
118.9789,640.8
119.0078,245.3
119.0189,23.4
119.1,75.8
119.1024,21.6
119.1496,312.3
119.2114,326.9
119.2202,416.8
119.246,214.2
119.2958,128.1
119.324,254.1
119.3468,18.2
119.3499,223.1
119.4188,98.9
119.4241,410.1
119.5283,172
119.5692,334.5
119.5818,173.4
119.5971,15.5
119.6089,355.1
119.6227,18.3
119.6599,108.9
119.6663,270.1
119.7552,574.6
119.8509,184
119.8595,143.3
119.8799,358.4
119.904,857.8
119.9248,106.9
119.926,179.2
119.9302,664.4
119.9534,20
119.9548,461.3
119.9798,272.1
120.0031,3501.1
120.0112,293.5
120.0155,160.4
120.0299,164.8
120.0318,385.2
120.0558,541.9
120.0654,1529.2
120.0807,10011.2
120.1233,230.5
120.1487,294.9
120.1515,138.4
120.1537,104.3
120.1688,345.8
120.2171,307.2
120.248,123
120.2598,110
120.2671,379.8
120.291,328.3
120.3148,116.4
120.3438,116.6
120.4623,154
120.5044,608.3
120.5189,832.9
120.5341,229.9
120.5363,631.8
120.5784,79.9
120.639,328.4
120.6594,113.9
120.6734,209.5
120.7205,295.3
120.729,94.5
120.7651,248.8
120.7859,105.7
120.8145,157.3
120.8808,726.6
120.8829,16.6
120.902,286.8
120.966,581.8
120.9792,42.8
120.9807,52.3
120.9978,27.8
121.0075,192.5
121.022,269.4
121.0283,420.9
121.031,97.8
121.0397,55.7
121.0644,297.2
121.0685,160.5
121.101,25
121.1084,18
121.1114,207.3
121.1363,207.7
121.1965,18.5
121.2158,520.6
121.2323,17.7
121.3007,284.3
121.3033,571.6
121.309,236.7
121.3397,330.7
121.3411,188.1
121.3548,141.9
121.429,113.3
121.4304,266.1
121.4344,506.7
121.4466,326.4
121.4539,483
121.4775,527.3
121.4993,305.8
121.5373,299.5
121.5438,450
121.6373,110.1
121.6861,680.8
121.703,128.1
121.7533,182.9
121.7595,389.7
121.8428,499.3
121.8857,65.2
121.8873,427.7
121.9764,71.8
122.0129,338.7
122.0217,422.8
122.0469,136
122.0514,286.8
122.0556,68.8
122.0631,19.7
122.1057,445.6
122.1139,19.2
122.1273,178.2
122.1292,306.5
122.1572,122.9
122.2969,272.7
122.3003,298.1
122.3366,118.8
122.3649,289.6
122.4477,111
122.5009,92.8
122.5042,97.1
122.5412,151.6
122.5601,128.4
122.5917,329.7
122.622,162.4
122.6752,617.4
122.705,165.8
122.7213,202.1
122.8162,108
122.8327,64.9
122.8379,739.7
122.8638,329.2
122.8678,18.4
122.8834,256.4
122.9244,24481.8
122.9416,18.5
122.9739,185.9
122.9993,76.9
123.0022,440.3
123.0045,435.3
123.0268,17.2
123.0302,360.6
123.0374,18.3
123.0616,22.3
123.0803,28.1
123.0823,297.3
123.1007,494.3
123.1166,54.9
123.1213,17.5
123.1434,434.7
123.21,150.7
123.2289,170.7
123.2394,325.3
123.3022,16.7
123.3066,460.8
123.3131,243.8
123.3214,678.4
123.3889,705.5
123.4241,356.9
123.4417,316.2
123.4762,17.1
123.4831,19.5
123.5096,587.7
123.5209,142.7
123.5728,638.5
123.6269,332.7
123.6836,273.2
123.7188,255.3
123.7816,495.3
123.807,232.9
123.8186,646.4
123.8574,375.6
123.8769,144.4
123.8968,198.2
123.9328,93.8
123.9608,110.3
124.0309,155.4
124.0386,233
124.0514,535.8
124.0544,509.5
124.1075,216.2
124.1114,117.4
124.1148,490.6
124.145,208.4
124.2749,101.8
124.3509,355.4
124.3617,130.3
124.3935,592.8
124.506,345.3
124.5188,502.8
124.5651,130.5
124.5867,149.4
124.6011,302.2
124.612,124.6
124.6248,146.1
124.7108,115.3
124.7295,468.6
124.7334,135.2
124.7856,72.9
124.8274,130.1
124.8355,114.6
124.8463,95
124.857,374.4
124.8689,333.6
124.8714,20.8
124.8969,21
124.9226,1666.7
124.9428,183.9
124.9942,63.6
124.9997,6179.9
125.0054,1467.5
125.0388,125.4
125.056,164.6
125.0597,72.8
125.0642,133.2
125.1104,90.8
125.1449,330.8
125.1593,329.2
125.1616,131.3
125.1725,103.1
125.1866,106.2
125.2532,262.9
125.2973,349.2
125.3517,132.2
125.3575,379.6
125.3658,336.3
125.4233,302.2
125.4777,93
125.5047,281.9
125.5212,130.5
125.5465,140.8
125.5856,350.1
125.6103,104.4
125.6129,108
125.6409,18.5
125.644,250.2
125.6964,176
125.7244,164.1
125.7351,144.8
125.7643,220.4
125.7656,329.7
125.8213,321.2
125.8378,345
125.84,504.7
125.8691,131.9
125.8885,174.1
125.8928,139.9
125.9036,233.3
125.9274,291.9
125.9291,144.7
125.9338,174.3
125.9424,170.8
125.9498,118.2
125.9844,197.4
126,172.4
126.0088,22.4
126.0138,19.9
126.0407,99.8
126.0645,280.5
126.0887,524
126.0901,82.9
126.1365,94
126.1848,332
126.1919,608.5
126.2045,141.4
126.2423,384.9
126.2793,224.2
126.2834,326.1
126.3953,291.7
126.4365,17.1
126.4571,235.1
126.4638,402.5
126.4801,378
126.4942,602.1
126.5313,655.2
126.5898,676.9
126.6047,75.9
126.641,190.8
126.6539,58.8
126.7964,346.1
126.8284,133.5
126.8375,189.1
126.8696,470.9
126.9285,265.3
126.9291,265.2
126.9297,140.4
126.9683,17.2
126.9736,182.8
126.995,495.6
127.0478,293.4
127.0483,255.9
127.0578,257.5
127.063,456.7
127.0762,20.7
127.1739,21.7
127.2092,172.6
127.2379,385.9
127.2523,604.8
127.2823,287.1
127.2891,141.8
127.4345,127.8
127.4951,309.9
127.4983,140.4
127.5091,144.9
127.5662,101.9
127.5794,667.4
127.6079,216.9
127.6815,149.1
127.6979,549.4
127.7183,145.2
127.7203,290.1
127.724,520.3
127.7458,171.2
127.7626,136.8
127.8026,554.5
127.8127,115.7
127.8286,151.1
127.8567,667.8
127.8617,292.8
127.8869,144.1
127.9177,853.2
127.9405,339.2
127.9569,966.7
127.9615,137.8
127.9796,30.5
127.9803,18.1
128.0022,399.2
128.0156,41.3
128.046,18.6
128.1069,26.5
128.117,271.8
128.1931,94.7
128.2311,122.3
128.2522,102.9
128.3083,19
128.3269,265.5
128.356,127.4
128.4035,111.1
128.4056,225.1
128.4657,100.3
128.4915,194
128.496,261.3
128.5196,239.7
128.5255,121.2
128.5322,157.9
128.5765,294.6
128.6123,123.8
128.6712,590.9
128.7982,115.1
128.847,492.1
128.8944,113.2
128.8973,142.3
128.9491,162.9
128.9626,249.8
128.963,267.5
128.9637,235.4
128.9709,144
128.9742,661.5
129.0248,18.9
129.0657,244
129.0868,640.6
129.1051,95.7
129.1533,17.2
129.1542,19.9
129.201,248.8
129.2043,166.1
129.2095,221.1
129.2296,117.5
129.2551,510.9
129.26,19.2
129.3649,121.1
129.3802,359.9
129.4192,139.6
129.5572,668.7
129.5633,456.6
129.5984,117.5
129.6139,173.9
129.6617,19
129.6689,236.9
129.6801,791.4
129.7395,698.7
129.7441,593.1
129.8446,464.9
129.8493,66
129.9012,534.7
129.947,254.3
129.9586,269.4
129.9949,193
130.0158,196.5
130.0498,6871.6
130.07,264.3
130.0724,20.4
130.1299,18.2
130.1449,274.5
130.1787,479.3
130.1888,298.2
130.2197,362.9
130.2285,21.5
130.2353,562.8
130.2786,346.6
130.2911,149.4
130.3315,19.2
130.3441,73.7
130.3497,257.7
130.3659,101
130.4485,334.8
130.4517,95.4
130.4781,227
130.4843,545.1
130.5959,199.4
130.6706,127.7
130.7452,169.7
130.7842,20
130.8339,19.2
130.8456,75.1
130.8978,176.2
130.916,454
130.925,131.1
130.9755,424.6
130.9789,102.8
130.9959,142.7
130.9981,136
131.0001,138.7
131.0419,646.1
131.0472,390.8
131.0491,123.3
131.0683,335.9
131.0888,295.6
131.1108,20.1
131.1657,137.3
131.1925,152.3
131.2355,337.6
131.2467,21.6
131.2768,68
131.2873,85.8
131.2994,280
131.3393,110.6
131.3458,226.2
131.3733,219
131.3914,628.8
131.5241,346.1
131.581,19.4
131.6017,159.1
131.608,187.6
131.6541,383.3
131.6593,545.4
131.6828,603.2
131.7141,536.4
131.8182,612.4
131.822,330.1
131.8587,325.5
131.8615,162.2
131.8643,218.6
131.8967,185.8
131.9019,132.2
131.9188,128.1
131.9411,175
131.9621,366.5
131.9689,263.7
132.0031,33540.1
132.0213,767.2
132.0439,70.8
132.0654,45388.2
132.0767,2851.7
132.0869,211.2
132.1187,514
132.125,216.1
132.1534,172.3
132.1613,21.9
132.2348,157.7
132.3374,177.8
132.3518,129.9
132.3642,73.1
132.3935,18.4
132.4698,677.3
132.551,120.5
132.6275,206
132.692,335.1
132.7341,578
132.7419,301.2
132.7514,331.7
132.754,106.1
132.7604,357.7
132.8478,614.7
132.8514,180.5
132.859,147.4
132.8873,461.1
132.9026,20.7
132.9123,235.2
132.9274,248.3
132.9582,746.5
132.9695,28
132.9871,1780.4
132.9909,156.7
133.0081,102.8
133.0347,19.8
133.0411,264.8
133.0573,168
133.0688,360
133.0878,319.9
133.0938,102.5
133.0971,17147.6
133.1018,156.7
133.1437,197.2
133.1912,122.6
133.2138,505.2
133.2159,407.3
133.2189,784.1
133.2416,199.7
133.2572,446.5
133.3115,281.1
133.333,353.5
133.3382,232.5
133.3916,314.1
133.4011,125.8
133.4479,541.8
133.4762,729.6
133.5837,582.1
133.6453,131.1
133.6587,555.4
133.6811,189.6
133.6896,163.4
133.7091,115.7
133.7184,270.9
133.7393,415.2
133.7536,168
133.759,122.8
133.7978,318.3
133.8166,219.4
133.8483,458.2
133.902,242.1
133.9659,270.5
133.9717,16.5
134.0162,273.4
134.0187,8524.8
134.0329,84
134.0346,714.7
134.0962,19.4
134.1007,524.4
134.115,17.8
134.149,155.9
134.1867,104.4
134.238,622.6
134.2947,375.4
134.397,22.5
134.4202,535.1
134.4456,138
134.4532,722.1
134.4826,443.6
134.4856,153.9
134.4921,123.5
134.5045,729.6
134.5127,162.9
134.5254,140.4
134.544,144.4
134.5728,214.8
134.5897,177.2
134.595,343.1
134.642,21.1
134.6943,105
134.7611,496.6
134.7743,107.1
134.9739,128.5
134.9891,179.2
134.9963,23.8
135.0028,65701.4
135.087,123.5
135.0966,72.7
135.1094,208.5
135.1376,219
135.1712,179.3
135.1767,174.9
135.2889,764
135.3124,18.4
135.3155,73.8
135.363,208.7
135.3745,305.1
135.4523,273
135.507,139.1
135.609,92.3
135.6234,455.9
135.6641,416
135.683,717.3
135.7395,525.3
135.7438,205.5
135.821,72.3
135.8707,139
135.8789,208.6
135.9016,115.7
135.9151,201.4
135.9401,357.3
135.977,2525.1
135.9816,23.3
136.0062,958.3
136.0303,808.4
136.0319,19
136.048,8047.8
136.0534,66
136.0591,16
136.0596,15.7
136.0618,42.8
136.0756,7239.1
136.0822,89
136.0974,159.6
136.1914,424.4
136.2466,128.1
136.2901,314.3
136.3471,358.3
136.385,72.9
136.4257,194.8
136.4385,121
136.4425,120.1
136.4932,20.8
136.5035,382.8
136.505,123.8
136.5434,367.1
136.5573,573.5
136.577,329.9
136.5958,673.4
136.6049,375.5
136.6104,159.8
136.636,158.2
136.6394,101.9
136.6418,239.2
136.654,20.6
136.6908,260.8
136.6988,122.5
136.7042,615.3
136.7364,21
136.7956,274.1
136.8008,164.7
136.8345,185.7
136.8511,109.4
136.8737,191.6
136.8798,21.9
136.8958,361.4
136.9238,185.3
136.9294,354
136.9311,823.5
136.9531,179.1
136.9896,29
137.013,267.9
137.0221,313.4
137.0265,95.4
137.0397,194.6
137.0584,529.4
137.0728,356.5
137.0788,527.3
137.0837,293.6
137.0892,725.7
137.122,127.3
137.1458,286.1
137.2025,158.4
137.2135,152.8
137.2152,75.5
137.2824,418.7
137.2876,475.1
137.2919,355.9
137.3586,537.4
137.3924,326.8
137.4335,739.3
137.4728,319
137.5127,382.9
137.5198,20.2
137.5239,137.9
137.6038,167.5
137.6213,584.2
137.6729,18.4
137.7087,320
137.7177,64.4
137.7591,163
137.7902,129
137.8099,274.5
137.8183,290.9
137.9007,92.3
137.9484,776.7
137.9816,139.5
137.9969,228.1
138.0038,680.9
138.0524,4460.4
138.0662,98.2
138.0778,310.8
138.1133,118.1
138.125,603.6
138.135,117.3
138.1493,308.3
138.1703,308.8
138.175,210.1
138.2155,639.2
138.218,756.6
138.2229,131.2
138.2261,1064.9
138.2272,646.2
138.2507,725.7
138.2558,188.2
138.2823,17.7
138.3007,249.6
138.3313,295
138.3394,236.2
138.3467,87.2
138.4092,105.1
138.4529,149.4
138.4953,347
138.5382,215.4
138.544,219.5
138.5912,290.4
138.6708,295.6
138.7132,443
138.7566,194.1
138.7789,296.8
138.8541,690.3
138.9064,1276.8
138.984,31.5
138.9909,364.1
139.0277,79.4
139.1179,407.1
139.147,260
139.1502,304.2
139.3139,342.9
139.3252,167.7
139.3534,124
139.468,18.4
139.5064,23.4
139.5153,133.5
139.6065,23.1
139.6429,153.7
139.6448,269
139.6487,96.4
139.6517,95.3
139.6713,408.8
139.7989,18.2
139.822,458.9
139.8268,286
139.831,216.4
139.8403,118.7
139.8632,139
139.9538,117.5
139.9657,463.9
139.9748,247.4
140.0164,4508.4
140.053,18.9
140.0644,726.4
140.0682,3711.3
140.0759,186.6
140.2632,158.6
140.3712,279.1
140.3827,330.3
140.4167,180.6
140.5116,166.5
140.5431,119
140.552,19
140.6325,149.3
140.7162,151.1
140.7443,168.6
140.7901,608.7
140.8456,142.5
140.8543,639.3
140.8574,111.4
140.8601,100.5
140.8809,197.7
140.9011,102.7
140.9035,942.6
141.0004,14562.3
141.0105,20.5
141.0198,163
141.0335,133.6
141.1014,70.5
141.1634,150.6
141.1888,238.4
141.2149,698.4
141.3076,143.5
141.3418,531.5
141.3466,88.2
141.3488,105.2
141.4414,752.9
141.5012,246.6
141.582,97.1
141.6018,124.8
141.6485,72.3
141.695,192.1
141.7023,431.1
141.7778,289.8
141.802,128.3
141.8193,133.4
141.8301,25.5
141.9117,315
141.9238,166.3
141.9715,397.8
141.9786,603.9
141.995,243.2
142.0038,387.6
142.0123,66.4
142.0607,16.9
142.2373,20.3
142.314,137.3
142.3528,24.3
142.4296,75.9
142.4371,256.8
142.464,341.2
142.4666,189.5
142.5112,22.7
142.5604,736.5
142.6997,223.7
142.7006,234.4
142.7069,20.5
142.7338,20.3
142.7679,88.3
142.7736,148.4
142.8344,489.9
142.8379,17.5
142.8982,284
142.9385,117.9
142.9478,151.5
142.957,789.4
142.9614,1018.2
142.9849,186.9
142.9937,138.8
142.9962,242.3
143.0062,585.4
143.0188,519.6
143.0602,554.2
143.0813,23.2
143.0903,334.4
143.0964,19.4
143.1,214.8
143.1173,129.3
143.1328,19.7
143.146,106.8
143.1646,138.6
143.1937,295.3
143.2398,336.1
143.2687,21.8
143.32,258.2
143.3508,327.6
143.3795,208.9
143.4838,579.6
143.5134,554.9
143.5282,17.1
143.5459,93
143.5901,101.3
143.656,612.3
143.7592,570.4
143.8252,112.1
143.8759,20.5
143.9636,19.7
143.9909,165.6
143.9993,163.7
144.0106,1109.3
144.1096,651.1
144.2293,132.6
144.2319,126.2
144.2403,145.2
144.2648,551.1
144.3037,186.4
144.3271,613.7
144.345,19.3
144.3605,18.7
144.3955,298.6
144.4759,180.3
144.4784,144.7
144.5935,180.5
144.5986,718.2
144.6041,107.9
144.6255,594.2
144.6352,16.9
144.6383,125.4
144.7,327.1
144.7321,138.7
144.7533,177.4
144.8075,16.8
144.828,125
144.8767,17.9
144.9525,295.6
144.9583,45.9
144.9808,3195.4
144.9949,308.4
145.0401,144.9
145.0471,457.3
145.0741,247.2
145.1358,473.2
145.1754,125.9
145.1873,130.4
145.2565,183.8
145.3233,252.7
145.3376,382.9
145.3662,204.8
145.4121,167.8
145.481,107.4
145.5141,665.6
145.5183,18.4
145.5249,478.7
145.5369,281.1
145.5713,659.4
145.5915,135.5
145.6211,135.5
145.6596,119.5
145.7363,322.5
145.7478,231.9
145.8263,18.7
145.8456,425.3
145.8906,165.2
145.8945,110
145.9013,20.1
145.9135,165.4
145.9179,137.7
145.9444,18.2
146.0027,29.1
146.0035,17.3
146.0095,146.3
146.0126,1932.3
146.0188,22750.1
146.0209,163.6
146.0263,113.8
146.0697,18.1
146.1087,91.6
146.1274,271.3
146.1514,99.2
146.1799,217.5
146.2565,630.1
146.281,268.9
146.2907,19.9
146.3962,260.5
146.4361,168.1
146.5036,436.1
146.5421,121.3
146.6411,140.2
146.6428,644.6
146.6942,19.1
146.8178,463.6
146.8383,377.1
146.8777,275.1
146.9011,251.2
146.9138,136.3
146.9759,491.6
146.9817,103437
147.0221,173.7
147.0285,250.3
147.0424,157.7
147.0621,329.7
147.0764,48372.1
147.0894,566.9
147.1053,192.1
147.1128,37593.6
147.1169,396.3
147.2639,270.5
147.295,18.9
147.3325,19
147.3405,238.3
147.3459,194.9
147.4057,140.3
147.4496,140.7
147.5153,476.8
147.5386,91.8
147.5999,280
147.625,597.7
147.6564,18.9
147.6871,17.5
147.756,19.6
147.7668,17.3
147.8164,99.1
147.8594,123.4
147.8856,336.2
147.8904,20.2
147.8945,555.1
147.9026,340.9
147.9772,656.6
147.9821,26.6
148.0276,364.5
148.1121,26.1
148.1162,417.1
148.119,131.3
148.1425,18.3
148.1465,287.5
148.152,457.2
148.1596,281.8
148.1653,142.6
148.2542,134.1
148.2577,542.2
148.3214,739
148.3591,171.7
148.3938,594.3
148.4149,111.3
148.4588,340.5
148.4617,104.4
148.4984,216.8
148.5047,18.4
148.5321,2665.3
148.5993,438.1
148.6094,115.9
148.6367,144.3
148.6694,270.1
148.6847,285
148.7652,345.8
148.7899,128.3
148.8369,130.4
148.8756,334.7
148.9008,268.4
148.9054,364.9
148.9123,464.4
148.9287,493.8
148.9353,658.7
148.9609,553.4
148.963,896.5
148.9761,156.4
148.9842,115.9
148.9887,188
148.9992,435
149.0116,21
149.0184,2109.1
149.0233,4326.2
149.0449,214.9
149.1332,19.2
149.1724,154.9
149.2113,112.2
149.2417,493.7
149.3733,600.2
149.3753,379
149.3784,17.8
149.5716,129.8
149.582,302
149.5848,65.3
149.611,18.8
149.6414,118.9
149.6786,732.2
149.6946,366.7
149.7476,591.4
149.7641,115.5
149.8165,424.1
149.8455,289.4
149.92,151.6
149.9686,142
149.9873,81.3
149.9927,6193.5
149.9966,140.6
150.0083,168
150.0138,3618.1
150.0267,105.3
150.0446,645.8
150.0946,70.4
150.1322,21.7
150.1596,115.1
150.2272,109.6
150.265,131.6
150.3799,270.6
150.4115,419.3
150.4646,310.5
150.4998,17.2
150.5439,422.9
150.5905,19.1
150.6323,628
150.6803,119.9
150.6901,411.9
150.7291,402.7
150.7309,189.1
150.7592,199.4
150.7733,196.3
150.9145,247.3
150.9691,29.8
150.9767,37908.2
150.9841,7595.8
150.9963,342
151.0477,4788.3
151.0759,668
151.0875,155.7
151.1146,158.8
151.2789,20
151.3948,139.8
151.4008,385.7
151.4188,98.5
151.435,344.6
151.485,119
151.5115,421.5
151.5303,192.8
151.5333,363.8
151.5421,268.5
151.5594,172.4
151.6005,620.4
151.666,149.1
151.6918,20
151.6942,338.3
151.7004,108.3
151.7187,17.8
151.7511,395.9
151.7685,154.6
151.8391,194.4
151.8758,534.7
151.9845,51.2
151.9874,222.1
151.9904,372.4
152.022,13717.9
152.0319,3306.6
152.0505,554.8
152.0979,158.4
152.1038,330.6
152.1899,174.3
152.2616,121.3
152.2791,563.1
152.4476,133.5
152.4716,247.5
152.4763,686.6
152.4909,129
152.5033,114.2
152.5252,771.8
152.579,776.6
152.603,65.7
152.6097,181.8
152.6193,128.1
152.6831,289
152.6954,22.4
152.7246,125.2
152.7815,134.3
152.8074,139.9
152.8263,290.1
152.8895,419.3
152.9156,140.8
152.9302,23.5
152.938,329.4
152.9562,369.3
152.9749,995.4
152.9845,50.1
153.0012,407
153.0181,21.2
153.0262,539.9
153.1685,17.4
153.2565,314.4
153.3303,174.4
153.3371,168.9
153.4202,261.4
153.4469,219.1
153.4504,159.7
153.4827,91.9
153.6356,388.5
153.6864,449.1
153.7258,616.8
153.779,502.4
153.8055,19.5
153.8308,122.9
153.8428,78
153.8633,135.3
153.9785,215.1
153.9924,22.5
154.0109,135.8
154.0265,397.4
154.054,101
154.0586,2785.1
154.1354,19.5
154.1373,115.4
154.2966,229.4
154.318,630.8
154.3574,465.4
154.4057,142.5
154.4259,106
154.4699,273.7
154.4788,139.7
154.6394,17
154.6797,219.1
154.6879,142.9
154.7638,314.9
154.7739,178.6
154.8345,553.5
154.8433,132.8
154.8478,573.6
154.873,278.2
154.8879,426.7
154.9075,84.4
154.9217,399.9
154.9691,760.7
154.9951,756.2
155.0163,361.8
155.0427,1498
155.0494,630.2
155.054,4906.8
155.1002,19.6
155.1383,250.6
155.1528,164.2
155.1661,731.3
155.2134,657.5
155.2222,201.9
155.284,188.4
155.3044,141.8
155.3131,648.6
155.3639,244.6
155.3897,164.1
155.4152,527.7
155.5062,241.7
155.5534,148.3
155.6073,668.7
155.6404,16.9
155.6678,738.9
155.8696,674.2
155.8868,155
155.9813,347.9
156.0095,151
156.0267,141.5
156.0421,4555.5
156.0577,20
156.0767,56854.6
156.1218,101.6
156.1277,700.3
156.2246,141.2
156.2436,372.2
156.2944,17.7
156.4141,70.1
156.4197,107.1
156.4238,664.2
156.429,19.2
156.4554,273.5
156.4572,135.6
156.4944,335.5
156.5004,16.5
156.5064,121.4
156.5309,18.5
156.5499,351
156.5622,247
156.8348,333.9
156.8403,126.7
156.9056,157.9
156.9081,263.6
156.9853,394.4
157.0058,29.2
157.0392,184.8
157.0437,598.1
157.0761,65
157.0802,823.3
157.0972,48.9
157.1678,444.8
157.182,104.4
157.2107,20.2
157.2547,578.7
157.2674,189.4
157.2803,122.1
157.3073,317.9
157.3305,18.5
157.3378,184.7
157.39,327.9
157.4425,190.5
157.4462,109.2
157.5358,135.5
157.546,106.4
157.59,302.3
157.5937,431.5
157.664,108.8
157.6896,300.8
157.6983,459.7
157.8188,368.2
157.8657,172.6
157.899,640.1
157.9241,350.9
158.0271,2677
158.0368,224.9
158.1225,219.5
158.1265,161.9
158.1494,15.9
158.1806,505.4
158.3224,92.6
158.4039,85.9
158.4104,115.8
158.415,232.7
158.4289,221
158.4952,289.4
158.5087,19.5
158.6016,17.3
158.7585,134.6
158.7738,105.6
158.9199,115.1
158.9262,132.9
158.964,15845.2
158.9785,150.7
158.9965,6338.2
159.0305,136.8
159.0801,604.5
159.1236,337.3
159.1446,288.7
159.1623,137.4
159.214,66
159.2316,160.4
159.2824,926.7
159.2914,122.1
159.4638,308
159.4874,578.1
159.5216,284.9
159.5494,162.7
159.5672,417.6
159.5793,574.2
159.5879,133.9
159.6084,196.5
159.6362,106.3
159.6381,449.6
159.6618,369.1
159.7053,346.7
159.7108,149
159.758,441
159.836,21.5
159.8822,70.4
159.9296,108.7
160.0229,54.4
160.0345,12123.1
160.0465,270.5
160.0604,40609.7
160.0827,20
160.1113,102.3
160.118,238.8
160.1541,288.2
160.1797,140.2
160.2501,126.6
160.3207,206.5
160.4004,144.3
160.4037,232.3
160.4538,584.6
160.5011,272.5
160.5836,452.7
160.5987,293.5
160.6426,653.5
160.7012,16.8
160.7829,390.7
160.7929,149.2
160.8508,371.2
160.8559,103.9
160.8603,587.9
160.879,694.3
160.9251,17.3
160.9343,502.7
160.9549,274.2
160.9923,116.4
161.0364,62.8
161.0376,59.5
161.0638,770.8
161.0804,334.5
161.1286,340
161.1325,421.1
161.1348,124.9
161.1481,407.2
161.1508,124.8
161.1953,137.5
161.3135,142.1
161.3189,315
161.3817,109.6
161.3921,129.8
161.4325,161.3
161.5892,151.2
161.6413,19.5
161.66,130.2
161.6722,289.5
161.7139,58.4
161.8233,98.8
161.8652,672.1
161.8764,18.6
161.8916,104.7
161.9566,149.4
162.0426,285.3
162.0501,11857.3
162.075,158.3
162.0791,380.2
162.0853,588.2
162.1126,1590.9
162.172,563.4
162.2254,228.8
162.3433,16.6
162.3454,116.5
162.3819,373.5
162.4354,19
162.4375,331.6
162.48,259.1
162.5164,359.3
162.5243,61.1
162.6166,17.6
162.6463,130.7
162.6522,112.2
162.6686,16
162.7617,125
162.8182,345
162.8776,368.8
162.9559,1825.8
163.0087,393.7
163.0155,3435.3
163.0284,127.6
163.051,106.7
163.0606,130.8
163.0688,166.7
163.1122,20.3
163.2038,19.1
163.2293,497
163.2309,18.3
163.2383,99.2
163.2519,134.9
163.3956,550.9
163.4401,556.5
163.5498,494.5
163.5619,286.4
163.5831,137.2
163.5887,227.8
163.6103,22.8
163.6266,292.8
163.6664,248.8
163.6863,219.5
163.6895,383.4
163.6946,315.9
163.6984,227.9
163.7039,149.7
163.7325,527.5
163.7482,543.4
163.867,169.1
163.8693,290.6
163.9135,122.3
163.9877,161.2
163.9917,18.5
163.9997,21.4
164.0133,17.9
164.0294,9897.6
164.1611,74.9
164.1751,119.8
164.1979,384.2
164.2044,274.5
164.2258,157
164.2985,66
164.3016,132.7
164.3693,277.8
164.3762,176.9
164.3955,521.9
164.4043,257.6
164.4946,131
164.5349,367.2
164.576,274
164.6035,180.8
164.6535,157.5
164.659,415.4
164.6668,367.4
164.6727,357.8
164.6749,184.4
164.692,105.3
164.7243,514.3
164.7302,116.7
164.755,234.8
164.7666,117.5
164.8763,782.1
164.9158,24
164.9206,3056.8
164.93,16578.5
164.9351,398.4
164.9554,186.7
164.9576,122.3
164.9843,63.1
164.9959,31.8
164.9998,530.5
165.0022,19.7
165.0085,660.7
165.0135,302.3
165.0328,19.5
165.063,133.8
165.0913,474.4
165.0965,151.1
165.1142,130.9
165.208,215.8
165.2378,245.5
165.245,140.5
165.3003,18.3
165.3843,272
165.3905,128.6
165.44,160.8
165.4672,559.9
165.5014,590.6
165.5658,296
165.5822,318.7
165.6133,106.1
165.675,474.4
165.7262,587.3
165.7429,374.6
165.803,18.7
165.8104,275.1
165.8151,539
165.8252,637.5
165.8374,240.2
165.8428,407.1
165.8462,107.2
165.8624,143
165.8858,28.8
165.8909,434.7
165.8941,137.7
165.9667,1254.4
165.9789,2027.3
165.9877,3724.5
165.9951,1988.7
166.0972,527.7
166.1016,212.3
166.1359,331.1
166.1634,186.4
166.1899,198
166.2494,97.7
166.275,300.4
166.298,361.5
166.3168,811.5
166.3324,192.9
166.3576,305.3
166.38,20.5
166.3899,241.3
166.4285,408
166.4738,169.8
166.4851,149.9
166.612,68.6
166.6474,175
166.651,325.6
166.6594,273.4
166.6919,169.1
166.717,18
166.7265,168.1
166.7455,724.7
166.7838,290.2
166.815,180.7
166.8205,459.6
166.8328,305.1
166.8523,294.1
166.8775,331.4
166.9507,15535.5
166.9631,501
166.9792,54.7
166.9923,18.9
166.9986,82.8
166.9999,88.6
167.0218,7398
167.0662,124.4
167.1177,186.5
167.153,274.2
167.2004,18.2
167.2733,162.1
167.3101,91.1
167.3202,637.9
167.4021,105.4
167.432,254.9
167.493,566.4
167.5473,661.1
167.5925,115.6
167.6133,482.1
167.6306,124.8
167.7363,66.4
167.8488,530.4
167.8518,303.4
167.8589,16.7
167.9087,375.9
167.935,266.7
167.9718,400.1
167.9798,61.1
167.9944,959.4
168.0057,368.6
168.0143,404
168.1541,284.5
168.2196,123.5
168.2429,470.7
168.277,348.5
168.3159,690.5
168.3166,677.6
168.5307,289.3
168.5448,296.5
168.577,411.4
168.6392,295.4
168.668,322.5
168.683,270.1
168.8208,99.5
168.8301,641.8
168.8456,102.4
168.8792,17.2
168.9251,35.1
168.9376,152.9
168.949,516.9
168.9586,16
169.0103,148.5
169.0584,64369.6
169.0646,562.2
169.0946,735.7
169.153,402.4
169.1708,293.5
169.2233,330
169.2324,634.1
169.2502,172.7
169.2611,227.2
169.2775,253.8
169.2812,577.3
169.2889,193.2
169.3047,363.1
169.475,17.9
169.5742,323.4
169.5826,134.2
169.6324,127.7
169.758,139.2
169.8756,28.6
169.9384,18.4
169.9548,434.3
169.986,1111.6
170.0245,151.3
170.0327,3926.8
170.039,172.7
170.0451,137.3
170.0617,660.4
170.0765,173.6
170.0924,7593.1
170.1104,494.1
170.1607,371.1
170.1667,277.1
170.1997,132.5
170.2066,352.5
170.3008,348.9
170.3095,158.8
170.3117,751.8
170.3143,133
170.3432,366.4
170.3842,111.4
170.4691,183.5
170.6278,437.2
170.6648,733.5
170.6762,657.9
170.7512,298.3
170.8094,22.7
170.8543,2902
170.9141,167.6
170.9208,128.7
170.9216,140.5
170.9348,326.7
170.9742,29.4
171.0034,544
171.0168,342.3
171.028,182.8
171.0571,235
171.1807,197.7
171.2411,730.4
171.269,178
171.3055,423
171.4489,348.7
171.4595,265
171.4729,163.1
171.4987,166.7
171.5654,168.9
171.5993,632.8
171.6015,148.2
171.6616,322.4
171.6863,19.3
171.7079,421.9
171.7547,116.4
171.7781,18.1
171.8489,68
171.8852,103.1
171.9067,150.3
171.9454,135
172.0058,720.6
172.0312,433
172.045,18
172.0509,292.3
172.1551,141.6
172.1897,111.5
172.2081,131.3
172.2382,125.7
172.2517,285.2
172.3106,205.6
172.4854,865
172.4993,312.4
172.5217,168.8
172.6325,86.6
172.6379,138.4
172.6433,19.6
172.6543,18.2
172.6604,129.6
172.7208,657.6
172.8514,2384.1
172.8705,735.9
172.8909,639.7
172.8997,40.5
172.952,258.1
172.9674,150.2
173.0202,612.4
173.0268,243.1
173.0298,1216.2
173.0363,109
173.063,19.9
173.1423,570.7
173.178,17.6
173.216,230.2
173.2482,16.8
173.2594,531.3
173.331,17
173.3452,291.6
173.4396,134.6
173.4656,207.8
173.5206,160.6
173.5587,110
173.6248,117.8
173.7099,285.7
173.7489,428.9
173.7618,134.3
173.7756,489.2
173.8699,88.9
174.0006,45.6
174.0139,126.6
174.0449,150.4
174.1007,281.5
174.1347,179
174.1647,17.3
174.2931,72.7
174.3081,140.9
174.3102,300.3
174.3583,124.2
174.4471,130.8
174.4608,131.5
174.4969,430
174.5167,813
174.5234,294.3
174.5565,555.3
174.5959,124.3
174.6078,617.3
174.6182,19.6
174.6209,258.4
174.6242,497.5
174.6737,18.9
174.6868,254.5
174.732,84.3
174.8541,357.5
174.9002,212.4
174.9061,145.4
174.9381,7492.5
174.9689,737.4
175.0342,3915.7
175.0454,3886.6
175.0579,1473.3
175.0911,342.2
175.119,120392.7
175.1269,136.7
175.1353,387
175.1481,104.4
175.1964,17.5
175.219,426.8
175.3314,274.6
175.3579,471.5
175.3717,517.1
175.3844,224.8
175.4969,556.3
175.5593,314
175.7008,222.6
175.7575,146.4
175.8963,369.9
175.9826,351.8
175.9887,19.5
176.0006,85.5
176.0085,2661.9
176.015,402.5
176.0404,302.1
176.0442,641.2
176.0575,103.3
176.0659,17263.3
176.1033,615.1
176.1224,4191
176.279,277.1
176.3325,128.2
176.3392,17.5
176.3441,126.1
176.4435,161.4
176.4734,162.8
176.4959,19.8
176.6112,280.8
176.651,120.5
176.7162,101.8
176.7504,350.3
176.7629,178.3
176.7747,682.3
176.8057,131.1
176.882,23.8
176.8938,176.6
176.933,26
176.9696,22.4
176.9928,827.5
177.0082,386.3
177.0247,4082.7
177.0324,133.1
177.0374,343.7
177.0408,583.5
177.0611,4524.9
177.1123,113.2
177.1357,527.2
177.2063,438.4
177.3268,158.4
177.3294,96
177.3745,177.1
177.3772,460.4
177.4114,201.9
177.8059,382.7
177.8629,139.6
177.8667,67.9
177.938,445.5
177.9713,265.8
177.9909,33
177.9947,19.9
178.0087,8871.2
178.0118,342.6
178.0164,39.8
178.0241,6611.2
178.029,109.7
178.0588,4819.8
178.1421,588.8
178.1662,214.1
178.2453,133
178.306,130.1
178.3363,140.7
178.4349,423.4
178.4373,148.5
178.5462,148.4
178.5554,174.9
178.5823,826.9
178.6661,139.5
178.6773,776.3
178.764,732.3
178.8547,17.6
178.8772,365
178.8931,63.3
178.9221,169.4
178.9642,129.3
178.9733,17.4
179,28.8
179.0029,120.8
179.0302,698.1
179.0392,15.8
179.0699,677.6
179.0908,319.3
179.1007,282.9
179.1414,168.7
179.1725,20.8
179.1772,677.7
179.1816,139.5
179.2085,200
179.2468,204.2
179.2978,19.1
179.3083,186.6
179.3536,19.1
179.3571,135.7
179.4469,105.7
179.4705,16.5
179.4751,17.5
179.5052,282.2
179.533,329.1
179.5574,201.6
179.563,131
179.6774,283.7
179.6832,660.9
179.7147,302.8
179.7449,221.3
179.8056,300.1
179.8509,154.7
179.8912,49
180.0034,5869.3
180.0077,20.9
180.0108,136.5
180.0242,320.9
180.0336,130.2
180.1174,185.7
180.167,124.3
180.1706,517.8
180.2197,640.1
180.2942,199.8
180.4094,287.3
180.5015,17.1
180.5418,20.6
180.8188,19.2
180.8405,75.2
180.8734,126.3
180.8808,168.7
180.8884,1321
180.8945,2428.9
180.8992,108.5
180.904,7409.4
180.954,181
180.9699,18.2
181.0264,712.8
181.0442,213.9
181.0649,2961.3
181.0942,666.3
181.1175,155.3
181.146,112.3
181.2176,636.5
181.3121,407.7
181.3225,650.8
181.3313,367.2
181.3945,249.6
181.4609,235.3
181.5546,978.3
181.6667,20.3
181.746,348
181.7487,294.7
181.7812,317.2
181.8728,443.8
181.8887,21.1
181.9466,198.5
181.9511,134.6
181.9538,612.6
182.0272,459.8
182.0424,25298.3
182.0657,505.5
182.2235,19
182.2954,169.8
182.3107,132.8
182.343,154
182.4904,465.6
182.5157,522.9
182.5751,186.1
182.5855,430.5
182.5994,494.8
182.6682,280.8
182.7594,755.8
182.7901,128.8
182.8366,237.1
182.8668,161.7
182.8837,23.5
182.886,160.1
182.9024,315.7
182.9277,546.4
182.9329,474.2
183.0446,771.4
183.0845,231.1
183.1005,131.5
183.1041,420.6
183.1426,348.4
183.1526,18.9
183.1954,199.9
183.2166,160.3
183.3856,498.5
183.4728,210.3
183.555,370.8
183.6438,431.4
183.6779,109.9
183.8652,211
183.9365,137.9
183.9595,106.2
183.9648,763.2
184.037,245.3
184.0663,1300.5
184.0681,3148.7
184.0734,4318807.5
184.0773,6019.8
184.0798,1669.9
184.0819,529.2
184.084,199.5
184.1097,1316.4
184.1297,98.8
184.1415,135.2
184.1628,108
184.1732,443.4
184.1821,1250.1
184.258,18
184.2684,170.7
184.287,20.5
184.2982,300
184.3333,505.9
184.3957,398.3
184.4102,18.5
184.4475,201.2
184.4575,420
184.4707,140.8
184.5169,666.7
184.5551,166.9
184.5697,280.1
184.6132,140.8
184.6531,306.8
184.6823,400.7
184.6881,277.7
184.6984,19.3
184.7071,120.9
184.7526,20
184.781,187.4
184.7863,616.1
184.8043,242.3
184.9299,48.5
184.9666,17.2
185.0324,75330.5
185.0372,27.6
185.0702,7326.5
185.0767,199445.9
185.1079,442.9
185.1557,179.8
185.1688,19.5
185.1846,111
185.3704,134.3
185.4216,472.4
185.4654,130.1
185.5537,131.6
185.5654,337.8
185.7639,707.5
185.7731,20.2
185.8039,17.8
185.837,222.9
185.9222,322
185.9598,1356.9
185.9731,699.7
185.9925,18.1
186.0033,111
186.0211,443.8
186.0355,1361.9
186.0617,231.9
186.0776,26373.9
186.2463,102.3
186.2735,131.5
186.4889,215.9
186.5417,307.4
186.5482,464.7
186.5966,18.8
186.6295,378.7
186.7336,182.6
186.782,588.7
186.8489,189.4
186.8787,94.8
186.9094,17.5
186.912,1365.9
186.915,21.8
186.9326,112.5
186.9465,390.6
186.9992,133.9
187.0199,126.6
187.0306,2642
187.0521,144
187.0579,8190.1
187.0687,21.2
187.0715,131.8
187.1024,188.8
187.1078,7878.2
187.1228,387.7
187.4119,111.3
187.4654,264.1
187.4833,567.5
187.512,109.3
187.5182,358.4
187.5789,464.2
187.6614,198.5
187.7144,17.8
187.8522,141.2
187.8552,363.6
187.8862,30.8
187.9729,129.3
188.0129,279.2
188.0264,276
188.0485,110.3
188.2271,313
188.2678,227.7
188.2856,452
188.3151,18.9
188.3881,331.6
188.414,446.3
188.4737,137.5
188.6331,168.7
188.8072,320.9
188.8153,98.1
188.8461,386.4
188.8773,50.8
188.8867,406.5
188.923,140.9
189.0177,278.3
189.0212,55.3
189.0611,4362.5
189.0871,4385.6
189.2169,135.5
189.233,293.2
189.2511,385.1
189.3296,20.6
189.6981,409.7
189.7154,611.7
189.7336,132.6
189.7366,322.5
189.7685,207.5
189.7894,108.9
189.8744,21.4
189.9638,700.9
189.9777,17.4
190.0183,337.8
190.0538,252.4
190.0696,110
190.134,100.7
190.183,21.3
190.2346,278.4
190.2787,139.5
190.2877,162.4
190.3495,519.9
190.4446,604.6
190.4544,134.9
190.5406,306.4
190.6395,101.1
190.6857,195.7
190.7196,490.4
190.7285,231.4
190.7627,18.2
190.7688,17.5
190.8149,18.2
190.8265,203.5
190.8727,712.6
190.8768,751.2
190.912,2077.8
190.9171,310.4
190.9451,505.3
191.0002,172.8
191.0081,3609.1
191.0167,18.9
191.0241,32.4
191.0363,71.6
191.0404,123085.2
191.0768,24009.5
191.1866,332.6
191.2359,266.9
191.2438,478
191.2528,193.2
191.3502,110.8
191.4604,715.8
191.5405,183.8
191.6985,141.9
191.9128,19.4
191.9421,968.4
191.9823,698.6
192.0148,1279.2
192.0257,356.7
192.0312,19
192.0372,500.9
192.0399,9760.7
192.0438,2500.7
192.0605,340.3
192.0633,122
192.1035,23.9
192.2532,662
192.2672,156.6
192.271,483.4
192.2922,20.1
192.3601,390.7
192.3837,642.7
192.405,187.3
192.4093,306.1
192.4489,382.9
192.4623,20.5
192.4716,18.2
192.5889,168.3
192.7471,147.4
192.777,137.5
192.8524,162.5
192.8902,666.7
192.911,92.9
192.9142,436.3
192.9797,524.4
192.9986,2734
193.0023,765.2
193.0159,192.2
193.0353,1670.5
193.0677,461.1
193.1056,272.4
193.2197,128
193.2232,147
193.2783,19
193.2931,639
193.4537,17
193.5526,19.4
193.5583,193.1
193.594,351.2
193.7149,218.6
193.8063,20.5
193.8198,115
193.9412,503.5
193.9509,149.9
193.9981,942.1
194.0103,324.3
194.0328,3454.9
194.1234,156.2
194.1542,53.7
194.239,729.6
194.2901,167.8
194.3145,679.3
194.3396,219
194.3611,220.7
194.5525,126.7
194.5695,211.4
194.6194,239.6
194.7184,203.5
194.7277,21.2
194.7439,318.9
194.7678,124.2
194.7768,133.8
194.7808,19.3
194.7861,158.9
194.9039,250.4
194.957,128.7
194.9735,530.3
195.0113,24.2
195.1196,307.7
195.1617,117.9
195.1662,152
195.17,350.1
195.1762,600.9
195.2979,112.5
195.3145,107.8
195.3288,138.6
195.4929,473
195.5404,634.7
195.5458,115.5
195.5748,91.1
195.585,462.4
195.6105,309.7
195.6315,525.8
195.6693,160.1
195.7174,116.4
195.7272,233.2
195.7311,19.1
195.737,449.8
195.7612,114.5
195.8022,335.2
195.8241,268.2
195.8415,118.9
195.9197,704.7
195.9777,329.4
195.9876,169.5
195.9938,307.6
196.0793,336.4
196.0893,313.9
196.143,18.6
196.1698,540.2
196.1876,131.7
196.2469,104.2
196.2574,326.6
196.313,362.4
196.3477,335.3
196.3814,683
196.4183,20.9
196.4226,714.4
196.5528,629.5
196.621,148.8
196.6814,265.3
196.6998,418.5
196.7087,450.3
196.7169,575
196.8559,675.5
196.8652,5564.2
196.8683,925
196.8718,135.9
196.8781,2154.3
196.9327,313.3
196.9749,163.9
197.01,267.8
197.0214,302.9
197.0396,270.3
197.0439,128.7
197.0576,120.9
197.101,1217.4
197.2107,184.1
197.2207,540.5
197.3421,267.2
197.3522,580.4
197.3965,18.8
197.4561,123.4
197.5305,20.1
197.6067,18.6
197.6167,158.4
197.6178,160.8
197.6602,104.3
197.7218,306.3
197.7409,286.5
197.8752,103.5
197.8908,23.9
197.9435,471.4
198.0563,198.1
198.085,7973.9
198.0918,158.1
198.1041,518
198.1255,19.8
198.1854,5308
198.2929,305.7
198.4637,294.5
198.5521,105.9
198.5902,391.2
198.8083,322.8
198.8545,33.6
198.8622,4978.6
198.8815,631.6
198.9,64.4
198.9487,194.3
198.9933,388.2
199.0045,326
199.0163,268.4
199.0448,168.5
199.0688,295.7
199.0754,497.4
199.0804,33.4
199.1658,405.4
199.1887,238.5
199.314,161
199.3521,185.3
199.5118,248.4
199.5582,382.6
199.6625,358.8
199.6932,139
199.6997,373.4
199.8427,139
199.8656,17.1
199.9673,489.3
199.9851,17.7
199.9907,28454.6
200.032,205.5
200.0407,19703.2
200.2131,20.2
200.2212,384.1
200.2407,216.2
200.3199,12366.9
200.3697,478
200.3843,620.1
200.388,433.6
200.4424,123
200.4703,138.2
200.5828,288.8
200.6147,71.2
200.6413,103.2
200.6448,179.7
200.6988,469
200.7864,135.9
200.8298,398.3
200.8593,1092.3
200.874,95.7
200.8943,3101.3
200.9567,405
200.9622,280
200.9728,25.4
201.0146,131.4
201.0223,440
201.0752,343.3
201.0872,188.5
201.1235,512.5
201.1705,160.1
201.2055,303.5
201.2212,114.5
201.2913,346.5
201.6283,322.7
201.7225,119.2
201.7801,137.2
201.7944,138.8
201.8255,192.8
201.8543,509.6
201.8649,318.9
201.8771,471
201.8945,196.9
201.9069,388.4
201.9957,83.9
202.0164,79.4
202.0193,772.8
202.1708,336.1
202.2123,491.8
202.2647,266.3
202.3056,252.6
202.323,428.7
202.3603,473.2
202.3633,404.2
202.3728,114.6
202.3921,18.3
202.4574,19
202.46,111.8
202.4825,507.9
202.5628,107.5
202.5687,1071
202.577,389.2
202.5917,111.3
202.652,8741.1
202.7115,110.2
202.737,515.4
202.7677,144.4
202.8925,357
202.8952,78.8
202.921,409.9
202.9424,156.2
202.9478,164.2
202.9703,485.5
203.0084,278.9
203.0318,3243.1
203.0527,1132130.5
203.0768,8363.3
203.0835,79.6
203.1025,322.8
203.1863,735.1
203.2268,144.4
203.3189,212.9
203.5543,831
203.5852,325
203.6317,143
203.6764,613.8
203.7417,19.9
203.7932,208.8
203.8054,95.4
203.8095,70
203.8718,157.2
204.0244,40354.4
204.0319,649.9
204.039,592.7
204.0561,56562.8
204.0634,327
204.072,148.2
204.1662,316.7
204.2032,18.8
204.2303,165.3
204.2649,71
204.544,67.9
204.6258,460.8
204.658,370.5
204.7473,699.9
204.7562,255.6
204.8029,19.9
204.8888,771.8
204.901,244.1
204.9257,21.4
204.941,147.2
204.951,187.4
204.9721,141
205.0097,175.9
205.0161,25.7
205.031,23.2
205.0571,8002.7
205.0687,1453.8
205.0838,44.3
205.2885,120.4
205.386,104.4
205.3956,321.6
205.5014,326
205.5335,133.1
205.6805,132
205.7073,379.1
205.7913,139.1
205.8077,339.2
205.8891,27.8
205.9024,134.9
205.9426,24.6
205.959,219.9
206.0089,16.9
206.0477,190.5
206.1397,18.3
206.1455,359.5
206.1858,24.5
206.2193,120.3
206.275,110.4
206.2897,730.1
206.2952,20.7
206.5293,209.9
206.5741,132.8
206.6656,331.2
206.6992,135.7
206.7256,224.7
206.7317,415.7
206.7813,476.8
206.8878,159.2
206.894,17199.8
206.9065,184.1
206.9168,278.5
206.9479,164.2
206.961,169.6
206.9735,201.7
206.9762,187.7
206.9823,1414.6
206.998,206.3
207.0144,80195.4
207.0442,1462.5
207.0508,11717.7
207.0559,374.7
207.0873,293.8
207.1617,119.9
207.3008,114.5
207.3654,79.7
207.442,140.3
207.5807,613.5
207.6942,76.2
207.7175,94
207.8292,421.1
207.8548,19
207.8864,89
207.9141,135.9
207.9308,195.2
207.9907,1193.6
208.0136,1519.3
208.0175,1797.2
208.0211,17.9
208.0431,20.6
208.0793,463.7
208.1613,179.8
208.2952,281.7
208.3095,17.8
208.3735,654.7
208.3767,149.3
208.4943,323.4
208.5931,620.3
208.6739,195.7
208.6814,261.1
208.7933,18.8
208.8247,107.7
208.865,286.3
208.8833,2264.9
208.8911,11843.8
208.9356,760.4
208.97,132.9
209.0124,2523.3
209.0553,377.1
209.1026,247
209.1228,277.2
209.1759,618.5
209.2564,24.1
209.2635,137.4
209.2788,118
209.3732,142.1
209.4765,529.2
209.8836,30.6
209.9631,19.9
210.2963,20.6
210.3603,19.3
210.6628,215.4
210.6943,339
210.7136,540.9
210.727,524.3
210.7617,147.7
210.8836,121.8
210.8881,1821.3
210.9484,102.5
210.9519,22.6
210.9558,15.9
210.9646,293.2
210.9715,182.3
210.9745,243.3
211.0249,96.8
211.0351,481.6
211.069,929.9
211.0861,441.8
211.1355,444.8
211.1677,283
211.3167,8954.8
211.3218,23584.3
211.3265,30449.3
211.3285,29620.4
211.3319,18653.5
211.42,251.4
211.4382,358.1
211.5323,86.3
211.6648,290.4
211.6918,19.3
211.938,18.7
211.9431,359.4
211.9593,54.7
211.9649,388.4
212.0271,475.2
212.0743,66.5
212.0823,66.2
212.23,340.5
212.2439,495.2
212.3502,17.2
212.382,127.6
212.4385,167.4
212.48,133.1
212.4874,325.9
212.4906,169.5
212.5659,18.8
212.5722,365.9
212.5736,313.2
212.6192,670.3
212.7953,366.5
212.8393,3329.3
212.9158,18.9
212.9294,549.3
212.9654,65.9
213.0324,32.6
213.0559,484.9
213.0748,1055.9
213.1007,24.4
213.1353,264.1
213.285,19.7
213.3676,354.6
213.5895,362.2
213.6122,452.2
213.6176,140.2
213.6752,402.1
213.677,210.6
213.6805,418.4
213.779,117.2
213.8587,552.3
213.9622,2762.8
213.9849,170.9
214.0063,1217.1
214.059,11396.8
214.0899,1227.7
214.1043,79.4
214.2126,152.4
214.2302,513.1
214.349,348.1
214.3995,556.4
214.498,236.8
214.5207,24
214.5933,444.2
214.7181,555.8
214.7243,878.6
214.7632,147.1
214.7729,127.9
214.7888,657
214.8131,606.7
214.8362,2109.6
214.8735,577.3
214.91,456.7
214.9179,70.2
214.9653,90.7
215.0393,229.9
215.0476,283.3
215.0933,62
215.1264,85.1
215.1346,149
215.1751,19.3
215.1905,593.9
215.2197,154.6
215.2538,18.8
215.5684,97.4
215.6557,18.9
215.6923,450.6
215.758,411.6
215.8312,548.7
215.8678,168.9
215.8739,331.1
215.8814,23.3
215.9104,51.2
215.9582,55.4
216.0148,10901.9
216.1827,143.9
216.2524,139.1
216.2847,156.6
216.3369,621.2
216.3538,20.3
216.4078,109.6
216.4498,125.3
216.4728,114.9
216.4825,23.4
216.5903,152
216.6248,149
216.6427,376.1
216.7106,550.6
216.7785,354.1
216.7904,132
216.8331,409.6
216.8363,120.4
216.872,23.7
216.8917,346
216.8985,112.3
216.9123,349
216.9228,61493.7
216.9296,774.5
217.0273,172.6
217.0701,181.8
217.0734,598.7
217.104,157.9
217.1352,836.6
217.167,327.3
217.3078,19.1
217.3186,187.1
217.5004,458.3
217.607,230.8
217.6331,120.9
217.6441,162.1
217.67,543
217.8148,166.3
218.0057,98.8
218.0847,137.6
218.1395,596.7
218.2363,368.6
218.2856,149.8
218.3037,653.4
218.4595,271.6
218.6102,188.9
218.6862,19.5
218.696,18.8
218.754,186.2
218.7736,294.4
218.7818,209.5
218.8202,19
218.8678,284.7
218.9046,446.4
218.9199,16839.5
218.9488,501.5
218.9564,138.3
218.969,570.9
218.9828,18.1
219.0082,150.2
219.018,866.7
219.0267,1236421.8
219.0409,247.4
219.071,364
219.083,13635.2
219.0963,575.1
219.1401,626.4
219.2924,67.6
219.3202,176.3
219.4804,548.5
219.6101,178.7
219.6963,148.7
219.7343,280.8
219.7732,355.4
220.015,19.1
220.0301,60817.3
220.0526,165.6
220.0669,5647.1
220.1674,429.4
220.1919,345.2
220.232,387.9
220.2966,377.2
220.3139,294.4
220.3382,324.7
220.3499,269.1
220.419,864.9
220.5536,160.1
220.6778,167.7
220.8706,143.7
220.8838,101.4
220.904,36.3
220.9522,161.7
221.0078,125.8
221.0248,73081.2
221.0309,8286.1
221.0511,1078.6
221.0852,605.9
221.0872,547.8
221.1449,544
221.1713,28.9
221.325,23
221.3993,683.3
221.4115,384.7
221.4216,450.4
221.4322,134.6
221.5798,284.4
221.7479,245.2
221.7622,633.3
221.8179,274.4
221.8919,26
221.9184,206.5
221.9564,137.8
221.9835,846.9
222.0281,1426.3
222.0644,17.3
222.0843,28.3
222.1007,86.5
222.2664,108.4
222.4084,17.8
222.4175,115.2
222.4356,135.8
222.4455,132.4
222.4592,65.9
222.6591,107.4
222.6805,260.9
222.7451,177.6
222.7635,18.1
222.8265,107.2
222.8362,307.7
222.8679,17695.7
222.879,613.3
222.8887,784.6
222.899,557.2
222.9387,139
222.941,16.7
222.9539,1470.7
222.9883,9475.6
222.9992,220
223.0055,19.2
223.0639,92.8
223.1254,492.5
223.2598,164.9
223.3186,229.9
223.3485,921.2
223.3965,721.4
223.5087,140.8
223.5167,187.8
223.5802,369.8
223.6544,281.9
223.6854,521.3
223.6898,262.6
223.7757,137.9
223.9532,41.3
223.9632,200.8
224.0297,826.4
224.0632,580.7
224.0778,127.1
224.0877,184.5
224.1585,327.1
224.2959,213
224.3666,479.6
224.4227,189.6
224.4289,385.7
224.556,19.7
224.6403,177.7
224.6499,65
224.6818,178
224.7172,405.1
224.8045,17.1
224.8199,23.6
224.865,8516.6
224.9024,363
224.9274,103.6
224.9569,30.2
224.9662,19.6
224.9863,699.5
225.013,124.4
225.0429,29
225.0548,20879.9
225.0848,960.8
225.1288,272.5
225.2118,372.1
225.2298,105.5
225.3757,231.5
225.3797,349.6
225.4295,274
225.498,20.8
225.55,230.4
225.5625,145.4
225.5976,535
225.6108,211.5
225.615,187.6
225.6758,168.8
225.9383,26.2
225.9616,370.2
226.002,75.3
226.0064,1328.5
226.0103,291.5
226.0167,637.4
226.0242,8760.8
226.0452,5746.6
226.0842,190.2
226.1605,136.3
226.2904,129.3
226.3059,137.6
226.6101,179.1
226.6871,20.4
226.8398,19.6
226.8496,23.7
226.8617,459.4
226.8935,23.5
226.9516,50162.7
227.0429,297.6
227.0587,209.8
227.0791,1759.4
227.0867,147.3
227.1969,329.7
227.2504,392.4
227.4859,20.4
227.5179,603.6
227.5292,146.5
227.6007,170.4
227.755,112.7
227.8498,18.6
227.8813,25
227.955,1042.4
227.9618,355.8
227.9845,125.7
228.0002,1488.2
228.0272,133.8
228.0563,456.6
228.1991,165.5
228.2129,414.7
228.3361,315.4
228.3957,135.3
228.3988,152.6
228.4144,156.5
228.4719,317.5
228.5652,119.4
228.6007,872.7
228.6135,20.6
228.6717,361.6
228.7634,265.6
228.8129,720.4
228.8272,20.2
228.8893,80.5
228.9242,385.9
228.9338,774.5
228.9603,150.9
228.992,1123.3
229.0449,17.2
229.1301,292.6
229.2101,391.1
229.2357,142.2
229.3838,19.2
229.5621,256
229.5637,316.6
229.5651,330.9
229.6053,133.6
229.6304,135.1
229.6505,447.8
229.7063,202.8
229.8311,166.6
229.9427,183.7
229.9571,11395.4
229.9895,399.9
230.0302,361.6
230.0334,137.5
230.0399,697.3
230.1137,415.3
230.1175,196.7
230.1274,148.4
230.1334,26.4
230.1758,19.4
230.2217,309.9
230.3538,565.7
230.3813,279.5
230.4201,483.5
230.6399,311.1
230.6676,119.5
230.8099,353
230.8417,17.9
230.8516,414.2
230.8858,67.8
230.8902,549.4
230.903,20.2
230.9334,498.9
230.9604,417.2
231.1072,258.9
231.116,295.9
231.365,423.9
231.4892,318.1
231.6453,266.1
231.7648,391.9
231.8619,733.3
231.9127,26.3
231.9529,239.6
231.9576,350.8
231.9729,203
231.9886,266.8
231.9953,130.1
232.0527,285.5
232.1225,278.4
232.239,243.5
232.278,235.1
232.3077,281.2
232.7054,329.3
232.7859,236.1
232.8073,329.8
232.8833,255.5
232.8968,48026
232.9084,357.5
232.9206,47.2
232.9393,850
232.9856,7637.3
233.0406,188.3
233.0509,9128.6
233.0633,151.3
233.1114,299.5
233.1813,70.6
233.2406,181.3
233.278,313.3
233.2805,274.3
233.2963,131.7
233.3274,330.1
233.3962,142.5
233.4001,20.9
233.4281,70.6
233.5171,813.1
233.5664,254.4
233.6082,325
233.6519,382.5
233.7127,191.7
233.7167,224.8
233.7916,137.4
233.9076,311.8
233.9157,337.4
233.9531,99.1
233.9626,152.7
233.9902,407.8
234.0249,131.7
234.0575,20.5
234.1007,158
234.1709,127.1
234.3495,17.4
234.4418,453.5
234.4501,530.2
234.4587,128
234.6655,107.8
234.7626,107.2
234.771,336.8
234.7838,320.3
234.8483,684.3
234.8529,19.1
234.8701,250.9
234.8938,13522.1
234.8999,138.1
234.9147,19.8
234.9816,4791.8
235.057,7103.5
235.0665,1131.9
235.0926,5496.9
235.2292,354.9
235.2705,124.3
235.2768,301.1
235.2973,407.1
235.3105,656.6
235.3461,200.1
235.3833,130.3
235.4272,821.2
235.7077,630
235.7862,107.1
235.7978,108.6
235.8413,518.6
235.8463,19.3
235.8523,466.2
235.981,19.8
235.9945,342.8
236.0217,301
236.0409,2733.7
236.0718,61164.6
236.0778,284.8
236.0887,545.2
236.1415,580.3
236.2179,170.5
236.2452,399.3
236.3487,615
236.3749,261.9
236.3881,308.8
236.4207,146.1
236.4503,155.4
236.5139,475.3
236.5255,179.6
236.6539,141.2
236.6684,109.4
236.8094,95.9
236.8782,394
236.8833,250
236.8885,704.7
236.9071,103
236.9145,49.8
236.9271,215.5
237.0139,157.3
237.0517,460.3
237.0716,59
237.0752,2148.6
237.1476,513.5
237.1676,19.6
237.3516,435.4
237.3733,22.7
237.3763,451.4
237.4698,188
237.4927,477
237.584,18.8
237.7141,284.2
237.9729,19.5
238.0563,265.8
238.0676,824.2
238.0782,59.9
238.1021,18
238.1418,19.4
238.1687,18.7
238.207,571.9
238.2483,105.1
238.2894,138.2
238.303,181.7
238.3576,301.8
238.4746,82.2
238.4764,84.8
238.6096,647.3
238.6682,192.6
238.8001,147.1
238.8364,449.6
238.842,5110.5
238.8531,1122.6
238.8713,116.1
238.9428,44.3
239.003,19.4
239.0091,5715.5
239.0494,328.4
239.061,66.1
239.0644,323.6
239.1274,120.2
239.1462,319.8
239.1505,130.4
239.2694,137
239.2745,366.2
239.3089,435.3
239.3402,451.2
239.3628,110.7
239.4024,22.1
239.4206,676.8
239.4332,413.1
239.5131,559.6
239.7625,793.6
239.8371,137.3
239.8668,770.3
239.8714,746.8
239.8866,105.9
239.9158,282.3
239.9782,44.6
240.0995,287
240.1035,135.3
240.1343,215.2
240.307,929.2
240.3702,127.7
240.3957,112
240.422,18.1
240.5631,746.1
240.7052,137.3
240.714,451.3
240.7938,19.8
240.839,4482.5
240.8433,618.1
240.845,730
240.8463,645.8
240.9288,19
240.9402,678.1
240.9544,1128.5
240.9672,560.6
241.0799,678.8
241.1268,115.8
241.1379,417.3
241.2202,75.1
241.3766,144.2
241.4629,20.7
241.4786,167.2
241.4829,141.7
241.5925,452.6
241.6707,631.6
241.7286,185.4
241.7328,669.2
241.9533,20.3
241.9773,43
241.9788,37.3
241.9982,1241.5
242.0191,2954
242.0626,118.3
242.1716,21.1
242.2804,183.9
242.4253,302.2
242.4572,284.5
242.5358,89.1
242.6126,301.4
242.6653,162.2
242.7233,340.7
242.8021,112.8
242.8133,68.4
242.8388,131.4
242.8779,129.1
242.8847,580.5
242.9092,547.5
242.9256,28758.5
242.9384,105.2
242.9411,21.7
243.0006,17.1
243.007,149.2
243.0531,5418.8
243.0653,4259.1
243.0856,145.5
243.1522,165.5
243.1859,146.4
243.2578,17.3
243.3135,155
243.3627,295.1
243.3846,133.4
243.4399,370.6
243.6513,159.6
243.7365,933.3
243.7643,103.2
243.778,186.3
243.7887,220.5
243.7901,345.8
243.7916,293.3
243.8597,294.2
243.919,325.3
243.9728,4045.7
244.0027,711.5
244.0127,219.3
244.1064,81.1
244.1143,192.5
244.4735,447.8
244.4774,305.6
244.5143,313.6
244.5437,415.3
244.6053,109
244.6272,118.8
244.6528,138.4
244.6973,283.4
244.7002,137.2
244.8023,118.5
244.8266,131.7
244.8415,183.8
244.85,376.2
244.8708,8456.8
244.976,169
244.9833,310.1
245.0209,461.3
245.0249,270.2
245.059,409.2
245.1452,357.8
245.2433,320.8
245.2784,209.4
245.4721,113.5
245.5357,351.1
245.5941,581.7
245.7474,115.5
245.7896,501.1
245.9684,42.3
245.9733,96.8
245.9885,101.4
246.0013,84.2
246.0112,23.2
246.057,521.9
246.0663,373.8
246.1435,70.8
246.2476,135.9
246.4046,173.7
246.4416,147.8
246.5188,556.9
246.6153,216.3
246.6746,188.5
246.6952,159
246.7763,111.9
246.7844,432.6
246.803,285.7
246.8077,81.9
246.8626,721.4
246.8679,1024.4
246.8995,33.8
246.912,20.9
246.9515,3357.9
246.9707,28.9
247.0277,825.3
247.0369,662.1
247.0497,236.9
247.0592,145
247.0669,934.2
247.0874,555.8
247.0927,2779.3
247.2205,602.6
247.2822,151.9
247.2932,134.6
247.4011,17.6
247.4487,170.6
247.4677,674
247.4925,70.6
247.582,349.6
247.7158,356.6
247.9,329.6
247.9233,53.3
247.968,1219.1
247.9832,1519.5
248.0261,414.1
248.0867,18.9
248.1242,7888
248.1477,104.4
248.2207,409.9
248.3272,601.8
248.3495,529.2
248.4012,291.3
248.4089,204.8
248.4456,586.1
248.4765,176.2
248.5114,454.3
248.8078,399.1
248.8252,321.8
248.8417,635.6
248.8707,13411.6
248.9007,165.4
248.9154,117.5
248.9486,123.1
248.9597,5392.2
248.9942,311.2
248.999,393.8
249.0158,509.1
249.0612,15291
249.1013,318.1
249.3634,21.3
249.4091,379.9
249.441,362.9
249.5042,282.1
249.5366,151.5
249.5847,623.7
249.6493,178.4
249.6784,153.4
249.7157,252.2
249.7209,23.1
249.728,20.7
249.7911,292.7
249.8028,113
249.8862,49.5
249.9679,26.2
250.0061,403.5
250.0252,71
250.0384,259.8
250.0961,456.9
250.1387,337.9
250.2059,126.8
250.2754,156.4
250.2976,151.5
250.3127,18.3
250.3733,96.3
250.4569,22.2
250.5027,336.8
250.593,17.8
250.6253,20.2
250.8557,399.6
250.8679,1802.8
250.8737,19.9
250.894,197.4
250.9168,295.1
250.9202,1137.2
250.946,117.2
250.9556,2717.6
251.0011,25.1
251.0092,20.7
251.0145,363.4
251.0309,425.6
251.0334,177
251.0645,19
251.2924,220.5
251.4284,80.2
251.4592,15.8
251.5183,114.9
251.53,492.6
251.547,478.6
251.5644,362
251.6641,316.6
251.69,18.7
251.762,196.1
251.8799,415
251.9804,403.8
252.0376,57.7
252.0457,101784.1
252.1045,281.1
252.1233,258.3
252.192,176.1
252.1931,163.3
252.1953,157.8
252.1976,67
252.3746,332.6
252.4581,416.5
252.5363,218.9
252.655,383.7
252.6882,381
252.7081,154.1
252.7294,159.9
252.8896,356.3
252.9104,79.3
252.9166,130.2
252.9209,402.9
252.9335,202
252.9514,74.7
252.9563,593.7
252.96,766.5
252.9611,719.1
252.975,419.1
253.0007,527.1
253.0131,106.7
253.0247,126.4
253.0492,6191.1
253.2152,308.3
253.2594,137
253.4386,19.1
253.4634,79.3
253.4672,194.1
253.5182,123.7
253.6016,381.9
253.6533,294.8
253.6943,156.4
253.8475,485
253.9291,313.1
253.9494,474.9
253.9822,358
254.0438,2391
254.0969,144.8
254.1205,52.4
254.1849,720.1
254.2827,176
254.3091,532.6
254.3515,379.9
254.4227,124.2
254.6455,611.5
254.6635,19.6
254.6793,163.4
254.7321,315.5
254.7445,19.9
254.7476,415.2
254.7978,276
254.8004,118.3
254.8156,1303.2
254.8189,208.8
254.824,6594.5
254.9737,381.1
254.9863,153.6
255.0223,141
255.033,27612.4
255.0378,470
255.0475,278.4
255.0489,310.9
255.0509,273
255.1927,196.1
255.3088,205.6
255.406,135.5
255.4834,130.4
255.5119,498.6
255.582,142.3
255.6676,71
255.6813,191.4
255.8383,122.6
255.9024,890.1
255.9334,429.5
255.9488,431.2
255.9731,28.1
255.9783,1460.2
256.0033,1636.4
256.0584,55.8
256.1298,752.2
256.4429,114.4
256.4699,149.8
256.6709,371
256.6775,163.2
256.7541,308.5
256.8028,678.3
256.8125,605.9
256.8209,10008.9
256.8333,130.9
256.8507,126.6
257.006,321.2
257.0225,481.5
257.0487,7089.1
257.0658,425.1
257.0746,44675.3
257.0803,157.9
257.1709,400.5
257.2074,200.5
257.3056,89.9
257.4199,212
257.5637,352.6
257.6715,72.4
257.6833,188.3
257.8691,414.7
257.9523,294.4
257.9886,97.6
258.0302,241.8
258.0492,371.6
258.0781,810.8
258.1103,18365
258.2501,460.2
258.3265,823.4
258.3683,318.6
258.375,612.5
258.4348,105.7
258.6217,260.9
258.6931,299.2
258.7546,133.4
258.7679,117.2
258.818,4488.8
258.8632,246.1
258.8685,110.9
258.8995,3844.7
258.9182,804
258.9617,142
259.0276,1325.7
259.1138,135.7
259.155,313.1
259.2359,146.9
259.2389,140.9
259.4371,67.6
259.4631,154.6
259.5342,16.2
259.5494,20.7
259.5651,350
259.5733,282.1
259.5879,120
259.6945,145.8
259.8601,231
259.9652,456.9
259.9726,263
260.018,19.9
260.0531,407.7
260.0838,103.2
260.1059,70.8
260.2122,222.1
260.266,305.8
260.2864,226.8
260.4444,23.2
260.5122,401.4
260.5535,269.3
260.5928,161
260.6644,168.9
260.7343,340.1
260.7751,138.3
260.8145,399.7
260.8445,2133.4
260.8646,19.4
260.8784,18.8
260.8979,820.8
260.9166,454.5
260.9491,6276.3
260.9695,233.6
261.0133,420.9
261.0467,138.9
261.1192,328.4
261.3517,126.2
261.3651,356.8
261.3907,164.6
261.4262,20.5
261.4967,446.1
261.6109,142.3
261.6645,139.8
261.7388,137.4
261.8075,73.5
261.9835,288.8
262.0149,118.9
262.0417,559.1
262.082,1411.9
262.144,178.1
262.3801,333.5
262.3844,494.3
262.4135,529.4
262.4809,721.6
262.5283,143.5
262.5557,249.2
262.7811,303.9
262.8402,55.5
262.8938,19.8
262.9158,20
262.9465,870.9
263.015,151.5
263.0413,143.9
263.0575,20.2
263.0856,1537.6
263.1493,173.2
263.1875,497.5
263.2182,137.3
263.2928,512.8
263.3,129.2
263.3133,501.1
263.4145,22.9
263.4637,540.3
263.4965,264.1
263.5302,19.6
263.6679,348.6
263.8102,29.4
263.8538,133.9
263.8775,202.1
263.9679,308
263.9825,17.8
264.0151,258.5
264.2691,260.8
264.3785,203.1
264.405,393.4
264.4123,369.5
264.5127,174
264.5213,102.8
264.8447,3183.4
264.8527,5580.4
264.8732,242.8
264.8842,141.6
264.9095,109
264.9336,9647.5
264.9884,12171.4
265.0161,68.8
265.0352,9637.5
265.0475,2405.7
265.261,132.4
265.2811,151.9
265.373,122.6
265.4147,649.4
265.5165,131.8
265.542,540.3
265.551,141
265.57,23.8
265.6372,471.6
265.6685,119.7
265.8513,21
265.9271,410.6
265.9578,76.4
265.9784,430.1
265.9934,68.8
266.033,282.7
266.0339,277.3
266.0384,714.4
266.049,561.3
266.1592,166.1
266.3028,20.2
266.3814,102.6
266.4383,524.1
266.6756,577.5
266.8431,295.1
266.8498,5399.7
266.8735,30.3
266.8823,20.9
266.8939,1479.7
266.9028,701.1
266.9171,367.2
266.9323,364.5
266.9447,591.5
266.9592,78.2
267.0002,118.5
267.0046,102.3
267.0483,58.6
267.2681,155
267.31,575.8
267.319,732.9
267.3673,483.7
267.5088,429
267.5279,453.1
267.5823,364.4
267.7214,181.1
267.9,500
267.9739,187.1
267.994,965
268.0092,106
268.0189,333.3
268.0295,824.7
268.1641,20.2
268.3045,397.4
268.3226,283.2
268.3264,285.4
268.3716,427.2
268.3922,325.4
268.5007,379.6
268.6002,73.7
268.6442,320.2
268.847,959.6
268.8647,661.2
268.8707,69.7
268.9498,512.4
268.9973,85.1
269.0121,30.3
269.0163,21.4
269.028,434.2
269.0336,133.8
269.0369,121.8
269.0487,38762.3
269.0656,338.6
269.0747,116.4
269.1512,19.9
269.2062,298.5
269.2173,641.3
269.2428,433.8
269.2514,437.9
269.2632,670.4
269.308,166.4
269.424,583.1
269.4682,152.4
269.669,192.9
269.6884,147.4
269.705,131.8
269.7121,127.3
269.7431,20.9
269.9447,188.7
269.9518,18.5
269.9894,402.9
269.994,1368.2
270.0098,94.5
270.0199,418.3
270.0249,18490.4
270.0475,22736.8
270.1448,621.8
270.1724,257.3
270.3043,314.5
270.3256,160.7
270.5887,18.7
270.6802,439.1
270.695,646.6
270.7733,524.6
270.7979,4178.3
270.8591,157.2
270.9597,30.8
270.978,14121.1
270.9909,173.9
271.0063,154.4
271.0177,28.4
271.0282,1408.1
271.0507,185.9
271.0555,153.7
271.0723,645.2
271.0777,143
271.0903,2282.5
271.2193,215.6
271.2284,526.3
271.2419,137.2
271.4457,113.7
271.4894,217.2
271.5927,158.5
271.6042,182.8
271.6204,20.3
271.6319,183.3
271.7502,323.4
271.7567,222.4
271.9475,292
271.9577,319.6
272.0047,42.8
272.0209,490
272.0317,40.1
272.0809,360.4
272.1917,345.6
272.2169,106.6
272.2501,109.7
272.2574,431.6
272.4191,236.4
272.5697,444.5
272.589,244.3
272.6016,17.7
272.6118,128.6
272.6783,125
272.7127,19.5
272.795,4382
272.8205,142.4
272.8246,67.3
272.9253,110.8
272.9445,691
273.0048,312.9
273.0246,868.5
273.0484,3767
273.2145,107.8
273.3338,169.5
273.4548,553.7
273.5496,99.5
273.6799,211.1
273.7151,558.4
273.7569,310.1
273.8179,570.8
273.8351,360.6
273.863,17.8
273.9281,289.1
273.9525,21.4
273.9625,18018.2
274.0016,137.5
274.0692,97.9
274.0923,555.3
274.2108,694
274.2556,508.8
274.4151,134.5
274.4306,140.3
274.5043,254.3
274.6105,92.3
274.6212,543.4
274.7664,164.8
274.792,1770.2
274.8023,61.1
274.8454,178.5
274.8732,758.7
274.8946,25.2
274.9007,134.5
274.9662,118.7
274.9755,513.8
274.9833,123.9
275.084,125.8
275.1499,148.5
275.1602,525.1
275.1836,185
275.1869,325.9
275.2155,380.1
275.2226,302.8
275.2471,188.2
275.2756,128.4
275.3451,485.1
275.6585,404
275.737,304.7
275.8804,722.8
275.958,115.3
276.0033,84.9
276.0844,21.6
276.0971,399.6
276.1354,150.4
276.21,200.5
276.4928,89.8
276.5037,375.6
276.5166,430.9
276.6257,412.1
276.7909,349.2
276.819,56
276.8266,292.8
276.8366,418.9
276.8736,125.1
276.8784,456.3
276.8934,22.7
276.9107,62.3
276.9232,6427.2
276.9316,154.6
276.9857,361.8
277.0291,236.1
277.0379,272.9
277.0408,300.9
277.0883,482.1
277.2104,21.7
277.2763,535.4
277.3724,146
277.4624,373.1
277.6762,258.6
277.7305,198.4
277.9103,446.9
278.0001,75.3
278.0191,339.1
278.11,809.8
278.1267,252.6
278.2037,423.5
278.2628,268.5
278.4528,539
278.4884,951.6
278.5373,456.3
278.5622,589.1
278.6803,85
278.7177,129
278.7399,413.4
278.7449,115.9
278.7587,696.6
278.776,218.8
278.8455,405.7
278.8887,103.2
278.8933,950.8
278.921,714.5
278.987,954
279.0042,2252.5
279.0226,25.5
279.0566,33164.5
279.1588,389.9
279.1746,132.8
279.4647,159.1
279.4875,132.2
279.5338,230.5
279.5694,19.6
279.779,142.6
279.8159,246
279.8929,340.9
279.9127,605.8
279.92,497.6
279.9272,150.9
279.9371,558.8
279.9459,135.3
279.9989,20.4
280.0121,738.6
280.0601,845.4
280.0927,1279.5
280.115,211.6
280.1871,585.5
280.2029,16
280.2038,15.8
280.237,218.4
280.3879,211
280.4645,358
280.5332,139.8
280.5537,142.6
280.5653,224.6
280.5973,239.7
280.6593,94.4
280.7366,155.9
280.8137,40
280.8266,2217
280.838,359.1
280.8432,124.7
280.8636,311.6
280.9436,247.4
280.9625,1049.3
281.0096,1045.9
281.0168,241.7
281.0182,298.5
281.0206,265.8
281.0513,946.9
281.0616,131.7
281.1527,144.3
281.3539,75.6
281.3677,214.9
281.442,69.4
281.4652,393.3
281.5058,241
281.7329,177.6
281.7859,145.9
281.8779,788
281.9905,155.9
282.0152,76.4
282.0648,289.7
282.2722,149.6
282.3813,327.2
282.5223,20
282.5932,194.8
282.7008,64.8
282.7531,633.7
282.7555,682
282.8237,2513.3
282.8584,126.5
282.8643,256.9
282.9335,141.6
283.0276,509.9
283.0487,402.7
283.0677,23.5
283.1954,346.4
283.2336,579.5
283.2626,22.1
283.3419,18.9
283.4582,119.7
283.5955,736.2
283.9604,594.5
283.9888,96.5
283.9991,378.8
284.0042,61.3
284.0281,320.6
284.0515,26.6
284.0591,160.3
284.0631,72.5
284.3577,430.1
284.3669,384.7
284.4092,19.9
284.483,138.1
284.6744,148.9
284.7275,153.4
284.863,801.1
284.8872,123.4
284.8918,720.9
284.9418,145.3
284.951,112
284.9936,705.6
285.0235,430.8
285.0423,19.9
285.0696,212
285.0952,118.4
285.1243,488.7
285.1727,19.2
285.191,424.3
285.3644,91
285.841,19.2
286.0057,129.7
286.0199,5053.4
286.0653,151.1
286.076,139.7
286.0913,101.3
286.0965,49
286.1997,283.3
286.284,349.2
286.3712,23.4
286.3786,302.7
286.6188,33.7
286.6427,23.5
286.7026,143.2
286.7228,256.9
286.772,2405.9
286.8038,33
286.8302,88.1
286.9521,5791.1
286.9667,115.7
287.0231,705.3
287.0339,118.4
287.0554,24569.9
287.0661,517
287.1002,523
287.2119,400.8
287.2176,364.8
287.2567,68.6
287.2787,127.7
287.4699,149.5
287.5387,390.3
287.8287,572.6
287.8713,281.5
287.9495,104.8
287.9946,142.9
288.0156,32.5
288.0355,146.2
288.0457,106
288.0578,737.7
288.0845,32.6
288.1557,31945.9
288.2438,908.4
288.4225,772.9
288.4718,191.6
288.5152,21.3
288.5997,130.9
288.7095,219.1
288.7273,427.3
288.769,2469.2
288.8016,23.4
288.827,285.9
288.8489,167
288.8681,290.9
288.8872,133.5
288.8917,462.4
288.8984,2628.5
288.9038,2281.2
288.9091,4711.4
288.9174,10858.1
288.924,10523
288.9316,13588.9
288.9413,12426.7
288.9463,16690.8
288.9556,19795.4
288.9628,16808.3
288.9667,18748.8
288.9713,14770.3
288.9762,16665.1
288.9862,15158.1
288.9902,13145.5
289.0001,8130.9
289.0097,5370.4
289.0179,2293.6
289.0216,2022.6
289.0389,19.8
289.0526,302.5
289.0734,292.3
289.0928,131.1
289.1592,2030.8
289.397,23.7
289.4403,137.5
289.4603,310.1
289.5813,387.6
289.6063,713.9
289.7384,122.9
289.8799,19.3
289.9266,138.8
289.9304,661.1
289.9365,2828.7
290.049,441.7
290.1002,23.5
290.1293,379.2
290.3046,291
290.3236,165.4
290.6057,140.4
290.7371,178.5
290.7658,550.1
290.7975,68.2
290.8055,848.3
290.8095,347.4
290.8351,82.4
290.8811,21.5
290.8898,221.4
290.9493,967.4
290.9901,157
291.0266,2746.2
291.2296,125.7
291.2983,71
291.3295,159.3
291.4826,191.3
291.5171,158.5
291.5959,167.4
291.6031,665.9
291.7117,349.9
291.7427,241.5
291.8905,22.4
291.9732,393.2
292.0787,188.1
292.0961,19.1
292.1028,899.8
292.2112,333.6
292.222,189.1
292.2347,132.3
292.2426,601.8
292.2716,438.3
292.279,16.9
292.2847,307.4
292.6811,179.2
292.7381,309.4
292.774,273.6
292.8659,22.7
292.8972,1000.9
292.9181,22.1
292.9406,329.4
292.964,244.8
292.9713,19.3
292.985,260.9
293.0061,140.5
293.0723,3068.7
293.0859,21.3
293.0982,142678.3
293.1185,297
293.1323,180.1
293.1793,1550.3
293.1982,131.5
293.2155,344.5
293.3238,265.8
293.4039,467.5
293.4404,126
293.4463,373.3
293.4566,67.7
293.5008,729.2
293.7432,166
293.7525,560.3
293.7619,137.5
293.7753,18.4
293.8029,302.5
293.9941,381.2
294.1016,10964.9
294.1647,506.7
294.202,207.9
294.3076,143.3
294.3172,146.6
294.3372,375.7
294.3677,18.6
294.3896,385.4
294.4014,434
294.4549,175.8
294.764,154.7
294.8293,29.3
294.8676,577.8
294.884,23.4
294.9363,442.8
294.9649,352.1
294.9907,200
295.0047,295.2
295.0144,756.7
295.0267,433.6
295.0305,882.5
295.1024,420
295.1402,134.5
295.1948,18955.5
295.2087,387
295.3208,567.6
295.3631,550.9
295.6179,271.5
295.6295,142.5
295.6406,340.7
295.8176,23.6
295.8391,18.7
295.8899,73
295.9543,359.2
295.9766,185.1
296.0092,630
296.0451,124.8
296.0657,878.9
296.1045,505.3
296.1859,111.5
296.1981,2384.3
296.2964,545.1
296.311,18.7
296.3183,648.2
296.3364,361.7
296.4851,120.7
296.7012,519.2
296.8004,993.4
296.8116,505.6
296.8232,22.8
296.8453,567
296.8538,74.2
296.9885,20.8
297.1078,40.6
297.1385,226
297.1522,19.7
297.2553,337.7
297.293,566.9
297.4112,24.3
297.4335,16.4
297.4773,945.7
297.5457,302.7
297.7253,155
297.7722,225.7
297.8941,371.8
297.9269,198.5
297.94,22.1
297.9755,724.9
298.005,26.4
298.0128,271.1
298.0253,853.2
298.0424,13727.3
298.0536,484.8
298.1163,140.8
298.1246,106.4
298.1393,603.1
298.1818,19.8
298.209,126.5
298.2696,128.2
298.2946,304.1
298.308,154.9
298.4627,17.8
298.4904,644.6
298.6839,123.2
298.7933,760.9
298.7985,483.6
298.8188,189.3
298.8976,92.6
298.9258,20.5
298.9862,46.9
299.0018,743.1
299.0225,644.5
299.0389,22.1
299.0458,396.6
299.0624,72.9
299.0676,366.2
299.1394,7897.1
299.2511,377
299.7531,125
299.7773,146.3
299.789,272.4
299.8211,76.3
299.8545,173.8
299.8973,19.9
299.9601,411.3
299.9792,132.1
300.0058,400.4
300.0353,1158.6
300.0706,698.8
300.0755,287.1
300.1269,559.3
300.143,365.1
300.1965,52.8
300.2449,168
300.3806,722.2
300.5088,597.1
300.568,68.8
300.7137,326.1
300.7207,22.8
300.7896,226.9
300.8193,89.3
300.8408,524.6
300.8576,223.6
300.8602,297.3
300.8687,164.1
300.9395,681.2
300.9515,111.5
300.9721,678.3
301.0049,19.9
301.0126,30.7
301.0385,22063.4
301.1419,776.1
301.1556,403.3
301.2117,735.2
301.2476,110
301.2521,105.6
301.3085,388.3
301.4174,122.2
301.437,536.5
301.4537,423.3
301.4769,163.1
301.5084,302.4
301.5212,105.8
301.5506,24
301.6435,400.6
301.6623,524.3
301.6913,231.3
301.8265,49.2
301.8503,762
301.8762,291.9
301.8875,376.4
301.9939,9332.5
302.0121,626.4
302.02,971.6
302.0353,21.8
302.0514,234.5
302.064,3196.3
302.0811,20.5
302.3216,446.5
302.3661,707.5
302.3818,195.2
302.4757,499.7
302.6127,316.2
302.7049,760
302.7388,17.1
302.7487,830.1
302.76,148.7
302.7714,390.1
302.7814,302.7
302.8292,3795.8
302.8699,284
302.8975,342.9
302.9164,22.2
302.9475,161.3
302.9642,223.7
302.9972,139.9
303.0277,131.5
303.0675,258.3
303.0745,2250.7
303.105,383.3
303.1707,119.5
303.2017,170.2
303.2169,1907.9
303.2866,187
303.3455,73.3
303.4243,898.4
303.4528,164.6
303.5475,22.6
303.5979,118.2
303.7109,141.1
303.8188,190.1
303.8629,274.5
303.8677,20.4
303.986,328.5
303.9948,423.9
304.0333,18
304.0598,52.2
304.1571,154.3
304.3952,24.3
304.6273,109
304.6494,703.5
304.728,305.7
304.7429,313.7
304.7771,187.2
304.7852,619
304.814,133.3
304.8268,1807.9
304.876,599.2
304.8956,620.6
304.906,35.6
305.0019,134
305.0125,337.1
305.2213,64.3
305.3767,311.6
305.4262,116.5
305.4467,115.3
305.4682,467.1
305.5618,140.9
305.6652,297.7
305.8572,274
305.9108,180.5
305.92,524.3
305.9855,17.5
306.2916,440.7
306.3578,413.9
306.539,191.5
306.6004,175.3
306.6281,122.3
306.6933,268.9
306.8125,18.5
306.8417,29
306.8845,398.6
306.895,100.5
306.9069,680.8
306.9413,655.7
306.958,620.3
306.9772,3924.1
306.9943,483.1
307.0581,760
307.2003,134.8
307.2907,452.9
307.576,359.7
307.6056,321.4
307.6239,656.4
307.6685,322.3
307.7089,233.6
307.7235,191.7
307.8439,276
307.8914,19.1
308.1965,606.6
308.373,399.8
308.546,178.9
308.8083,348.3
308.8792,2019
308.9425,447.9
308.9559,354
309.0065,154.9
309.0378,1900.9
309.0669,415.6
309.0826,4179.9
309.1005,135.8
309.1207,133
309.1515,72
309.1668,259.7
309.2673,389.9
309.5213,161.4
309.5565,269.3
309.6237,544.3
309.749,152.5
310.2113,475.8
310.2977,854.8
310.3634,406.1
310.4231,322
310.6243,548.4
310.6316,253.2
310.7508,144.3
310.7695,180
310.8038,100.5
310.8372,230.2
310.8655,626.1
310.8764,1429
310.9692,597.7
310.9979,232.9
311.0282,106.3
311.1673,600.4
311.22,148.3
311.4562,275.7
311.4629,804.9
311.5069,114.4
311.5339,123.9
311.6658,312.9
311.6757,321.6
311.8523,123.7
311.9994,131.2
312.0195,241.1
312.0299,119.4
312.0408,1283.5
312.1523,555.5
312.1702,23.8
312.288,187.8
312.3136,19.8
312.6063,114.1
312.6964,689.3
312.8204,20
312.8253,128.3
312.8582,1458.3
313.0181,222.2
313.1448,660.4
313.1813,109.3
313.223,333
313.2741,35551.2
313.5898,258.5
313.6735,350.1
313.6868,184.4
313.6935,139.4
313.7158,121.4
313.826,18.7
313.938,787.9
314.0149,5458.5
314.0915,50.7
314.1913,233.5
314.2774,4212
314.3682,402.4
314.4348,118.3
314.4768,189.1
314.5767,258.8
314.6759,106.9
314.6974,641.9
314.7761,289.7
314.798,310.3
314.8371,4582.1
314.8774,145.7
314.8994,197.5
314.9991,4220.3
315.0184,462.1
315.0525,3238.9
315.0552,6647.8
315.0662,9620.2
315.0699,15579
315.0802,6375539.5
315.0878,17707.5
315.0917,6153.2
315.0939,4041.2
315.0963,3949
315.0981,3240.2
315.1003,3071.6
315.1045,1652.3
315.1132,292.7
315.1612,4524.3
315.3236,5638.4
315.3416,831.8
315.4435,472
315.4494,130
315.4861,290.1
315.5027,124.3
315.5513,119.5
315.6255,158
315.8055,27.4
315.9446,25.5
316.0106,120.3
316.0533,44.5
316.0773,34328
316.0835,646769.5
316.1036,230.3
316.1122,1225.3
316.2141,116.5
316.261,851.4
316.285,253.2
316.385,94.6
316.4432,109.1
316.7533,19.4
316.7974,173.1
316.865,282.6
316.8778,21.1
316.9659,161.8
316.9869,2143
317.0557,325.8
317.0645,463.9
317.084,75197.2
317.1115,540.8
317.145,169.3
317.5794,292.3
317.7697,218.7
317.7836,651
317.822,125.4
317.8497,108.2
317.8651,261.6
317.9569,19.5
318.0875,6088.4
318.1358,496.2
318.2136,590.3
318.2463,18.5
318.2772,413.9
318.5198,268.2
318.6057,20.1
318.7399,471.6
318.7926,1056
318.8035,3175.4
318.8682,22.7
318.9075,298.7
318.9217,22.7
318.9558,471.9
318.996,180.2
319.1614,357.6
319.1948,43207.5
319.237,376.6
319.2781,280.1
319.3889,162.8
319.3999,498.5
319.5617,297
319.6134,187
319.6373,126.9
319.653,680.9
319.7101,18.9
319.9036,670.9
319.9822,336.8
320.0747,79.1
320.198,4116.4
320.2175,558.1
320.2587,3588.5
320.4323,17.9
320.5061,17.8
320.7925,27.6
320.8,474.7
320.8311,108.4
320.8434,21.8
320.9931,351.6
321.2105,37422.8
321.2624,136.4
321.2997,358.1
321.4498,408.2
321.6904,244
321.7584,102.6
321.8167,78.4
321.9968,24.8
322.0095,77.5
322.0174,260.2
322.0322,255.7
322.0698,282.7
322.0986,17.1
322.1393,20.4
322.2073,245.6
322.2138,3590.2
322.6303,599.4
322.7409,389.4
322.7731,73.2
322.7793,712.2
322.7869,20.2
322.8114,1032
322.8871,839
322.931,399.4
322.994,128
323.0205,11609.7
323.0861,106.3
323.1057,344.1
323.2259,3152.1
323.2803,300.7
323.3188,121.8
323.3309,449
323.4123,368.6
323.4566,115.4
323.6769,19.4
323.8953,181.3
324.0018,8332.4
324.0621,19.6
324.1254,302.3
324.5264,330.8
324.6801,366.7
324.6972,5892.4
324.7085,1654.2
324.7138,1732.7
324.7188,1215.6
324.7329,152
324.8078,807.5
324.8533,1028.3
324.9169,613.4
324.9203,553.1
324.9286,491.8
324.9506,575.7
324.9807,404.7
325.0059,139.9
325.0291,736.7
325.0566,1711.8
325.1576,203.7
325.2117,3501.5
325.2307,269.5
325.3576,149.8
325.4368,137.6
325.4711,19.1
325.9717,18.6
325.9919,435.7
326.001,297.3
326.0588,375.1
326.1454,238.8
326.2305,363.5
326.3921,724
326.4892,347.8
326.5212,183.3
326.6413,416
326.7658,241.8
326.8053,672
326.8501,626.8
326.8905,124.8
326.9818,669.8
326.989,173.5
327.0078,104
327.0156,5519.6
327.0518,3065.1
327.0649,172.3
327.2273,9207.4
327.7068,570.9
327.7246,259.3
327.7831,19.6
327.8031,98.9
327.8865,305.2
328.0151,1070.5
328.0304,56
328.0424,30.2
328.2528,323.6
328.3344,21
328.5018,637.4
328.5108,196.9
328.5169,149.1
328.5275,349.2
328.5474,790.3
328.594,115.2
328.621,191
328.6956,240.6
328.8142,180.3
329.0955,1627.4
329.1097,397.5
329.4241,171.7
329.5197,268.8
329.7027,561.6
329.7337,503.4
329.7842,18.2
329.8215,27.9
329.8322,156.3
329.8475,438
329.8623,17.1
329.9904,241.3
330.0482,20.2
330.0591,87.1
330.3966,424.8
330.8728,267.3
330.8869,362.6
330.9126,380.9
330.9757,18.7
330.9977,152.4
331.0192,2505.9
331.0453,63208.7
331.0541,729284.9
331.075,19.9
331.0943,2985.8
331.145,905.8
331.1747,190.2
331.2023,284.7
331.3196,158.9
331.3604,136.2
331.5763,705.2
331.7097,96.4
331.7483,366.9
331.762,18.4
331.8251,105.8
331.8529,20.8
331.9083,566.9
331.9572,115.2
332.0247,636.8
332.0479,2152.4
332.0574,65138.5
332.0981,311
332.2029,166.7
332.2189,470.3
332.3265,308.9
332.4966,172.6
332.5097,479.3
332.5759,672.3
332.7497,351.7
332.7997,424.6
332.8084,87.3
332.8394,566.3
332.9607,893.1
332.9906,750.3
333.0523,42426.1
333.0577,6207.3
333.1423,19.7
333.1519,1627.7
333.231,18.1
333.6148,108.2
333.7484,125.6
333.7632,131.9
333.8161,21.4
333.8623,145.2
333.8685,132.6
333.9507,295.1
333.959,130.9
334.0556,2709.8
334.1942,153.2
334.3767,123.4
334.5475,260.7
334.6336,251.7
334.7616,250.2
334.8376,654.8
334.8803,137.2
334.8894,289
334.9264,155.1
334.9553,180.6
335.0179,180.3
335.1184,316.5
335.1529,203.4
335.1671,5210.4
335.227,597.6
335.417,622.5
335.4868,149.3
335.5993,134.9
335.6464,20.3
335.7806,260
335.8326,167.1
335.8651,174.1
335.9188,613.4
335.9497,18.3
336.0097,552.4
336.1706,614.3
336.3,18.9
336.3126,586.6
336.3682,509.9
336.3878,496.8
336.6301,173.9
336.6581,342
336.6656,148.4
337.0363,12471.9
337.0497,14985.2
337.0621,476184.9
337.1831,2703
337.2741,7495.8
337.3645,348.5
337.3781,877.3
337.479,22
337.6542,398.7
337.7773,324.3
337.7971,250.6
337.9039,118.1
337.9573,146.3
338.0313,177.6
338.0655,43628.9
338.1597,144.7
338.3422,26.2
338.4215,175.2
338.4302,127.5
338.6297,328.2
338.8026,157.5
338.858,656.4
338.891,473
338.9101,490.7
338.9208,871.9
338.958,637.4
338.9943,277.7
339.0056,97.8
339.015,101.1
339.0382,1385.6
339.0468,1054.4
339.0663,3173.9
339.1261,212.6
339.1985,151.5
339.2507,2287.6
339.29,6473.1
339.3048,122.1
339.3153,145.9
339.3384,802.1
339.4173,344.8
339.5303,288.7
339.6269,90
339.6353,171.2
339.7419,222.7
339.84,110.4
339.9677,1395.6
339.9759,296.7
339.9907,211.6
340.0913,364.9
340.2188,185.2
340.2461,109.8
340.2532,263.9
340.4553,94
340.5645,493.3
340.6652,180.2
340.7124,400.8
340.7409,88.2
340.7825,489.6
340.8587,231.5
340.9708,144.3
341.0023,627.3
341.0185,270.8
341.034,172.8
341.1578,21
341.3054,6629.3
341.5536,147.4
341.5712,419.3
341.6383,18.5
341.6944,534.1
341.699,570
341.772,252.8
341.8777,523.1
341.9677,401
341.9901,490.7
342.0153,3053.1
342.0908,235.5
342.2061,416.5
342.2534,121.6
342.2567,125.9
342.3867,373.7
342.49,304
342.6467,485.8
342.7548,194.6
342.8152,21.2
342.8692,653.4
342.9727,343.1
342.9899,2078.9
343.1311,221.3
343.1948,9054.2
343.3326,22.9
343.4986,140.2
343.5139,584.2
343.5735,681.4
343.5803,274.2
343.7846,324.7
343.9882,2674.1
344.038,106
344.1118,165.7
344.1282,17.6
344.344,80.8
344.387,74.2
344.3959,20
344.5906,756.3
344.792,377.5
344.8308,99.6
344.8394,95.3
344.9837,666
344.9884,81.5
345.0197,580.9
345.2101,1818.9
345.5672,220.5
345.817,32
345.866,436.5
345.9544,393.5
345.9838,57926.1
346.0109,198.1
346.0257,953.3
346.0411,171.4
346.0701,284.6
346.1977,109.8
346.2535,102.6
346.3899,148.1
346.6091,18.7
346.7711,413.4
346.7845,111.5
346.9877,2549.1
347.0175,1781.2
347.0692,1127.8
347.1812,17.7
347.1976,149.2
347.207,127.8
347.2961,466.9
347.5478,707.4
347.5823,681.6
347.6753,464
347.8381,362.7
347.8457,307.8
347.8576,21.3
348.1871,354.2
348.4646,164.3
348.5483,269.9
348.6017,68.8
348.6096,20.1
349.0179,913
349.1572,142.6
349.3619,392.2
349.3729,132.2
349.3834,289.5
349.4093,100.2
349.5993,130.2
350.0776,318.5
350.2165,392.5
350.2456,244.4
350.2677,18.4
350.4355,182.3
350.4462,130.7
350.7055,367.6
350.7276,118.8
350.7421,258.6
350.8105,393.8
350.9337,684.5
350.9489,21
351.1859,156.5
351.2714,75.4
351.3754,20.1
351.4593,21.3
351.7613,430.6
352.0231,101.4
352.127,306.5
352.2367,19.8
352.8128,320.3
352.8972,2064
352.9128,134.5
353.0272,102397.8
353.0361,169558.6
353.0955,152
353.32,430.2
353.3429,184.6
353.4228,299.1
353.6965,122.7
353.7662,144.9
353.797,170.6
353.8964,294.2
353.992,458.8
354.0304,7647.7
354.0395,14929.7
354.2683,177.6
354.3643,278
354.7093,324.1
354.7169,141.7
354.8359,160.6
354.8948,1482.9
354.9312,140.6
355.0119,771.1
355.0344,9530.4
355.0586,797.7
355.0702,1901.9
355.163,440
355.1919,115.9
355.2972,398.9
355.3967,310
355.5194,173.5
355.5921,483.5
355.6919,561.8
355.8013,24.1
355.8292,117.6
355.9049,104.6
355.9404,46.1
356.0091,453.6
356.0146,26.8
356.0326,213.1
356.0429,867.2
356.0695,487
356.3855,454.3
356.4166,74.7
356.6317,234.4
356.8565,284.7
356.941,368.8
357.0087,365.2
357.0671,122
357.0908,493.3
357.4361,658.2
357.4495,213.1
357.566,558.6
357.5847,626.2
357.6184,90.2
357.6608,128.8
357.7098,816.5
357.7203,286.2
357.8537,317.6
357.8921,122
357.9773,728.6
358.0115,32.8
358.0512,690.7
358.0707,302.6
358.1515,304.3
358.2451,706
358.3082,433.2
358.5305,108.2
358.5956,504
358.79,24.4
358.8106,448.7
358.9599,156.1
359.0076,164.5
359.0317,14899.5
359.0441,341764
359.0904,590.6
359.1674,1573.6
359.2305,453.2
359.3283,21.2
359.3423,407
359.3748,132.1
359.3805,21.7
359.3863,366
359.41,1181.8
359.4168,318.2
359.4274,917.9
359.4331,516.1
359.4454,19.2
359.4556,505.5
359.4606,444.7
359.4697,493.4
359.4808,168.3
359.491,785.3
359.5122,125.2
359.6124,220.4
359.6789,587.7
359.7297,147.5
359.758,168.2
359.9171,293
359.9242,19.7
360.0475,29799.2
360.1194,193.5
360.3244,169.9
360.392,397.7
360.4779,73.8
360.5263,159.4
360.5938,106.4
360.7179,665.9
360.8406,102.8
360.8947,552.6
360.9825,140.7
361.0202,5483.4
361.048,621.8
361.123,562
361.1832,95.9
361.1919,346
361.2199,189.5
361.2572,311
361.2742,1007.1
361.2999,142.4
361.3369,304.3
361.3631,430.2
361.3964,130.4
361.4184,450.2
361.4497,19.8
361.5744,744.2
361.8292,271.2
361.9577,17203.3
362.501,239.1
362.5507,199.7
362.7234,294.2
362.8199,333.8
362.9268,1277.6
362.961,117.7
363.0701,550.6
363.4768,535.4
363.498,217
363.5402,163.3
363.733,226.7
363.997,765.7
364.0365,182.3
364.1183,374.2
364.2281,279.7
364.3015,179.1
364.3156,287.6
364.3633,361.8
364.3923,139.3
364.4089,304.5
364.4436,669.6
364.5894,258.8
364.6536,567.9
364.8206,245.4
365.0273,18.9
365.1056,2042.9
365.3506,192.1
365.4101,155.4
365.4743,614.3
365.5242,278.9
365.8031,72.4
365.987,75.8
366.0181,154
366.0672,284.9
366.0758,114.6
366.4383,593.3
366.5848,319.6
366.7934,183.8
366.809,125.5
366.8646,18.4
367.1007,361.6
367.1212,825.9
367.185,153
367.1933,732.1
367.4126,173
367.5793,135.3
367.7367,152.2
367.7807,370.1
367.961,168.6
367.9916,1120.4
368.0029,1478.7
368.0477,167.6
368.1251,745.1
368.1991,170
368.2049,91.9
368.2403,97.6
368.4662,665.3
368.4967,315.3
368.5212,87.9
368.6661,123.4
368.8471,22
368.8694,324
368.8943,146.9
368.9322,289.1
368.9405,717.9
368.9658,198.4
368.9918,680.9
369.0006,9256.6
369.01,5164.2
369.0193,765.8
369.0289,259.9
369.0719,378.8
369.1282,117.3
369.2898,108.4
369.3048,166.2
369.3525,162.9
370.0927,547.5
370.1702,162.2
370.257,201.8
370.3537,88.2
370.463,422.8
370.4765,124.2
370.5105,22
370.5233,216
370.6002,276.2
370.682,73.2
370.7957,489
370.9333,19.5
370.9546,17.9
371,1600.9
371.0416,755.9
371.1024,60.3
371.1464,18
371.1589,135.2
371.2161,540.2
371.2578,316.8
371.2649,616.3
371.5061,211.3
371.5514,281.6
371.7639,181.6
371.8288,187.2
371.8441,22.3
371.9835,291.9
372.1187,18.5
372.2398,128.6
372.2735,107.7
372.3955,105.4
372.5002,567
372.5924,194.7
372.6437,154
372.7189,19.2
372.8264,19.1
372.9956,211.8
373.4051,311.7
373.5942,551.7
373.8121,126.4
373.95,66.4
374.2751,371.8
374.5255,287.1
374.5651,165.7
374.6751,23
374.7037,19.3
374.8277,153.2
375.0092,113686.9
375.018,89154.6
375.1416,571.4
375.2121,142.2
375.2599,388.9
375.3375,299.4
375.3742,391.3
375.4463,106.4
375.8291,22.4
375.9642,77
376.0125,8446.3
376.0213,6892
376.1527,397.2
376.1611,160.6
376.2848,710.9
376.2907,748.2
376.3915,22.3
376.4982,632.9
376.5015,629.5
376.7619,387.4
376.8352,29
376.855,605.8
376.9937,768.5
377.0038,183.6
377.0164,4872.5
377.0842,105.5
377.2377,303.4
377.4344,342.2
377.548,347.7
377.6316,754.7
377.6638,23.2
377.807,65.7
377.9316,1012.4
378.0299,317.7
378.2838,456.2
378.3345,82.2
378.372,142.5
378.5321,595.5
378.6577,438.4
378.901,1068.2
379.0017,243.2
379.1553,208.4
379.3379,21.6
379.5959,404.1
379.7252,522.8
380.0056,124.1
380.021,822.5
380.041,220.4
380.0984,287.3
380.2,187.5
380.7702,539.4
380.8307,133.5
380.8901,395.7
380.9698,319
381.0136,24241.3
381.0261,215286.7
381.1897,122.4
381.2337,549.4
381.421,19.8
381.7768,117.4
381.8297,23
381.9075,389.3
382.0294,17529.2
382.0604,194.1
382.6478,131.5
382.6591,124.5
382.7488,178.3
382.767,1942.4
382.8106,413.1
382.8383,27.5
383.0119,359
383.0302,150.7
383.102,18.9
383.1164,148395.2
383.1278,308.2
383.165,381.9
383.1795,194.5
383.2648,281.5
383.9205,197.6
383.9656,1229.3
383.9737,365.7
384.0364,295.7
384.044,140.2
384.1197,14148.9
384.169,125.7
384.4762,18.2
384.4847,122.2
384.6835,648.5
384.7088,313.4
384.7225,727.6
384.7642,937.1
384.891,19.4
384.9194,305.4
384.9497,304.5
384.9732,507.3
385.0001,112.2
385.0248,304.7
385.0431,22.3
385.2617,166.9
385.4147,129.5
385.5184,379.4
385.5337,138.6
385.592,285.3
385.7523,17.1
385.8223,19.7
385.875,79.5
385.9447,27.4
385.9791,11235.2
386.2553,394.5
386.2871,20
386.4798,154.6
386.5244,722.9
386.5406,112.2
386.5702,200.4
386.582,279.2
386.6451,461.2
386.7952,216.9
386.8869,169.8
386.9782,161.6
387.0036,1359.9
387.0617,18.7
387.1984,193.8
387.2729,124
387.2766,187.6
387.2793,179.2
387.3935,27.5
387.4611,141.5
387.5807,275.2
387.978,1164.9
388.0951,339.9
388.1695,136
388.2389,19.2
388.3842,173
388.4905,127.9
388.5128,338.9
388.6746,1167.7
388.6933,20.4
388.7635,198.9
388.9146,107.6
388.9218,116.7
389.0343,167.9
389.0958,148.6
389.2253,363
389.3023,131.6
389.3245,19.6
389.4591,984.2
389.5643,104.3
389.6151,266.8
389.7821,20.4
389.8069,56
389.8771,283
389.8888,109.6
389.928,542.9
389.9516,730.1
389.9736,54657.3
390.199,342.3
390.2255,464.3
390.3563,368.1
390.4108,91
390.5189,339.5
390.6771,403.7
390.7092,392.3
390.7676,282.2
390.7991,2307.5
390.9501,166.9
390.9574,20.5
390.9743,11047.5
390.9826,18728.1
390.9919,8470.6
391.01,117.5
391.0685,141.4
391.1146,403.2
391.1451,470.5
391.2859,71.1
391.3426,195.5
391.5518,564.7
391.6033,19.5
391.9004,1022.4
391.9847,364.4
392.1189,574.9
392.2611,20.4
392.3478,93.9
392.4573,487.2
392.4976,117.6
392.696,205.3
392.7121,496.4
392.7959,2749.7
392.8578,630.8
392.8721,119.5
392.8836,141.8
392.9705,131.9
392.9818,3600.3
392.9903,333.4
393.0074,940.5
393.0366,159.4
393.2584,332.6
393.296,575.2
393.3432,87.9
393.3617,176
393.3913,277.5
393.9958,154.7
394.1734,584.2
394.2269,327.9
394.241,19.3
394.3299,109.2
394.5095,292.3
394.7002,222.3
394.7934,987.6
394.8139,766.3
394.9553,567.4
394.9773,327.3
395.0332,174.1
395.1249,699.1
395.1654,114.4
395.3463,160.5
395.6896,435.7
395.9806,136.6
396.1125,619.6
396.1426,105.2
396.3474,227.5
396.744,1071.2
396.8515,218.6
396.8786,333.7
396.9607,343
396.9911,173217.1
396.9999,64742.5
397.0248,379
397.1205,289.9
397.1891,338.1
397.271,343.8
397.3913,373.1
397.6779,182.4
397.7057,476.6
397.8019,552.8
397.81,380.9
397.9001,195.6
397.9943,11168.1
398.0033,5083
398.0523,388.4
398.0723,155.2
398.2035,603.9
398.2416,3826.6
398.3614,271.2
398.7044,20.4
398.7412,2006.7
398.7625,760.8
398.8397,467.5
398.9975,782
399.0065,148.6
399.037,111
399.1742,137
399.203,508.1
399.2617,499
399.2748,16.7
399.3064,164.6
399.3309,245.5
399.4539,182.3
399.5169,129.3
399.7583,336.6
399.8056,635.4
400.0075,110.4
400.2591,72
400.4335,319.4
400.4977,100.3
400.5521,328.2
400.7024,204.1
400.7232,341.2
400.7379,1292.2
400.8279,1960.7
400.9828,379.5
401.0037,195.8
401.098,450.9
401.1436,148.8
401.4304,468.8
401.5106,130.8
401.6243,130.8
401.7211,125.5
401.7399,18.7
401.8839,505.2
401.9148,385.6
401.9529,1978.8
401.973,334.3
402.021,511
402.2341,558
402.3165,558.4
402.3824,548.8
402.3968,173.2
402.4159,802.7
402.4663,110
402.8325,269.2
403.008,257029.6
403.0569,452
403.1608,306.8
403.1854,105.2
403.2159,162.7
403.6338,266.4
403.7825,283.1
403.8225,28.1
403.8842,250
403.9422,2829.5
403.9524,442.5
404.0113,22998.8
404.1658,566.8
404.2008,77.3
404.2219,359.2
404.2744,198.9
404.3587,339.2
404.539,187
404.6206,505
404.686,335.2
404.8212,98.1
405.0131,475.3
405.0212,19.3
405.0443,17.7
405.0692,106.7
405.1308,262.9
405.8227,25.4
405.8803,200.2
405.9475,31966.4
406.0795,200.1
406.2582,601.3
406.3297,811.4
406.4039,190
406.5541,281.5
406.5717,141.9
406.6591,19.9
406.763,495.5
406.7723,1572.8
406.9305,428.5
406.9515,1563
406.9681,133.4
407.1321,120.3
407.245,467.9
407.3327,103.3
407.4257,18.7
407.4348,109.6
407.6038,301.5
407.8176,2135.2
407.8547,24.2
407.9136,515.2
407.9454,556.2
407.9682,133.2
408.0177,255.3
408.0786,247.8
408.1806,636.1
408.2298,289.6
408.2738,18.7
408.4463,406.9
408.5201,22.4
408.6252,114.4
408.6562,175.3
408.7698,3129.9
408.7811,126.6
408.8176,72.3
408.9559,412.1
408.9735,449.4
408.9846,750.1
409.2598,122.7
409.4638,131
409.7447,22.4
409.9099,259.4
409.9528,108.5
410.0893,257.2
410.3873,113
410.7435,156.1
410.7677,363.2
410.8573,773.2
410.9276,26.3
410.9676,310.8
411.165,303.7
411.2635,1056.2
411.3165,416.1
411.4709,301.8
411.7043,277.8
411.712,122.1
411.8984,143.4
411.9737,154
412.0719,257.8
412.1101,279.3
412.2742,142.7
412.3213,3144.1
412.6138,173.8
412.7176,458.9
412.8177,109
412.8541,826.9
412.9643,42713.5
412.9738,9418.8
413.0165,618.3
413.0692,697.7
413.1419,207.6
413.2668,5113.1
413.3246,465
413.3646,131.4
413.4086,19.6
413.5301,525.9
413.5501,343.2
413.5643,292.5
413.5849,130.2
413.7054,186.1
413.7751,186.6
413.7851,282.7
413.9395,268.8
413.9674,881.3
414.0975,622.5
414.1383,182.2
414.1536,282.9
414.2524,227.9
414.2709,843.5
414.7148,406.3
414.8624,687.7
414.9428,25
414.9633,3959.8
414.9721,176.2
414.9975,830.5
415.0063,795.7
415.0373,130.5
415.051,65
415.1906,733.7
415.2215,1411.4
415.28,769.9
415.3041,380.7
415.4507,151.1
415.6681,222.8
415.7848,104.8
415.8666,132.4
415.9694,17.1
415.978,39
416.0754,17.3
416.1352,9221.7
416.1487,474.9
416.2144,18762.3
416.2497,185.7
416.3935,686.3
416.4117,220.6
416.4681,303.4
416.5838,152.6
416.7071,157.7
416.8017,579.7
416.9578,174.6
417.0043,117.7
417.0159,185.8
417.0204,115.6
417.1889,227
417.2175,2247.9
417.3434,286.7
417.5333,608.4
417.6112,310.2
417.8871,115.9
417.9103,447.8
417.9366,21.1
418.0553,20.6
418.4246,157
418.5002,142.1
418.7284,357.2
418.7592,20
418.7984,1193
418.8096,775.9
418.9561,198.6
418.9819,78943.9
419.1082,577.4
419.2079,103.7
419.2554,450.3
419.3098,172.8
419.6545,136.8
419.7751,276.8
419.8094,203.4
419.8384,24.2
419.9556,23.9
419.9852,3799.3
419.9996,66.9
420.0759,759.9
420.18,530.3
420.2587,473.9
420.5812,199
420.6183,268.3
420.6767,91.2
420.8853,883.8
420.9408,297.9
420.9567,521.8
420.9804,2022.4
421.0095,292.2
421.0597,343.5
421.3503,333.2
421.4994,307.8
421.7471,217.3
421.8039,124.4
421.8328,1112.1
421.9214,9378.8
421.9446,20.1
422.1971,363.5
422.4158,313.8
422.4318,20.4
422.5933,305.3
422.7507,208.7
422.8338,70.6
422.9165,166.5
423.4303,340.1
423.8158,309.1
423.9192,485.2
424.0166,158.3
424.5584,360.4
424.5863,429.3
424.7443,927.3
424.8875,229.3
425.0287,29.1
425.3824,21.7
425.5107,486.6
425.5374,413.7
425.6563,124.3
425.7666,18.8
425.8073,20.6
425.8199,134.5
425.8282,103.9
425.9773,23.1
426.1716,362.4
426.2909,137
426.3178,450
426.5594,160.2
426.5917,166.5
426.6366,136.5
426.788,451.2
426.8306,902.1
426.8752,672.2
426.9423,92.8
426.9882,257.2
427.2388,117.8
427.3067,19.3
427.3175,27.3
427.4146,44.2
427.6688,135.1
427.8745,217
427.9355,349.3
428.1613,122.5
428.4281,300.7
428.8266,764.5
428.8625,210.6
428.9077,183.6
428.9376,9918.4
429.0133,291.1
429.0357,289.8
429.0448,18.6
429.0628,634.5
429.0734,331.1
429.089,1460.8
429.1192,319.4
429.6784,183.8
429.8262,436.5
429.9341,18.5
430.0493,81.6
430.0623,21.5
430.0886,115.7
430.2597,218.5
430.3684,214.7
430.6036,139.5
430.7672,303.6
430.9142,1369.2
430.9339,19.7
431.0865,145.9
431.2176,1070.5
431.2334,22.9
431.3089,21.2
431.3235,475.8
431.3362,135.3
431.365,250.8
431.6308,126.3
431.7508,207.5
431.9505,58.6
432.0883,18.4
432.229,183.2
432.3874,186.2
432.6442,21.2
432.7006,427.6
432.8242,23.4
432.8844,175.5
432.9574,242.9
433.0041,637.7
433.0131,278.8
433.1202,240.3
433.1693,375
433.2499,104.3
433.9892,342.9
434.427,392.1
434.6228,140.7
434.6419,185.7
434.6748,75.6
434.7549,108.7
434.956,12789
435.037,74.1
435.1767,150.3
435.2813,881.9
435.3269,140.2
435.4316,344.2
435.6513,259.2
435.7763,138.8
435.8494,93.8
436.4749,580.8
436.955,941.7
437.03,332.5
437.1048,373.5
437.2902,107.6
438.2436,875.2
438.2669,27.6
438.2815,325.8
438.3701,138.1
438.4307,561.5
438.4442,293.8
438.5583,193.7
438.5703,197.3
438.8912,241
438.8952,228.4
438.9717,3281.7
438.9848,3290.4
439.1246,17.7
439.2415,498.2
439.2708,301
439.4102,791
439.4936,245.8
439.5467,477.5
439.598,471
439.7456,511.5
439.808,137.9
439.8506,446
439.8801,20.4
440.2466,273.4
440.2837,301.8
440.6919,441.1
440.7259,775
440.9097,146.4
440.9344,170.9
441.2563,250.6
441.2981,179.1
441.5252,20.2
441.6781,752.3
441.7931,529.1
441.8397,235
442.0812,572.1
442.3015,25.4
442.3479,424.1
442.392,508.8
442.7504,19.7
442.9838,728.3
443.1161,686.2
443.2372,122.5
443.2537,1388
443.2859,116.5
443.3371,284.1
443.8102,19.5
443.8869,533.6
443.972,159.8
444.0048,21.8
444.0982,104.6
444.2443,428.4
444.252,192.4
444.4262,20.8
444.4562,758.7
444.4835,417.8
444.5298,527.7
444.9919,66.9
445.1249,369.9
445.4725,312.9
445.781,785.9
445.9993,120.7
446.2727,611.4
446.5588,281.5
446.5894,433.5
446.6002,256.4
446.611,402.4
446.8945,97.2
447.3964,109.4
447.5289,207.2
447.7212,294.6
447.8925,265.7
447.9322,8247.8
447.9486,20.9
448.4857,76.7
448.5078,127.8
448.6022,322.4
448.6676,1364.6
448.7497,816.9
448.9332,4362.4
449.1413,452.2
449.1545,2747.1
449.6121,694.1
449.9297,521.4
450.0753,300.4
450.1579,482.3
450.5957,223.4
450.6132,312.9
450.6682,172.1
450.7268,368.3
450.7547,952.3
450.8347,27.6
450.8795,335.7
450.9393,94.7
451.1507,193.1
451.2042,398.7
451.3678,194.5
451.4584,360.5
451.7567,389.4
451.8367,22.1
452.1455,755.3
452.1545,301.6
452.388,842.5
452.6401,166.6
452.6924,148
452.7517,506.2
452.7923,18.1
452.8706,22.8
452.9564,131.5
453.0345,336.7
453.1738,1748.4
453.2409,206.7
453.3785,244.3
453.5685,115.2
453.8778,192.6
454.0014,312.9
454.1173,402
454.2936,350.6
454.4072,21
454.461,77.5
454.4889,340
454.8142,74.9
454.9026,22.2
454.9498,39466.2
455.1704,463
455.4301,203.1
455.4507,288.7
455.5206,162.1
455.5793,20.9
455.7082,113.1
455.816,421.2
455.9518,846.8
456.0465,777.5
456.0778,275.5
456.1062,592.7
456.2666,962.1
456.6655,198.3
456.7,732.5
456.925,127.8
456.947,5118.4
457.0426,148.4
457.0835,224.9
457.1628,322.3
457.1814,21.4
457.233,10643.7
457.3844,477.1
457.4195,162.5
457.6891,167.5
457.9612,144
457.9705,20.9
458.1132,19.7
458.262,446.4
458.3118,243.3
458.3241,391.5
458.4136,192.7
458.4652,183.8
458.5248,365.8
458.5884,113.2
458.5984,684.1
458.6957,1601.4
458.7298,718.6
458.7633,150
458.7894,765.5
458.8546,158.3
458.9613,891.6
459.2094,171.7
459.2485,390808.7
459.2888,393.7
459.5122,131.4
459.778,486.6
459.8326,158.5
459.9959,113.6
460.1046,22.6
460.2518,83071.5
460.2762,441.5
460.4303,22.8
460.5131,139.1
460.6214,161.4
460.718,416
460.7382,149.2
460.9666,75853.8
460.9803,314.2
461.1377,685.3
461.1656,249.5
461.178,144.1
461.2553,5263
461.4344,511.1
461.8669,428.3
461.9022,359
461.9565,321.8
461.9697,5116.4
462.2881,104
462.3171,20.9
462.4632,162.1
462.4978,465.2
462.6133,167.9
462.7601,185.1
462.862,24.8
462.9638,18896.1
463.0006,530.7
463.0438,134.9
463.2232,114.2
463.3531,213.8
463.6859,20
463.7177,146.4
463.8073,179.3
463.906,2435.2
463.9214,112.7
463.9672,1099.8
464.3439,105.2
464.7304,470.4
464.7814,197.7
464.9785,8015.8
465.1167,122.2
465.1472,126.8
465.68,126.9
465.9031,367.5
466.0515,201.2
466.0994,73.7
466.3281,300.4
466.729,550.8
466.7542,169.1
466.8868,410.4
466.972,538.7
467.0299,21.4
467.5219,75.4
467.6097,159.1
467.935,20.9
467.9656,17.8
468.0721,20.9
468.3086,536.9
468.4981,674.1
468.6328,487.7
469.0331,332.2
469.2328,268.6
469.2522,715.7
469.8223,599.4
469.8923,581.6
470.1639,157.7
470.2668,103.4
470.2916,237.2
470.5293,212
470.6546,456.6
470.6982,548.1
470.9236,14955.1
470.9669,23
470.9953,3888.8
471.448,579.5
471.6157,688.7
471.8689,277.2
471.9524,145.3
471.973,355.4
472.0456,216
472.0734,248.4
472.1255,126.6
472.3038,250.8
472.5672,586.4
472.6432,344.6
472.6745,348.3
472.9209,2698.1
473.0218,20.2
473.0541,609.8
473.0588,653.7
473.064,555.8
473.0801,293.7
473.0992,554.2
473.2644,2637.9
473.3245,674.5
473.4438,291.2
473.6047,390.6
473.854,700.9
473.9987,171.8
474.029,176.5
474.3582,19.7
474.4311,223.5
474.4502,142
474.4643,436.5
475.2225,16904.2
475.2489,375.6
475.4232,17.6
475.4353,166.5
475.4928,156.4
475.5861,348.2
476.2259,1467.2
476.3127,566.1
476.4512,113
476.8634,135.5
476.9406,41588
477.3242,139.5
477.439,649.5
477.5749,151.6
477.6215,435.5
477.6894,194.9
477.8234,311
477.927,387.1
477.9438,1898.1
478.1209,188.5
478.2926,1310.2
478.3295,49868.3
478.543,150
478.5545,493.2
478.6817,441.8
478.9377,11237.5
479.0952,32.2
479.3328,9046.1
479.4605,283.2
479.8129,20.3
479.8226,19.5
479.8799,267
479.933,421.8
480.2158,443.4
480.3432,653.6
480.7663,27.3
480.9538,1963.7
481.0052,611.2
481.0916,2419.5
481.2328,1064.9
481.2699,817.6
481.3072,464.9
481.4106,136
481.5301,359.2
481.6481,113.7
481.6722,173.1
481.8158,212.1
481.9025,20.2
482.0953,356.7
482.3241,950.9
482.8207,21.6
483.0167,154.9
483.0362,607.2
483.096,256.6
483.2143,653.5
483.2485,135974.5
483.3696,162.1
483.8752,570.8
483.9153,245.5
484.1584,110
484.2518,29404.1
484.3029,334
484.956,18.4
484.9925,136.7
485.0975,252.8
485.1057,18.3
485.2641,114049.2
485.363,370.4
485.447,469.5
485.5123,20.4
485.647,22.9
485.7336,19.7
485.8346,312.3
485.9299,505.5
486.0327,737.2
486.2674,23322.2
486.3896,213.2
486.5027,521.2
486.6458,200.1
486.8429,229.2
486.8983,937.2
487.0457,20.2
487.2798,112777.9
487.4358,123.6
487.5022,566.7
488.1636,245.7
488.2832,23318.7
488.3744,365
488.4992,157.8
488.6139,568.2
488.6439,210.9
488.8394,138.7
488.8991,319
488.9456,127.3
489.1452,295.3
489.1727,976.6
489.1869,245.6
489.2082,750.1
489.241,718.2
489.2699,764.3
489.2845,590.6
489.3128,71
489.3244,17.4
489.3464,371.3
489.3559,941.2
489.5991,373.4
489.7505,125
489.7727,636.9
489.9051,115.2
489.964,819.4
490.1201,797.1
490.2904,8120.9
490.6606,337.8
490.7387,258.1
490.8413,153.3
490.87,370.6
491.2917,348.1
491.3458,480.1
491.3709,1266.2
491.3868,22.7
491.3988,147.9
491.4576,170
491.7056,526.5
491.8162,358.1
492.1934,170.8
492.203,154.9
492.298,63.8
492.3309,18.7
492.3414,454.2
492.4028,143.3
492.417,243.9
492.4873,408.5
492.8099,18.1
492.8445,365.8
492.9148,6452.5
492.9708,104
493.1494,236.4
493.9261,19.1
493.9584,980.6
494.0606,532.9
494.1554,666.7
494.2332,126
494.2852,18.4
494.3242,5969.3
494.4106,134.4
494.4714,186.4
494.6411,111.1
494.6642,453.4
494.6829,19.8
494.6976,169.2
494.9113,1598.1
494.9671,826.1
495.3697,63.9
495.4007,172.6
495.4192,127.5
495.4894,165.5
495.5141,600.9
495.8384,188
496.3401,414271.8
496.3803,387.5
496.6457,93.2
496.9305,377.9
497.3434,99503.1
497.4238,259.2
497.4652,428.6
497.7079,333.6
497.7441,116.4
498.3466,7970
498.6844,366.7
498.809,582.5
498.9425,341.1
499.0447,544
499.2223,4607.2
499.2459,430.1
499.2599,64.4
499.3517,611.3
499.6163,134.3
499.6394,121.6
499.6834,490.6
499.7764,177.2
499.9956,18.4
500.0326,774.3
500.2049,366.3
500.2772,740
500.3548,149.8
500.4801,807.5
500.5096,606.8
500.6398,613.1
500.9387,653.5
500.9855,627.5
501.238,3913.9
501.2851,519.5
501.568,149.5
501.6592,130.9
502.0772,418.8
502.1448,189.8
502.1601,201.5
502.3296,28768.7
502.4209,19.6
502.4564,654.8
502.7771,123.3
503.108,308.1
503.2196,132.1
503.2534,5801.1
503.3327,4821.8
503.8788,21.2
504.1078,22.5
504.1602,165.4
504.2704,122.9
504.3061,4305.7
504.3448,14022.2
504.645,175
504.9683,1096.7
505.1049,24.5
505.1725,21.6
505.2274,301.9
505.2511,220.4
505.3483,594.4
505.6701,106.5
505.8903,1467.9
506.0075,514.6
506.0574,139.5
506.2303,119.7
506.2634,359.7
506.3609,10385.7
506.3873,177.1
506.4717,429.2
506.4827,128
506.6268,542.4
506.892,3715.1
507.0132,381
507.0745,195.1
507.0975,297.7
507.1701,253.4
507.2484,25322.1
507.3642,2324.1
507.383,131.8
507.4457,176.7
507.6324,130.8
507.7282,290.8
507.8881,824.7
507.9949,108.9
508.2518,4387.7
508.3747,504.1
508.8422,122.7
508.8888,2169.9
509.0048,1423.4
509.2637,7733.4
509.6828,223.9
509.7697,366.9
509.9325,187.9
510.2349,133.6
510.2663,515
510.3219,314.1
510.3556,3594.3
510.4419,434.3
510.4654,638.4
510.5982,194.5
510.6878,472.9
510.7108,515.4
510.9056,584.2
511.1426,69
511.6562,20.7
511.7991,219.7
511.9692,950.8
512.3351,498.1
512.8276,153.1
512.8878,135.9
512.9085,16407
513.0135,172.9
513.3696,359.5
513.8543,22.5
513.9098,532.2
513.984,742.9
514.2674,193
514.4551,150.7
514.59,393.9
514.6587,507.7
514.7728,420.3
514.8356,773.6
514.9056,10122.1
515.1887,309.8
515.5185,197.6
515.5744,248.4
515.8265,19.9
515.8675,177.8
515.9196,182
516.0091,393.1
516.2249,221.5
516.3065,14475
516.6645,355.9
516.762,21.2
516.8802,20
516.9011,486.6
516.9196,3668.7
516.9448,109.5
516.9677,200.2
517.3104,1919.4
517.6178,192.8
517.6822,138.4
517.9155,20.7
517.9529,744.1
518.2331,66.5
518.3219,719121.3
518.3363,789.8
518.3572,527.4
518.3986,336.7
518.6522,501.2
518.9251,27568.2
519.3253,175260.2
519.4862,115.9
519.688,137.9
519.8,426.4
519.9289,940.6
519.9962,18
520.2525,181.5
520.3291,21103.8
520.34,124976.8
520.3776,155.1
520.6981,22.9
520.8147,379.1
520.9223,16533.9
521.0507,360.1
521.1531,469.6
521.1799,88.2
521.3433,33565.4
521.5499,24.5
521.7818,430.5
521.8641,187.8
521.9002,17.9
521.9772,2029.2
522.257,769.4
522.3557,126432.8
522.6935,103.9
522.8807,109.5
522.9198,709.1
522.9374,5707.3
522.9673,1012.2
523.205,21.5
523.3591,30462.2
523.4306,21.6
523.6749,116.6
523.7525,210.6
523.79,359.7
523.8656,314.5
524.0371,178.8
524.1448,19.9
524.1776,833.9
524.1859,254.1
524.202,489.9
524.2149,249.5
524.2498,122.3
524.272,756
524.3147,573.3
524.3714,150683.7
524.5892,260.6
524.9344,1647
525.0194,355.1
525.2168,336.5
525.2536,21.7
525.2996,19.9
525.3747,39986.5
525.6864,563.1
525.8597,21
525.9121,171.5
525.9556,158.2
526.2225,396.2
526.3296,5786.4
526.545,330.3
526.7802,783.6
526.8797,521.8
527.0742,119
527.1598,1076.9
527.1807,693
527.3349,457.9
527.8093,147.9
527.9192,242.7
528.2937,109.7
528.3446,157.8
528.4089,517
528.5656,321
528.621,555
528.8821,6498.3
528.9539,2297.7
529.4616,208.9
529.5735,115.5
529.9524,175.6
530.1238,116.4
530.2017,158
530.2358,695.1
530.3213,460
530.3579,550.5
530.4352,20.5
530.7117,372.6
530.7428,720.8
530.8306,267.6
530.8792,3243.5
530.9496,393.6
531.0741,21
531.2493,755.7
531.4132,606.1
531.6068,153
531.8785,577.2
532.1643,304.7
532.2106,19
532.2426,686.1
532.2802,2998.5
532.3374,12966.6
532.5839,134.2
532.9667,1877.6
533.0428,183.4
533.0714,250.1
533.2654,503
533.4699,96.8
533.4853,114.9
533.7885,618.7
534.296,183375
534.3165,2798.7
534.7395,212.2
534.8676,174.3
534.8991,17363.2
534.9481,415.6
534.991,131.3
535.1975,134
535.2259,176.4
535.2495,110.8
535.2992,45346
535.3165,251.2
535.382,717.4
535.4182,286.6
535.9034,386.5
536.2943,9303.6
536.4062,162.6
536.4473,22.7
536.5029,121.4
536.5384,132.7
536.8707,300.9
536.8964,7992.4
537.0495,233.3
537.2968,831.1
537.5826,148.3
537.7204,460
537.9513,147.8
538.2644,363.6
538.6894,21.3
538.837,119.9
538.8732,386.5
538.8931,759.9
538.911,2569.2
538.9323,1146.1
538.9512,72.3
539.1373,177
539.1894,128.7
539.2541,21.2
539.3429,480.6
539.4436,164.6
539.7167,20.3
540,733.5
540.1294,488.2
540.2478,110.7
540.306,1124.4
540.5683,339
540.9075,520.6
541.0835,393.8
541.105,365.4
541.145,405.1
541.2216,111.8
541.2313,105.7
541.2646,503.3
541.4765,711.4
541.5292,670.8
541.5321,675.2
541.6153,186.3
541.7,170.2
541.7066,196.1
541.8261,371.7
542.0378,323.6
542.1834,21.9
542.322,212174.3
542.4915,762.5
542.6579,266.3
542.8631,245.3
542.904,149.5
543.0186,236.1
543.2077,851.1
543.3254,57801.9
543.4048,1277.8
543.5759,339.2
543.5812,590.4
543.5848,545.9
544.0395,170.5
544.1598,123.5
544.2756,331.1
544.3377,210203.8
544.4595,438.1
544.7718,149.9
544.8434,262.5
544.9275,618.3
544.9482,644.1
545.1616,656.3
545.3411,48860.4
545.3895,72.5
545.6393,103.1
545.7406,550.7
546.2632,19.7
546.3533,242989.3
546.4747,307.4
546.7378,474.3
546.8549,1162
546.9264,1808.5
546.9542,135.3
547.3253,407.3
547.3567,65078.9
547.6149,83
547.8822,318.5
548.1282,123.6
548.2037,460.8
548.3113,1722.6
548.3597,3835
548.7103,183
548.7996,22.4
548.971,281.4
549.1471,23.3
549.2648,441.3
549.3197,129.1
549.3925,176.5
549.4261,22.6
549.8956,370.7
550.1437,347.6
550.1879,176.9
550.2667,326.3
550.2972,382.9
550.6166,705.9
550.6206,717.9
550.6271,371.9
550.7005,491.3
550.7897,167.4
550.8559,516.5
550.873,2634.3
551.0421,391.2
551.2656,349.9
551.3317,20.4
551.3786,583.7
551.398,413
551.7128,707.9
551.805,419.5
552.0194,162.9
552.4639,785.6
552.6317,255.8
552.8708,1330.7
553.1371,140.7
553.3075,339.9
553.4722,396.1
553.5325,21.7
553.554,419.1
553.6323,139.8
554.3291,178.4
554.39,392.8
554.4325,281.4
554.4383,299.3
554.4906,476.9
554.5514,750.7
554.6123,366.3
555.0252,127.8
555.0878,329.6
555.2487,330.7
555.6218,299.8
555.6417,425.2
556.0266,19
556.0325,19.6
556.2367,434.2
556.6181,274.1
556.668,175.3
556.7588,129.6
556.9097,179.4
557.1194,465.7
557.2285,476.9
557.2807,480.2
557.4298,208.3
558.1552,185.8
558.1827,142.6
558.2959,59780.5
558.3461,140.2
558.4217,1652.3
559.0254,368.2
559.0509,18
559.1919,363.6
559.2993,13059.3
559.8456,154.2
559.8986,541.6
560.0377,302.9
560.3115,48447
560.376,351.5
560.4734,239.8
560.5891,319.6
560.9236,417
560.9486,658.7
561.2887,161.4
561.3151,11572.8
561.4126,6031.8
561.5187,369.4
561.9448,398.4
562.0185,412.8
562.3107,1008.1
562.3273,52494.8
562.3854,233.4
562.4167,656.7
562.7604,260.8
563.0677,531.9
563.1667,754.8
563.2468,267.1
563.3307,14077.5
563.4285,4745.8
563.4548,798.8
563.8218,151.3
563.827,318.2
563.8316,341.1
564.2513,165.6
564.3059,545.4
564.3331,1026.7
564.4171,790.5
564.8231,265
565.5272,422.9
565.5822,482.1
565.7731,216.8
565.8592,39.9
566.0439,148.3
566.2115,616.2
566.322,33387.1
566.3696,117
566.5626,154.7
566.6097,421.3
566.7695,191.9
566.9914,341.7
567.0501,175.2
567.0549,162.7
567.1649,490.5
567.2053,689.1
567.2996,360.4
567.3254,10739.6
567.3975,293.6
567.5732,171.3
567.8095,21.4
568.1802,551.9
568.2437,1178.7
568.3376,18048.1
568.4692,634.5
568.7212,151.4
568.7543,134.3
569.1774,20.9
569.2267,127.4
569.3416,2941.3
569.4696,140.8
569.683,155.8
569.7949,247.8
569.8119,410.7
569.8225,114.4
569.9834,134.5
570.2879,333.3
570.814,76.8
570.8667,7395.4
571.0568,781.2
571.2727,422.4
571.3946,21.1
571.5859,153.7
571.6637,242
571.7117,568.6
572.1534,147.2
572.1908,26.1
572.2397,180.7
572.3679,1110
572.7528,169.3
572.8642,5285.1
573.0174,167.8
573.0705,147.3
573.0903,465.3
573.1133,324.5
573.1599,115.9
573.1663,334
573.1708,355.9
573.2772,584
573.4807,289
573.5145,229
574.0429,170.1
574.2832,2298.8
574.8011,467.2
574.8613,472.8
575.0648,108.4
575.4102,736.8
575.5038,15499.2
575.5618,330.5
575.7037,326
575.7255,275.7
575.9329,329.1
575.9554,402.8
575.9958,161
576.2136,137.1
576.2811,10467.7
576.3741,119
576.4099,466.7
576.5072,2756.9
576.6476,17.4
576.776,111.7
576.823,95.3
576.8838,9266.3
576.9857,482.6
577.2447,305.3
577.2842,482.8
577.2934,172.9
577.344,696.2
577.5193,757.3
577.7158,603
577.8861,679.9
577.9834,226
578.2467,339.3
578.2775,2258.2
578.404,152
578.5239,454.4
578.7417,22.6
578.8045,309
578.8809,8029.2
579.0211,133.4
579.5872,157.3
579.6793,20.6
579.7188,133.8
579.7421,123.2
579.8491,192.4
579.9375,111.8
580.1148,137.4
580.2074,194.2
580.5689,545.3
580.732,687.8
580.8774,1283.5
580.8964,2675.6
581.4808,241.6
581.4976,580.2
581.5999,418.2
581.7335,352.6
582.0252,770.3
582.0979,178.3
582.1087,126.2
582.1428,215.4
582.1797,135
582.2107,624.2
582.2401,958.1
582.2539,91.1
582.2769,289.4
582.2962,6982
582.3133,371.2
582.3595,395
582.3829,77.5
582.5513,287.3
582.893,1687.8
582.9369,664.3
582.9585,424.9
582.9954,19.7
583.0362,115.4
583.1589,307
583.2555,3493
583.2987,584.9
583.7793,180.2
583.8398,287.5
583.9917,133.3
584.028,615.7
584.0451,538.3
584.0827,138.7
584.3117,2721.2
585.1225,300.5
585.271,6639.2
585.3825,205.1
585.6522,379.3
585.7862,306.5
585.9202,395
585.9969,158
586.0384,167.5
586.1528,186.7
586.3094,5498.1
586.3233,622.9
586.6348,21.8
586.6564,427.9
586.7898,320.5
586.8406,2617.2
586.913,868.5
587.0152,21
587.0923,624.1
587.3315,590
587.6504,455.9
587.76,510.6
588.0524,757.5
588.466,199.7
588.6849,430.5
588.8385,2934.3
588.9106,580.1
588.9469,121.7
589.0308,18.6
589.3868,354.5
589.5652,128.8
589.7169,70.6
589.9469,256.2
589.9988,144.4
590.3219,2276.9
590.3996,595.9
590.4317,146.3
590.5858,159.5
590.8356,461
590.8543,584.6
590.89,132.2
590.9253,1516.3
591.46,1653.6
592.0544,149.8
592.0975,139
592.1148,309.6
592.2539,910.6
592.2796,412.9
592.3367,810.1
592.4439,117.4
592.5094,178.6
592.8581,4996.7
593.0035,518.5
593.1498,158.4
593.4777,430.6
593.544,614.3
593.6318,728.3
593.7069,798.3
593.8771,151.7
593.9906,600.7
594.2235,584.8
594.3838,126.7
594.6368,145.6
594.8547,5038.3
594.9182,556.4
594.9711,116.2
595.3876,304.5
595.453,210.1
595.6837,386.8
595.8595,322.6
596.3981,895
596.527,78
596.6485,383.7
596.8526,1506.2
596.8697,605.1
597.0319,157.4
597.4499,4372.8
597.4859,13263.3
597.636,661.6
597.8202,373.6
597.99,250.7
598.0241,412.6
598.4583,1918
598.4896,2736.3
598.6952,103.3
598.7613,708.4
598.8203,169.8
598.8731,153.1
598.8909,758.7
599.424,286.9
599.4647,3556.5
599.5026,4785.1
599.7294,339
600.2807,2013.1
600.3812,160.3
600.5075,848.3
600.6025,590
600.6336,124.1
600.8898,476.9
600.9544,420.2
601.3211,575.5
601.4733,121.7
601.5047,477.5
601.5199,807.8
601.5667,151
601.5799,491.3
601.7908,21.7
601.8227,19
602.1142,342.6
602.2574,427.8
602.2978,1406.3
602.5235,113.1
602.598,291.3
602.724,130.2
602.8688,74.1
603.5343,826.9
603.9248,151.9
604.0197,174.5
604.1118,552
604.3119,708.1
604.3592,296.8
604.5367,510.8
604.6986,219.7
604.8154,124.4
604.8811,426.1
605.0022,128.9
605.2548,298
605.6695,313.4
605.7083,20.7
605.8737,741.8
606.1186,367.5
606.2961,528.5
606.4942,556.1
606.4982,583.3
606.508,338.6
606.6435,171.7
606.9735,733.9
607.0636,744.2
607.3044,283.3
607.5606,18.8
607.6265,108.4
608.1608,320.3
608.272,150.3
608.6608,148.3
608.719,156.6
608.8314,910.7
609.5197,303.7
609.54,169.5
609.8105,181.2
609.9052,305.9
610.0978,387.1
610.7549,309.2
610.8065,137.9
610.8309,501.7
611.3477,294.5
611.5847,181.7
611.6649,480.8
611.7457,21.2
611.8575,141.3
611.9684,812.8
612.3768,132
612.8232,422
613.0988,249.4
613.181,199.4
613.201,551.2
613.2655,20
613.4281,220.3
614.3127,371.8
614.3425,1526.3
614.8842,253.2
615.0516,20.5
615.4328,376
615.8683,627.5
616.0825,316.6
616.1798,742.9
616.3422,149.6
616.3532,409
616.4329,618.3
616.4874,145
616.733,439.8
616.8099,138.1
616.9151,43.6
616.9869,217.9
617.0886,145.7
617.312,150.3
617.4333,334.3
617.4501,361.6
617.4755,19097.2
617.6663,191.2
617.7444,284.9
618.0003,2091
618.4789,3110.5
618.5041,131.1
618.5522,140.2
618.6285,589.6
618.6746,21.1
618.8405,566.9
618.8568,319.8
618.8758,135.2
618.9326,144.2
618.9885,416.8
619.1209,272.9
619.4914,28829.1
619.6053,20.8
619.7222,266.6
619.8279,650
619.9721,582.9
620.3223,138.2
620.3958,91.8
620.4396,598.1
620.4588,452.4
620.4946,6853.8
620.8381,213.3
620.9864,333.7
621.1045,20.2
621.207,18.8
621.2296,139.6
621.2457,75.2
621.4513,160.6
621.4649,316.1
621.486,5822.8
621.6405,109.6
621.7828,147.9
622.3318,226.1
622.459,1296
622.9149,254.3
622.9723,100
622.9991,305.7
623.1358,6043.1
623.2068,392.2
623.4623,1090.3
623.5011,1032.4
624.1407,228.3
624.4061,355.5
624.4687,732.9
624.5543,128.9
624.6952,361.5
624.9642,316.5
625.3915,684.1
625.4751,200.4
625.5182,339.5
625.548,293.9
625.5655,20.5
625.667,428.6
625.9172,187
625.9803,107.2
626.3377,365.8
626.7227,515.3
626.9176,211.4
627.0272,531.3
627.1531,552.5
627.5361,924.7
627.8426,589.2
627.9275,669.3
628.095,666.6
628.1381,236.4
628.317,19.9
628.4122,108.4
628.8438,151.9
628.921,429.1
629.1528,12841.9
629.6543,21.7
629.9215,758.5
629.9345,486.3
629.9833,307.2
630.0248,271.7
630.0895,189.9
630.156,1098.9
630.82,411.2
631.1345,113.9
631.2288,607.4
631.9218,19.2
632.0188,645.3
632.594,260.9
632.6896,434.4
633.4717,541
633.6016,169.9
633.7323,334.1
634.1661,172.7
634.5666,350.5
634.705,333.7
634.7294,130.4
634.8417,2474.3
635.4628,2255.2
635.7759,242.2
636.4595,167.4
636.5027,297.9
636.6502,355.4
636.8401,3157.1
636.9072,21.3
637.0754,693.3
637.9233,355.5
638.1968,118.7
638.217,21.4
638.2406,130.4
638.2615,23.4
638.3745,633.6
639.0463,26.4
639.4428,526.8
639.4814,174.3
639.5832,652
639.6268,336.1
639.773,152.7
639.8759,364
640.1076,175.1
640.1533,578.6
640.2511,278.5
640.5894,604.3
640.8755,353.3
640.9928,395.1
641.0231,115.1
641.3075,313.1
641.3746,153.7
641.581,278.6
641.7069,676.8
641.7465,282.8
641.8942,18.1
641.9279,189.1
641.9858,426.4
642.1856,601.5
642.2812,121.2
642.3545,20
642.4055,304
642.6256,21.5
642.7736,334.4
642.9984,564.4
643.1915,144.4
643.4355,306.8
643.8719,122.1
644.1506,218
644.3324,418.2
644.4662,180.8
644.4874,299
644.6993,781.8
644.8707,387.9
645.0103,681
645.1174,5049.9
645.2115,140.1
645.4747,149.2
645.6458,209.7
645.7635,137.5
646.0315,9783.9
646.1186,437.5
646.3982,112
646.4297,19.1
646.6249,190.3
646.7955,440.3
647.0344,1776.2
647.3171,622.5
647.48,659.1
647.5846,18.9
647.7823,523.6
647.963,154.6
648.1026,193.4
648.1335,471.8
648.5755,217.7
648.9229,373
649.1719,116.7
649.3842,241.6
649.6035,96.9
649.7372,155.6
650.1393,260.8
650.1727,177.9
650.2918,318.3
650.3946,99.4
650.4398,1400.9
650.7865,170.7
650.8167,1477.3
650.8576,145.6
650.8781,103.8
651.0124,222.8
651.1348,21169.4
651.3884,295.4
651.7537,164.8
651.9132,189.4
652.1386,2737.2
652.3942,637.3
652.6782,283.5
652.8141,2535.8
653.1408,108.6
653.4778,116
654.0369,143.3
654.1989,396.4
654.4748,531.7
654.5765,145.1
654.7294,259.5
654.755,667.7
654.7765,191.3
654.8126,962.7
655.2527,235.7
655.5402,21.8
655.6506,154.1
655.7787,414.6
655.8271,589.9
656.2706,18.4
656.4435,122.2
656.5364,135.3
656.6369,109.2
656.8807,667.2
657.4428,428.8
657.5762,220.2
658.4283,903.6
658.5535,164.4
658.641,297.1
659.0204,192.3
659.0587,19.7
659.3202,146.7
659.5183,21.9
659.5802,139.5
659.8968,639.3
660.031,821.1
660.0815,672
660.2454,161.4
660.325,288.9
661.0207,157.7
661.082,1949.9
661.1204,425.2
661.2907,23.6
661.3464,309.7
661.4984,18.8
661.6352,20.9
661.711,694.7
662.0858,727.2
662.1431,122.5
662.2498,369.2
662.5151,165.8
662.911,292.1
663.1155,133.9
663.3606,152.3
663.4397,118.8
663.4555,1502.2
663.8415,129.4
663.8972,376
664.4478,172.8
664.4612,192.5
664.487,150.4
664.7178,141.2
665.3424,372.7
665.4042,565.3
665.469,628.1
665.8522,186
665.9192,388.6
666.4839,5649.2
666.5094,712.4
666.5926,221.5
666.7295,259.4
666.9529,309
667.0993,13111.7
667.2344,392.1
667.3667,133.5
667.4862,897.9
668.1028,989.9
668.4912,126.7
668.7917,402.8
668.9094,131
668.9775,986.7
669.1118,380.2
669.1737,330.5
669.4469,452.4
669.4811,196.4
669.602,153.6
669.6753,179.4
670.107,133.5
670.3169,830.2
670.4457,123.2
670.5986,121
670.6147,145.4
670.6523,315.6
670.7862,153.3
671.2074,418.9
671.2863,19.9
671.3764,312.9
671.7581,297.1
671.8733,111
671.9538,157.1
671.9974,123.5
672.365,1012.9
672.4208,1971.3
672.4735,377.3
672.9087,359.6
673.1167,37928.3
673.4239,570
673.4434,123.3
673.7551,164.8
673.7708,143.5
674.0476,141.6
674.1205,6935.1
674.1831,142.1
674.2502,384.5
674.4415,188.4
674.893,194.9
675.0143,321.8
675.0925,379.1
675.1264,158
675.1536,189.6
675.285,127.7
675.5448,11847.3
675.7063,382.7
675.8988,318.6
676.0475,3374.9
676.2109,345.9
676.4793,263.3
676.5495,712.2
676.6687,183.6
676.7743,577.4
676.7895,21.1
677.1919,950.7
677.5313,145.3
677.6333,167.5
677.7258,280.8
677.7315,280
677.8172,118.1
677.9302,150
678.066,118.3
678.264,355.1
678.3142,153.5
678.4694,403.4
678.7608,336.1
678.7941,763.8
678.8277,325.6
679.0528,130.8
679.1241,588.6
679.4667,548.3
679.618,114.4
679.696,217.8
679.8373,310.9
679.9025,150.1
680.7017,505.7
680.8011,398.7
680.9098,271.2
681.2154,316.6
681.8095,130.6
681.9829,22.6
682.0647,8851.8
682.4794,22.9
682.5162,18.6
682.5963,320.6
682.8711,297.6
682.9116,327.6
683.0425,21.5
683.0645,2513
683.2715,182.1
683.3925,379.8
683.4265,138
683.4814,335.5
683.547,342.4
684.075,91.5
684.1324,616.7
684.1727,110.9
684.328,370.7
684.6871,780.8
684.8782,339
684.9341,263.3
685.1129,462.1
685.4362,8114.8
685.4567,603.2
685.5295,97.8
685.6724,74.2
685.7498,111.2
685.8867,349.6
686.0968,21.7
686.4398,806.5
686.8023,181.1
686.8436,346.7
687.1048,17.9
687.1183,248.5
687.4777,225.6
687.5276,193.9
687.6494,101.3
687.8116,323.1
688.3939,22.8
688.4624,192.1
688.5703,486.9
689.081,13214.9
689.1568,320.6
689.321,181.2
689.358,154.6
689.5593,3456.5
690.0901,1429.2
690.1117,613
690.1344,101.6
690.5634,981.1
690.7651,69.5
690.8463,383
691.5597,470.6
692.1902,312.7
692.2914,330.9
692.3246,140.9
692.4622,434.4
692.5051,771.3
692.9303,330.8
693.1653,20.7
693.1897,20.6
693.2053,104.2
693.3607,134.6
693.7046,131.1
694.0614,79.9
694.4452,761.3
694.5416,20.7
694.7969,314.4
695.064,117.4
695.0987,29983
695.4581,499.9
695.5094,2156.1
695.6867,103.7
695.7044,315.4
695.8457,222.8
695.8888,647.8
696.1022,3566.7
696.1274,362
696.2479,163.9
697.0862,213.5
697.492,121.4
697.5261,17522.3
698.0288,2923.8
698.4666,330.3
698.5293,4233.5
698.7308,462
699.325,118.3
699.4059,136.6
699.4536,19.3
699.5163,68.9
699.8627,150.5
700.3925,447.9
700.6122,19.6
700.8352,105.1
700.9287,382.2
701.1699,126.9
701.441,135.5
701.5601,35892.7
701.6642,317.5
701.7926,21.9
701.8097,476
702.106,189
702.3028,167.8
702.3441,1826.1
702.5102,203.6
702.5637,13642.1
702.8195,212.2
703.5757,83401.2
703.6188,160.8
703.8015,139.9
703.9384,142
703.9676,398
704.0466,8294.3
704.4479,2560.2
704.5336,290.1
704.579,32405.7
704.6148,300.9
704.8198,143.3
704.9527,99.4
705.0466,1028.4
705.0761,351.8
705.1165,589
705.4069,489.5
705.5809,3181.7
705.9269,381.1
706.0108,92.6
706.0608,180.9
706.1294,687.1
706.5391,440.9
707.0547,187.9
707.6674,142.4
708.617,341
708.8621,477.4
709.2022,19.6
709.454,222.4
709.7486,699.6
710.2236,162.4
710.3395,170.6
710.8233,22.7
711.0633,7215.3
711.0736,8300.5
711.4803,328.1
711.5425,3423.2
711.6239,347.5
711.7092,497.5
712.0704,346.4
712.081,446.4
712.4602,213.7
712.4845,407.7
712.7001,252
712.7702,390.7
712.9589,160.6
713.2175,135.7
713.5001,2010
713.7917,189.3
713.996,485.6
714.0739,120.7
714.2965,171.5
714.3531,631.5
714.6167,291.3
714.6617,471.3
714.8202,126.6
714.8514,154.3
714.9904,20.3
715.5759,87.5
716.0197,172.2
716.0854,20
716.4496,178.7
716.7514,95.3
716.7955,439.9
716.9398,165.1
717.0808,15619.9
717.1627,346.6
717.8101,259.1
717.8755,329.9
718.0845,1976.6
718.1129,785.2
718.4579,931.8
718.5737,120.9
718.8719,293.6
718.9449,319.3
719.2079,142.2
719.4623,1100.1
719.6072,290.6
719.8154,363.4
719.8211,375.6
719.8308,330.8
719.9844,511.7
720.0214,1454
720.5039,106.3
720.5964,431.5
720.6397,330.7
720.8525,96.5
721.0267,271.7
721.3635,19.2
721.4785,65862.3
721.7271,163.8
721.7931,261.1
722.2402,122.4
722.4819,25037.4
722.7571,141
723.0397,141.2
723.365,593.7
723.4949,9760.5
723.5419,34647.9
723.7882,169.9
724.096,116.5
724.1669,587.6
724.3382,716.6
724.4978,2880.2
724.5453,14641.3
725.0443,136.2
725.441,498.5
725.5576,82265.1
725.6643,130.9
725.8141,341.1
725.8597,271.9
726.0284,4997.1
726.5237,360
726.5608,29374.7
727.0265,1078.7
727.1317,597
727.2383,267.7
727.4152,331.6
727.5194,478.9
727.564,3334.4
727.6807,23.3
727.8427,173.4
728.0202,21
728.153,154
728.2098,374
728.2663,294.9
728.5005,1045.7
728.5193,3914
728.5669,761.6
728.5806,575.8
728.826,658
729.0238,324.3
729.4832,235
729.5215,515.8
729.5916,5319.4
729.7769,335.1
729.9831,438.5
730.1616,25.2
730.2901,518
730.539,11439.8
730.5943,1314.7
730.7606,154.4
731.0024,721
731.5421,1374.9
731.6064,3380.2
731.9187,412
732.2374,476.8
732.5022,187.3
732.5547,43060.5
732.9652,405.6
733.0459,3623.8
733.0557,4410.1
733.516,251.7
733.5579,16467.2
734.1485,768.8
734.2169,20.3
734.5284,256.2
734.5716,6772.3
735.0265,119.7
735.3847,375.2
735.5743,1199.8
735.8199,238.5
735.9984,126.5
736.033,645.8
736.4853,123.2
737.0202,418
737.19,67.2
737.4526,12703.6
738.3096,181.6
738.4556,3348.6
738.8062,273.3
738.8677,314.1
739.0626,9540.3
739.1063,661.6
739.1634,112.5
739.1847,669.1
739.2302,637.3
739.3181,165.8
739.3843,19.8
739.4173,441.4
739.4701,555.4
739.5159,3397.2
740.0653,312
740.4135,382.2
740.4704,135.9
740.5187,794.9
740.8582,126.4
741.0686,199.9
741.1128,407.6
741.4497,641
741.4755,773.9
741.5318,8493.1
741.5647,23.5
741.807,171.9
742.0024,986.9
742.1495,290.8
742.5363,1240.2
742.5752,15792.1
742.9751,363.8
743.005,335.5
743.3814,119.5
743.4172,276.6
743.4647,1285.9
743.5784,3607.7
743.8267,344.3
743.9897,551.8
744.19,358.9
744.5539,5931.3
744.5913,13870
744.8878,91
745.0107,177.8
745.479,26031.2
745.5305,715.2
745.5595,1501.2
745.5946,3718.8
745.683,146.6
745.7198,21.7
745.8677,96.7
745.9135,249.3
746.4822,9180.9
746.5305,261.7
746.5712,2850.6
746.6067,2840.9
746.6373,365
746.7628,408.7
746.8993,88.2
746.9085,90
747.3238,20.2
747.4124,114.8
747.4951,12033.9
747.631,167.8
747.7258,110.7
748.0099,2913.4
748.2934,291.3
748.425,171.4
748.498,2272.8
748.5254,155.5
749.0124,1190.7
749.0286,373.7
749.2502,312.8
749.395,152.1
749.4229,488.2
749.4536,155.1
749.5104,8796.5
749.6292,79.7
749.8728,68.5
750.0098,648.8
750.0706,219.1
750.5098,624.5
750.5372,708.5
751.2702,398.2
751.4938,397.6
751.5741,2998.4
751.9364,133
752.0371,159.1
752.2667,254.7
752.5212,12290.5
752.5757,871.1
752.6018,155.4
753.1219,278
753.1729,192.9
753.525,3086.1
753.5898,2253.2
754.2606,282.9
754.5369,37292.3
754.6357,254.1
754.8185,480.1
754.8595,198.5
754.9024,21.8
754.9602,126.6
754.9833,126.4
755.0345,3066.9
755.5401,12280.7
756.0296,369.7
756.092,455.7
756.2681,168.3
756.4405,555.6
756.5544,60630.1
756.59,74.7
756.8221,427.6
757.4389,587.6
757.5579,28287.5
757.6213,670.6
757.6656,167.9
757.7988,19.7
758.3059,117.1
758.5106,349
758.5703,1241345.8
759.1945,398.8
759.2516,314.6
759.3914,410.5
759.5737,541614.1
759.6383,1874.4
760.0248,182.9
760.2873,22.6
760.3335,133.3
760.3577,165
760.5871,340088.1
760.6438,71.5
760.7466,166.5
760.7685,143.4
760.8489,201.6
761.0449,5816.7
761.1213,111.9
761.3635,68.1
761.41,556.6
761.4521,3773.7
761.5419,629.7
761.5474,636.2
761.5898,167928.7
761.6723,448.3
761.8246,422.5
761.8918,280.7
761.9264,584.9
762.0491,285.7
762.4571,729.9
762.5925,40783.8
762.7821,240.9
762.8847,119.6
763.0095,151.8
763.0687,334.8
763.1862,480.3
763.3665,229.3
763.5958,2508.6
763.6587,284.4
763.948,196.2
763.9733,512.4
764.0409,298.3
764.3966,134.8
764.4748,326.5
764.5572,6382.6
764.9825,540.6
765.0133,76.3
765.1476,18.9
765.4691,743
765.5637,1021.8
766.0507,381.6
766.1072,255.2
766.1419,20.6
766.163,318.8
766.5379,4612.7
766.5748,30957.1
766.631,77.9
766.6489,77.3
767.0439,770.9
767.4629,363.1
767.5402,2755.2
767.5784,10259.7
767.8516,677.7
768.2499,134.3
768.334,289.4
768.4021,20.6
768.4951,2068.5
768.5522,3769.5
768.5912,30663
768.8505,659.3
769.4777,3928.6
769.5945,12934.3
769.6605,598.3
770.068,157
770.1373,123.9
770.2514,638.5
770.2984,728.2
770.3336,130
770.5121,2531.8
770.5694,1804.1
770.6078,5682.1
770.6463,102.2
770.6569,148.3
770.6645,145.8
770.7932,128.9
770.8393,126.6
770.9923,2786.9
771.011,139.9
771.1635,131.3
771.4963,1629
771.5724,504.4
771.6109,2790
771.7619,331.1
771.8609,557.4
772.0054,175.3
772.4968,131.3
772.5861,18219.6
772.69,619.3
773.0498,250.6
773.5056,770.9
773.5892,6625.3
774.5115,172.1
774.5566,148.9
774.6027,705.1
774.9369,385.5
775.2797,97.5
775.3459,116.4
776.304,354.7
776.5199,944.9
776.7357,152.4
777.0104,4109.6
777.3167,734.7
777.5415,985.1
777.5761,376.3
777.6892,297.7
777.9355,711.3
777.9682,17.7
778.0384,611.5
778.2009,866.5
778.4305,628.7
778.5368,47792.1
778.7703,980.3
778.8489,205.1
778.8783,123
779.5402,17128.4
779.7583,149.1
780.5523,818488.1
780.5915,373.9
780.9416,168.4
780.9865,276.7
781.3773,297.2
781.5558,368329.8
781.8762,537.4
781.953,225.8
782.2694,383.7
782.5107,315.7
782.57,627650.9
782.7149,733.6
783.0267,5441.2
783.5733,296381.5
783.9681,538
784.1779,208.9
784.3231,248.4
784.5866,360860
784.8571,147.3
784.937,112.4
785.5896,172971.6
785.6534,3530.9
785.98,287.8
786.1961,508
786.428,721.5
786.6021,353782.6
786.6572,598.7
786.7208,442.3
786.8056,756.8
786.9659,850.6
786.9925,304.8
787.1879,568.3
787.5717,320.1
787.6053,173296.7
787.6693,995.7
787.7695,619.5
788.4149,17.8
788.557,7464.1
788.6054,30073.3
788.6213,12819.1
788.6737,275.4
788.7692,367.2
789.0684,404.1
789.3396,21
789.5526,1392.7
789.6228,6111.8
789.6739,116.3
789.9909,304.6
790.1525,380.4
790.3335,149.2
790.5476,638
790.5739,13057.6
790.9899,133.2
791.0527,981
791.3666,113.6
791.3869,26.6
791.5757,2241.8
791.9482,467.1
791.9814,719.2
792.4044,259.6
792.5517,400.8
792.591,11045.5
792.6998,218.3
792.9838,1172.6
793.4935,417.2
793.594,2587.5
793.7429,143.7
793.7898,155.4
793.8828,191.1
793.9145,349.8
793.9939,142
794.3861,74.8
794.4153,361.3
794.5105,6503.4
794.5679,10295.6
794.6069,29930.2
795.0307,493
795.061,206.1
795.2945,449.5
795.3948,491.7
795.5707,337.5
795.6097,12965.9
795.7309,924.9
795.8014,144.5
795.8279,141.2
796.0536,166.3
796.2344,498.7
796.5262,142859.6
796.5861,7235.8
796.6236,3451.8
796.6569,158.3
797.476,651.4
797.5296,65658
797.5734,195.3
797.5903,978.9
797.6258,1099
798.2982,19.8
798.3414,179.9
798.4669,691.2
798.5431,33205.6
798.6019,1257.2
798.902,409.7
799.0013,1115.5
799.312,27.7
799.545,13685.9
799.6676,488.1
799.9439,1164.6
800.1228,334.8
800.6173,88.5
800.8229,205.7
801.2737,130.5
801.5484,304.2
801.9403,248.6
802.3897,142
802.5366,36706.4
802.7478,1631.4
803.1066,752.3
803.5399,14369.2
803.685,102.8
804.3718,163.6
804.5525,311494.4
804.7616,1115.8
804.8827,19.8
804.9495,773
804.9967,441.4
805.5556,143124.9
805.6668,682.3
806.1396,662.3
806.5693,296320.1
806.6698,152.6
807.4566,129.1
807.5164,352.3
807.5724,141729.4
807.9506,21
808.0269,924.2
808.5852,250122.1
808.6262,742.6
808.6876,606
809.3442,131.7
809.5882,129257.7
810.1011,634.8
810.6024,140506.5
810.8399,509.3
810.9323,543.8
811.1666,532.7
811.6053,72523.8
811.6699,7154.8
812.3987,661.1
812.4919,1046.2
812.6194,31508.6
812.6731,2310.9
812.7388,185.2
813.4216,24.2
813.5649,114.8
813.6215,15720.9
813.6859,4673.8
813.7128,137.7
814.3375,252.4
814.4121,699.5
814.5745,2472.3
814.6218,867.7
814.6891,2025.6
814.7914,505.2
815.3453,364.3
815.3639,417.6
815.6927,154.3
815.803,185.8
816.103,296.2
816.166,324.3
816.4179,19.8
816.558,626.1
816.5884,12724.4
817.5925,1847.2
817.6892,558.1
817.9471,409.1
818.4107,504.5
818.5104,4734.3
818.5602,481.2
818.6061,800.2
819.0952,730.3
819.3543,177.6
819.5169,672.4
819.6003,376.6
819.8934,211.1
820.5263,56475
820.6244,569.9
820.6436,180.5
820.679,288.3
820.8779,17.3
821.4413,18.3
821.5295,24081.7
822.5424,33508.9
822.6199,191.5
822.8308,17.7
822.9917,147.2
823.1643,144.6
823.5459,15267.5
823.65,659.2
824.5581,28263.4
825.0493,98.6
825.3226,293.1
825.561,13363.9
825.595,110.9
825.6588,189.8
825.6888,1011.8
826.3125,23.1
826.5359,582
826.7365,587.6
826.8567,556.6
827.1982,350.8
827.5404,421.1
827.6274,505.3
828.5523,63465.3
828.634,183.5
828.7882,1447.9
829.1827,368.5
829.5559,30887.5
829.7299,714
829.8292,134.5
830.2432,325.5
830.4502,445.2
830.5689,55743.7
830.8405,134.7
831.0224,892.4
831.3977,730.4
831.457,614.2
831.4991,429.8
831.5714,29091.3
831.6907,452.3
832.2922,489.8
832.5846,67562.5
832.7054,127.2
832.7432,180
832.8591,220.3
833.3971,341.6
833.5877,33678.3
833.6525,722.6
833.7609,695.6
833.8016,200
834.602,30348.4
834.665,124.8
834.7882,201.4
834.8307,356.6
835.0965,74.8
835.2164,222.1
835.604,15130
835.6775,315.3
835.9064,112
835.9647,119.1
836.5489,782.7
836.6185,4608.5
836.6763,303.6
836.7871,109.8
836.9829,113.4
837.1983,765.4
837.6206,690.6
837.8355,127.2
837.9252,290.4
838.0042,139.7
838.0763,293.6
838.2345,142.6
838.4472,511.4
838.5117,603.3
838.6349,358.8
838.834,489.6
838.8694,109.4
838.9813,812.9
839.4252,19.9
839.4894,470.3
839.5139,816.8
839.5806,243.5
839.6501,27.8
839.9391,336.9
840.5855,929.2
840.9676,212.3
840.9977,1131.8
841.0564,712.1
841.201,19.5
841.7031,116
841.812,341.9
842.2878,163.2
842.4463,291.4
843.0015,254.3
844.0548,233.8
844.1256,767.8
844.458,312
844.5258,11091.9
844.6673,340.5
845.0108,22.6
845.1419,175.4
845.2549,202.3
845.3017,131.2
845.426,162.7
845.531,1688.6
845.6166,144.8
846.0152,1092.9
846.4277,22.9
846.5433,6931.5
846.6492,1131.7
846.7512,735.4
847.0496,445.7
847.2261,464.9
847.3317,765.2
847.5443,2720.7
847.6753,676.3
847.6914,340
848.3964,282.7
848.42,19.6
848.5096,21.1
848.5573,6524.4
849.4743,300.9
849.5623,2804.1
850.1023,20.7
850.2718,617.2
850.5732,292.9
850.976,167.8
851.708,18.4
851.7997,695.4
852.0134,393.1
852.1683,141.8
852.1886,570.1
852.2734,115.7
852.3801,20.3
852.5878,155.1
853.4733,157.9
853.6375,291.2
853.7652,21.5
853.9802,228.7
854.0053,141.7
854.5711,604.7
854.7071,18.3
854.8109,20.3
855.177,258.6
855.4997,268.4
855.5763,20.9
856.0027,583.4
856.341,21.8
856.584,1664.1
856.9892,920.7
857.2366,623
857.275,21.4
857.3131,25.5
857.5829,1259
857.6168,121.4
857.8583,142.2
858.4919,289.8
858.599,189.8
859.0142,21.3
860.3157,620.5
860.6303,105.6
861.4219,98.6
861.4799,19.3
861.5572,99.1
862.5126,183
862.726,115.2
863.0829,147.5
863.9393,535.6
863.9644,371
864.4384,238.8
865.0073,507.7
865.5565,398.3
865.578,400.5
866.8994,921.9
867.1947,145.3
867.7496,138
868.3625,404
868.6506,187.7
868.6621,180.2
868.9715,218.5
869.1758,728.7
869.3856,25.9
869.4085,347.2
869.4422,103.8
869.4988,178.2
869.5354,1440.2
869.5847,1459.5
869.6025,2247.8
869.6221,2502.4
869.6454,1354.7
869.6597,1233.2
869.7154,5573.5
869.7468,4060.8
869.7854,4418.4
869.8197,2749.3
869.8535,1210.6
869.9086,1933.7
869.9451,534.7
869.9992,1065.7
870.06,131.6
870.7296,190.6
870.9578,19.7
871.2169,20
871.9934,124.3
872.1417,674.7
872.5395,763.5
872.5633,154.6
872.8216,596
872.8982,797.8
873.2885,538
873.5015,978.1
874.1011,709.9
874.2957,1373
875.1911,682.5
875.2991,621.9
875.4405,162.8
875.5886,145.9
876.5382,200.7
876.5737,780
876.633,248.8
876.705,367.8
876.9459,1219.9
877.4407,131
877.8591,186.4
878.4128,18.2
878.8479,144.3
879.0282,151.1
879.0573,109.2
879.2293,424
879.2726,195
879.8032,530.8
880.0408,399.7
880.1164,206.4
880.1938,375.9
880.305,260.5
880.6584,18.7
880.995,255.5
881.4997,21.8
881.681,260.7
881.8854,123.4
882.0659,20.7
882.3238,347.3
882.7298,317.2
883.7367,341
883.8307,123.9
884.0106,717
884.1225,116.5
884.264,264.6
884.5254,1301.9
885.0367,2584.6
886.1103,22
886.1659,308.2
887.0721,191.3
887.2039,123.8
887.7309,248.8
888.0572,151.7
888.5799,416.3
888.642,407.7
888.728,100.6
889.5664,147
889.6636,341.4
889.9296,478
890.6009,752.4
892.2154,702.6
892.3308,94.3
892.4757,853.8
893.0967,121
893.1445,505.1
893.1868,245.6
893.3778,123.6
893.9171,512.7
894.1559,70.9
894.2966,302.7
894.5032,355
895.0531,144.8
895.2063,592.8
895.6463,121.3
895.7877,296.7
896.5465,224.5
896.8485,637.8
897.1905,697.2
899.4035,285.1
900.1688,313.1
900.7255,20.6
901.7696,155.8
902.1038,106.8
902.9127,501.7
903.2558,299.4
903.4313,463
903.4983,815.5
903.7925,302.5
903.8417,294.5
904.2718,374.4
904.4775,659.1
904.9928,1211.9
905.179,136.6
905.2931,255.3
906.3454,319.6
906.4303,1218.8
906.6544,654.5
906.9186,515.5
907.0236,408.1
907.417,20
907.7465,448.9
908.7964,1366.8
909.0023,435.8
909.3971,19.5
909.4657,125.5
909.8874,338
910.2723,762
910.3308,124.1
910.7967,20.3
910.9211,468.6
911.1362,941.6
911.3669,992.6
911.802,151.4
911.9138,153.6
912.3744,736.1
912.5318,282.9
912.9549,21
913.465,526.4
913.5182,175.2
914.4379,401.4
914.8526,123.9
915.1226,639.9
915.1514,112.6
915.2935,201.2
916.448,591.6
916.5109,648
916.601,615.6
916.9641,600.8
917.1197,854.4
917.6165,1277.3
917.988,310.4
918.116,627.1
918.2387,20.2
918.4167,17.3
918.8067,453.4
918.8524,383.6
919.2421,345.6
919.6397,576.6
919.7798,298.1
920.5193,135.2
920.8487,332.5
920.9662,423.4
921.1873,360.7
921.3819,157.1
921.8268,317.1
922.1116,290.3
922.5094,174.4
922.6283,20
922.7215,1921.5
922.7908,511.1
923.2858,225.3
924.0576,204.8
924.572,433.6
924.9,495.9
924.9728,398.4
925.0242,25.8
925.4829,339.8
925.6625,142.5
925.7081,835
926.0957,121.3
926.1288,237.7
926.7249,495.2
926.9869,189
927.7699,828
928.6369,302.7
928.9809,648.6
930.0432,587.5
930.7117,117.8
930.8513,692.8
931.0751,415.7
931.2413,375.6
931.4145,199.7
931.4242,222.5
931.4334,155
931.7013,315.5
931.958,317.6
932.0401,21.8
932.1983,764.1
932.679,300.9
932.7843,799.1
933.1555,121.4
933.231,367.2
933.7856,300.2
934.6216,389.8
934.8211,380.1
935.1867,731.9
935.8645,339
935.9499,689
936.1307,20.5
936.1859,2146.6
936.799,156.8
937.0742,820.5
937.232,465.6
937.302,133.9
937.366,124.9
937.4969,652.7
937.6915,187.9
937.7364,769.1
938.3512,340.4
938.407,365
938.4139,408.1
938.8845,19.5
939.3671,424.9
940.3178,579.2
940.9061,145.5
940.9678,399.8
942.0442,852.5
942.1201,127.2
943.0051,22.3
943.7477,263.7
944.233,805.7
944.7318,278.9
944.8271,261.3
944.9519,126.7
945.1559,454.3
945.5988,176.7
945.8961,168.7
945.9878,226
946.0336,1250.8
946.7317,260.8
947.1848,288.1
947.2286,161.6
947.796,399.7
947.938,112.2
948.1915,403.3
948.2255,564
948.3709,718.1
948.5095,517.7
948.5424,312.5
948.6302,677.2
948.8772,574.4
948.9404,483
948.9807,532.3
949.0733,345.2
949.7189,154.9
949.984,144.2
950.2814,931.7
950.3467,372.8
950.4269,226.1
950.5273,282
950.555,804.5
951.2559,103.7
951.5047,414.8
952.1934,486.8
952.3392,436.9
953.1421,88.7
953.1696,196.9
953.6503,399.5
953.7066,347.9
953.7607,20.4
953.9697,376.8
954.2398,22
954.6443,421.9
955.0009,139.5
955.0359,98.7
955.5978,24.1
956.1966,748.5
956.2225,484.9
956.4124,644
956.5032,730.7
956.618,197.4
956.8274,583.4
956.9561,319.9
957.1183,771.5
957.504,265.4
957.5487,79
958.6855,185.8
958.7572,494.5
959.0845,73.9
959.3257,106.3
959.4158,102.5
959.451,174.7
959.6444,22.2
959.7279,151.4
959.7731,122.5
960.3539,302.5
960.4269,310.2
960.4652,180.3
960.667,386.2
960.9133,428.4
961.1947,180
961.2639,139.2
961.3469,752
961.896,286.4
962.0583,738.5
962.1472,412.5
962.2438,19.5
962.3275,588.3
962.9567,757.1
963.0287,378.4
963.6146,911
963.8058,19.6
964.3471,624.5
964.7886,156.5
964.8642,20.5
965.0733,23.6
965.8559,1220.9
966.1465,591.9
966.3606,403.3
966.9384,653.1
966.9985,468.7
967.1776,371.4
967.249,169.9
967.5298,562.2
967.6367,18.1
967.8463,282.2
968.1764,285.6
969.1243,178.8
969.3093,673.7
969.3551,332.5
969.7267,303.2
969.8504,22.2
970.5654,213.4
971.4798,196.7
972.2516,1007.4
972.3332,671
972.4912,139.1
972.6698,371.8
973.2481,330.4
973.5148,111.7
973.797,772.7
974.2716,501.4
974.5562,19.6
974.6144,249
974.8386,569.6
975.1597,22.3
975.2611,345.7
975.297,519.7
975.3721,866.5
975.4664,491.4
976.358,717.7
976.3832,24.8
976.6404,309.8
976.9169,785.5
977.3664,255.9
977.805,294.9
977.8973,233.4
978.1426,21.9
978.2778,570.6
978.3393,424.9
978.5943,315.9
978.9209,21.8
979.2443,225.1
979.9758,23
980.1606,149
980.3842,263.3
980.7432,195.7
981.823,283.6
982.0557,1002.5
982.2541,487.3
982.7415,1134.6
983.3634,641.6
983.5374,473.7
983.753,484.2
984.7888,265.5
985.036,709.1
985.1756,629
985.5072,135.7
986.2517,422.3
987.2312,19.1
987.2874,551.4
987.7925,339.6
988.1514,73.6
988.2405,778.4
988.5516,795
988.6203,335.9
988.9089,134.8
989.0794,112.5
989.7765,610.8
990.0248,334
990.0622,927
990.0775,965.3
990.195,111
990.6543,703.2
990.7794,242
991.3799,772.5
991.5145,899.6
991.7087,265.7
991.8746,901.6
992.0884,1387.6
992.1919,945.5
992.3826,122.8
992.4605,428
993.2091,19.6
993.7002,216.5
994.3488,224.2
994.4317,232.6
995.4757,1349.2
995.7656,20.3
995.9746,442.3
996.3672,119
996.5464,773.7
996.8768,228.9
998.1227,688
999.2555,584.4
999.607,131.1
999.8623,1162.6
