SPECTRUM - MS,
183.RAW,
FTMS + p ESI Full ms [50.00-1000.00],
Scan #: 1-40,
RT: 0.01-1.97,
AV: 40,
m/z,Intensity

50.0027,103.6
50.0142,23.2
50.0179,142.5
50.0239,517
50.0748,660.4
50.084,504
50.0892,243.6
50.095,116.1
50.0953,97.2
50.1118,148.5
50.1454,291.9
50.1569,99.1
50.1763,18.5
50.1834,313.1
50.1913,124.1
50.2013,207.1
50.2231,376.5
50.2894,474.2
50.2944,324.6
50.3124,17.7
50.3255,102.1
50.3457,136.7
50.3783,234.5
50.4108,637.6
50.413,225.4
50.4642,261.7
50.4804,15.5
50.4834,17.7
50.493,201
50.5098,17.4
50.5329,17.3
50.5361,626.2
50.5386,15.9
50.5395,503.5
50.5476,595.9
50.5627,101.7
50.5694,158.1
50.5757,322.3
50.5812,220.1
50.5941,221.9
50.6125,92.6
50.6195,15.6
50.6237,171.5
50.6262,121
50.6289,462.8
50.6295,277.8
50.6301,113.1
50.6304,570.9
50.6383,219.2
50.6433,123.3
50.6626,249.9
50.6703,616.2
50.714,90.3
50.7253,460.9
50.7522,234.1
50.7534,98.3
50.761,136.8
50.7753,16.7
50.7912,115.1
50.7928,402.3
50.7942,454.6
50.7986,190.5
50.8313,283.3
50.841,55.6
50.8455,74.1
50.8495,289.4
50.8533,116.5
50.8597,150.4
50.8644,584.8
50.8717,54.1
50.8775,97.2
50.8976,87.8
50.898,180.2
50.9005,355.4
50.9096,430.2
50.9135,348.2
50.9158,85.2
50.9279,330.4
50.9436,20.1
50.9509,18.6
50.9525,139.4
50.9542,145.1
50.989,90.9
50.9904,130.3
50.991,190.2
51.0116,474
51.022,20.2
51.0992,445.9
51.1108,393.9
51.1118,308.4
51.1176,15.4
51.1442,156.1
51.1521,427.9
51.1723,299.1
51.1805,529.9
51.212,222.2
51.2131,297.7
51.2148,53.7
51.2228,187.1
51.2379,177.5
51.2497,187.4
51.25,277.2
51.2554,242.5
51.2579,15.6
51.266,185
51.2727,18.3
51.3085,90.6
51.3414,253.8
51.3479,416.7
51.3497,89.5
51.3576,163.9
51.3726,108.8
51.3731,20.1
51.3787,369.3
51.3891,87.9
51.3978,295.9
51.4006,344.6
51.4019,135.3
51.4097,114.5
51.4177,18.6
51.4204,138.7
51.4289,591.1
51.4366,15.3
51.4377,439.6
51.4418,188.2
51.4426,98.3
51.4451,221.1
51.4856,107.4
51.4933,105.4
51.4954,76.3
51.5073,18.5
51.5141,101
51.5145,543.4
51.554,61.3
51.5806,133.9
51.584,100.5
51.5862,108.5
51.5885,176.5
51.5972,16
51.6017,415.1
51.6046,525.4
51.6155,181.7
51.6159,17.6
51.6271,323.1
51.6283,17.4
51.633,16.4
51.6719,259.1
51.6727,193.1
51.6864,178.8
51.6919,309.1
51.7165,123.1
51.7386,18
51.75,425.4
51.7928,421.1
51.8107,109.5
51.8114,16.9
51.8275,101.8
51.833,515.8
51.8358,365.7
51.8515,473.1
51.8632,316.7
51.866,16.6
51.8679,18.6
51.8783,83.6
51.8836,181
51.8868,109.4
51.9096,186.6
51.9475,103.8
51.9666,361.3
51.9779,89.7
51.9975,117.9
52.0142,102
52.0297,108.7
52.041,16.6
52.0459,15.1
52.0649,20.1
52.0684,102.8
52.0747,100.1
52.0766,16.5
52.0791,139.5
52.0864,132
52.0866,137.7
52.0931,87.4
52.1034,18.1
52.1039,95.6
52.1205,15.8
52.1441,122.4
52.1462,176.6
52.1504,119.3
52.1513,228.2
52.152,17.6
52.1617,254.6
52.1679,180.8
52.2004,18.7
52.2161,104.2
52.2239,203.8
52.2303,16.1
52.2328,182.8
52.234,558.2
52.2388,16.1
52.2572,229.6
52.2729,138.7
52.2762,290.5
52.28,300.2
52.2857,312.5
52.293,94.8
52.2963,16.6
52.3116,471.7
52.3342,91.4
52.3371,295.9
52.3386,219.7
52.3465,134.5
52.3713,438.5
52.3821,491.6
52.392,634.4
52.3981,647.4
52.3998,262.7
52.415,136.4
52.423,253.1
52.4325,88.3
52.4356,249.3
52.4359,318.8
52.4432,163.9
52.4438,134.3
52.4499,296.8
52.4632,174.2
52.4686,405.9
52.4904,116.2
52.491,247.2
52.4922,91.5
52.5004,318.1
52.5036,320.5
52.5066,283.1
52.5196,210.6
52.5249,165.7
52.5457,17.9
52.5483,406
52.5557,90.7
52.5586,16.5
52.563,84.8
52.5634,15.9
52.5743,359.2
52.5819,436.2
52.5839,189.8
52.5857,523.6
52.5874,128.8
52.5921,283
52.5965,116.1
52.6039,399.9
52.6249,179.9
52.6306,187.7
52.6544,16.8
52.6597,115.6
52.6801,327.9
52.681,148.8
52.7061,274.3
52.7091,296.9
52.7206,391.4
52.7381,15.8
52.7413,199.5
52.7442,17.6
52.7484,117.4
52.7638,59.1
52.7647,588.2
52.768,305.8
52.7713,350.9
52.7756,151
52.8129,310.5
52.8265,1015
52.8278,701.4
52.8282,446.2
52.8285,1085.6
52.829,1962.2
52.8295,685.7
52.8299,951.5
52.8309,912.2
52.8314,525
52.8318,585.1
52.8328,1743
52.834,344.5
52.8394,100.8
52.8454,148.2
52.8542,179.7
52.8665,564
52.8689,332.9
52.883,18.3
52.8851,95
52.9004,592.5
52.9019,284.7
52.9092,361.5
52.935,95.7
52.9421,314.8
52.9427,419.5
52.9431,173.9
52.9532,563.1
52.9539,239.1
52.9674,168.5
53.0127,128.5
53.0284,425
53.0384,254.3
53.0468,88.6
53.0596,120.6
53.0667,138.3
53.0854,101
53.0902,16.9
53.0977,415.5
53.0982,111.7
53.1244,456.6
53.1265,84.8
53.1309,485.7
53.1368,107.9
53.1462,468.3
53.1582,115.1
53.1787,120.6
53.1808,15.5
53.1856,21.1
53.1875,616.9
53.1947,227.3
53.2024,142.5
53.2337,150.9
53.261,115.6
53.279,291.1
53.2855,323.6
53.2991,143.1
53.3017,439.9
53.3032,386.2
53.308,167.3
53.3132,108.4
53.3138,121.9
53.3226,134.7
53.3233,22.3
53.3286,107.5
53.3322,59.9
53.3732,199.2
53.3751,523
53.3768,265.7
53.3885,193.8
53.4079,15.5
53.4109,16.8
53.4153,60
53.4185,89.9
53.4331,104.9
53.4513,108.1
53.4586,442.3
53.4924,427.6
53.4996,102.1
53.5008,138.3
53.5029,136.4
53.5046,223.3
53.5067,487.8
53.5075,82.3
53.5173,585.9
53.549,313.7
53.5534,143.2
53.5631,186.8
53.5675,302.9
53.5689,150.7
53.5725,92.8
53.58,329.4
53.5869,505.1
53.5903,215.3
53.5914,109.5
53.5923,462.3
53.5932,269.5
53.6121,292.6
53.6136,178.8
53.6262,313.5
53.6382,119.6
53.6386,18
53.6445,390.6
53.6583,144.3
53.6695,206.1
53.6967,275.7
53.7001,113.3
53.7057,16.4
53.7079,212.8
53.7164,121
53.7403,261
53.743,102.5
53.7599,222.4
53.762,55.1
53.7637,53.6
53.7818,186.6
53.7827,169
53.7853,130
53.8129,135.2
53.8232,402.4
53.8497,299.2
53.855,91.6
53.8673,161.2
53.8681,125.3
53.8684,422.2
53.8972,103.2
53.9007,108.3
53.9066,462.5
53.9082,123.5
53.909,467.9
53.9207,187.6
53.9238,320.1
53.9343,276.2
53.9459,103.7
53.9471,143.3
53.9486,17.1
53.9574,222.2
53.9583,410.4
53.9588,427
53.9688,108.3
53.9714,19.8
54.0029,164.1
54.0092,652.3
54.0162,167.1
54.0174,224.9
54.0241,20.4
54.0618,17
54.0714,133.9
54.0735,272.3
54.0864,272.5
54.0918,209.2
54.094,128
54.0976,132.4
54.1128,146.2
54.1331,294.3
54.1405,220.4
54.1505,179.4
54.1651,16.1
54.1691,18
54.1892,199.1
54.2017,17
54.2184,99
54.2195,250.9
54.2307,151.6
54.2491,309.5
54.2533,15.6
54.2794,182.4
54.2891,353.3
54.2979,16.3
54.2992,271.5
54.3049,132.4
54.325,91.6
54.3345,95.1
54.3387,352
54.3576,16.2
54.3649,103.8
54.3681,111.4
54.3735,495.9
54.3804,150
54.3834,16.1
54.3947,92.4
54.3967,404.2
54.397,391.9
54.4004,95.5
54.4046,372
54.4222,17.6
54.4627,158.1
54.4669,130.6
54.4818,89.1
54.485,102.1
54.4895,110.3
54.5005,388.7
54.5046,409.7
54.5052,20.7
54.5132,204.8
54.5253,372.6
54.5282,131.7
54.5376,218.3
54.5466,82.6
54.5684,108.1
54.5686,103.2
54.5882,99.6
54.5955,327.8
54.6008,395.2
54.6011,413.6
54.611,388
54.6241,333.2
54.6368,79.3
54.6377,147.1
54.6388,387.1
54.6529,590.9
54.6603,78.2
54.6724,202.3
54.6727,110.2
54.7399,60.8
54.7526,207.4
54.7801,82.2
54.7934,244
54.7989,16.2
54.8264,16.3
54.8298,156.1
54.8438,572.6
54.8443,327.1
54.8562,18.9
54.8615,612.8
54.8944,281.6
54.906,226.1
54.9162,78.2
54.9249,234.5
54.9382,127.6
54.9437,147.8
54.9591,287.2
54.96,210.9
54.9608,375.1
54.9647,99.9
54.9758,470.2
55.0136,177.7
55.0311,473.3
55.0487,163.4
55.0838,233.2
55.1279,99.2
55.1368,481.6
55.1462,659.6
55.1527,171.5
55.1549,400.7
55.165,317.5
55.171,20.5
55.1718,233.4
55.173,15.4
55.1793,337.8
55.1844,20.1
55.204,257.9
55.2147,265.9
55.2152,428.5
55.2176,16.1
55.2236,366.3
55.2244,341.8
55.2417,18.8
55.2526,18.9
55.2555,270.2
55.257,246.4
55.2626,149.8
55.2839,391.8
55.2914,95.5
55.3065,20.1
55.3086,669.6
55.312,237
55.325,109.9
55.3498,15.8
55.3734,395.6
55.3772,270.8
55.3917,300.5
55.3935,446.9
55.4075,438.2
55.4222,279.8
55.4526,153.1
55.4562,96.9
55.4603,17.7
55.4939,17.5
55.4958,389.7
55.5171,88.5
55.5314,180.9
55.5362,93.1
55.5413,221
55.5471,292
55.5581,456.4
55.5618,16.3
55.5707,259.5
55.5921,611.1
55.6069,17.7
55.6085,301.6
55.6091,217.6
55.6292,161.5
55.6749,130.3
55.6839,276.8
55.6943,16.9
55.6949,174
55.7048,92.8
55.7171,86.8
55.724,122.4
55.7381,896.1
55.7567,325.2
55.7599,16.4
55.7655,255.1
55.7884,167.9
55.7966,343.1
55.7983,252
55.8164,477.4
55.8226,92.7
55.8376,123.3
55.8452,459.6
55.8576,217.5
55.8757,148.7
55.8846,18
55.8865,55.3
55.8873,164.9
55.8886,204
55.9044,99
55.9397,283.1
55.9447,140.7
55.9487,433
55.957,122.9
55.9724,504.6
55.9816,152
56.0284,595.9
56.0475,389.9
56.0479,108.9
56.0502,17.1
56.0557,407.1
56.0561,401.2
56.0564,95.6
56.083,380.6
56.0944,109.2
56.1161,220
56.1196,168.3
56.1226,17.7
56.1299,424.7
56.136,106.3
56.1577,402.8
56.1591,135.2
56.1631,261.8
56.1958,168.5
56.215,104.4
56.2288,143
56.2438,510.6
56.2455,534.1
56.2474,210.2
56.2532,322.2
56.2643,21.6
56.271,348.6
56.2763,259.8
56.3075,16.7
56.3111,109.2
56.3239,114.9
56.348,181.8
56.3632,16.3
56.3652,86.3
56.366,240.9
56.3753,633.9
56.3779,177.1
56.4164,88.1
56.4256,583.4
56.4409,313.5
56.4434,99.7
56.466,399
56.4848,308.3
56.489,140.3
56.4973,397
56.4999,102.8
56.5014,457.9
56.5198,108.9
56.5278,234.6
56.5357,542.9
56.5452,17.2
56.5475,143.3
56.5665,353.3
56.5719,83.9
56.6126,306.3
56.6151,16.5
56.6165,171.4
56.6344,176.4
56.6415,108.1
56.6439,290.2
56.6445,139.7
56.6457,82.7
56.6617,568.2
56.6734,251.7
56.6817,149.7
56.7341,250.7
56.7376,19.5
56.7385,401.9
56.74,18.1
56.7419,418.3
56.745,22.4
56.7467,394
56.7474,363.4
56.7552,142.4
56.766,393.2
56.7682,702.9
56.7831,332.1
56.79,101.1
56.7922,160
56.7937,127.2
56.7957,192.3
56.8209,469.4
56.8217,386.4
56.8247,92.8
56.8305,92
56.8595,142.5
56.8637,262
56.8717,111.6
56.8784,289.8
56.8895,248.7
56.8948,50.7
56.8959,220
56.9213,293.3
56.9235,532.9
56.9268,450.8
56.9357,18.3
56.9389,858.8
56.9434,226.6
56.9549,15.4
56.9772,21.6
56.9833,102.6
57.0028,273.7
57.0301,297.5
57.0325,191.1
57.036,548.5
57.0378,433.3
57.0389,125.9
57.041,600.1
57.0548,98.5
57.0635,155.9
57.065,231.8
57.0914,18.5
57.0935,105.8
57.0937,107.3
57.0939,116.3
57.1334,171.5
57.1347,152.5
57.1466,308
57.1581,115.8
57.1946,104
57.2053,483.3
57.2157,216.6
57.2325,104.8
57.2397,150.5
57.257,679
57.31,98.1
57.3185,310.5
57.3523,18.7
57.3938,112.8
57.3944,298.5
57.4176,217.9
57.4189,496.4
57.4204,306.5
57.4214,324.7
57.4287,196.6
57.4299,587
57.4429,223.8
57.4488,150.2
57.4762,218.4
57.4943,625.6
57.5092,111.1
57.5157,436.2
57.5229,105.9
57.5274,198.5
57.5398,15.1
57.5544,104.7
57.5563,277.1
57.5578,238
57.5673,435.1
57.5707,306.2
57.5797,15.1
57.5944,326.4
57.6052,18.3
57.609,476.6
57.6107,276.7
57.612,17.8
57.6255,250.5
57.6346,361
57.6397,322.8
57.6514,129.6
57.6619,363.9
57.6747,287.2
57.6798,504.5
57.7192,20.1
57.732,435.3
57.7342,431.3
57.7448,218.7
57.7497,169.5
57.7605,15.6
57.7648,129.1
57.768,19.4
57.7924,18.1
57.8072,103.1
57.8119,264.2
57.8207,264.3
57.8216,189.1
57.8237,91.3
57.8276,308.5
57.8333,346.8
57.8373,224
57.8772,17.4
57.8951,181.5
57.9137,97.1
57.9193,15.6
57.9349,438.5
57.942,238.9
57.9485,16.8
57.9602,468.5
57.9623,192.4
57.982,388.6
57.9833,420.8
58.0026,251.6
58.0118,96.6
58.0302,214.2
58.0526,312.3
58.0543,137.7
58.0624,428.8
58.1109,103.9
58.1114,73
58.114,17.8
58.1159,738.7
58.1228,94.4
58.143,172.8
58.1652,390.8
58.1682,152.3
58.1824,188.9
58.1972,172.3
58.2256,331.9
58.2263,19.5
58.2438,646.6
58.2531,15
58.2711,59.9
58.2781,216.7
58.3448,17.3
58.3475,129.4
58.3493,306.6
58.3688,390.5
58.3701,162.4
58.3767,227.5
58.3801,17.8
58.3821,141.3
58.4139,121.7
58.4195,320.8
58.4223,414.3
58.4337,22
58.4449,676.9
58.4524,180.2
58.4582,308.4
58.4752,211.2
58.4831,82.7
58.4853,348.7
58.5111,537.9
58.5191,142.2
58.5218,372
58.532,103.3
58.5412,206.8
58.55,99.8
58.5525,272.6
58.5672,245.8
58.5711,407.3
58.5722,276.8
58.5752,414.3
58.5823,97.7
58.5941,143.2
58.5945,303
58.6094,84.8
58.6124,403.4
58.6234,50.1
58.6554,112.8
58.6912,615
58.7022,125.1
58.7031,662.1
58.7523,55.4
58.7538,289.5
58.7588,464
58.7697,117.8
58.7709,98.8
58.7753,275.7
58.7862,98.5
58.7992,16.7
58.8015,219.8
58.8364,101
58.8524,132.6
58.8576,160.3
58.8678,159.8
58.8847,550.6
58.8874,17.3
58.8903,472.6
58.8917,196.3
58.8963,157.7
58.9027,396.5
58.9218,21.7
58.9299,22.8
58.9532,448.1
58.9586,96.8
58.9709,215.6
59.0068,363.1
59.0081,144.7
59.0172,212.8
59.0224,56.4
59.0263,428.9
59.0328,237.4
59.0401,387.4
59.0616,21.9
59.0693,429
59.0732,316.4
59.0815,315.1
59.093,507.5
59.1084,61.8
59.1309,133.4
59.1369,109.3
59.1462,18.5
59.1884,415.5
59.1976,290.1
59.204,215.4
59.2045,204.8
59.2121,108.1
59.2229,457.3
59.2467,185.9
59.2548,215.2
59.2607,315
59.2737,161.4
59.2751,17.7
59.2862,618.6
59.2901,496.8
59.31,494.7
59.3361,84.4
59.3428,168
59.3632,282.3
59.3709,18.5
59.3762,141
59.3953,475.1
59.3964,219.7
59.4015,170.2
59.405,652.1
59.418,219.7
59.419,487.2
59.427,161.6
59.4299,543.4
59.4486,84.4
59.4553,157.4
59.4621,133.4
59.4806,132.6
59.4909,17.7
59.5047,433.9
59.5068,434.6
59.5137,120.5
59.5152,157.7
59.5166,364.2
59.5205,643.6
59.5362,136.8
59.5658,181.6
59.5667,205.8
59.5682,518.3
59.5783,501.5
59.5846,600.5
59.5944,469.9
59.5956,223.2
59.6002,157.3
59.605,453.2
59.6097,330.3
59.6147,256.3
59.6198,75.1
59.6239,131.6
59.6268,225.7
59.6349,600.2
59.6381,110.9
59.6387,183.2
59.6421,387.6
59.6466,105
59.6607,469.4
59.665,284.5
59.6796,16.9
59.6956,16.6
59.7012,110.5
59.7057,169.7
59.7376,375.9
59.7547,16
59.7553,645
59.7564,104.6
59.7721,118.3
59.7729,567.4
59.7788,96.7
59.7974,108.6
59.8059,207.7
59.8135,128.8
59.8217,130.7
59.8262,678.1
59.8468,340.7
59.8566,203.5
59.8581,492
59.8625,272.5
59.8716,83.9
59.8978,115.4
59.8997,476.4
59.9029,595.1
59.9177,579.8
59.9214,114.5
59.9285,188.1
59.9405,80.3
59.9418,240.6
59.9478,187
59.9483,196.3
59.9724,426
59.9839,19.6
59.9936,185.8
59.9992,404.9
60.0011,255.5
60.0081,740
60.0123,512.7
60.0255,114.5
60.0276,276.6
60.0382,129.1
60.0425,111.2
60.0448,261.9
60.0533,110.3
60.0601,471.2
60.0664,163.6
60.0737,142.5
60.0871,238
60.0924,248
60.0978,178.8
60.0982,242.2
60.1188,168.8
60.1218,136.5
60.1245,72.3
60.1321,263.3
60.1356,214.3
60.155,16.1
60.1561,419.8
60.1592,108.8
60.1653,496
60.1797,93.2
60.1878,779.1
60.1924,132.3
60.1954,151.2
60.2011,137.6
60.2211,181.3
60.2257,333.8
60.2469,200.5
60.2501,17.7
60.2519,22.5
60.2629,137.5
60.2712,292.7
60.2996,125.8
60.318,151.6
60.3216,16.9
60.3317,17
60.3425,510.7
60.347,80.2
60.3477,15.1
60.362,100
60.3851,18.4
60.387,143.4
60.3943,15.5
60.3957,77.6
60.4017,368.3
60.4093,486
60.4391,345
60.441,16.8
60.4464,171.4
60.4557,410.2
60.472,358.8
60.4724,18.4
60.4737,102.4
60.4791,128.2
60.4864,292.9
60.4865,247.9
60.4994,127.7
60.5038,16.9
60.5068,133.1
60.5214,75.5
60.5392,230.4
60.5403,112.4
60.5503,228.9
60.5622,642.7
60.5648,135.9
60.5706,97.7
60.5753,712.2
60.5779,19.1
60.593,94.4
60.6052,90.9
60.6084,52.1
60.6358,102.5
60.6416,75
60.6443,124.7
60.6617,62.6
60.6686,183.4
60.6776,111.1
60.6783,620.8
60.6857,500.1
60.6885,96.1
60.6893,82.7
60.6972,486.4
60.7024,103.7
60.7088,424.3
60.7153,203.1
60.7165,115.2
60.7586,18.4
60.7625,15.9
60.7722,499
60.7732,583.3
60.7776,243
60.7792,169.7
60.7803,238.5
60.7851,165
60.8096,86.3
60.8101,497.9
60.8198,224.6
60.8272,470.4
60.8329,289.6
60.8397,166.7
60.8523,364.7
60.8764,130.2
60.8838,284.5
60.8853,15.9
60.8933,309.1
60.9059,181.6
60.9152,493.7
60.9214,246.5
60.9374,314.3
60.946,435.9
60.9533,138.8
60.9902,231.3
61.0019,489.9
61.0135,58.5
61.0293,308.6
61.0622,18.5
61.0683,222.8
61.0933,416.5
61.0943,78.8
61.1001,142.3
61.104,442.4
61.106,487.5
61.1108,97.4
61.1166,406.7
61.1397,257.3
61.1481,137.3
61.1624,203.7
61.1966,459.7
61.2085,131.2
61.2116,363.2
61.251,119.9
61.2571,16.8
61.2628,663.9
61.2713,241.9
61.284,18.8
61.2917,16.5
61.301,173.1
61.3029,18.1
61.3363,143.5
61.339,93.3
61.3406,266.3
61.3449,218.4
61.3463,94
61.348,113.6
61.3563,112
61.3622,357.9
61.3797,334.3
61.3852,588
61.3855,509.8
61.3883,125
61.3976,400.1
61.4533,487.9
61.4646,492.6
61.4657,62.5
61.474,84.6
61.4783,205.4
61.4944,124
61.5105,87.5
61.5113,668.9
61.5207,217.6
61.5333,313.2
61.5821,159.2
61.6203,652.9
61.6218,63.9
61.6529,148.6
61.6732,90.9
61.7243,429.3
61.726,150.6
61.7581,82.3
61.7642,16.8
61.7648,92.5
61.7667,518.8
61.7739,521.6
61.78,592.1
61.7838,17.6
61.7907,89.2
61.8038,211.3
61.8094,160.5
61.814,424.7
61.8159,442.6
61.8891,316.9
61.8923,96.5
61.8931,404.1
61.914,440.3
61.9305,207.2
61.9484,17.3
61.9544,18
61.9643,159.5
61.9693,91.2
61.9698,479.7
61.9704,17.7
61.9801,218.1
61.9821,19.8
61.9937,106
62.0182,643.6
62.0217,416.4
62.0378,209.6
62.0454,241.7
62.0506,91.2
62.0545,90.5
62.0623,403.1
62.0696,284.9
62.0755,257.1
62.0869,105.2
62.0875,103.5
62.1091,123.8
62.1115,300.8
62.121,174.4
62.1278,186.1
62.153,153.8
62.1551,61.5
62.1704,470.6
62.1727,97.1
62.1949,170.1
62.2152,119.6
62.2335,17.7
62.2411,17
62.2415,173.6
62.2478,268.5
62.2495,223.5
62.253,222.5
62.2638,453.9
62.2707,158.4
62.2727,144.3
62.303,531.8
62.3141,273.4
62.3258,106.1
62.3435,455.8
62.3467,127.6
62.356,213.6
62.3568,310.3
62.3725,121.7
62.4023,134.6
62.418,501.1
62.4235,290.6
62.4348,320.8
62.4879,142.9
62.4895,458
62.5113,429.1
62.5266,408.1
62.5341,311.9
62.5427,219.6
62.5455,484.9
62.547,15.4
62.5472,16.4
62.5535,276.9
62.5852,366.3
62.5961,132.2
62.6194,64.2
62.6305,92.1
62.6662,275
62.6717,98.7
62.68,309.6
62.6916,131
62.6925,154.2
62.7033,17
62.7105,380.1
62.7568,103.6
62.7667,16.5
62.7838,306.6
62.7874,16.4
62.7919,108.9
62.8028,275
62.8078,367
62.8287,141
62.8732,442.5
62.8782,308.2
62.8878,219.8
62.8924,118.3
62.8959,17.6
62.8997,201.7
62.9017,513.7
62.9198,285.7
62.9259,169.8
62.9314,400.4
62.9659,16
62.9772,165.1
62.9806,117.4
62.988,16.5
62.9931,226.2
63.0117,103.4
63.0392,351.1
63.0417,464.5
63.0572,416.8
63.1108,122.1
63.1355,17.8
63.1517,507.7
63.1649,174.5
63.1727,16
63.1884,156.5
63.1972,133
63.1995,555.3
63.2296,312.4
63.2358,110.6
63.238,414.5
63.2617,470.8
63.2646,17.3
63.2661,96.1
63.2696,205.3
63.2717,228.2
63.2773,120.1
63.2963,328.5
63.303,1102.2
63.3379,114.2
63.3623,405.8
63.3813,87.2
63.3943,139.3
63.4004,140.9
63.4098,586.4
63.4255,20.3
63.4416,299
63.4418,286.6
63.4586,113.7
63.4592,472.6
63.4623,548.8
63.4816,402.2
63.4866,16.7
63.4995,441.5
63.531,148.3
63.5339,159.1
63.5445,599.1
63.5921,19.3
63.598,439.7
63.6128,111.8
63.617,88.3
63.62,141.9
63.6217,16.4
63.6394,133.9
63.6457,492.4
63.6518,459.3
63.6538,689.9
63.6543,17.1
63.6661,655.2
63.6686,17.8
63.6844,257.4
63.7113,154.2
63.7142,348.9
63.7358,18.5
63.7398,92.7
63.7644,383.7
63.7812,240
63.7841,166.6
63.7851,337.6
63.794,300.7
63.8093,270.8
63.8355,296.6
63.8408,127
63.8411,256.2
63.8413,243.5
63.843,668.6
63.8437,214.9
63.8438,211.5
63.8441,123.4
63.8497,160.3
63.8641,18.9
63.8675,270.6
63.9147,94.5
63.9195,17.1
63.9207,439.8
63.9337,319.5
63.9398,122.6
63.9479,529
63.9543,379.2
63.9636,165.8
63.9658,389.7
63.9663,19
63.9712,18.2
63.985,138.5
63.989,524.9
64.0086,559.2
64.0106,117.9
64.0157,18.6
64.0331,247.7
64.0512,238.5
64.0639,100.1
64.0764,329.3
64.0799,297.8
64.0841,475.3
64.0846,113.1
64.0947,101.5
64.0969,87.9
64.0974,203
64.1152,435.9
64.157,216.4
64.166,107.9
64.1745,745.1
64.1813,127.5
64.1954,99.6
64.2033,348.5
64.2168,84
64.2228,458.8
64.2244,364.8
64.2366,122.4
64.2407,269.2
64.2486,198.5
64.2546,16
64.2641,353.4
64.2654,347.6
64.2674,293.5
64.2846,90.5
64.3076,494.9
64.3113,277.8
64.3499,373.6
64.3577,296.6
64.3649,110.4
64.3746,199.3
64.3765,190.4
64.3854,165.8
64.4094,139.5
64.4247,455.5
64.4401,460.9
64.4961,66.4
64.5139,336
64.5247,102.4
64.5469,218.8
64.5522,686.4
64.5553,357.8
64.565,17.3
64.5665,140.6
64.5703,86
64.5905,390.9
64.6097,285.8
64.6229,215.9
64.6233,197.2
64.6279,997.2
64.6373,21.8
64.6436,91.5
64.6477,351.9
64.65,359
64.6536,175.1
64.6623,441.2
64.67,86.1
64.6734,138.5
64.6978,524.2
64.7044,179.7
64.7116,114.3
64.714,17.6
64.7163,371
64.7338,119.9
64.7527,181.9
64.7982,232.9
64.7994,530.2
64.8162,690.3
64.8282,160.5
64.853,645.1
64.8559,108.4
64.8658,580.6
64.8695,340.5
64.8775,221.2
64.9036,452.1
64.9397,83.7
64.9643,99.8
64.977,85.7
64.981,210.1
64.9824,20.3
64.9897,18
64.9995,171.9
65.0049,147.6
65.016,15.9
65.0171,423
65.0262,278.5
65.0301,213.7
65.0307,210.5
65.0315,66.5
65.0322,20.5
65.0355,307.2
65.0416,91.1
65.0422,312.7
65.0485,132.9
65.0718,100.5
65.082,166.6
65.0854,199.7
65.1185,131.4
65.1205,282
65.1294,93.4
65.1407,207.8
65.1518,17.5
65.156,354.6
65.1857,851
65.1868,314.1
65.2271,25.3
65.2436,113.3
65.2512,325.3
65.2554,197.5
65.2627,17.6
65.2911,630.1
65.2941,405.7
65.3192,17.4
65.3209,454.8
65.324,115.7
65.3604,98.2
65.3855,330.4
65.3909,226.1
65.397,205.1
65.4091,102.8
65.4114,15.9
65.4293,17.5
65.4491,295.6
65.4507,359.7
65.486,659.7
65.4941,133.2
65.5131,19.9
65.5309,314.2
65.5496,18.8
65.5613,527
65.564,284.9
65.5729,354.3
65.5879,122.6
65.6138,385.8
65.6549,344.8
65.6555,206.2
65.6836,18.9
65.7076,253.1
65.7162,453.3
65.717,970.7
65.7339,700
65.7379,115.9
65.741,96.3
65.749,106.6
65.7545,93.4
65.7554,115.4
65.7955,93.3
65.7967,502.5
65.8042,69
65.8373,101.5
65.8495,105.2
65.8574,505.2
65.8658,620.1
65.9412,91
65.9508,375.2
65.9527,20.7
65.956,19.7
65.9678,116.2
65.969,512.8
65.9728,491.3
65.9772,199.5
65.9783,119.9
65.982,482
66.0094,380.9
66.0113,671.9
66.027,255.9
66.049,88.8
66.0844,110.2
66.1101,111.4
66.1216,382.2
66.1252,94.5
66.1391,100
66.1399,589.7
66.1533,100
66.1555,150.4
66.1579,128.9
66.1655,307.5
66.1888,210.4
66.2332,92.4
66.2408,119.7
66.2456,627.5
66.2545,82.6
66.2927,409.9
66.3047,441.1
66.3114,483.9
66.3276,17
66.3318,476.1
66.3617,113.1
66.376,284.2
66.4023,15.9
66.4045,362.3
66.4104,351.3
66.4188,18.4
66.4793,320.4
66.4919,546.7
66.5069,20.3
66.5136,320.8
66.5236,417.6
66.5352,125.5
66.541,86
66.5455,278.6
66.5704,155.4
66.5797,238.1
66.5831,117.3
66.5923,91
66.6092,499.5
66.6195,90.3
66.6296,97.4
66.6418,16.7
66.6423,326.5
66.6544,200.9
66.6736,426.1
66.6748,17.2
66.6805,59.1
66.6848,236.5
66.687,473.6
66.7049,139.4
66.7113,82.5
66.7235,133
66.7249,18.7
66.732,169
66.7506,18
66.754,348
66.7576,109
66.7776,412.9
66.7781,239.4
66.8035,247
66.8046,150.1
66.8076,454
66.8152,131.1
66.8175,19.5
66.8387,16.4
66.8565,199.8
66.8667,188.6
66.8826,97.1
66.9207,648.3
66.9343,755
66.9497,242.5
66.9529,282.5
66.9574,107.4
66.9675,19.7
66.972,95.3
66.978,273.7
66.9913,164.2
66.9931,413.7
66.9981,140.7
67.0183,85.2
67.0294,94.3
67.0355,19.2
67.0399,234.8
67.0652,18.7
67.0724,163.2
67.079,245.4
67.1188,206.9
67.1396,114.7
67.1443,314.6
67.1463,106
67.1667,189.2
67.1939,144.6
67.1976,58.7
67.2112,478.2
67.2159,101.7
67.2353,82
67.2434,681.3
67.3022,597.1
67.3169,501.2
67.3244,97.7
67.3293,389.3
67.3381,278.6
67.3465,253.7
67.349,234.5
67.3566,430.7
67.3574,195.6
67.3618,104.6
67.3881,406.6
67.4122,229.1
67.4267,235.3
67.4303,486.2
67.4383,420.1
67.4498,204.7
67.4579,19.2
67.4596,104.6
67.5073,159.1
67.5166,449.3
67.5474,16.3
67.558,63.4
67.563,294.9
67.5652,318.4
67.5736,315.4
67.5807,123.5
67.5966,21.6
67.6107,102.7
67.6164,398.9
67.6261,673.7
67.6378,132
67.6383,570.9
67.6512,18.2
67.6576,426.8
67.6647,158.4
67.679,318.3
67.6822,114.9
67.6827,428.5
67.7148,318.6
67.7187,123.1
67.7223,120.2
67.7275,214.5
67.7347,60.3
67.7839,514.8
67.7886,135.2
67.8229,505.8
67.8334,142.8
67.8451,83.4
67.8461,184.9
67.86,130.5
67.878,126.6
67.9073,327.9
67.9102,144.4
67.9209,559
67.9273,374.5
67.9344,62.3
67.9496,16
67.9524,137.6
67.9533,157.2
67.9551,200.1
67.9643,281.5
68.0114,273.6
68.0333,494.7
68.035,572
68.0419,477
68.0559,382.6
68.0748,226.8
68.0931,173.6
68.1608,124.5
68.1818,223.5
68.1855,418.5
68.2036,110.7
68.2057,88
68.2171,17.1
68.268,127.3
68.2755,410.6
68.2875,691.2
68.3038,15.9
68.3083,18.4
68.31,136.5
68.3271,359.4
68.3618,206.9
68.3694,290
68.3726,322.4
68.3832,487.2
68.3893,394.7
68.4077,135.1
68.4195,187.5
68.4366,259.2
68.441,538.2
68.4574,127.1
68.4873,148.7
68.5224,298.8
68.5245,175.3
68.5339,105.1
68.542,655.4
68.5444,114.8
68.5511,160.3
68.5755,152.7
68.5761,209.7
68.5799,646.6
68.5953,234.5
68.6094,96.2
68.6122,119.3
68.6273,170.4
68.6827,132.7
68.6851,133.4
68.6878,601.4
68.6895,642.1
68.6914,439.2
68.7076,15.2
68.7236,116.3
68.7327,207.8
68.7749,96.2
68.7783,252
68.8317,186.4
68.8531,56.1
68.8607,63.1
68.8658,123.7
68.8719,439.2
68.8841,478.6
68.8937,98.8
68.8956,99.3
68.9083,90.4
68.9103,421.6
68.9191,169.7
68.9281,150.3
68.9357,299.3
68.9407,119.7
68.9425,90.6
68.9504,750.7
68.9666,183.1
68.9758,280.6
68.9797,17.2
68.9818,131.5
68.9864,18.1
68.9885,468.5
69.0085,137
69.016,238.2
69.0194,192.1
69.0414,249.2
69.0513,255.9
69.0521,166.9
69.0654,87.9
69.1811,250.7
69.1892,241.7
69.2022,193.9
69.2042,104.8
69.2076,426.6
69.2119,662.2
69.2501,19
69.2778,159
69.2891,108.7
69.316,455.5
69.3168,108.9
69.3279,128.8
69.3346,16.1
69.3504,101.3
69.3718,375.8
69.3759,481.8
69.4087,20
69.4185,57.5
69.4368,127
69.4378,279.6
69.4538,170.9
69.4586,132.6
69.4639,130.4
69.4655,383.3
69.4779,657.7
69.498,16.6
69.512,271.1
69.5217,425.9
69.5284,374.5
69.5733,560.2
69.5758,362
69.5817,101.8
69.5886,144.9
69.5959,108.1
69.5987,111.8
69.6389,528.5
69.6453,794.5
69.6544,210.4
69.6733,546.3
69.6818,387.8
69.7065,98.2
69.7938,97.5
69.7955,197.9
69.7972,162.4
69.8241,229
69.8643,17.7
69.8648,682
69.8726,16.4
69.8864,499
69.9506,402.3
69.9509,407.5
69.9585,326.1
69.9661,210.7
69.975,60.9
69.9809,94.1
69.9895,20.5
70.0309,290.7
70.0389,240.3
70.061,140.3
70.0779,113.6
70.0834,22
70.0858,188.5
70.0873,550.3
70.1447,235.3
70.146,107.8
70.2086,18.1
70.2111,331.8
70.2232,215.4
70.2262,20
70.2313,141.8
70.2384,302.3
70.2567,98.6
70.2789,20.5
70.28,315.2
70.2995,478.3
70.3241,124.2
70.3479,124.8
70.3613,281.3
70.3658,96.7
70.3781,121.1
70.386,18.6
70.3884,157.2
70.3988,105.7
70.4113,108.1
70.4591,340.6
70.4653,461.6
70.4692,220.7
70.4894,115.9
70.4901,498
70.5162,296.4
70.5196,208
70.5395,65.3
70.5412,118.3
70.5613,487.4
70.5843,314.7
70.5988,319.2
70.6084,23.7
70.6162,20.1
70.6295,188.7
70.6523,19.3
70.6753,463.1
70.681,130.2
70.6834,181.1
70.6949,409.7
70.6985,256.6
70.7047,165
70.7102,87.5
70.7199,267.8
70.7222,414
70.7396,17.7
70.7426,302.6
70.7571,186.1
70.7596,123.4
70.7869,18.3
70.7976,79.8
70.8194,21.4
70.8215,109
70.8435,102.1
70.8639,16.2
70.8777,147.7
70.8814,165.4
70.8833,312.2
70.9113,16.6
70.9338,492.6
70.9789,62.6
70.9818,119.7
71.0326,386.6
71.0566,325
71.0643,18.9
71.0766,16.3
71.0879,188.2
71.0911,465.3
71.1041,19.5
71.1163,17.5
71.1307,441.9
71.1462,123.9
71.1688,458.4
71.1892,478.1
71.1918,22.7
71.1998,311.6
71.2056,129.1
71.2229,241.3
71.2329,17.1
71.2906,289.1
71.2928,109.9
71.3066,95
71.3271,121.7
71.3483,226.6
71.3955,596.6
71.4087,222.6
71.4378,17.1
71.4524,98.6
71.4633,243.7
71.4782,398.1
71.4922,83.7
71.495,290.7
71.5021,90.2
71.5496,208.4
71.5808,62.5
71.6073,141
71.6185,465.7
71.6253,16.7
71.6551,191
71.6741,254.2
71.6919,306.4
71.6931,133.9
71.7057,15.9
71.7144,130.9
71.722,315.4
71.7363,17.3
71.7426,217.1
71.7665,293.6
71.7849,343.3
71.8022,17.1
71.8217,201.5
71.8258,198
71.8331,217.8
71.8372,534.7
71.8753,216.1
71.8847,127.6
71.8876,534.2
71.9163,169.6
71.9348,221.9
71.939,19.9
71.9466,95.8
71.9569,61.2
71.9643,451.1
71.9838,157.9
71.9903,296.8
72.0276,605.4
72.039,93.8
72.0566,226.6
72.0582,149.3
72.0587,635.7
72.0804,846.7
72.1107,299.8
72.1512,365.9
72.1704,16.8
72.1856,250.6
72.1902,15.9
72.1954,72.3
72.2008,179.2
72.2022,161.6
72.2109,406.7
72.2233,137.9
72.2239,183.9
72.2247,135.9
72.2258,136.8
72.2264,174.5
72.2279,611.5
72.2285,725.3
72.2292,1260.7
72.2301,513.6
72.2314,758.4
72.2328,422.4
72.2339,1893.6
72.2353,1097.6
72.2356,803.2
72.2362,1430.9
72.237,1297.9
72.2373,992.3
72.2377,717.2
72.2382,1258.3
72.2387,1439
72.2402,2524.2
72.2405,2631.3
72.2412,2573.8
72.2419,1614.3
72.2425,1748.1
72.2433,3641.1
72.2449,4303.4
72.2459,3273.6
72.2471,1575.8
72.2474,1581.9
72.2479,1428
72.2491,2038.4
72.2498,794.2
72.2505,1754.4
72.2514,804.8
72.2528,2001.7
72.254,447.6
72.2551,1588
72.2563,122.5
72.2747,17.1
72.2914,199.7
72.2962,297.5
72.3072,522.5
72.3132,711.6
72.331,321
72.3391,120
72.3417,17.4
72.3538,180.2
72.3683,149.5
72.3767,212.3
72.3782,85.2
72.3975,16.7
72.4218,162.3
72.4238,407.5
72.4371,310.2
72.468,181.8
72.4837,340.2
72.5138,178.9
72.5435,237.1
72.545,121.3
72.5626,104.7
72.5765,257.5
72.5802,20.1
72.5921,481
72.5992,653.5
72.6107,340.1
72.6256,411.2
72.6399,437.4
72.6549,398.4
72.6595,309.6
72.6929,225.7
72.7318,376.9
72.7324,101.7
72.7394,354.4
72.7449,293.8
72.7462,301.3
72.8248,437.5
72.8581,151.9
72.8604,538.8
72.8634,117
72.8836,16.7
72.9098,20.6
72.9368,74.9
72.9495,123.8
72.9608,17
72.9651,412.8
73.0202,428.2
73.0383,123.5
73.0441,320
73.0599,416.2
73.0677,137.1
73.0968,90.8
73.1069,316.9
73.1208,340.4
73.1496,359.5
73.1506,498
73.2222,171.7
73.2272,304.5
73.2537,18
73.2682,474.5
73.2806,287.8
73.2948,337.6
73.3113,20.9
73.3207,495
73.3287,18.8
73.3375,478.4
73.3463,280.5
73.3531,296.4
73.3635,124.9
73.3728,89.6
73.3793,391.1
73.406,680.8
73.4069,734.1
73.4181,88.9
73.4334,362.1
73.4367,101.7
73.4496,649.1
73.4597,241.8
73.5039,159.2
73.5342,301.4
73.5387,17.5
73.5482,442.3
73.553,541.1
73.5881,371.1
73.5941,313.7
73.6039,305.3
73.6063,283.1
73.64,17.7
73.6448,109.7
73.6482,64.2
73.6509,120.5
73.6654,294
73.6708,106.8
73.672,386.9
73.7282,267.5
73.7421,485.7
73.7462,649
73.7535,205.9
73.7752,472.3
73.789,122.7
73.7947,113
73.8124,113.8
73.8245,18.7
73.8414,264.3
73.8492,131
73.8629,702.7
73.8781,18
73.9314,363.5
73.9453,194.5
73.948,579.1
73.9735,472.2
73.9756,127
73.9822,301.5
73.9848,93.4
73.9919,17.6
74.0129,655.7
74.0139,59.7
74.0192,139.2
74.0199,114.2
74.0465,194.3
74.0516,398
74.0571,125.2
74.0598,2250.7
74.0697,524.9
74.1055,92.5
74.1103,120.7
74.1268,17.3
74.13,298.9
74.1743,383.8
74.1898,284.5
74.1932,54.9
74.2051,15.9
74.2076,115.5
74.2106,125.5
74.2279,103.7
74.2526,164.3
74.2637,713.1
74.2797,211.9
74.2924,382.9
74.3117,368.8
74.321,583.8
74.3247,281.2
74.3263,491.2
74.3307,289.4
74.3373,202.7
74.3465,605.8
74.349,418
74.3585,104.7
74.3656,297.9
74.3788,536.4
74.3807,539
74.389,90
74.419,102
74.426,90.2
74.456,263.1
74.4568,96.6
74.5141,85.2
74.5177,417.3
74.5236,144.3
74.563,770.1
74.57,169.8
74.5706,137.8
74.5772,320.8
74.5819,362.6
74.6001,559
74.6208,195
74.6489,829.3
74.6638,64.1
74.7019,16.8
74.7226,97.3
74.7599,15.3
74.7743,151
74.7752,149.9
74.7792,508
74.7865,233.1
74.7878,61.6
74.7982,295.6
74.8425,234.9
74.8524,18.2
74.8966,124.5
74.9131,132.4
74.9224,433.5
74.9258,181.6
74.9411,447.2
74.9577,299.5
74.9679,86.3
75.0219,320.3
75.029,326.4
75.0341,587
75.0437,16.6
75.0613,184.4
75.0883,445.6
75.0903,121.7
75.0989,180.2
75.1146,373.6
75.1157,169.3
75.1569,492.2
75.1703,843.3
75.1715,90.4
75.1998,19.7
75.2037,99.7
75.2053,197.6
75.2185,306.9
75.2265,312.5
75.2352,97.5
75.2655,17.7
75.2803,482.6
75.3013,181.7
75.31,230.2
75.3213,20.7
75.323,487.7
75.343,96.6
75.4038,491.2
75.4301,407.8
75.4443,352.4
75.4612,95.8
75.4697,237
75.4718,137.1
75.4818,19.7
75.4835,17.7
75.5295,150.3
75.5406,283.2
75.5586,701.3
75.5793,16.6
75.5868,348.4
75.6014,20
75.6468,361
75.658,211.2
75.664,166.6
75.6886,96.1
75.7194,591.6
75.7256,251.9
75.7338,486.4
75.7384,886.9
75.747,327.3
75.7924,20.1
75.7952,99.8
75.805,176.1
75.8104,17.9
75.8137,325.4
75.8162,163.5
75.8197,17.6
75.8468,125.1
75.857,17.5
75.8659,444.7
75.872,168.7
75.8796,253.1
75.8814,95.5
75.8849,19.6
75.9066,94.1
75.9094,18.5
75.9428,102.3
75.9632,269.5
76.0525,212.9
76.0717,344.5
76.0908,567.2
76.1147,102
76.1473,145.4
76.1592,16.6
76.1618,358.2
76.1855,428.8
76.3241,162.2
76.3348,195.5
76.3431,224.9
76.3568,183.5
76.3576,109.3
76.362,225
76.3789,17.6
76.4111,163.1
76.5065,707.8
76.5179,174.7
76.5325,108
76.5427,456.4
76.5483,308.9
76.5507,88.4
76.5743,412.2
76.6029,430.6
76.6158,689.1
76.6375,88.3
76.6668,116.5
76.7012,380.8
76.7021,112.1
76.7313,168.7
76.7539,200.7
76.7608,98.6
76.7892,237.5
76.8258,182
76.8394,136.9
76.8471,104.8
76.8755,149.7
76.8869,298.1
76.8876,418.5
76.9211,456.8
76.9217,115.6
76.9392,198.4
76.9408,189.4
76.9413,208.3
76.9483,262.1
76.9787,20.3
76.9837,245.3
76.9852,415.1
76.9864,558
77.0245,264.4
77.0311,19.1
77.0352,507.5
77.0383,108286
77.0432,355.7
77.0504,195.3
77.0839,90.7
77.0879,308.9
77.1182,97.4
77.1362,113.2
77.1393,99
77.1471,340.2
77.1601,221.4
77.1623,18.4
77.1791,15
77.1812,61.4
77.2016,438.5
77.2194,481.6
77.238,23.2
77.2585,197.9
77.2709,55.3
77.2797,229.4
77.2927,368.9
77.3082,16.8
77.3261,126.7
77.3584,98.2
77.3986,120.4
77.4135,189.1
77.4178,325.3
77.4354,409.5
77.4395,203.1
77.4461,17.2
77.448,93.1
77.4827,281.6
77.4847,336.6
77.4961,347.8
77.501,397.8
77.5028,135.1
77.5336,264.2
77.5616,210.2
77.5857,18.2
77.6217,297
77.6506,160.1
77.6562,264.6
77.6605,54.6
77.6974,358.3
77.727,215.5
77.8209,209.7
77.8324,195.3
77.858,162.7
77.8647,212.7
77.866,63.8
77.8744,96
77.8818,564.5
77.8853,728.4
77.8871,361.7
77.892,778.1
77.9048,71.9
77.9188,423.9
77.93,97.4
77.9377,134.5
77.9726,287
77.9787,107.2
77.9989,260.3
78.0077,358.8
78.0111,59.8
78.039,193.9
78.0416,3430.6
78.0518,20.3
78.0942,121.2
78.0995,95.5
78.1011,351.2
78.1262,174.9
78.1462,114
78.1517,699.5
78.1739,623.4
78.1807,16.5
78.1828,17.2
78.1977,147.3
78.215,341.9
78.2175,177.9
78.2744,355.5
78.2766,406.3
78.2797,587.7
78.2906,255.2
78.3021,22.5
78.3105,384.3
78.3253,190.8
78.3286,304.6
78.3743,642.2
78.3991,357.2
78.4046,283.3
78.4087,168.3
78.4256,184
78.4305,96.2
78.4631,93.7
78.5448,739.3
78.5465,189.5
78.6826,114
78.7054,111.7
78.727,338.4
78.7399,123
78.7841,16.9
78.8009,522.2
78.8015,652.1
78.8107,445.1
78.8205,206.5
78.8449,17.1
78.8458,19.6
78.8539,537.5
78.8558,445.3
78.8645,18.6
78.8858,99.9
78.9594,117.3
78.9622,309.5
78.974,131.2
78.9951,206.7
78.9967,131.3
79.0126,396.9
79.0164,359
79.0268,381.9
79.0276,295
79.0396,19.2
79.0529,90.5
79.054,1834.7
79.0661,381.4
79.0688,703.4
79.0873,285.3
79.0937,16.4
79.1183,147.7
79.1308,18.7
79.1504,16.6
79.1853,439.9
79.1975,17.9
79.2112,91.1
79.2584,105.7
79.2824,123.7
79.3006,527
79.3356,89
79.3383,131.3
79.3847,20.1
79.3926,256.5
79.4134,374.8
79.4175,267.9
79.4267,102.7
79.4368,757.7
79.4383,143.5
79.4829,190.6
79.4988,58.4
79.5096,286.9
79.5308,16.3
79.551,565
79.5693,113.2
79.5854,118.9
79.5895,178.5
79.5981,601.6
79.6012,346.3
79.6246,876.7
79.6277,304.2
79.6421,487.4
79.6469,124.6
79.6611,431.9
79.6718,106.3
79.7076,355.8
79.721,407.2
79.7599,315.6
79.866,295.8
79.8737,211.5
79.9349,199
79.9621,435.6
79.9798,309
80.0168,510.8
80.0214,187.6
80.0323,82.6
80.0471,141.6
80.0568,355.6
80.0573,57
80.0585,763.4
80.0777,436.9
80.0984,275.8
80.1148,144.3
80.1158,146.9
80.1171,225.1
80.1409,206.1
80.1544,189.9
80.1634,134.8
80.1714,624.1
80.1873,417.8
80.1893,20
80.2525,372.3
80.2603,310.5
80.2677,140.2
80.2689,123.1
80.2854,117.4
80.2897,460
80.297,95.5
80.3146,17.6
80.3322,84.8
80.3386,181
80.3596,299.3
80.4109,121.6
80.4209,231.2
80.4277,86
80.4368,169.4
80.4442,428.4
80.4478,676.1
80.4618,99.1
80.4715,115.7
80.4737,327.2
80.4983,123.7
80.5082,125.1
80.5338,111.9
80.5578,437.1
80.5875,204.3
80.6095,320.2
80.6379,94.7
80.6382,96.1
80.6411,649.2
80.6769,113.7
80.7758,301.8
80.813,170.8
80.8163,57.5
80.8178,83.4
80.8255,143
80.8268,321.5
80.8322,383.2
80.8715,18.1
80.9052,185
80.9147,19.4
80.9355,17.4
80.9476,32886.4
80.9624,254.9
80.9793,125.3
80.9806,17.1
80.9967,103.2
81.0087,118.5
81.0106,426
81.018,93.6
81.031,432.3
81.0429,57.7
81.0664,273
81.0696,1243.4
81.1162,18.2
81.1334,91.5
81.1346,194
81.155,164
81.1655,377.6
81.1696,25.5
81.1703,243.1
81.1713,1426.1
81.1724,1728.7
81.173,1055.6
81.174,331.5
81.1745,117
81.1769,315.8
81.1798,102.4
81.1859,684.4
81.1864,113
81.1867,99.9
81.2241,182.9
81.2636,448.2
81.2786,468.3
81.3089,442.3
81.3597,19.4
81.3647,92
81.3681,96.8
81.3726,139.2
81.4093,124.4
81.4368,18
81.4418,130.3
81.4439,372
81.4482,434.4
81.4509,304.1
81.4635,109.1
81.4849,459.2
81.4873,216.1
81.5048,103.3
81.5203,156.4
81.5506,263.2
81.5628,215.7
81.5803,84.8
81.5818,314.5
81.5824,697.1
81.5959,295.8
81.5993,106.5
81.6054,92.1
81.6259,435.1
81.6727,20.5
81.709,535.1
81.7196,147.6
81.7597,228.6
81.7748,453
81.7806,858.9
81.8044,458.1
81.8105,287.7
81.8142,300.9
81.8514,92.3
81.8568,184.3
81.8797,523.7
81.8804,404.7
81.9097,475
81.9194,289.8
81.977,431.3
81.9814,154
82.0009,293.3
82.0022,319.8
82.0331,196.6
82.0557,508
82.1329,165.2
82.1332,143.1
82.1506,493.6
82.1697,200.8
82.1828,314.9
82.1929,318.1
82.2417,122
82.2502,109.7
82.2765,290.5
82.2818,229
82.3031,18.2
82.3157,368.1
82.3241,217.1
82.3951,80.8
82.3965,84.8
82.4371,274
82.4439,471.1
82.4441,454.6
82.4513,233.1
82.4812,15.9
82.5132,128.8
82.5355,251.8
82.5381,226.5
82.5446,321.3
82.5667,153
82.5691,140.7
82.5739,96.4
82.5767,104.7
82.5865,135.5
82.6116,144.1
82.6257,91
82.6438,460.6
82.647,370.2
82.6552,18.9
82.6761,502.1
82.6838,100.9
82.6998,243.8
82.7021,136.9
82.708,475.9
82.715,332.5
82.7267,725.3
82.7385,107.7
82.7965,562.8
82.7973,710.7
82.8043,100.7
82.8119,161.8
82.8177,97.7
82.8226,114.7
82.8277,672
82.8352,315.3
82.8428,216.2
82.8605,329.9
82.8687,100.2
82.876,21.1
82.8807,660.7
82.8823,17.8
82.9014,224.6
82.9078,16.6
82.9426,298
82.9436,640.6
82.9446,10142.4
82.9897,506.3
82.9999,71.5
83.0214,475.1
83.0383,307.9
83.0729,93.7
83.0803,349.3
83.0852,74
83.0862,349
83.0957,99.2
83.0975,87.6
83.1392,654.6
83.1469,501.5
83.1517,196.3
83.1539,142.7
83.1574,18.4
83.161,285.2
83.1692,16.3
83.1884,113.7
83.2215,580.1
83.2294,92.6
83.232,494.3
83.2467,515.5
83.2525,174.4
83.2849,135.2
83.3234,21.4
83.3837,374.5
83.3982,370.7
83.4051,680.2
83.4289,705.1
83.4544,112
83.4567,122.3
83.478,16.5
83.4903,739.5
83.4925,448.7
83.4941,500.6
83.5027,104
83.5174,162.2
83.5377,134.8
83.5762,159.1
83.5942,425.9
83.6182,115.4
83.6365,142.6
83.6407,15.5
83.6544,321.7
83.6656,17.9
83.6745,158.5
83.6754,17
83.6844,129.5
83.6956,118.8
83.7045,385.6
83.7071,99.6
83.7139,514.4
83.7436,416.3
83.7712,125.1
83.7786,493.6
83.7854,305.2
83.8022,358
83.8242,101.5
83.8325,494.1
83.8389,22.4
83.8546,414.2
83.8754,119
83.8861,16.5
83.9017,340.7
83.928,478.8
83.9329,15.3
83.9484,104.6
83.9637,323.3
83.9868,19.4
83.9933,18
84.0103,305.2
84.0294,150.1
84.041,65.9
84.0442,1585.9
84.0504,19.3
84.0704,260.8
84.0955,429.1
84.1254,61.7
84.135,468.2
84.1735,294.5
84.1945,793.8
84.2369,17.8
84.2448,220.4
84.297,378.4
84.2995,110
84.3029,1291.3
84.3208,534.3
84.3371,179.7
84.3392,114.6
84.3725,107.2
84.3762,385.5
84.3851,146.6
84.4004,18
84.4015,229.5
84.4027,21.3
84.4586,585.5
84.4594,767.3
84.4637,245.6
84.4942,467.1
84.5151,61.8
84.5203,117.4
84.5367,317.3
84.5657,141.7
84.575,82.3
84.6079,129
84.6112,377.6
84.626,106.9
84.6378,320.4
84.6709,230.6
84.6776,472.5
84.6786,57.9
84.6805,117.6
84.6949,83.7
84.7334,594.4
84.7535,19.2
84.7554,233.1
84.7635,17
84.7659,117.8
84.7815,94.6
84.7831,297.9
84.787,140.3
84.7876,122
84.7896,368.9
84.7901,361.9
84.7919,246.1
84.7928,390
84.8037,127.7
84.8092,289.1
84.8325,149.7
84.8512,19.5
84.909,273.3
84.9114,299.6
84.9201,164.4
84.9417,207.8
84.9594,14644.7
84.9738,125.7
84.9788,261.6
84.9922,166.4
84.9956,549.1
85.0281,686.3
85.0431,20.5
85.0514,314.6
85.0855,348.2
85.1119,367.3
85.1135,118.6
85.1261,422.3
85.1412,138.1
85.1488,103.2
85.1602,232.5
85.1973,133.7
85.2104,119.1
85.2308,122.5
85.3459,355.5
85.4289,110.3
85.4603,539.5
85.4771,420.9
85.4883,268.9
85.4981,174.8
85.5258,568.8
85.554,19.1
85.5778,300.7
85.5798,20.1
85.6256,324
85.6282,300.3
85.6467,340.7
85.6645,836.8
85.6723,18.3
85.7159,146.2
85.7283,222
85.7349,217.6
85.7539,128.6
85.782,406.9
85.8037,769
85.8875,152.6
85.9011,352.6
85.9374,18.1
85.9408,583.8
85.9489,312.8
85.9895,116
86.0171,646.2
86.0194,208.7
86.0207,232.8
86.038,142.1
86.0394,17.1
86.0461,346.1
86.0524,119.1
86.0552,454.3
86.0598,24327.3
86.0699,237.1
86.0847,96.7
86.0887,213
86.0962,112565.6
86.1156,476.6
86.1368,564.5
86.145,57.9
86.1467,110.3
86.1543,18.2
86.1658,317.3
86.1688,397.9
86.2178,217
86.258,112.9
86.2931,124.8
86.2956,99.6
86.2978,219.9
86.3146,17.9
86.3235,17.7
86.3278,336.2
86.3587,292.1
86.3889,459.9
86.4557,222.4
86.4614,236.4
86.4746,709.8
86.4852,300.6
86.5367,314.1
86.5399,224.7
86.544,687.9
86.5497,390.5
86.587,125.2
86.6075,474.6
86.643,426.3
86.6465,18.9
86.6505,827.1
86.6688,449.1
86.6825,158.3
86.7086,319.5
86.7402,17.8
86.757,378.7
86.7603,92.6
86.7662,21.4
86.7849,438.7
86.8003,404.5
86.8162,441.6
86.8185,20.1
86.8347,363
86.8504,18
86.8576,162.9
86.9029,436.3
86.9159,18.8
86.9338,127.3
86.9387,345.5
86.9415,110.9
86.9418,165.5
86.9421,138
86.9614,482.1
86.9638,99.3
86.967,59.4
87.0042,115.2
87.0127,340.6
87.0762,143.3
87.0852,104.7
87.1011,104.4
87.1137,351.4
87.123,506
87.1263,302.7
87.1483,145.1
87.1946,119.6
87.2016,462
87.2076,107.5
87.2094,20.6
87.2167,139.4
87.2387,624.1
87.2632,872.9
87.273,694.8
87.2759,63.7
87.3083,169.2
87.3201,214.4
87.3395,238.5
87.386,106.4
87.4274,114.4
87.4288,21.8
87.4613,19.1
87.4703,522.3
87.5001,16.9
87.5361,119
87.5621,133
87.5921,111.3
87.6123,132.6
87.6368,16.7
87.661,96.3
87.6638,468.2
87.6954,91.9
87.7019,69.6
87.7207,280.6
87.7215,22.6
87.7232,153.5
87.7736,101.7
87.7781,307.4
87.7918,279.6
87.822,104.1
87.8941,18.1
87.9312,19.3
87.944,223.7
87.9656,674
87.9666,110.5
87.9752,102
88.0001,283.9
88.0122,390.7
88.0391,4263.5
88.0444,568.5
88.0561,211.5
88.0587,495.8
88.081,396.2
88.1334,20
88.159,235.1
88.1662,90.2
88.1668,454.8
88.173,18
88.1817,70.4
88.1924,108.8
88.2136,324.5
88.2255,19.7
88.2334,250.6
88.2367,17.1
88.2391,352
88.241,229.8
88.3033,18.2
88.3311,390.7
88.3389,139
88.3415,129.7
88.3616,331.8
88.3746,17.2
88.3758,118.4
88.3938,174.5
88.3996,18.5
88.4281,765.8
88.4789,19.2
88.5105,685
88.5143,155.4
88.5184,116.1
88.5316,117.5
88.5521,17.5
88.5749,200
88.604,134.5
88.623,589.7
88.633,303.5
88.6394,116.7
88.6724,179
88.6887,165.6
88.6928,212.9
88.6975,268.7
88.7203,18.2
88.7552,653.5
88.8182,356.3
88.8481,176.3
88.8728,461.2
88.8776,300
88.9239,517.3
88.9284,524.4
88.9529,21.2
88.9561,438.6
88.9604,21
88.9723,20
88.9832,169
89.0036,215.7
89.0046,80
89.0295,537.5
89.0309,19.6
89.0317,18.2
89.0536,192.6
89.0636,276.7
89.0822,314.1
89.0984,315.4
89.1015,19.1
89.1131,228.1
89.1166,23.3
89.1304,156.4
89.1392,345.5
89.1619,165.1
89.1671,128.9
89.2015,284.7
89.3397,92.1
89.3738,739.6
89.3783,18.3
89.3851,507.3
89.4021,19.6
89.4275,497.5
89.4314,17.7
89.4381,680.3
89.4474,313.1
89.4685,95.4
89.4847,233.6
89.5011,244.1
89.5073,17.1
89.5299,16.7
89.5593,20.7
89.5668,120.8
89.5811,193.2
89.6087,753.2
89.617,304.8
89.6243,18.5
89.6413,188.7
89.6766,417.5
89.6785,131.2
89.7554,573
89.7717,101
89.7959,16.5
89.8366,280.6
89.8584,334.3
89.8623,145.5
89.8651,132.8
89.871,108.4
89.8906,97.3
89.9102,514.4
89.9281,171.3
89.9618,91.2
89.9622,94.7
89.9633,149.9
89.9698,129.1
90.0583,122.5
90.0858,375.1
90.1057,129
90.1602,405
90.1828,493
90.225,471.3
90.2316,200.3
90.271,323.4
90.3246,146.8
90.3544,385.1
90.3569,313.3
90.3675,19.4
90.3823,384.2
90.4204,129.7
90.4245,734
90.4744,169.6
90.5089,145
90.5161,446.8
90.5173,18.5
90.5474,735
90.5482,76.1
90.5501,124.6
90.5536,326.9
90.5891,146.4
90.5954,185.8
90.597,341.2
90.6258,206.5
90.6425,116.9
90.6999,525.4
90.7219,227.1
90.7693,452.2
90.7919,424.2
90.8781,564.7
90.9016,22.6
90.903,29.9
90.9311,180.5
90.9384,17.6
90.9475,565
90.9529,352.2
90.9661,296.6
90.9764,7000.3
91.0083,117.2
91.0166,99.3
91.0528,18.2
91.054,1831.6
91.088,218.1
91.0981,18.8
91.1023,110
91.1109,272.8
91.1261,158.8
91.1287,92.3
91.1351,18.9
91.1403,319.4
91.1741,255
91.1791,510.9
91.1915,207.6
91.2748,128.2
91.3103,154.6
91.3152,113.6
91.3227,392.7
91.3267,178.9
91.3418,499.8
91.3466,619.7
91.4116,774.2
91.429,149.8
91.4609,294.7
91.4838,19.5
91.4978,422.5
91.5092,284.3
91.5103,473.5
91.5174,457.5
91.5205,204.9
91.5238,134.8
91.5465,679.5
91.551,115.1
91.5518,326.7
91.5596,21.4
91.5813,714.9
91.5876,468.6
91.5926,93.5
91.6265,20.4
91.647,93.2
91.6881,315.5
91.6917,341.2
91.854,232.6
91.8607,457.9
91.8755,510.2
91.8916,436.2
91.9015,387.3
91.9206,479.9
91.9262,131.4
91.9298,210.7
91.9343,92.1
91.9486,243.6
91.9503,107.8
91.9674,139
91.9736,341.5
91.9948,189.2
92.0108,742.7
92.0493,28.8
92.0513,185.5
92.0661,282
92.0963,316
92.1375,99.8
92.1803,169.4
92.2037,468.2
92.236,184.2
92.2654,444
92.289,347.5
92.2959,323.6
92.3174,19.3
92.3531,178.9
92.3555,18.1
92.3825,221.4
92.3859,479.7
92.4075,158.6
92.4244,106.8
92.4303,203.9
92.4413,106.2
92.4418,183.7
92.4421,179.6
92.4513,216
92.5696,354.2
92.5802,404.8
92.6343,703.7
92.6542,497
92.6698,113.3
92.7215,197.6
92.748,671
92.7923,121.6
92.795,357.9
92.8486,380.5
92.8501,336.8
92.8533,19.1
92.8554,153.3
92.875,98.5
92.885,274.8
92.8936,18.2
92.895,114.6
92.9074,224.3
92.9495,457.7
93.0125,409.3
93.0237,361.1
93.0333,76.8
93.0529,104.5
93.0747,650.2
93.0905,412.7
93.0978,18.2
93.105,594.1
93.1058,171
93.1061,154.7
93.1333,122.6
93.1672,185
93.1939,57.3
93.2995,637
93.3509,691.2
93.3585,105.7
93.382,949
93.4348,351
93.4453,16.4
93.45,497.8
93.4654,209.3
93.4792,635.1
93.5033,20.4
93.5167,494.6
93.5184,15
93.5278,408.3
93.5536,181.7
93.5649,131.8
93.5711,591.8
93.5724,97.6
93.5748,326.7
93.6011,453.3
93.6341,719.9
93.6722,249.4
93.6915,98.7
93.7091,157.7
93.7324,20.1
93.7439,108.3
93.7823,222
93.827,554.3
93.854,234.5
93.8614,329.3
93.8713,249.5
93.8729,137
93.877,18.3
93.8974,469.1
93.9013,470.8
93.9104,100
93.9117,16.9
93.9202,19.6
93.9361,203.8
93.9686,68
94.0397,21.6
94.0411,52508.4
94.0885,108.4
94.0919,99.8
94.1145,755.3
94.1608,658.1
94.1672,492.2
94.1796,133.4
94.1969,17
94.214,573.2
94.2452,19.8
94.2491,134.9
94.2811,105.2
94.286,424.6
94.2869,17
94.2932,661.5
94.3198,332.6
94.3436,104.4
94.3451,237.3
94.3686,447.4
94.3812,16.7
94.4098,115.3
94.4228,91.5
94.4289,716.1
94.4761,17.6
94.5447,101.1
94.5519,589.2
94.5644,86.6
94.6025,18.3
94.6359,203.1
94.6433,924.2
94.6501,194.3
94.659,93.4
94.7035,66.3
94.7133,730.5
94.7368,134.6
94.7425,258.8
94.7695,551.5
94.819,456.1
94.825,17.3
94.8595,20.7
94.897,17.4
94.9242,100.8
94.9328,218.4
94.9544,288.4
95.0273,444.3
95.0282,288.7
95.0356,52.3
95.0384,19.6
95.0445,887.4
95.0459,37
95.0475,231.3
95.0489,384709.4
95.0505,109.8
95.0509,61.6
95.052,21.7
95.0623,27.9
95.0853,211.9
95.0892,18.8
95.1083,19.4
95.1096,16.5
95.1249,210
95.127,328.3
95.1394,19.3
95.1519,304.5
95.1793,319.1
95.1868,311.6
95.2764,465
95.282,373.9
95.2861,17.6
95.3073,18.8
95.3106,17.5
95.3177,287.1
95.3438,484.7
95.3598,139.9
95.3619,104.2
95.3734,118.5
95.3782,124
95.3793,133.7
95.3841,119.9
95.3938,514.9
95.4161,145
95.4528,300.6
95.512,481
95.5197,157.2
95.5495,18.8
95.5511,689.3
95.5813,505.6
95.6437,434.3
95.6823,88.1
95.6929,18.1
95.7261,191.2
95.7286,18.3
95.73,17.7
95.7333,723.1
95.761,211.9
95.7635,59.8
95.829,115
95.8457,143.2
95.8609,314.3
95.8887,599.9
95.9229,149.6
95.9726,420.4
95.9868,325.9
96.0336,336.6
96.0477,86.1
96.0523,17567.5
96.0701,178.8
96.1179,629.8
96.1254,19.5
96.1379,432.7
96.1437,18.1
96.1992,457.2
96.2169,121.5
96.2283,200.2
96.2436,337.4
96.2783,17.1
96.2806,166.7
96.3101,359.6
96.3477,163.2
96.3496,449.5
96.4131,731.3
96.4212,112.2
96.4319,152.6
96.4489,335
96.4825,22.6
96.5094,261.7
96.5098,440.5
96.5102,442
96.5343,187.4
96.5742,714.8
96.5841,124.6
96.6199,284.2
96.6236,17.9
96.6351,165.4
96.6493,492.5
96.6526,19.5
96.6549,69.8
96.6925,106.6
96.704,143.1
96.724,18.1
96.7438,289.4
96.7574,328.8
96.7695,426.9
96.7752,124.5
96.876,722.2
96.9075,192.5
96.9216,130767.8
96.9319,210.1
96.9536,677.7
96.9704,17.8
96.9728,61.2
96.9884,254.2
96.9968,18
97.0007,203.5
97.0074,129.5
97.0105,32.3
97.0369,267.1
97.0531,22.4
97.0546,213.9
97.0556,54.3
97.0872,142.6
97.1009,21.8
97.18,21
97.1873,328.4
97.189,16.9
97.1938,677.8
97.2043,105.2
97.2177,114.4
97.2471,135.5
97.2525,16.6
97.26,156.3
97.2718,234.8
97.2753,92.3
97.2797,58.9
97.3093,187.6
97.3465,142.5
97.3589,185.7
97.3605,175.5
97.3692,441.9
97.3957,99.5
97.4117,130.1
97.4387,298.3
97.442,84.9
97.4658,350.3
97.4697,116.2
97.4781,20.8
97.5139,400.7
97.5234,93
97.5291,17.8
97.5623,61.3
97.5693,104.2
97.5725,17.5
97.5884,124.1
97.5902,157
97.598,219.5
97.631,113
97.6412,528.4
97.6435,377.3
97.6539,18.4
97.6864,81.5
97.6919,159.2
97.7061,140.7
97.7092,157.8
97.8125,235.3
97.8291,383.2
97.8645,506.1
97.9147,99.5
97.9162,116.7
97.9213,82.7
97.937,287.8
97.9498,332.9
97.9696,204.7
97.9958,162
97.9981,146.1
98.0423,215.4
98.0494,122.2
98.0548,16.4
98.0783,670.9
98.1085,130
98.1891,277.5
98.1956,371.8
98.202,387.8
98.2078,401.1
98.2383,107.4
98.2603,484.2
98.2617,84
98.2884,16.6
98.2958,237.9
98.297,368.2
98.2985,54.6
98.3016,277
98.3336,352.7
98.3348,152
98.3554,368.1
98.3582,250.1
98.3692,146
98.3725,433
98.3994,179.9
98.4168,20.2
98.4417,114.2
98.4453,450.7
98.457,98.2
98.4736,106.2
98.5011,106.2
98.5247,328.8
98.5318,75.3
98.5446,154.5
98.5961,243.9
98.6473,142.7
98.6531,18.1
98.6647,101.3
98.6709,147
98.6797,191
98.7046,355.7
98.7296,130.6
98.7315,188.4
98.8015,458.7
98.8322,377.9
98.8344,181.4
98.9186,37233.3
98.9197,5450.6
98.927,304.8
98.9558,255.4
98.9571,18.6
98.9751,8099.8
98.9839,118.3
99.0431,505.2
99.0579,478.9
99.062,516.1
99.0643,261.5
99.1322,16.2
99.14,99.9
99.1467,105.2
99.1837,161.3
99.2042,19.8
99.2896,121.7
99.3219,196.1
99.3437,125.8
99.3503,20.1
99.3547,187.7
99.39,19.8
99.4062,263.5
99.4186,15.9
99.4316,100.5
99.4513,212.6
99.4547,64.7
99.4701,245.2
99.5021,97.9
99.5295,461.8
99.574,133.3
99.5947,411.5
99.671,314.9
99.6764,422.1
99.7084,302.9
99.7223,283.7
99.746,371.6
99.7828,203.8
99.7852,697.2
99.8625,447.6
99.9052,646
99.9078,183.7
99.9257,224.2
99.9691,17.3
100.0437,101.2
100.062,102.7
100.0762,126.6
100.0888,16.7
100.1539,17.9
100.1782,122.4
100.2085,18.5
100.234,17.6
100.2365,488.5
100.2987,275.2
100.3054,197
100.3528,287.3
100.3601,113.4
100.377,634.8
100.3974,283.7
100.4154,485.8
100.4214,134.7
100.4238,296.1
100.4534,108.4
100.4649,702.3
100.4814,101.5
100.5066,359.9
100.5318,257.9
100.5412,399.5
100.615,123.2
100.6197,597.2
100.6396,644.5
100.6541,309.1
100.665,166
100.6802,743.8
100.7091,112.7
100.7299,122.1
100.7658,122.2
100.7839,97
100.8156,472.3
100.8221,229.3
100.8228,208.4
100.8326,220
100.8631,236.2
100.8864,105.8
100.9168,486.4
100.9319,305.3
100.9391,460.6
100.9439,215.1
100.9591,195.7
100.9641,93.1
100.9761,337.5
101.007,340.2
101.0092,135.4
101.0198,83.3
101.0234,122.7
101.047,978.2
101.0693,399.8
101.0707,895.9
101.1183,209.4
101.1308,467.9
101.1344,312.2
101.1482,128.4
101.1656,305.4
101.3004,126.8
101.3075,58.6
101.3237,100.6
101.3371,538.3
101.3818,19.6
101.3892,457.6
101.4119,136.4
101.4206,16.1
101.4668,190.5
101.47,79.3
101.4746,107.2
101.4872,21.5
101.4903,17.4
101.5165,90
101.583,104.4
101.595,16.5
101.5966,109.2
101.6283,247.9
101.6584,232.5
101.6712,156.8
101.6724,273.5
101.6762,672.3
101.6832,135.7
101.7469,174.7
101.7501,500.7
101.7547,17.3
101.7579,359.9
101.7592,96.9
101.7662,108.9
101.7716,350.6
101.7924,125.4
101.8642,132.2
101.9236,20.3
101.9269,165.5
101.9571,209.4
101.9635,45.8
101.9998,19.5
102.0289,24.1
102.0548,2421.6
102.0805,445.3
102.0836,230.7
102.1323,149.6
102.1515,94.2
102.153,304.4
102.1571,102.7
102.1837,104.8
102.1994,411.7
102.2271,207
102.265,210
102.2677,89.5
102.2743,288.6
102.2765,234.6
102.2999,259.5
102.4274,144.6
102.4381,18
102.4942,112
102.5017,63.5
102.5085,84.1
102.5171,19.2
102.5267,822.5
102.5309,298.7
102.5457,20.7
102.5672,205.6
102.5803,545.5
102.6144,173.9
102.6194,18.2
102.6288,478.5
102.6696,570.9
102.7313,220.5
102.74,453.9
102.7922,61.6
102.8009,122
102.8049,378.3
102.8177,99.1
102.8347,273.3
102.838,105
102.8442,418.8
102.8485,18.6
102.857,213.2
102.8587,143.5
102.8652,450.2
102.8935,139.9
102.8974,474.4
102.9038,134.5
102.9312,285.7
102.9411,145.8
102.9679,92.8
102.9701,483
103.0107,198
103.054,103.9
103.0595,202.9
103.0804,111.1
103.1077,119.3
103.124,236.1
103.1335,209.9
103.1429,133
103.2289,225.7
103.278,420.6
103.2957,162
103.3098,299.8
103.3443,370.3
103.368,299.5
103.3695,108.5
103.3824,297.3
103.3931,184.3
103.4412,251.1
103.4578,134.8
103.4744,668.4
103.4898,93.7
103.4907,310.7
103.4927,293.5
103.509,435.5
103.5366,416.3
103.5786,127.4
103.6142,85
103.6204,259.2
103.7099,268.6
103.7127,209.3
103.7163,610.2
103.721,169.1
103.7322,20.1
103.7511,212.3
103.8183,19.7
103.8275,424
103.8398,177.3
103.8589,122.4
103.875,228.9
103.8923,479.7
103.9235,16.4
103.9381,15.9
103.9808,137.1
103.9843,112.3
103.9851,259.7
103.9885,351.2
104.012,751
104.017,411.6
104.0187,351.8
104.0376,366.1
104.0563,21
104.0624,100.4
104.0648,97.3
104.1068,495276.7
104.1351,186.2
104.1955,19.4
104.2252,21.3
104.2297,172.9
104.2373,126
104.2404,97.6
104.2442,17.4
104.277,115.2
104.29,98.9
104.2922,340.7
104.2994,17.5
104.3004,20.9
104.3134,427.6
104.3348,192.1
104.365,530.2
104.4161,183.4
104.435,108.9
104.4654,129
104.5221,91
104.5692,94.2
104.5809,341
104.5922,92.5
104.6275,221.4
104.6342,109.6
104.6448,283.5
104.6751,114.4
104.7564,240.4
104.7728,240.8
104.7739,118.8
104.9187,139
104.9335,178.3
104.9479,88.5
104.9565,677.6
104.9631,646.1
104.992,494.7
105.0204,471.1
105.0446,34005.1
105.0492,203.4
105.0523,19.2
105.0585,353.3
105.0791,228.1
105.0879,118.7
105.0952,588.7
105.1052,150
105.1102,16276.2
105.1311,337
105.135,156.3
105.1425,356.3
105.1588,18.2
105.1676,18.3
105.176,142.5
105.1936,19.9
105.208,15.5
105.2839,63.8
105.2972,311.6
105.3002,168.2
105.3016,482.1
105.3144,181.8
105.3248,65.7
105.3356,96.2
105.3415,428.9
105.3487,486
105.3747,190.6
105.4232,485.3
105.4278,461.7
105.4357,326.4
105.4469,186.8
105.4898,156.5
105.5432,304.2
105.5567,132.3
105.5613,62.6
105.5883,17.5
105.5894,193.2
105.5988,189.4
105.6115,383.6
105.624,299.3
105.6302,276.4
105.6826,231.7
105.7104,395.1
105.7153,420
105.7214,407.5
105.7318,115.1
105.768,426.7
105.7807,210.8
105.791,140.7
105.8204,298.7
105.8261,112.9
105.8354,211.7
105.8407,113.8
105.8481,20.6
105.8697,174.3
105.8868,17.7
105.9017,792.7
105.9066,490.9
105.9481,316.2
105.9673,142.4
105.9712,20.1
106.0027,18.4
106.0259,330.4
106.037,179.7
106.0479,642.2
106.065,18.5
106.1817,120.5
106.1873,790.4
106.2099,520.7
106.2161,640.4
106.2372,279
106.2786,146.2
106.2896,458.9
106.2972,405.5
106.3002,750.7
106.3026,125.1
106.3419,133.6
106.4155,91.3
106.4165,307.1
106.4715,292.3
106.4993,17.4
106.5323,309.1
106.5875,374.7
106.5988,98
106.6054,295.2
106.6207,299.5
106.649,123.3
106.7014,579.2
106.703,616.6
106.7561,396.8
106.7718,137.2
106.7809,767
106.7902,467.6
106.7981,111.7
106.8221,264.7
106.865,451.7
106.8867,241.1
106.921,452
106.9303,257.1
106.9316,90.4
106.9433,26.3
106.9504,3418
106.9569,88.1
106.9592,137.2
106.9603,406.1
106.9753,56.2
106.9801,103.8
106.9849,737.3
106.9918,49.4
107.0104,18.5
107.0281,35.6
107.0473,124.9
107.049,448.1
107.0853,52.7
107.0886,18.4
107.0993,488.6
107.1695,579.3
107.1732,192.1
107.2015,199.4
107.2229,534.7
107.239,514.9
107.242,343.5
107.2613,99.2
107.2632,101.6
107.2685,472.8
107.3483,22.5
107.3584,23.4
107.3735,120.2
107.3849,19.7
107.3918,84.1
107.4338,17.5
107.4503,133
107.4817,146.2
107.4907,503.5
107.4996,269.4
107.5423,123.8
107.5694,142
107.5858,16.4
107.5977,294.8
107.6059,21
107.6152,618.7
107.6406,403.5
107.6745,101.1
107.7501,288.2
107.7559,111.7
107.7687,83
107.7873,19
107.8392,500.2
107.858,149.2
107.9348,100.6
107.9564,116.6
107.9713,367.6
107.9752,176.2
107.985,356.4
108.017,20.5
108.0568,20.9
108.0968,134.3
108.1365,235
108.1523,259.3
108.194,87.6
108.2072,16.9
108.223,198.7
108.2331,99.3
108.236,255.1
108.2463,241
108.2549,322.5
108.2583,182
108.301,526.5
108.4053,16.1
108.4214,186.4
108.4354,389
108.4882,232.5
108.5247,502.6
108.5475,152.8
108.6016,191.5
108.6487,17.5
108.6953,105.9
108.7116,159.4
108.762,132
108.7829,100.8
108.791,125.3
108.7938,361.1
108.8096,165.7
108.8435,130.3
108.858,448.9
108.8717,93.4
108.9441,122.4
108.9587,297.8
108.9853,277.5
109.0104,27.6
109.0329,260.4
109.0646,58074.5
109.0911,179.8
109.101,171.5
109.1215,248.6
109.1261,295.5
109.1525,437.7
109.1549,18.5
109.1926,16.7
109.2293,545.4
109.3031,282.3
109.3597,17.4
109.3816,94.3
109.3846,350.2
109.4092,341.3
109.4117,468.7
109.4343,71.5
109.4602,161.8
109.4653,109
109.4805,117.7
109.5871,443.5
109.5884,85.2
109.5895,324.2
109.6132,277
109.6253,239.5
109.6358,62.8
109.6897,402.5
109.7414,135
109.7473,541.6
109.7495,482.1
109.7619,246.6
109.8394,99.5
109.8441,19.5
109.8814,76.1
109.8954,107.3
109.8975,385.8
109.9101,64.2
109.9143,606.6
109.9388,602.3
109.946,178.6
109.997,376
110.0055,248.6
110.0324,496.9
110.0645,449.2
110.068,1675.4
110.0711,840.8
110.0979,211.6
110.1226,307.6
110.1356,189.4
110.1468,146.1
110.15,117.1
110.1699,148.9
110.1713,175
110.1936,644.7
110.1966,20.5
110.2024,127
110.2187,124.3
110.2427,168.2
110.2635,594
110.3446,357.2
110.3543,339.1
110.3797,23
110.3874,17.8
110.3971,19.1
110.4131,271.5
110.4233,650.8
110.4586,222
110.4889,143.7
110.4986,704.6
110.529,218
110.5593,127.6
110.57,403.4
110.5743,110
110.5788,298.6
110.5871,78.9
110.6333,67.4
110.7136,151.8
110.7349,18.7
110.7602,369
110.7662,510.8
110.7874,89.3
110.8563,100.6
110.859,408.6
110.8864,592.6
110.9156,222.7
110.9255,391.4
110.9431,130.6
110.9531,149.5
110.9592,140.7
110.9662,96.9
110.9692,132.8
110.9854,436.5
111.0049,276.6
111.0231,262.6
111.0439,268.4
111.0451,358.6
111.083,257.8
111.0892,668.4
111.0903,142.5
111.1022,322.3
111.1703,215.4
111.1734,210.9
111.2271,162.6
111.2529,265.4
111.2987,369
111.3264,21.4
111.3494,177.9
111.4438,306.3
111.4701,718.4
111.4793,560.6
111.5095,323.6
111.5185,19.9
111.5763,388.2
111.5777,137.4
111.5892,421.8
111.598,693.8
111.6327,317.4
111.6661,814.5
111.6979,120.5
111.7405,272.9
111.7431,54.7
111.7791,279.1
111.8001,243.3
111.8217,19.8
111.8374,17.8
111.8506,121.7
111.8743,104.9
111.9116,98.3
111.9467,499.2
112.0004,218.6
112.0068,406.1
112.0757,335.3
112.1142,57.9
112.1429,408.5
112.2021,574.5
112.2143,687.4
112.2254,378
112.2586,187.2
112.306,202.2
112.341,66.3
112.3507,233.2
112.4053,97.5
112.4157,17.5
112.4209,110.5
112.4364,357.4
112.4376,153.2
112.4661,681.6
112.4781,469.9
112.4968,125.2
112.5477,467.1
112.5484,672.3
112.5593,423.5
112.6312,16.9
112.6514,197.4
112.6531,162.7
112.6838,665.6
112.6847,208.9
112.7579,204.3
112.759,388.6
112.8109,314.7
112.8878,278.8
112.8956,488425.9
112.9345,321.4
112.9359,646.7
112.939,105.7
112.9426,102.1
112.9688,719.6
112.9728,490.8
112.9816,58.6
112.9912,203.3
113.016,102.4
113.0402,112.4
113.0697,334.4
113.1187,314.1
113.1348,245.8
113.2554,170.3
113.3135,508.9
113.3355,198.2
113.3792,130.9
113.3861,281.1
113.4184,186.5
113.4215,492.1
113.4426,16.8
113.4455,160.7
113.4509,587.9
113.4852,741.3
113.4911,110.1
113.506,711.9
113.5832,18.6
113.585,109.3
113.5865,727
113.6046,137
113.611,121.5
113.633,111.2
113.6337,104.2
113.6403,642.4
113.6786,188.8
113.681,17.5
113.689,708.5
113.7556,18.7
113.7642,102.5
113.7698,406.7
113.7816,158.1
113.7858,366.8
113.7918,17.5
113.7968,19.9
113.8304,17.7
113.8525,428.3
113.9437,66
114.0104,129.3
114.0548,36604.5
114.066,422.8
114.0898,97.6
114.0919,127.9
114.1231,98.3
114.1424,102
114.1749,496.2
114.2133,255.6
114.2337,485.6
114.2702,491.4
114.3528,101.5
114.3569,346.2
114.3802,264.6
114.4149,115.8
114.4694,17.5
114.5493,60.3
114.6099,17.4
114.6172,18.1
114.6213,132.5
114.6282,284.9
114.6352,705.4
114.6377,186.5
114.641,598.4
114.6907,393.8
114.72,129.3
114.7218,261.1
114.7232,196.8
114.7519,221.5
114.7612,482.9
114.7677,425.6
114.7853,102.1
114.8013,252.4
114.8434,303.5
114.8774,173.8
114.8926,154841.5
114.948,433.4
114.9561,222.6
114.9794,470.9
114.9955,76.3
115.0041,184.1
115.0364,54.9
115.054,126.2
115.0581,396
115.0742,387.8
115.0864,647.6
115.1279,17.4
115.1428,107.1
115.1444,536
115.2296,401
115.2769,193.3
115.2924,1019.3
115.2965,185.2
115.3079,21.9
115.3459,257.8
115.4303,243.3
115.4838,110.4
115.539,320
115.5517,674.3
115.5559,78.1
115.5645,135.7
115.5681,148.4
115.5775,127.8
115.6043,117.8
115.6486,381.3
115.653,100.6
115.6557,424.7
115.6884,432.2
115.6897,93.6
115.7408,424.6
115.7685,143.2
115.7704,590.4
115.8371,98.7
115.8812,470.6
115.9397,281.1
115.9462,550.6
115.9791,135.6
115.9935,343.5
116.0685,365.7
116.0704,4532.3
116.0816,18
116.0986,62.8
116.1862,428.3
116.1909,18.7
116.26,18.3
116.2721,505.7
116.3142,99.3
116.3593,367.9
116.374,437.5
116.4199,270.1
116.4214,18
116.446,17.8
116.4775,60.9
116.4852,133.3
116.5324,18.6
116.5397,107.8
116.5536,661.5
116.6066,617.6
116.6336,74.1
116.6764,17.1
116.6891,510.5
116.698,541.3
116.7234,410.3
116.7336,526.3
116.7357,368.2
116.766,20.5
116.7875,105.9
116.7981,620.3
116.8094,144.4
116.8169,191.2
116.8543,489.6
116.8908,17501.4
116.9179,111
116.9465,364.8
116.9609,148.7
116.982,16.2
116.9858,822.8
117.0983,492.7
117.1013,93.8
117.1065,339.1
117.1079,203.6
117.1509,652.4
117.1643,121.1
117.1902,17.9
117.1925,277.4
117.2351,382.5
117.276,192.2
117.3034,289.4
117.3064,61.5
117.3261,242.5
117.3599,617.3
117.3726,17.8
117.3812,238.1
117.4071,712.5
117.4097,422.5
117.4291,280.9
117.5001,17.8
117.5077,285.5
117.5339,235.9
117.5349,140.9
117.5658,92.2
117.5687,164.6
117.5968,474
117.6067,99.5
117.6125,110.3
117.6184,118.3
117.6787,20.4
117.7865,414.2
117.8557,244.9
117.9752,296.5
117.9824,298.9
117.9853,231.5
118.0011,1024.6
118.0085,464.8
118.0924,63.1
118.0944,480.9
118.112,443.5
118.1196,704.3
118.1608,379.6
118.1766,719.9
118.1825,507.5
118.1979,192.1
118.2569,66.8
118.2934,18.5
118.2948,154.1
118.2991,104.7
118.3073,140.4
118.3253,504.9
118.3632,662.1
118.3745,781.8
118.4145,441.6
118.4211,435.8
118.4474,260.1
118.4506,319.4
118.4637,281.3
118.4837,163.4
118.5195,248.3
118.547,102.5
118.57,99.4
118.6008,87.3
118.6457,20.8
118.6536,312.9
118.6742,225
118.6785,102.6
118.6902,434.4
118.6967,163.1
118.7437,327.5
118.7792,189.6
118.8445,688.5
118.8604,141
118.8939,694.4
118.9201,101.2
118.9244,360.7
118.9255,17.8
118.9425,95.4
118.9787,103.4
119.0092,145.9
119.0189,22.3
119.0559,17
119.0621,107.5
119.0924,176.7
119.0954,168.7
119.1544,118.1
119.1978,123.9
119.219,100.3
119.2741,528.7
119.3152,148.4
119.3157,156.2
119.333,354.4
119.3382,138.1
119.3534,464
119.4018,98.4
119.4736,99
119.4776,515.8
119.5368,208.3
119.6056,267.9
119.6694,17.1
119.6764,519.2
119.69,120.1
119.7006,19.2
119.7413,508.3
119.7485,104.4
119.757,136.2
119.7804,229.9
119.8086,311.4
119.8175,332.5
119.8838,16.2
119.8862,116
119.9393,311.7
119.9879,99.5
120.0031,4506.1
120.0397,20.2
120.0806,11713.1
120.1251,201.3
120.1281,298.6
120.2216,403.2
120.2568,606.3
120.2717,485.1
120.2752,203.2
120.2823,278.8
120.2993,293
120.3004,90.2
120.3586,201.9
120.3603,336.2
120.3756,596.6
120.4824,258.4
120.5406,380
120.5728,306
120.5751,340.9
120.6031,334
120.6482,555.4
120.6627,342.8
120.6899,17.2
120.7342,499.4
120.7396,485.5
120.745,345.6
120.8594,127.6
120.8827,15.7
120.895,260.6
120.9165,139.1
120.9662,364.8
120.9806,117.4
121.0075,283.1
121.0259,132.1
121.0282,268.2
121.0398,21.7
121.0525,268.8
121.085,139.7
121.1006,436.7
121.1044,308.9
121.122,529.2
121.1237,17.8
121.1655,160.7
121.3092,248
121.3176,110.6
121.3716,20.8
121.3892,551.8
121.4036,643
121.4694,678.3
121.4797,101.2
121.4947,587.9
121.51,205.4
121.5329,212
121.5387,136.8
121.5669,116.2
121.5685,384.6
121.5783,17.2
121.6175,314.7
121.6385,18.3
121.6714,91.3
121.6789,22.1
121.7015,535.1
121.803,149.9
121.8138,16.8
121.8748,161.7
121.8837,281.5
121.9185,462.2
121.9584,346
122.0061,20.5
122.0692,247.9
122.0748,254.5
122.0856,290.1
122.1011,320.2
122.117,585.4
122.1212,295.7
122.1362,222.9
122.2259,386.7
122.2425,461.7
122.255,19.8
122.2791,19.3
122.3405,571.8
122.3415,103.9
122.4837,734
122.5201,202
122.5336,290.2
122.5785,262.4
122.5939,19.4
122.6679,95.9
122.6855,22.3
122.7129,114.8
122.7164,18.7
122.7185,21.6
122.7979,152.2
122.8012,21.1
122.8462,123.6
122.8472,81.8
122.8704,162.2
122.8808,64.9
122.8999,297.4
122.9177,323.9
122.9244,27117.6
122.9294,44.2
122.9519,792.1
123.0529,322.4
123.0743,462.1
123.0758,268.2
123.0804,26.3
123.091,345.7
123.1099,498.2
123.1477,17.2
123.2332,109.9
123.2408,103.6
123.2564,20.7
123.3325,530
123.3956,285.8
123.4242,531.9
123.4352,548.1
123.4733,646
123.5105,20.1
123.5166,366.5
123.6379,245.2
123.6723,441.5
123.6907,677
123.7091,89.9
123.7345,18.9
123.7806,138.2
123.7907,449.2
123.8357,415.1
123.9121,316.8
123.9337,178.8
123.9472,185.4
123.9655,670.6
124.0072,283.4
124.0343,107.6
124.0377,156.9
124.0643,159.8
124.07,17
124.0836,17.2
124.1126,270.9
124.1329,321.5
124.2427,60.5
124.2502,115.1
124.2545,112.7
124.2756,92.8
124.3188,246.7
124.3494,19.5
124.3539,144.6
124.3602,244
124.3733,282.8
124.424,216.9
124.4262,100.8
124.4369,66.2
124.4439,113.8
124.4461,255.9
124.4802,472.4
124.5062,440.5
124.5556,116.8
124.5766,17.3
124.5871,306.5
124.6161,768.6
124.639,422.3
124.6595,18.9
124.6936,17.2
124.6971,561
124.7921,110.5
124.8039,89.1
124.8729,133.1
124.9093,125
124.9225,1434.3
124.9323,207.5
124.9405,238.8
124.9427,403.5
124.986,205.7
124.9918,191.4
124.9997,8210.9
125.0054,864.6
125.0288,455.5
125.037,367.5
125.0387,152.2
125.0596,62.2
125.0616,17.3
125.0971,186.6
125.107,186.4
125.2003,112
125.2119,558
125.3401,191.2
125.351,206.4
125.3628,337.1
125.3692,247.2
125.4717,325.9
125.4955,370.3
125.5545,147.7
125.5669,721.3
125.6002,659.1
125.6372,238.8
125.6491,305
125.6648,308.3
125.681,740
125.7043,339.9
125.8176,108.6
125.8318,19.5
125.8463,124.8
125.8805,110.8
125.8918,17.3
125.9271,297.3
125.9864,367.2
126.0447,345.8
126.0466,460.7
126.1204,19.9
126.2145,207.1
126.2251,115.6
126.3027,242.8
126.3066,113.3
126.3102,131.1
126.3245,113.1
126.379,108.5
126.3834,486.5
126.3892,195.6
126.4019,339.1
126.4282,19.9
126.4511,21.6
126.4526,587.8
126.4764,368.9
126.4777,19.8
126.5397,120.4
126.6367,211.2
126.7254,255.6
126.7833,24.1
126.7929,93.8
126.8049,90.2
126.8363,18.1
126.8407,246.4
126.9507,105.9
126.956,169.5
126.9588,18.7
126.9889,294.3
127.0087,313.2
127.0163,142.8
127.0476,265.1
127.1732,119.9
127.1823,221.4
127.229,119.9
127.26,158.1
127.2669,242.5
127.2785,580.5
127.3225,208.3
127.3413,639.6
127.3606,245.9
127.3962,458.3
127.4316,18.2
127.439,106.5
127.4851,569.5
127.4899,737.4
127.4918,331
127.5413,124.3
127.6256,161
127.6295,453.6
127.6631,427.2
127.6794,115.3
127.7099,409.4
127.7155,409.4
127.7158,404.1
127.7199,348.6
127.7347,470.2
127.7485,19.5
127.7739,459.8
127.8049,532.8
127.8117,18.9
127.8223,364.9
127.9025,760.2
127.9046,212.7
127.9216,128.6
127.9273,308.8
127.9559,470.3
127.9602,16.4
128.0017,87.3
128.0501,475.9
128.1098,19.2
128.1402,158.6
128.1886,732.4
128.255,740.5
128.3012,397.7
128.3314,349.4
128.3637,371.4
128.3665,196.5
128.3937,182.6
128.4197,111.4
128.4701,117.2
128.5028,663.1
128.5133,21.5
128.5432,18.2
128.5583,757.6
128.6029,200.7
128.609,150.7
128.7082,19.9
128.7112,299.7
128.7187,104.3
128.7591,230.3
128.8775,103
128.9531,179.4
128.9637,225.2
129.0757,20.9
129.0967,141.2
129.1023,1229.8
129.1164,372.3
129.1402,114.1
129.2482,19.7
129.2703,113.2
129.272,194.3
129.2912,127.6
129.3414,212.5
129.3629,773.1
129.3979,98.3
129.4147,307.2
129.42,236.3
129.5055,300
129.507,198.8
129.5444,61.4
129.5889,282.6
129.6037,61.8
129.6077,567.2
129.609,16.6
129.6188,16.9
129.6213,103.3
129.6274,106.1
129.7905,184.9
129.8316,87.9
129.8438,171.8
129.9188,122.1
129.9479,288.4
129.9907,458.7
130.0104,587.3
130.0414,105.8
130.0497,10461.7
130.0554,170.3
130.0578,270.3
130.0671,253
130.1596,372.2
130.1667,424.2
130.202,648.8
130.2247,191
130.2449,326.5
130.2469,531.4
130.2696,617
130.2869,401.2
130.3957,16.4
130.4239,164.8
130.4661,96.2
130.4862,522.6
130.515,196.3
130.5326,18.7
130.5489,19.3
130.5844,115.9
130.6255,122.7
130.6501,897.6
130.6725,399
130.6928,149.4
130.7042,347.9
130.7451,146.8
130.7813,528.1
130.8271,735.9
130.8421,277.3
130.8645,293.6
130.9259,185.3
130.9404,162.1
130.9999,86.5
131.0118,421.6
131.0253,437.4
131.0306,407.9
131.0702,384.1
131.0839,132.9
131.107,119.3
131.1076,120.5
131.246,99.4
131.2627,360.7
131.2731,106
131.3212,61.6
131.3586,103.3
131.4218,157.5
131.4297,146.7
131.4482,576.7
131.5279,163.7
131.5376,20.1
131.5828,247.7
131.5847,484.6
131.6349,524.3
131.6695,154.1
131.679,210.7
131.711,475.2
131.7146,61.6
131.7187,493.3
131.733,409.4
131.7343,138.4
131.7601,694.8
131.867,437.1
131.9005,128.4
131.9684,20.4
131.9815,121.2
132.0031,30407.6
132.0053,228.2
132.0115,198
132.0542,125.1
132.0588,310.4
132.0654,57837.2
132.0767,4894.9
132.1166,473.5
132.1278,105.7
132.1815,391.4
132.1996,442.3
132.2026,129.7
132.2625,291.2
132.274,19.5
132.2795,542.9
132.3217,307.2
132.3359,143.1
132.3857,112.5
132.3881,154.9
132.4075,148
132.434,18.5
132.4422,166.3
132.4605,17.6
132.5181,64.9
132.603,678.6
132.6509,70.8
132.6822,96.4
132.7468,423.8
132.7654,208.6
132.7737,126.1
132.8635,255.2
132.9006,385.7
132.9064,168.5
132.9292,564.1
132.958,178.6
132.9871,1894.1
132.991,111.6
133.024,783.8
133.0292,416.9
133.0689,1251.6
133.0858,142.6
133.0915,64.2
133.097,21599.7
133.2253,102.7
133.2465,481.6
133.3062,20.9
133.3194,152.1
133.3377,17.6
133.4112,574.7
133.4366,18.2
133.4401,738.3
133.4917,62.8
133.517,196.7
133.5377,357
133.5856,116.7
133.5878,101.2
133.6426,493.3
133.6846,19.7
133.7285,436.7
133.7468,65.8
133.7591,567.5
133.7749,150.3
133.8199,465.9
133.8508,358
133.8535,170
133.9103,244.3
134.0187,12094.6
134.0813,361.4
134.1401,149.2
134.1623,170.8
134.2288,375.8
134.2539,129.3
134.2656,350.1
134.327,92.6
134.332,18.2
134.3463,157.8
134.3611,407.8
134.3851,611.4
134.4681,117
134.5028,109.2
134.5171,166.4
134.5457,717.6
134.6698,495.1
134.6873,107.8
134.7018,666.2
134.7544,161.7
134.7773,239.1
134.8182,18.4
134.8462,17.6
134.8584,286.1
134.929,166.2
134.9482,387.7
134.955,165.2
134.9965,44.8
135.0028,63241
135.0249,264.8
135.0804,18.7
135.1168,51.6
135.4451,286.9
135.4501,110.6
135.46,90.8
135.4888,351.3
135.5283,315.1
135.5625,631.9
135.5733,108.7
135.5898,150.7
135.5976,298.5
135.6895,421.9
135.7489,155.6
135.8985,530.9
135.9583,728.4
135.966,178.3
135.977,5391.2
136.0064,569.1
136.0208,175.3
136.048,3367.7
136.0513,667.3
136.0617,49.6
136.0756,10633.6
136.1065,502.7
136.1593,701.8
136.1848,105.5
136.1998,151
136.2121,89
136.2386,316.6
136.284,19.9
136.2968,60.3
136.3342,445.2
136.3693,20.4
136.4833,326.2
136.4845,136.3
136.4861,107
136.4866,154.7
136.4873,104.6
136.5009,128.7
136.5189,18.8
136.5205,589.6
136.5312,108.1
136.5541,490.5
136.6132,423.6
136.6197,404.4
136.6426,17.9
136.6872,191.8
136.7121,114
136.7845,556.2
136.8474,442.6
136.8572,417.8
136.8592,212.9
136.8673,57.1
136.8692,451.8
136.9152,292.5
136.93,221.3
136.9861,168.3
136.998,231
137.0645,142.6
137.0943,19.3
137.1217,96.3
137.174,777.9
137.207,646.8
137.2147,228.7
137.2561,583.4
137.2826,166.3
137.3366,473.4
137.3457,278.9
137.3685,94.3
137.3911,212.1
137.4348,430.9
137.4463,272.7
137.4986,343
137.5839,545.3
137.6194,17.9
137.6559,105.1
137.6931,99.6
137.8569,528.2
138.047,333.4
138.0525,6998.5
138.0661,97.1
138.0893,254.2
138.1826,439.9
138.1887,108.5
138.2111,159.7
138.2169,268
138.2185,101.5
138.2535,303.6
138.2599,522.9
138.263,201.9
138.2652,18
138.2992,135.3
138.3118,734.9
138.3792,114.6
138.3871,94.5
138.4167,237.6
138.4648,396.8
138.519,229.3
138.5304,141.8
138.533,616.9
138.6363,20.1
138.6463,590
138.6543,17
138.7023,201.6
138.7795,17.7
138.8206,480.9
138.9031,16.9
138.9064,1286.8
138.9745,285.9
138.9756,300.7
138.9997,548.4
139.042,647
139.0953,414.2
139.1374,19.3
139.1666,197.9
139.2496,234
139.2829,487.5
139.2848,155
139.2863,18.1
139.3337,119.2
139.3402,130.1
139.3621,90.6
139.4158,447.9
139.425,319.2
139.4724,322.5
139.4889,18.2
139.5356,900.9
139.5444,308.4
139.5462,359.4
139.5591,172.7
139.6798,152.6
139.7178,420.3
139.7253,21.9
139.7314,266.2
139.7428,494.2
139.7605,225.3
139.7801,16.8
139.7871,460.3
139.8694,449.7
139.8894,17.2
139.9373,61.8
140.0133,115
140.0164,1602.8
140.0332,291.3
140.059,241.5
140.0681,1954.3
140.0871,539.4
140.1393,133.6
140.1548,19.6
140.1755,277.7
140.2018,421.2
140.2137,495.6
140.2441,42.5
140.2984,130.2
140.3144,314.6
140.3404,124.5
140.3635,432.2
140.3732,348
140.3796,720.2
140.3998,100.8
140.4345,1107.7
140.4404,147
140.4571,108.1
140.4658,200.2
140.4783,472.5
140.5014,95
140.6773,412.7
140.6832,359.6
140.7613,357.6
140.7739,804.3
140.799,472
140.878,145
140.8833,117.5
140.9034,528.8
140.9198,326.5
140.9288,582
140.9599,111.7
140.9978,18.2
141.0004,14735
141.0144,722.3
141.0198,85.7
141.0576,420
141.0581,390.7
141.0591,192.8
141.1035,214.1
141.1128,468.8
141.2555,112.6
141.2927,308.9
141.3078,18.7
141.3261,115.9
141.3494,308.2
141.3597,553.4
141.4656,110.8
141.4997,180.3
141.5029,226.5
141.539,453.1
141.5508,257.8
141.5747,205.7
141.5869,23.2
141.597,435.3
141.7619,146.5
141.7874,349.2
141.798,695.7
141.8897,18
141.9025,218.3
141.947,199.2
141.9916,21.8
141.9952,133.1
142.0037,429.5
142.0193,315.5
142.028,427.9
142.0629,650.4
142.0933,575.5
142.1532,185.6
142.1688,592.3
142.1703,21.5
142.1918,19.9
142.2321,116.7
142.27,438.8
142.2749,114.5
142.3329,20.4
142.4198,535.7
142.4275,17.7
142.4532,342
142.4618,142.3
142.4706,112.2
142.4843,22.7
142.5224,17.4
142.5707,263.7
142.6112,317.6
142.6297,234.3
142.6318,98.8
142.6603,106.2
142.7533,683.4
142.7778,176.1
142.7872,175.7
142.8003,18.5
142.8121,101.4
142.8319,15.9
142.8434,80.3
142.8688,602.7
142.9479,340.5
142.9516,270.5
142.9815,154.4
142.9962,198.6
143.0046,21.6
143.0189,1226.2
143.0415,107.9
143.056,288
143.0728,198.5
143.0768,487
143.0814,108.9
143.1195,663.7
143.122,444.1
143.187,287.9
143.2577,222.2
143.3541,782
143.3606,143.3
143.4085,185
143.4211,226.4
143.4305,360.3
143.4358,676.5
143.4576,300.7
143.4742,156.1
143.5096,152.8
143.5247,118.8
143.5432,237.9
143.5713,308.3
143.6547,128
143.6888,241.4
143.7239,555.5
143.7671,152.2
143.8227,277.1
143.8255,144.7
143.8737,647.6
143.8868,112.3
143.8904,300.1
143.9986,125.3
144.0106,187.2
144.0833,19.9
144.1183,70.3
144.3879,64.4
144.3897,652
144.41,107.9
144.4294,103.8
144.4368,375.4
144.4539,644.8
144.4853,141.5
144.5182,502.6
144.6008,24
144.6022,366.8
144.612,539.7
144.6652,93.2
144.6718,187.6
144.7426,191.5
144.7769,157.5
144.8668,22.1
144.8683,279.3
144.9294,74.3
144.9633,209.3
145.0038,147.8
145.107,191.9
145.1382,134.5
145.2039,128.1
145.2096,546.6
145.2567,357.2
145.3011,295.6
145.3189,290.6
145.3351,93.3
145.3729,111.9
145.4583,258.2
145.5031,355.1
145.5276,834.2
145.5748,342.9
145.5762,300.5
145.5942,244.9
145.6147,170.7
145.6436,105.6
145.6499,377.2
145.6517,423.7
145.6938,132.2
145.7298,61
145.736,156.7
145.7929,252.4
145.8396,254.8
145.8612,182.5
145.9079,230.4
145.9264,339.2
145.9317,179.7
145.9572,313
145.9837,18.5
145.9929,592.2
145.9941,459.7
146.0041,65.6
146.0124,1786.3
146.0188,19263.5
146.0218,145.3
146.0357,19.4
146.0657,319.8
146.0695,462.9
146.0706,405.1
146.0714,270
146.1052,111.5
146.1452,113.9
146.1478,113.6
146.1683,20.3
146.1858,149.5
146.2903,461.2
146.2973,120.6
146.3217,706.2
146.3287,298.9
146.3313,722.2
146.3833,118.1
146.3886,329.8
146.3919,122.4
146.411,298.9
146.478,361.3
146.5278,499.6
146.5429,202.9
146.6421,21.2
146.6581,516.5
146.6749,478.7
146.7066,185
146.721,384.8
146.7275,21.3
146.767,250
146.8109,154.3
146.8136,384
146.828,202.3
146.8462,22.6
146.9271,560.1
146.9282,700.1
146.9745,24.2
146.9817,111907
146.9895,23.9
147.0162,479.1
147.0278,107.3
147.0517,18.2
147.056,731.2
147.0763,71309
147.1127,37463.4
147.1169,210.5
147.1244,662.3
147.1449,333.4
147.2073,527
147.2633,354.1
147.3205,21.9
147.3289,594.8
147.3598,175.8
147.3785,272.1
147.4332,160.3
147.4453,114.7
147.4546,126.1
147.4998,21.6
147.5081,546.5
147.55,427.1
147.5601,598.8
147.6045,130.3
147.6119,159.8
147.6491,20.8
147.6716,315
147.6922,150.9
147.7033,721
147.7125,119.4
147.7332,447.1
147.784,461
147.8126,259
147.889,217
147.9039,254.9
147.9063,318
147.9769,98.1
147.9851,882.2
148.0404,180.8
148.0797,2155.1
148.0893,116.6
148.1119,21.1
148.1293,113.3
148.1378,111.3
148.2799,394.1
148.3436,365.2
148.4197,206.9
148.4494,92.2
148.4529,166.3
148.4751,586.5
148.4997,108.7
148.5321,2091.7
148.5373,298.1
148.5639,326.1
148.5815,335.5
148.6339,515.7
148.6683,145
148.6843,187.5
148.7362,90.3
148.7636,343.4
148.84,58.6
148.8863,18
148.8966,126.3
148.9021,136.8
148.9028,122.6
148.9079,301
148.9146,316.9
148.9287,571.3
148.952,690.7
148.9611,2691.9
148.9724,497.1
148.9885,53.4
149.0023,22.5
149.0184,897.1
149.0232,3778.7
149.0447,141.9
149.0483,152.4
149.0558,225.9
149.0804,579.9
149.095,525.4
149.0989,17.8
149.1512,502.3
149.1616,303.2
149.1754,20.3
149.1796,18
149.1858,166.2
149.2053,104.4
149.2372,565.5
149.4317,265.1
149.4466,291.7
149.4632,507.9
149.4783,18.8
149.4911,107.1
149.5254,20.8
149.574,99.3
149.6377,170.2
149.6484,230.1
149.7185,324.3
149.7822,492
149.8102,313.6
149.9516,340.8
149.987,43
149.9928,10450.2
150.006,17.6
150.0137,3696.2
150.0245,266.2
150.0267,48.5
150.0293,347.5
150.0532,64.3
150.0867,138.5
150.1185,195.1
150.1654,102.3
150.1727,475.1
150.1768,519.6
150.2245,694.5
150.2525,454.2
150.2753,19.8
150.2908,307.9
150.3314,246.9
150.4719,256.1
150.4747,207.1
150.4793,175.6
150.5558,150.6
150.5869,478.6
150.5947,176.9
150.6009,782
150.6144,398.3
150.735,202
150.7373,270.4
150.7655,152.3
150.7693,17
150.7885,743
150.8144,153.4
150.8232,113.1
150.8406,173.5
150.8516,180.5
150.9148,793.4
150.9434,320
150.9727,398.4
150.9768,55551.6
150.984,1183.5
151.034,17
151.0477,3572.2
151.1344,222.3
151.1675,203
151.1752,560.2
151.1824,187
151.2107,357.5
151.2228,16.8
151.2311,126.9
151.2332,19.1
151.2929,295.1
151.3042,559.9
151.4469,19.3
151.4773,17.1
151.5044,321
151.5335,666
151.6156,208.5
151.621,108.2
151.6715,542.7
151.6814,568.8
151.7281,229.7
151.7726,275.4
151.7927,469.4
151.8671,157
151.8907,158.7
151.8928,204.6
151.9233,565.7
151.9313,23.4
151.9513,408.7
151.976,115
151.9801,563.1
152.022,9136.1
152.0317,4973.6
152.0621,20.8
152.1029,354.4
152.1682,16.7
152.2195,221.8
152.223,216.6
152.302,110.4
152.3159,359.8
152.3697,417.9
152.4419,406
152.4653,134.5
152.5296,21.4
152.583,291.8
152.6574,718.3
152.791,224.7
152.858,686.7
152.9452,731.9
152.9748,1701.1
152.9845,20.8
152.9864,174
153.0507,111.9
153.0783,314.1
153.163,507.7
153.2449,125
153.3277,138
153.3391,328.1
153.5218,108.3
153.5481,507.9
153.5593,105.2
153.575,19.9
153.5891,319.9
153.5938,256.6
153.6502,18.3
153.7666,108.5
153.8338,483
153.8898,536.7
154.0111,532.2
154.0265,1177.7
154.0586,6226.8
154.0649,223.7
154.1559,110.5
154.1625,18.6
154.2048,129.2
154.2286,102.8
154.2304,348.7
154.2492,228.7
154.2669,390.4
154.297,261.8
154.3277,284.4
154.3503,121.4
154.3828,124.8
154.4521,413.5
154.4546,97.7
154.456,264.5
154.4621,350.3
154.5027,219.3
154.608,231.3
154.7868,368.8
154.793,140.5
154.8132,166.9
154.8801,364
154.9073,113.5
154.9158,103.6
154.9416,165.2
154.9692,703.2
155.0033,89.4
155.0426,1833.4
155.0492,1078.9
155.0508,636.5
155.0539,6288.5
155.0641,156
155.0791,1026.2
155.0924,188.6
155.141,568.3
155.2235,21.9
155.2981,291.4
155.3493,190.3
155.3519,513.9
155.3837,172.1
155.3968,471
155.4316,98.8
155.4331,445.1
155.4502,150
155.4634,300.4
155.465,594.8
155.4927,144.3
155.5027,115.3
155.5066,293.1
155.5173,17.7
155.5231,480.2
155.5423,119.7
155.5641,479.2
155.5967,186
155.6111,116.7
155.673,448.1
155.6927,18.7
155.7248,227.7
155.7663,127.1
155.7779,550.2
155.842,21.5
155.8443,446.9
155.8625,401.5
155.9056,421.3
155.9198,19.3
155.9486,72.6
155.951,755.7
155.9996,552.1
156.011,26.4
156.0224,587.9
156.0422,2374.5
156.0572,150.1
156.0767,64140.1
156.1617,122.7
156.1778,421.7
156.1844,606.4
156.1949,125.8
156.3251,17.9
156.3629,407.2
156.3755,232.6
156.3803,230.5
156.384,164.8
156.3896,176.1
156.4257,211.3
156.4461,58.7
156.4855,579.6
156.513,106.8
156.5351,364.6
156.5403,123.5
156.5488,158.7
156.6029,144
156.6128,253.3
156.6315,402.6
156.6431,226.5
156.6543,110.6
156.6934,20.5
156.7239,1066.9
156.7742,63.1
156.7888,292.5
156.7955,17.8
156.8185,20.8
156.8304,289.7
156.837,192.2
156.8648,295.6
156.8733,496.5
156.9337,598.9
156.9483,161.4
157.0197,175.9
157.0289,514.8
157.0672,388
157.0836,16.3
157.0973,196.7
157.2004,17.7
157.2116,324.1
157.2483,200.4
157.2737,147.3
157.2889,792
157.2986,402.5
157.3886,193.7
157.4104,912.9
157.4243,193.4
157.4385,197.4
157.4895,18.5
157.5928,278
157.606,360.1
157.6632,557.7
157.6847,138
157.7114,279.8
157.7186,312.7
157.7206,146.9
157.7915,322.2
157.7972,236.9
157.8177,397.4
157.8632,255.8
158.0133,18.8
158.027,3564.6
158.1053,205.8
158.1116,161.4
158.1371,761.4
158.1444,225.3
158.1619,578.9
158.2174,438.9
158.308,259.8
158.3564,204.8
158.3704,543.1
158.3834,284.3
158.4153,167
158.5681,294.8
158.5707,398.3
158.6252,119
158.6354,804.5
158.6556,153
158.7302,155.6
158.8662,405.1
158.9185,135.4
158.9279,1367.1
158.9411,172.4
158.9603,582.5
158.9641,9878
158.9964,5205
159.0025,17.8
159.01,108.9
159.0114,319.4
159.0142,381.5
159.0282,258.4
159.0304,90.2
159.047,19.7
159.0789,417.2
159.1166,24
159.1516,127.9
159.2495,454.7
159.2897,259.3
159.333,216.9
159.3354,169.9
159.3969,291.8
159.4583,125.2
159.4712,362.6
159.4819,109.9
159.5307,693.3
159.5356,121.6
159.5745,218.9
159.5898,119.3
159.6557,102.3
159.6869,22.9
159.7526,403.2
159.7958,286.9
159.8425,631.3
159.9777,555.5
160.0016,256.2
160.0157,185.5
160.0229,73
160.0278,19.6
160.0345,14414.8
160.0604,55396.8
160.0879,117
160.1285,195.2
160.1405,85.5
160.1517,113.1
160.2603,316.7
160.2924,156.2
160.2985,335
160.3399,19.7
160.3454,120
160.3781,262.5
160.4392,312.3
160.4696,253.2
160.5045,307.9
160.608,156
160.6142,205.2
160.6241,192.8
160.6333,201.2
160.6356,108
160.6445,18.9
160.6554,302.6
160.6696,82.2
160.6749,15.9
160.6818,732.1
160.7098,119.6
160.7236,141.2
160.7267,618.1
160.8738,126.4
160.9214,614.7
160.9527,485.8
160.9752,273
160.9922,22.7
161.0169,346.4
161.0639,1806.7
161.0961,46.8
161.1582,186.8
161.2741,17.7
161.2957,433.1
161.3631,18.5
161.3647,717.1
161.3887,17.4
161.4762,209.7
161.5153,266.8
161.6685,105.2
161.6865,169.2
161.712,181.7
161.9146,123
161.9213,217.3
161.9971,21.2
162,111.2
162.0331,214.6
162.0501,14226
162.0537,111.4
162.0968,267.9
162.1162,163.9
162.1685,359
162.2029,446.5
162.2464,178.7
162.3124,457.7
162.3957,570.1
162.4289,19.3
162.4369,114.5
162.4937,590.8
162.5058,195.7
162.5146,127.8
162.5163,713.8
162.5199,228
162.5346,501.8
162.6954,360
162.7456,386.1
162.7574,86.4
162.7596,618.7
162.824,303.6
162.8704,85.8
162.8891,232.9
162.9314,382.6
162.9557,4041
163.0154,1638.6
163.0351,397.5
163.0474,456.7
163.0607,24.9
163.0626,527.8
163.0876,488.3
163.1035,198.5
163.185,168.5
163.2532,20.1
163.2724,105.1
163.4116,256.3
163.416,317.1
163.4868,16.8
163.5236,228.3
163.5316,526
163.6151,16.7
163.6378,18.2
163.6729,640.7
163.6771,102.8
163.6786,327
163.6813,309
163.6853,293.2
163.6948,98.9
163.8473,162.5
163.8522,299.4
163.874,282.6
163.88,19.1
163.9541,206.8
164.0121,119.6
164.0231,259.3
164.0294,10258.2
164.0328,130.6
164.0451,632.4
164.1293,194.5
164.1613,87.2
164.3674,20
164.3883,117.5
164.4041,428.1
164.5362,22.8
164.555,346.1
164.7016,172.8
164.7275,289.5
164.7655,282.1
164.7906,111.9
164.9205,2849.5
164.9301,8299.2
164.9351,2695.5
164.9428,385.3
164.9804,473
164.9997,67
165.0326,233
165.0352,235.4
165.0915,177.7
165.1311,115.4
165.1338,100.4
165.1853,18.8
165.1987,218.5
165.2543,99.1
165.3404,342.3
165.3616,19.9
165.3674,725
165.6062,209.4
165.6763,109.6
165.7164,302.6
165.8917,210
165.9006,124.4
165.9667,2527.7
165.9789,1076.6
165.9877,5244
165.9949,353.5
166.0839,779.3
166.0859,141.3
166.1374,149.7
166.2322,96.3
166.26,127.8
166.2835,304.9
166.3076,131.9
166.383,463.5
166.4164,20.1
166.4276,370.6
166.44,21.4
166.4624,19.6
166.4649,250.8
166.4938,181.3
166.5461,156.5
166.6056,381.1
166.6232,507.7
166.6359,19.2
166.6387,402.1
166.6479,449
166.686,461.8
166.8247,301.1
166.9507,25040.3
166.9628,885.5
167.0001,46.6
167.0217,10100.8
167.0339,136.3
167.0408,738.8
167.0825,19.6
167.1965,18
167.2804,121.6
167.3133,311.1
167.3645,281.3
167.3937,729.8
167.4316,445
167.4855,78.2
167.5538,100.6
167.5582,727.7
167.614,149.3
167.6884,101.9
167.6965,590.4
167.7248,459
167.7714,205.6
167.7818,165.1
167.8154,137.9
167.8196,435.6
167.8356,124.6
167.8897,328.5
167.9082,286.8
167.9432,113
167.95,114.5
167.9853,298.3
167.9945,1816.1
168.0057,902.6
168.0261,137.4
168.051,212.6
168.0522,459.9
168.0532,493.2
168.064,190
168.0678,192.7
168.1166,137.4
168.1406,424.6
168.1743,21
168.206,300.7
168.2872,356.9
168.314,308.5
168.3307,310.6
168.3891,187.9
168.4346,59.7
168.515,21.2
168.6026,218.4
168.6544,301
168.704,316.5
168.7796,18.8
168.861,292.3
168.9007,152
168.9368,383.7
168.944,17.5
168.9488,3771.2
168.9704,22.8
169.0132,660.2
169.0583,63371.1
169.0649,1192.9
169.077,161.6
169.0946,2826.9
169.1667,326.7
169.1904,123.4
169.2183,318
169.2266,133.9
169.2299,97
169.2846,145.5
169.3172,613.2
169.3453,453.4
169.4365,267
169.4421,264
169.4624,445.5
169.4663,381.1
169.4695,105.6
169.4843,20.7
169.6234,330.1
169.6384,138.3
169.7432,222.5
169.8175,130.2
169.8208,470
169.8998,867.8
169.9603,94.3
169.9714,18
170.0114,164.7
170.0195,121.3
170.0256,841
170.0326,8611.4
170.0392,207.4
170.0618,1344
170.0757,531.1
170.0924,6666.4
170.153,98.1
170.1827,508.2
170.33,337.3
170.397,533.7
170.4077,127.7
170.4734,435.7
170.4897,473.7
170.5024,452.7
170.5149,218.7
170.5348,120.2
170.5834,608.9
170.5899,123.2
170.6382,136.6
170.7136,187.5
170.8041,158
170.8543,5347.8
170.9134,383.6
170.9227,628.6
170.9365,18.9
171.0087,312.2
171.0121,201.3
171.0166,2784.2
171.0279,226.2
171.0531,1543.8
171.1649,480.7
171.2332,178.4
171.4034,270.3
171.4698,317.2
171.4752,192.5
171.5037,783.7
171.5549,98.9
171.6153,424.5
171.6323,180.6
171.6773,529.2
171.7414,303.2
171.7607,21.2
171.8109,170.1
172.0238,262.3
172.0282,1361.6
172.0613,320.2
172.1069,354.6
172.1134,20.3
172.1419,231.8
172.1592,299.8
172.3368,457.8
172.3621,17.2
172.4317,525.1
172.4804,665.5
172.5438,16.4
172.5521,141
172.5768,165
172.5828,631.9
172.6428,135.9
172.6753,255.5
172.8514,2469.6
172.8551,66.5
172.9639,115.6
172.993,20.3
172.9962,575
173.0267,209.9
173.2861,385.1
173.3265,162.4
173.3905,382.9
173.4588,458.2
173.5707,252.6
173.6184,478
173.7055,257
173.8222,236.5
173.8619,129.5
173.8689,678.5
174.0015,129.9
174.0517,384.9
174.0624,470.4
174.0737,164
174.1654,469.8
174.1935,434.2
174.2705,131.6
174.2751,491.6
174.2817,389.3
174.3075,19.2
174.3933,99.5
174.4515,451.2
174.4601,483.4
174.4999,95.4
174.5264,22
174.5631,96.3
174.576,600.7
174.5798,334.2
174.8034,358.8
174.8123,282.4
174.8482,363.4
174.8992,132
174.9049,259.6
174.9127,530
174.938,8163
174.9891,145.9
174.9943,17.8
175.0171,408.6
175.0342,7815.9
175.0423,688.4
175.0454,2546.4
175.119,99948.8
175.1869,20.2
175.2186,94.9
175.2285,289.2
175.2951,442.2
175.3322,230.9
175.3479,155.6
175.5083,89.5
175.5184,130.8
175.5218,477.5
175.5297,442.9
175.5688,138.1
175.7084,95.5
175.7308,423
175.8846,123.5
175.9162,281.4
175.9349,167.1
176.0017,300
176.0084,7808.9
176.0134,477.8
176.0406,414.5
176.0658,20892.5
176.0792,106.5
176.0891,18.3
176.1031,1932.9
176.1223,2259.3
176.1312,140.6
176.2025,545.1
176.4131,102.9
176.4212,110
176.5219,541.5
176.5713,60.4
176.5906,106.8
176.7157,18.9
176.7951,20.9
176.82,97.1
176.8937,417.1
176.9219,300
176.9253,173.3
176.9368,21.2
176.9684,445.5
176.9926,1484.6
177.0081,114.9
177.0247,5059.6
177.0284,22.5
177.0611,6279.4
177.0692,792.8
177.0799,193.9
177.087,2627.7
177.1825,95.3
177.3076,699.5
177.3938,59.8
177.5067,272.8
177.5592,169.8
177.6065,92.6
177.7461,356.8
177.8041,20
177.8093,164.8
177.8522,18.8
177.8773,224
177.9437,516.9
178.0087,10075.9
178.0136,106.8
178.0167,94.1
178.0241,10786.6
178.0429,186.3
178.0587,3130.5
178.0644,878.7
178.1333,18.4
178.1836,115.6
178.3067,186.5
178.3212,432.5
178.3584,207.6
178.3882,243.8
178.5753,407.2
178.593,196.4
178.6295,123.2
178.6467,130.4
178.706,369.9
178.7537,227.5
178.8624,237.5
178.9136,372.6
178.9631,107.4
178.9642,91.9
178.984,297.9
178.9886,100.6
178.9922,18.9
179.003,24
179.0244,97.7
179.0443,20.4
179.0492,101.2
179.1242,260.2
179.16,206.2
179.3441,234.2
179.397,727
179.4129,95.6
179.5537,207.3
179.5755,148.9
179.8118,196.1
179.8357,122.2
179.8617,173.8
179.8846,185.1
180.0034,10594.2
180.0412,66.8
180.0789,316.2
180.1715,303.5
180.2112,105
180.2408,337.6
180.2763,101.7
180.2827,109.9
180.3732,115.6
180.3906,221.6
180.4077,314.9
180.4163,392.6
180.451,438
180.5147,20.7
180.5471,117.7
180.7623,136
180.7802,158.9
180.883,428.9
180.888,207.7
180.8944,3016.4
180.904,4634.1
181.016,23.9
181.0464,494.5
181.0492,456.9
181.0649,8799.3
181.1284,363.9
181.1466,163.8
181.1653,301
181.2332,19.2
181.2348,112.1
181.2468,365.1
181.3238,110.6
181.3549,344.4
181.3838,18.7
181.4131,299
181.4403,340.2
181.5579,199
181.6017,94.7
181.6662,179
181.7467,18.5
181.7638,64.9
181.8496,103.2
181.8604,395.6
181.8644,337.1
181.8685,274.2
181.8749,18.3
181.897,267.2
181.9615,424.8
182.0082,155.4
182.0126,647.9
182.0425,34622.8
182.0793,19.4
182.0917,235.6
182.1265,250.8
182.1433,121.8
182.1515,112.4
182.1617,287.2
182.2591,100.6
182.3082,703.5
182.3876,108.1
182.4417,380.1
182.5327,500.1
182.6077,482.7
182.8232,401.3
182.8442,17.2
182.9027,34.7
182.9602,439.5
182.9658,315.3
183.044,1192.3
183.0747,547.8
183.117,245.1
183.2282,20.3
183.3463,276.3
183.3639,279
183.4147,124.6
183.4461,674.7
183.4604,518.4
183.5232,25
183.5296,23.3
183.5513,153.7
183.6425,131.1
183.8845,102.3
183.8949,137.3
183.9006,117.7
183.923,354.6
183.9649,1335.9
184.0013,18.4
184.037,454
184.0546,205.2
184.0734,3915966.3
184.08,445.1
184.0844,130.3
184.1099,359.4
184.1316,115.5
184.1337,188.3
184.1698,17.5
184.182,1280.2
184.1942,303.7
184.1972,485.2
184.211,692.8
184.2322,182.5
184.2486,20.2
184.2506,116.7
184.2605,518.8
184.2809,109.7
184.2909,107.8
184.3462,438.8
184.3703,464
184.4046,178.7
184.4226,98.7
184.4333,228.6
184.4573,550.3
184.4867,214.2
184.5002,237.9
184.5291,114.3
184.552,71.9
184.5715,211.8
184.5943,17.5
184.625,568.1
184.744,19.4
184.7877,233.2
184.8411,183
184.8451,126.6
184.8674,310
184.8794,336.9
184.9203,23.9
184.9473,647.5
185.0323,95092
185.0701,7000.3
185.0767,183432.1
185.1439,695.5
185.1478,160.7
185.2338,496.3
185.2619,530.3
185.2625,546.3
185.3136,343.6
185.3366,378.2
185.4176,117.5
185.534,154.2
185.5832,131.8
185.6858,157
185.7067,141.3
185.7838,16.9
185.8519,319.6
185.8991,249.6
185.9825,178
185.9987,351.6
186.0357,1386
186.0776,23539.5
186.1004,108.9
186.1402,157.2
186.1569,481.5
186.1642,384.6
186.1843,177.9
186.262,430.1
186.2755,433.5
186.2996,59.4
186.3972,152.8
186.5366,325.8
186.6143,192.8
186.6535,153.8
186.7545,123.6
186.7749,169.1
186.8109,436.3
186.8503,846.6
186.878,132.5
186.9052,114.8
186.9118,560.3
186.9983,104.4
187.0305,2760.2
187.0578,6366.5
187.0714,2273.6
187.1079,816.3
187.2678,825.2
187.3178,313.7
187.3353,107
187.4274,521.8
187.4311,65.2
187.4882,288.1
187.5064,385.7
187.5703,438.8
187.615,18.3
187.9507,359.2
187.9553,17.8
187.9584,111.6
187.9718,543.7
187.9779,219.4
187.9987,119.9
188.0691,285.5
188.0711,351.9
188.1209,462.5
188.1473,17
188.1626,66.7
188.1799,22.3
188.2701,375.6
188.2906,202.1
188.3603,262.1
188.4074,445.4
188.4857,415.6
188.6071,112.4
188.7261,596.9
188.7725,393.1
188.7894,117
188.8186,508.3
188.9367,101
188.9428,125.8
188.9774,121.7
189.0166,199.7
189.0323,229.9
189.0611,3282.9
189.0871,11419.2
189.2496,501.6
189.3198,473.6
189.3668,660.1
189.406,651.8
189.5482,17.7
189.7861,359.5
189.9018,49.5
189.9245,142.8
189.9509,165.1
190.2093,108.2
190.2481,89.7
190.2757,143.7
190.3436,336.5
190.3699,155.5
190.3856,112.9
190.4549,195.7
190.4909,483.7
190.585,235
190.6258,296.6
190.6883,104.4
190.7315,369.7
190.7638,105.5
190.8267,271.9
190.8736,551.7
190.9096,325.7
190.9121,1375.1
190.9467,86.9
190.9501,457.6
191.0001,57
191.0082,6786.9
191.0404,120159
191.0768,21162.6
191.1319,150.8
191.2655,16.3
191.2748,93.6
191.32,116.9
191.482,438.6
191.653,193.4
191.6966,63.8
191.7853,454.9
191.8048,397.8
191.8171,152.2
191.8511,17.9
191.8806,19.7
191.9018,97
191.9484,300.5
191.9825,1783.1
192.0109,52.7
192.0146,362.2
192.0398,16000.4
192.0439,1352.6
192.0531,20
192.0606,261.9
192.1344,522.9
192.1634,204.7
192.257,349.8
192.2903,547.3
192.3287,508.1
192.3838,578.7
192.4196,108.8
192.4959,65.8
192.5539,706.8
192.5973,161.3
192.657,170.1
192.677,290.6
192.7049,140.9
192.8224,195.5
192.8248,503.8
192.9021,703
192.9987,4417.1
193.0158,61
193.029,201.2
193.035,2503.9
193.0549,96.3
193.0969,20.6
193.1419,169.2
193.1775,118.9
193.1858,287.7
193.1981,17.9
193.2136,178
193.2734,287
193.3148,326.2
193.3622,257.8
193.3658,22.3
193.4226,370.3
193.4274,318.6
193.4816,89.2
193.4962,137.2
193.559,117
193.5952,282.7
193.6301,201.3
193.6687,292.4
193.7109,499.4
193.7383,318.5
193.7579,177.9
193.7716,62.2
193.774,185
193.7788,436.8
193.7849,435.9
193.8605,168.4
193.9982,3003.4
194.0045,1177.9
194.0101,642.7
194.0228,629.8
194.0326,599.7
194.0678,262
194.1005,19.7
194.1113,752.3
194.1327,290.5
194.1558,497.6
194.1686,509.3
194.2287,408
194.2503,172.7
194.2567,526.4
194.3034,257.1
194.3278,133.3
194.3528,221.9
194.4112,438.7
194.4478,111
194.4617,22.8
194.5655,97.2
194.6689,18.3
194.7076,324.4
194.7823,665.8
194.8084,19.2
194.844,125.9
194.8887,289.1
194.9044,26.7
194.9297,17.3
194.9397,110.3
194.9776,171.9
195.0721,683.6
195.106,20.2
195.152,528.4
195.1554,17
195.3198,235
195.3267,180.7
195.3648,123.6
195.5315,112.5
195.5665,409.9
195.6729,303.1
195.8527,441.7
195.8539,436.1
195.9229,142.9
195.9289,181.9
195.9774,1156.9
196.0274,187.4
196.0364,290.4
196.0575,17.6
196.0615,17.8
196.0792,116.5
196.1697,285
196.1799,294.1
196.3071,181.7
196.3149,337.3
196.4375,106.7
196.5288,124.2
196.54,126.1
196.5613,110.3
196.7652,123.2
196.7754,205.3
196.7915,301.9
196.8406,618.8
196.8652,4880
196.8686,948.4
196.8779,882.5
196.8889,180.4
196.9266,92.3
196.9321,23.2
197.0196,18.2
197.0322,248.8
197.0407,127.2
197.0594,329
197.0664,111.7
197.1011,1022
197.1039,204
197.1334,128.2
197.2045,21.8
197.2246,545.9
197.362,183.7
197.3907,102.5
197.441,211
197.5695,162.7
197.7637,19.4
197.9253,426.7
197.9431,66.1
197.99,118.5
198.0328,479.8
198.0584,94.4
198.085,5620.6
198.0892,557.1
198.1611,364.8
198.1853,5117.1
198.2091,154
198.3061,124.7
198.3388,221.8
198.3525,98
198.3613,595.9
198.3799,319
198.4043,19.1
198.4235,19.8
198.4444,106.8
198.4852,180.4
198.5184,536.4
198.5295,121.1
198.5368,186.7
198.5811,346.3
198.6626,101.2
198.689,506.6
198.8207,476.4
198.8624,3634.7
198.8997,30.1
198.9737,449.7
198.9875,459.4
199.069,2032
199.0754,1582.5
199.0802,119.7
199.1599,18.1
199.1817,516.7
199.1886,230.6
199.2157,275
199.2233,150
199.2657,127.6
199.4048,347.9
199.4182,101.2
199.5335,622.2
199.5401,119.1
199.5713,19.3
199.6692,115.8
199.7237,226.4
199.7578,170.9
199.8673,368.1
199.9051,347.7
199.9204,225.9
199.9527,102.3
199.9907,36698
200.0408,15076.6
200.0541,186.4
200.1306,19.5
200.214,463.6
200.2165,270.8
200.2342,527.1
200.2654,508
200.305,309.7
200.3108,148.7
200.3177,7376.1
200.3195,7472.3
200.3809,130.1
200.3978,123.7
200.4269,236.2
200.4795,118.5
200.6338,18.4
200.6866,316.4
200.793,358.1
200.8267,16.8
200.8592,497.5
200.8943,1704.4
200.9724,112.5
200.9946,305.8
201.0008,624.9
201.0548,121.4
201.087,247.1
201.1575,17.1
201.1812,22.1
201.2648,17.3
201.2794,393
201.3,362.1
201.3268,199.7
201.3348,85.4
201.3684,687.5
201.4045,115.3
201.4735,513
201.8085,301.5
201.851,18.3
201.8647,207.7
201.8943,172.8
201.9499,19.2
201.9546,140.9
201.9679,696.7
201.9952,270.3
202.016,72
202.025,232.2
202.0894,16.6
202.1649,65
202.2349,144.9
202.2764,112.8
202.2906,142.9
202.4939,149.5
202.5425,18.6
202.5678,419.6
202.5786,531.5
202.6074,658.8
202.6503,14112.6
202.6836,19.6
202.7334,118
202.7535,259.8
202.7747,250
202.8057,335.3
202.873,181.9
202.8926,24.5
202.9952,18.5
203.0084,440.8
203.0111,22
203.0319,2732.6
203.0527,951286.2
203.0767,8090.2
203.0951,189.5
203.0996,19.1
203.1772,282.9
203.2005,438.3
203.2023,532.9
203.2337,117.2
203.4554,80.9
203.5209,124
203.6478,273.3
203.7236,296.7
203.7779,145.8
203.8597,212.9
203.8687,84.5
203.8885,61.6
203.8989,752.5
203.9196,196
203.9512,182
203.9564,306.1
204.0033,57.8
204.0115,19.6
204.0165,504.7
204.0244,46166.9
204.0321,24.7
204.0346,229.4
204.0561,44354.7
204.0643,179
204.0868,528.7
204.1047,477.5
204.1338,119.4
204.2252,157.2
204.2538,457.7
204.2721,873.2
204.3972,184
204.4391,17.7
204.5049,99.3
204.8287,99.8
204.8516,302.1
204.8887,2525.6
204.9229,246.2
204.9929,290.3
205.0178,514.3
205.0279,790.5
205.0386,463
205.057,4646.6
205.0835,173
205.0902,711.8
205.1742,178.7
205.2195,139.9
205.228,124.7
205.2912,17.1
205.3029,191
205.3391,453.3
205.3968,82.8
205.4105,19.9
205.4941,372
205.5585,278.8
205.6394,187.2
205.7057,412.5
205.734,19.5
205.8888,171.8
205.9031,370.6
205.9692,195.8
205.9788,19.1
206.0266,22.5
206.0474,102.1
206.0554,1461.5
206.0865,18.7
206.0917,191.2
206.0956,92.8
206.2053,100.3
206.3298,17.4
206.3388,563.3
206.4974,155.8
206.5704,490.4
206.5867,267.7
206.6192,464.1
206.6734,196.3
206.697,255.7
206.7854,22.5
206.8874,48.9
206.894,13307.9
206.9015,847.2
206.9369,17.5
206.9779,202.5
206.9821,4990.8
206.9917,25
207.0092,585.7
207.0144,99949.7
207.0345,498.4
207.0442,1479.4
207.0507,12663.8
207.0648,116.9
207.1344,21.4
207.1904,219.1
207.2689,102.7
207.3148,21
207.3279,97.5
207.3527,498.3
207.4967,633.3
207.5026,428.2
207.5115,298.4
207.7351,610.4
207.7818,589.3
207.8528,358.8
207.8599,297.2
207.8653,226.2
207.877,68.4
207.8838,103.7
207.9346,166.9
207.9908,123.7
208.0138,3420.1
208.0177,3075.5
208.0432,19.2
208.0689,140.5
208.1233,101.8
208.2868,467.2
208.3109,384.5
208.4662,223.1
208.4873,346.9
208.497,329.3
208.5748,107.2
208.5908,87.8
208.6255,110.9
208.638,388.7
208.648,443.5
208.7209,142.2
208.7859,17.1
208.8831,914.5
208.891,6423.1
208.8972,343.8
208.9354,574.9
208.9399,245.2
209.0067,115.3
209.0125,4095.3
209.0185,609.2
209.0493,509
209.1489,168.9
209.2014,193.1
209.2169,604.1
209.2917,18.6
209.3104,117.4
209.3213,18.1
209.3329,275
209.3732,484.9
209.3924,258.5
209.4282,66.5
209.5602,143.2
210.0495,20.1
210.7443,127.8
210.769,357.6
210.8582,303.2
210.8632,138.7
210.8971,318
210.9578,253.4
210.9758,120.4
211.0078,160.9
211.0488,255.8
211.0566,466.4
211.069,1545.2
211.1367,104.1
211.1446,121.7
211.1626,69.7
211.1665,307.8
211.1714,129.7
211.2053,22.9
211.2352,113.9
211.2646,469.3
211.2764,313
211.2821,270.3
211.3001,21.3
211.3033,1464.8
211.3072,6719.5
211.3109,12205.1
211.3155,20980.3
211.3218,21272.1
211.3243,21539.9
211.3272,18510
211.3795,202.6
211.5442,80
211.5613,19
211.6432,484.5
211.7538,115.5
211.7607,131.8
211.8031,20.5
211.808,510.4
211.8114,304
211.851,108.8
211.9606,369.1
211.9831,325.1
212.0024,121.2
212.0637,205.3
212.0737,601.1
212.1926,205.2
212.2606,307.7
212.4338,17.3
212.4391,131.3
212.478,221
212.5182,87
212.5261,611.3
212.5409,210.5
212.5556,515.6
212.8291,224.2
212.8393,1683.9
212.963,770.1
212.9785,629
213.0392,105.3
213.0548,778.4
213.0753,496.1
213.0994,167.1
213.1287,225.9
213.1531,119.9
213.1808,100.1
213.3624,253.9
213.3727,124.6
213.4408,387.2
213.4488,161.5
213.6428,161.1
213.6715,435.1
213.7035,105.4
213.7349,671.7
213.7624,861.5
213.8296,419.8
213.8764,220
213.962,475.3
213.9846,343.4
214.059,12642.7
214.0655,203.4
214.0762,225.3
214.0897,1253.2
214.1297,148.6
214.1429,123.3
214.1855,227.5
214.2987,106.6
214.5128,313.9
214.5444,20.7
214.574,311.7
214.5962,518.7
214.6494,191.4
214.6598,343
214.6759,19.3
214.694,57.4
214.7708,96.9
214.8174,87.3
214.8317,58.7
214.8361,1536.8
214.8688,18.2
214.8734,249.2
214.9099,329.3
214.9175,55.8
214.9721,328.9
215.0428,317.1
215.0934,73.5
215.1315,19.3
215.1423,17.6
215.2022,90.4
215.2949,414.3
215.3153,18.2
215.4281,352.6
215.5108,506.3
215.538,113.8
215.8083,268.8
215.8401,149.6
215.8736,19.8
215.9136,364.8
215.9369,413
215.9424,233.1
215.9489,100.8
215.9539,257.1
215.9951,249.3
216.0147,12680.7
216.0892,233.9
216.0979,312.7
216.2381,292.9
216.2578,123.8
216.2782,112.1
216.5523,545.2
216.5585,62.2
216.5786,549.6
216.5875,332.6
216.7095,721.5
216.7653,456.4
216.8727,534.7
216.8888,68.8
216.8998,19.4
216.9228,39906.5
216.9286,511.1
216.9505,307.3
216.9843,25.5
217.0112,18.7
217.0181,1251.7
217.0277,18.4
217.0523,279.4
217.0556,111.8
217.1211,348.3
217.1272,443
217.1318,462.8
217.3995,485.7
217.4121,271.6
217.4548,20.3
217.5021,598.1
217.6972,402.2
217.8666,102.1
217.8724,741
217.8965,156.2
217.9224,72.1
218.011,230.8
218.1517,45.5
218.2076,676.6
218.231,534.8
218.3167,20.6
218.3665,527.6
218.3903,205.7
218.459,19.6
218.8433,22.3
218.8677,182.4
218.9044,891.9
218.9199,10066
219.0267,1330928
219.0355,463
219.0519,213.5
219.083,7137.4
219.2783,514.9
219.3416,232.1
219.5704,192.1
219.6333,265.2
219.6653,232.2
219.6702,193.2
219.6781,463
219.7326,859.1
219.7397,90.8
219.7882,60.5
219.8299,124.5
219.8503,243.7
219.8555,333.1
219.9041,508.6
219.9745,16.9
219.9836,21.7
219.9983,286.1
220.03,69394.9
220.0602,473.7
220.0669,8577.2
220.1307,116.2
220.1673,407.3
220.3168,449.2
220.3616,100.6
220.3715,307.9
220.3777,20.9
220.3835,236.1
220.4356,317.1
220.4621,104
220.6762,529.4
220.6971,132.7
220.7731,229.3
220.8046,185.7
220.8101,131.4
220.8541,221.4
220.8836,248.4
220.9229,147.1
220.9838,21.3
221.0248,76318.4
221.0309,8605.2
221.0509,908.4
221.0845,699
221.1352,106.7
221.1703,23.4
221.1805,405.7
221.2184,199.3
221.2942,19.3
221.3096,130.4
221.4266,276.1
221.4693,184.4
221.5019,350.8
221.696,382.8
221.7115,64.2
221.7144,425
221.7536,19.7
221.7656,19.8
221.8271,219.9
221.8503,270.9
221.8704,18.5
221.9384,323.6
221.9563,96.7
221.9838,1257.8
221.9922,253.8
222.0021,299.5
222.0281,2439.4
222.0845,38.3
222.0891,815.7
222.1026,154.3
222.1845,100.3
222.2133,114.9
222.2276,69.7
222.2415,275.6
222.3135,126.9
222.3686,149.2
222.4736,185.3
222.5075,302.7
222.5111,240.4
222.5772,300.4
222.6705,301.5
222.6985,170.7
222.7916,469.2
222.8679,13785.3
222.8758,153.6
222.8794,1027.1
222.8989,224.2
222.9337,303.3
222.9884,13753.9
223.0246,1054.9
223.0381,384.1
223.0606,155.8
223.0636,87.2
223.2338,101.9
223.2558,124.6
223.2665,319.9
223.2898,66.1
223.3415,295.7
223.4043,28.3
223.4214,114.9
223.6077,456.3
223.6236,19.1
223.7184,119.5
223.7219,117.5
223.7257,248
223.8323,430.6
223.8515,305.7
223.9318,20.2
223.9533,101.2
223.9677,329.7
223.9766,19.9
223.9918,471.5
224.0295,441.8
224.0894,16.7
224.1054,654
224.1281,164.8
224.2298,202.4
224.308,20.8
224.3623,376.2
224.5915,517.2
224.6228,155.5
224.7109,490
224.7943,18.7
224.8412,168
224.8649,7313
224.8814,120
224.8899,402.8
224.9235,20
224.9274,43.2
224.9758,134.7
224.98,519.1
224.9865,626.1
225.0238,20.8
225.0282,219.2
225.0548,24726.7
225.0796,511.8
225.0844,240.2
225.0906,120.6
225.1102,192
225.1177,123.9
225.1487,183.6
225.1896,350.6
225.2055,476.7
225.2852,18.6
225.3069,20.1
225.3191,186.4
225.3521,208.5
225.411,664.7
225.496,718.7
225.584,517.9
225.7613,62.2
225.7783,101.1
225.7869,295.1
225.8146,481.4
225.9378,100.8
225.9623,53.2
226.0003,358.8
226.0063,1460.5
226.0242,8455.1
226.0452,5650.4
226.1677,93.1
226.1735,203.7
226.2038,494.1
226.208,554.4
226.2112,269.9
226.2192,348.3
226.2541,110.7
226.2945,483
226.3044,92.5
226.3893,119.1
226.436,125
226.462,116.7
226.5233,514.1
226.6551,215.2
226.6939,441.7
226.7878,311.1
226.8286,132.6
226.8788,103.5
226.9337,419.4
226.9516,35688.9
226.9648,420.7
226.9665,446.2
226.9787,612.9
227.0197,85.9
227.0338,1385.3
227.0429,361.2
227.079,543.1
227.0865,261.6
227.1289,259.3
227.1628,134.9
227.2769,96.3
227.3256,481.8
227.3643,407.5
227.4151,117.1
227.5801,140.9
227.6538,114.4
227.8024,17.8
227.81,17.9
227.9207,18.6
227.9277,156.5
227.9355,159.6
227.9466,313.6
227.955,992.4
227.9619,28.6
227.9763,708.1
228.0003,965.6
228.0226,961.1
228.0573,428.3
228.1686,588.7
228.1814,57.8
228.3119,598.1
228.3629,458.2
228.4068,17.2
228.4588,446.4
228.4702,153.5
228.5411,16.5
228.5966,289.3
228.6052,21.6
228.6208,134.9
228.6393,123.1
228.6542,196.3
228.6965,353.5
228.8136,796.1
228.8647,19.4
228.8791,22.1
228.8852,221.8
228.8891,31.2
228.9128,129.1
228.9601,80.7
229.0154,262.6
229.0985,283.8
229.1236,703.2
229.3385,95.8
229.3468,144.1
229.4257,17.7
229.5213,493.7
229.6717,885.1
229.8581,118.1
229.8603,139.2
229.957,2142.7
229.9854,126.3
230.0333,155.3
230.1137,374.2
230.1289,502.9
230.3346,310.9
230.341,85.3
230.3573,177.9
230.379,18.3
230.4246,312.7
230.4434,94.8
230.5017,116.7
230.5216,145.9
230.5472,145.8
230.6214,163.9
230.7154,21.9
230.755,359
230.8021,19.9
230.8102,743.3
230.8679,88.9
230.8702,103.7
230.8735,20.1
230.8903,28.3
230.9605,53.2
230.9904,55.8
231.008,107.4
231.0765,431.2
231.126,456.9
231.2275,122.3
231.2542,101.5
231.2947,374.2
231.3825,192.9
231.5292,21.7
231.537,380.9
231.6703,120.2
231.7243,18.7
231.7448,678.9
231.8543,84.9
231.9574,171.4
231.9629,104.9
231.9713,41.4
231.9952,222
232.2438,258.2
232.265,382.9
232.3059,729.8
232.3589,475.2
232.375,105.6
232.4536,23.6
232.6123,446.7
232.6201,409.8
232.7034,309.7
232.7752,100.4
232.8837,213.2
232.8968,34765.7
232.9196,172
232.9985,22.6
233.051,8812.9
233.0989,131.1
233.1065,202.1
233.3047,211.8
233.3566,24.2
233.3708,347.5
233.4296,104.5
233.5493,398
233.5905,118.9
233.67,330.1
233.6923,72.1
233.7801,183.3
233.8006,303.2
233.8911,18.4
233.8984,108.1
233.9179,18.5
233.9527,32.8
234.1138,16.8
234.3223,461.3
234.3293,282.8
234.4134,18.5
234.4496,274.9
234.4549,92.8
234.534,409.6
234.5582,153.1
234.5969,17.6
234.6863,179.9
234.8822,20.7
234.8938,9482.3
234.9003,488.8
234.9628,15.9
234.9815,4269.9
235.044,62.3
235.0568,3413.5
235.0666,2450.5
235.0926,16765.3
235.1181,314.1
235.1399,56.1
235.1494,298.3
235.1702,21.6
235.1768,413.3
235.2126,226.7
235.4389,112
235.4468,151.9
235.4963,152.4
235.616,218.9
235.6893,121.3
235.8278,583.2
235.8632,134.1
235.8996,18.6
235.9295,535.8
235.9595,854.4
236.0409,3468.7
236.0717,50523.6
236.0773,23.3
236.4724,556.3
236.5522,202
236.7135,272.2
236.7395,296.2
236.7418,350.4
236.815,24.9
236.878,112.5
237.0709,135.9
237.0751,2361.8
237.1724,91.4
237.1923,535.6
237.2871,399.6
237.3671,115.6
237.5811,513.2
237.6842,279.4
237.8024,131.2
238.0012,150.5
238.0021,164.3
238.0037,126.5
238.0675,866.5
238.0795,183.4
238.1169,20.2
238.1308,310.2
238.2873,559.7
238.2964,499.9
238.3312,319.6
238.3927,99.2
238.4034,19.7
238.475,318.5
238.509,341.4
238.535,190.2
238.5676,423.1
238.5884,233.2
238.6622,311
238.7947,163.8
238.798,144.8
238.8373,312.8
238.8418,6585.5
238.8483,59
238.8531,307.1
238.9227,442.4
239.0091,771.4
239.0305,120.6
239.0499,253.1
239.0586,19.9
239.0641,747.3
239.0685,196
239.1209,100
239.1616,291.5
239.2754,619
239.3984,190
239.4676,555.6
239.5124,461.9
239.6215,446.2
239.6476,628.5
239.6554,324.3
239.6816,98.7
239.6908,327.9
239.7666,279.8
239.7869,22.2
239.8001,488.7
239.834,244.4
239.8446,17.7
239.8718,173.2
239.8898,110.7
239.9047,496.2
239.932,824.5
239.9849,130.1
240.0036,402.5
240.0998,1574.5
240.1092,206.1
240.2476,519.9
240.2746,488.9
240.2898,87.4
240.4157,88.8
240.4309,347.4
240.5361,475.3
240.5515,137.4
240.6231,68.5
240.774,294.8
240.7951,121.6
240.8068,180.8
240.8388,3703.1
240.8781,200
240.926,735.7
240.9546,766.7
240.9676,615.6
241.0314,526.9
241.0869,346.5
241.1303,529.4
241.3139,179.7
241.3664,20.2
241.4072,21.5
241.4433,22.9
241.4574,344.2
241.4992,340.3
241.5021,260.6
241.5067,19
241.7493,154.1
241.7841,218.4
241.7941,18.2
241.8531,119.4
241.946,316.6
241.9797,56.7
241.9865,444.4
241.9983,2442
242.0086,269.3
242.0192,2713.2
242.0769,301.9
242.1421,107.9
242.2883,478.2
242.3251,182.8
242.3342,21.4
242.346,130.6
242.4178,257.9
242.4833,95.8
242.5362,191.6
242.637,250.9
242.7268,130.7
242.7356,18.7
242.7754,97.6
242.813,206.9
242.8607,215.1
242.868,45.8
242.8783,506.6
242.9256,24380.4
242.9312,304
242.9591,100.6
242.9881,303.1
243.0063,78.9
243.0328,590.7
243.0531,9054.5
243.0653,9233.9
243.3063,112.5
243.648,215.9
243.7131,324
243.7161,21.3
243.783,324.5
243.7891,94.2
243.8068,110.2
243.8418,142.5
243.8755,282.1
243.9317,18.2
243.9671,592.5
243.9727,736.1
244.0126,874.8
244.0616,357.4
244.2041,350.3
244.4542,18.5
244.4808,119.8
244.522,123.8
244.6144,148.7
244.678,206
244.7395,59.9
244.7819,507
244.7944,171.7
244.8708,3852.9
244.8837,61.3
244.9235,800.6
244.9547,381.4
245.0014,499.9
245.0137,22.9
245.0572,397.5
245.1409,548.5
245.1586,145.3
245.2107,58.5
245.2499,787.2
245.2724,144.1
245.3383,516.4
245.3462,18.3
245.4095,118
245.6402,399.9
245.6586,527.5
245.8916,31.9
245.9047,160.9
245.9483,432.8
245.9728,46
245.9853,236.2
246.001,235.7
246.04,140
246.0818,379.3
246.0918,337.8
246.1523,153.3
246.1838,129
246.3057,65.9
246.3128,520.8
246.3808,385
246.4058,155.3
246.5333,18.7
246.6552,91.7
246.688,726.8
246.7795,159.8
246.8625,2163.5
246.8677,994.6
246.8745,530.9
246.8919,113.8
246.8995,83.3
246.9046,472.4
246.9514,144.6
247.0303,698.9
247.0365,764.6
247.0582,330.7
247.0667,1279.8
247.0927,3766.5
247.1448,323.8
247.2491,282.6
247.2777,504.1
247.3782,316.5
247.4764,23
247.5625,21.1
247.6075,22
247.6129,18.8
247.8121,131.2
247.8616,484.8
247.8707,416
247.9228,20.4
247.9304,364.5
247.9678,125.6
248.0041,20.6
248.0667,16.9
248.0728,171.4
248.0958,27.5
248.1089,723.6
248.1243,20306.1
248.2133,192.3
248.295,544.3
248.3384,17.8
248.3466,173
248.3783,195.8
248.3841,319.6
248.4309,61.2
248.5469,18.9
248.6623,217.5
248.8708,12379.6
248.9152,81.6
248.999,659.2
249.0162,1355.4
249.0612,13738.8
249.1078,288.6
249.1279,896.3
249.2228,347.7
249.2389,543.6
249.4362,71.9
249.5519,103.9
249.5593,62.8
249.5778,616
249.6852,21.6
249.7379,336.1
249.8184,336.2
249.8484,379.8
249.8863,121
249.9008,24.2
249.9681,21.5
249.9759,274.5
250.0329,20.8
250.0385,486.6
250.0954,473.5
250.1574,266.5
250.1873,389.5
250.2432,216.5
250.3093,120
250.3585,98.7
250.4023,110.9
250.5143,571.2
250.6138,371.1
250.6174,116.2
250.6435,17.9
250.8452,18.9
250.8676,2090.2
250.8914,68.1
250.8939,47.9
250.9018,911.9
250.9069,372.3
250.9201,555.8
250.9266,108.8
250.9556,2465.9
250.9868,561.9
250.9978,686.4
251.0005,47.7
251.0089,404.9
251.0337,919.8
251.1359,598.2
251.1653,124
251.2603,212
251.2992,18.3
251.3045,124.2
251.3609,98.3
251.6211,146
251.6364,108.1
251.6631,185
251.7675,270.5
251.8582,150.8
251.9627,166.7
252.0244,232.3
252.0361,599.6
252.0457,108885
252.2784,148.3
252.2864,19.1
252.295,223.7
252.4436,184.5
252.4729,19.5
252.5054,94.8
252.6799,166.4
252.7267,347.4
252.7487,113.2
252.8321,114.7
252.8787,113
252.9114,181
252.9172,424
252.9749,298.4
252.9972,26.9
253.0072,121.9
253.0156,480.9
253.0406,143.1
253.0489,6117.3
253.1037,105.1
253.1218,131.6
253.1254,190.3
253.1334,144.2
253.1517,196.8
253.2062,351.6
253.2466,301.9
253.2612,308.2
253.2751,178.1
253.2796,397.8
253.3286,164.7
253.3545,129.4
253.4356,673.9
253.4652,157.2
253.5929,107.4
253.652,166.1
253.7737,140.7
253.7786,572.1
253.7824,181.7
253.8827,187.4
254.0435,1431.7
254.0992,575.6
254.1078,321.4
254.2478,20.2
254.3437,493.2
254.3864,334.8
254.4686,430.2
254.5648,554.3
254.5957,360.4
254.6884,62.5
254.72,98.2
254.7571,22.4
254.8159,3365
254.824,4466.6
254.857,663.9
254.946,203.3
254.9945,18.7
255.0102,411.1
255.0229,150.3
255.0276,321.5
255.033,29202
255.038,1251.9
255.0468,1081
255.246,21.9
255.2939,373.2
255.3639,180.2
255.4646,128.6
255.5973,102
255.7055,463.9
255.7722,377.6
255.8384,130.1
255.9496,22.3
255.9783,1496
256.0032,416.9
256.0363,239.8
256.0474,111.4
256.0579,56.7
256.0912,173.1
256.1817,139.3
256.3233,503.9
256.3825,202.4
256.4463,277.3
256.4717,167.7
256.5304,19.2
256.5437,19.2
256.6073,278.1
256.648,436.4
256.6599,336
256.7345,463.6
256.7395,19.8
256.7783,255.5
256.7919,301.6
256.813,366.8
256.8211,7307.8
256.9285,1382.7
256.9414,566.5
256.9756,486
257.0214,167.7
257.0487,9564.3
257.055,220
257.0653,754.5
257.0746,74729.8
257.1193,616.8
257.1376,101.6
257.3275,746.5
257.445,133.2
257.4704,506.6
257.6008,112.6
257.7085,99.3
257.7443,689.9
257.8636,105.2
257.8762,129.4
257.9247,17.6
257.9522,27.6
257.9931,1637.7
258.0295,58.4
258.0333,170.9
258.0743,173.7
258.0781,3272.6
258.1103,23850.9
258.273,592.1
258.4015,350.2
258.4056,510.7
258.4125,101.4
258.5243,683.8
258.6057,120.6
258.6093,151.1
258.6817,300.4
258.6914,311.6
258.818,2445.9
258.8455,234.8
258.863,3139.3
258.8996,4315.6
258.9207,111.5
259.0283,1159.5
259.1353,120.4
259.1439,110.9
259.1649,280.6
259.3642,498.2
259.3812,533.1
259.4017,456.4
259.4564,136.6
259.5145,1062.5
259.5333,1074.4
259.5486,386.8
259.5529,326
259.5574,120.4
259.6938,169.3
259.6969,17.8
259.722,22.1
259.816,24.9
259.8858,97.7
259.965,978.5
260.0167,25.7
260.0902,19.2
260.11,177.1
260.1644,671.2
260.2185,763.2
260.2491,99
260.2922,124.4
260.4458,291.2
260.654,192.1
260.6733,425.3
260.685,454.3
260.8149,565.2
260.8451,1845.4
260.8782,150.2
260.9491,4977.6
260.9988,590.3
261.0337,143.3
261.1252,147.2
261.137,345.2
261.1834,468.2
261.221,549.4
261.2909,335.1
261.3457,179.7
261.478,863.6
261.5791,84.1
261.6416,90.8
261.6536,309
261.8865,192.5
261.9228,738.4
262.0816,1932.8
262.1516,167.9
262.4207,137.8
262.4496,18.9
262.4833,173.9
262.5163,472.5
262.6119,123.7
262.6907,293.9
262.7381,415.3
262.8315,205.7
262.8396,27.8
262.8418,19.4
262.8441,18.9
262.8535,865.2
262.894,51.4
262.9303,135.3
262.9465,1203.3
263.0314,436
263.085,1343
263.1294,315.2
263.1574,542.5
263.2372,22
263.2808,185.4
263.5079,180.6
263.5312,235
263.6233,250.7
263.6322,313.6
263.8197,715.6
263.8653,53.6
263.9025,41
263.9923,133.5
264.0091,252.6
264.0646,281.5
264.0894,120.5
264.2043,23.8
264.2693,66.2
264.3223,236.9
264.5653,55.5
264.6756,167
264.6805,18
264.7383,666.2
264.7837,248.7
264.811,20.3
264.8448,2035.3
264.8529,3202.8
264.873,443
264.8983,339.4
264.91,20
264.9374,21.9
264.9732,428.9
264.9884,2800.1
265.0085,350.7
265.0164,100.5
265.0221,548
265.0353,10524
265.0471,3641.1
265.0655,138.3
265.1597,150.4
265.2879,391.1
265.3499,466
265.587,507.5
265.8469,226.9
265.8688,115.1
265.9342,96.9
265.9572,103.9
265.9782,234.5
266.1379,286.3
266.1528,299
266.2264,197.4
266.3132,19
266.5258,202.4
266.6066,809.2
266.8006,189.7
266.8344,32.2
266.8497,2481.4
266.8943,1634.7
266.9818,22.6
267.0134,26.4
267.0222,594.4
267.0336,516.6
267.0451,103.5
267.2941,143.9
267.4014,180.5
267.4455,21.4
267.5576,302.2
267.5658,112.7
267.7513,148.4
267.8178,166.6
267.974,55.8
267.9938,625.3
268.032,117
268.3187,688.1
268.5039,537.3
268.6047,412.5
268.6657,420.2
268.7206,246.3
268.7615,212.6
268.8469,421.6
268.8514,112.8
268.8908,761.2
268.9221,376.3
268.9969,25.1
269.0279,238
269.0315,164.6
269.0386,199
269.0448,15932.7
269.0487,45538
269.0744,450.8
269.1971,347
269.2087,484.4
269.2992,186.8
269.3418,517.4
269.3512,263.2
269.5244,254.2
269.5397,127.3
269.5687,321.5
269.9426,269.6
269.9519,166.6
269.9894,240.1
269.9939,1395.8
269.9997,20.1
270.0096,26.2
270.0248,3175.2
270.0473,24265.4
270.0522,650.6
270.0562,442.9
270.0648,22.3
270.0912,208.7
270.1449,2407.9
270.1715,104.2
270.1891,22
270.2813,191.6
270.4777,514.2
270.7912,269.1
270.7978,3358.3
270.8084,23.3
270.8695,23.7
270.9113,681.1
270.9452,157.7
270.978,13221.4
271.0015,238.7
271.0075,460.4
271.0232,538.6
271.028,329.5
271.0495,300.8
271.0641,119.2
271.0782,374.7
271.0904,2356.9
271.1254,436.8
271.2309,225.4
271.3108,570.9
271.3903,182.5
271.398,415.6
271.5564,267.4
271.7065,133.3
271.7403,380
271.7768,487.7
271.8927,100.2
271.9077,21.6
271.9142,275.4
271.9808,911.8
272.0204,51.7
272.043,87.2
272.0803,139
272.2122,760
272.308,121.9
272.3957,254.9
272.4444,288.8
272.4505,148.4
272.4692,59.4
272.5618,466.4
272.5652,144.6
272.6969,120.9
272.7843,268.2
272.7949,4192.9
272.824,81.3
272.8373,178
273.0043,351.7
273.0228,135.3
273.0486,9458
273.0834,17.5
273.092,127.7
273.1142,182.3
273.6038,602.3
273.6484,432
273.7059,177.3
273.7356,763
273.8123,17.7
273.9626,3660
274.0293,557.9
274.069,140.3
274.0922,3524.4
274.251,534.6
274.3905,179
274.4024,336.5
274.5576,75.2
274.5652,268.4
274.629,785.2
274.6475,256.4
274.6659,125
274.756,484.3
274.792,596.9
274.7964,128.5
274.8024,22.3
274.8845,115.6
274.9324,124.4
274.9912,262.4
275.0987,459.5
275.146,123.5
275.1658,118.3
275.1951,530.1
275.2329,514.8
275.2414,442.1
275.3038,182.2
275.3518,476
275.3624,19.3
275.4963,308.9
275.6181,221
275.6325,254.2
275.6648,130.6
275.6694,378.9
275.7185,19.6
275.8142,105.1
275.8515,127.5
275.8658,74
276.0036,51.5
276.0846,89.9
276.1001,439.4
276.1079,367.4
276.4972,116.1
276.5417,117.2
276.6147,18.9
276.7255,110.3
276.8187,156.8
276.8491,408.8
276.8654,25.1
276.8734,557.4
276.8779,315.9
276.9095,25.7
276.9231,5272.3
277.1459,428.3
277.1545,731.5
277.2025,844.2
277.3148,742.7
277.4366,144.7
277.5481,205.1
277.5548,140.8
277.7313,17.1
277.8055,19.2
277.8809,186.4
277.9228,112.6
277.9997,455.9
278.0189,455.3
278.0509,406.3
278.101,177.6
278.1054,479.7
278.2758,591.4
278.3801,106.9
278.386,102.7
278.4032,374
278.4679,355.2
278.498,412.1
278.5059,316.3
278.5581,19.4
278.5609,26.9
278.5624,20.5
278.6987,100.2
278.7074,92.1
278.7123,20
278.8199,316
278.8887,399.7
278.8905,510.2
278.8927,562.3
278.903,130.9
278.9201,1443.1
278.9264,19.2
278.9874,1233.2
279.0033,288.8
279.0296,194.2
279.0566,42777.7
279.0885,113.1
279.1292,468.3
279.2007,138.7
279.2341,458.5
279.3024,251.3
279.3311,20.4
279.3357,345.5
279.3622,88.8
279.3703,280.5
279.4949,19.7
279.6146,502.5
279.7145,86.2
279.8639,631.3
279.8902,504.7
279.9048,247.7
279.914,349.7
279.9658,700.8
279.9984,42.9
280.0115,610.4
280.0158,189.3
280.0602,177.2
280.0921,464.1
280.1209,21.4
280.3195,332.1
280.3374,566.1
280.4063,125
280.5077,144.4
280.6497,123.5
280.7588,22.1
280.8269,1520.2
280.9199,237.5
280.9268,297.7
280.9624,693.4
281.0095,2450.3
281.0514,621.2
281.0568,215.7
281.2042,448.7
281.2178,99.9
281.4095,19.8
281.427,367
281.5365,305.4
281.593,114.6
281.7794,203.3
281.8509,24.4
281.8616,20.6
282.0149,80.8
282.0513,283.4
282.0628,361.6
282.0646,327.2
282.1278,509.3
282.1378,56.9
282.2699,266.3
282.4543,256.6
282.5026,191.8
282.5602,187.4
282.6801,363.6
282.8238,1606.4
282.8684,725.3
282.9292,177.7
282.9398,561.5
282.9578,589.4
282.9909,373.4
283.0189,24.5
283.0281,2538.7
283.0655,27.3
283.1366,19.3
283.1439,463.3
283.2624,26.6
283.3213,219.6
283.3748,244.1
283.5373,463.8
283.5627,171.4
283.6614,21.8
283.6872,99.3
283.8159,54.6
283.9802,245.6
284.0113,474.1
284.0628,186.1
284.1552,294.8
284.2518,93.7
284.2689,785.1
284.3242,464.6
284.3537,673.9
284.4946,72.4
284.7238,209.4
284.7619,198.1
284.7781,128.7
284.8208,453.7
284.9219,303.9
284.9909,662.5
285.0143,21
285.0226,710.9
285.0407,257
285.0681,370.6
285.0798,223.3
285.2164,166.4
285.298,19.7
285.3481,70.2
285.492,321.6
285.6223,179.6
285.6378,181.3
285.6397,242.5
285.6414,222.5
285.6487,308.9
285.6688,103.7
285.6709,311.3
285.6729,263.5
285.6828,311
285.8442,239.7
285.8867,41.3
285.8904,327.2
285.9682,667.7
286.0197,878.5
286.0958,23
286.4134,388.3
286.4216,546.2
286.4785,128.3
286.514,149.2
286.6167,108
286.6944,97.1
286.7035,298.5
286.7342,170.4
286.7719,1929.9
286.797,303.8
286.8033,256
286.8128,280.7
286.8828,142.8
286.952,8569.5
286.9585,22.5
287.0204,395.1
287.0217,392.3
287.0447,17.8
287.0553,35320.2
287.1351,946.2
287.1807,23.2
287.3897,57.9
287.3935,235.7
287.4395,133.6
287.5582,466.3
287.5626,158.5
287.5695,536.1
287.6058,297.6
287.811,227.5
288.0133,50.9
288.0346,110.9
288.0588,1207.3
288.0844,49.6
288.1556,17062.7
288.1851,897
288.3235,20.3
288.3352,520.8
288.5465,136.8
288.5648,240.9
288.6998,206.5
288.7254,228.7
288.7688,2246.6
288.8107,19.7
288.8196,51.5
288.8238,173.9
288.8655,17.7
288.8775,151.3
288.8809,216.7
288.8858,317.8
288.8916,594.5
288.9004,1449.1
288.9158,5584.2
288.9225,7443.3
288.9296,8926.9
288.9355,7365.4
288.944,13415.7
288.9458,13222.3
288.9507,11797
288.9543,11985.6
288.9598,14473.1
288.9693,17203.1
288.976,19234
288.9773,19841.2
288.985,17044.9
288.99,16999.5
288.9979,14137.8
289.0028,11768.3
289.0066,11468.3
289.0138,7342.7
289.0208,3512
289.0225,3374.1
289.0293,1508.5
289.0481,291
289.0592,297.3
289.0657,416.7
289.3065,396.4
289.5178,526.1
289.6726,98.4
289.8812,21
289.9364,124.1
290.0265,649.5
290.0625,127.9
290.0816,420.1
290.1001,26.9
290.2058,339.5
290.2742,403.8
290.2962,630
290.3442,555.1
290.4049,118.2
290.4823,298
290.4967,536.8
290.5224,229.2
290.5328,520.3
290.766,982
290.8346,79.6
290.8413,131.2
290.8894,314.3
290.9263,31.6
290.9328,67.8
290.9747,518.4
290.9977,851.4
291.0265,4009.8
291.0443,104.9
291.0957,24.3
291.1125,194.8
291.2139,109.6
291.379,296.2
291.4435,188.2
291.4739,107.5
291.5172,18.6
291.7871,290.2
291.7996,643.8
291.8208,20.4
291.8602,508.8
291.9002,297.2
291.9185,104.4
291.9946,656.7
292.0796,160.9
292.1031,137.6
292.1251,18.5
292.3714,112.4
292.4044,687.6
292.4342,307.1
292.4472,198.7
292.4528,165.4
292.5802,325.6
292.6124,443.2
292.7078,490.8
292.8971,811.5
292.9466,80
293.0064,185.9
293.0321,259.2
293.0388,449.9
293.0723,4193.4
293.0982,232678
293.3197,218.9
293.5042,133.3
293.594,99.1
293.6347,19.8
293.6745,19.9
293.6901,22.5
293.8504,750.6
293.8696,112.8
293.9476,137.5
294.0044,21
294.0895,124.6
294.1016,20926.3
294.2479,326
294.3097,376.7
294.3522,334.8
294.3913,478.1
294.426,137
294.6133,78.2
294.6724,133.3
294.7805,19.4
294.8291,104
294.8669,793.2
294.8719,266
294.8842,205.4
294.9906,285.7
295.0305,2081.8
295.1028,949.7
295.1115,108.2
295.1947,13031
295.2433,427.4
295.3207,66.6
295.4597,347.2
295.4663,63.7
295.5236,577.5
295.6487,106.1
295.6635,762.8
295.7596,127.1
295.817,272.6
295.9715,21.5
296.0467,454.3
296.0623,463.4
296.0794,547.6
296.1042,325.5
296.1088,20.8
296.1254,392.7
296.1322,267.8
296.4594,483.2
296.6473,280.3
296.7483,19.8
296.8005,455.7
296.9092,18.2
296.9876,186.4
297.0126,115
297.1071,569.9
297.14,224.8
297.2048,260.8
297.225,113
297.2487,216
297.2555,316.7
297.3218,191.6
297.6127,469.3
297.6177,173.8
297.8106,20.5
297.8254,238.2
297.881,180
297.9184,249.7
297.9398,18
298.0254,1153.1
298.0423,13676.4
298.209,114.1
298.3802,62.1
298.4795,207.4
298.496,475.8
298.5552,306.9
298.5722,674.8
298.7006,483
298.7629,18.3
298.7974,394
298.8365,20.2
298.9737,111.5
298.9862,65.7
299.0029,360.4
299.023,961.2
299.0457,441.2
299.0621,97.3
299.1394,3402.8
299.2454,369.5
299.2981,109.5
299.4857,21.2
299.5446,269.8
299.557,101.1
299.7316,368.5
299.7385,136.9
299.776,314.6
299.8102,17.6
299.8661,22.1
299.9008,272.2
299.99,324.7
300.0045,1482.6
300.0352,278.5
300.0486,27
300.0754,417.6
300.168,106.4
300.1963,121.1
300.2078,193.4
300.2842,127.3
300.4176,20.7
300.5504,118.8
300.6884,220.3
300.8191,181.5
300.9113,106.5
300.9464,105.7
300.9828,173.4
301.0114,17.7
301.0293,127.7
301.0385,27120.5
301.0761,23.7
301.1415,387
301.2121,888.5
301.2578,258
301.2797,138.7
301.3667,211.6
301.5784,19.4
301.7556,187.5
301.8271,114.8
301.8448,140.5
301.9541,390.9
301.9939,1737.7
302.0199,202.3
302.0353,54.7
302.064,3899.1
302.2177,19.5
302.4083,108.5
302.7237,1321.6
302.7382,977.9
302.741,1049.3
302.7472,570.2
302.7526,352.7
302.7562,407.8
302.759,436.1
302.8294,1896.6
302.9267,694.1
302.9396,574.6
302.9457,189.2
302.9687,538.4
303.0244,487.6
303.0673,403.4
303.1446,197.9
303.2168,530.7
303.2865,110.2
303.2967,112
303.4287,133
303.524,20.9
303.5412,410.5
303.5857,347.4
303.5996,639.5
303.6108,201.1
303.7137,504.8
303.7607,564.5
303.8297,21.7
303.9857,293.4
304.0115,412.7
304.049,488.9
304.0598,95.9
304.0843,228.2
304.2172,522.3
304.3726,19.3
304.4203,134.7
304.7348,116.5
304.7426,538.7
304.8136,471
304.8257,823.7
304.8504,19.4
304.9054,49.1
304.9756,537.3
305.0168,823.2
305.0262,128.9
305.197,317.7
305.2892,218.1
305.3473,219.2
305.3765,228
305.3918,253.2
305.4209,327.4
305.6398,143.7
305.7345,114.3
305.7586,498.1
305.9834,60.2
306.0034,17.4
306.0237,97
306.0954,20.3
306.3437,123.6
306.4855,306.8
306.5752,93
306.7677,246.1
306.8549,19.2
306.9577,518.2
306.973,355.4
306.9769,1165
307.0288,183.5
307.0583,110.9
307.3379,216
307.464,129.6
307.5518,206.5
307.7318,510.1
307.9591,327.4
307.9759,415.7
307.9964,93.7
308.0979,133
308.2574,147.7
308.5663,132.7
308.718,143
308.7265,18.7
308.808,50.6
308.812,77.6
308.879,2653.5
308.9,99.8
308.9485,231.7
308.9988,385.5
309.0061,236.1
309.0375,5739.1
309.177,312.5
309.1823,19.9
309.2644,235.9
309.635,633.2
309.6457,217.3
309.906,301.8
309.9568,187
309.9711,225.7
309.985,357.6
310.0199,24.5
310.1071,124.5
310.1506,319.8
310.159,409.5
310.1686,181.4
310.3603,133.7
310.4238,108
310.5285,20.9
310.5751,201.4
310.584,212.5
310.632,120.2
310.7422,220.7
310.8037,120.8
310.876,2142
311.0035,34.7
311.0088,559.2
311.1034,188.4
311.1386,388.4
311.1672,28.9
311.2437,336.4
311.2822,141.9
311.2844,233.3
311.2862,217.5
311.5297,386
311.5838,19.7
311.6471,374.3
311.7203,495.5
311.7608,18.5
311.7855,17.7
311.7972,232.7
311.9831,723.8
311.9987,44.4
312.0137,557.3
312.0411,2430.4
312.101,360.8
312.1177,620.2
312.1528,115.1
312.4768,326
312.5158,544
312.6556,184
312.6743,106.3
312.7787,326.4
312.8028,427.5
312.8265,141.6
313.002,30.6
313.0176,147.3
313.1184,135.3
313.1999,19.1
313.2741,42440.5
313.2995,93.9
313.3246,623.2
313.5394,498.5
313.6915,108.6
313.7923,110.1
313.9442,209.6
313.9772,39.2
313.999,649.5
314.0057,127.1
314.0147,1348.5
314.0908,119.2
314.0964,2109.3
314.1472,19.6
314.161,329.3
314.2587,487.2
314.2774,3875.5
314.3546,458.5
314.3855,22.1
314.391,219.7
314.3994,353.8
314.5052,103.5
314.6293,315.8
314.6579,390.9
314.6714,693.7
314.7235,144.9
314.7247,143
314.7981,9405.2
314.8298,23.4
314.8371,3270.4
314.8993,189.5
314.9992,4378.1
315.0043,679.3
315.0182,291.9
315.0303,212.1
315.0451,385.4
315.0553,11446.5
315.0619,5046.8
315.0642,6172.4
315.0662,17366.1
315.0698,19915.5
315.0737,29866.6
315.0802,8496927
315.0901,17126.3
315.0922,11544.9
315.0943,5690.6
315.0966,8113
315.1008,3823.2
315.1029,3170.2
315.105,3014
315.107,2219.2
315.109,1698.4
315.1112,1083.4
315.1369,177.6
315.1557,21.5
315.1612,4945
315.261,420.3
315.2846,377.4
315.313,184
315.3237,4200.7
315.3377,180.2
315.3884,528.9
315.4853,558.6
315.6026,479.7
315.6248,739.1
315.724,61.1
315.7982,449.8
315.8058,432.4
315.8128,132.1
315.938,63.9
315.9693,274.3
316.0099,20.4
316.0247,195.5
316.0536,21.7
316.0691,576.9
316.0775,48268
316.0835,896275.1
316.3266,677.8
316.3721,104.1
316.643,218.2
316.7091,109.2
316.7966,105.5
316.8001,120.8
316.8981,450.4
316.9868,1135.5
317.0129,265.7
317.0235,743.8
317.0567,55.6
317.065,1109.8
317.0841,102744.2
317.1368,343.7
317.1532,110.3
317.1788,755.9
317.2365,206
317.2634,246.3
317.3185,351.3
317.8039,130
317.822,579.7
317.9137,22.6
318.0876,11183.2
318.1051,127.1
318.1118,572.1
318.2839,139.2
318.4307,295.1
318.5327,287.2
318.7185,680.2
318.7278,21.5
318.7927,377
318.8035,1037.2
318.8221,79.9
318.8298,71.7
318.8882,300.8
318.9345,312.2
319.052,110.7
319.1467,434.4
319.1946,30707.3
319.2269,162.2
319.3411,339.3
319.4563,208.7
319.4933,402.1
319.6077,126.2
319.6342,271.5
319.6799,19.3
319.7514,487.8
319.7687,327.8
319.9749,499.3
320.0599,20.3
320.0745,141.9
320.0935,22.2
320.198,4188.8
320.2586,4155.7
320.3572,480.6
320.5203,155.1
320.5423,243.6
320.5641,198.4
320.6099,18.9
320.7152,21.9
320.7904,19.6
320.8866,154.6
320.9032,182.4
321.0742,658.8
321.1911,504.8
321.2103,23899.9
321.2501,266.8
321.2619,180.4
321.3388,147.8
321.3465,846.9
321.3672,439.4
321.3945,275.2
321.4306,336.3
321.4881,266.3
321.6521,202.2
321.7615,467.5
321.8165,305.5
321.8731,494.3
322.0088,66.7
322.0788,643.2
322.1027,223.1
322.1636,112.1
322.1917,19.8
322.2137,2931
322.519,298.1
322.817,22.9
322.8247,26.4
322.8412,113.8
322.8869,581.9
322.9319,1101.8
322.9603,188.2
322.9714,191.2
322.9751,371.9
323.0205,13340.9
323.0783,355.7
323.1781,240.6
323.2257,1155.9
323.4462,654.2
323.5061,595.9
323.5337,120
323.812,19.8
324.0017,1769.9
324.1361,19.8
324.4667,89.4
324.5532,73.6
324.6634,124.7
324.6776,1402.2
324.6821,2127.5
324.6901,3168.9
324.6925,2594.9
324.6948,2423.6
324.6985,1911
324.8536,1225.9
325.0767,458
325.1439,119.1
325.2006,330.9
325.2619,324.6
325.3941,622.4
325.6153,306.9
325.6413,231.6
325.7487,120.5
325.8611,104.9
325.994,488
326.0051,21.9
326.11,365.9
326.3467,469
326.4982,476.4
326.5772,515
326.7408,246.5
326.8167,98
326.8501,1047
326.8602,22.6
326.8873,223.1
326.9632,18.9
327.0156,4381.1
327.0519,2229.4
327.2275,5536.5
327.2533,420.8
327.4102,103
327.4817,110.6
327.5243,665.8
327.5535,287.4
327.6081,98.3
327.6307,100.2
327.7798,151.2
327.8092,647.3
327.933,644
327.945,654.4
328.0145,1302.2
328.0723,116.6
328.2949,200
328.3524,416.2
328.4649,164.5
328.4753,561.2
328.483,935.1
328.4891,392.4
328.4963,299.6
328.5228,419.2
328.5511,98.2
328.7102,467.8
328.8142,220.5
328.8479,373.9
328.9191,660.9
328.9589,693.6
328.9801,22.5
328.9864,222.6
329.0394,120.5
329.047,444
329.0564,124.8
329.078,118.3
329.0958,952
329.2776,675.3
329.2829,182
329.6668,398.9
329.7136,379.9
329.8006,489.5
329.8144,47.4
329.8216,28.9
330.0015,18.7
330.0222,131.2
330.0459,148.5
330.0592,138.5
330.0688,24
330.0743,128.7
330.2397,97.2
330.2451,516.5
330.286,568.6
330.3604,477.7
330.6086,119.9
330.717,179.2
330.8135,140.6
330.8905,863.3
331.02,1020.2
331.0454,93936.8
331.0541,1357690.3
331.2455,133.8
331.2734,689
331.3611,728.6
331.3627,736.6
331.3957,191.6
331.5226,96.6
331.5403,435.6
331.6241,129.6
331.672,115.2
331.8374,62.7
332.0479,4216.4
332.0522,5242.2
332.0575,124669.9
332.1475,348.9
332.2149,20.1
332.5458,299.2
332.6614,314.4
332.7512,316.2
332.8086,2285.3
332.9518,21.1
332.9609,2001.4
333.0268,101.5
333.0523,79758.5
333.0579,13702.5
333.1445,197.6
333.3339,392.1
333.3446,18.4
333.4144,21.8
333.7465,355.4
333.8087,107.9
333.8166,204.3
333.8261,304.8
334.0556,5294.6
334.0907,49.5
334.1619,155
334.2723,184.3
334.2984,206.7
334.3532,341.7
334.5717,161.1
334.6961,256.4
334.8386,18.3
334.8539,303.8
334.883,629
334.905,115.6
334.9418,22.1
334.9765,598.5
335.0206,131.3
335.1422,545
335.2201,180.6
335.4019,551.3
335.5836,21
335.6306,626.7
335.7037,287.2
335.7764,106.3
335.8235,234
335.8325,403.2
335.9256,372
336.2398,17.2
336.2977,329.5
336.4778,108.6
336.5252,379
336.7477,141.9
336.8034,25.7
336.8324,40.4
337.0362,15825.6
337.0497,20808.5
337.0621,621829.6
337.1698,131.4
337.1834,33.9
337.2741,11830.1
337.6503,121.9
337.6594,210
337.7723,146.2
337.8065,110.8
337.8485,122.7
337.8691,87.6
337.9105,144.1
337.9646,158.7
338.04,371.1
338.0498,162.1
338.0655,56490.5
338.0855,23.5
338.0938,742
338.1435,107.8
338.1726,366.7
338.1959,697.5
338.3415,611.9
338.4077,134
338.4468,20.8
338.5545,328.8
338.6344,105.7
338.7238,576.1
338.7805,223.8
339.0232,592
339.0385,1159.4
339.0473,688.5
339.0588,400.6
339.0661,6423.2
339.1224,321.2
339.1317,104
339.25,692.7
339.2898,11908.6
339.3652,340.3
339.372,21.5
339.4375,509.1
339.4665,360.3
339.4727,199.4
339.5752,251.3
339.6361,188.8
339.6547,569.7
339.7054,164.2
339.741,207.2
339.7833,135.6
339.9753,221
340.2118,133.2
340.2461,105.3
340.293,374.9
340.3148,488.7
340.5453,170
340.5865,280.1
340.7508,493.3
340.7824,347.8
340.893,324.2
340.9867,407.5
341.0049,153.1
341.018,360.8
341.0332,172.4
341.125,152.4
341.2153,103.7
341.289,127.5
341.3054,6282.1
341.3248,18.4
341.4608,537.2
341.4857,196.9
341.7201,98.6
341.852,292.8
341.9549,162.9
341.9891,383.1
342.0153,4275
342.1505,455.5
342.1944,480.7
342.2376,562.9
342.3142,438
342.3836,216.5
342.5919,402
342.6136,495
342.7436,87.9
342.8237,750
342.9896,1305.6
343.0162,185.5
343.0291,511.3
343.1098,106.9
343.1946,6618.1
343.212,125.2
343.3303,492.1
343.9788,581.3
344.0077,516.7
344.0131,135.3
344.173,478
344.4246,205.9
344.5638,111.9
344.6068,288.4
344.8292,30.9
344.8381,29
344.8786,153.2
344.9575,264.2
344.9842,19.8
345.1364,689.3
345.2037,263
345.2103,737.6
345.2863,19.4
345.461,235.1
345.4707,546.9
345.5482,561.6
345.6881,130.9
345.7246,160.3
345.76,127.8
345.8169,38.7
345.9838,15113.7
346.0189,106.9
346.0399,135.4
346.1039,18.7
346.172,686.6
346.2537,450.1
346.5422,618.1
346.7056,19.5
346.7328,329.3
346.7796,218
346.7879,169.6
346.8264,457.1
346.8419,403.2
346.9184,827.9
347.0172,243.4
347.0303,21.2
347.2901,121.2
347.3667,296.3
347.4047,19.4
347.5119,162.8
347.5557,94.7
347.5695,173.7
347.6287,123
347.7855,300.3
347.8333,28.1
347.9633,215.2
347.9694,133.8
347.978,94
348.0488,576.5
348.188,110.5
348.2426,384.1
348.5172,290.3
348.5312,228.5
348.5926,217.5
348.6593,260.1
348.7376,360.1
348.8796,464.3
348.9049,111.8
348.9909,20.6
349.0194,405.9
349.0769,512
349.0929,86.6
349.1934,348.6
349.214,263.8
349.2382,444.9
349.3706,414.8
349.5107,502.4
349.548,705.4
349.7644,114.9
349.8481,39.8
349.945,198.7
350.0189,528.9
350.4634,195.2
350.9793,195.2
350.9917,138.8
351.3214,699.8
351.5099,139.1
351.5836,70.8
351.6598,252.7
351.6656,721.3
351.7384,390.6
351.7558,107.7
351.8125,530.5
351.825,17.4
351.8531,89
351.88,484
352.0021,89
352.0605,324
352.309,159.6
352.4464,199.5
352.4954,276.8
352.7277,132.3
352.8143,258.1
352.8657,107.1
352.8983,701.2
353.0272,135322.4
353.0361,267565.9
353.1725,305
353.1794,463.4
353.5674,108.3
353.6574,19.6
353.9227,237.4
353.9632,156.9
353.9847,233.3
354.0305,8911
354.0394,25035
354.2448,591.4
354.3224,318.9
354.4785,560.1
354.5095,99.9
354.6144,344.5
354.6245,148.8
355.0121,1211.3
355.0343,17240.2
355.0702,1097.1
355.216,298.9
355.3036,250.2
355.373,18.5
355.7267,271.3
355.801,61.4
355.8219,211.3
355.8451,259.2
355.9192,65.7
356.0156,34.8
356.0431,707.7
356.0697,201.7
356.1997,171.2
356.2919,20.3
356.3691,18.3
356.8792,131.7
356.9614,260.8
357.0085,443
357.0672,85.6
357.2029,328.9
357.5131,357.9
357.6315,249.3
357.6383,130.1
357.6757,87.3
357.6856,306.9
357.692,434.6
357.8041,131
357.8192,20.4
357.9344,21
357.9565,204.1
357.9779,25.1
358.028,18.9
358.1223,114.3
358.1368,337.2
358.2282,367.9
358.4156,334.9
358.5583,415.3
358.6447,102.1
358.7324,143.5
358.9721,242.4
359.0074,342.2
359.0317,20020.4
359.0441,420033.9
359.061,765
359.0869,19.8
359.2354,20.4
359.2695,755.9
359.2945,224.8
359.3114,338.2
359.3336,186
359.3449,320
359.3578,576.4
359.3732,440.8
359.3765,423.8
359.387,802.3
359.3954,242.3
359.4266,637.4
359.4429,1172.9
359.4569,727.5
359.4752,303.2
359.483,995.7
359.5064,96.4
359.5117,112.2
359.5278,404.8
359.5366,339.5
359.579,145.8
359.6999,170.5
359.7957,1264.4
359.9077,17.4
360.0312,295
360.0475,38145.8
360.134,509.1
360.2787,294.5
360.324,363.8
360.4474,343.1
360.4571,365.8
360.5572,22.7
360.6175,143.9
360.7454,234
360.7958,36.7
360.8041,23.7
360.819,401.8
360.8267,20.4
360.8368,402.1
360.8733,205.4
361.0202,4029.8
361.0297,198.8
361.0476,2126.2
361.0656,385.3
361.2473,64.2
361.2738,1058.1
361.4,109.7
361.4389,387
361.5085,81.8
361.7526,161.5
361.8043,91.5
361.9579,5244.2
362.045,350.5
362.2581,344.4
362.4743,329.5
362.4937,59.2
362.5382,336.9
362.8196,269.5
362.8713,154.7
362.9261,1361.2
363.0422,275.5
363.066,119.3
363.1734,472.2
363.1901,124.4
363.5593,105.6
363.7902,84.5
363.8192,46.5
363.8279,28.2
363.9187,196.1
363.9972,1390.6
364.0396,140.9
364.0634,266.6
364.1584,112.6
364.1981,222.4
364.5452,21.2
364.5867,265.1
364.7986,23.2
364.8888,277.9
365.1318,710.8
365.2198,272
365.3099,323.3
365.61,260.7
365.9425,204.8
366.0087,435.6
366.14,439.2
366.3183,18
366.3501,377.3
366.3937,168.8
366.8138,151.5
366.845,217
366.9145,649.3
367.0425,188.4
367.1216,666
367.195,2631.9
367.2751,187.1
367.3005,247.2
367.345,377.6
367.4269,235.4
367.4647,200.5
367.9911,35.6
368.0028,164.5
368.1014,89.6
368.2446,208.6
368.3551,270.8
368.3775,264.4
368.4366,154.6
368.4998,820.9
368.5759,899.5
368.6318,850.8
368.8717,747
368.9919,3032.1
369.0011,18640.6
369.01,10661
369.127,67.6
369.3864,149.1
369.5366,125.1
369.5619,235.6
369.6628,144.2
369.693,562.8
369.7262,114.5
370.0045,231.9
370.3704,208.6
370.7309,406.1
370.8331,18
370.8777,118.6
371,2211.8
371.1023,61.4
371.2587,462.8
371.2655,435
371.3952,174.8
371.5199,542.6
371.6439,564.8
371.6922,296.4
371.8165,23.5
371.8904,389.8
372.1974,159.4
372.2662,366.7
372.3051,299.3
372.3176,703.3
372.4701,377.9
372.6412,225.6
372.798,303.1
373.0522,96.1
373.0896,301.4
373.2533,23.7
373.2883,327.5
373.4193,719.8
373.4649,715.2
373.6664,18.4
373.7447,528.3
373.8118,502.2
373.8321,226.5
373.9105,114.5
374.0085,702.3
374.1244,439.7
374.2416,139.1
374.4273,18.6
374.4852,717.2
374.583,628.5
374.6031,394.9
374.8067,378.4
374.8125,58.7
374.85,111.8
374.8968,17
374.961,89.4
375.0091,138136.6
375.018,146582.2
375.2356,167
375.7455,353.5
375.7659,356.9
375.8112,146.2
376.0123,8820.5
376.0214,11554.2
376.2447,100.2
376.2901,904.8
376.4628,690.6
376.4947,414.9
376.505,23.2
376.6515,103.7
376.6904,101.9
376.6992,83.2
376.755,20.9
376.835,85.6
376.9943,1440.4
377.0038,136.9
377.0164,5913.2
377.0687,411.4
377.4615,219.3
377.4652,215.5
377.5227,512.8
377.5922,136
377.6896,21
377.8063,1408.1
377.825,78.3
377.9306,133.7
377.9691,278.3
378.0642,130.2
378.1596,177.2
378.3345,225.3
378.4058,296.8
378.4494,373.5
378.4798,274.9
378.5471,478
378.6221,205
378.8057,110.9
378.8185,177.3
378.8341,20.5
378.9109,379.8
379.0451,666.1
379.0494,731.5
379.1791,19.8
379.2871,160.3
379.3195,154.9
379.3996,679.8
379.5179,390.6
379.5365,592.3
379.5472,442.6
379.8186,215.6
379.8819,765.1
379.9374,87.1
379.9716,251
379.9876,88.1
380.07,412.5
380.1099,104.2
380.3824,144
380.4207,538.1
380.4718,186.9
380.5433,74.9
380.6251,468.8
380.7575,896.3
380.7883,273.8
380.8302,219.5
380.8901,364.2
381.0136,30186.9
381.0261,244157.6
381.1059,21.2
381.1136,297
381.1981,72
381.5737,18.5
381.6294,707.8
381.641,729.7
381.6858,94.6
381.7507,216.7
381.8323,29.7
381.9134,213.1
381.9244,101.7
382.0293,22598.6
382.2397,21.1
382.35,472.1
382.6311,151.1
382.7678,448.4
382.8312,202
382.9715,117.1
382.9883,22.4
383.0113,356.7
383.0302,536
383.1163,135574.5
383.2703,345.3
383.2805,166.5
383.3151,687.4
383.3829,109.2
383.4179,139.6
383.4522,65
383.4944,641.8
383.5486,479.1
383.6235,361.2
383.6654,21.6
383.715,343
383.8531,24.8
383.9631,132.2
383.9845,111.7
384.0196,384.5
384.1196,13002.6
384.1433,116.1
384.1603,20.9
384.2476,694.5
384.3523,93.5
384.4249,273.6
384.4877,125.2
384.5959,468.1
384.6474,370.8
384.6571,19.8
384.765,675.4
384.8225,149.3
385.2732,96.1
385.404,122.4
385.4892,85.8
385.5433,205.8
385.6533,135.4
385.7825,520.4
385.8339,201.7
385.9792,14615.5
385.9881,415.4
386.113,101.5
386.1158,104
386.3249,163.6
386.3626,418.1
386.3693,152.9
386.4424,22
386.5085,20
386.7178,21.2
386.8675,557
386.978,239.3
387.0024,1541.7
387.8276,93.9
387.8804,463.1
387.9784,1004.8
387.9965,98.8
388.2845,862
388.2948,346
388.4921,205.5
388.5871,235.7
388.6265,234.7
388.6446,834.3
388.7121,927.3
388.7625,604.8
389.1094,395.4
389.3351,502.8
389.4243,354.7
389.6953,21.5
389.8067,240.5
389.8259,23.9
389.9735,14485.7
390.1891,143.9
390.3991,316.1
390.4764,103.7
390.5925,112.4
390.7101,642.3
390.7982,364.6
390.8842,623
390.9058,569.7
390.9217,903.3
390.9408,580
390.9448,564.2
390.9492,368.4
390.9587,210
390.974,13649.3
390.983,25674.9
390.992,17909.4
391.0176,667.6
391.1222,390.1
391.1328,323.8
391.5958,196.1
391.7756,20.3
391.8217,266.6
391.8909,133.3
392.1437,882.1
392.2386,549.3
392.3565,678
392.3636,21
392.42,20.2
392.4367,162.4
392.512,208.7
392.5138,218.7
392.5181,108
392.5941,291.6
392.7956,487.5
392.8391,120.7
392.9585,23.5
392.9674,314.7
392.9815,1682.1
392.99,781.7
393.1297,161.2
393.2975,23.6
393.3208,162.6
393.5069,315.5
393.553,23.8
393.7119,203.3
393.726,149
393.7584,327
393.8188,23.3
393.8795,292.2
393.9059,297.1
393.9727,139.1
393.99,67.9
394.0792,207.4
394.1041,446.1
394.4844,767
394.5289,111.5
394.6022,22.7
394.697,321.3
394.7424,227.4
394.8465,41.2
394.8808,300.3
395.0748,171.4
395.3053,398.2
395.3656,599.2
395.3745,201.6
395.607,161.2
395.8168,147.8
395.996,666.4
396.1443,259.7
396.1882,141
396.2103,723.8
396.3873,552.2
396.4606,435.9
396.5233,21.5
396.5458,421.6
396.7037,328.1
396.7441,479.1
396.9527,185.3
396.9911,175729.7
396.9999,86243.1
397.2089,154.5
397.3658,434.2
397.5165,345.5
397.7599,214.2
397.8835,317.7
397.9943,15119
398.0032,6008.4
398.0757,686.5
398.0928,742.4
398.2416,2511.2
398.3474,354
398.4051,330.6
398.7414,1234.1
398.8755,655.3
398.9012,21.4
398.9985,1361.9
399.2058,569.1
399.6428,436.9
399.7604,181.9
399.7706,490.8
399.7969,124.9
400.0354,754.1
400.0985,166
400.1378,301.1
400.1726,61
400.4598,191.8
400.5096,348.4
400.5314,153
400.546,238.2
400.7276,108.1
400.7384,795.1
400.7472,361
400.7992,32.9
400.8273,1129.3
400.9835,621.3
401.0412,510.9
401.3451,191.7
401.6045,297.6
401.782,22.4
401.8665,98.5
401.9529,3302.9
401.9647,521
402.1148,622.4
402.2604,229.8
402.293,119.8
402.7985,380.7
403.008,301353.6
403.0658,149.3
403.0951,487.6
403.199,138.1
403.5113,898.2
403.6581,252.7
403.8224,149.1
403.8794,186.3
403.8878,219.1
404.0113,28350.5
404.0759,19.8
404.1165,19.7
404.3729,107
404.4863,280.6
404.6431,124.1
404.6864,540
404.7933,4962.6
404.8349,217.6
404.8419,17.4
404.9488,132.4
405.0112,1903.4
405.0418,742.5
405.0644,205.8
405.1758,206.8
405.2769,125
405.5322,66.8
405.6072,157.5
405.7933,407.2
405.8226,245
405.8677,431
405.8773,194.5
405.9476,10196.6
405.9972,18.9
406.0884,158.2
406.3293,953.3
406.4229,133.9
406.5668,92
406.6406,330.7
406.6864,474.6
406.7615,488.3
406.7909,34.3
406.83,367.8
406.8533,129.3
406.9001,168.3
406.9572,222.6
407.0746,648.6
407.087,495
407.1202,119.8
407.2159,19.4
407.2429,18.7
407.3328,225.1
407.4019,114.9
407.4223,473.8
407.4439,91
407.4934,207.1
407.6168,463.4
407.665,347.9
407.8174,4093
407.8409,176.3
407.8946,102.1
408.2445,117.7
408.2632,22.9
408.3492,203.4
408.4055,193.4
408.592,386.9
408.6737,261.3
408.7707,1957.2
408.8171,219
408.9463,113.4
408.9558,667.4
408.9847,3598.1
409.0178,24.1
409.767,369.8
409.8197,97.2
410.0697,144.3
410.1203,224.6
410.461,113.4
410.5337,212.6
410.6356,134.7
410.8131,478
410.8504,22.3
410.8799,564.7
410.9831,217
411.0222,169.5
411.2221,19.7
411.2426,161.8
411.269,553.2
411.6067,451.2
411.6427,148
411.7747,329.1
411.7989,330.8
411.9741,121.7
412.0946,518.5
412.3214,3011.1
412.3391,102.4
412.3479,109.4
412.4737,206.9
412.5695,18.1
412.6493,91.6
412.7166,357.2
412.7651,648.7
412.7778,954.8
412.8535,933.8
412.9649,37676.9
412.9739,17322.1
413.2663,2868
413.3245,275.5
413.3728,113.7
413.4751,294.6
413.8705,290.7
414.1114,320.8
414.1864,99.5
414.27,388.9
414.367,19.5
414.562,97.6
414.9637,803.2
414.9738,196.6
414.9977,1804.4
415.0372,123.1
415.2223,3005.5
415.2718,116
415.742,110.7
415.9607,514.1
416.0015,394
416.1352,9014.9
416.2141,38439.8
416.2731,802.7
416.5293,18
416.5498,86
416.7379,309.2
416.8134,53.6
416.9589,650.5
417.2175,5119
417.2507,67.6
417.2578,154
417.5005,18.3
417.5291,18.5
417.6598,144.8
417.9266,634.5
418.3111,318.6
418.3895,267.9
418.5298,176.1
418.8093,1094.9
418.9149,164.1
418.9257,198.6
418.9819,119061.8
419.1617,189
419.2285,188.4
419.2438,182.4
419.2545,972.5
419.3575,658.8
419.4636,201.6
419.4884,305.5
419.5817,590
419.671,480.8
419.7027,218.3
419.7196,19.5
419.8097,55.9
419.8384,34.5
419.8501,19.7
419.9854,7629.4
420.0014,485
420.2357,356.2
420.3439,158.8
420.6436,18.9
420.8086,118.1
420.8275,526.5
420.9803,5668.7
421.0695,141
421.2367,806.5
421.2431,20.9
421.5636,158.4
421.6342,447.9
421.723,125.8
421.7943,617.4
421.8094,201.9
421.8335,1759.5
421.9213,1605.7
421.9762,252
422.1915,710.5
422.3023,27.3
422.3123,150.9
422.3496,24.1
422.8038,818.4
422.8323,247.4
422.8805,490
422.9186,475
422.9524,671.3
422.9905,127.1
423.139,575
423.1479,321.8
423.2917,748.6
423.3098,156.7
423.7264,132.6
423.8037,80
423.8325,54.5
424.0477,353.2
424.2583,856.4
424.3564,23
424.3964,505.8
424.4689,323.3
424.6403,186
424.7431,552.6
424.8297,477.8
425.0903,557.7
425.1676,523.8
425.3422,19.1
425.5414,493.7
425.6186,504
425.6767,261.3
425.6969,18.6
425.8066,17.7
425.8278,561.9
425.8759,388.4
426.1664,20.7
426.3571,699.4
426.5456,307.4
426.7099,522.7
426.8308,851.1
427.0196,555
427.2616,449.6
427.2689,255.3
427.3719,186.4
427.8503,863.6
428.0685,333
428.1582,119.7
428.1704,224.8
428.1746,305.5
428.3242,179.4
428.3562,335.6
428.4283,221.9
428.5655,134.9
428.5927,105.8
428.6499,597.1
428.8276,573.1
428.8947,550.2
428.9387,4669.6
429.0112,765
429.0233,867.9
429.0429,457.7
429.0532,631.2
429.0635,441.1
429.0888,1329.8
429.3724,101.8
429.4599,186.1
429.502,642.5
429.5976,454.7
429.7075,20.3
429.7171,193
430.0612,385.3
430.079,265.3
430.0879,105.5
430.458,176.4
430.482,132.2
430.6717,19.6
430.7722,205.9
430.831,23.9
430.8448,107.8
430.8682,18.4
430.9134,1105.2
431.086,68.6
431.1252,140.9
431.217,4002.5
431.6228,189.8
431.7659,129.6
432.2601,284
432.3618,110.9
432.443,207
432.4563,305.4
432.4979,806.8
432.6047,39
432.8248,86.2
432.9538,176.1
432.9878,19.1
433.0408,439.8
433.1472,72.4
433.2498,78.2
433.2879,112.2
433.3371,100.2
433.5088,599.7
433.6508,286.7
434.0579,187
434.2261,165.2
434.2775,151.3
434.4922,829.5
434.6617,263.9
434.7435,559
434.8027,17.5
434.956,27837.3
435.1366,438.6
435.1445,20.4
435.1551,20.2
435.1809,407
435.6617,597.8
435.6966,310.8
435.761,108.7
435.8095,18.2
435.8327,23.3
435.8492,197.5
435.9316,143.4
435.958,296.3
436.2382,296.8
436.2893,20.4
436.4392,105.3
436.4812,181.6
436.8199,221.7
436.8889,860.9
436.9528,801.1
436.9641,19.5
436.9851,21.5
437.204,1203.1
437.3271,447.7
437.3399,299
437.353,85.4
437.6464,374.6
437.7374,19.9
437.9075,26.5
437.9568,121.6
438.0739,608.3
438.0858,19.2
438.1377,19.1
438.1782,257.8
438.1983,552.9
438.2448,121.2
438.3811,135.4
438.4626,126.8
438.5129,150.8
438.7097,536.2
438.8536,68.9
438.9719,2507.3
438.9846,3591.3
439.1341,18.7
439.4599,426.8
439.844,60.3
440.335,88.7
440.7256,568.6
440.9301,769.3
440.9543,22.7
440.9813,357.5
441.0578,148.7
441.2978,217.6
441.4401,323.3
441.4612,182.3
441.684,266.8
442.4183,131.5
442.9825,598
443.1642,190.1
443.2367,145.7
443.2536,839.7
443.3622,497.6
443.5541,21.9
443.6685,158
443.8366,22.5
444.057,249.2
444.1618,533.7
444.2469,736.2
444.6367,659.9
444.6632,331.7
444.8793,334.9
445.0105,204.7
445.0878,193.8
445.2303,87
445.2696,1390.5
445.2888,684.2
445.4137,159.9
445.4183,172.5
445.6037,460.3
445.7428,333.8
445.7935,310
445.9111,143.3
445.9416,191.3
446.0194,18.2
446.1113,199.3
446.2706,238.8
446.5282,187.3
446.6709,313
446.862,162.2
446.9077,305.7
447.5193,123.7
448.1435,18.5
448.2069,229.5
448.3854,232.1
448.4,142.9
448.5832,721.4
448.7699,398.8
448.9326,5490.3
449.0002,900.5
449.1542,3611.2
449.252,213.2
449.3284,107.3
449.3604,20.5
449.7086,231.2
449.8281,62.5
449.8555,156
449.9133,287.4
449.9585,552.9
450.0513,255.2
450.128,20.1
450.1575,663.8
450.835,25
450.9288,1648
451.1498,252.2
451.1612,19.3
451.199,187.9
451.2323,309.3
451.7496,122.9
451.9621,195.3
452.06,125.6
452.1527,20.4
452.2138,854.8
452.2653,91.3
452.2755,665.3
452.457,114.6
452.6162,179.8
452.7588,23.2
452.7744,253.1
453.1943,479.6
453.2068,20.5
453.3112,233.5
453.6731,631.3
453.7931,461.2
453.8235,19.8
454.1902,342.8
454.3458,330.2
454.4035,128.1
454.5085,509.4
454.7099,364.2
454.7959,433.4
454.9143,18.7
454.9354,20.3
454.9498,36888.9
455.0785,61
455.1243,301.7
455.2257,728.7
455.4475,112.7
455.5776,240.5
455.6864,175.2
455.9525,2206.4
456.5824,63.6
456.6983,437.9
456.7437,71
456.8414,121.5
456.8615,284.3
456.9471,10021.5
457.0058,221.9
457.2328,14417.4
457.3129,184.6
457.471,238
457.7359,349.5
457.9664,22.1
458.1236,429.3
458.2353,674.7
458.5113,19
458.5908,313.9
458.7684,23
458.9616,3167
459.2149,333.1
459.2485,418279.8
459.3003,194.3
459.4218,330.7
459.652,194.8
459.7443,664.8
459.7687,17.5
459.8777,122.8
459.919,578.2
459.9793,95.8
460.0299,170.3
460.1133,358.4
460.2518,82859.2
460.3676,510.1
460.7562,273.4
460.774,130.9
460.9013,259.4
460.9666,80736.8
461.0273,218.7
461.255,6701.8
461.3702,190.7
461.3998,18.8
461.4999,161.9
461.7411,213.7
461.7917,18.6
461.7972,17.9
461.9152,363.9
461.9697,3574.3
462.1289,108.3
462.3167,232.7
462.4105,349.3
462.7658,22.6
462.9636,24569.5
463.0292,108.1
463.1912,212.5
463.3872,208.7
463.5856,624.9
463.8068,140.1
463.9068,159.3
463.9382,328.9
463.9675,1000
464.0386,120.5
464.141,20.9
464.4864,21.2
464.5763,384.3
464.9326,105.9
464.9787,9564.8
465.1089,223.2
465.1568,236.6
465.2699,371.8
465.3341,138.9
465.675,143.2
465.737,598.1
465.8053,22.1
465.8565,164.1
466.1369,566.5
466.1878,348.1
466.2167,222.1
466.3654,234.6
466.3898,368.2
466.6509,226
466.7284,376.4
466.9882,189.9
467.0657,326.3
467.5469,17.6
467.5941,243.2
467.6827,500.9
467.8013,428
468.293,117.5
468.3091,2281.1
468.3607,261.8
468.5355,383.9
468.9488,507.4
469.0947,232.6
469.1644,124.3
469.329,19.9
469.3407,19.1
469.5658,21.6
469.5848,63
469.8844,467.8
469.9709,64.3
470.2741,434
470.2822,342.1
470.6913,178.2
470.9234,17281.6
470.9952,4779.7
471.0994,329.9
471.345,670.6
471.531,447.9
471.7105,18
471.7267,232.6
471.9256,476.1
472.0889,21.4
472.1695,352.2
472.3032,1062.2
472.7267,515.4
472.7694,858.5
472.9202,3013.2
472.9714,106.8
472.9999,232.6
473.0101,402.9
473.0213,1116.3
473.0318,22
473.0441,1176.3
473.0619,107.5
473.0755,292.7
473.1006,443.3
473.1259,107.7
473.1485,145
473.2027,243.4
473.2409,231.3
473.2638,5091.9
473.3075,101.5
473.3209,398.3
473.3561,409
473.377,467.3
473.5447,318.3
473.5607,710.4
473.594,346.9
473.6685,219.1
473.6883,199.1
473.7518,93.5
473.768,482.3
474.1059,305.8
474.1358,16.9
474.2393,19.9
474.2749,668.6
474.2994,805.3
474.6561,164.5
474.7235,67.8
474.796,18.6
474.8225,18.5
475.2223,26345.4
475.627,875.9
475.6566,297.5
476.0068,425.4
476.2255,2169.5
476.4117,312.1
476.5323,133.1
476.5473,341.3
476.7435,47.5
476.8502,316.4
476.9405,55124.8
477.3092,219.6
477.4961,522.8
477.8218,112.4
477.9443,3283.2
478.036,17.8
478.3293,40680.7
478.4942,336.1
478.5876,330.2
478.5968,337.1
478.9376,13746.5
479.1458,466.5
479.3324,9120.5
479.6583,380.6
479.8576,125.6
479.9162,485.2
479.9244,277.5
479.9418,1282
480.2125,532.3
480.3444,2474.2
480.3982,525.9
480.5183,410.7
480.7918,30.4
480.9227,481
480.9358,1089.6
480.9524,4268.4
481.0915,477
481.217,19.2
481.233,2231.4
481.2524,192.3
481.7432,394.9
481.8174,150.7
481.9908,265
482.0282,215.3
482.2215,104.1
482.3235,787.8
482.7362,491.2
483.2484,158080.6
483.4154,170.2
483.9386,20.8
484.2517,33682.3
484.4697,169.9
484.5489,559.7
485.2641,144560.4
485.5136,182.9
485.5556,205.7
485.7071,18.8
485.9865,176.7
486.0124,203.5
486.0837,200.9
486.2107,319.8
486.2673,32967.3
486.3578,145.1
486.3712,17.8
486.7272,210.6
486.8341,147
486.8969,1944.1
486.9691,1937.4
487.0097,618.1
487.2797,104495.6
487.6242,21.1
487.6406,600.2
487.7636,322.2
487.7838,325.6
487.9181,104.9
487.9447,351.1
488.1625,20.5
488.283,20760.6
488.4186,376.4
488.4453,121.5
488.607,347.8
488.7612,400
488.9496,766.2
489.084,25
489.2127,262.1
489.2386,114
489.2597,616.4
489.2874,677.5
489.3416,22.3
489.4129,662.3
489.6404,249.5
489.7509,145.7
490.2904,5855.6
490.5559,308.6
490.7384,35.5
490.8098,275
490.8516,23.1
490.9272,220.9
490.9907,21.2
491.0053,19.4
491.4124,316.1
491.7285,129
491.8182,438
491.8542,296.4
492.1825,117.6
492.3069,452.6
492.4323,329.4
492.7036,73.8
492.9144,9878
492.9704,519.7
493.0152,163.4
493.0304,179.7
493.0561,103.3
493.1379,169
493.2318,230.1
493.5044,192.1
493.8693,118.5
493.9416,317.9
493.9526,276.3
494.1632,109.3
494.2366,211.5
494.301,39
494.3245,12634.9
494.3736,124
494.9116,3332.8
494.9451,18.7
494.9842,18.2
495.3282,1240.2
495.6995,467.2
495.8864,226
496.2191,153.6
496.3399,457707.1
496.9312,1014.2
497.0182,293
497.0744,540.6
497.1079,209.2
497.3432,113673.7
497.5156,258.5
497.7148,148
497.7851,19
497.8601,310
498.2606,140.5
498.3462,9501.4
498.3974,166.9
498.4103,529.7
498.4411,149.3
498.5282,363.6
498.6199,423.2
498.6999,134.7
498.7756,229.3
499.1116,181.6
499.2223,9541.4
499.274,229.7
499.3377,128.3
499.5635,119.7
499.7967,120.9
499.9956,110.4
500.2253,959.9
500.3137,1162.9
500.3527,433.6
500.3698,298.8
500.985,353.9
501.0854,201.3
501.1756,216.3
501.238,9061.5
501.2724,578.6
501.3557,139.6
501.5254,261.1
501.8061,104.8
501.8474,505
502.1895,345.4
502.2751,132.5
502.2914,861.3
502.3291,20298.1
502.5932,138.3
502.6614,507.2
502.8465,508.1
502.8644,509.5
503.0032,23.8
503.1078,277.2
503.167,104.2
503.2538,8759.6
503.2744,22.1
503.3328,2523.3
503.4151,411.2
503.4448,173.8
503.8109,186
503.9071,522.6
503.9303,100.6
504.0952,251.5
504.1059,245
504.3063,4221.2
504.3444,12145.2
505.1054,20.8
505.2328,2710.8
505.3263,141.8
505.3472,547.7
505.7727,506.2
505.8248,271.7
506.1815,933.5
506.2653,1200
506.3605,3011.8
506.3919,305.8
506.53,187.2
506.6608,135.8
506.7325,30.8
506.8907,2821.8
506.9201,241.4
507.1909,131.4
507.2482,25285.2
507.3638,92.5
507.7548,22.9
507.9363,18.8
508.0119,516.3
508.1021,109.7
508.1783,120.3
508.2521,6011.5
508.3028,25.8
508.3743,976.6
508.5112,307.6
508.5958,138.7
508.6701,20.8
508.7499,18.3
508.8893,490.4
509.0046,2524.3
509.264,13950.1
509.3543,924.1
509.3759,421.6
509.6196,122.8
509.6598,113.4
509.8535,113.4
510.2671,1499.7
510.2837,283.4
510.3199,208.3
510.3556,5233.1
510.884,890.9
510.9034,800.7
510.9693,96
511.1208,241
511.1765,440.2
511.2233,329
511.2749,1549.2
512.4868,108.8
512.5005,332.8
512.6979,128.3
512.8457,177.1
512.9083,15764.3
513.1202,526.7
513.1833,298.9
513.8207,222
513.8487,165.5
514.098,425.4
514.2499,178.5
514.4899,218.6
514.8779,108.6
514.9053,8939.5
515.0848,19.6
515.1098,781.7
515.1287,108.3
515.6862,99.3
515.8127,202.6
515.9295,171.7
516.1928,331.7
516.267,565.6
516.3063,20521.7
516.4694,421.7
516.4809,18.6
516.6547,336.8
516.6932,295.9
516.824,103.7
516.9205,896.2
517.0479,574.6
517.2335,516.9
517.3103,2581.5
517.9091,99.4
518.322,697880.3
518.3706,232.5
518.6303,122.6
518.657,126
518.6759,449.9
518.759,212
518.925,30736.5
519.1973,574.3
519.3253,170097.3
519.3482,198.2
519.3557,200.2
519.4012,286
519.5023,93.2
519.574,275.3
519.6267,17.6
519.8296,579.5
519.9287,1659.1
519.947,135.7
520.3399,164979
520.7509,26.4
520.7919,122.9
520.9223,16160.3
521.2155,500.9
521.3432,43440.9
521.4889,20.7
521.5719,184.5
521.7289,103.7
521.9254,846.7
521.9756,254.4
522.0441,331
522.1366,158.7
522.1763,312.8
522.2296,113.1
522.2581,1336.5
522.3556,172261.4
522.4839,17.4
522.5872,462.8
522.6442,125.4
522.7757,25.8
522.9188,1374.4
522.937,4017.9
523.2214,477.7
523.3589,42691.6
523.3965,65.8
523.5836,509.8
524.1228,2004.8
524.1423,446.7
524.3711,145402.4
524.4528,18.4
524.6616,127.8
524.9328,709.9
524.9781,1391
524.9887,410.7
525.1653,21
525.3745,37586.7
525.4189,172.7
525.648,189.8
525.9539,417.4
526.3293,1498.2
526.3452,553.4
526.3774,2572.1
526.4214,171.8
526.471,153.3
526.6845,409.4
526.8548,19.1
526.8902,317.2
526.994,19.4
527.1004,684.3
527.1331,351.1
527.732,497
527.7433,249.8
527.7643,65.9
528.184,357.2
528.3,295.6
528.6208,557
528.6725,314.7
528.8824,8194.9
528.923,523.4
528.9425,19.5
528.9543,3109.8
529.2628,377.1
529.3153,323.4
529.547,138.1
529.8865,384.1
530.0196,330.2
530.0408,144.1
530.3216,857.7
530.3797,179.6
530.4011,474.9
530.5128,103.9
530.5663,120
530.6333,596.8
530.8792,6148.6
530.9479,1161.8
530.9955,429.8
531.03,249.6
531.2485,8266.6
531.3071,114
531.3493,697.3
531.3627,467.1
531.4071,292.5
531.4552,102.7
531.6592,458.5
531.7175,359.8
531.752,191.5
532.0071,746.8
532.1384,109.2
532.252,858.3
532.2804,7141.7
532.3209,123.2
532.3375,9654.2
532.6933,650.3
532.7271,677.8
532.8142,119.8
532.966,1504.4
532.9829,287.5
533.0014,140.7
533.1575,594.2
533.2277,20.2
533.2644,1702
533.3226,90.8
533.3406,744.4
533.4108,714.3
533.4397,231.2
533.4641,71.2
533.4976,182.2
533.8074,141
534.084,539.4
534.2735,823.4
534.2959,234930.3
534.3165,1962
534.5993,381.9
534.7668,26
534.8991,17218.3
535.1382,317.4
535.2797,498.3
535.2993,54254.9
535.8028,23.5
535.9028,819.9
535.9385,359.2
536.267,264.2
536.2941,12340.9
536.4978,84.3
536.6131,254.1
536.8963,10108.5
537.0209,184.1
537.1442,147.3
537.297,768.5
537.9002,917.7
538.1627,181.7
538.3653,112.5
538.5158,301.4
538.6304,62
538.7122,260.8
538.8941,1572.1
538.9103,834.5
538.983,926.2
539.2632,213.2
539.3129,851.8
539.5435,124.3
539.8,138.6
539.8677,226.8
540.023,102.8
540.0534,291.1
540.3057,678.1
540.4169,19.3
540.468,638.2
540.9084,1061.1
540.9597,120.5
541.0109,254.4
541.1644,18.7
541.1835,253.5
541.334,107.2
541.525,19.3
541.7635,19.2
542.1563,575.2
542.2022,180.1
542.252,387.1
542.322,243892.1
542.3739,488
542.4672,89.3
542.4903,1046.1
542.6119,553.7
542.98,267.9
543.0318,206.1
543.1555,94.1
543.3252,63723.2
543.4353,277.1
543.4561,872.8
543.5706,550
543.8132,111.6
543.9028,21.7
544.0714,19.7
544.1263,689.7
544.186,120.9
544.2399,735.2
544.2713,2044.7
544.3377,247600.6
544.856,503.6
544.9279,389.1
544.9482,607.7
544.9862,293.9
545.3411,66621.8
545.4588,437.2
545.6263,213.6
545.6818,113.5
546.01,121.1
546.2973,286
546.3533,210475.7
546.3884,19.1
546.7045,127.5
546.8506,331
547.3568,54196.4
547.4266,290.3
547.6276,235.2
547.7192,276.3
548.076,504
548.1684,19.1
548.2915,61.9
548.3116,1513.6
548.359,2390.9
548.3853,241.9
548.4751,116.2
548.5579,18.3
548.6472,170.1
548.6965,92.9
548.9406,654.1
549.3147,752.7
549.3522,104.6
549.4978,19.4
549.956,200.2
550.0989,529.6
550.1268,375.4
550.3891,146.2
550.5022,112.6
550.5286,103.8
550.5923,20.3
550.6153,465.7
550.8505,578.5
550.8729,2896.1
550.8979,17.9
550.914,182.2
550.9576,193
551.0189,290.9
551.5026,409.1
551.5494,128.3
551.7241,426.2
552.059,17.3
552.3821,309.9
552.4726,434.5
552.6127,160.5
552.6464,123.6
552.7231,181.4
552.7794,155.9
552.8703,2792.8
553.0074,356.4
553.0312,97.8
553.0864,318.9
553.2803,802.4
553.4812,109.1
553.5931,189.1
553.6741,260.1
553.7539,248.2
554.2888,63.3
554.3829,763.3
554.5555,248.6
554.8297,216.1
554.8857,296.2
554.9676,174.9
555.1306,101.5
555.3698,290.3
555.5515,278.8
555.7334,241.8
556.0776,138.8
556.2865,563.5
556.3801,196.1
556.9271,121.2
557.4492,471.9
557.5668,692.8
558.074,134.6
558.2334,135.6
558.2959,86814.7
558.3715,321.7
558.4426,66.7
558.8219,100.5
558.9885,492.5
559.2993,21291.4
559.3508,118
559.3668,212.8
559.4807,566.5
559.7093,19.6
560.2946,3631.2
560.3116,83696.7
560.3979,244.4
560.6352,140.9
560.7129,351.2
561.0413,136.2
561.2212,21.2
561.315,19722.8
561.4118,839.8
561.5568,380.3
561.7161,112.6
562.197,705.9
562.2117,132
562.3104,2760.4
562.3272,58816.5
562.3814,313.6
562.5084,449.4
562.9549,204.5
563.0934,18.1
563.3063,460.1
563.3304,12109.9
563.4143,94.7
563.5202,443.2
563.6576,108.7
563.683,320.2
563.7586,19.8
563.7915,18.3
563.9344,103.4
564.0252,22
564.3057,903.5
564.3257,1969.2
564.4684,335.9
564.6396,121.9
564.9777,497.2
565.0299,555.5
565.0341,533.5
565.3613,170
565.7699,394.2
566.3221,41137.4
566.3777,237.8
566.4058,355.7
566.6481,153.4
566.8504,859.6
566.9652,576.8
567.3253,11572.4
567.3742,332.2
567.4181,714.2
567.4937,129.4
567.7055,246.5
568.0139,103.5
568.338,23569.1
568.4706,372.9
568.5174,243.3
568.5426,139.5
569.0317,104.1
569.2654,20.8
569.2828,168.6
569.3423,3461.6
569.5416,128.9
569.8471,323.9
570.1197,474.8
570.3082,691.1
570.3511,733.7
570.6505,20.7
570.8668,3546.6
570.933,346.7
571.0599,976.9
571.5063,276
571.6832,387.7
571.7953,224.8
571.9988,344.5
572.048,23.6
572.2664,19.2
572.3689,790.1
572.4379,660.3
572.5259,168.3
572.5546,207.9
572.8647,3322.1
573.275,149.4
573.2934,505.9
573.5117,156.7
573.5423,275.4
573.5732,21.9
573.6949,159.5
573.7386,593.5
573.7848,234.9
574.2391,113
574.2842,875.5
574.3828,22.1
574.5143,258.3
574.7627,287.8
574.8605,358.2
574.9443,21.3
575.2432,20.5
575.2901,495.9
575.5036,7471.5
575.6501,642.4
575.7692,191.5
575.8334,118.7
575.9372,325.5
576.0287,581
576.1813,275.7
576.2805,8194.5
576.3528,24.5
576.4808,361.1
576.5068,759.2
576.595,872.5
576.6254,153.6
576.7451,112.2
576.7751,22.7
576.8097,19.8
576.8838,7761.4
576.927,100
577.0401,87.1
577.1006,163
577.2816,1261
577.5197,1439
577.5664,441.7
577.8879,1037
577.9807,321.1
578.1119,170.1
578.2771,1092.1
578.5224,87.6
578.8811,6292.8
579.0739,227.7
579.1319,118.4
579.5215,239.1
579.8812,407.6
579.9007,153.1
580.8063,262.4
580.8781,1514
580.896,2167.8
581.0344,270.5
581.1129,369
581.1726,220.4
581.2115,577.1
581.3717,130.2
581.7222,217.9
581.9559,530.1
581.9976,603.2
582.0137,311.1
582.1489,729.9
582.1614,112.5
582.2047,136.2
582.2135,158.8
582.2306,1796.2
582.2643,284.2
582.2959,12122.7
582.3259,209.9
582.405,141
582.4354,470.5
582.5283,202.1
582.682,442
582.7147,847.7
582.8172,174.3
582.8923,468.8
583.2546,256.4
583.2997,451.4
583.3407,243.3
583.3532,19.3
583.6111,548.4
583.7807,106.9
583.9973,161.3
584.1119,341.1
584.1545,97.9
584.3116,4970.6
584.5073,297.5
584.6706,857.8
584.8799,557.5
584.9271,122.3
585.1122,274.7
585.2716,123.2
585.2889,742
585.4269,111.4
585.7791,530.6
585.9067,397.3
586.0142,441.7
586.2766,699.5
586.3099,8582.4
586.5786,94.3
586.8409,1174.9
586.9122,1113.6
587.3127,713.5
587.371,373.7
587.3874,496.6
587.7734,630.3
587.8314,543.8
587.9281,222.3
588.1232,508.6
588.2312,171.8
588.327,119.2
588.8378,2011.1
588.9097,612.1
589.0062,216.7
589.3445,1116.5
589.5705,504.5
589.6204,19.3
590.0071,404
590.0939,324.6
590.1124,229.9
590.2898,24.7
590.3221,8956.7
590.4182,449.8
590.7404,342.6
590.7547,611.6
590.8335,695.5
590.8638,258.1
590.9235,627.5
591.577,164.1
591.5898,17.8
591.7508,288.5
592.0161,109.9
592.0932,20.4
592.2532,911.2
592.3381,1559.8
592.5122,112.3
592.641,182
592.7148,290.1
592.7903,520.2
592.8581,7261.2
592.8988,266.6
593.5635,1011.7
593.8596,415.3
594.0219,314.6
594.2127,113.2
594.3522,647.8
594.4816,784.9
594.6035,19.8
594.6211,576.9
594.6831,758.1
594.855,5651.3
594.8815,729.6
595.6126,165.9
595.6211,293.2
595.6278,213.2
595.7271,193.1
595.8046,601.2
595.8581,824.7
595.9881,219.1
596.8192,920.3
596.8527,1803.4
596.8693,1251
596.8802,283.4
596.8995,256.2
596.9435,980.7
596.9906,912.3
597.0229,137
597.452,2361
597.4856,12508.1
597.5795,429.9
598.1347,254.4
598.2234,18.6
598.4002,112.1
598.4482,910
598.4571,1129.9
598.4883,1529
598.7011,365.3
598.868,337.3
599.2019,156.3
599.2201,237.4
599.2486,20.8
599.2633,24.3
599.4666,997.1
599.5023,2406.2
599.8119,274.1
600.1346,174.2
600.2805,2303.2
600.4638,572.5
600.4779,124.2
600.5912,744.9
600.6062,178.8
600.9092,351.9
601.3938,545.3
601.4744,195.6
601.5208,420.8
601.625,312.6
601.764,238.8
602.2961,2130.9
602.4718,176.3
602.5813,486.4
602.8877,334.3
602.9078,421.6
602.9376,429.5
603.1599,372.8
603.1712,19.1
603.4683,199.8
603.5204,24.2
603.5354,463.4
603.6134,135.2
603.7011,215.3
603.7174,356.9
603.8871,74.8
604.3102,594.2
604.6364,514.4
604.8132,476.5
605.1291,185.5
605.2904,579.8
605.3602,118.5
605.4096,134.1
605.5503,413.7
605.6514,136.1
605.9668,347.2
606.2836,126
606.2965,1407.4
606.37,701.2
606.6712,371.8
606.7534,20.7
606.9372,797.6
607.1716,350.7
607.5872,96.7
607.6053,22.3
607.9322,99.7
607.9678,696.1
608.3061,723
608.4603,191.3
608.8319,2032.5
608.9806,179.9
609.4705,152.3
609.5516,475.6
609.9978,472
610.0526,373.2
610.0659,105.1
610.2762,454.2
610.3104,1366.6
610.5636,100
610.8283,2066.5
610.8924,122.7
610.9348,223.8
610.9747,150.5
611.146,502.1
611.7485,18
611.7557,17.6
611.8543,104.4
612.1087,141.4
612.3251,572.4
612.8278,398.6
612.8621,537.5
612.9344,944
613.0643,294.9
613.2057,420.1
613.3391,393.8
613.5873,25.6
613.759,351.7
613.7912,502.2
613.8385,194
614.035,434.9
614.2449,130.6
614.3418,1189.8
614.8136,320.9
615.1105,94.7
615.1796,105.5
615.2001,519.8
615.2724,107.1
615.2886,328
615.694,172.9
615.8309,366
616.2551,219.5
616.3111,505.5
616.4951,245.2
616.646,19.4
616.8807,593.1
617.3553,243.2
617.3927,114.4
617.4756,1076.2
617.778,109.3
618.0387,448.2
618.5537,570.4
619.1485,196
619.4137,685.6
619.7956,388.3
620.8701,322.7
620.9328,104.2
620.9803,78.6
621.4475,581.7
621.4584,330.9
621.4856,3112.7
621.7541,477.6
622.2524,99.9
622.4099,147.1
622.4891,2231.2
622.557,305.4
623.0363,212.6
623.1362,12622
623.2606,318.9
623.4502,1097.5
623.5034,1437
623.8112,79.1
624.0244,355.4
624.1398,948.9
624.1915,186.2
624.4594,783.2
624.4996,664.3
624.5592,564.4
624.7546,301.4
624.9896,334.3
625.4818,476.2
625.5164,577.1
625.7848,531
625.9204,219.6
626.4403,212.5
626.4707,338.1
626.4836,97.3
626.6965,198.9
626.8595,94.8
626.9925,252.2
627.5348,325.7
627.6059,83.7
627.7568,719.9
627.8732,127.6
627.9263,290.4
628.2557,156.4
628.3543,116.4
628.5364,605.3
628.587,100.9
628.9135,26.3
629.0308,211.8
629.1531,31549.3
629.4746,157.1
629.5467,117.5
629.7927,22.5
629.9046,81.4
630.0957,104.1
630.1566,5413.9
630.5845,470.7
630.6022,792.3
630.7893,699.5
630.8473,178.9
631.0614,128.2
631.1277,83.2
631.1608,172.3
632.8805,126.2
632.8939,261
633.3221,272.4
633.4783,97.5
634.0329,360
634.0455,689.8
634.1685,140.9
634.5725,317.9
634.5928,265.1
634.842,2080.7
634.9043,107.7
634.9954,544.7
635.0957,133.8
635.264,350.7
635.3761,602.6
635.9755,402.5
636.121,182.4
636.2664,788.3
636.8395,3185
636.9086,68.1
637.1574,240
637.4902,180.1
637.6384,243.5
637.9566,19
637.9787,142.3
638.2262,526.6
638.298,454.6
638.5,141.1
638.526,187.2
638.5879,24.1
638.7282,223.3
638.8362,637.4
639.1756,322.6
639.5425,608.6
639.6755,112.8
640.0835,507.8
640.1164,74.8
640.2504,21
640.2768,22.1
640.3185,114.6
640.6105,78
640.734,19.7
640.9857,509.9
641.576,364.1
641.8325,285.4
642.039,355.2
642.1435,165.3
642.2401,427.3
642.3054,119.1
642.4399,122.5
643.4578,465.5
643.5711,491.4
643.6209,500.3
644.2581,147.3
644.3407,624.8
644.4016,296
644.8678,307.8
645.0413,19.4
645.0673,22.4
645.118,11923.6
645.1959,557.9
645.3193,757.8
645.4543,720.8
645.4719,182
645.4863,876.9
645.5117,138.9
645.603,119.1
645.6443,67
645.94,527.3
646.1224,473.4
646.798,463.3
646.893,542.4
647.0965,132.2
647.1258,109.4
647.1562,251.5
647.1759,942.2
647.2461,20
647.4665,155.9
647.5006,251.5
647.581,374.2
647.7961,170
647.8893,229.1
647.9431,197.6
648.3036,987.2
648.7635,23.5
649.2684,23
649.4684,175.5
649.826,547.2
650.2952,154.2
650.4353,524.3
650.7687,23.4
650.8166,1658.9
651.0566,360.9
651.1349,44420.8
651.368,359.9
651.4418,441.9
651.5436,632.6
652.1386,6650.2
652.7069,326.1
652.8138,2516.5
652.9727,229.4
653.1111,416
653.132,202.8
653.3177,307.9
653.3924,24.3
653.4785,226
653.522,514.4
653.7526,680.4
653.7712,201.8
654.0257,107.5
654.0795,297.6
654.3053,148.1
654.3302,315
654.4949,185.2
654.5801,180.9
654.6669,866.7
654.6969,740.4
654.7175,368.6
654.7403,315.7
654.8106,1181.7
655.1454,125
655.311,567.8
655.5502,371.4
656.0733,81.3
656.0871,134
656.2472,598.7
656.3933,263.3
656.46,400.6
656.6884,544.5
656.7593,370.4
656.9952,938.1
657.0052,342.2
657.0735,224.3
658.2234,126
658.615,63.9
658.657,335.6
659.4973,325
659.9074,20.7
660.0285,602.5
660.4487,572.5
661.017,110.3
661.0827,6962.1
661.4699,503.1
661.7528,291.8
662.0656,141.4
662.7379,221.2
662.9403,95.6
663.0934,114.4
663.4541,548.9
664.0385,121.3
664.3853,327.6
664.4685,2114.9
664.7428,837.6
664.9314,122.3
664.9612,116.3
664.9888,361.9
665.2779,20.8
665.2932,123.1
665.3656,178.9
665.9563,796.6
666.4844,6088.8
666.6384,20.6
666.7908,349.4
667.0995,23343.8
667.2212,332.3
667.4865,2582.9
667.9558,714.2
668.0799,119.9
668.1035,2325.1
668.7436,541.9
668.7871,1048.2
668.8602,21.6
669.065,185.6
669.1022,226.3
669.1977,207.2
669.2529,168.4
669.4702,18.9
669.4974,804.6
669.8867,502.4
670.4114,114
670.4672,118.9
670.61,376.1
671.1194,148.5
671.2527,126.1
671.419,153.9
671.4342,811.3
671.4629,323.4
671.4866,714.2
671.5108,232
671.551,735.2
671.7731,298.7
671.8824,129.5
672.0551,230
672.4211,1980.5
672.7841,289
672.8174,519.1
673.1169,62586.1
673.1528,108.7
673.4192,694
673.4466,115.2
673.7644,20.3
674.0511,108.1
674.1204,11093.7
674.6897,369.5
674.9028,22.2
675.1199,670.3
675.2056,21.9
675.2457,380.5
675.4237,451.1
675.5439,8464
676.0473,917.8
676.102,159
676.2736,382.1
676.4632,465.8
676.5482,1736.4
676.7781,110
677.0792,104.8
677.5476,721.8
677.6057,25.1
677.681,449.1
677.9569,18
678.0707,157.9
678.5881,103.4
678.6108,719.1
678.6845,162.4
678.8434,500.1
678.8619,345.9
679.0983,516.1
679.4402,507.8
679.4851,332.2
679.8318,22.5
680.1087,233.9
680.3683,350.2
680.5805,386.4
680.6113,96
680.9914,111.2
681.4168,470.5
681.4845,653.2
681.5221,778.3
681.92,526.2
682.0643,3204.8
682.1491,554.8
682.2093,18.4
682.2661,760.3
682.5652,112.2
682.8738,248
682.8932,152.9
683.064,5342.8
683.1343,104.4
683.4482,1110.5
683.5253,235.5
683.8981,526.2
684.4582,104.2
684.879,583.8
685.0042,248.8
685.1767,21.5
685.4365,5450.9
685.6993,440.3
685.8463,348.4
686.217,540.6
686.4392,1581.6
686.5134,134.3
686.6493,352
686.9523,108.4
687.4345,155.1
687.5702,172.4
687.6293,265
687.8091,147.1
687.9721,121.5
688.2478,19
689.0814,19758
689.0909,18235
689.2105,334.3
689.5022,621.5
689.5605,330.8
689.6672,248.8
689.6893,146
689.9708,185.9
690.0849,2066.8
690.1655,351.5
690.4731,363.1
691.1553,282.2
691.2006,411.9
691.3211,313.9
691.3613,364.4
691.6778,21.1
691.7735,279.7
691.9023,342
692.3838,655.2
692.471,646.9
692.8026,387
692.8495,129.1
692.914,488
693.2414,497.7
693.3113,332.6
693.4208,757.8
693.6021,20.6
693.8269,536.9
694.036,240.7
694.1524,21.3
694.3294,260.5
694.6276,88.5
694.7546,371.4
694.7971,462.9
694.9269,429.9
695.0987,42157.4
695.3366,153
695.5103,1901.1
695.631,145.1
695.7251,318.2
695.7566,275.5
696.1029,7539.7
696.5035,503.8
696.5739,532.1
696.8749,521.5
697.1059,200
697.2027,673.7
697.4536,549.7
697.526,11430.6
697.5752,145.7
697.8283,349.2
697.9579,215.6
697.9797,114.6
698.0038,141.9
698.1062,293.1
698.5293,3221.1
698.6493,106.7
698.9653,20.6
699.019,658.9
699.0275,538
699.0399,484.5
699.1703,129.7
699.2855,22.3
699.3674,435.2
699.5598,209.9
699.972,79
700.0516,264.4
700.4861,793.1
700.7244,140.6
700.7514,23.1
700.7752,80
700.8186,380.3
700.9832,105.8
701.0245,300
701.4102,458.6
701.4869,20.1
701.5595,25908.3
701.7815,193.4
701.8982,717.1
702.3422,5242.2
702.5629,7682.7
702.749,277.1
703.3143,219.4
703.3459,1158.8
703.4453,76.5
703.4624,600.9
703.5755,76995.1
703.688,472.4
704.0467,2454.2
704.0705,383.4
704.2168,580
704.2463,658.6
704.4254,853.5
704.4317,775
704.4464,1572.7
704.5784,28884.8
704.8104,407.4
704.9831,470.4
705.0548,4098.5
705.3059,173.9
705.5816,2979.7
705.642,180.3
706.0708,111.3
706.5394,2545.6
706.7733,172.1
707.0535,129.8
707.079,18.9
707.3673,283.6
707.5408,552.6
707.6098,330
707.8134,446.9
708.2646,453.7
708.3867,248.7
708.433,402.8
709.0312,269.7
709.8575,719.3
710.4282,697.1
710.4892,459
710.8275,159.2
710.9544,235.3
711.0342,745.4
711.0432,738.9
711.0637,11477.6
711.0739,16553
711.2864,132
711.5408,2472.8
712.0774,1659.3
712.1708,322.1
712.4373,416
712.6741,153.7
712.7602,165.6
712.9257,410.7
712.9458,361.9
713.0709,210.6
713.2072,89.7
713.3385,168
713.3511,181.7
713.5015,1050.9
713.7712,219.4
713.8319,19.9
713.8884,21.7
714.0335,411.7
714.2855,197.1
714.4328,175.5
714.4751,200
714.6732,20.3
714.7343,271
715.1965,191.8
715.9257,20.1
716.0304,106
716.0927,209.2
716.4216,588.7
716.8361,126
717.0807,21707.2
717.1851,435.7
717.4873,473.4
717.7527,68.9
718.0852,1055.2
718.1382,170.4
718.2755,178.6
718.5215,195.8
718.5414,329.3
718.577,635.3
719.1391,249.2
719.1848,139.8
719.258,320.4
719.4604,814.6
719.8208,401.8
719.9496,418.6
720.0224,1041.2
720.1106,134.6
720.2271,244.2
720.2961,404.4
720.7096,552.2
721.3287,601.1
721.3926,425.3
721.4784,53861.3
721.5597,309.4
722.202,150.6
722.235,19.3
722.4818,19099.4
722.514,177.4
723.494,10711.8
723.5417,29406.9
723.8587,457.4
724.0107,437.3
724.3543,169.3
724.4978,2356.5
724.5452,10418.9
724.5948,321.3
724.8047,752.3
724.9335,121.9
724.9506,485.7
725.0059,268.2
725.1112,25.3
725.3878,205.6
725.5574,70020.6
725.8496,674.1
726.0089,218.3
726.029,764.9
726.2331,132.2
726.2778,590.1
726.5035,688.2
726.561,30315.5
726.7255,133.4
726.8608,114.1
726.8863,358.3
727.0306,3165.2
727.0489,1249.4
727.4807,124.3
727.5644,3492
727.7005,668.7
727.7699,67.9
727.812,399.9
728.4312,135.8
728.5212,2047.6
728.6936,131.6
729.0473,195.8
729.091,148.2
729.1226,402.7
729.1939,99.4
729.2798,197.1
729.3932,118.9
729.5287,649.8
729.5355,818.7
729.5911,10086.2
729.745,65
729.846,308.1
729.9398,385.1
730.539,8101.4
730.6734,786
730.7964,481.3
731.0182,95.4
731.5087,487.5
731.5417,1829.3
731.6071,4017.3
732.2703,570.4
732.3912,657.7
732.5545,67612.4
732.6112,118.8
732.6531,352.6
732.7355,538.3
732.8286,18.3
733.0562,11793.7
733.1693,168.2
733.5577,27907.9
733.6185,583.7
733.6996,69.7
733.7521,311.1
733.7999,257.5
733.8437,359.8
734.0394,141.6
734.0589,116.8
734.1395,146.1
734.2499,779.5
734.3186,116.2
734.402,241.7
734.5707,9638.4
734.6075,377.5
734.8102,106
735.1988,19.6
735.4958,505.3
735.5727,1611
735.7031,67.5
736.1068,109.5
736.223,19.2
736.3513,133
736.4,355
736.4579,219.2
737.4247,109.4
737.452,13406
737.4802,565.8
737.5035,264.8
738.1717,106.3
738.2909,318.6
738.4362,471.9
738.4557,2024.8
738.5709,123.6
738.5895,577.9
738.6167,484.5
738.6787,359.1
738.8887,19.7
739.0627,12089.5
739.1167,554.2
739.4696,1590.7
739.5162,4005.5
739.7282,235.1
739.8004,21
740.0679,583.4
740.5191,692.3
740.8907,124.9
741.5313,10029.4
741.7192,104.8
742.0051,151.2
742.231,164.7
742.5081,688.4
742.5347,3178.5
742.5749,13788
742.6547,142.6
742.8501,42.4
742.8897,468.6
743.1393,25.8
743.3728,172.3
743.462,2158.3
743.5394,654.6
743.5788,3899.9
743.8458,126.3
744.2686,125.7
744.3392,148.9
744.5547,3910.8
744.5916,10365
745.4787,20609
745.5596,371.5
745.5936,3539
745.737,175.3
746.4475,552.1
746.4811,4907.6
746.5698,7711.6
746.6074,3316.9
747.0461,241.3
747.3085,398.9
747.3362,426.7
747.3518,261.6
747.3628,280.2
747.494,9970.3
747.5415,119.6
747.5515,160
747.5727,1358.9
747.6127,134
747.9142,418.5
747.9337,344.5
748.0111,216.8
748.161,273.4
748.2112,369.1
748.4962,1335.3
748.583,62.7
748.7345,436
749.0115,3928.6
749.1084,120.5
749.175,287.3
749.2326,671.9
749.511,4548.3
750.0237,115.5
750.0742,147.8
750.2241,445.9
750.435,590.6
750.5148,950.5
751.0918,344.1
751.3564,256.7
751.5724,5182.1
751.6395,107.1
752.092,86.5
752.317,538.5
752.4412,17.9
752.5207,9590.9
752.5531,101.8
752.6267,149.9
752.761,355.9
752.8772,543.6
753.1991,97.5
753.5244,678.9
753.8279,484.1
753.9169,594.7
754.0999,191.5
754.1384,293.3
754.4453,92.7
754.4956,63
754.5364,49679.5
754.5856,101.9
754.9346,479.1
755.029,5208.5
755.0382,6265.7
755.1725,327.8
755.4943,457
755.5399,18336.3
755.8215,134.4
755.9597,236.5
755.9959,230.8
756.0265,264.9
756.1808,117.1
756.4813,1837.6
756.5541,45911.2
756.5946,113.6
756.7811,352.8
756.8435,532.2
757.3821,486.6
757.5574,19341.5
757.6242,2404.8
757.7472,186.5
757.9395,712.5
757.9691,60.5
758.1877,208.6
758.2485,341.6
758.5701,1029417.6
758.6272,77.4
758.8386,811.4
758.9548,359.1
759.0165,158
759.0478,91.9
759.4895,24.4
759.5734,444258.1
759.6374,1794.6
759.8922,178
760.1002,502
760.5044,20.5
760.5865,441721.8
760.6401,89.7
761.0445,4399.4
761.4526,1410
761.5149,189.6
761.5894,207078.8
761.6245,140.8
761.6466,67.4
761.6853,150.2
761.7484,149.4
761.781,514.4
761.8262,771.2
762.0449,1125.9
762.4541,1116.4
762.5033,103.1
762.5923,46269.6
762.6427,317.9
762.8423,292.8
762.9205,67.8
763.0918,380.4
763.1752,466.2
763.2272,394.7
763.4676,1248.7
763.5939,4904.1
764.0576,147.4
764.4829,506.5
764.5174,772.8
764.5569,6217.7
764.7898,215.5
764.9774,1023.1
765.0866,490.6
765.21,62.4
765.3966,386.9
766.0835,103.5
766.4741,18.8
766.5367,2906.7
766.5748,25599.6
766.6153,332.4
766.7143,17.8
766.7744,319.8
767.0762,696.7
767.5334,525.2
767.5779,10110.8
768.5533,4401.2
768.5912,26786.8
768.7051,107.4
768.7917,117.3
769.1941,20
769.478,6047
769.5938,8806.7
770.108,20.6
770.4832,1622.5
770.5103,8348.5
770.5702,360.8
770.6069,5421.2
770.9686,22.1
770.991,5214.5
771.2374,544.3
771.491,285.3
771.5751,368.8
771.609,771.7
772.2562,590.2
772.3063,271.5
772.5039,20.7
772.5855,16257.2
772.6214,747.7
772.8376,153.9
773.0189,94.6
773.0753,19.3
773.5093,1540.1
773.5893,7291.9
773.6838,892.9
774.6015,3320.5
774.6986,269.9
774.8941,657.9
774.9425,510.7
774.9965,117.3
775.2356,209
775.3052,197.2
775.446,128.6
775.6036,726.3
775.6358,138
775.7449,108.6
776.0575,166.8
776.3222,473.6
776.3601,491.4
776.3906,342.8
776.7411,63.6
776.8766,151.4
777.0082,2396.6
777.3715,60.8
777.3874,117.5
777.5477,104.7
777.5888,228.3
777.7461,20.8
777.7859,728.6
778.0212,368.7
778.0474,1796.6
778.1447,252.1
778.2524,527.2
778.5365,33808.2
779.009,151.1
779.1719,391.3
779.4788,371.9
779.5399,14036.7
779.5734,244.7
779.8414,113.3
780.141,536
780.5198,19.2
780.5522,656922.8
780.5917,147.9
781.0569,1105
781.5556,297362
781.9755,110.3
782.5696,574734.6
782.8727,509.8
782.9506,292
783.0268,5679.5
783.3057,123.5
783.3617,335.2
783.447,679.7
783.5727,270926.8
783.8242,173.1
783.952,162.2
784.4003,289.1
784.5865,291769
785.381,113
785.451,222.1
785.5893,147113.3
785.6533,4421
785.8467,445.9
786.602,285903.7
786.6598,736.5
786.9647,917.7
787.346,18.8
787.6049,136177.9
787.6721,1164.9
788.0794,404
788.3423,413.5
788.557,6190
788.6042,19140.5
788.62,21798.1
788.6779,379
789.0373,258.7
789.5579,968.6
789.6213,10414.5
790.2121,112.3
790.4044,138.3
790.5499,874.2
790.573,13624.1
790.6241,846.4
790.7216,671
790.8336,252.2
791.5749,3208.1
791.787,292
792.1748,212.6
792.3967,295.2
792.5419,941.7
792.5905,12434.4
792.9568,277.7
792.9833,931.4
793.0618,890.6
793.1876,292.8
793.5935,3773.4
793.9814,406.7
794.2162,119
794.4718,248.8
794.5103,3031.4
794.568,5565.2
794.6066,29226.5
794.6758,311.4
795.4302,92.2
795.463,242.9
795.5729,76.2
795.6101,11963.2
796.231,19.5
796.3336,332.5
796.3871,442.4
796.4095,138.4
796.526,141675.8
796.5862,5272.1
796.6233,2415.9
797.4896,977.1
797.5295,63514.6
797.5889,632.5
797.6263,420.5
798.5429,47685.7
798.5999,826.2
799.0008,2207.6
799.0385,258.7
799.2305,234.3
799.4796,586
799.5456,22487.1
799.6038,1200.9
799.6691,1274.9
800.1834,504.6
800.3068,556.5
800.3997,396.5
800.5413,728.3
800.5502,779.4
800.97,19.1
801.0528,250.6
801.2797,19.3
801.5018,156.9
801.686,84.6
801.8306,289.1
801.8578,110.1
802.0794,378.8
802.4836,296.7
802.5364,38758.9
802.5746,817.8
802.732,727.2
803.0975,187.6
803.5397,14892
803.6081,381
803.9421,671.7
804.0056,894.5
804.0665,556
804.2143,776.7
804.5521,247282.2
804.7836,139.1
804.8425,131.4
804.9961,129.4
805.1038,128.2
805.3079,245.5
805.5555,112662.3
806.1391,288.3
806.2128,346
806.5693,311850.8
806.8221,437
807.5723,157693.1
807.6723,535
807.7552,477.4
807.9012,625.9
808.3282,328.1
808.5853,191526.6
808.6662,115
808.7215,177.2
808.7868,22.1
808.8478,341.5
809.4811,347
809.5881,97798.7
809.656,584.4
809.6868,473.4
809.8752,521.3
810.0189,1178.2
810.0578,17.8
810.5549,536.8
810.6022,101643.1
810.8489,198.4
810.9093,174.4
811.0332,735.3
811.6049,53498.4
811.6696,10383
811.8351,510.3
812.2368,389.2
812.561,1033.4
812.6189,28376
812.6729,3180.3
812.6936,21.9
812.8944,216.8
813.1428,186.4
813.3628,309.8
813.6212,13643.2
813.6859,7967.3
813.817,90.3
813.9146,267
813.9946,1311.9
814.0966,329.9
814.5731,1373.6
814.6194,147.8
814.688,3441.5
815.429,88.8
815.5715,1225.1
815.6863,88.1
815.9227,223
815.956,21.6
816.3237,284.7
816.4374,104.6
816.5884,10468.1
817.0004,68.3
817.0542,116.7
817.2242,596.9
817.3144,99.9
817.4114,444.9
817.5918,2237.7
817.6346,274.2
817.7557,1086.7
818.1009,91
818.2993,483.8
818.5114,4399.5
818.5681,201.3
818.6059,1741.7
818.6792,293.1
818.9775,660.8
819.0662,269.4
819.5141,2043.8
819.608,881.3
820.4472,451.7
820.526,55686.6
820.6193,108.1
820.8007,218.6
820.8668,315
821.1748,403.3
821.269,456.5
821.4522,516.9
821.5294,25850.2
821.7961,117.8
821.8974,515.4
821.9207,299.9
821.9655,209.9
822.1551,197.3
822.1895,99.3
822.542,34507.2
822.6354,88.9
823.1904,707
823.3152,945.7
823.509,19.3
823.5445,13925.1
824.2954,130.6
824.5581,26191.8
825.5614,8947.9
825.63,196.4
825.8448,155.3
826.5346,2179.6
826.5737,133.1
826.7494,145.4
827.1803,182.2
827.5723,1145.4
827.7552,110.9
828.5521,96653
828.5889,500.9
828.6732,480.5
829.4385,884.3
829.4846,565.9
829.5554,48509.5
829.6207,18.7
829.8248,598.7
829.8861,486.5
829.9432,578.4
830.0074,198.4
830.0752,460
830.4207,21.3
830.5692,41986.6
831.2525,758.1
831.3553,321.2
831.5714,22151.5
831.7804,314.3
832.2884,393.2
832.5846,49364.5
832.8882,684.1
833.026,374.8
833.5875,24991.7
833.6571,312.5
833.6754,231.1
833.9798,77.9
834.0825,137.7
834.1961,242.9
834.6015,37172.7
834.7968,190.4
835.2603,561.5
835.2923,139.3
835.3768,151.5
835.5069,347
835.6043,16282.5
835.6663,720.4
835.7464,480.5
835.8351,22.4
836.5714,290.2
836.6201,2097.4
836.9271,576.2
837.1639,171.9
837.6006,190.2
837.622,1835.7
837.9951,131.6
838.1631,191
838.3168,299
838.5123,1957.6
838.9217,366.4
839.619,164.8
839.7477,351.6
840.0086,95
840.4642,541.6
840.5293,729.5
840.65,201
840.8831,20.8
840.9305,418.1
840.972,130.7
841.0523,68.6
841.5103,155.3
841.8499,139.3
842.0026,819.8
842.0549,20.9
842.3801,20
843.4939,1262.3
843.8377,19.6
844.1677,115.4
844.5256,22952
845.1867,331
845.5283,7817.1
846.0675,441
846.1706,409.8
846.2501,18.5
846.5419,4905.4
846.7779,180.2
846.8911,138.3
846.9983,464.1
847.4701,455.9
847.542,1368.2
847.7371,576.1
848.0935,620.9
848.558,4918.7
848.8402,466.7
849.1746,1343
849.3065,470.3
849.3748,249
849.5073,63.6
849.5553,2027.8
849.9552,690.1
850.136,1178.2
850.1773,105.7
850.7407,716.6
850.7535,483.3
851.3529,551.4
851.3837,316.2
851.5645,480.9
852.0335,946.4
852.0607,255.2
854.5668,1335.5
855.0383,462.3
855.5512,731
855.9282,127
856.3751,472.5
856.5841,8009
856.7319,710.9
856.7506,733.1
856.8434,509.3
856.9354,394.2
857.1481,193.2
857.5861,2026.7
857.7703,300.3
857.9582,421
858.1959,21.3
858.3095,491.4
858.8323,124.8
858.9552,485.6
859.1507,21.1
859.3003,19.4
859.3846,20.4
860.3544,143
860.6867,120.3
861.0072,1441.4
861.0397,162
861.2483,180.8
861.932,583.3
862.1263,452.2
862.297,146.6
862.8393,415.8
863.132,384.1
863.5096,132.4
863.5981,145.1
864.5537,120.4
865.1539,167
866.1396,409.4
866.279,894.7
866.8411,127.8
867.2248,496
867.4038,439.3
867.7451,435.7
867.8465,366.1
867.8725,508
868.025,220.7
868.1394,18.3
868.2503,419.5
868.4848,309.7
868.8627,387.1
868.98,511.8
869.1291,233.6
869.2031,306.3
869.3146,859.7
869.4042,690.1
869.4769,1828.6
869.5368,906.6
869.5629,1239.2
869.5864,1240.5
869.6181,930.5
869.6777,1839
869.6976,2082.1
869.7253,1981.3
869.7544,3284.8
869.7802,2951.9
869.8016,3413.5
869.864,1701.6
869.8878,1556
869.9314,944.4
869.9632,155.6
869.9952,734.3
870.0538,510.4
870.3442,525.6
870.3993,160.6
871.1557,138.2
871.5943,619.5
871.747,163.7
871.8246,992.9
872.0855,183.3
872.1393,567.5
872.5403,556.8
873.4701,725.7
873.5446,712.6
873.9458,20
874.0889,847.6
874.3079,949.8
874.7897,141.8
874.9089,461.4
875.2971,476.1
875.314,456.1
875.4825,118.9
875.6511,574.9
875.7688,87.3
875.8272,402.8
876.3459,242.6
876.575,559.1
876.6469,505.1
876.8718,701.1
877.0123,537.8
877.0334,678.4
877.165,100.6
877.2286,63.8
877.2667,132.8
878.0768,656.7
879.285,84.8
879.4457,769.3
879.5308,132.4
879.6682,315.1
879.7873,685.1
880.0449,198.5
880.2695,121.8
880.5791,110.3
881.0841,22.8
881.2048,609.8
881.5553,642.8
882.3975,620.4
882.754,17.5
882.9146,1715.1
883.1342,681.6
883.1696,350.3
883.2801,285
883.7085,138
884.1378,351.4
884.3116,610.9
884.6569,2843.2
884.808,542.5
885.0039,447
885.3703,297.7
885.4893,19.7
886.1564,88.8
886.2162,709.4
886.789,220.3
887.4333,328.9
887.5669,19.5
887.6519,500.3
888.7299,964.6
889.6537,794.8
889.956,106.1
890.0987,19.6
890.1179,335.4
890.1704,18.1
890.7578,179.9
890.915,65.7
891.1174,21
891.1494,226
891.2643,122.4
891.3505,247.2
891.5718,165
891.5965,395.6
891.685,239
892.1408,718.2
892.211,744.4
892.2433,246.1
892.7305,412.5
892.7883,19.1
892.8542,91
893.2202,508.6
893.4849,109.8
894.0121,313.7
894.3735,174.5
894.5908,525.8
894.7802,245
895.7082,1553.7
896.5443,747.1
896.5786,226.8
896.6395,438
897.1629,124.6
897.3384,349.5
897.8358,182.9
898.0575,504.7
898.3527,1056.2
898.4211,96.6
898.606,348.4
899.4409,535
899.461,114.1
899.6202,525.8
899.7844,231
900.5349,408.5
901.8024,584.3
901.996,609.9
902.6338,362.8
903.176,926.6
903.5417,1038.9
904.0489,1263
905.2242,123.9
906.0139,152
906.7052,388.1
906.8825,884.9
907.4076,392.7
907.8323,523
907.8843,765.6
908.0044,825.3
908.4502,209.9
909.0955,110.7
909.7813,170.5
910.6622,521.5
912.7141,249.3
912.7589,24
913.2655,22.3
914.2424,208.7
914.316,20.2
914.4519,195
914.5382,124.4
914.8103,538.3
915.4287,213.1
915.6754,342.9
915.8367,451.8
915.8621,145.2
916.1317,145.7
916.4627,376.9
916.9259,127.4
917.0884,362.2
917.6587,466.5
917.7754,310.3
917.9955,71
918.0707,98.5
918.4869,364.7
918.6437,104.3
918.6883,132.7
918.944,136.3
919.0151,261.1
919.708,20.1
920.1744,508.1
920.3659,694
920.9425,937.5
921.0282,90.2
921.2507,94.4
921.398,159.1
922.1011,363.3
922.5292,148.4
922.581,1100.9
922.9109,19
923.307,179.8
924.0615,115.8
924.4313,322.7
924.6127,121.3
925.591,613.6
925.7279,272.2
925.8585,738.9
926.4202,533.8
926.7491,568
926.7826,599.3
926.9109,334.9
927.1559,316
927.6376,744.4
928.0507,19.5
928.5507,144.1
928.5913,145.2
928.6933,128.2
928.9711,21.9
929.4285,449.7
929.4439,350.1
929.654,483
930.0334,139.6
930.0615,678.8
930.6828,106.1
931.3441,183.5
931.6511,1177.7
931.6924,506.7
931.9018,269.8
932.0902,490.4
932.8182,1020.3
934.0346,343.3
934.782,101.9
934.9392,560.5
935.269,115.9
935.8554,1346.8
936.0837,154.1
936.6491,877.3
936.9332,524.3
937.0793,250.2
937.1821,617.2
937.2346,413.7
937.2857,769.8
937.7308,105.1
938.0912,179.5
938.4612,653.5
938.6658,87
938.9417,474.2
939.3756,364.8
939.8341,500.6
940.0536,18.8
940.6655,230.4
941.0589,335.9
941.6705,284.1
942.1931,977.8
942.2909,18
942.4194,372.3
942.5042,493.9
942.933,234.1
942.9795,150
943.0345,289
943.5037,155.4
944.0686,180.1
944.1076,281.7
944.3486,553
944.3863,326.8
944.5802,22.6
944.7239,2105.6
944.7959,382.5
945.2799,20
945.7094,573.1
945.8419,327.2
945.9061,346.8
946.4318,313.9
946.5959,197.3
946.781,473.3
948.0804,1647.8
948.2157,572.8
948.3459,94.7
949.0156,1994.6
949.1198,608
949.3327,567
949.4284,339.2
949.8635,533.8
950.2051,498
950.2383,634.7
950.386,139.5
950.5616,121
950.9695,17.3
951.9735,1567.5
952.0572,413.3
952.0851,289.1
953.8191,1012.9
953.8851,19.6
953.9317,511.3
954.0728,787
954.2698,282.6
955.0497,562.1
955.6484,711.1
956.529,1011.9
956.5861,524.1
956.6316,161.3
956.719,239.6
956.799,262.6
957.0618,95.2
957.739,194.5
957.7747,364.5
958.2487,367.7
958.7743,108.9
959.0603,242.2
959.2957,194.2
959.3454,609
959.4169,680.9
960.1987,275.3
961.1477,293
961.2781,82.2
961.3373,172.8
961.4942,661.2
961.7581,122.5
961.7856,558.3
963.1135,19
963.1449,205.6
963.479,161.2
963.8644,703.8
964.9935,129.7
965.232,21.2
965.315,1256.4
965.3389,879
965.3967,437.6
965.7437,563.2
966.5579,1000.4
966.676,982.9
966.7347,17.1
966.7518,18.1
967.03,627.5
967.059,337.8
967.4437,479.2
967.8453,20.8
967.9513,298
968.3474,123.1
968.5967,415.7
968.6584,1081.2
969.031,328.5
970.4908,400.2
970.7883,478.8
971.7698,779
972.3237,1207.1
972.4135,754.8
972.6943,21
972.8885,451.3
972.9259,313.1
972.9548,283.6
973.3805,568.6
973.6162,487.7
973.6411,20.5
973.7572,768.9
974.4136,230.8
974.7542,314.9
974.7911,301.2
975.2655,218.4
975.3198,22.9
975.626,190.3
975.8982,1243.8
976.5991,1761.6
977.2529,686.2
977.7187,294.5
978.3855,87.6
978.546,1214
978.6634,420.4
978.7679,101.9
978.9562,217.3
979.5541,509.3
980.5084,396.6
980.5631,675.4
980.6346,434.9
981.3188,288.5
981.6415,884.5
981.6843,532
981.8876,159.5
982.1123,825.5
982.3549,998.5
982.5935,79.8
982.6467,679.7
982.8298,155.8
983.8546,568.5
984.0059,114.8
984.55,625.8
984.6694,592.2
985.1303,398
985.2783,387.6
985.6048,114.8
986.5281,1054
986.8234,418
986.878,132.9
986.951,119.7
987.144,1351
987.6188,124
987.6513,383.4
987.9934,545
988.1866,579.5
988.8048,957.3
989.027,548.5
989.2271,931.8
989.3804,477.6
989.6654,958.9
989.8498,241.9
989.9775,307.7
990.2974,805.6
991.1516,1173.8
991.7387,205.8
992.0822,620.7
992.5596,573.5
992.6851,165.9
992.7141,713.8
993.3686,132.8
993.4951,806.5
994.4734,1440.7
994.751,132.5
995.0512,231.1
995.274,127.5
995.3766,62
995.6932,543.3
995.9046,73
996.0376,706.8
996.1191,120.6
996.2645,77.7
996.2935,554.2
996.4146,704.1
996.4418,62.9
996.5454,69.3
996.8703,649.8
996.9624,1197.3
997.1995,858.2
998.0105,384
998.1092,508.2
998.1345,114.4
998.3903,474.2
998.7285,539
999.0219,592.8
999.2671,97.4
999.2963,146.5
999.9136,1494.7
