SPECTRUM - MS,
185.RAW,
FTMS + p ESI Full ms [50.00-1000.00],
Scan #: 1-40,
RT: 0.01-1.97,
AV: 40,
m/z,Intensity

50.0063,111.2
50.0303,274.3
50.0499,224.6
50.0754,97.8
50.0945,79.1
50.0979,250.5
50.104,470.3
50.1075,154.6
50.1164,97.7
50.1307,308.9
50.138,16.5
50.1487,315.4
50.1714,114.2
50.1825,320.5
50.2012,168.1
50.2178,351.1
50.2207,18.6
50.2293,481.5
50.2441,17.6
50.2536,265.3
50.2599,203.9
50.2938,131.6
50.3089,324.5
50.313,121.6
50.3344,17.7
50.3408,241
50.3576,538.4
50.3702,93.5
50.3794,709.7
50.4019,164.4
50.4165,197.5
50.4179,15.7
50.4263,98.8
50.437,115.6
50.4583,100.1
50.4627,822.4
50.4658,297.3
50.4729,295.1
50.5013,129.4
50.5303,90.8
50.5474,16
50.5806,157.1
50.5846,88.3
50.5867,201.8
50.5909,370
50.5946,20.8
50.595,216.9
50.6016,16.8
50.603,436.8
50.6042,465.1
50.606,103.9
50.6094,84.4
50.6178,16.7
50.6287,424.8
50.6547,242.4
50.6637,15.6
50.664,420.8
50.6938,1080.3
50.7003,377.2
50.7105,213.9
50.7184,72.3
50.7289,131.5
50.7669,17.9
50.8068,17.2
50.8071,260.1
50.8143,91.6
50.8241,231.2
50.8252,299.2
50.8839,191.6
50.8842,22.1
50.8873,20.6
50.907,214.8
50.9121,389.8
50.9218,184.3
50.944,281.7
50.9608,302.3
50.9628,155.6
50.9661,187.3
50.9785,214.7
51.012,120
51.0219,24.8
51.0347,162.2
51.0507,199.4
51.064,189.5
51.0881,419.3
51.0889,159.1
51.1275,264.1
51.1337,133.3
51.1452,707.4
51.1509,17
51.1888,18.3
51.2157,506.7
51.224,140.1
51.252,714.5
51.2541,234.4
51.2567,109.9
51.2712,20.1
51.2782,346.5
51.2868,95.6
51.2935,356.3
51.2947,421
51.2949,447
51.3031,621.1
51.3039,144.9
51.3133,173.7
51.314,152.7
51.3236,115.1
51.3346,370.1
51.3358,854.2
51.3392,152.9
51.3647,162.2
51.3676,84.1
51.3721,125.8
51.3777,439.4
51.3873,545
51.3999,477.9
51.41,133.4
51.4188,363
51.4373,109.5
51.4387,24.3
51.4399,144.7
51.4465,91.7
51.4661,18.8
51.4826,158.8
51.4872,297.5
51.5018,87.8
51.5031,94.9
51.5351,325.3
51.5441,191.5
51.5545,104.2
51.5548,523
51.5585,18.3
51.5591,190.5
51.5761,465.4
51.5955,113.2
51.5969,22.3
51.598,138.8
51.5981,151.3
51.6004,116.6
51.6063,235.9
51.6285,806.3
51.6318,129.2
51.6503,100.4
51.6951,19.8
51.7025,264
51.7188,99
51.7192,347.9
51.7385,163
51.7478,254
51.7598,411.7
51.7708,145.7
51.7861,366.8
51.813,103.4
51.8398,90.7
51.8412,291.1
51.847,613.4
51.8509,173.9
51.8527,163.2
51.8579,112.5
51.8595,193.8
51.8675,441.7
51.8841,187.4
51.8854,84.6
51.8905,93.2
51.9132,730.8
51.9197,73.2
51.9388,357
51.9474,101.1
51.9483,339.7
51.952,113.6
51.9558,136.8
51.9642,143.9
51.9801,97.8
51.9946,388.2
52.001,111.7
52.0018,394.6
52.009,247.7
52.0119,194.4
52.016,223.3
52.03,159.1
52.0382,269.7
52.0477,290.3
52.0482,17.1
52.0879,16.2
52.1019,309.6
52.1126,18.2
52.1129,383.3
52.1312,141.5
52.1488,379.3
52.1543,363.4
52.158,16.9
52.178,493
52.1815,224.5
52.1873,431.7
52.1883,378
52.1891,439.9
52.1957,71
52.1979,100.9
52.2161,383.8
52.2237,103.9
52.2296,17.2
52.234,17.7
52.2394,386.1
52.2507,344.8
52.2586,75.5
52.2738,269.1
52.2808,443.7
52.2826,85.3
52.2877,239.1
52.2963,233
52.2996,410.5
52.3068,463.4
52.3075,16.9
52.3183,157.3
52.3301,309
52.3518,295.5
52.3635,131.2
52.3769,19
52.3854,285.6
52.3912,404.8
52.3944,288.1
52.4045,15.4
52.4206,175
52.4253,92
52.4363,424.4
52.4809,116.2
52.486,94.8
52.4927,16.6
52.4931,99.2
52.5014,178.8
52.5089,217.2
52.5397,16.5
52.5703,160.9
52.573,82.6
52.5936,109.9
52.6129,91.5
52.6328,17.1
52.6346,266.1
52.6357,85.7
52.6375,212.5
52.6473,79.4
52.6577,406.3
52.6716,113
52.6732,292.3
52.6892,17.7
52.6913,72.1
52.6952,447
52.7195,438.9
52.7303,154.4
52.7341,231.2
52.7447,268.5
52.7867,793.8
52.7925,192.5
52.7985,281
52.8156,17.6
52.8307,109.6
52.8311,1242.3
52.8326,606.5
52.8334,649.8
52.8338,1108.8
52.8342,1030.8
52.8345,1474.7
52.8352,770.7
52.836,21.9
52.8366,124.3
52.8599,278.9
52.863,180.4
52.8856,629.2
52.9119,320.9
52.9167,94.1
52.9222,503.5
52.9237,19.2
52.9494,307.3
52.9645,261.3
52.9852,173.4
52.9927,19.4
52.9955,83.3
53.0142,94.1
53.0535,210.6
53.066,478.1
53.0741,264.7
53.1066,115.4
53.1262,134.8
53.1306,402.9
53.1424,395.2
53.1448,163.9
53.1549,192.9
53.1598,569.9
53.1607,259.9
53.1662,119.3
53.1788,215.8
53.1791,201.1
53.1856,171.3
53.2,275.6
53.2038,18.2
53.2084,18.6
53.2143,482.4
53.2186,110.6
53.2221,103.3
53.2327,107.6
53.2544,18.3
53.2638,94.4
53.2798,15.6
53.2872,266.9
53.293,185.2
53.3024,106.5
53.3044,18.6
53.3087,208.1
53.3102,820.7
53.3146,426.3
53.3211,128.8
53.3221,68.1
53.3356,392.1
53.3495,111.7
53.3796,15.8
53.3849,247.1
53.3881,240.2
53.4212,21.9
53.4219,209.1
53.4227,266.2
53.4398,141.9
53.4421,15.6
53.4498,111.1
53.4672,413.6
53.4685,99.3
53.471,287.4
53.4803,153.5
53.4807,143.9
53.4841,480.8
53.4955,170.9
53.5017,128.8
53.5044,79.2
53.5247,287.4
53.5324,198.1
53.567,122.7
53.5951,180.2
53.5989,92.6
53.6199,139.7
53.6315,134.3
53.6371,288.8
53.6462,93.1
53.6479,77.3
53.6689,318.2
53.6733,94.6
53.696,271.6
53.6974,230.4
53.7039,16.7
53.7121,468.3
53.7365,651.2
53.745,150.8
53.7514,216.1
53.7566,276.4
53.7683,392
53.7718,16.4
53.7736,171.5
53.7788,256.5
53.7896,113.1
53.7945,129.3
53.8049,90.8
53.8066,128.5
53.817,202.9
53.8188,758.7
53.8225,202.8
53.8248,105.3
53.8427,361.5
53.851,15.6
53.8599,501.3
53.8701,203.1
53.8813,366
53.8917,107.1
53.8965,17
53.9007,225.9
53.9236,352.1
53.9529,231.6
53.9676,87.6
53.9844,410.6
53.9886,119.1
54.0015,472.9
54.0354,293.4
54.0554,88
54.0692,169.9
54.0713,182.5
54.0786,256
54.0793,239.6
54.0797,363.9
54.0871,475.5
54.0956,231.8
54.1013,625.6
54.1189,86
54.1407,136.1
54.1436,16
54.1445,99
54.1458,277.8
54.205,513.8
54.2058,80.7
54.2197,298.6
54.224,251.2
54.2264,17.2
54.2333,100.7
54.2348,305
54.2383,259.4
54.2428,90.6
54.2498,632.3
54.2649,237.2
54.2684,15.5
54.2737,465.1
54.2795,81.4
54.2952,17.5
54.3114,209.7
54.324,148.5
54.3282,399.2
54.3298,402.9
54.3397,432
54.3578,17.8
54.3607,200.9
54.3673,549.5
54.3962,301
54.4072,15.7
54.4231,166.4
54.4311,276.8
54.4433,249.5
54.4506,198.8
54.4548,111.4
54.4923,113.6
54.4976,102.5
54.5067,96.4
54.5194,241.3
54.5315,319
54.5381,454.1
54.5395,105.4
54.5479,153.4
54.5498,145.1
54.5614,422.2
54.5724,17.5
54.5892,256.6
54.6031,161.7
54.611,426.8
54.6241,446.6
54.6249,107.9
54.6333,302.4
54.6453,426
54.6666,689.9
54.6793,487.5
54.6879,107.4
54.702,16.7
54.7315,478.8
54.7345,500.9
54.7347,223.5
54.7406,254.8
54.7485,365.9
54.7507,545.6
54.7601,165.3
54.7704,77.1
54.772,451.3
54.7757,269.7
54.7878,18.5
54.789,110.4
54.7994,281.2
54.8013,103.8
54.8388,20.6
54.8505,79.9
54.8512,276
54.8568,502.2
54.8659,93.7
54.8831,16
54.8861,132.9
54.8946,17.4
54.9094,335.7
54.9188,795.1
54.9238,152.5
54.932,121.2
54.9339,250.4
54.9369,294.2
54.9458,391.7
54.9569,299.6
55.0522,436.6
55.0766,466.7
55.0779,132.9
55.0822,397.6
55.0891,119.3
55.1145,141.3
55.1202,14.7
55.1375,181.6
55.1577,265.5
55.1834,120.2
55.1908,152.7
55.1975,313.6
55.2131,21.8
55.2188,142.4
55.2293,566.1
55.2363,298.8
55.2418,135.4
55.2515,360.2
55.2542,290.6
55.265,108
55.2819,131.1
55.2906,18.7
55.2927,18.2
55.2938,513.8
55.2951,415
55.2969,341.9
55.2978,86.4
55.3076,225.9
55.3403,322.7
55.3625,135.4
55.3724,219.2
55.3756,258
55.3832,95
55.3864,211.6
55.4005,16.5
55.4066,92.3
55.4235,19.9
55.4246,596.7
55.4506,286.4
55.4563,437
55.4805,378.3
55.481,398.5
55.4937,19.2
55.4971,103.5
55.5181,104.7
55.5201,391.7
55.5207,204.6
55.5412,366
55.5521,823.4
55.5879,240.5
55.5898,19.1
55.5919,155.5
55.5985,505.3
55.6026,171.6
55.625,86.7
55.6336,187.1
55.6392,214.6
55.6623,126.9
55.6696,456.6
55.6701,94.8
55.6737,402.6
55.6795,304.7
55.6823,133
55.6827,127.8
55.6993,90.7
55.7058,269.6
55.7179,146.3
55.7223,16.4
55.7342,126
55.743,18.6
55.75,16
55.7536,350.5
55.7676,19.8
55.7896,748
55.8262,102.4
55.8296,685.2
55.8424,277
55.8756,95.2
55.8825,450.9
55.8978,364.1
55.9084,95.9
55.9113,100.2
55.9325,293.4
55.9623,19.2
55.9663,17.1
55.9669,319.7
55.9939,73.7
56.0416,409.5
56.0424,16.6
56.0675,17.7
56.0973,177.6
56.1067,105.2
56.1212,118.1
56.1285,152.3
56.1314,106
56.1321,398
56.1691,121.3
56.1728,212.3
56.1973,125.4
56.2277,14.4
56.2308,391.6
56.2327,128.5
56.242,151
56.2684,176.5
56.2739,168.4
56.2871,283.7
56.2947,122.4
56.3147,499.6
56.3265,71.6
56.3578,440.3
56.3676,337.8
56.398,17.5
56.3994,304.1
56.4073,414.8
56.408,178.2
56.4216,112.5
56.4247,386.8
56.4253,382.4
56.4267,318.9
56.4288,19
56.4301,513.2
56.4325,186.3
56.4471,108.5
56.4566,111.8
56.462,239.9
56.4697,108
56.4967,489.4
56.5052,165
56.5088,154.6
56.5209,436.9
56.5366,402.9
56.542,263.1
56.5623,635
56.5731,388.6
56.5848,101.9
56.5957,182.9
56.5971,414.4
56.6074,273.4
56.6107,162.2
56.6236,167.2
56.6405,152.5
56.6525,164.8
56.6593,17.3
56.6638,888.3
56.668,254.6
56.6955,449.2
56.708,15.9
56.7131,110.3
56.7312,599.5
56.7463,315.2
56.7534,353.1
56.7579,319.7
56.7642,19.4
56.7774,189.1
56.7906,16.1
56.8151,486.3
56.8157,18.8
56.8895,16.8
56.9213,102.9
56.922,98.4
56.9304,107.3
56.936,344.9
56.9746,384.5
56.986,133.5
56.987,424.9
56.9976,95.3
57.0016,433.3
57.0324,365.1
57.0395,389.7
57.0435,128.9
57.095,342.9
57.0961,172.1
57.1077,352.1
57.1115,154.7
57.1134,18.2
57.1148,118.2
57.1214,122.4
57.1318,168.6
57.1357,284.1
57.1415,17.4
57.1614,15
57.1678,200.7
57.1729,16.2
57.1761,290.7
57.1855,316.4
57.2143,104.1
57.2186,212.1
57.2319,341.8
57.2411,599.5
57.2488,247.8
57.2536,236.7
57.2678,374.4
57.2686,206.6
57.2694,305.8
57.3019,514.5
57.3201,95.1
57.3247,17
57.3275,114.7
57.3393,241.4
57.3585,97.3
57.3592,386.4
57.3751,252.1
57.3849,703.5
57.4195,375.6
57.4363,743.9
57.4368,276.9
57.4458,16.2
57.4536,108.4
57.4549,156
57.4682,186.8
57.4751,347.4
57.4804,873.6
57.4988,162.3
57.5158,220.8
57.5203,191.8
57.5233,87.7
57.5745,263.2
57.5789,287.9
57.5935,98
57.6255,68.1
57.6457,87
57.6555,17.2
57.686,649.3
57.6956,294.4
57.7064,18.3
57.7131,94.7
57.7188,147.9
57.7214,18.7
57.7345,299
57.7414,266.9
57.7736,315.2
57.7841,73.6
57.7926,159.1
57.8064,14.7
57.8071,198.8
57.8367,638.4
57.8387,285.5
57.8581,17.5
57.864,166.3
57.867,324.4
57.878,281.5
57.9021,370.8
57.9077,302
57.9186,367.2
57.9309,80
57.9393,192.8
57.9606,257
57.9669,217.6
57.9709,96.2
57.9806,316.3
57.9829,569
57.9847,185.5
57.9926,83.6
58.0239,384.5
58.0351,278.9
58.0369,243.2
58.0421,257.3
58.0423,247.9
58.0494,264.1
58.0568,112.8
58.0641,622.4
58.0893,139.4
58.116,604.1
58.1319,18.4
58.1372,416.4
58.1733,145.4
58.1738,16.9
58.1771,123.8
58.18,88.9
58.181,478.9
58.1946,457.1
58.1992,21.3
58.2129,420.2
58.2158,218.7
58.2369,158.5
58.2383,475.9
58.2532,426.1
58.2697,127.1
58.274,104.8
58.3165,79.5
58.3262,356.6
58.3621,472
58.3667,611.1
58.3707,178.4
58.3733,96.3
58.3994,274.5
58.4291,655
58.4302,16.6
58.4485,19
58.486,20.2
58.4903,121.5
58.4907,18.3
58.495,499.8
58.5074,18.4
58.5128,242.8
58.5444,125.8
58.545,117.9
58.5467,75.2
58.5605,288.3
58.561,90.7
58.5703,97.2
58.5745,306.6
58.5815,16.2
58.5837,195.2
58.5874,117.9
58.5924,18.2
58.5945,291.5
58.5954,197.5
58.5966,161.6
58.6462,162.6
58.663,312.3
58.6696,18.3
58.6873,392.7
58.7026,131
58.704,74.1
58.7055,14.9
58.707,119.4
58.7248,247.2
58.7547,313.2
58.779,300.8
58.7823,379.3
58.7958,414
58.8042,117.3
58.8111,17.5
58.8195,78.9
58.8207,321.5
58.8258,120.6
58.8318,261.4
58.9029,109.9
58.9084,16.4
58.9148,118.1
58.9396,339.8
58.956,128
58.968,67.7
58.9811,291.7
58.9944,510.6
58.9966,97.7
59.0129,182.7
59.0139,491.6
59.0146,16.2
59.0203,117.1
59.0264,221.7
59.0325,157.2
59.0338,112.4
59.0402,18.7
59.0417,17.2
59.045,395.9
59.0522,399.2
59.0568,88.9
59.0665,490.8
59.0813,115.6
59.0844,222.3
59.0891,404.6
59.0921,438.9
59.0977,180.4
59.1072,21.5
59.1517,99.8
59.1568,106.3
59.1848,109.4
59.1866,105
59.2003,273
59.2189,265.7
59.2317,181.1
59.2353,634.3
59.2405,246.6
59.245,16.9
59.246,129.3
59.2824,95.3
59.2837,95.9
59.2862,515.3
59.2982,93.7
59.3023,92.4
59.3129,645.7
59.3218,144.6
59.3333,166.1
59.3544,432.3
59.3699,17.9
59.3704,16.2
59.3742,134
59.3825,113.8
59.3923,209.2
59.4167,438
59.4218,113.1
59.4518,15.5
59.4666,294.6
59.4826,527.4
59.5146,335
59.5159,119.9
59.5276,453.7
59.5424,114.1
59.5645,704.2
59.5658,16.1
59.5823,18.3
59.5963,91
59.5987,113.5
59.6352,104.5
59.6394,271.1
59.6644,378.4
59.682,15.9
59.6911,18
59.6947,234.2
59.7057,670.4
59.7442,142.4
59.746,488.2
59.7468,166.9
59.7768,182.1
59.8035,272.3
59.8091,326
59.8218,255.9
59.8321,388.6
59.8444,23.2
59.8525,18.1
59.858,20.9
59.8881,120.5
59.896,90
59.9076,17.8
59.911,152.4
59.9275,420.3
59.9314,123.5
59.9634,555.1
59.9724,146.7
59.9794,233.7
59.9828,284.7
59.9902,258.6
59.9976,446.9
60.0007,198.4
60.006,141.2
60.0198,561.9
60.0403,415.4
60.0543,278.1
60.0666,360.6
60.0669,251.8
60.0779,310.1
60.0792,19.6
60.0798,444.2
60.0809,317.8
60.0853,192.8
60.0933,181.6
60.0953,120.2
60.1018,407.8
60.1095,88.9
60.1157,16.3
60.1365,868.8
60.1705,258.3
60.1817,17.1
60.1878,70.3
60.203,86
60.212,126.8
60.2176,218.6
60.2516,111.5
60.2581,112.7
60.264,141
60.2667,382.5
60.2791,614.8
60.2801,504.9
60.3092,302.9
60.3097,104.5
60.3329,424.6
60.3343,270.8
60.3371,95.5
60.3423,112
60.3453,610.4
60.3494,222.7
60.353,744.1
60.3545,18.6
60.3587,135.1
60.362,17.6
60.3793,111.3
60.383,404.1
60.3857,385.8
60.3871,417.2
60.4174,508.1
60.4189,18.7
60.4366,92.4
60.4512,18.5
60.4559,513.6
60.458,173.5
60.4748,302.5
60.5121,199.9
60.5348,260.8
60.5376,397.6
60.553,176.8
60.5675,18
60.5766,423.4
60.5879,20.3
60.5908,101.4
60.6024,17.2
60.6058,248.9
60.6107,149.5
60.6206,141.9
60.6218,274.3
60.6369,18.2
60.6618,532
60.6659,396.5
60.6938,17.3
60.7106,417.8
60.7247,213.1
60.726,18
60.7366,151.1
60.753,146.1
60.7631,93.1
60.7647,91.7
60.7711,249.4
60.7747,313.5
60.7807,514.6
60.7823,89.4
60.7964,420.4
60.8198,360.5
60.8346,299.2
60.8737,113.4
60.876,210.7
60.9208,393.6
60.9314,112.5
60.9831,107.9
61.0049,96.8
61.0132,106.4
61.0484,393.8
61.0551,118
61.0579,131.8
61.0763,86.9
61.0948,207.4
61.1002,123.6
61.1166,127.4
61.1206,240.3
61.1297,789.2
61.1375,426.9
61.1378,441.3
61.1509,98.3
61.1544,136.3
61.1902,549.1
61.2062,131
61.2347,716.3
61.2381,459.3
61.246,15
61.2902,108
61.2926,86.8
61.2938,114
61.3085,257.9
61.3258,184.9
61.3307,94.5
61.3918,140.8
61.3952,18.7
61.4431,86.3
61.4556,88.8
61.472,19.8
61.4848,86.1
61.5269,774
61.5302,271.4
61.5367,21.1
61.5447,273.4
61.5509,458.4
61.5529,185.5
61.5616,353.8
61.5695,433.3
61.5728,320.9
61.5841,118
61.5905,114.9
61.6074,408.9
61.611,368.5
61.6233,1053.1
61.642,199.4
61.649,384.6
61.6643,506.7
61.6891,162.8
61.7243,585.4
61.7477,150
61.754,387.1
61.8086,19.2
61.8186,378.8
61.827,409.2
61.8291,70.6
61.8351,496.2
61.8403,328.1
61.8622,197.1
61.8719,96.8
61.9029,419.2
61.9042,508.2
61.9121,20.1
61.9196,234
61.9672,222.6
61.9863,288.9
61.9966,107.5
62.0134,469.5
62.041,295.8
62.0539,141.6
62.0594,432.2
62.0944,243.2
62.0963,16.1
62.0975,429.8
62.1172,18.1
62.1218,425.3
62.1284,869.7
62.159,464.4
62.177,272.2
62.2297,247.1
62.2736,750.9
62.2881,120.4
62.2945,179.4
62.3029,687.5
62.3149,100.7
62.3317,133.6
62.3339,121.3
62.3629,110.1
62.3916,126
62.3952,194.3
62.421,310.6
62.435,124.6
62.4354,382.9
62.4399,86.8
62.4409,121.9
62.4562,388.5
62.4583,385.1
62.4712,305.5
62.4841,152.2
62.4884,193.7
62.5051,114.2
62.5237,412.4
62.5438,682.8
62.5454,116.1
62.5934,120.4
62.6109,97.6
62.623,125
62.6295,129.6
62.6348,19.1
62.6813,390.9
62.7062,142.1
62.7228,122.9
62.73,17.8
62.7659,817.3
62.7936,17.9
62.8084,282.1
62.8095,255.4
62.8269,117.3
62.8423,314.6
62.9119,282.5
62.9175,72.8
62.9277,117
62.943,323.6
62.961,203
62.9654,154.2
62.9685,530.5
62.9703,210.5
62.9785,414.2
62.9869,234.5
62.9882,17.6
62.9906,159.3
62.9952,623.4
63.0283,16.3
63.0441,94.6
63.0463,231.6
63.0475,318.9
63.0574,271.2
63.0611,241
63.0666,300.1
63.0736,16.7
63.0766,757.7
63.0975,373.2
63.1025,104.3
63.1094,540.5
63.1353,193.7
63.1445,17.8
63.18,571.8
63.188,147.8
63.2239,180.9
63.2597,96.6
63.2748,229.4
63.2764,155
63.2796,457.2
63.2827,19.3
63.2888,183.2
63.2925,148.1
63.2948,399.9
63.3054,152.5
63.3371,104.3
63.3657,129.5
63.3861,97.9
63.4048,105
63.43,460.5
63.4362,382.7
63.4384,188.3
63.4569,19
63.4866,454.8
63.492,272.4
63.5043,108.8
63.5134,112.9
63.5192,117.1
63.521,105
63.5362,290.8
63.5464,101.6
63.55,84.7
63.599,300.1
63.6047,326.3
63.6119,18.3
63.6319,372.2
63.6344,246.2
63.6641,228.3
63.6667,98.4
63.701,111.6
63.7035,126.7
63.7107,293.4
63.7168,172
63.7447,231.6
63.7456,136.5
63.766,200.8
63.7732,314.1
63.7808,168.5
63.7839,99.1
63.8039,269.6
63.8046,436.1
63.8128,18.7
63.8507,115.5
63.8732,437.6
63.8967,219.1
63.9086,114.5
63.9332,593.6
63.9393,283.8
63.9417,277.3
63.9439,265.5
63.9482,504.1
63.9603,400
63.9616,288.4
63.9794,18.7
63.9944,98.7
64.0232,210.2
64.0249,112.7
64.0399,427.1
64.0634,151.7
64.0901,75.3
64.0906,236.5
64.1021,214.3
64.1122,558.7
64.1177,129.9
64.1288,17.4
64.1413,442.2
64.1437,651.7
64.1534,85.9
64.1546,19.6
64.16,16.2
64.1629,250
64.1668,173
64.2421,283
64.2549,111.1
64.2596,143.7
64.2835,186.5
64.2993,92.8
64.3008,280.4
64.3125,305.6
64.3258,19.5
64.3279,155.8
64.3685,19.8
64.3802,101.1
64.3824,198.4
64.3836,713.6
64.395,197.6
64.4081,556.7
64.4456,663.8
64.4734,425.7
64.5008,395.3
64.5088,499.1
64.5116,98.9
64.5137,352.1
64.5214,101
64.5535,131.1
64.5864,224.4
64.6007,19.8
64.6032,865.1
64.6044,93.9
64.6125,195.9
64.6151,342.6
64.6298,444.8
64.6384,14.7
64.6512,100.9
64.6647,18.6
64.6885,201.1
64.6963,471.8
64.7135,171.4
64.7202,481.7
64.7422,19.9
64.7478,110.5
64.7484,174.2
64.7541,496.6
64.7594,190.4
64.7643,177.7
64.7704,416.4
64.7767,688.3
64.7819,138.2
64.7998,253.3
64.8124,196.1
64.8294,84.5
64.834,109.2
64.8537,19.7
64.8554,465.5
64.8733,88.8
64.877,154.4
64.8809,154.2
64.8984,279.7
64.9038,313.6
64.9301,87.3
64.9312,76.8
64.9468,289
64.9503,98.5
64.9646,221.7
64.9654,17.7
64.9677,501.5
64.9685,284.9
64.9972,157.6
65.0005,99.2
65.002,157.7
65.0026,567.7
65.0076,329.2
65.0104,328.6
65.012,557.7
65.0597,485.9
65.0612,311.5
65.0769,361.1
65.078,478.8
65.0886,507.9
65.1131,397.4
65.1327,750.8
65.1332,208.7
65.1349,109.6
65.169,201.3
65.1754,174.9
65.1763,95
65.1834,126.3
65.1919,122.7
65.1939,165.8
65.205,297.4
65.2075,303.3
65.2331,350.4
65.2639,228.7
65.2933,438.3
65.2948,274.9
65.3009,197.5
65.3061,739.5
65.3146,107.9
65.3186,162.6
65.3391,78.8
65.3395,80.1
65.3504,106.2
65.3546,89.8
65.3707,192.7
65.3902,109.6
65.3911,22.6
65.3925,375.1
65.4022,18.5
65.4526,122.7
65.4582,103.5
65.4685,118
65.4899,302.7
65.5078,470.4
65.5132,126.5
65.5195,303.3
65.5229,181.3
65.5268,167.9
65.5627,114.3
65.5912,89.4
65.5948,578.9
65.5959,221.6
65.6238,109.8
65.6347,154
65.6447,287.9
65.6562,345.9
65.6583,127.2
65.6835,443.7
65.6887,122.5
65.6893,327.1
65.7141,18.3
65.7167,110.9
65.7219,251.5
65.7385,615.9
65.7415,487.5
65.7529,18.2
65.7664,274.5
65.7679,17
65.7915,84.4
65.7948,101.8
65.7993,111.1
65.8262,239.7
65.8437,284
65.8447,113.1
65.8512,316.2
65.857,99
65.8658,283.1
65.8669,193.9
65.8678,109.3
65.8755,96.1
65.8837,185.5
65.8912,276.1
65.903,327.2
65.9139,149.5
65.9395,15.5
65.9447,283
65.9512,660.4
65.9588,158.9
65.9604,143.2
65.9618,363.6
65.9813,256.8
65.9909,398.7
65.992,16.1
66.0293,181.3
66.0319,19.1
66.091,110.1
66.1161,140.1
66.1373,92
66.1458,298.8
66.1506,333.3
66.1654,125.6
66.1801,91.5
66.181,406.7
66.1992,101.9
66.2033,18
66.2081,181.5
66.2168,76.1
66.2236,308.9
66.2394,249.2
66.253,110.2
66.2695,16
66.273,91.1
66.2806,123.6
66.2825,651.8
66.2965,235.5
66.2985,102.5
66.3052,15.8
66.3917,17.1
66.4068,305.1
66.4448,728.6
66.4459,217.5
66.4559,465.6
66.4587,104.1
66.4722,298.5
66.4728,107.4
66.4983,430.8
66.5338,97.4
66.5703,90.6
66.5901,189.6
66.6229,155
66.6345,16.8
66.6384,525.8
66.6471,152.4
66.6538,431.6
66.6591,105.6
66.6605,484.6
66.6854,122.6
66.7377,338.7
66.7852,385.7
66.8212,516.3
66.8337,476.4
66.8499,95.5
66.852,184.7
66.8525,96.6
66.8675,385.6
66.8685,20.7
66.8725,88.6
66.8815,17
66.888,408.3
66.9012,519.9
66.9256,122.1
66.9367,142.7
66.9567,773.2
66.9625,120.6
66.9631,307.5
66.9724,365.6
67.0066,91.2
67.0166,377.7
67.0319,195.1
67.0539,105.7
67.0627,461.8
67.0745,264
67.0789,387.3
67.0857,125.3
67.0871,19.8
67.0933,219.7
67.1072,16.8
67.1138,265.5
67.1143,282.4
67.1232,19.8
67.1456,202.7
67.1534,386.2
67.1577,364.4
67.1603,83.8
67.1641,430.6
67.1765,134
67.2131,82.7
67.2166,96.5
67.2521,271.9
67.2584,118.2
67.2809,590.1
67.2923,163.9
67.3259,19.9
67.3452,465.1
67.3498,400.5
67.3556,116.2
67.3904,244.7
67.3948,109.9
67.3982,288.7
67.4053,89.7
67.4069,103.6
67.4085,16.7
67.4262,134.1
67.4832,103.3
67.4919,217
67.4936,261.6
67.4993,497
67.5025,291.3
67.5206,21.6
67.5613,17.5
67.5745,632.4
67.6204,104.3
67.6217,106.9
67.6365,264.3
67.6418,79.8
67.6554,219.7
67.6653,223.4
67.6739,28.2
67.7122,248.4
67.7266,97.1
67.7288,218.3
67.7382,462.5
67.7617,198.7
67.7689,100
67.788,473.2
67.7909,164.1
67.7962,313.2
67.8033,167.5
67.8371,530.7
67.8467,548.2
67.8478,494.9
67.8692,193.7
67.8836,366
67.8867,408.6
67.91,19.5
67.9202,102.4
67.9224,250.4
67.955,419.2
67.9556,201.2
67.9653,335
67.9838,391
67.9908,370.7
67.9918,112.7
68.024,102.1
68.0285,314.8
68.0458,121.5
68.0662,269.7
68.0761,99.3
68.0795,438.3
68.0867,230
68.1013,356.6
68.1034,296.7
68.1236,98.6
68.133,268.3
68.1361,277.4
68.137,326.9
68.1397,91
68.1591,163.4
68.1614,425.5
68.168,17.6
68.1685,105.6
68.1717,88.9
68.1733,128.1
68.188,120.5
68.2291,118
68.243,107.7
68.2853,436.1
68.3198,71.2
68.3229,267.3
68.3625,20.5
68.3797,221
68.3803,373.2
68.382,151.2
68.4118,507
68.4234,108.6
68.4411,375.6
68.454,304.7
68.4677,171.6
68.4796,558.6
68.5362,276.9
68.5399,452.7
68.5423,17.3
68.5593,734.9
68.5698,280.4
68.5855,594.9
68.6108,387.9
68.62,210
68.6208,333.1
68.6273,333.4
68.6299,21.4
68.6417,446.4
68.6597,509.5
68.6696,457.3
68.6793,439.8
68.7063,121.7
68.7201,205.5
68.7265,262.8
68.7647,17.3
68.7702,24.9
68.7866,98.8
68.8091,414.8
68.8274,130.3
68.834,549.3
68.8571,314.7
68.8584,272.9
68.8894,98.1
68.898,164.1
68.9046,251.9
68.9056,150.5
68.9945,18.5
69.0006,271
69.0024,241.2
69.0095,95.9
69.0294,109.7
69.0336,19.8
69.0438,129.3
69.0606,107.5
69.0766,160.5
69.0943,102.9
69.0949,107.6
69.1153,666.3
69.146,16.6
69.1591,71.7
69.163,229.5
69.188,106.1
69.2065,174.2
69.2105,115.9
69.2141,16
69.2886,218.1
69.3154,852.3
69.3241,347.6
69.3332,110.3
69.3409,285.2
69.3488,153.1
69.3494,163.9
69.3666,18
69.3716,15.9
69.3745,300.8
69.3841,17.3
69.3864,104
69.398,123.6
69.402,210.4
69.4044,354.5
69.4107,105.1
69.4197,82.5
69.426,373.2
69.447,206.9
69.448,99.3
69.4965,302.7
69.5143,131.6
69.5245,114.4
69.5407,147.4
69.5447,402
69.5477,402.7
69.5504,547.8
69.6043,19.8
69.6173,266.3
69.6198,115.2
69.6212,338.7
69.6393,17.5
69.6548,90.2
69.669,92.3
69.6778,18
69.6924,354
69.6977,95.4
69.7045,74.9
69.723,165.2
69.7358,383.7
69.7652,20
69.7668,108.8
69.7838,17.1
69.797,296.8
69.8014,17.8
69.8064,125.7
69.8193,143.3
69.8449,104.1
69.8766,99.7
69.8973,66.7
69.9071,252.8
69.9127,19.9
69.9198,341.2
69.9554,403.6
69.9597,322.4
69.9685,114
69.9833,139
69.9999,140.2
70.0181,215.2
70.0199,16.5
70.0242,426.7
70.0253,91.8
70.0307,101.6
70.0478,203.2
70.0565,95.9
70.0596,176.1
70.0648,303.1
70.0699,305.1
70.0752,276.9
70.0812,253.6
70.0839,109.6
70.1063,297.4
70.1072,375
70.1189,93.1
70.1362,307.9
70.1604,169.1
70.1724,122.4
70.1867,345
70.1872,108.7
70.1928,467.8
70.1946,166.1
70.1964,119.6
70.2179,301
70.2234,219.4
70.2337,305.5
70.2566,309.9
70.2611,18.6
70.2773,87.9
70.3191,258.9
70.3391,98.6
70.35,98.2
70.3698,452.5
70.4205,298.6
70.427,344
70.4415,16.7
70.4454,692.5
70.4678,157.5
70.4776,253.7
70.534,181.3
70.5354,84.2
70.5419,322.4
70.5682,269.5
70.5816,108.3
70.5873,695.1
70.5879,95.4
70.5939,274.1
70.616,111.6
70.6266,178.8
70.6345,382
70.6722,122
70.6861,260.5
70.6896,246.3
70.695,145.2
70.6956,372.3
70.7073,318.3
70.7097,173.5
70.7148,253
70.7318,108.3
70.7329,524.9
70.734,268.8
70.7406,150.2
70.7743,109.7
70.7871,106.4
70.7977,348.7
70.8033,21.1
70.8051,16.5
70.808,180.1
70.8149,427
70.823,17.2
70.8283,16.6
70.8337,289.7
70.8416,262.7
70.8429,550.5
70.8456,148.2
70.8687,16.6
70.8764,641.6
70.8843,866.4
70.9022,294.9
70.9762,305.8
70.9902,257.1
71.0087,99.3
71.0181,539.6
71.0236,188
71.0348,196.2
71.0937,119.7
71.0971,299.2
71.0983,417
71.1202,287
71.1247,17.3
71.1419,253.6
71.1483,397.7
71.1545,298.2
71.166,368.3
71.1877,103.7
71.1908,274.8
71.1971,146.4
71.1998,248
71.2046,211.2
71.2068,636.3
71.2088,416.3
71.2132,324.3
71.2143,174.2
71.2287,152.1
71.2389,585.1
71.251,407.2
71.2531,161.9
71.2758,234.2
71.2811,105.3
71.2933,301.3
71.302,176.4
71.3099,172
71.3117,111.3
71.3631,110
71.3769,247.6
71.3776,157.4
71.3892,232.8
71.3937,297
71.4,311.7
71.4274,311.8
71.4428,168.8
71.4541,296.4
71.4638,738
71.4801,232.9
71.4963,470.8
71.5022,185.1
71.5048,83.9
71.5136,163.5
71.5206,409
71.5593,354.4
71.5638,282.4
71.5665,116.2
71.5727,301
71.5779,100.8
71.5789,331.4
71.6048,442.9
71.6164,268.2
71.6348,84.4
71.6559,112.8
71.6584,136.1
71.6639,18.3
71.6649,264.6
71.6908,17
71.7034,91.1
71.7073,246.7
71.7192,19.7
71.7204,332.7
71.7432,460.2
71.7497,18.5
71.7943,200
71.7998,92.4
71.8046,190.4
71.8709,468.6
71.8811,151.4
71.9157,330
71.9273,114.6
71.9483,104.9
71.9513,18
71.9585,142.5
71.9678,640.1
71.9745,279.5
71.9759,405.7
71.9854,446.3
71.9971,104.7
72.0144,156.2
72.0298,192.5
72.0344,25.1
72.0585,74.6
72.0631,17.2
72.0651,109.3
72.0805,215.2
72.1705,483.8
72.2112,121
72.2155,230.8
72.2213,1139.7
72.2227,1596.5
72.2245,1004.4
72.2256,1573.7
72.2267,791.5
72.2284,1514.5
72.2292,3087.1
72.2298,2009.1
72.231,1721.2
72.2321,773
72.2327,412.7
72.2333,884.5
72.2347,2998
72.2351,2535.7
72.2365,3011.5
72.2375,2470.7
72.2391,2503
72.2418,1547.4
72.2433,2512.3
72.2447,522
72.2453,851.3
72.2458,1188.4
72.246,1156.9
72.2468,678.2
72.2478,664.2
72.2488,914.2
72.2496,599.3
72.2497,587.2
72.2508,34.9
72.2516,311.5
72.2529,411
72.2536,364
72.2624,111.2
72.2669,282.1
72.2757,184
72.2835,231.3
72.3067,19.3
72.3089,145.6
72.3354,287.9
72.3433,79.7
72.3617,400.5
72.3764,182.4
72.3866,637.6
72.411,251.1
72.4131,334
72.4233,479.6
72.4386,285
72.442,123.4
72.4466,294.5
72.4509,496.2
72.4628,441.6
72.4788,113.5
72.4862,174.6
72.4961,163
72.4983,234.5
72.507,448.2
72.531,212.7
72.5338,115.6
72.5369,493.8
72.5541,184.7
72.5582,91.1
72.5741,15.1
72.6039,370.1
72.6152,291.6
72.6286,396.2
72.6309,490.8
72.6322,243.2
72.6403,410.7
72.6488,505.4
72.6819,226
72.6953,174.2
72.708,448.3
72.7349,257.4
72.7382,17.8
72.7388,188.1
72.7421,231.8
72.744,106.2
72.7494,820.6
72.7517,133.2
72.7616,390.8
72.7783,741.9
72.7854,613
72.7887,164.4
72.7904,444.9
72.8148,704.5
72.8261,99.4
72.8349,184.9
72.8355,718.9
72.8485,118.6
72.8664,103.9
72.8921,661.1
72.8971,17.5
72.9057,291.3
72.9156,235.9
72.9304,135.1
72.9316,308
72.9368,461.6
72.938,243.9
72.9733,16.2
73.0003,101.4
73.003,70.7
73.0247,134.1
73.0352,316.3
73.0579,265.8
73.0683,114.6
73.1105,688.6
73.13,415.1
73.1351,18.2
73.1407,20.5
73.1482,18.9
73.152,16.1
73.1536,579.3
73.1669,505.5
73.1772,100.7
73.1788,129.8
73.2657,275.5
73.2748,331.4
73.2867,16.8
73.2996,312.1
73.3174,174.9
73.3312,198
73.3318,181.8
73.3464,81.8
73.3773,200.7
73.4108,194.3
73.4152,303.5
73.4202,214.6
73.431,89
73.4777,131.1
73.511,100.4
73.5153,94.1
73.5208,69.4
73.5304,222
73.5324,254.9
73.543,16.3
73.5761,257.7
73.5832,202.5
73.5966,155.6
73.5976,178.9
73.62,103.1
73.6216,158.2
73.6322,144.4
73.644,288.3
73.648,16.6
73.6576,18.1
73.7069,306.8
73.7122,200.1
73.7429,19.4
73.7591,18.7
73.7624,112.5
73.7696,100.9
73.7755,169.3
73.7765,15.8
73.788,154.4
73.7979,782.9
73.8073,632.2
73.8326,785.2
73.8485,143.7
73.8491,120.1
73.8666,19.6
73.8806,159.4
73.8856,17.6
73.8974,315
73.9045,18.1
73.9226,103.2
73.944,117.5
73.954,180.1
73.9871,583.9
73.9932,91.5
73.9971,117.1
74.0185,520.3
74.0311,16
74.0598,1458.5
74.0679,716.3
74.0735,134.2
74.0961,412.4
74.1107,493.4
74.1433,411.5
74.1889,201.5
74.1918,497.7
74.2292,107.6
74.2343,18
74.2519,17.1
74.2589,435.3
74.2624,447.6
74.2702,171.3
74.2966,356.2
74.3391,119.5
74.3405,612.8
74.3449,286.8
74.3632,110.3
74.3646,108.9
74.3802,280.9
74.3874,80.8
74.3954,251.5
74.4045,152.9
74.4109,341.7
74.4343,19.5
74.4417,129
74.453,121.5
74.4792,260.6
74.4993,347
74.5164,15.5
74.5201,115.2
74.5214,132.1
74.5643,97.3
74.5682,76.3
74.5695,115.8
74.57,123.1
74.5971,113
74.6114,297.8
74.6248,159.8
74.6313,176.4
74.662,129.1
74.669,689.8
74.6793,343.7
74.6994,268.3
74.7533,99.6
74.7557,17.8
74.7875,80.7
74.7947,115.6
74.7972,340.9
74.8001,415.2
74.8014,194.5
74.8155,271.6
74.826,338.7
74.8443,309.8
74.8563,17.4
74.8669,21.6
74.9169,109.5
74.9198,214.8
74.9382,125.1
74.9627,102.2
74.9649,162.2
74.9763,20.7
74.9768,151
74.9856,162.4
75.0162,427.8
75.0328,111.5
75.0503,98.9
75.0513,316.2
75.0522,299.4
75.0838,322.7
75.0946,287.6
75.1064,103.6
75.1182,98.5
75.1227,361.2
75.1355,111.9
75.1696,311.4
75.1821,485.6
75.1868,531.5
75.1909,103.1
75.2207,185.4
75.2322,111.9
75.2481,129.2
75.2883,114.3
75.3025,428.7
75.3312,106.8
75.3348,120.7
75.3567,96.8
75.3706,323.7
75.3733,301.1
75.3795,328
75.3955,104.3
75.4047,117.5
75.4083,130
75.4461,113.5
75.4607,464.5
75.4616,94.4
75.4891,408.9
75.4906,337.2
75.5445,89.2
75.5587,180.8
75.5658,197.9
75.5784,20
75.5817,541.2
75.625,114.8
75.6499,193.9
75.6587,156.8
75.6728,19.5
75.6843,396.1
75.6979,87.8
75.7218,177.3
75.7448,379.8
75.7695,96.5
75.8083,108.6
75.8562,15.3
75.8594,212.5
75.8647,503.8
75.8859,228
75.9201,147.9
75.921,97.4
75.9272,104.5
75.9469,128.5
75.955,271.2
75.9664,146.2
75.9831,110.1
75.9908,648.3
76.0042,111
76.0074,314.6
76.0485,97.7
76.0806,304.2
76.0886,330.4
76.0929,21.2
76.0997,265.7
76.1168,172.4
76.1446,18.5
76.1755,118.7
76.1762,254.5
76.2086,118.1
76.221,215.8
76.2349,966.8
76.2477,18.3
76.2662,83.7
76.2708,371.6
76.2901,190.1
76.3238,22.8
76.327,672.9
76.3296,359.1
76.3316,577.1
76.3366,247.9
76.342,70.7
76.3448,240.8
76.3854,239.3
76.4064,197.3
76.4401,359
76.4484,385.7
76.4601,446.8
76.4614,639.5
76.4723,199.4
76.473,689.8
76.4809,167.9
76.5288,17.3
76.5324,186.3
76.551,78.7
76.5822,156.1
76.6089,140.1
76.6136,19.3
76.6356,148.2
76.6406,166
76.6554,295
76.6684,269
76.6719,106.1
76.679,232.8
76.7168,440.7
76.7326,21.2
76.7577,328.1
76.7621,161.5
76.7959,221.8
76.8655,117.3
76.8827,92.7
76.9199,102.1
76.969,153.6
76.9759,15.6
76.987,114.7
76.9885,686.2
76.9936,568.1
77.006,94.9
77.0167,200.5
77.0267,18.8
77.0339,422.7
77.0356,308.8
77.0371,46.2
77.0383,109063.1
77.0394,56.6
77.064,728.9
77.0714,18.2
77.0909,343
77.1543,135.8
77.1553,94.6
77.1591,17.5
77.1841,139.8
77.2149,208.1
77.2495,103
77.2647,18.8
77.2671,103.8
77.3027,176.9
77.3378,172.2
77.3541,184.6
77.3907,640.8
77.3974,107.6
77.398,426.1
77.4115,376.9
77.4263,186.5
77.4331,486.9
77.47,114.4
77.471,244.3
77.5055,22.7
77.5436,440.5
77.5521,87.7
77.5927,609.9
77.6143,210.7
77.6151,458.1
77.6157,160.9
77.6232,173.1
77.6406,117.9
77.6484,19.6
77.6603,460.5
77.6741,209.9
77.6824,183.5
77.7127,510.5
77.7314,114.1
77.7697,165.4
77.7784,88.5
77.8231,108.6
77.8278,329.2
77.8291,312.2
77.8365,80.6
77.8385,110
77.9071,169.7
77.9225,211.6
77.9372,114.1
77.9452,262.8
77.9801,20.3
78.0072,97.8
78.014,345
78.0252,17.9
78.0416,2784.3
78.0431,156.6
78.0461,21.8
78.0528,93.6
78.0801,347.4
78.1309,91.1
78.1345,767.7
78.1557,221.6
78.1651,184
78.1795,552.4
78.2168,25.8
78.2209,17.7
78.235,177.4
78.2438,18.9
78.2532,454.6
78.2652,17.1
78.2692,15.9
78.279,124.8
78.297,429.3
78.3009,322.8
78.3016,17.6
78.3061,115.2
78.3082,683.8
78.3246,155.3
78.3376,562.2
78.3498,132.8
78.3527,85.1
78.3915,751.8
78.4242,119.6
78.4317,235.1
78.4451,81.3
78.4479,166.4
78.4941,835.8
78.5224,160.1
78.5411,111.6
78.5507,638.1
78.5617,99
78.5807,175
78.587,18.7
78.6228,187.1
78.6277,20
78.6362,332.6
78.6394,289.8
78.6523,148.1
78.6597,292.3
78.6618,81.5
78.6822,691.9
78.692,700.4
78.6972,208.3
78.706,191.6
78.7065,208.3
78.709,18
78.7233,169.8
78.7443,150
78.7537,313.4
78.7868,158.4
78.7964,288.9
78.8104,243.7
78.8162,754.1
78.8238,416.7
78.8377,92.4
78.8661,101.2
78.8667,121.1
78.8741,138.8
78.8776,101.7
78.9026,111
78.9186,118.3
78.9238,195.7
78.9348,17.1
78.9472,158.5
78.9751,387.2
78.9842,92.7
78.9968,133.7
79.0004,209.3
79.0269,287
79.0453,304
79.047,115.9
79.0515,274.7
79.054,1408.5
79.0683,120.8
79.0985,445.7
79.1133,114.1
79.1201,18.4
79.1223,466.6
79.1656,498.1
79.2023,135.5
79.2351,367.6
79.2528,89.2
79.2537,258.1
79.2805,132
79.286,827.8
79.2952,112.4
79.2981,119.3
79.2988,200.2
79.3242,155.2
79.3349,697
79.3356,94.2
79.3365,467
79.3593,430.6
79.3624,84.9
79.3701,284.3
79.3831,391
79.3885,19.1
79.3896,266.7
79.3947,301.3
79.3963,209
79.4074,125.3
79.4347,863.7
79.4519,196.5
79.4963,165.5
79.5042,330.9
79.5052,106.8
79.5062,18.1
79.518,523.3
79.5365,470.1
79.5475,314.3
79.5795,121.9
79.5862,111.1
79.6016,417.1
79.6198,17.4
79.6224,345.6
79.6944,435.2
79.7008,859.6
79.7129,444.5
79.7149,176.8
79.7163,93.4
79.7289,493.6
79.7414,119.4
79.7445,587
79.7641,84.8
79.7643,85.7
79.7663,658.7
79.7722,75.9
79.7921,123.9
79.8268,611.2
79.8447,143.4
79.8909,433.2
79.892,82.8
79.8937,75.8
79.9178,758.9
79.9182,329.3
79.924,389.1
79.9377,100.2
79.9394,122.5
79.9542,727.9
79.9798,249.1
79.9997,465.2
80.0076,16.2
80.0436,18.1
80.0579,135.4
80.0851,174.1
80.129,308.5
80.1553,248.2
80.1652,102.2
80.1771,365.9
80.1878,17.1
80.2079,217.5
80.2391,17.5
80.2454,103.5
80.2575,144
80.2638,433.6
80.2927,300.6
80.3004,206.6
80.3381,379.6
80.3437,135.1
80.3485,133.4
80.3765,269.3
80.3885,106.4
80.418,466.2
80.4247,170.9
80.4508,235.1
80.5183,235.4
80.5639,98
80.5729,162.1
80.577,135.2
80.595,129.8
80.6019,102.5
80.6056,95.4
80.6261,173.9
80.6348,199.1
80.6709,20
80.6762,509.9
80.6876,239.8
80.6962,269
80.7119,355
80.7358,19.9
80.7837,441.6
80.7864,98.4
80.8049,159.1
80.8118,19.2
80.8208,172.7
80.8473,17
80.8578,709.9
80.8733,292.5
80.8816,743.3
80.8826,131.9
80.8828,104.2
80.9476,39463.7
80.9502,229.4
80.9598,241.3
80.9705,663
80.9715,153.9
80.9785,239.8
80.9799,444.7
81.0035,307.4
81.0053,417.2
81.0405,294.6
81.044,142
81.0696,982.4
81.1315,18.1
81.1512,618.8
81.1585,17.1
81.1632,201.7
81.1698,445.8
81.172,110.9
81.1729,1099
81.1738,337.4
81.1745,692.4
81.1752,1137.4
81.1769,201
81.1988,147.2
81.2003,483.9
81.2105,84
81.2275,568.4
81.2367,392.1
81.2435,274
81.2575,102.3
81.286,22.6
81.311,264.6
81.3123,19.6
81.3184,17.1
81.3212,285.5
81.3336,170
81.3707,17.7
81.3881,404.4
81.401,943.9
81.4081,310
81.4124,187.9
81.4425,178.5
81.4537,150.5
81.4873,20.3
81.4893,113.6
81.4931,298
81.5182,119.1
81.5278,317.7
81.5292,142.9
81.5545,486.8
81.5599,106.7
81.5816,395.8
81.6142,175.4
81.6438,77.8
81.6916,84.1
81.7153,23.7
81.738,130.5
81.7739,22
81.798,338.6
81.8012,338.2
81.8153,598.3
81.8551,116
81.8573,18.1
81.8901,204.7
81.9065,268.3
81.9374,125.1
81.9715,295.8
81.991,278.4
82.0286,723.5
82.0829,94.2
82.0981,207.9
82.1136,19.8
82.1558,130
82.1921,106
82.2263,424.8
82.2697,394.7
82.2798,206.3
82.3004,228
82.3092,155.6
82.3096,142.4
82.3099,137.7
82.3153,187.6
82.3211,497
82.3228,319.3
82.3327,16.5
82.3427,100
82.3473,114.7
82.3507,17.3
82.3774,116.4
82.3803,277.3
82.3933,19.4
82.3985,217
82.4073,204.6
82.408,18.1
82.4196,19.1
82.4312,17.1
82.4564,78.4
82.4616,523.9
82.4687,216
82.4898,805.4
82.5011,172.3
82.5025,540.1
82.5242,365.2
82.5254,497.4
82.5833,528.7
82.5917,478.4
82.6288,97.8
82.6318,327.1
82.654,100.8
82.6906,75.1
82.6981,21.2
82.7131,17.2
82.7371,126.7
82.7588,19.4
82.7704,126.3
82.775,178.2
82.7814,93.3
82.7952,138.4
82.8002,143.8
82.8172,19.6
82.8238,17.2
82.8489,18.5
82.8563,173
82.8677,518.3
82.9187,378.7
82.9446,11497.9
82.9506,684
82.9548,761.2
82.9608,87.7
82.9637,386.9
82.9833,117.1
82.9866,19.4
83.0195,92.8
83.0213,60.5
83.029,114.8
83.0634,227.9
83.0706,343.6
83.0752,314.5
83.0853,383.4
83.0869,647.8
83.1281,22.1
83.1368,340.2
83.1391,300.7
83.1475,19.6
83.1769,105.4
83.1947,121.4
83.1974,171.2
83.2094,422.1
83.2218,21
83.23,135.3
83.2496,316.4
83.2632,106.5
83.27,80.6
83.2999,289.3
83.3154,108.7
83.324,157.1
83.347,16.7
83.349,487.5
83.3612,244.7
83.3736,117.8
83.3783,126.3
83.3837,81.4
83.3901,367.3
83.395,342.1
83.4031,471.9
83.4197,475.2
83.4408,170
83.4423,158.2
83.4721,507.7
83.4766,22.4
83.5048,270.4
83.5056,102
83.5093,257.1
83.5347,117.7
83.5472,164.8
83.5605,125
83.5625,126.8
83.5929,451.1
83.6406,159.5
83.6585,18.2
83.6672,238.2
83.6918,323.9
83.7237,16.5
83.725,103
83.7266,215.2
83.7553,165.5
83.7603,278.6
83.7709,20.6
83.7723,533.7
83.8039,327.5
83.8295,74.5
83.8454,343.2
83.8527,19.6
83.9029,334.9
83.9061,183.8
83.9235,262.7
83.9359,193.2
83.947,120.4
83.9515,93.8
83.9693,290
83.9712,451.6
83.9777,388.6
83.9833,207.1
83.9896,120.6
83.9989,109.4
84.0442,340
84.0531,400.8
84.0739,238.3
84.0809,388.5
84.0836,251.3
84.0986,178.2
84.1025,18.7
84.115,529.2
84.136,337.6
84.1373,824.3
84.1405,450.7
84.1498,318.4
84.2436,375.3
84.2466,18.9
84.2491,216.3
84.2507,135.6
84.2584,242.5
84.2684,86.5
84.2981,339.7
84.3081,192.6
84.3122,109.5
84.3293,127.4
84.3627,120.6
84.3694,18.3
84.3926,449.2
84.4038,308.1
84.4063,115.6
84.413,144.9
84.4434,690.8
84.457,317.4
84.4799,513.6
84.5243,288.7
84.5303,18.6
84.5674,193.9
84.5911,235.6
84.672,309.6
84.6781,122.2
84.6794,299.6
84.7111,208.4
84.7661,128.2
84.77,18.6
84.8026,109.8
84.8143,129.2
84.8158,173.8
84.8343,19.8
84.8446,331.9
84.8465,21.3
84.8534,161.5
84.8818,102.3
84.8945,115.2
84.9077,17.9
84.9194,185.4
84.9278,240.1
84.9594,14586.8
84.9869,105.3
84.9887,201.8
84.9916,376.1
84.9924,801.1
84.9974,20.2
85.0007,222.8
85.0048,145.4
85.0075,701.8
85.0159,293.9
85.0281,440.7
85.0319,17.2
85.0451,301.6
85.0749,174.4
85.0758,769.3
85.0924,321.7
85.1306,545
85.1666,384.8
85.2109,212.8
85.2312,296
85.2416,119.1
85.2434,100.3
85.2438,128.6
85.2441,110.7
85.2494,302.5
85.3005,128.1
85.3024,174.1
85.3099,137.6
85.3191,207
85.3618,227.8
85.3644,102
85.3736,247.7
85.4503,114.3
85.4527,132.8
85.4929,19.3
85.5125,144.1
85.5256,107.8
85.5435,154.2
85.575,550.5
85.5768,406.5
85.6276,120.9
85.6321,97
85.6494,20.9
85.6761,284.6
85.6806,331.1
85.7032,212.7
85.7167,240.8
85.7402,82.4
85.7585,873.2
85.8116,652.5
85.8236,128.4
85.8383,93.6
85.8544,731.8
85.8596,161.1
85.8641,17.2
85.8816,299.4
85.8849,135.4
85.9076,112.8
85.9094,20.1
85.9112,357.3
85.9124,378.5
85.9248,124.8
85.9641,203.7
85.9663,19.5
86,199
86.0021,198.4
86.0067,175.2
86.0465,94.4
86.0541,648.6
86.0598,22349.4
86.0938,17.4
86.0962,110377
86.1198,594.2
86.1275,320.8
86.1995,112.3
86.2428,108.4
86.2432,96.1
86.2579,346.8
86.2842,169.3
86.2876,18.9
86.2957,21.1
86.3082,850.8
86.3281,80.5
86.3333,123.5
86.3599,115.6
86.367,558.3
86.3945,230.2
86.4287,18.8
86.4647,684.7
86.4804,986.9
86.4872,185.3
86.5032,18.2
86.5468,304.8
86.5541,293.2
86.5734,113.7
86.6673,560
86.6729,17.6
86.752,19
86.7873,436.2
86.801,400.7
86.8303,328
86.8483,324.2
86.9143,95
86.9526,21.3
86.9695,334.3
87.0061,18.4
87.018,239.9
87.0183,171.1
87.031,119.8
87.0356,122.4
87.0447,731.4
87.0586,237.3
87.0943,20.7
87.0996,985.6
87.1152,237.4
87.1181,329.3
87.1433,92.5
87.1478,140.3
87.1649,762
87.1767,518
87.1832,113.7
87.2061,119.9
87.2094,22.2
87.2111,185.8
87.2128,132.4
87.225,375.8
87.2335,87.3
87.2644,109.3
87.2764,120.6
87.2796,320.7
87.2818,426.1
87.3464,91.5
87.3592,162.1
87.3906,290.9
87.4273,381.9
87.4413,479.1
87.4557,263.1
87.4794,113.1
87.4806,164.7
87.546,16.9
87.5857,519.9
87.6014,132.3
87.6022,446.1
87.6076,135.2
87.6852,114.6
87.7115,17.9
87.7181,209.6
87.7238,174.1
87.7356,16.1
87.7495,456.1
87.7614,105.4
87.782,261
87.7961,19.8
87.7997,101.2
87.8432,104
87.8611,20.2
87.8934,464.4
87.8969,23.4
87.9128,99.2
87.9344,387.8
87.9532,271.6
87.9589,19.3
87.9597,473.5
88.0349,136
88.0391,3583.2
88.046,450.3
88.0597,169.6
88.0912,361
88.1886,249.7
88.1964,326.5
88.2169,114.6
88.2172,147.4
88.2176,121.8
88.2215,149.2
88.2366,124.1
88.2545,709.4
88.2547,738.8
88.2551,306.7
88.2975,455.9
88.3047,216.8
88.3239,90.5
88.3322,323.9
88.3342,147.9
88.3584,603.2
88.4142,571.6
88.4159,75.4
88.4452,99.7
88.4571,24.5
88.4631,135.9
88.4757,119.4
88.5131,21
88.5249,142
88.5487,496.3
88.551,22.4
88.5637,320.3
88.5869,238.4
88.6071,191
88.6277,161.5
88.6334,19.3
88.6656,117.9
88.693,18.3
88.6945,104.6
88.7019,114
88.7077,313.8
88.7578,469.4
88.7789,149.9
88.8035,305.9
88.8279,110.5
88.8687,85
88.9388,370.1
88.9529,21.7
88.9948,17.3
88.9982,19.6
89.0041,116.7
89.0085,137
89.0217,410.3
89.0315,81.7
89.0329,266.9
89.0447,77.2
89.0568,386.1
89.0595,19.5
89.0636,328.9
89.0961,19.2
89.1049,17.7
89.1211,17.4
89.1249,506
89.1315,17.3
89.1729,271.7
89.2424,289.8
89.2618,114.1
89.2719,427.6
89.2763,245.5
89.2803,505.7
89.3149,350.6
89.3191,218.9
89.334,189.5
89.3431,105.7
89.3784,398
89.3848,682.8
89.4061,324.4
89.4077,151.3
89.4239,676
89.4266,453.5
89.4301,19.8
89.4309,275.7
89.5235,427.7
89.5362,328.3
89.5383,129.1
89.5446,123.3
89.5618,163.7
89.5745,114.2
89.5781,122.8
89.5839,259.9
89.615,397.6
89.6343,311.2
89.6371,18.4
89.6502,122.3
89.6787,22.4
89.705,127.2
89.7253,109.4
89.7741,143.1
89.7746,134.5
89.7799,114
89.7867,486.6
89.8126,132.7
89.8176,125.1
89.8221,211.8
89.8531,16.5
89.8577,17.9
89.8628,126.1
89.8737,386.2
89.8875,358.1
89.8946,17.7
89.9442,17.6
89.9635,170.3
89.9755,375.9
90.0241,18.8
90.0594,240.6
90.0723,439.5
90.1027,21.1
90.1204,84.6
90.1344,308.6
90.1963,488.9
90.1983,101.1
90.2075,18.7
90.2234,110.8
90.2314,17.3
90.2346,226.7
90.2415,404.9
90.274,18.4
90.3063,17.5
90.3081,264.7
90.3966,17.7
90.4137,329
90.4351,190.2
90.444,307
90.4767,114.3
90.5215,117.7
90.5332,524.9
90.5878,115.9
90.5899,308.7
90.6032,291
90.6535,133.4
90.7469,15.4
90.7497,121.5
90.758,151.5
90.8259,147.9
90.8364,19.9
90.8584,543.6
90.8669,100.5
90.876,251.8
90.9031,35.1
90.9057,137.8
90.9091,154.5
90.9096,472.1
90.9355,155.5
90.9369,138
90.9439,732.5
90.9475,1738.5
90.9621,189.1
90.9764,8585.3
90.9789,213.6
90.9824,861
90.9915,16.6
91.0104,306.4
91.0525,295.7
91.054,1162.1
91.0992,443.4
91.1581,445.7
91.185,197.3
91.1862,20.2
91.1897,220.4
91.2039,115.6
91.2061,119.6
91.227,498.1
91.2328,157.1
91.2357,367.1
91.2431,20.9
91.2624,361.4
91.2695,119.6
91.2804,145
91.2819,115.4
91.3108,306.9
91.318,104.5
91.3351,89.9
91.4192,518.9
91.4241,118.7
91.4251,814.4
91.427,137.4
91.4462,103.2
91.4557,565.4
91.5115,603.8
91.5274,501
91.5285,445.9
91.5358,629
91.5477,555.5
91.5537,221.8
91.5616,143.5
91.5632,284.9
91.572,121.7
91.5729,24.8
91.5768,208.6
91.6298,527.2
91.6344,119.5
91.6376,69.4
91.6533,109.2
91.7166,112.1
91.7203,122.9
91.7236,452.9
91.7285,21.1
91.7316,156
91.7727,107.2
91.7949,1242.2
91.7993,120.3
91.8035,112.3
91.8148,20.4
91.8837,459.6
91.9289,123
91.9395,115.1
91.9459,338.7
91.9475,124.2
91.9631,20.4
91.9651,292.8
91.9734,101.8
92.0336,194.8
92.0391,496.7
92.0494,60.9
92.067,19.5
92.0717,767.4
92.0867,130.1
92.0989,127.1
92.1343,120.4
92.1359,154.5
92.1913,21.2
92.1957,473.9
92.2019,117.2
92.2039,902.7
92.2128,91.3
92.2443,265.7
92.2747,146.7
92.2803,552.6
92.3092,127.2
92.322,336.9
92.3305,17.9
92.3414,593.9
92.3491,20.3
92.3873,520.6
92.3959,80.6
92.4184,262
92.426,376.2
92.4422,266.1
92.46,443.7
92.478,157
92.5188,104.4
92.5222,529.1
92.5307,156.6
92.5338,315.3
92.6023,377.2
92.6308,17.4
92.6393,482.8
92.6795,454.1
92.6918,149
92.7006,361.8
92.7032,791.2
92.7068,278.6
92.7153,317.3
92.7481,484.6
92.7609,17.8
92.7793,306.8
92.8013,202.5
92.8306,648.3
92.8331,242.8
92.8482,325.6
92.8514,18.6
92.8539,406.5
92.8744,218.2
92.877,190.1
92.8867,197.6
92.9059,319.8
92.9743,100.9
92.9764,413.6
92.983,125.7
93.0095,269.9
93.0125,360.5
93.0334,17.6
93.0381,106.7
93.0425,545.9
93.0669,147.1
93.0687,115.4
93.0696,30.7
93.1315,617.3
93.1442,104.9
93.1753,99.9
93.1759,457.2
93.1781,314.9
93.1816,303.3
93.1893,135.9
93.2133,163.2
93.2179,92.9
93.2205,338.5
93.2245,152.9
93.2342,106.9
93.2444,297.9
93.2695,430.2
93.3462,223.9
93.3981,133.5
93.4322,263
93.4548,609.7
93.4586,189.8
93.4666,116.5
93.4708,431.3
93.4802,253
93.4877,151.8
93.4921,202
93.4928,198.6
93.5188,344.2
93.5896,502.1
93.6204,147.2
93.6397,201.7
93.6792,355.1
93.6902,119.6
93.6946,734.2
93.6959,472.9
93.7373,18.4
93.7646,172.2
93.7751,336.9
93.7915,120.4
93.8127,318.2
93.8233,21.1
93.8475,133.2
93.8855,311.3
93.8925,469.5
93.8941,794.2
93.9486,662.6
93.9911,313.8
93.996,114.2
94.0067,17.2
94.0185,281.9
94.0411,52461.6
94.0426,27.3
94.0703,96.5
94.0728,254.4
94.1032,300.9
94.1111,307.3
94.1266,436.5
94.1333,330.7
94.155,106.3
94.2024,450.7
94.2211,333
94.2354,88.6
94.2377,187.2
94.3058,121.7
94.3081,163.2
94.3089,243
94.3101,178.1
94.3156,133.9
94.3651,150.8
94.3671,600.7
94.3689,163.5
94.3831,76.9
94.4216,96.5
94.4334,184.8
94.4351,115.9
94.4805,79.8
94.4817,274
94.4899,288.4
94.5203,21.4
94.5234,217.3
94.5345,629.5
94.5389,307.3
94.5547,246.4
94.5573,703.2
94.5617,227.3
94.5999,286.1
94.617,98.4
94.625,506.8
94.6384,293.8
94.6889,438.6
94.71,720
94.7126,107.3
94.7321,285.3
94.7602,573.2
94.7758,127
94.783,288.7
94.7861,443.2
94.8199,138.6
94.8275,431.4
94.8428,573.1
94.8588,109.1
94.8649,166.9
94.8912,162
94.9125,188.8
94.914,17.5
94.9616,141.4
95.0087,29.9
95.0356,28.8
95.0445,809.8
95.0466,59.7
95.0469,80.3
95.049,390378.3
95.0504,252.2
95.0512,88.3
95.0518,29.5
95.0624,36.7
95.073,539.2
95.0804,173.4
95.0813,436.5
95.0853,742.4
95.1206,295.8
95.1375,204.8
95.1529,120.7
95.196,425
95.2064,430
95.285,436.6
95.3188,375.6
95.3513,188
95.3996,382.2
95.4776,239.5
95.4845,159.6
95.4943,383.6
95.5147,20.2
95.517,94.9
95.5444,149.9
95.5531,120.9
95.5752,114.3
95.594,82.8
95.6049,113.6
95.6083,218.9
95.6252,164.2
95.6337,138.9
95.6524,351
95.6594,19
95.662,701.7
95.6646,420
95.7081,369.6
95.7129,245.9
95.7257,341.8
95.7631,455.4
95.7753,121.2
95.8018,1124.5
95.8047,102
95.8112,155.2
95.8253,813
95.868,124
95.869,161.3
95.8733,19.5
95.8885,360.8
95.9132,216.2
95.9231,802.1
95.9266,110.6
95.9318,89.5
95.9355,112.4
95.946,200.5
95.9633,153.9
95.9897,204.8
96.0162,81.4
96.0523,17972.6
96.0554,25.1
96.0762,216.6
96.0799,609
96.1443,720.5
96.155,341.5
96.1787,18.8
96.2013,372.3
96.3355,345.6
96.3765,136
96.421,325.9
96.4286,346.6
96.4347,215.9
96.507,21.3
96.555,114.7
96.6049,16.5
96.6899,209.5
96.7268,325.2
96.777,155.4
96.7922,20.9
96.8167,308.7
96.8382,753
96.8483,214.8
96.8659,226.7
96.8713,427.9
96.8839,21.8
96.9017,88.3
96.9216,133922
96.9375,228.9
96.9403,234.8
96.9536,251.3
96.9665,396.8
96.972,247.6
97.0074,78.9
97.0105,73.8
97.0194,115.1
97.0363,265.3
97.0521,19.9
97.0531,26.8
97.0702,448
97.0772,562.5
97.101,21.1
97.1116,136
97.1169,313.1
97.1262,19.8
97.1499,120.4
97.2225,99.3
97.2434,124.5
97.2607,104.6
97.265,159.1
97.2717,788
97.3527,636.3
97.3739,499
97.3955,613.8
97.4072,21.3
97.4104,101.4
97.4155,165.7
97.4314,331.3
97.4381,149.3
97.4396,458.4
97.4467,164.1
97.4491,424
97.4686,115.6
97.4713,227.8
97.509,209.7
97.5267,467.5
97.5376,163.8
97.5629,100.1
97.5936,476.4
97.6205,229.5
97.6313,271.8
97.6593,87.3
97.681,179.8
97.7236,154.4
97.7509,400.1
97.7724,311
97.7959,481.6
97.82,271.7
97.832,459.9
97.8574,259.7
97.8896,281.2
97.9115,149.3
97.9265,20.8
97.9499,355.2
97.9911,364.5
98.0197,103.4
98.0352,441.2
98.0507,127.7
98.0672,137.3
98.101,479.7
98.1324,19.2
98.1484,18.7
98.1518,171.1
98.1676,281.3
98.1768,153.5
98.1813,546
98.1851,267.9
98.2048,545.7
98.2063,183.4
98.2325,92.8
98.2441,111.2
98.2525,626.9
98.2661,110.2
98.3011,336.8
98.3329,165.3
98.3431,21.2
98.3711,108.6
98.3746,464.9
98.3902,103.8
98.4272,18.9
98.4657,684.8
98.4733,253.5
98.5055,83.2
98.517,384.9
98.5383,195.9
98.5437,770.8
98.5715,130
98.5962,171.4
98.6078,19.5
98.6345,224.5
98.6587,645.3
98.6834,489
98.7001,494.4
98.7326,297.8
98.7426,139.2
98.7435,475.5
98.7615,84.3
98.7847,240
98.8039,136.3
98.8148,19.3
98.8336,144.5
98.9148,481.5
98.9186,40123
98.9197,6818.9
98.9539,172.2
98.9701,128.6
98.9751,11139.4
98.9772,452.3
98.984,138.7
99.0049,576.3
99.007,305.5
99.0263,549.9
99.0626,149.3
99.0917,287.9
99.1006,122.3
99.1371,18.7
99.1571,20.3
99.1606,23
99.1641,322
99.2171,195.4
99.2358,22.2
99.3027,120.7
99.3333,16.8
99.3769,288.2
99.416,695.9
99.4327,411.9
99.4736,382
99.4782,84.4
99.4842,18.1
99.494,417.6
99.521,115.5
99.5301,644.3
99.5322,663.6
99.5925,143.2
99.6129,376.5
99.6293,17.4
99.66,722.8
99.6771,291.5
99.7003,463.7
99.7542,286
99.7722,519.6
99.7971,469.8
99.7981,514.6
99.8325,521.4
99.8969,120.4
99.9173,214.6
99.9383,105.4
99.9605,101.2
99.9968,274.4
100.0123,323.8
100.0223,226.4
100.0334,163.4
100.0348,166.9
100.0437,219.9
100.0705,274.5
100.1137,645
100.1373,289.6
100.1626,111.1
100.1764,688.2
100.1935,180.1
100.2226,21
100.2434,304.3
100.2674,422.1
100.2834,218.9
100.292,18.2
100.4006,94.3
100.4173,17.2
100.4498,18.8
100.4693,485.6
100.5451,330.7
100.5602,16.9
100.6022,20
100.6062,667.7
100.6324,105.8
100.6534,150.5
100.6594,113
100.68,171.9
100.6961,477.2
100.7133,348.7
100.7144,68
100.7149,66
100.7201,121.5
100.7448,402
100.764,185.1
100.7719,795.6
100.7868,169.2
100.7906,328.6
100.8105,287.8
100.8193,392.2
100.828,95.7
100.8335,478.7
100.846,16
100.8486,244.9
100.8681,22.6
100.8986,97.8
100.8993,180.2
100.9168,744
100.9319,414.6
100.9513,18.9
100.9687,30.4
100.9728,597.4
101.0057,153.3
101.0082,649.1
101.022,456.2
101.047,921.3
101.0693,109.7
101.0708,858.1
101.0832,107.2
101.0968,335.6
101.1037,121.6
101.1181,189.2
101.12,107.8
101.1275,107.5
101.1364,483.8
101.1414,260.1
101.1697,105.6
101.1978,705.7
101.2911,273.1
101.3113,418.9
101.3199,296.8
101.3252,376.2
101.4169,268.7
101.4536,172.8
101.5308,201.4
101.5729,516.7
101.5999,150.8
101.6501,321.5
101.6733,388.9
101.7356,238.6
101.7508,151.7
101.7619,17.3
101.7958,250.8
101.825,285.2
101.8269,235.4
101.9635,232.7
102.0049,118.4
102.0215,83.4
102.0275,16
102.0506,154.7
102.0548,2432
102.0831,331.2
102.0868,307.1
102.1344,184.8
102.1579,18.8
102.2302,97.6
102.2929,148.2
102.3099,18.4
102.3245,115.5
102.3277,75.9
102.3483,324.4
102.3505,172.8
102.3674,732.6
102.3781,204.3
102.3841,20.4
102.3899,80.1
102.4041,268.9
102.4333,172.3
102.441,533.9
102.4427,164.1
102.4446,447.4
102.4658,177
102.5622,120.3
102.5935,505.5
102.6259,141.5
102.6283,166.4
102.729,207.3
102.8059,148.2
102.809,99.1
102.8231,396.4
102.8771,17.9
102.8779,122.3
102.8839,22.6
102.9156,455.5
102.9341,543.9
102.9416,20.2
102.9622,496.1
102.968,53.7
102.9701,395.8
103.0122,101.6
103.0153,80.5
103.0212,76.1
103.0349,353.4
103.082,277
103.091,20
103.1044,556.9
103.1253,86.4
103.1438,125.5
103.1476,156.5
103.1548,298.3
103.1987,313.2
103.205,543.2
103.244,18.4
103.2725,317.1
103.279,80.3
103.2888,162.8
103.3109,286
103.3269,125.6
103.3803,520.9
103.383,300.4
103.3839,570.4
103.4338,392.4
103.4423,155.9
103.4607,18.9
103.4845,118.4
103.4933,584.3
103.5228,147.5
103.5757,75.1
103.5826,257
103.6179,148.9
103.6236,712.2
103.6363,223.5
103.6647,349
103.7154,895.4
103.7318,90.7
103.7416,76.9
103.7713,568.7
103.8104,20.6
103.9064,181.2
103.9251,308.6
103.9691,446.9
103.9793,125.3
103.9843,125.8
104.0204,169.5
104.0494,702.9
104.072,227.9
104.0838,118.9
104.1068,444280.8
104.1315,335.5
104.1411,435.1
104.1717,246.6
104.1902,370.2
104.2318,92.8
104.2621,509.4
104.2771,73.9
104.31,18.4
104.3535,281.7
104.3639,19.1
104.3744,17.2
104.3963,642.6
104.4091,17.5
104.445,530.1
104.4979,313.4
104.5001,125.6
104.5375,168.1
104.6277,349.8
104.6314,175.6
104.6572,417.8
104.6606,279.7
104.6759,493.1
104.6886,344.6
104.69,99.2
104.7892,277.5
104.7935,406.7
104.8098,113.5
104.8117,169.7
104.8214,316.3
104.8291,218.5
104.851,474.1
104.8657,118.7
104.8825,18.7
104.9031,15.3
104.9307,375.8
104.948,188.1
104.9632,2073
104.9921,946.4
105.0012,354.7
105.0064,17.5
105.011,251.8
105.0124,110.1
105.0396,119.7
105.0446,34498.2
105.0785,137.4
105.0833,177.2
105.0862,149.9
105.0874,17.2
105.0995,110.9
105.1102,15330.8
105.1118,174.5
105.1767,124.8
105.1786,184.1
105.2167,17.7
105.2697,18.5
105.3272,118.9
105.329,299
105.3715,479
105.5216,280.9
105.5219,326.7
105.5245,288.8
105.5398,112.8
105.5445,422.8
105.5616,304.1
105.5775,75.5
105.5957,18.3
105.6383,238.8
105.6693,474
105.691,492.7
105.6933,19.2
105.7388,91.5
105.7553,470
105.7914,424.8
105.8013,90.1
105.8098,549.3
105.8571,144.8
105.8995,95.1
105.9234,471.3
105.9441,183.1
105.9482,175.5
105.9653,178.5
105.9853,396.9
105.9871,161.6
106.0197,334.7
106.0321,498.7
106.048,374
106.0622,188.5
106.0652,100
106.0693,18.1
106.0816,234.7
106.0905,337.5
106.1147,111.7
106.1428,126.1
106.1771,15.4
106.181,809.8
106.211,70.9
106.2488,357.8
106.2828,549.1
106.2981,489.4
106.3281,422.2
106.4122,145.5
106.4173,747.5
106.4316,20
106.446,107.6
106.5028,117.7
106.5082,125.3
106.5277,285.3
106.5321,402.5
106.5338,493.4
106.5405,455.7
106.5472,539
106.6314,513
106.688,279
106.6909,176.8
106.7627,16.2
106.7813,512.9
106.8358,261
106.8837,494.9
106.8986,486.8
106.9126,117.6
106.9287,392.5
106.9302,676.8
106.9505,3844
106.9636,84
106.9919,58.3
107.0178,325.3
107.0282,35.6
107.049,418.5
107.0503,499.1
107.0614,113.9
107.0856,29.6
107.0931,118.6
107.1237,19.2
107.1373,139.4
107.1615,73.5
107.1871,106.3
107.2564,427.9
107.2637,239.1
107.3313,95.4
107.3964,439.7
107.4,104.5
107.4251,120.4
107.4381,18.4
107.4529,95.3
107.465,101.5
107.4763,447
107.5251,207.6
107.529,18.2
107.5459,340.5
107.5671,100.7
107.5739,313.3
107.5975,37.9
107.6601,473.3
107.671,94.5
107.6764,897
107.7122,167.2
107.7372,19.6
107.7463,180
107.7551,137.4
107.8003,19.3
107.8062,18.3
107.8265,18.9
107.8324,541
107.8401,266
107.8586,17.2
107.8677,17.9
107.8917,174.9
107.9158,548.5
108.0189,186.7
108.0569,26.2
108.0584,281.6
108.0814,18.3
108.098,482.5
108.1156,194.3
108.1513,508.9
108.1748,106.9
108.1835,450
108.1847,94.6
108.195,17.9
108.226,132.2
108.2308,127.3
108.2585,495
108.2602,18.2
108.2952,183.4
108.325,202
108.382,115.9
108.3917,255.7
108.4065,111.4
108.412,139.5
108.4186,675
108.4739,260.3
108.475,96.6
108.5052,175.6
108.5103,159.3
108.5367,298
108.5606,146.7
108.5917,510.5
108.5948,306.3
108.6032,321.7
108.6263,467.6
108.6288,419
108.6318,753.8
108.7512,305.1
108.7531,649.4
108.7598,291.6
108.795,18.8
108.7985,17
108.8007,248.8
108.8041,176.9
108.8087,255.1
108.8322,204.8
108.8525,177
108.8543,208.4
108.9155,19.3
108.9569,320.3
108.9585,46.1
108.9588,46.8
108.9643,732
108.9853,123
109.0067,270.3
109.0105,49.6
109.0172,90.3
109.0258,115.2
109.04,291.6
109.0647,53965.1
109.1011,53.4
109.1498,25.1
109.1739,928.6
109.1844,276.6
109.1975,307
109.2073,315.3
109.2236,224.7
109.2766,297
109.2883,747.9
109.2938,310.4
109.3183,146.5
109.347,635.1
109.3493,19.9
109.3539,126.8
109.3998,22.6
109.4069,103.1
109.4254,335.2
109.4373,280.7
109.4608,326.6
109.4778,112.7
109.4895,308.6
109.5164,505.9
109.5174,530.3
109.5939,296.8
109.6258,234.2
109.6549,156.4
109.6697,304.3
109.7015,434.2
109.741,196.3
109.7573,20.9
109.7677,483.6
109.7799,124.7
109.7937,112.5
109.8131,19.8
109.8241,172.8
109.8536,239.5
109.8801,515.3
109.903,135.5
109.9196,377.7
109.9656,150.5
109.9717,206.5
110.0411,169.3
110.068,1480.8
110.0711,801.3
110.0825,74.9
110.1228,409.8
110.1437,138.6
110.1653,405.6
110.1699,117
110.1909,124.2
110.2831,489.6
110.2921,334.9
110.3061,117.1
110.3094,146.2
110.3137,133.8
110.3203,287.7
110.3266,287
110.4074,496.5
110.4436,374.2
110.4592,107.9
110.4717,127.9
110.4936,510.6
110.5087,23.2
110.5249,100.7
110.5264,18.1
110.5464,387
110.5528,102.7
110.5941,145.6
110.598,405.3
110.6368,505.7
110.7134,131
110.7343,325.7
110.736,88.9
110.7415,323.9
110.7814,181.7
110.8001,219.7
110.8013,424.9
110.8197,337.4
110.8305,243.8
110.8332,131.9
110.9044,18
110.9159,116.9
110.9547,17.2
110.9641,394.7
110.9798,231.4
110.9981,105
111.0231,258.4
111.044,245
111.0591,206.8
111.1018,17.9
111.1562,105.9
111.1598,95.8
111.1673,18.2
111.2139,122.1
111.2529,77.3
111.2605,112.4
111.2743,468.8
111.3346,314
111.3516,123.6
111.3825,140.7
111.4106,124.8
111.4289,103.9
111.5716,132.6
111.5845,92.7
111.5976,303.9
111.6082,195.4
111.6803,109.9
111.7178,215.1
111.7729,114.2
111.8927,242.4
111.9079,123.4
111.9175,111.9
111.92,100
111.982,336.4
111.9888,469.6
112.0048,122.6
112.0065,194.9
112.0173,115.5
112.0575,252.4
112.0717,414.5
112.0803,442.3
112.0835,317.9
112.0995,171
112.1109,157.4
112.1372,88.1
112.1704,94.3
112.1919,588.7
112.218,18.7
112.2687,99.5
112.288,675.2
112.3245,636.9
112.3266,180.3
112.3404,108.6
112.3699,376.8
112.4731,408.4
112.4766,161.4
112.4985,252.2
112.5477,246.5
112.5518,208.7
112.5553,335.7
112.5636,87.3
112.5646,20
112.5769,405.8
112.592,185.6
112.5959,756.6
112.6123,110.6
112.6358,152.6
112.6488,342.6
112.682,193.1
112.7203,117
112.7227,89.4
112.7263,176.5
112.7526,122
112.7722,305.2
112.7964,512.8
112.8387,109.1
112.8434,356.9
112.8529,323.8
112.8956,454331.3
112.9003,122.9
112.9662,122.4
112.9905,549.9
113.0677,17.8
113.096,253.7
113.1122,452.4
113.134,408.8
113.1519,111.9
113.2119,219.3
113.2131,18.6
113.2551,164.2
113.2565,145.8
113.3478,536.5
113.3635,701.4
113.3725,19.6
113.3802,402.2
113.3879,156.8
113.4194,160.5
113.4317,125.4
113.4399,17.6
113.5285,123.6
113.5717,304
113.5749,496.3
113.6012,404.5
113.606,420.8
113.6488,421.3
113.714,508.9
113.7375,947.5
113.741,151.1
113.7744,199.1
113.8155,285.8
113.8197,204.3
113.8292,484.2
113.8378,304.7
113.8426,112.4
113.8504,99
113.8635,363.2
113.8829,779.1
113.9141,115.1
113.9769,18.6
113.9948,16.5
113.9987,380.9
114.0087,372.8
114.02,18.6
114.05,303.4
114.0548,34377.3
114.066,1869
114.1026,151.3
114.1349,108.8
114.198,426.8
114.2219,109.2
114.2252,193.7
114.2457,131.5
114.2482,98.3
114.2569,226.7
114.2899,709.1
114.301,319.5
114.3414,18.5
114.4227,103.5
114.4438,459.9
114.4591,323.4
114.465,79.2
114.4926,444.5
114.5074,18.6
114.5372,92.2
114.5456,103
114.5609,325.8
114.5694,794.2
114.5717,159.1
114.5994,290.2
114.6552,433.6
114.6641,18.1
114.6913,495.7
114.7158,510.7
114.7562,207.5
114.7985,154.1
114.8026,257.6
114.8787,619.7
114.8927,136251.6
114.9104,258.8
114.9481,964.3
114.9636,320.2
114.9947,462.9
115.0583,293.3
115.0731,500
115.0934,142.2
115.137,501.5
115.1533,307.2
115.1589,104.4
115.188,448
115.2028,228.3
115.2087,211.8
115.254,194.6
115.2985,554.8
115.3788,371.5
115.3856,497.3
115.4747,889.1
115.4762,219.8
115.4884,322.6
115.5655,308
115.635,452.3
115.7304,112
115.7589,19.3
115.7666,92.1
115.7722,132.4
115.8306,232.8
115.8511,218
115.8892,403.1
115.9172,94.4
115.9277,438.9
115.9369,127.7
115.9483,72.1
115.9768,314
115.9792,391.5
115.9999,20.7
116.021,156.9
116.0401,334.8
116.0463,751.2
116.0544,18
116.063,389.2
116.0705,3438
116.1134,94.3
116.1183,706.7
116.1424,16.4
116.1456,18.9
116.1729,180.4
116.1792,217.7
116.1933,101.3
116.2046,360.1
116.2655,119.8
116.3231,490.4
116.3971,509.1
116.4101,279.6
116.4467,492.3
116.51,84.2
116.5959,408.4
116.6083,137.3
116.6113,355.3
116.6219,523.6
116.6568,103.1
116.7119,268
116.7299,265.5
116.7332,96.5
116.7478,290.6
116.7495,99.3
116.7782,115.6
116.8037,214.9
116.8283,239.9
116.8292,99.8
116.8455,115.7
116.8908,16621.9
116.8965,298.6
116.9065,228.9
116.9406,137.8
116.9632,124.9
116.9667,199.3
116.9858,888.9
116.9932,764.2
117.0018,19.4
117.0085,154
117.0698,112.6
117.0952,296.1
117.1336,745.8
117.1566,433.7
117.2006,327.6
117.263,298.7
117.2681,277.7
117.3177,24.8
117.4526,110.9
117.4581,136.6
117.4949,320.7
117.5159,298
117.5872,107.9
117.667,20.8
117.6969,118.4
117.745,140.1
117.7466,176.1
117.7803,19.4
117.8021,213.9
117.8425,231.4
117.8655,444.4
117.869,181.5
117.9226,206.7
117.9455,27.1
117.9491,105.6
117.9564,103.7
117.9635,317.5
117.9715,20.3
117.9847,96.5
117.987,290.6
117.9949,26.4
118.0099,112.9
118.0442,359.7
118.0485,246.3
118.0547,20.5
118.0738,294.9
118.1161,101.8
118.1453,368.3
118.1514,193.4
118.2085,167.4
118.2318,349
118.2813,144.9
118.2944,18.9
118.3102,285.2
118.3587,231.6
118.3641,494.4
118.3671,403.3
118.4171,742.4
118.4361,125.8
118.4418,18.2
118.4738,200.3
118.4892,109.3
118.4973,108.1
118.5332,546.5
118.5469,333.1
118.5832,692.6
118.6206,238.6
118.6888,226.2
118.7027,146.9
118.7457,179.6
118.7639,325.1
118.8138,128.6
118.8205,98.7
118.8219,438.1
118.8511,111
118.9117,153.7
118.9235,418.1
118.9425,398.7
118.9582,131.7
118.9789,325.6
119.0238,763.3
119.0855,18.4
119.1321,157.2
119.1849,134.4
119.2575,195.9
119.2791,361.4
119.2894,482.9
119.3308,115.7
119.3566,715.1
119.3596,20.3
119.3628,345.4
119.3897,108.5
119.3978,18
119.4314,240.6
119.5187,127.9
119.5354,428.6
119.5498,399.7
119.5565,879.2
119.5917,238.6
119.6281,167.9
119.7757,155.3
119.7781,20.8
119.8052,599.4
119.8088,105.5
119.9162,133.7
119.924,17.5
119.952,233.6
119.9602,274.8
119.9978,333.2
120.0031,2197.2
120.0806,7886.6
120.1157,153.7
120.1218,123.7
120.136,103.9
120.172,222.3
120.2104,124.2
120.2398,167.4
120.2555,17.8
120.2684,123
120.3765,18.3
120.4092,274.6
120.5804,169.2
120.6268,181.1
120.6441,88.3
120.6549,123.1
120.6609,578
120.6738,289.9
120.6806,289.5
120.6937,187.7
120.7263,21.9
120.7397,17.7
120.762,138.8
120.7655,126.4
120.7694,108.1
120.7742,466.5
120.7776,322.3
120.7893,132.7
120.8368,131.7
120.9309,539.3
120.9565,19.2
120.9599,115
120.9656,351.4
120.9791,18.4
120.9807,96.2
120.9977,58.3
121.0075,222.7
121.0283,616.8
121.0401,124.4
121.1011,21.8
121.187,113.4
121.2411,422.4
121.2544,102.2
121.2864,107
121.308,222.9
121.3362,190.5
121.3412,447.2
121.4258,134
121.4612,464.1
121.5053,341.6
121.6208,240.9
121.6637,185.6
121.6877,665.9
121.7287,22.5
121.7395,260.4
121.8048,167
121.8112,417.6
121.9115,179.7
121.9484,266.4
122.0245,325.7
122.0476,498
122.083,316.7
122.0954,325.9
122.104,19.6
122.1098,169.1
122.1103,111.9
122.1128,593.5
122.1595,230
122.1705,92.3
122.1857,17.1
122.2656,109.5
122.3382,803.8
122.3539,268.7
122.4023,383.4
122.4087,453.2
122.4343,17.1
122.4681,883.9
122.489,302.8
122.4946,311.7
122.547,92.9
122.5675,736.1
122.5809,847.9
122.5934,424.4
122.618,314.4
122.6212,117.7
122.6309,248.1
122.6479,18.2
122.6557,225.9
122.6785,520.9
122.7506,471
122.7539,388.1
122.8321,289.8
122.8747,418
122.9109,21.3
122.9244,19107
122.9334,198
122.9698,445.8
122.9737,44.6
123.0121,451.3
123.0805,24.8
123.0899,340.8
123.108,436.7
123.1586,298.7
123.1623,159.1
123.2576,270.2
123.3087,105.7
123.3255,98.3
123.3325,199.5
123.3882,174.4
123.3926,221.4
123.3996,199.9
123.4378,17
123.4429,17.1
123.4533,19
123.4638,210.1
123.6495,208.5
123.6882,469.9
123.695,277.4
123.7065,95
123.7099,108.7
123.7762,108.7
123.7955,453
123.8496,18.3
123.8768,19.4
123.8881,348.4
123.9199,187.3
123.9482,127.4
124.0048,17.6
124.0108,987.2
124.0179,608.3
124.0293,110.5
124.0756,21.7
124.0796,17.4
124.1637,139.6
124.2746,172.6
124.2911,762.5
124.312,111.8
124.3483,423.7
124.3538,496.8
124.3583,381.7
124.4183,399
124.439,176.4
124.4501,248.4
124.4747,110.1
124.4791,463.7
124.4928,328.9
124.5276,352
124.5348,391.9
124.5828,465
124.5883,17.7
124.6357,19.5
124.6537,104.3
124.6602,389.7
124.7435,171.9
124.8497,324.9
124.9225,2042.7
124.932,249.8
124.9997,4527.4
125.0055,1550.1
125.0208,145.8
125.0388,140.3
125.0506,287.6
125.0596,47
125.0887,192.8
125.1302,887.1
125.1974,145.1
125.2156,243
125.2368,21.6
125.3418,84.2
125.3575,169.9
125.3597,303.7
125.3793,436.8
125.4259,639.7
125.4506,112.8
125.5167,230.3
125.5305,161.9
125.5508,136.3
125.5877,165.2
125.6648,451.4
125.6927,293.9
125.6971,166.6
125.7353,326.1
125.739,123.1
125.7736,21.3
125.7808,204.5
125.8261,536.4
125.9191,585
125.9966,21.4
126,73.8
126.0088,63.8
126.0387,246.4
126.0904,297
126.1272,84.1
126.1326,17
126.1709,85.1
126.192,212
126.338,147.7
126.4958,336.2
126.5063,111.8
126.54,368.6
126.6324,236.5
126.6368,131.5
126.7595,117
126.7749,131.1
126.7999,235.8
127.0013,21.2
127.0477,199.2
127.0603,91.7
127.1116,502.7
127.1566,396.3
127.1996,351.6
127.2394,364.7
127.2866,158.2
127.3287,89.3
127.3528,218.8
127.398,407.6
127.4446,102.4
127.4653,187
127.4667,795
127.4679,284.4
127.4879,467.1
127.5092,235.3
127.5376,79
127.5633,627.4
127.6004,490.6
127.6031,112.4
127.6112,18.3
127.6444,433.3
127.6593,204
127.6924,452.1
127.7144,109.8
127.7208,315.3
127.7307,461
127.7771,118.6
127.8159,307.9
127.8296,88.1
127.8503,658.4
127.8585,304.1
127.8862,438.7
127.9219,18
127.9346,353.9
127.9569,82.5
127.9661,173.3
128.0485,360.9
128.0607,122.5
128.0739,216.9
128.086,113.2
128.101,477.2
128.1257,166.7
128.1868,632.1
128.2468,105.6
128.2605,159.5
128.3269,167
128.3352,214.7
128.381,245.2
128.3854,198.9
128.3976,106.6
128.4013,478
128.4513,94.6
128.4628,188.7
128.4696,427.9
128.5372,241.1
128.5424,247.9
128.6062,160.8
128.667,193.2
128.7782,186.1
128.7936,184.9
128.8171,490.9
128.8646,184.3
128.8738,401.2
128.8807,250.4
128.9051,213.6
128.9066,159.5
128.9165,215.4
128.9539,116.3
128.9556,338.2
128.9638,630.6
128.9681,188.2
129.0031,727.5
129.0486,22.9
129.0626,95.5
129.0648,87.7
129.1021,526.5
129.1108,138.9
129.1216,618.7
129.1261,116.7
129.1429,310
129.2276,160.3
129.2969,18.8
129.3016,104.3
129.3068,182.7
129.3609,99
129.3661,315.8
129.417,309.6
129.4529,92
129.4834,129.5
129.5007,187
129.5243,797.2
129.5479,369.3
129.5544,546.6
129.5967,446.8
129.6443,478
129.7826,20.1
129.8873,291.2
129.9322,192
129.9431,219
129.9523,829.8
129.9576,537
129.9622,130.3
129.9728,311.7
129.9795,23.5
129.9936,505.6
130.0213,314.3
130.0498,7545.9
130.0672,364.2
130.0714,546.7
130.0774,18.9
130.0965,885.4
130.1731,289.4
130.1896,189.7
130.1956,129.9
130.211,107.6
130.2573,404.1
130.2662,206.5
130.3058,103.6
130.3115,220.9
130.3303,19.3
130.4827,108.1
130.526,135.4
130.5826,124
130.584,122.4
130.6272,143.4
130.6384,109.7
130.677,478.4
130.69,343.4
130.7192,768.3
130.7965,261.1
130.8034,231.8
130.8265,608.5
130.8417,143
130.8866,18.5
130.9129,98.7
130.9169,17.4
130.9231,134
130.9356,127.2
130.9976,112.1
131.0001,146.9
131.0017,23.4
131.0235,480.9
131.0258,247.1
131.0755,345.6
131.081,133.3
131.0993,733.3
131.1396,250.5
131.1955,189.7
131.2657,208.9
131.2799,219.4
131.2932,486.3
131.4235,439.1
131.4506,404.8
131.4555,168.9
131.5097,424.5
131.5151,404.9
131.5372,321.4
131.5679,442.9
131.6232,170.9
131.699,98.2
131.717,218
131.7344,266.9
131.7416,380.4
131.8211,20.5
131.863,96.3
131.9156,256.1
131.9614,68.6
131.9657,18.1
132.0031,35492.2
132.035,18.2
132.0498,216.1
132.0654,54446.2
132.0817,135.6
132.1155,294.3
132.2336,284.9
132.2446,288.8
132.288,502.9
132.3101,139.7
132.4025,604.9
132.4252,241
132.4505,122.9
132.4566,402.3
132.4705,112.1
132.4945,310
132.5104,209.6
132.5346,284.5
132.5712,97.6
132.6438,415.6
132.687,476.8
132.7246,151.5
132.7453,415.2
132.8153,193.1
132.8237,109.5
132.8312,546.7
132.8335,122.2
132.8637,352.3
132.8884,255.1
132.9027,44.8
132.9443,268.7
132.9514,298
132.9581,434.6
132.9695,21.7
132.9771,534.3
132.9791,103.7
132.982,98.7
132.9871,571.1
132.9984,493.1
133.0154,22
133.0645,499
133.0688,1036
133.0858,22.2
133.0971,19133.4
133.1011,18.9
133.104,104.5
133.1225,104.6
133.1454,120.9
133.1512,131
133.1948,90
133.2043,327.9
133.261,477.4
133.2889,405.9
133.3973,107.5
133.4393,118.1
133.5148,507.1
133.5539,410.5
133.5636,19.2
133.5732,17.2
133.5849,300.9
133.6461,464.6
133.6645,405.6
133.731,399.8
133.7337,383
133.7562,293.7
133.7722,111.4
133.7861,100.5
133.8137,127.4
133.8312,102.6
133.8403,460.1
133.843,119.3
133.9391,516.9
133.9588,18.9
133.9654,318.9
133.9741,421
134.0012,364.9
134.003,948.5
134.0188,10666.2
134.0238,109.9
134.0491,535.5
134.0672,644.4
134.0712,168.4
134.1226,18.4
134.1562,110.7
134.2101,359.2
134.2212,112.9
134.2429,126.7
134.2653,376.2
134.3703,410.9
134.3944,433.1
134.4251,142.5
134.465,212
134.4885,414.9
134.576,287.5
134.5893,195.8
134.5945,144.8
134.6073,324.7
134.6216,274.1
134.6285,111.5
134.6334,171.8
134.6393,248.2
134.6511,23.1
134.655,430.9
134.6573,18.9
134.6955,456.8
134.767,235.8
134.8389,19
134.883,16.8
134.9192,104
134.9376,801.1
134.9506,86.8
134.9835,465.7
134.9891,94.3
134.9965,20.6
135.0028,49561.2
135.0344,478.8
135.0605,104.7
135.072,21.6
135.0895,444.2
135.1058,159.6
135.1169,459.5
135.1424,90.6
135.1575,108.9
135.2224,87.2
135.3404,324.1
135.3627,140.6
135.3841,522.2
135.408,509.3
135.424,190.1
135.7262,181.3
135.7538,341
135.8078,118.7
135.8096,186.6
135.818,19.2
135.8302,319.1
135.9044,482.2
135.9348,124
135.9421,356.2
135.9772,2110.9
135.9815,20.5
136.0481,4539
136.0756,6919.9
136.1222,646.6
136.161,363.9
136.1835,111.6
136.2023,106.8
136.2346,102.6
136.3072,19.2
136.3097,170.2
136.3122,526
136.3221,130.6
136.3283,241.6
136.3297,252.4
136.3496,192.6
136.3976,17.3
136.443,114.6
136.5112,115.6
136.5241,104
136.5265,259.2
136.5273,451.4
136.5277,408.6
136.5327,150.4
136.561,160.3
136.579,195.3
136.6276,340.5
136.6725,93
136.6763,642.4
136.6994,310.9
136.7405,104
136.7504,153.7
136.8617,329.2
136.8779,642.2
136.9313,93
136.9445,349.2
136.9531,35.6
136.9796,114.7
136.9818,306
136.9924,244.4
136.9975,112.3
137.0538,269.2
137.1029,190.8
137.1216,435.1
137.1515,375.2
137.1626,213.7
137.1963,446.2
137.2242,275
137.2594,119.6
137.2832,562.3
137.3478,153.6
137.3608,335.7
137.3911,210.1
137.5232,153.8
137.6416,20.3
137.6663,315.5
137.6872,567.4
137.7414,20.5
137.7688,345.6
137.8059,170.3
137.8183,217
137.8695,343.3
137.9154,128.9
137.944,94.6
137.9578,98.5
138.0242,19.8
138.0312,532.7
138.0465,407.5
138.0525,5885.8
138.0661,30.8
138.0725,96.2
138.0964,296.7
138.1127,411
138.1406,118.8
138.1513,19
138.1915,18.8
138.2057,214.2
138.21,85.5
138.2181,128.9
138.2668,179.2
138.3539,579.9
138.3809,221.3
138.425,151.1
138.5258,22
138.5367,437.4
138.5491,478.2
138.5622,279.8
138.5992,577.4
138.6009,118.1
138.6157,134.1
138.6534,139.1
138.6657,456.4
138.6798,131.4
138.6858,18.4
138.7078,98.7
138.7189,152.2
138.8262,508
138.8323,19.7
138.863,93.7
138.8861,19.6
138.9063,2072.8
138.916,210.7
138.9393,294.6
138.9899,153.7
139.1939,154.9
139.2082,22.8
139.218,18.3
139.2269,517.4
139.277,202
139.2788,103.5
139.3637,295.4
139.3726,291.4
139.4344,311
139.4521,156.7
139.5206,229.7
139.5663,20.4
139.5876,104
139.6258,17.9
139.6305,406.2
139.6639,220.5
139.6953,539.5
139.8558,765.1
139.8673,158.2
139.8822,146.7
139.9223,18.9
139.9285,466
139.9745,321.6
140.0048,133.5
140.0085,485.6
140.0165,2834.1
140.0681,1237.3
140.087,253.1
140.0944,584.2
140.1193,355.9
140.2416,106.5
140.2459,124.3
140.2539,159.2
140.2789,270.6
140.2867,99.8
140.2892,231.2
140.3357,507.9
140.3843,102.4
140.3882,785.8
140.3946,347.3
140.4296,104.3
140.4515,361.4
140.4685,302.4
140.5279,319.8
140.5388,328.2
140.5601,184.4
140.6277,618.8
140.6789,20.1
140.7242,21
140.767,512.2
140.7713,336.2
140.8032,117.3
140.8516,225.7
140.8674,165.1
140.8874,471.8
140.9034,1394.7
140.9294,116.4
140.9337,104.4
140.9436,327.9
140.962,185.1
141.0004,15403.9
141.0116,441.2
141.0198,133.9
141.0289,482.9
141.177,417
141.2234,397.1
141.3324,19.3
141.3478,405.2
141.3732,16.8
141.4638,21.6
141.4738,100
141.6998,367.8
141.7103,481.6
141.8043,127.6
141.8298,77.9
141.8374,22.2
141.8432,297
141.8722,139.2
141.9294,432.9
141.9366,104.2
141.9538,133.3
141.9899,20.2
141.9949,151.6
141.9998,19.4
142.0038,414.1
142.0118,21.7
142.0341,18.1
142.0521,731
142.0734,23.7
142.1098,288.2
142.1254,190.1
142.155,124.2
142.172,343
142.2499,433.4
142.255,156
142.261,107.6
142.2834,88.1
142.2893,317
142.3299,437.1
142.381,19.8
142.3852,235.5
142.422,19.9
142.4509,288.1
142.4891,181.8
142.5426,434.9
142.5644,270.2
142.5963,19.6
142.6229,278.9
142.6493,152.1
142.6798,97.3
142.7223,264.6
142.8544,204.9
142.8975,206.5
142.9122,110
142.9514,430.3
142.9901,22.2
142.9963,309.1
143.0017,123.9
143.0282,158.5
143.0627,106.6
143.0817,700.4
143.0956,490.7
143.1661,214
143.2093,454
143.2207,369.4
143.2674,19.2
143.2795,367.9
143.2905,398.3
143.3489,18.3
143.354,100.8
143.3921,250.6
143.4104,444
143.4342,85.4
143.4964,138.2
143.5012,161
143.5063,456
143.5394,19
143.6082,319.3
143.6245,282.8
143.6549,329.6
143.679,103.9
143.6898,371.4
143.7037,112.2
143.706,598.4
143.808,612.7
143.8166,119.4
143.8704,133.8
143.8737,105.3
143.926,573.2
144.0019,129.2
144.0054,76
144.0106,545.7
144.0745,137.5
144.1329,20.6
144.1881,860.7
144.2595,548.3
144.2613,107.4
144.3251,307.4
144.3306,101.5
144.3444,127.4
144.3621,419.1
144.3794,477.5
144.4195,149.5
144.479,690.9
144.5293,195.5
144.5833,483.1
144.5986,19.8
144.6061,152.9
144.6233,451.8
144.6449,123
144.6799,17
144.7342,20.7
144.7636,439.1
144.8053,308.1
144.8501,393.8
144.8554,96.6
144.9399,258.1
144.9433,96.9
144.9807,2960.8
145.0118,120.9
145.0155,19
145.0254,91.8
145.044,91
145.0471,682.5
145.0504,19.3
145.1019,367.2
145.12,108.4
145.1472,318.5
145.1565,112.9
145.1985,724.1
145.2125,467.1
145.235,234.2
145.3404,105.2
145.4357,197.1
145.457,126.3
145.4779,172
145.561,105.2
145.5713,118.4
145.5737,413.1
145.6346,19.6
145.6371,20.9
145.8783,100.9
145.9571,464.9
145.9667,58.4
145.9733,266.4
145.9911,417.6
145.9932,117.4
145.9949,97.3
146.0004,103.9
146.0034,141.9
146.0126,1671.9
146.0188,21027.5
146.0691,346.8
146.138,476.8
146.1424,168
146.1872,119.9
146.2309,124.2
146.2409,121.1
146.2432,18.3
146.3361,22.7
146.3639,19.1
146.3701,103.9
146.4187,149.7
146.4306,119.1
146.4633,110
146.4782,694.3
146.4823,553.7
146.549,18.6
146.5699,117
146.5735,453.8
146.6708,99
146.7653,575.6
146.777,725.1
146.815,249.2
146.8475,155
146.8612,484.2
146.8802,322
146.9332,24.2
146.9423,360.5
146.9502,397.8
146.9656,160.9
146.9663,147.4
146.9744,115.1
146.9817,116246
146.9977,135.9
146.9985,137.9
146.9991,138.2
147.0214,226.3
147.0251,160.7
147.0335,190.2
147.0764,50240.5
147.1015,311.1
147.1128,25032.2
147.117,80
147.1292,181.9
147.1336,105.3
147.139,660.1
147.1811,197.2
147.2,232.4
147.2511,342.3
147.2532,169.2
147.3494,116.1
147.4032,18.1
147.4253,334.6
147.4892,16.7
147.5033,18.1
147.505,21.5
147.574,361.1
147.626,84.9
147.6936,163.1
147.7191,357.8
147.8469,274.7
147.887,116.8
147.9772,325.8
147.9864,205.5
148.011,301.5
148.0496,20.5
148.1121,95.3
148.1234,117.6
148.1669,19.2
148.1732,171.4
148.1766,95
148.1827,570.5
148.2615,163.9
148.2854,847.7
148.2888,290.8
148.3081,464.6
148.412,171.1
148.4144,304.7
148.4195,402.2
148.42,506.8
148.4913,549.2
148.4949,161.9
148.5032,306.4
148.5151,18.3
148.5322,1364.9
148.6494,204.3
148.7374,807.9
148.8142,95.2
148.8165,398.6
148.8431,788.7
148.8473,17.3
148.8756,577.3
148.8845,190.1
148.9439,141.2
148.9563,210.9
148.961,968.4
148.9892,162.9
149.0024,47.5
149.0184,2575
149.0233,4490.9
149.0449,186.8
149.0578,388.3
149.0972,476.6
149.1506,352.1
149.1583,101.5
149.1724,306.7
149.2475,211.3
149.2932,279.4
149.3091,365.8
149.3385,129.6
149.3712,553.2
149.4363,74.1
149.4481,147
149.4535,514.1
149.4855,460.8
149.5297,19.3
149.5419,155.2
149.6002,459.1
149.6271,222.3
149.6763,168.3
149.866,110.2
149.9044,305.6
149.9167,20.3
149.9612,32.7
149.9874,44.1
149.9927,5504.9
150.0137,5949.1
150.0563,476.7
150.1754,97.8
150.1883,124.2
150.3195,119.3
150.3229,121
150.3274,18.4
150.3447,267.7
150.3852,119.7
150.6279,653.8
150.6655,21
150.6893,132.7
150.7129,357.3
150.7261,218.6
150.7462,472
150.7481,181.2
150.8162,18.5
150.8725,191.1
150.9097,17.7
150.9252,348.3
150.9272,423.9
150.9352,132.2
150.969,48.7
150.9716,18.6
150.9768,33976.6
150.9841,3853.2
150.9887,726.7
151.015,336.8
151.0389,397.1
151.0477,2905.2
151.0573,295.8
151.0831,456
151.1211,132.3
151.1426,100.8
151.1844,181.9
151.223,287.4
151.2649,368.8
151.3108,172.2
151.4005,432.8
151.407,18.9
151.4097,390.4
151.4322,102.1
151.5133,274.7
151.5275,752.4
151.5688,525.4
151.5973,216.9
151.7776,463.1
151.8236,30.5
151.9175,697.2
151.9221,382.1
151.98,366.2
151.9832,277.9
151.9874,119.9
152.022,8962.6
152.0317,1883.3
152.0423,106.9
152.0537,18
152.0609,185.1
152.0962,18.2
152.1132,218.2
152.1185,85.6
152.1415,18.2
152.1433,202
152.1557,122.9
152.27,169.6
152.3202,181.1
152.3565,437.7
152.4236,652.9
152.4752,89.2
152.5315,107
152.5426,215.1
152.5545,119.9
152.5702,439.4
152.584,368.9
152.5976,565.2
152.6017,281.3
152.627,204.2
152.6432,334.2
152.7272,163.3
152.7596,114.6
152.7688,106.4
152.8392,17.5
152.8564,209.5
152.928,18.9
152.9334,427.7
152.9609,476.2
152.9749,1720.1
152.9845,55.4
152.9997,27.2
153.1678,435.6
153.2299,117.1
153.2903,198.3
153.4708,106.5
153.4817,171.2
153.4921,133.5
153.669,162.3
153.6887,20.5
153.7002,244.3
153.7059,359.7
153.7592,341.2
153.7631,431.3
153.9074,306.7
153.9621,156.2
154.0112,466.9
154.0265,479.8
154.0956,333.3
154.0988,328.3
154.1133,200.7
154.1314,255.1
154.2119,245.8
154.2662,474.1
154.2686,325.6
154.2876,483.3
154.4082,233.2
154.4313,424.1
154.4352,129.3
154.4472,87.7
154.4492,163.3
154.4518,362.3
154.4568,323.6
154.4603,126.3
154.4632,25.6
154.4824,20.1
154.5061,295.3
154.5867,317.6
154.6283,148.1
154.6439,112.9
154.6706,619.1
154.6757,171.8
154.7021,24.6
154.7642,646.5
154.786,165.9
154.9075,50.3
154.9193,523.6
154.9541,205.6
154.9931,131.3
155.0314,312.3
155.0427,413.1
155.054,3406.4
155.071,116.6
155.1028,122.4
155.1424,179.7
155.1828,474.8
155.2111,23.8
155.2182,115
155.2538,260.2
155.26,188.9
155.3023,304.4
155.3677,122.2
155.4184,104
155.5529,471.6
155.5728,133.6
155.5849,555.5
155.5872,131
155.6133,180.9
155.6154,111.2
155.6729,323.1
155.7067,137.4
155.8425,129.4
155.8735,19.4
155.9029,623
155.9379,123.4
155.9508,495.7
155.955,866.3
155.9642,333.3
156.0422,2491.3
156.0496,107.6
156.0576,27
156.0646,333.2
156.0688,266.3
156.0767,58126.2
156.1409,401.2
156.2187,91.1
156.3408,576.2
156.3442,18.2
156.3646,172.1
156.4093,118.5
156.4771,223.5
156.5388,170.4
156.5504,17.9
156.5532,216.2
156.5722,113.2
156.6212,19.5
156.6429,193.1
156.6947,208.3
156.7099,331.5
156.7546,19.4
156.7568,531.8
156.7617,123.1
156.7744,194.6
156.7811,166.8
156.8365,117.4
156.8727,20.6
156.8768,363.6
156.9335,98.7
156.9741,36.9
156.9831,18.6
157.0725,155.2
157.0972,46.5
157.2118,19.3
157.214,312.5
157.2667,121.2
157.3722,613.5
157.4951,634.9
157.5507,859.3
157.5575,19.5
157.6881,20
157.7379,141.9
157.7561,518.1
157.8005,736.9
157.8025,125
157.8321,446.5
157.8475,197.7
157.9224,113
157.9373,729
157.9635,138
158.0007,194.4
158.0271,3203.9
158.038,397.3
158.0532,22.5
158.0694,125.4
158.0782,291.9
158.1477,487.2
158.2258,187
158.266,132.1
158.3769,19.3
158.3943,427.7
158.4945,93.6
158.5887,898.6
158.6155,73.9
158.653,124.3
158.69,156.2
158.7001,471.5
158.8281,186
158.8833,27.7
158.8901,100.3
158.935,19.5
158.9601,291.5
158.9641,9838.3
158.9687,396.7
158.9964,4236.2
159.0111,33.3
159.0252,184.9
159.0303,85.2
159.0439,19.2
159.0603,197.5
159.0768,120.2
159.0889,440.8
159.0922,253.2
159.1164,366.8
159.1414,354.1
159.2908,452.3
159.396,133.1
159.4455,227.7
159.547,295.8
159.5545,21.4
159.5597,185.3
159.6064,202.8
159.6442,351.4
159.6555,19.6
159.7198,105.9
159.7596,107.3
159.831,410.6
159.842,549.2
159.8522,154.9
159.8723,16.5
159.9769,242.1
159.9998,506.8
160.0228,73.5
160.0275,452.1
160.0345,14771.8
160.0604,53900.6
160.0648,196.2
160.1197,464.6
160.1963,166.7
160.2225,17.6
160.3181,480.2
160.3623,294.3
160.3872,687.9
160.3898,159.4
160.4313,105.5
160.4569,684.2
160.476,1119
160.5291,171.6
160.6515,292.6
160.719,417.6
160.7306,201.6
160.7364,315.6
160.7395,133.6
160.7517,131.3
160.7843,101.8
160.8432,138.2
160.9617,116.1
160.9844,120
160.9922,53
161.0474,19.7
161.0639,1760.8
161.0962,22.1
161.1184,288.7
161.1424,222.9
161.2013,19.1
161.2261,19
161.2405,450.3
161.2737,21
161.2888,97.3
161.2952,350.6
161.3005,18
161.3381,159.9
161.3941,228.2
161.4331,154.2
161.4384,114.3
161.4653,290.7
161.4729,322.4
161.4843,279.6
161.5433,322.6
161.5511,108.6
161.5522,110.4
161.5751,108.6
161.6232,19.5
161.7022,126.7
161.7458,92.6
161.7863,102.4
161.972,380
161.9924,125.1
162.0501,11483.6
162.0577,220.7
162.0803,231.5
162.1342,124.9
162.3206,159.6
162.3584,223.8
162.4105,241.2
162.4257,132.5
162.4449,93.4
162.5368,101.5
162.5963,120.3
162.6124,124.8
162.6272,174.6
162.6386,154.2
162.6491,325.5
162.6897,146
162.7096,92.1
162.7397,389.3
162.8365,113.2
162.8777,107.7
162.9217,104
162.9557,4720.9
162.9769,108.8
162.9884,479.3
163.0103,146.2
163.0155,2073.5
163.0402,122.4
163.0605,47.1
163.0644,264.2
163.0829,295.4
163.105,349.7
163.1198,124.8
163.1316,752.8
163.1359,122
163.15,167.7
163.1575,411.7
163.2322,117.1
163.2634,372
163.4519,166
163.4758,236.2
163.5143,196.8
163.5826,210.2
163.5958,743.4
163.5996,222.1
163.611,690.1
163.6193,96.3
163.6225,277.7
163.6558,115.7
163.6653,335.3
163.6679,133.3
163.6717,416.3
163.6725,375.9
163.6738,359.3
163.7515,231.3
163.7577,198
163.772,672
163.9044,246.4
163.9407,176.2
163.9677,16.6
164.0016,360.1
164.0295,11566.6
164.1171,332.1
164.1324,402.9
164.2141,787.2
164.2201,97.4
164.2276,419.6
164.2364,19.1
164.2456,165.1
164.248,133.2
164.2583,500.1
164.2889,285.9
164.3379,415.6
164.3516,100.6
164.3914,457.9
164.5022,159.8
164.6041,146.7
164.6461,262.3
164.6691,464.6
164.6983,224.7
164.7363,96
164.7553,121.1
164.7848,380.8
164.8552,205.6
164.8606,299
164.9145,642.3
164.9205,2501.7
164.93,8896.7
164.9351,1318.5
164.9534,274.1
164.9823,538.5
164.9925,1894.6
164.9999,601
165.051,471.9
165.0565,112.8
165.0914,127.5
165.1189,122.2
165.1211,133.4
165.1632,629.4
165.1679,192.1
165.1918,23.8
165.2378,404.4
165.2702,150.2
165.2823,112.3
165.2897,813.4
165.3963,275.7
165.403,18.1
165.4152,99.5
165.4489,405
165.5706,165.1
165.5979,106.2
165.6146,284
165.6649,102.9
165.7122,101.5
165.7503,101.3
165.7977,18.9
165.8195,118.2
165.8377,99.3
165.8527,22.8
165.8774,20.7
165.8999,18.2
165.9213,302.2
165.9668,1027.1
165.9712,23.6
165.9786,1311.4
165.9877,4122
165.995,1237
166.0008,146.5
166.0027,21
166.0541,18.9
166.075,120.1
166.2272,405.4
166.2392,348
166.3053,255
166.5387,164.6
166.5469,718.7
166.6155,382.7
166.6473,337.6
166.6796,20.9
166.7481,21.6
166.7643,174.1
166.8011,18.5
166.8419,285.7
166.9196,17.9
166.9217,189.5
166.9508,16148.9
166.9625,555.2
166.9791,29.4
166.9983,34.4
167.0001,111.2
167.0218,5825.4
167.063,306.2
167.0808,196.9
167.1131,204.7
167.1283,18.3
167.1333,379
167.1747,161.7
167.2753,288.7
167.282,19.6
167.3743,234.9
167.3949,514.9
167.4141,86.6
167.4254,111.8
167.4642,16.3
167.4672,343.6
167.6062,100
167.625,18.2
167.6567,158.2
167.6953,102.3
167.7498,108.3
167.754,634.7
167.7921,299
167.8328,18.3
167.884,598.5
167.9284,120.3
167.9623,121.1
167.9713,194.8
167.9755,16.6
167.9944,2435.1
168.0629,434
168.0783,192.8
168.1022,540.9
168.1031,596.1
168.1101,135.4
168.2295,18.6
168.2511,95
168.3234,183.6
168.4185,761.9
168.4439,87.1
168.4776,114.6
168.5366,18.3
168.5643,307.5
168.5697,310.8
168.5799,93.4
168.5857,632.7
168.6062,108.2
168.6577,18.1
168.7429,218.7
168.7581,143.3
168.8146,420.1
168.8817,101.8
168.8909,20.6
168.9015,1056.7
168.9227,18.3
168.925,26.5
168.949,705.8
168.9535,449.7
169.0201,154
169.0455,308.9
169.0584,50011.5
169.0644,520.1
169.0947,976.6
169.1921,269.2
169.2013,188.7
169.2875,22.8
169.3745,512
169.4078,509.4
169.5351,110.9
169.6173,110.4
169.6571,187.1
169.7085,20.4
169.7874,147.9
169.8165,410.8
169.8984,465.5
169.9208,163.4
169.9918,128.2
170.0274,22.5
170.0304,206.6
170.0324,657.4
170.0618,547.3
170.0841,123.4
170.0868,293.2
170.0924,10451.2
170.0971,124.7
170.1494,19.7
170.1527,134.3
170.1607,751.1
170.1748,457.3
170.2005,514.6
170.2731,153
170.2736,165.5
170.2748,100
170.3504,722.1
170.4095,206.8
170.4204,124.7
170.4488,109.4
170.4625,109
170.4981,538.5
170.5188,22.7
170.6765,120.3
170.7061,96.1
170.7524,196.4
170.7919,649.4
170.8405,94.8
170.8448,156.2
170.8544,3279.8
170.9146,167.1
170.9453,363.1
170.9847,503.8
171.0168,620.8
171.0279,146.2
171.0461,534.7
171.053,1054.5
171.0743,160.8
171.109,605.6
171.1674,776.6
171.1774,474.7
171.212,430.8
171.255,537.3
171.3111,100.9
171.3138,390.3
171.3382,484.2
171.3723,115.9
171.4075,818.3
171.415,427.1
171.4834,122.8
171.5328,18
171.6109,278.4
171.6414,315.5
171.6723,112.5
171.6834,314.9
171.7256,450.1
171.8381,211.9
171.8683,706.9
171.9194,133.7
172.0022,483.6
172.0301,185.4
172.034,155.3
172.051,171.1
172.1406,188.4
172.2758,650.4
172.2874,169.5
172.3283,18.3
172.4347,889.2
172.4917,120.9
172.6154,246.7
172.708,498.3
172.7786,263.9
172.7875,112.6
172.7926,202.2
172.8002,301.2
172.843,18.7
172.8514,2547.7
172.8567,290.8
172.8874,210.4
172.8994,57
172.9082,259
172.9114,112.2
172.9167,226.6
172.9374,174.2
172.9594,560.3
173.016,778.8
173.0268,195.7
173.0296,370.3
173.0344,119.8
173.0502,337.6
173.0968,215.7
173.1542,79.1
173.1682,192.9
173.2078,184.8
173.311,321.6
173.362,206.7
173.4916,115.8
173.5463,136.3
173.5496,174.9
173.5891,138.6
173.7604,137.4
173.7649,487.1
173.8289,22
173.8453,161.1
173.8699,172.7
173.8725,116.7
173.9346,106
173.9563,98.8
173.9709,263.4
173.982,20.8
173.9986,94.4
174.0009,27.8
174.058,491.5
174.0952,447.3
174.0975,417.6
174.1343,257
174.1974,212.2
174.2263,179.7
174.3032,238.9
174.3348,374.8
174.3593,124.7
174.3665,116.3
174.3894,120.2
174.4315,118.1
174.4786,325.5
174.4876,242
174.5036,103
174.5449,485.3
174.5735,311.4
174.633,122.4
174.8067,198
174.8265,231.5
174.8285,251.5
174.838,131.6
174.8421,282.5
174.8498,443.8
174.8711,192.4
174.899,29.6
174.9003,35.3
174.938,6998.6
174.9651,194.4
174.9749,449.2
175.0014,337.4
175.0196,19.7
175.0342,5390.1
175.0454,2802.8
175.0578,743.8
175.119,63253.4
175.1439,331.4
175.1796,122.7
175.1821,112.4
175.1919,600.8
175.2527,674.4
175.2835,295.4
175.3141,177.3
175.3372,499.8
175.3618,157.8
175.3789,186.8
175.4,155.3
175.4215,382.5
175.4257,155.8
175.4491,555.3
175.5829,123.9
175.6726,129.3
175.6792,95.8
175.6814,292.7
175.7133,328.6
175.7876,95.2
175.7937,475.5
175.8081,385.6
175.9587,291.2
176.0005,86.4
176.0085,8576.9
176.0296,415.2
176.0439,755.9
176.0522,447.4
176.0659,19617.7
176.0696,22.9
176.0874,590.1
176.1034,802.9
176.2354,223.3
176.2707,117
176.4277,19
176.6059,106.3
176.6672,817.1
176.7608,341.6
176.8324,328.8
176.8866,395.9
176.894,1381.2
176.9315,184.3
176.9463,517.3
176.9835,18.4
176.9924,1155.2
177.0115,300.8
177.0247,2957.8
177.0612,4206.2
177.0933,148.4
177.1968,700.4
177.2662,250
177.2752,171.7
177.2946,97.3
177.3141,195.8
177.3959,485.3
177.4084,97.2
177.4154,229.2
177.4761,165.1
177.4902,483.2
177.5052,406.1
177.5367,117.6
177.7145,130.1
177.7461,16.8
177.7851,188.7
177.8539,261.1
177.8886,189.4
177.894,71.3
177.9713,158.6
177.9911,22.4
178.0088,8592.1
178.0241,11468.6
178.0586,3176.3
178.0685,229.2
178.0749,753.8
178.1416,126.5
178.1443,94.5
178.1469,192.3
178.1618,360.5
178.1694,17.8
178.3064,495.1
178.4013,95.3
178.4181,419.3
178.4572,113.1
178.4659,236.1
178.4901,353
178.5238,187.8
178.5773,340.4
178.6212,385.3
178.6548,618.8
178.658,527.3
178.7135,466.3
178.7517,83.2
178.8272,236.2
178.9191,113.4
178.9723,314.7
179.0029,112.4
179.131,421.1
179.1356,279.2
179.1963,160.3
179.2049,18.2
179.2326,504.8
179.3919,105.7
179.4071,518.6
179.4357,190.7
179.4988,195.7
179.5122,127
179.5606,103.4
179.607,24.7
179.64,457.2
179.7436,158
179.7911,743
179.7976,191.5
179.8252,103.5
179.9646,107.9
180.0035,8481.5
180.0109,54
180.0826,22.8
180.1006,325.5
180.2645,340.5
180.324,919.8
180.3944,193.2
180.4261,101.4
180.4978,204.4
180.5821,16.7
180.7241,296.2
180.742,18.3
180.8096,543.1
180.8349,19.9
180.8882,667.5
180.8946,1407.8
180.9041,3811.4
180.9574,1371.8
180.9626,469.7
181.016,23
181.047,95.9
181.0649,5357.3
181.1373,103.9
181.1525,106.3
181.1637,253.1
181.2147,297.8
181.3157,414.6
181.3253,323.9
181.4165,377.2
181.4969,687.5
181.5188,114.6
181.5896,540.4
181.6517,509.4
181.6809,277.4
181.7123,354.8
181.8705,742.8
181.9056,132.7
181.9203,193.1
181.9416,175.9
181.9514,105.5
181.9619,381.8
181.9749,107.1
182.011,46.3
182.0162,286.3
182.0198,291.3
182.0243,696.8
182.0425,27323.7
182.0945,519
182.1412,20.1
182.1444,20.4
182.2021,214.8
182.2329,117.2
182.2556,360.8
182.3147,197.2
182.3754,445.7
182.3885,156.9
182.4175,555
182.4841,218.2
182.5388,118.2
182.6273,476.8
182.7153,297.2
182.7398,16.7
182.7578,370.8
182.8601,439.7
182.8838,87.9
182.9438,138.2
183.0137,17.9
183.0442,234.4
183.0466,219.7
183.0713,411.5
183.0738,488
183.1499,289.9
183.1686,180.4
183.1948,101.4
183.2565,791.1
183.3347,551.7
183.3612,234.3
183.3749,113.9
183.4441,531.1
183.4489,101.1
183.5389,121.3
183.545,698.5
183.5787,501.8
183.6437,110.6
183.6633,335.7
183.7402,458.4
183.7726,19.4
183.7934,158.7
183.8026,243.5
183.8465,512.7
183.9458,388.3
183.9492,267.2
183.9538,385.7
183.9647,598.4
183.9933,92.1
184.0372,1063.4
184.0624,482.6
184.0655,805.7
184.0672,1955.6
184.0734,4512148.5
184.0808,1804.8
184.0854,533.7
184.1096,727.7
184.1373,21.4
184.1623,423.8
184.1821,177.8
184.2037,823.6
184.2806,103.2
184.3353,338.9
184.3716,19.7
184.3884,169.9
184.5426,125.8
184.5523,104.3
184.5564,227.6
184.6498,395.5
184.7117,494
184.7337,275.3
184.7752,124
184.8153,427.2
184.819,17.9
184.8214,427.3
184.9614,169.9
184.9818,127.8
184.9999,472.4
185.0324,64502.7
185.0415,20
185.0575,421.3
185.0704,9855.5
185.0767,208557.1
185.1198,294.7
185.1977,215.2
185.2539,107.2
185.2717,271
185.2841,404.1
185.3272,19.2
185.3305,18.3
185.392,241
185.4253,229.2
185.4327,521.8
185.468,267.6
185.5702,412.9
185.5867,462.6
185.5894,524.7
185.6355,298.6
185.7247,645.8
185.7314,155.7
185.8295,774.5
185.8845,17.2
185.9599,482.1
186.0106,636
186.0361,405.9
186.0776,27716.7
186.1345,481.2
186.1469,124.7
186.2487,391
186.3627,177.8
186.3753,22.3
186.3917,307.9
186.4134,107.4
186.4505,21.7
186.4601,83.2
186.4865,240
186.5157,675.3
186.5566,491.3
186.6509,17.5
186.677,163.6
186.6838,534.6
186.7071,357.6
186.7513,226.4
186.7582,500.6
186.8178,312.4
186.8782,405.9
186.9121,918.7
186.948,239.6
187.0304,1751.2
187.0577,9958.4
187.0713,1567.4
187.0855,174.5
187.1079,555.1
187.1138,408.9
187.2942,93
187.2964,17.4
187.3221,19.6
187.3677,300
187.3804,160.6
187.4654,628
187.47,680.5
187.5079,261.3
187.5184,384.1
187.5206,511.8
187.5291,254.3
187.5426,157
187.573,313
187.6802,18.8
187.8324,870.8
187.8457,162.1
187.8862,71.9
187.9,276.2
187.9039,299.4
188.0392,180.2
188.0547,271.2
188.0713,102.6
188.1219,101.9
188.148,327.9
188.1591,172.4
188.2481,104.5
188.2838,18
188.3034,21.1
188.3755,545.5
188.394,126.5
188.4172,127
188.5321,128.3
188.7118,476
188.7152,826.7
188.7211,122.6
188.7528,293.1
188.8971,21.2
188.9859,282.6
189.021,106.7
189.0611,2614.9
189.0871,12721.7
189.1257,20.3
189.1563,146
189.207,91.6
189.3134,259.4
189.5023,123.4
189.5225,100.3
189.6276,283.6
189.6825,586.9
189.7629,76.1
189.8177,566.3
189.868,74.9
189.9024,53.3
189.9293,19.1
190.0316,29.1
190.0726,186.9
190.1767,311.3
190.2573,318.2
190.384,20.9
190.4656,105.5
190.5024,183.4
190.6999,249.6
190.7146,78.4
190.7528,126.1
190.8121,21.5
190.8362,127.3
190.8727,668.7
190.9121,1786.7
190.9361,307.4
191.0004,131.4
191.0082,6898.6
191.0242,22.2
191.0404,92742
191.0768,15422.4
191.1103,693
191.2349,256
191.2464,100.3
191.2573,317.1
191.2633,168.9
191.2909,112.5
191.3133,316
191.397,18.6
191.4009,138.2
191.4048,146.2
191.4547,182.6
191.4652,289
191.5991,289.1
191.6966,405.1
191.7347,118.7
191.8426,514.3
191.8808,115.7
191.9013,664.1
191.9664,310.2
191.9825,1151.7
191.9927,299.4
192.0032,626.5
192.0111,52.1
192.0399,12898
192.0437,3650.2
192.068,180.1
192.1138,21.6
192.2036,20.9
192.218,302.7
192.2366,127.4
192.2974,804.1
192.3381,19.1
192.3472,421
192.4262,732.2
192.4488,131.6
192.4569,242.8
192.5156,198.9
192.5213,222.9
192.5835,182.7
192.6436,102.6
192.898,567.7
192.9723,280.2
192.9795,815.1
192.9987,1348.5
193.0123,265
193.016,179.5
193.0352,2365.3
193.0928,154.4
193.1147,134.2
193.1725,113.7
193.2286,162.7
193.2681,699.6
193.3499,197.8
193.3729,20.4
193.4344,110.7
193.471,288.8
193.5374,17.1
193.6122,665.4
193.6322,21
193.6358,233.4
193.7675,158
193.7734,475.8
193.7817,132.1
193.817,610.3
193.8326,164
193.896,26.1
193.9437,184.6
193.9785,426.1
193.9983,1622.9
194.0048,873
194.0223,393.2
194.0253,119.1
194.0328,3020.1
194.0363,295.3
194.1064,275.2
194.1153,122.1
194.1246,171.8
194.154,26.7
194.3689,298.4
194.3841,112.5
194.3909,108.7
194.4164,679.7
194.5861,19.9
194.6017,17.9
194.6163,573.4
194.6277,228.1
194.6449,544
194.7153,214.2
194.7293,343.9
194.787,316.9
194.8003,19.8
194.8049,109.9
194.904,139.6
194.9101,403.2
194.917,282.7
194.9919,413.7
195.0126,796.1
195.1581,545.3
195.1665,479.2
195.1737,207.9
195.2493,416.7
195.2977,16.8
195.3392,369.3
195.3601,134.4
195.3699,99.9
195.5367,18.9
195.7452,173.8
195.768,188.4
195.8688,447.4
195.9774,498.8
196.0519,302.4
196.0793,265.8
196.1082,241.3
196.1697,286.2
196.1907,463.7
196.2092,144.3
196.2194,291.3
196.2941,496.9
196.3492,480.5
196.3533,413
196.3738,161.6
196.388,340.2
196.4928,233.3
196.5134,473.9
196.5951,384.4
196.7972,246.5
196.817,76.6
196.8652,4710.9
196.8687,853.9
196.8779,630
196.9326,126.3
197.0125,19.5
197.0298,22.8
197.0624,305
197.0938,108.3
197.1109,192.7
197.1149,120.6
197.1209,18.8
197.1371,261.4
197.1578,438.9
197.1685,215.9
197.173,20.8
197.2149,213.1
197.2567,309.8
197.2738,126.9
197.3902,193.7
197.4144,22
197.5018,227.4
197.517,370.4
197.541,159.8
197.5679,350.9
197.7074,102.2
197.8079,102.6
197.8309,157.2
197.8704,59.5
197.8784,20
197.8907,27.8
197.9139,104.7
197.9255,381.2
197.9435,192.7
197.9607,135.2
197.9734,19.1
198.0089,112.8
198.0135,467.3
198.0634,20
198.085,5723.2
198.0894,347.5
198.1854,5233.3
198.2089,138.4
198.372,105.6
198.4154,327
198.4333,17.7
198.4479,118.3
198.4554,147.6
198.4607,474.1
198.4775,129.5
198.4982,267.3
198.5046,246.3
198.5337,453.7
198.5677,930.5
198.5989,121
198.6346,19.6
198.6417,172.9
198.6715,258.9
198.6845,201
198.7011,19.3
198.8623,4378.7
198.8662,330.6
198.8859,17.3
198.8998,34.6
198.9087,159
198.9738,21.4
198.9981,264.8
199.0167,130.4
199.0363,176.8
199.0449,21.5
199.0692,750.6
199.0754,509.2
199.0793,195.7
199.1667,281.4
199.1887,160.8
199.2082,143.7
199.2749,174.6
199.3986,108.7
199.5314,175.9
199.6725,117.8
199.7375,270.3
199.7869,260.5
199.8218,153.1
199.8427,690.7
199.8526,170.9
199.9467,281
199.9627,445.2
199.9908,28704.7
200.0407,13544.8
200.0536,19.4
200.1053,421.1
200.1256,530.9
200.1834,653.4
200.2746,270.2
200.2762,351.6
200.2937,294.1
200.296,129.6
200.3122,370.2
200.3254,11453.7
200.3764,376.1
200.5932,21.5
200.6244,292.1
200.656,18
200.6586,206.3
200.6779,217.3
200.7609,131.7
200.8593,1697.9
200.8682,588
200.8783,21.1
200.8943,4345.3
200.9568,663.6
200.979,219.6
200.9886,414.6
200.9933,77.5
200.9999,431.8
201.0137,1023.5
201.023,132.6
201.0254,27.3
201.0405,430.1
201.0548,141.9
201.0778,360.6
201.0871,103.7
201.1676,283.6
201.2028,208.3
201.2698,165.8
201.3531,218.9
201.4343,21
201.4643,96.9
201.4915,105.6
201.4968,142.9
201.5456,341.9
201.5671,393
201.5843,524.9
201.5963,167.5
201.8511,119.7
201.8648,682.3
201.8842,308.9
201.8945,270.7
201.9678,283.7
201.9691,191.9
201.9955,34.8
202.013,124.4
202.0164,82.4
202.0306,221.3
202.0508,146.3
202.1301,18.4
202.1628,25.9
202.2602,18.5
202.2865,22.1
202.29,333.5
202.3166,571.6
202.349,159.7
202.3753,351.8
202.4088,134.1
202.4197,146.6
202.4633,563.8
202.5359,22.1
202.5656,177.9
202.5712,714.6
202.5746,530.9
202.6518,758.9
202.6553,4384.2
202.6575,5360.9
202.661,19.8
202.6668,423.2
202.7375,372.8
202.8007,22.3
202.8375,321.4
202.8731,323.1
202.8877,442.7
202.8932,41.6
202.9264,279.6
203.008,238.9
203.0318,4642.8
203.0527,1204559.8
203.0768,8165.2
203.2708,300.9
203.313,310.7
203.3716,19.5
203.4846,109.5
203.5128,116.3
203.5238,226.9
203.8747,351
203.9026,119.3
203.9459,23.1
203.9665,276.3
203.9815,273.2
204.0117,26.6
204.0245,41294.8
204.0318,66.6
204.056,63149.4
204.0809,165.1
204.0866,136.8
204.0912,287.8
204.1595,16.3
204.1712,387.8
204.1865,17.4
204.1916,113.5
204.2151,508.8
204.2522,94.3
204.3115,23.3
204.3753,111.6
204.3955,147.2
204.4117,110.2
204.4257,18.1
204.4652,240.7
204.5037,479.8
204.5082,87.8
204.5805,20.1
204.645,436.1
204.6543,429.2
204.6655,420.1
204.6785,170.2
204.6919,432
204.7995,349.1
204.8888,4548.7
204.9408,665.3
204.9863,396.2
205.0039,444.1
205.0066,408
205.0157,25.5
205.0281,93.9
205.057,9266.6
205.0837,55.8
205.2464,251.7
205.4397,90.6
205.6225,131.7
205.6878,663.5
205.7063,23.1
205.7563,20.7
205.8283,190.8
205.8522,18.3
205.8891,412.1
205.9271,200.2
205.9482,17.9
205.9722,455.1
205.9968,18.9
206.0241,465.9
206.0388,408.3
206.0396,366.9
206.0475,119.9
206.0517,355.4
206.0553,1410.2
206.1151,817.7
206.1253,86.7
206.1668,341.5
206.2572,107.2
206.2975,315.4
206.3076,132
206.429,228.3
206.4526,855.9
206.5065,354.5
206.5612,21.4
206.6132,327.3
206.8587,19.9
206.8878,603
206.894,16007
206.9046,23.8
206.917,188.3
206.9206,274.3
206.9468,159.2
206.9823,3553.1
206.998,30.5
207.0144,70916.5
207.0337,295.1
207.0442,1246.4
207.0508,7922.5
207.2176,411.5
207.2836,234.4
207.2896,244.4
207.341,123.3
207.4339,21.6
207.4394,17.6
207.461,126.2
207.5137,330.8
207.5468,21.1
207.5513,153.3
207.5847,16.5
207.634,134.8
207.6517,599.2
207.7296,369.5
207.7661,193.4
207.8763,596.1
207.9125,20.6
207.9907,1269.5
208.0137,2264.2
208.0179,1008.4
208.0287,522.2
208.0803,115.9
208.1257,18
208.2896,242.3
208.3151,79.4
208.3531,323
208.4678,109.7
208.5689,678.8
208.5788,174
208.6294,313.6
208.7011,158.6
208.7043,443
208.7182,172.9
208.741,199.9
208.8271,179.2
208.8321,108
208.8832,2128.4
208.8911,9074.9
208.9354,633.5
208.961,261
209.0126,2077.4
209.1333,291.9
209.175,429.3
209.3475,17.7
209.4727,348.8
209.4959,301.4
209.498,129
209.5378,125.2
209.5857,198.7
209.6202,77.1
210.6583,434.2
210.7511,17.4
210.7556,219
210.7662,112.2
210.8677,19.7
210.8801,142.5
210.8885,363
210.9109,463.8
210.9318,245.1
210.9591,361.3
210.9788,317.9
210.9902,338.9
211.0573,384.4
211.0593,254.2
211.0603,292.6
211.0691,2367.1
211.1233,283.5
211.1737,114.6
211.2668,21.8
211.3035,249.9
211.3251,11560.3
211.33,21575.4
211.3329,23668.8
211.3406,32725.6
211.3517,350.2
211.3546,21.3
211.39,174.5
211.4739,713.3
211.5778,706.6
211.5926,429.8
211.5972,826.2
211.6185,271.3
211.7221,132.4
211.7656,140.5
211.8335,129.9
211.9242,26
211.9504,111.4
211.967,98.9
211.9868,401.4
212.007,213.9
212.0181,520.8
212.0742,227.7
212.0899,194.5
212.2614,125.4
212.2877,111.8
212.3625,173.4
212.3853,113.7
212.4088,121.8
212.5045,412.5
212.5763,238.6
212.5935,307.9
212.698,448.4
212.7584,277.2
212.8391,3139.5
212.937,118
213.0406,522.9
213.0441,286.9
213.0548,1528
213.0752,633.6
213.1187,75.5
213.1754,216.7
213.1848,116.6
213.2146,235.9
213.2305,110.5
213.331,126.7
213.4165,322
213.4286,238.5
213.4293,225.6
213.48,609.4
213.4961,784.8
213.5189,291.4
213.542,302.1
213.6522,849.5
213.7978,308.4
213.8128,171.2
213.8485,305.1
213.9023,28
213.9347,117.1
213.9622,1508.1
213.9707,388.2
213.9799,100.6
213.9847,249.9
214.059,11899.3
214.0826,209
214.0898,1677.7
214.1361,551.6
214.1568,103.4
214.2033,516.8
214.3506,164.6
214.3582,118.5
214.3657,223.2
214.3751,19.6
214.4228,786.8
214.5245,553.7
214.5606,114.1
214.7596,22.6
214.8362,1589.2
214.8737,455.7
214.8782,208.8
214.91,673.3
214.9168,1197.1
214.9657,53.3
215.0423,105.7
215.0879,395
215.0931,59.4
215.1161,111.9
215.2926,103.8
215.298,193.7
215.3726,137.6
215.393,132.6
215.5093,530.3
215.5219,153.5
215.5622,584.5
215.575,99.3
215.5901,597.7
215.6205,111.1
215.6744,122.5
215.7802,19.7
215.7996,270
215.83,496.5
215.8736,34.4
215.881,113.4
215.9102,27.5
215.9441,319
215.9644,522.5
216.0147,9079.6
216.0493,128
216.1266,819.2
216.1646,115.5
216.1997,109.1
216.2584,97.8
216.2777,325.1
216.3361,187.2
216.4131,814.4
216.4875,111.1
216.5274,254.5
216.548,138.4
216.6058,240
216.7164,23
216.7809,120.3
216.8171,161.3
216.8337,386.8
216.8543,210.5
216.889,193.7
216.9105,25.2
216.9229,38792.5
216.9452,146.8
216.9668,20.1
216.9902,740.3
217.027,164.7
217.0562,203.2
217.1348,190.2
217.1494,116.6
217.2365,20.4
217.2461,372
217.4252,327.1
217.6833,17.3
217.7225,21
217.8891,20.9
217.8972,141.3
217.9459,22.3
217.9943,522.4
218.0002,109.1
218.0124,330
218.0214,459.5
218.1515,46
218.215,116.7
218.3156,116.3
218.3603,322.1
218.3617,317.8
218.3628,232
218.4243,195.4
218.4474,107.9
218.4524,174.7
218.5073,740.9
218.5329,18.1
218.5844,109.6
218.6216,18.6
218.6331,111
218.6447,208.4
218.693,173.7
218.701,312.1
218.8522,19.2
218.8671,669.3
218.9001,117.1
218.9045,2096.2
218.9199,11639.3
218.9563,122.7
218.9912,147.9
219.0179,1071.8
219.0267,1425920.6
219.0315,711.8
219.066,118.4
219.083,4520.6
219.1679,426.7
219.384,85.3
219.5607,106.9
219.5784,389.5
219.5976,143.3
219.6559,19.8
219.6745,154.4
219.8467,388.7
219.8754,30.6
219.9047,191.1
219.9292,112.2
219.9641,126
219.9985,388.3
220.03,78103.4
220.0413,20.4
220.0669,6910.7
220.1263,19.9
220.1674,495.1
220.1869,19.3
220.2895,517
220.3164,306.2
220.34,292.6
220.3791,19.1
220.4256,481
220.4817,977.3
220.4882,133.4
220.5041,117
220.5197,365.1
220.5603,220.3
220.569,142.3
220.5837,893.9
220.605,525.2
220.6517,465.8
220.6895,298.5
220.6904,305.8
220.6918,156.1
220.745,297.6
220.7811,349.9
220.7921,169.8
220.8343,112.1
220.8408,146.7
220.8838,525.4
220.904,36.9
220.9347,618.4
220.9589,132.6
220.9997,365.7
221.0248,85155.4
221.0309,11330.1
221.0511,600
221.0847,616.3
221.0881,140.9
221.1708,36
221.2721,278.3
221.3776,97.7
221.5998,109
221.6314,231.2
221.6392,697.2
221.6515,223.3
221.6691,125
221.6881,166.3
221.7529,367.2
221.7581,109.7
221.8172,453.5
221.8841,27.4
221.8862,21.1
221.9563,123.2
221.9837,1173.2
222.028,1283.2
222.0415,112.8
222.0457,19.3
222.0838,53.8
222.1219,118.6
222.2747,21.8
222.5248,17.9
222.5408,218.7
222.5935,24.9
222.6179,568.6
222.6777,128.9
222.7319,359.6
222.7506,212
222.8149,293.8
222.8234,478
222.8348,136.7
222.868,12966.1
222.8796,493
222.899,513.4
222.9291,16.8
222.954,1964.4
222.9718,726.4
222.9883,8909.7
223.064,52.7
223.1636,187.8
223.2598,121.9
223.2785,325.6
223.2983,103.7
223.4166,135.1
223.4492,211.7
223.5294,115.4
223.5622,409.6
223.5671,125.1
223.6361,246.8
223.7181,21.3
223.7554,281.6
223.7768,242.8
223.7909,310.3
223.8075,253
223.9459,615.4
223.9535,23.2
223.9603,89.6
223.9917,110.7
224.0296,3736.1
224.1478,100.1
224.2429,641.4
224.3165,98.2
224.6174,122.6
224.6364,97.8
224.6506,19.3
224.7144,330.3
224.865,8432.3
224.8711,131.8
224.9152,202.1
224.9271,30.4
224.9738,185.5
224.9805,162.3
224.9863,447.2
225.019,134.1
225.0431,49.2
225.0548,19444.4
225.085,754.4
225.1811,193.1
225.2915,346.1
225.507,120.3
225.5393,248
225.5912,116.5
225.6067,542
225.7097,331.7
225.7142,363
225.7877,20.8
225.8358,24.7
225.9624,196.8
225.9891,18
226.0023,22.1
226.0064,1959.9
226.0167,113.1
226.0243,8253.6
226.0452,3089.3
226.1522,20.7
226.2735,211.9
226.3325,372.3
226.3545,127
226.486,642.7
226.5291,688.8
226.5587,510.3
226.6207,640.9
226.6314,20
226.6402,257.9
226.7728,19.3
226.8447,542
226.8937,52.6
226.9516,38146.7
227.0332,380.2
227.0429,1044.8
227.0503,18.5
227.0792,896.9
227.0864,101.5
227.1127,533.8
227.2018,337.3
227.2173,330.5
227.2471,413.4
227.366,21.2
227.4247,82.1
227.4692,79.6
227.5219,732.4
227.585,157.6
227.6857,90
227.7964,257
227.8374,21.8
227.8713,441.7
227.8812,237
227.9551,622.5
227.9618,165.6
228.0001,901.6
228.0563,1070.2
228.1909,96.6
228.3077,91.8
228.3177,384.5
228.5224,508.8
228.5911,223.1
228.6266,426.6
228.6354,609
228.6397,166.6
228.7234,166
228.7934,19.7
228.8894,153.3
228.9602,141.8
229.0713,577.4
229.0921,568.7
229.102,18.4
229.1599,19.7
229.242,20.3
229.2726,116.7
229.4269,220.7
229.4592,142.3
229.68,360.4
229.7983,129.7
229.8488,336.3
229.8603,157.6
229.868,512.6
229.8836,19.6
229.9404,429.9
229.9571,5076.9
229.9856,262.2
230.0335,138.7
230.0727,241.4
230.1063,431.8
230.2143,22
230.224,20.6
230.2873,152.9
230.3036,139.1
230.3183,240.4
230.394,114.1
230.6043,383
230.6116,22.1
230.7022,743.2
230.7774,308.4
230.8098,582.7
230.8231,131.2
230.8285,283.9
230.8681,291.4
230.8903,240
230.9048,49.6
230.9257,1240.1
230.9604,134.5
230.9908,22.7
231.0034,869.5
231.0651,293.8
231.084,413.6
231.12,399.2
231.1456,138.2
231.2904,691.6
231.3281,113.7
231.3352,21.5
231.4378,231.9
231.4668,152.7
231.7226,799.6
231.7712,171.4
231.815,120.4
231.8795,227
231.9128,113.6
231.9529,122.5
231.9576,273.6
231.9725,28.8
231.9953,151.7
232.0759,194.1
232.0924,457.1
232.1327,165.9
232.154,766.5
232.2105,80.9
232.315,164.6
232.3535,155.3
232.4981,104.5
232.6067,20.2
232.6725,236.9
232.728,126.9
232.7554,96.7
232.7976,148.6
232.8104,121.4
232.83,598
232.8676,19
232.8837,461.1
232.8968,37743.9
232.9202,177
232.9692,1009.1
232.9757,109.6
232.9859,539.2
233.0012,118.2
233.0099,288.7
233.051,7110.8
233.0643,289.7
233.2984,138.5
233.3903,114.3
233.445,155.1
233.4901,173
233.5526,349.9
233.557,249
233.5894,148.8
233.5957,331
233.8046,112.1
233.8275,110.9
233.8837,22.8
233.938,578.7
233.9532,87.1
234.0253,530.9
234.0322,20.9
234.0881,133.4
234.1388,312.9
234.2925,543.9
234.2939,701.2
234.2951,464
234.3766,564.7
234.3919,323.1
234.6397,108.5
234.6607,20.8
234.6715,88.7
234.7696,250.2
234.7984,579.6
234.8851,244.1
234.8937,9833.6
234.8997,279.4
234.9181,125.8
234.9361,237.9
234.9817,4310
235.0119,191.5
235.0568,1880.6
235.0671,797.2
235.0793,102.4
235.0926,7407.7
235.1475,230.3
235.2004,379.7
235.2208,362.1
235.2645,176
235.2845,313.4
235.3774,163.1
235.5606,78.2
235.6168,275.9
235.6806,22
235.7494,96.2
235.7867,94.4
235.8004,19.9
235.8705,41.4
235.8999,29.3
235.936,22.1
235.9681,157.5
236.0065,154.8
236.014,215.6
236.0409,4479.4
236.0718,48920.2
236.096,104.4
236.1584,210.3
236.2593,170
236.3662,387.1
236.3869,290.6
236.5388,351.9
236.5473,508.4
236.5501,18.2
236.6297,458.9
236.6423,436.3
236.6697,251.7
236.7267,544.3
236.7366,291.2
236.8782,552.5
236.9606,76.9
236.9821,1219.9
237.0517,537.8
237.0711,64.6
237.0753,2269.4
237.1594,450.1
237.1688,185.4
237.2768,279.7
237.4637,206.5
237.4844,323.5
237.5184,21.1
237.6239,262
237.678,319.5
237.8358,316.1
237.8733,429.3
237.9488,109
237.9748,189.1
237.9988,148.9
238.0676,631.2
238.0782,44.2
238.2306,195.1
238.2653,85.2
238.6348,249
238.6913,103.8
238.7818,368.5
238.7861,258.7
238.795,79.5
238.7993,121.3
238.8044,472.8
238.8418,4597.6
238.8628,331.2
239.0091,6759.9
239.0379,303.8
239.0473,583
239.0504,214.4
239.0518,179.3
239.0548,421.8
239.0639,787.8
239.067,171.4
239.0707,18.3
239.1074,312.4
239.2848,735.1
239.3297,129.1
239.3685,740.1
239.479,18.7
239.5662,20.6
239.6035,17.2
239.6469,178.1
239.7072,548.8
239.848,93.8
239.9779,55.4
240.0034,1092.3
240.0263,18.7
240.031,587.9
240.1,477.3
240.2174,398.2
240.2961,113.2
240.3862,128.8
240.4487,229.4
240.4692,687.6
240.4784,19.1
240.5299,220.7
240.5771,168.3
240.7063,376.5
240.7235,639.3
240.8186,30.9
240.8389,3026.4
240.9007,307
240.9548,1748.6
240.9676,1200.7
241.0137,398.4
241.1225,295.6
241.2236,393.4
241.2287,458
241.2737,94.5
241.3339,148.1
241.3375,137.5
241.3575,315.1
241.407,154.7
241.4483,108.4
241.5137,606.9
241.5502,114.3
241.6871,240.1
241.6971,112.8
241.7052,337.3
241.7162,160.6
241.9306,19.2
241.9981,1204
242.0193,1559.6
242.0535,243.3
242.1281,339.6
242.2329,119.6
242.2506,246.2
242.2844,99.6
242.3757,230.3
242.4003,540.6
242.4135,120.5
242.4541,269.5
242.5091,443.2
242.5214,21.6
242.6162,189
242.6191,22.1
242.6289,258.7
242.7789,20.2
242.7893,108.8
242.8133,329.5
242.8373,378.8
242.8462,261.2
242.8685,30.6
242.8765,128.2
242.9256,24308.2
242.9565,236.8
243.0064,313.1
243.033,443.5
243.0533,9483
243.0653,8177
243.0823,310.3
243.1695,113.3
243.3307,453.6
243.3646,879.2
243.388,331.5
243.4987,253.6
243.5506,230.1
243.5625,387.7
243.5901,157.4
243.6729,444.3
243.6857,109.1
243.7101,509.3
243.7152,403
243.7409,219.9
243.7893,723.4
243.8138,52.5
243.8282,307.5
243.8366,111.4
243.8763,27.3
243.9021,786.8
243.936,529.6
243.9728,2043.3
244.0073,105.7
244.0127,211
244.0674,139.7
244.0881,104.8
244.1419,163.3
244.1657,127.1
244.4906,22.2
244.6698,142.9
244.7467,217.6
244.7862,264.1
244.8292,64.7
244.8672,223.4
244.8707,3275.1
244.884,96.7
244.8912,527.9
244.897,364
244.9236,947.6
244.9378,155.3
244.9433,234.4
244.976,61.9
245.0327,19
245.0637,113.6
245.0963,327.1
245.181,98.2
245.3457,357
245.3724,394.6
245.4469,19.7
245.4593,996
245.6167,209.2
245.6656,175.2
245.7686,602.3
245.7909,20.5
245.867,95.4
245.892,75.3
245.9733,196.7
245.9887,29.9
246.0016,69
246.0115,301.5
246.0301,674.1
246.245,107.4
246.264,216.4
246.2909,199.1
246.4335,293.7
246.5261,158.5
246.607,175.5
246.6551,147.5
246.7847,381.7
246.8076,186.4
246.8626,2447.8
246.8958,21.5
246.8994,148.7
246.9367,21
246.9516,2805.3
246.971,39.5
247.0373,677.5
247.0506,135.8
247.0667,1258.9
247.0927,4376.1
247.1084,504.6
247.1449,102.6
247.1599,352.8
247.2036,144.3
247.2098,347.7
247.2608,150.8
247.3854,351.8
247.4211,271.3
247.4886,474.6
247.5836,113.3
247.5996,17.9
247.7599,211.6
247.7833,134.8
247.8543,113.3
247.8708,394.2
247.8847,139.5
247.8981,549
247.9237,24
247.9677,389.8
247.9834,653.8
248.0127,325.6
248.0979,123.9
248.1243,10005.1
248.1308,436.6
248.2142,115.6
248.3125,24.1
248.5455,263.5
248.5647,145.1
248.6121,285.4
248.6544,463
248.684,602.7
248.7225,118.7
248.8563,113.2
248.8708,11285.8
248.9007,70.9
248.9154,157.6
248.9486,30.2
248.9759,300.5
248.9995,567.6
249.0164,233.5
249.0301,100.1
249.0481,272.3
249.0612,12308.6
249.148,165.3
249.2521,18.7
249.2706,111.1
249.4757,23.2
249.5022,317.2
249.5777,575.1
249.6554,489.9
249.8865,250.9
249.9072,344.7
249.9439,490.5
249.9517,568.3
249.968,27.8
250.0171,106.2
250.0381,1432.5
250.045,223.1
250.141,333.9
250.2471,111.4
250.3442,171.1
250.4108,130.7
250.4497,460.4
250.4665,19.1
250.4846,174.5
250.5308,576.9
250.7299,18.9
250.8101,222.5
250.8678,2680
250.8938,249.3
250.9204,1147.6
250.9296,297.2
250.9521,114.7
250.9556,2334.8
250.9625,295.2
251.009,308.4
251.016,588.6
251.0314,96
251.1107,179.7
251.2457,114.7
251.3248,189.7
251.3422,180.6
251.3988,123.1
251.4224,105.8
251.4534,474.1
251.4924,118.2
251.5284,284.4
251.5343,111.9
251.7194,127.3
251.7254,117.6
251.7591,279.2
251.7841,375
251.9151,234.1
251.9532,112.3
251.9662,118.4
251.9807,123.7
251.9873,85
252.0368,62.7
252.0457,109191.4
252.0597,166.4
252.0724,139.8
252.1257,139.7
252.1471,174.8
252.1572,126.3
252.2595,496.3
252.2641,289.7
252.3137,335.7
252.3464,227.3
252.3558,354.5
252.3606,93.6
252.6316,374.1
252.6979,174.6
252.871,169.8
252.8954,843.6
252.9106,151.4
252.956,323.4
253.0074,80.3
253.049,4494.5
253.1758,405.7
253.2768,254.5
253.4025,257.4
253.4401,531.6
253.4566,303
253.4916,486.8
253.6108,125.5
253.6428,140.4
253.7103,658.1
253.7246,21.7
253.7993,194.5
253.9748,153
253.9825,74
253.994,18.5
254.0355,150.4
254.0435,2849.5
254.12,310.2
254.2664,509.7
254.3091,104.3
254.3786,21.4
254.4509,563.2
254.526,285.8
254.7069,231.9
254.7671,136.5
254.8161,1203.9
254.8239,6711
254.8557,282.6
254.9862,169.4
255.033,25617.5
255.0382,613.1
255.0479,372.4
255.0717,251.3
255.1365,248.5
255.3322,115.5
255.3898,168.8
255.4857,183.5
255.5499,686.4
255.6954,294.9
255.8259,566.2
255.9086,446.5
255.972,21.2
256.0036,1070.7
256.0539,446.9
256.0581,67.6
256.1542,453.2
256.1964,310.7
256.2591,18.7
256.2819,663.4
256.387,138.5
256.4148,138.4
256.5334,139.5
256.5515,19.7
256.5553,116.2
256.5777,108.4
256.7266,94
256.8128,537.3
256.821,7355.5
256.8428,178.9
256.8629,164.6
256.8747,149.2
256.8865,20.8
256.9165,487.3
256.9285,701.8
256.9763,234.8
256.9911,161.1
256.9988,577.9
257.0222,33.7
257.0487,7092.2
257.0655,1014
257.0746,48934.1
257.0834,484.6
257.1883,189.3
257.2092,319.6
257.4966,138
257.56,121.7
257.6458,549.1
257.6956,119.7
257.8821,187.1
257.899,223.9
257.9044,140.2
257.9123,25.5
257.9286,20.2
257.9522,147.5
257.9886,70.2
257.9993,123.7
258.0156,21.5
258.0298,551.5
258.0706,455.4
258.0744,81.2
258.0781,1133.2
258.1103,18106.5
258.1479,342.5
258.2148,111.3
258.3007,711.1
258.4175,104.5
258.4898,115.6
258.551,96.3
258.7008,168.5
258.7087,325
258.7943,139
258.7995,324
258.8069,307.5
258.8181,3254.3
258.8456,61.2
258.8631,2265.4
258.8995,3851.5
258.9084,348.1
258.9919,122
259.0571,305.8
259.0761,333.7
259.4555,162
259.5429,117.8
259.6423,116.6
259.7298,471.7
259.7786,104.2
259.8161,21.3
259.8634,29.3
259.8702,102
259.9077,38.1
259.9871,180.8
260.0527,521.4
260.0592,350.7
260.0863,113.1
260.1801,178.6
260.5089,18.2
260.7082,587
260.8149,516.9
260.8449,1697.1
260.8788,112.9
260.891,318.5
260.9075,238.8
260.9491,5203.5
260.9865,456
261.036,163.9
261.046,443.9
261.0581,104.2
261.1279,318.3
261.1294,338.8
261.1596,508.8
261.17,253.2
261.383,131.8
261.539,201.4
261.5726,319
261.5807,320.2
261.5863,157.1
261.7234,678.5
261.8868,941.8
261.8926,551.3
261.9027,432.8
261.9136,254.2
261.9835,110.2
262.0643,19.5
262.0817,1567.1
262.2265,113.3
262.2318,472.3
262.246,171.7
262.3534,505.1
262.4254,779.7
262.4503,121.4
262.5123,94.4
262.5761,23.6
262.5976,18.9
262.8401,188.9
262.8532,634.1
262.8778,62
262.8945,84.5
262.9243,175.8
262.9308,24.5
262.9458,314
263.085,569.4
263.1009,102.6
263.1883,439.7
263.2227,134.2
263.2374,117.2
263.3326,94.7
263.3736,306.8
263.4492,414.1
263.485,313
263.4949,744.8
263.7607,493.4
263.7654,202.6
263.78,129.2
263.8106,64.1
263.8399,27.7
263.8655,66.9
263.9026,166.1
263.9681,141.2
264.1054,135.7
264.1253,131.2
264.1332,120
264.1754,322.6
264.1827,352.9
264.2247,112.2
264.2548,769.4
264.3017,16.9
264.393,197.7
264.4066,150.2
264.4852,293.1
264.769,863.1
264.8451,2569.4
264.8527,5964
264.8732,1017.9
264.9098,23.1
264.9334,2058.3
264.9727,363.8
264.9884,13401.3
265.0019,691.5
265.0141,128.3
265.0351,8016.4
265.0475,1968.5
265.0638,238.4
265.101,103.5
265.5167,317.4
265.5316,205.9
265.6143,20
265.6564,101.4
265.6913,195.6
265.6988,476.3
265.707,18.3
265.8318,278.1
265.9577,94.8
265.9784,343
266.082,174.3
266.1563,672
266.1746,126.5
266.18,108.3
266.3421,333.5
266.351,726.7
266.4067,101.8
266.4415,338.3
266.4529,102.1
266.5496,19.2
266.5725,167.9
266.6019,329.2
266.6451,162.4
266.7455,532.2
266.7569,474.4
266.8345,81.6
266.8416,343.3
266.8498,3797.6
266.8944,1588.2
266.9308,368.1
266.9429,20.2
266.9495,577.8
266.9584,28.1
267.1282,287.5
267.6473,1371.8
267.6816,113.8
267.7269,209.5
267.7585,766.1
267.7761,135.1
267.8012,134.1
267.8783,376.3
267.9143,368.1
267.9739,127.6
267.979,1064.7
267.9941,695
268.0086,39.9
268.0243,483
268.0294,399.2
268.1177,185.6
268.2304,746.6
268.4097,207.5
268.4142,282
268.4182,171.5
268.6112,263.5
268.6415,356.1
268.7367,242.4
268.7456,343.5
268.7632,159.1
268.8302,54.4
268.8468,438.1
268.8546,157.7
268.8906,614.7
268.9788,224.9
268.9972,45.6
269.0284,426.8
269.036,122.8
269.0487,38784.2
269.0749,317.5
269.1311,447.6
269.152,16.3
269.1889,347.4
269.1922,803.8
269.2652,133.1
269.3212,225.8
269.3364,506.1
269.4324,18.3
269.5067,849.9
269.5402,292.7
269.8216,319.6
269.9295,297.5
269.9443,335.9
269.9521,375.7
269.9897,447.2
269.994,1488.4
270.002,554.1
270.0098,70.8
270.0249,9806.1
270.0304,29.3
270.0473,18853.6
270.0648,18.2
270.0723,616
270.0875,137.4
270.1451,836.5
270.248,548
270.6494,252.9
270.7979,4041.4
270.8292,25.2
270.8925,224.6
270.9219,315.6
270.9603,32.7
270.9781,8832.2
270.9968,655
271.0073,147
271.0141,18.8
271.0282,692.5
271.0375,126.7
271.0507,148.4
271.0648,191.6
271.078,363.6
271.0902,3145.1
271.2005,507.2
271.213,97.2
271.3221,16.6
271.3866,523.8
271.5412,290.6
271.5538,202.7
271.5873,249
271.6392,98.6
271.7014,95.7
271.7271,121.2
271.9077,108.8
271.9435,137.1
271.9814,670.4
271.9935,392.5
272.0052,21.9
272.0207,291.6
272.0433,22.7
272.056,810.2
272.0806,225
272.1224,74.6
272.1839,465.4
272.3839,421.2
272.3946,361.7
272.4104,166.7
272.4192,548.6
272.508,114
272.5362,334.9
272.6739,21.3
272.6857,24.3
272.7623,457.3
272.7949,5085.1
272.8241,895.8
272.8815,718.5
272.9395,97.3
272.9446,718.1
273.0485,3896.3
273.1762,241.3
273.2258,310.2
273.2615,534
273.4425,312.4
273.4773,450.3
273.5601,792.8
273.6636,477.6
273.6847,444.4
273.7167,108
273.7217,429.8
273.8823,203.4
273.8965,556
273.9626,19059.4
274.04,440.6
274.0694,116.7
274.0924,1851.6
274.1166,167.5
274.1825,19.4
274.2211,99.1
274.2487,464.3
274.2526,20
274.2663,235.7
274.3275,309.2
274.3626,109.1
274.3918,82.7
274.3962,302.4
274.5058,794.9
274.5164,527.3
274.6367,119
274.689,766.6
274.7759,154
274.792,3202.6
274.8029,80.9
274.8219,23.3
274.8289,18.1
274.8689,42.6
274.878,21.5
274.8816,408.4
274.8886,311.1
274.9382,624.3
274.966,79.8
275.1192,19.1
275.1255,197.9
275.154,344.5
275.195,19.6
275.2663,767.1
275.276,427.8
275.4346,131.3
275.5862,97.1
275.7111,571.1
275.7763,443.5
275.8659,204.6
275.8855,21.2
275.9037,23.2
275.9484,116.8
275.9615,20.2
276.0036,42.6
276.0852,87.8
276.1501,468.1
276.2516,133.5
276.4067,103.8
276.6153,303
276.6541,140.7
276.7108,461.9
276.7382,582.2
276.7553,223.7
276.7961,111.9
276.8189,364.4
276.862,16.7
276.8737,722.3
276.8926,19.1
276.9127,244.5
276.9232,4684.3
277.0527,20.1
277.106,842.6
277.1136,331.2
277.1644,448.4
277.1826,148.8
277.3283,114.1
277.4129,344.9
277.4245,450.9
277.4528,282.3
277.6567,688.9
277.6868,700.7
277.6935,534.5
277.699,500.1
277.8,110.3
277.8745,78.1
277.881,211
277.9193,23.7
278.0026,799.9
278.0189,459.6
278.0226,967.1
278.1292,18.4
278.1898,140.8
278.3509,90.9
278.38,750.3
278.4003,426.9
278.4686,447.3
278.4702,452.8
278.4722,413.5
278.4811,111.2
278.5012,837.6
278.5125,96.8
278.5336,303
278.6905,171.8
278.7161,320.2
278.817,114.1
278.8889,404.9
278.9201,814.4
278.9871,880.6
278.9966,203.9
279.0042,1821.9
279.0259,536.2
279.0566,35117.1
279.0701,602.1
279.2034,280.5
279.2386,359.6
279.3277,549.5
279.3814,460.2
279.4067,330.2
279.4388,21.9
279.5152,386.5
279.6113,428.6
279.8729,122.7
279.8813,261.5
279.8929,821
279.9574,529.4
279.9824,176.9
280.0071,88.6
280.0119,464.8
280.016,194.6
280.028,318.9
280.0331,17.3
280.0593,272.9
280.0727,104.4
280.0927,336.4
280.172,73.6
280.3625,576.6
280.5919,99.6
280.7168,127.7
280.7764,22.4
280.8134,51.5
280.8218,834.4
280.8268,998
280.8509,22.9
280.8787,417
280.9433,19.7
280.9626,1111
281.0095,1914.6
281.0515,813.1
281.3674,135.7
281.7988,23
281.8216,20.9
281.8708,327.9
281.9296,21.1
281.9688,140.7
281.979,19
282.0148,114.4
282.0513,101.2
282.0648,300.4
282.0765,259.2
282.0853,123.3
282.1039,119.7
282.1379,63.6
282.1495,200
282.1873,18.9
282.2489,226
282.3166,873.5
282.4907,100.8
282.5082,120.8
282.6218,335.8
282.6917,722.8
282.8089,67.8
282.8237,3839.8
282.8435,368.6
282.8611,20.9
282.8683,426
283.0084,204.8
283.0169,21.6
283.0279,1215.6
283.0687,23.7
283.1201,17.6
283.1597,19.5
283.1742,296.3
283.2294,127.7
283.2633,22.8
283.2874,369.8
283.5063,468.1
283.7195,19.1
283.8168,38.2
283.8265,1010.6
283.8681,163.8
283.9896,55.1
284.0045,32
284.0198,415.8
284.0242,54.5
284.0536,26.1
284.0636,328.7
284.2474,195.7
284.2953,81.4
284.3444,142.7
284.5832,23.1
284.6698,751
284.7703,234.2
284.8377,943.7
284.9418,278.8
285.023,1431
285.0669,19.9
285.1,219
285.1724,86.8
285.2457,18.8
285.278,103.6
285.3238,173.8
285.3361,307.1
285.3626,191.6
285.4082,486.4
285.7751,544.8
285.8238,465.3
285.8759,506.1
285.8871,172.3
285.9681,805.9
285.9772,325.2
285.9889,713.4
286.0199,2550.2
286.0965,27.4
286.1076,108.9
286.2028,177.5
286.3034,319.2
286.3263,192.2
286.3802,120.4
286.4136,23.9
286.4531,425.6
286.4664,696.1
286.4835,551.7
286.5074,124.8
286.6144,274.8
286.7721,2196.5
286.8034,243.6
286.8245,305.2
286.8406,28.7
286.8572,236.5
286.9132,516
286.943,352.4
286.9519,5005.1
287.0232,165.3
287.0554,25450.2
287.101,433.3
287.1651,449.1
287.1783,19.4
287.2282,809.4
287.3931,24
287.5913,247.4
287.811,302.2
287.8214,311.6
287.8426,18.8
287.8463,342.4
287.8509,954.4
287.8709,410.8
287.9305,524.5
287.9491,27.8
288.0156,46.2
288.0353,71
288.0586,467.8
288.0852,28.5
288.0953,848.7
288.1556,12148.8
288.1752,244.1
288.188,155.2
288.2935,122.2
288.3211,117.2
288.3551,586.3
288.3665,21.7
288.3797,217.8
288.4132,183.3
288.4885,350.7
288.7688,3911.3
288.811,21
288.819,77.9
288.8301,198.4
288.8581,186.3
288.8619,443.2
288.8709,546
288.8885,5256.2
288.8943,7418.4
288.8993,11362.9
288.906,11586.6
288.9113,14223.4
288.9155,14354.3
288.9211,16415.7
288.9306,19580.1
288.9375,18159.3
288.9446,16342.9
288.953,16756.3
288.9593,11919.9
288.9661,13705.8
288.9714,9133.2
288.9753,6625.8
288.982,6694.6
288.9846,6660.8
288.9881,5327.4
288.9984,2339.2
289.0123,656.4
289.0188,158.2
289.0501,19.8
289.061,18.1
289.103,104.7
289.1078,105.3
289.1591,551.7
289.2651,20.8
289.5874,784.7
289.6269,559.3
289.6375,393.1
289.6754,126.1
289.7287,155.4
289.8278,24.3
289.8815,47.6
289.9196,18.9
289.9365,3357.1
290.0097,108
290.1009,31.7
290.175,734.7
290.2665,157.6
290.4739,452.4
290.4868,444.3
290.6951,17.2
290.766,1751.3
290.7978,92.2
290.8356,295.8
290.8895,326.6
290.9256,22.5
291.0122,84.7
291.0266,1578
291.1415,494.5
291.1878,84.7
291.1938,553.5
291.2203,161.2
291.3678,322.6
291.4269,291.8
291.5332,147.5
291.7059,138.6
291.7889,23.7
291.8057,137.1
291.8603,400.9
291.9111,294.7
291.9322,327
291.9738,363.7
292.0799,46.9
292.2915,184.8
292.6142,108.5
292.8976,1091
293.0297,708.2
293.0723,1979.8
293.0983,202334.8
293.149,524.1
293.1699,249.6
293.179,982.9
293.2299,22.3
293.2503,26.9
293.3014,19.1
293.3614,189
293.4222,216.1
293.4825,276.7
293.7042,121.8
293.8371,18
293.8866,354.4
293.9134,113.9
293.9416,410.7
293.9897,233
294.0111,185.6
294.1017,18039.3
294.1113,94.1
294.2085,123.9
294.218,302.2
294.3475,117
294.3555,652.5
294.406,805.7
294.4791,622.8
294.5967,274.6
294.6664,23.1
294.7831,122.7
294.8295,209.3
294.8843,310.2
294.9124,21.3
294.9905,180.2
295.0305,1293.4
295.1029,855.9
295.1947,22601.5
295.3506,510.5
295.3978,18.9
295.5,177.1
295.5293,113.2
295.5528,196.4
295.874,459.1
295.9065,190.4
295.9244,177.4
295.9323,457.1
295.9408,205.4
295.9744,310.4
296.0737,381.3
296.1043,281.1
296.122,769.8
296.1975,929.7
296.2548,18.8
296.3479,202.9
296.54,319.3
296.712,169.1
296.7268,119.3
296.801,410
296.8132,528.7
296.8247,53.3
296.8434,18.5
296.8532,254
296.8621,616.8
296.9363,132.8
296.9875,57.8
296.9953,199.4
297.0856,502
297.1264,203.3
297.1424,466.9
297.174,22.2
297.1914,185
297.4901,381.8
297.5324,215.1
297.5984,475.2
297.6823,856.8
297.77,485.4
297.8281,77.4
297.9477,270.1
298.0088,23.9
298.0248,1185.9
298.0424,10860.3
298.0515,20
298.1459,553.2
298.166,116.7
298.1806,866.5
298.2181,128.4
298.3931,112.5
298.407,19.7
298.5582,299.5
298.7098,241.2
298.7544,20.9
298.823,21.5
298.8434,183.1
298.925,339.4
298.9864,51
299.0227,1134.6
299.0457,503.4
299.062,56
299.0752,158.7
299.1394,1853.5
299.147,454.5
299.176,372.5
299.1954,543.9
299.2905,395.8
299.3059,123.4
299.4271,442.8
299.4952,111.5
299.5803,363.4
299.6241,535.9
299.6576,164.5
299.7032,214.1
299.7729,125.6
299.8655,126.7
300.0042,1329
300.0354,647.4
300.0756,298.5
300.1963,39.6
300.2402,207.3
300.2461,517.9
300.4838,349.5
300.4971,323.6
300.7496,163.3
300.8193,298.8
300.9166,463.9
300.984,462.3
301.0116,24.5
301.0386,20914.2
301.0596,340
301.1073,229.7
301.1413,381.3
301.1478,188.5
301.2118,2826.1
301.2859,603.9
301.4385,571.5
301.4612,21.7
301.534,417.8
301.5943,115.1
301.6105,190.3
301.6794,276.9
301.7457,19.5
301.8193,45.1
301.8271,217.8
301.8414,271.1
301.8934,119.1
301.9045,1647.7
301.994,9200.6
302.0197,504.3
302.0302,143.2
302.0512,110.8
302.0642,3203.9
302.1498,16.3
302.383,316.6
302.4221,227.4
302.4367,302.6
302.6889,171
302.7004,365.1
302.7222,154.2
302.7306,438.2
302.7456,342.2
302.7526,194.5
302.8155,336
302.8294,383.8
302.8531,117.1
302.8819,93.3
302.9257,681.2
303.0675,297.5
303.0743,460.3
303.1893,277.6
303.217,1378.6
303.2256,18.5
303.2719,482.3
303.2806,317.6
303.3163,248.8
303.3253,659.6
303.4972,593.5
303.5227,409.9
303.5419,286.8
303.616,861.3
303.6797,19.5
303.8977,82
303.9859,177
304.01,408.2
304.0199,99.4
304.0596,104
304.0914,622.9
304.1279,19.6
304.3371,345.1
304.3689,486.4
304.5477,104.8
304.6165,162.2
304.6816,209.7
304.7431,839.1
304.7896,149.6
304.8083,340.2
304.8139,585.5
304.8666,132.2
304.8788,91.8
304.8992,153.1
304.9054,46
304.9165,198.1
304.9516,218.2
304.9758,393.7
304.9931,795.3
305.0454,108.7
305.2333,1623.9
305.245,354.2
305.3368,297.8
305.4634,162.7
305.4833,475
305.5116,115.5
305.619,755.5
305.6417,123.2
305.8142,61.1
305.9265,116.9
306.0953,61.7
306.3942,230
306.5173,780.5
306.5933,164
306.6745,108.8
306.709,114.8
306.8257,172.3
306.9573,517
306.9772,1358.7
306.9853,20.2
307.2328,288.5
307.2644,18.5
307.2812,18.2
307.2933,357.3
307.355,163.7
307.3705,139.6
307.461,328.9
307.4936,17.2
307.6156,96.4
307.6464,161.4
307.7107,249.4
307.8175,239.7
307.8286,119.3
308.0052,25.5
308.1499,176.8
308.327,482.1
308.5438,501.4
308.8081,361.6
308.817,258
308.828,248.6
308.8458,31.4
308.8786,1955.7
308.889,363.4
308.8992,195.7
309.0064,264.1
309.014,231.4
309.0379,1755.5
309.0736,110.7
309.0826,2077.3
309.1511,29.5
309.3875,20.5
309.394,330.4
309.4026,874.2
309.4618,96.1
309.5935,18.9
309.7014,477.6
309.7131,199.8
309.7567,98.1
309.9549,430.2
310.0204,79
310.0527,82.9
310.2678,23.5
310.5362,405.7
310.5959,527.4
310.6416,120.1
310.8038,325.3
310.876,2822.9
310.9592,428.2
311.008,688.8
311.0445,155.6
311.1182,252.9
311.1674,296.7
311.198,109.4
311.2009,106.7
311.2757,119.7
311.3619,208.9
311.5178,262.2
311.7198,590.8
311.8043,39.4
311.8118,26.7
311.8616,215.2
311.9508,112.3
311.9834,687.6
311.9959,106.5
312.0195,98.9
312.0409,1417.9
312.2663,341.3
312.3143,148.2
312.4295,512.5
312.4907,112.3
312.5129,307.8
312.803,716.9
312.8122,471.4
312.8779,17.7
312.9373,253.5
312.9889,400.2
313.007,335.3
313.018,180.7
313.0735,16.8
313.177,514.2
313.1938,309.2
313.274,44726.8
313.3141,17.9
313.4969,386.5
313.5164,583.5
313.6234,81.4
313.8276,121
313.8443,652.3
313.917,312.1
313.9998,543.7
314.0148,3228.3
314.0913,121.6
314.2492,131.9
314.2772,5571.5
314.3737,298.7
314.5116,135.9
314.5345,17
314.5591,503.2
314.5827,333.5
314.6979,266.7
314.709,101.4
314.7982,8455.7
314.8279,35.4
314.8369,4224.1
314.9719,157.5
314.9869,259.2
314.999,4134.1
315.0182,244.2
315.0397,248.2
315.0472,454.4
315.049,441.8
315.0552,6985.5
315.062,3000.8
315.0661,10967.6
315.07,17479.1
315.0802,7565187.5
315.0916,7326.2
315.0942,6031.2
315.0965,5679.3
315.0984,6191.8
315.105,2031.6
315.1107,783.5
315.1155,367.3
315.1198,355.3
315.1213,354.5
315.1613,4083.7
315.2607,195.1
315.3238,6616
315.342,97.8
315.3473,207
315.377,186.6
315.4268,157.5
315.4752,780
315.6237,263.8
315.7984,513.5
315.8061,578.9
315.8354,21.5
315.8436,42.5
315.879,87
315.9602,119.8
316.0014,184.5
316.0103,111.2
316.0154,26.9
316.0533,44.2
316.0674,112.1
316.0774,41784.3
316.0835,785406.5
316.1374,429.5
316.2448,474.4
316.29,21.2
316.3801,122
316.5232,841.1
316.5424,16.8
316.6107,328.5
316.6528,118.5
316.6929,130.3
316.7006,20.2
316.7293,305.2
316.7971,254.4
316.8049,20.2
316.9723,144.5
316.9861,1523.2
317.041,341.8
317.0563,803
317.0649,449.4
317.0841,91210.9
317.1055,193
317.1162,253.5
317.1677,167.7
317.1772,186.2
317.1959,128.3
317.337,437.1
317.4459,484.7
317.4908,186
317.6028,159.4
317.8219,1352.2
317.9676,133.7
317.9859,738.8
318.0094,132.6
318.0762,95.1
318.0875,7393.5
318.2129,181
318.3813,466.7
318.4073,275.6
318.5707,461.1
318.7927,1561.1
318.8039,496.5
318.8224,65.2
318.8298,151.7
318.8928,337.2
318.9017,20.7
318.998,119.8
319.0754,261.4
319.077,257.3
319.1947,38995.3
319.2038,797.2
319.2368,20.8
319.2757,122.7
319.3284,232.3
319.4888,111.7
319.518,106.3
319.7541,406.3
319.7933,79.8
319.7999,29.9
319.8211,29
319.8376,22.6
319.8669,431.1
319.8725,639.8
319.9284,86.6
319.9479,116.4
319.9814,286
320.0069,154.6
320.0748,84.4
320.104,443.1
320.1176,179.7
320.198,4731.8
320.2586,3360.2
320.3891,114.1
320.5336,371.2
320.5649,503
320.5777,556.9
320.6425,109
320.6449,141.3
320.6588,734.6
320.6905,269.1
320.7318,168.2
320.8002,338.9
320.8086,127.8
320.8135,79.4
320.9154,112.5
320.9415,134.7
321.1692,332.4
321.1895,22
321.2104,56383.5
321.2613,650.1
321.3014,19.5
321.41,375.5
321.4292,433.6
321.5796,21.7
321.7257,108.3
321.7618,347.2
321.8165,510.1
321.8691,18.4
321.8733,624.1
321.9899,199.8
322.0071,132.5
322.0623,492
322.2135,6851.1
322.3014,320.1
322.3961,235
322.6656,144
322.7548,19.2
322.7894,100
322.8112,341.6
322.8245,81.2
322.921,309.7
323.0206,9906.5
323.132,345.5
323.136,542.5
323.2154,483.6
323.2258,5891.9
323.3227,383.4
323.608,160
323.6713,320.9
323.7178,530.4
323.7221,742.6
323.8049,18.6
324.0018,8632.3
324.0523,340.7
324.1426,493.1
324.201,20.1
324.2128,402.1
324.2474,471
324.3124,16.2
324.4204,152.8
324.6442,275.4
324.6823,2730.8
324.6937,5984.9
324.7044,1015
324.7124,316.4
324.7648,262.4
324.7817,17.7
324.79,118.6
324.808,523.8
324.8528,1128.1
324.8811,105.6
324.9872,109.7
325.0018,457.1
325.0564,491.1
325.2118,5882.2
325.4483,107.4
325.5291,105.2
325.6771,132.3
325.6844,319.1
325.788,110.4
325.8088,104.5
325.8577,523.6
325.9262,245.1
325.9872,200.6
326.0055,109.8
326.0456,615.4
326.0823,312
326.0888,324.7
326.152,250.4
326.4923,163.1
326.5606,246.5
326.6364,290
326.7237,393.1
326.8192,24.6
326.85,899.5
326.8565,125.2
327.0153,4751.8
327.0311,123.6
327.0517,805.5
327.2155,205.3
327.2273,17158.5
327.3401,121.2
327.3657,484.1
327.4013,98.2
327.4308,132.3
327.5185,111
327.5354,354.1
327.9345,122.3
328.0307,51.6
328.1719,256.2
328.2002,929.1
328.231,1129.5
328.4184,115.2
328.4325,500.7
328.471,513.6
328.4848,101.6
328.4914,103.5
328.4993,320.6
328.5053,640.6
328.5212,20.5
328.5794,132.8
328.6021,20.9
328.6218,96.8
328.644,22.7
328.6655,107.3
328.8145,629.7
328.8468,420.4
328.8717,109.1
328.9973,386.5
329.0956,532.4
329.17,265.9
329.4844,132.2
329.8148,30.8
329.8223,118.9
329.8703,133.8
330.059,98.2
330.0686,28.7
330.1455,301.9
330.2942,759.4
330.3209,174
330.4206,228.7
330.5367,125.3
330.6068,122.2
330.6204,95.4
330.738,238.5
330.7542,376.3
330.7933,55.2
330.8136,226.7
331.0195,910.6
331.0454,74037.5
331.0542,1066394.1
331.1424,210.3
331.3076,441.6
331.3361,148.5
331.3729,379.9
331.6069,293.1
331.6443,19.2
331.8204,21
331.838,223.6
331.9125,367.8
332.0051,923.5
332.0122,176.8
332.0215,207.4
332.048,3004.1
332.0575,98326.4
332.0769,131.2
332.0839,109.1
332.1187,105.7
332.1429,235.9
332.2164,246.6
332.2905,665.3
332.3375,517.9
332.4262,136
332.6163,126.2
332.6846,428.9
332.7119,113
332.8087,2385.1
332.8375,21.1
332.8549,128.2
333.0523,61378.7
333.058,10937.7
333.0898,110.8
333.1515,146.1
333.2316,317.9
333.532,559.7
333.556,197.2
333.5613,137.6
333.572,188.6
333.6911,19.3
333.8104,422
333.8142,417.8
333.8375,101.6
334.0556,4411.2
334.0903,55
334.1702,133.1
334.2831,102.3
334.3478,570.5
334.4695,133.5
334.4831,262.4
334.6041,116.1
334.6087,220.9
334.6542,137.4
334.751,205.3
334.8169,24.3
334.825,175.2
334.8371,19.1
334.9284,127.7
334.979,503.9
335.0205,397.3
335.0563,294.5
335.16,329.2
335.1673,2453.7
335.4155,154.8
335.6105,184.6
335.6902,785.4
335.8324,949.1
336.0082,737.5
336.0161,21.9
336.0254,169.2
336.2803,151.9
336.3353,24.4
336.4272,431.2
336.7239,133
336.7762,156.2
336.8032,63.3
336.8329,72.6
336.8789,380.8
336.9261,140
336.9416,177.7
337.0363,11521.2
337.0497,16623.9
337.0622,514347.5
337.183,1283.9
337.2026,340.7
337.2339,297
337.2741,11111.9
337.5552,114.9
337.7865,150.5
338.0655,47336
338.076,112.4
338.1267,126
338.2199,542.1
338.2375,179.5
338.2581,207.3
338.2761,279.1
338.7389,339.1
338.8723,419.2
338.9206,797.2
339.0385,2003.3
339.0472,192.9
339.0659,2478.1
339.199,55.8
339.251,528.1
339.2896,7370.4
339.5352,75.4
339.5809,19.1
339.7125,394.4
339.8712,179.6
339.9669,367.2
339.9758,1271.1
340.1115,188
340.1779,134.6
340.201,18.3
340.2503,525.9
340.2863,270.1
340.4382,354.4
340.5899,449.3
340.6727,1187.3
340.7129,111.7
340.7645,293.8
340.9405,603.7
341.0023,186.9
341.0187,198.9
341.0495,387
341.1764,246.3
341.1894,487.9
341.2969,802.3
341.3051,7117.9
341.5139,460.6
341.6877,105
341.8307,300.7
341.8393,583.9
341.8454,140.4
341.8639,336.7
341.9019,118.4
341.9576,614.2
341.9746,713.4
341.9892,631.5
342.0152,6362.2
342.0658,533.9
342.0929,606.7
342.117,443.2
342.3085,643.7
342.394,273.5
342.4541,704.2
342.7069,158.5
342.7935,53.9
342.8298,23.7
342.8695,968.8
342.9188,271.5
342.9894,2769.7
343.0175,103.3
343.119,417
343.1947,13776.4
343.2893,109.5
343.3328,158.1
343.7994,21.9
343.9883,637.7
344.0487,468.8
344.0919,231.5
344.1572,93
344.1991,425.9
344.2546,359.2
344.2916,175.5
344.3719,850.4
344.3795,142.9
344.391,17.7
344.5529,118.1
344.7406,456.6
344.7932,23.5
344.8298,18.2
344.8659,874.2
344.9519,842.7
344.9535,904.6
345.0403,236.7
345.2107,1444.9
345.4895,115.5
345.5058,20.3
345.5841,101.2
345.6581,338.9
345.8172,120.6
345.9542,347.4
345.9839,60316.2
346.0096,28.6
346.0206,138.5
346.0405,97.1
346.1282,186.5
346.273,165.2
346.3963,319.2
346.5201,109.6
346.6328,315.3
346.788,263.2
346.8246,341.8
346.8683,197.8
346.9875,1671.2
347.0175,835.2
347.0945,133.9
347.1146,336.3
347.1811,440.2
347.2156,134.9
347.2378,404.7
347.2723,437.6
347.437,112
347.514,372.3
347.6209,114.9
347.8325,29.2
347.8968,545.2
347.9471,305.7
347.9827,142.1
348.0082,524.8
348.0203,129
348.1138,191.6
348.218,298.3
348.6959,211.9
348.8039,141.3
348.8322,25.5
348.8412,27.9
349.018,1297.3
349.172,248.2
349.2581,219.5
349.4236,206.2
349.4667,133.5
349.5324,348.3
349.7776,164.8
349.8112,117.8
349.8486,100.2
349.9851,629.7
350.0114,281.8
350.295,114.9
350.3975,191
350.5264,859.1
350.5634,305.2
350.5995,124
350.8194,28.9
350.8735,165.8
350.9248,85
350.9861,18.1
350.9952,798.1
351.0117,194.9
351.0918,266.1
351.169,20.7
351.3205,121.1
351.3979,998.4
351.6127,344.4
351.6506,23.1
351.7267,20.2
351.7738,282.5
351.8064,92.4
351.8779,311.4
351.986,18.5
352.0103,314.2
352.4215,18.5
352.898,1332.5
353.0272,104373.5
353.0361,210708.8
353.2354,176.6
353.2536,325.5
353.2864,208
353.3054,133.8
353.3314,126
353.5579,20.4
353.6233,320
353.6427,113.7
353.7055,117.9
353.7217,280.8
353.8093,355.9
353.8978,386.4
353.9277,411.9
353.9957,266.5
354.0161,1000.3
354.0304,7215.2
354.0395,19777.4
354.1252,238.8
354.333,397.3
354.3368,490.2
354.3395,424.4
354.4885,25.6
354.8658,662.3
354.895,424.5
355.0117,810.5
355.0344,12519.3
355.0705,1912.6
355.1476,503.2
355.3486,169.2
355.4399,274
355.6212,326.8
355.6703,18.1
355.6838,463.6
355.7663,238.9
355.8015,104.8
355.892,132.8
355.9573,568.5
356.0153,27
356.02,116.7
356.0701,150.3
356.5553,21
356.6364,125.3
356.6751,355.8
356.7218,178.8
356.8106,129.5
357.0079,618.1
357.0667,92
357.1649,107.9
357.182,220.3
357.2657,110.9
357.3227,116.2
357.3482,240.9
357.3675,18.5
357.6604,208.8
357.6733,601.1
357.6926,244.5
357.8003,101
357.9776,1011.2
357.9975,18.8
358.0086,22.1
358.1475,356.9
358.3177,242.9
358.34,19.1
358.4848,134.8
358.4936,201.2
358.6031,609.9
358.7721,294.7
358.8032,553.9
358.8252,32.6
358.8431,806.3
358.91,374.5
358.9736,216.9
358.9792,102.7
359.0075,182.3
359.0316,14249.4
359.0441,340072.3
359.0753,456.9
359.1679,755.1
359.2812,355.8
359.3023,20.6
359.3399,236
359.3665,18.9
359.374,239.9
359.3807,291.5
359.3853,311
359.3937,236.7
359.4035,449.9
359.4082,550.1
359.4149,1190.6
359.4249,519.7
359.4428,681
359.4505,892.9
359.4568,1744.9
359.4661,570
359.4997,24.4
359.5083,160.3
359.6158,96.4
359.7959,1232.1
359.8327,32.6
359.8991,655.2
360.0475,28765.1
360.225,274.2
360.2614,503
360.3238,145.9
360.5106,19.4
360.6053,389.4
360.6877,81.2
360.7279,246
360.7957,35.4
360.8034,53.8
360.8256,26.4
360.8403,202.6
360.8985,107.4
361.0203,4978.6
361.0294,242
361.0483,2774.8
361.1771,195.6
361.2476,173.8
361.2581,845.9
361.2732,130.6
361.6158,250.3
361.8472,19
361.9248,97.9
361.9578,19489.8
362.0717,174.1
362.3747,169.1
362.6629,114.4
362.8198,804
362.8591,16.9
362.9086,883.9
362.919,443
362.9264,839
362.9843,132.1
363.0254,664.5
363.0798,738.9
363.1255,19.4
363.1634,22.6
363.212,120.3
363.3071,457.5
363.3268,349.5
363.5812,196.4
363.6116,873
363.6227,18.4
363.6341,139.3
363.6735,508.3
363.6891,464.9
363.7131,935.9
363.7207,372.8
363.7905,447
363.8088,111.3
363.8247,778.9
363.9569,135.5
363.9974,2410.2
364.0081,688.1
364.0172,418.1
364.0653,162.4
364.3172,435.7
364.3739,181.1
364.7877,107
364.7987,57.8
364.8195,45.5
364.8962,419.9
364.9367,577.1
364.9866,177.1
365.2521,318.7
365.3087,243.7
365.4889,17.7
365.6525,429.3
365.7823,24.2
365.8437,21.1
365.9156,361.3
365.9447,27.4
365.9529,375.8
366.197,406.8
366.7175,19.5
366.7412,824.2
366.8143,256.5
366.8726,397.7
367.0023,101.4
367.0477,340.6
367.1102,20.4
367.1213,3348
367.1946,2295.1
367.6178,121.9
367.6689,119.7
367.843,19.4
367.8494,23.4
367.9918,1736.2
368.0028,502.8
368.2726,514.2
368.366,425.3
368.5532,124.6
368.7557,406
368.8732,883.9
368.9921,2088.7
369.001,13303.1
369.0101,8194.6
369.0714,23.4
369.1104,21.3
369.3335,454.8
369.3528,342.4
369.6288,596.7
369.6655,94.9
369.7731,19.9
369.8239,108.5
369.9411,94.9
369.9729,268.8
370.0432,313
370.252,422.8
370.5922,166.1
370.9072,1090
370.945,109.2
370.9999,2329.8
371.0465,114.1
371.2168,18.9
371.4975,80.4
371.5695,240.8
371.7899,21.5
371.8194,123.1
371.8601,161.3
372.045,297.8
372.1121,310.5
372.1716,128.4
372.4187,113.8
372.5312,282.4
372.8589,81
372.9441,18.8
372.9945,138.2
373.1949,20.2
373.3814,180
373.4483,239.8
373.47,22.8
373.4999,109.7
373.5534,343.7
373.612,497.4
373.6985,255.5
373.8117,663.7
373.9709,28.6
373.9808,481.5
374.031,21.6
374.1059,19.1
374.1809,348.8
374.2014,300.2
374.2095,425.2
374.2388,325.5
374.283,134.1
374.3271,333.5
374.3379,225.5
374.4257,317.8
374.6606,366.8
374.6886,112.1
374.7736,314.8
374.8145,346.6
374.8597,517
374.9425,98.2
374.9545,306.1
375.0092,116823.8
375.0181,111990.3
375.0546,17.6
375.1501,230.6
375.1846,19.8
375.2246,130.8
375.2974,539.6
375.3524,147.8
375.3901,337.2
375.6093,424.2
375.7018,143.6
375.7192,364.7
375.8112,245.6
375.8575,106.3
375.9725,1031.9
375.9808,390.8
376.0123,8432.8
376.0213,8806.1
376.0414,328.6
376.2206,19.8
376.2927,659.6
376.3366,285.8
376.5136,262.7
376.6681,496.3
376.7432,411.1
376.8359,207.2
376.879,20
376.9942,1617.9
377.0027,280.4
377.0165,4527.1
377.0762,412.4
377.5797,192.1
377.6101,17.9
377.6271,22.3
377.7928,528.5
377.8065,1481.8
377.8541,151.2
377.9225,18.4
377.9317,1598.3
378.1678,383.2
378.2302,102.8
378.3121,350.1
378.334,44.5
378.5315,21.1
378.5554,107.8
378.8061,126.8
378.8141,36.2
378.8361,26.8
378.901,848.7
378.9246,470.1
378.938,480.7
379.1886,17.8
379.3871,114.6
379.5743,118.7
379.6877,247.4
379.8083,903.3
379.8188,232.2
379.9468,444.3
380.052,110.1
380.1134,184
380.1568,184.5
380.2525,306.4
380.406,325.2
380.4806,79.6
380.5622,437.1
380.6864,85.2
380.7704,633.1
380.8306,665.7
380.9477,19.8
381.0136,20739.5
381.0261,203861.9
381.049,161.5
381.2287,117.4
381.2631,152.1
381.3245,176.1
381.4438,158.7
381.5392,102.1
381.6972,20.1
381.7688,81.1
381.8301,44.2
381.9729,331.8
382.0293,19017.8
382.1828,528.6
382.2359,134.8
382.4012,106.8
382.4714,217.1
382.4993,282.7
382.7675,1011
382.8458,188
382.851,562.9
382.9684,262.8
382.9873,235.9
383.0107,885
383.0188,205.3
383.0301,391.9
383.1164,172087.2
383.1661,482.9
383.2108,243.6
383.5611,522.6
383.747,18.2
383.8068,25.3
383.8524,20.5
383.8609,167.1
383.8881,180.1
383.9656,2285.3
383.9835,137.7
384.0618,520.3
384.1196,18380.5
384.1326,173.4
384.1729,509.3
384.2289,202.5
384.3822,337.3
384.5529,128.1
384.9735,130.9
384.993,575.4
385.1219,457.5
385.3032,324.5
385.6717,23
385.8582,423.6
385.8661,263.9
385.9792,18380.2
386.0642,107.9
386.1032,202.3
386.3159,430.9
386.5788,565
386.9526,569.3
386.975,415.4
387.0023,1502.1
387.0417,149.6
387.3377,117.3
387.7082,143.3
387.812,24.4
387.8275,95.7
387.891,287.3
387.9642,234
387.9783,712
388.0355,256.7
388.05,19.2
388.0915,291.9
388.1182,248.6
388.307,334
388.3337,158.4
388.693,86.5
388.7126,1234.3
388.7941,157.6
388.8858,178.4
388.9855,519.1
389.0261,376.4
389.236,325.9
389.5346,232.3
389.7688,485.8
389.8072,221
389.8269,21
389.9552,109.5
389.9737,58321
389.9847,248.3
390.0321,178.1
390.1868,365.4
390.3444,398.3
390.6259,168.1
390.7097,584.6
390.7987,1302.5
390.8111,18
390.9007,123.6
390.9146,216.7
390.9215,874.9
390.9421,1270.7
390.9554,459
390.9741,8872.1
390.9829,21325.8
390.992,13789.7
391.2297,20.7
391.4088,409.4
391.5635,21.4
391.5716,559.8
391.5808,332.3
391.8221,307.7
391.9853,134.8
391.9962,194.8
392.0789,221.5
392.2862,402.4
392.6236,457.5
392.6896,508
392.7054,399.1
392.7961,1461.4
392.8871,665.1
392.921,162
392.9589,19.8
392.9691,223.3
392.9819,3724.7
393.2973,22.1
393.3823,508.4
393.4211,84.1
393.4403,438.4
393.7775,25.5
393.8023,27.2
393.8224,29.5
393.8385,31.3
393.9356,25.3
393.9648,235.1
394.0188,98.3
394.3295,23.2
394.7934,359.2
394.8051,474.2
394.9773,291.2
394.9859,305.7
395.489,104.4
395.5168,18.6
395.7595,220.1
395.7994,106.2
395.817,251.5
396.0376,99.3
396.5619,213.4
396.6837,323.8
396.7439,483.8
396.7738,90.3
396.7935,23.2
396.8173,25.2
396.8904,90.5
396.9911,148274.5
397,73183.7
397.0799,336.9
397.1698,198
397.2875,167
397.4837,285.8
397.5758,358.8
397.797,478.7
397.8196,21.5
397.8705,507.9
397.9724,115.2
397.9826,170.5
397.9943,12324
398.0033,3337.5
398.1245,129.5
398.2026,413.2
398.2118,183.5
398.242,1626.4
398.2916,158.1
398.3347,207.6
398.4371,762.4
398.6362,18.2
398.729,191.6
398.7415,1517.7
398.7616,571.5
398.7746,507.4
398.8014,289
398.8098,101
398.9989,1259.7
399.1764,326.6
399.6343,592
399.6814,324
399.9598,194.2
400.0259,101.2
400.2253,109.1
400.2876,99.9
400.3413,164.3
400.3926,20.5
400.519,261
400.6883,355.7
400.7382,938.3
400.7986,110.5
400.984,377.1
401.054,149.7
401.0675,139.8
401.0897,260.2
401.2695,235.4
401.3997,104.3
401.6256,120.8
401.6929,562.1
401.7342,314.4
401.9531,6525.5
402.2957,1212.9
402.7983,347.9
402.8251,365
403.008,240958.8
403.1525,125.9
403.187,294.1
403.2375,21.6
403.5127,283.9
403.7333,289.2
403.823,201.8
403.8628,22
403.9125,289.8
403.942,2212.2
403.952,694.7
403.9998,289.1
404.0114,22090.3
404.1716,222.2
404.3064,414
404.325,191.6
404.5049,341.6
404.6858,327.6
404.7935,4428.5
404.8246,20.3
404.843,18.6
404.8684,137.4
405.0124,1242.6
405.0354,225.6
405.1308,160.8
405.6454,367.6
405.7929,192.3
405.823,358.2
405.9475,38670.5
406.0226,339.9
406.0714,20.5
406.2088,797.6
406.3294,772.1
406.3543,796.1
406.3653,603.9
406.4503,115.8
406.5738,17.5
406.6993,308.5
406.7087,345.8
406.7732,1972.3
406.7938,38.3
406.8545,103.8
406.9244,354.9
406.952,563.4
407.3155,19.8
407.3333,105.6
407.3913,93.9
407.6328,289.2
407.64,20.3
407.8173,8433.3
407.8547,36.2
407.9313,20.6
407.9457,618.8
407.9534,442.3
408.0161,442.8
408.1092,158.1
408.6096,115
408.7699,1799
408.8173,658.4
408.9558,145.7
408.9842,2066.5
409.1355,139.6
409.1756,240.5
409.3086,20.1
409.3245,20.8
409.3823,104.8
409.3902,98.5
409.5444,528.5
409.8167,62
409.901,103
409.9107,819.2
410.1359,19.4
410.1818,530.1
410.3017,22.1
410.5537,346.9
410.6155,135.2
410.7096,496
410.857,1121.4
410.97,19.8
411.1919,421
411.2018,549.7
411.2691,311.9
411.2833,193
411.2958,132.2
411.3139,133.6
411.3829,125.1
411.7925,236.1
411.8275,18.5
411.8479,19.9
411.912,23
411.9266,18.2
412.069,333.1
412.1329,717.6
412.2674,22
412.3212,2708.6
412.4139,328.8
412.5636,820.7
412.6127,119.8
412.6661,264.5
412.7188,552
412.7284,200.1
412.8233,651.5
412.8368,21
412.8532,1177
412.9643,44053.3
412.9738,12686.3
412.9945,105
413.1942,302.4
413.2485,541
413.2665,3074.9
413.3022,216.2
413.3248,222.8
413.5878,113.7
413.7663,99.7
413.8306,248.5
413.8427,291.7
413.9189,428.3
413.9397,72.7
413.9673,698.2
413.9754,349.8
414.1361,666.4
414.2698,237.8
414.6152,150.7
414.716,1432.4
414.7418,126.5
414.7593,767.2
414.9021,104.6
414.9635,2637.7
415.0372,87.4
415.1789,147.7
415.2062,966.6
415.294,98.7
415.3834,572.8
415.523,540.5
415.5545,354
415.6131,223.5
415.8857,123.4
415.9125,23.4
416.053,290
416.0648,435
416.1205,385.7
416.1353,10923
416.2144,19531.5
416.4139,162.3
416.6301,689.4
416.6973,315.2
416.7116,1480.6
416.8047,18.6
416.815,77.3
417.0963,388.5
417.1375,489.4
417.1945,639.6
417.2172,1890.1
417.3963,128.1
417.4539,294
417.4994,242.4
417.5532,19.6
417.5977,266.8
417.8136,277.8
417.927,138.8
418.0419,21.4
418.5477,124.3
418.6661,454.1
418.7339,190
418.7819,105.5
418.7983,598.2
418.8099,2393.9
418.8417,24.4
418.8667,105.1
418.961,253
418.9819,97452.8
419.0282,291.6
419.075,350.4
419.0955,761.3
419.2076,342.9
419.2556,611.1
419.4817,298.4
419.7578,322.3
419.8097,113
419.8386,109.4
419.9657,218.1
419.9854,4908.9
419.9961,637.6
420.0207,309.5
420.0466,19.3
420.0891,411
420.2712,24
420.3268,87.6
420.4556,107
420.8091,144.8
420.8854,840
420.9571,502.1
420.9798,2384.7
421.01,560.7
421.0451,786.8
421.1443,143.4
421.3195,18.8
421.3305,157.4
421.5847,92.3
421.7279,404.2
421.7829,171.1
421.8333,4062.2
421.9215,13002.8
422.1295,278.5
422.4963,223.8
422.7463,894.3
422.7703,359.3
422.8041,1182.5
422.833,551.4
422.924,202.6
422.9551,107.9
423.7675,175.2
423.8042,58.9
423.8326,71.2
424.0922,294.1
424.3006,158.3
424.6313,516.7
424.7295,171.8
424.7434,363.8
424.8355,21.2
424.8906,220.8
424.9133,182.4
425.2344,19
425.4699,115.5
425.8282,578.2
426.3483,180.5
426.5173,124.7
426.8157,123.9
426.8306,803.1
426.8989,24.4
426.9415,39.7
427.1666,364.1
427.2486,240.4
427.3001,485.8
427.4169,765.5
427.6132,193.6
427.7925,444.3
427.8692,330.5
428.0497,585.5
428.1638,783.2
428.3428,860.6
428.6229,99.6
428.7163,316
428.8407,194.2
428.9378,11224.3
429.0213,1254
429.0458,626.4
429.0642,739.4
429.0696,843.7
429.0891,578.3
429.148,21.9
429.3742,478.4
429.4529,123.6
429.4666,122.2
429.7402,741.8
430.0878,133.1
430.199,193.5
430.4092,497
430.4817,147.7
430.688,690.3
430.9011,450.1
430.9143,1032.7
430.9372,298.5
430.947,429.9
431.0859,24.4
431.216,1641.3
431.2248,123.9
431.5463,234.3
431.7649,23.4
431.8191,19.5
431.8936,137.3
432.0661,249.2
432.3228,220.3
432.6691,208.4
432.6823,558
432.8255,230
433.046,134.1
433.1733,104.5
433.2513,21.1
433.3527,374.8
433.7097,107.5
433.8035,473.4
434.0479,149.8
434.0633,116.8
434.0975,530.4
434.2378,331.3
434.2996,19.2
434.3616,127
434.6762,223.1
434.7851,21
434.8723,117.2
434.9559,18939.3
434.9811,175.1
435.2293,265.9
435.3818,369.2
435.7571,23.4
435.8495,231.5
435.9587,1000.4
436.4838,556.3
436.7284,196
436.8201,471.3
436.8484,22.2
436.8598,985.8
436.9522,477.8
437.0022,19.3
437.097,180.5
437.1932,119.2
437.2043,940
437.5585,120.9
437.7815,132.6
437.7984,18.9
437.82,24.4
438.1969,687.4
438.612,104.9
438.7293,22.4
438.7653,409.2
438.8496,696.2
438.8916,110.9
438.9728,765.3
438.9847,3220.1
439.298,826.5
439.4952,137.8
439.5569,123.2
439.6506,119.4
439.8443,272.7
440.0161,101.6
440.3015,513.3
440.4728,247.2
440.7609,21.4
440.8128,342.3
440.9044,127
441.1875,20.3
441.1996,523.9
441.2971,376.2
441.8285,112.7
442.1001,200.6
442.1122,369.9
442.4178,137.3
442.5469,261.5
442.686,479
442.7115,393.1
443.0682,524.6
443.0852,313.8
443.2534,1161.3
443.3904,306.2
443.3997,592.1
443.546,400
443.8385,31.7
443.9775,160.9
444.3572,281.4
444.616,172.9
444.6743,342.5
444.7659,295.2
444.8397,28.3
444.8716,341.7
444.9118,370
445.0291,149.8
445.1571,116.9
445.2694,1145
445.8898,449.4
446.2473,147.2
446.6707,468
446.8571,225.1
446.9423,170
447.6423,253
447.7072,343.7
447.7713,125.6
447.8106,113.8
447.9026,492.6
447.9324,5094.8
448.7455,22.5
448.7566,356.8
448.9124,324.1
448.9327,2100.8
449.0893,166.3
449.1545,2211.6
449.3265,378.2
449.7078,339.1
449.8281,165.9
449.8656,28.6
449.9416,19.1
450.1579,465.6
450.247,126.5
450.5912,23.3
450.6648,423.7
450.8293,20.6
450.8346,23.2
450.8378,22.7
450.9303,791.8
450.9656,104.8
450.977,157.9
451.15,149.1
451.2213,105.4
451.5921,847.5
451.8059,122.1
452.0045,20.8
452.1555,21.4
452.378,354.5
452.4192,499.4
452.4395,21.2
452.8502,111.1
452.889,844.1
452.9442,868.8
453.1734,1607.6
453.3114,389
453.3186,19.1
453.4898,19.1
453.7125,167.5
453.8259,423.3
454.0003,121.5
454.2681,390.4
454.3007,160.6
454.346,482.9
454.3485,469.5
454.3746,352.2
454.703,443.5
454.7693,23.9
454.7839,220
454.9498,36249.7
454.9904,174.8
455.009,821.1
455.0933,22.4
455.2139,159.5
455.3499,325.8
455.4623,107
455.5016,499.6
455.6864,96.8
455.739,20.3
455.9059,102.6
455.9529,844.2
455.9838,212
456.0065,146.3
456.2542,18.1
456.3039,103.3
456.4767,111.4
456.9236,147.5
456.9469,8735.2
457.2326,9009.3
457.3334,747.5
457.4212,128.4
457.4493,24.7
457.5081,554.9
457.5597,19.3
457.8166,20.3
457.9166,17.5
457.9557,282.9
457.9669,79.4
458.0412,21.6
458.0858,82.8
458.1773,512.1
458.1944,132.1
458.4142,490.7
458.6231,23.6
458.6963,554
458.7682,244.7
458.9455,343.1
458.9606,1010.1
459.088,128.3
459.2197,180
459.2485,458825.5
459.3226,358.5
459.4228,128.1
459.5064,220.8
459.5458,218
459.5554,233.9
459.8104,22.8
459.9142,527.4
460.102,84.5
460.1793,172.7
460.2518,96883.6
460.315,81.2
460.4305,390.3
460.7665,24.1
460.8137,21.8
460.8616,19.1
460.9666,73375.2
461.2547,5151.7
461.8118,571.8
461.8249,173.3
461.9001,141.1
461.97,5517.2
462.4366,23.5
462.5018,198.9
462.708,121.9
462.811,454.9
462.9532,326.4
462.9637,18557.8
463.0206,264.2
463.6596,119
463.7894,119.8
463.8071,669.4
463.8445,47.9
463.906,4110.5
463.9671,958.9
464.026,232.7
464.3155,894.7
464.3731,97.3
464.3944,191
464.6037,759.3
464.6617,173.7
464.7156,485.7
464.8081,36.4
464.8719,210.3
464.9788,6776.8
465.1936,96.4
465.3271,562.1
465.3567,682.4
465.3988,566.6
465.6598,25.6
465.672,459.6
465.9003,149.6
465.9816,754
466.2887,20.1
466.5174,545.1
466.7287,501.8
466.7733,159.7
466.9288,112.5
467.0093,226
467.8018,443.1
467.8383,49.7
468.8996,110.7
469.2933,368.7
469.6099,202.7
469.9452,262.5
470.1021,373
470.152,500
470.2311,203.7
470.4179,19.2
470.6743,325.9
470.6932,19.9
470.9236,16172.5
470.9469,19.8
470.9951,2738.1
471.0634,22
471.2487,529.9
471.2836,759
471.3938,445.6
471.8023,239.4
471.928,550.3
472.0709,346.6
472.3073,190.6
472.3705,188.6
472.6363,96.9
472.7133,350.6
472.9211,4255.9
472.9656,525.7
472.9868,112.3
472.9985,317.8
473.0111,727.7
473.0196,133.6
473.0325,164.5
473.0499,19.1
473.1495,160.6
473.1717,453.5
473.2635,3183.1
473.4206,608.9
473.7032,854.2
473.7463,113.7
473.8818,676.7
474.1397,654.4
474.226,752.4
474.514,160.8
474.71,126.7
474.8944,396.7
475.0064,19.3
475.1534,347.1
475.1785,139.7
475.2081,263.2
475.2224,23208.1
475.4462,21.8
475.7356,128.7
475.9,136.4
476.0883,25.3
476.1201,340
476.178,24.2
476.2,220.3
476.2256,3634.5
476.4668,135
476.7123,215.4
476.7562,510.7
476.9406,47944.1
477.12,129.9
477.1578,129.4
477.3156,353.5
477.4988,20.5
477.5979,469.1
477.8231,369.3
477.944,2340.4
477.9604,343
478.0304,406.4
478.1856,132.7
478.2422,530.4
478.2942,122.5
478.3295,51691.3
478.3668,311.1
478.4387,377.8
478.4592,131.6
478.9377,12465.7
479.3327,10423.9
479.8258,26.5
479.8732,121.4
479.9402,505.2
479.9686,20.8
480.2816,361.1
480.3369,528.5
480.3424,554.2
480.346,625.7
480.7166,20.7
480.7528,27.2
480.841,123.5
480.8664,413.2
480.8865,97.1
480.8984,337.5
480.9524,1707.2
481.0317,93.6
481.0571,194.1
481.0918,963.6
481.1036,108.3
481.2322,1230.7
481.4846,434.7
481.6222,789.1
481.772,21.3
481.8175,390.5
481.8509,18.7
481.9717,495.2
482.0951,165.8
482.3102,127.7
482.4349,18.6
482.7011,396.8
482.8925,183.8
482.9038,323.7
483.0479,21.9
483.1486,590.6
483.2484,140533
483.283,85.3
483.4674,124.7
483.7213,20.2
483.98,21.2
484.0937,25.9
484.2346,391.9
484.2517,30446.1
484.3984,192.1
484.5957,507.3
484.7322,20.3
485.0817,125.9
485.0903,24.9
485.1322,553
485.264,119434.2
485.4741,352.3
485.4788,373.1
485.4853,282.4
485.7072,828.1
485.7384,25.4
485.7818,18.6
485.992,23
486.0104,20.1
486.2674,24856.9
486.361,106.2
486.4361,780.4
486.4705,227.9
486.5112,126.7
486.6262,579.4
486.7223,26.1
486.7614,528.2
486.8973,2394.3
486.9692,1404.4
487.1218,122.9
487.2797,118545.2
487.4061,110.2
487.7311,116.7
487.7403,21.1
487.8439,301.9
487.9793,417.4
488.1255,21.6
488.1785,168.8
488.1891,160.6
488.2522,20.5
488.283,27679.3
488.2977,326.7
488.5628,20.1
488.59,112.4
488.606,468
488.8925,477.3
488.949,100.7
489.0758,1039.8
489.0865,52.6
489.098,445
489.1121,131.7
489.1457,593.5
489.165,123.3
489.2086,128
489.2214,648.9
489.2366,564.8
489.2577,251.6
489.2859,623
489.2968,150.9
489.3293,161.1
489.3678,490.8
489.3951,90.1
489.7831,85.5
489.9027,115.8
490.1358,126.6
490.2909,2836.4
490.4715,123
490.7767,412.2
491.084,313.4
491.4801,175
491.6347,111.8
491.7548,492.6
491.8386,31.7
491.8863,337.5
491.9947,138.3
492.1884,333.8
492.2111,22
492.501,128.4
492.5718,170.6
492.6818,325.1
492.7168,19.5
492.7511,385.9
492.8825,115.2
492.9145,7654.3
492.9632,128.8
492.988,304.4
493.2125,556.5
493.714,399.3
493.7344,18.9
493.9591,189.3
494.0829,801.5
494.1409,373.4
494.3245,6146.2
494.3922,20.7
494.6869,132.5
494.7327,425.7
494.763,602.8
494.9117,3151.4
494.9301,224.9
494.9668,352
495.1853,197.2
495.2945,784.7
495.3515,222.1
495.6784,111.2
495.8328,24.3
495.9973,135.1
496.1467,475.1
496.1598,199.1
496.2216,21.7
496.34,417122.8
496.6968,152.6
496.9152,132.4
497.029,326.9
497.3433,103957.4
497.3944,110.9
497.4376,841
497.5265,183.6
497.8279,1079.7
497.9259,283.1
498.1833,243.7
498.2191,812
498.3466,7508
498.3717,92.1
498.6344,432.8
498.9273,524.8
499.0411,360.7
499.0804,282.4
499.1568,158.9
499.2226,6025.8
499.4657,245.9
499.8204,360.1
499.8588,75.8
500.0442,166.7
500.3118,427.6
500.6268,913.7
500.7852,156.4
501.0086,20.5
501.0916,196.9
501.2374,5388.3
501.4845,129.4
501.5512,136
501.7223,233.5
501.7448,18.2
502.2412,1837.3
502.2954,544.8
502.3293,22940.7
502.3585,121.4
502.5219,590.4
502.6927,117
502.739,25.6
503.1077,279
503.1274,204
503.2536,4957.1
503.3328,2504.2
503.804,240.6
503.8526,392.1
503.8776,623.9
504.0033,172
504.1069,48.1
504.2555,526.6
504.3061,3118.4
504.3449,11111.4
504.3769,777.7
504.5531,19.5
504.6129,19.5
504.7052,205.8
504.7398,21.8
504.8635,330.9
504.878,19.4
504.9216,82.5
504.9328,539
505.0161,85.9
505.0861,193.4
505.1048,27
505.35,806.8
505.4292,431.8
505.4763,89.6
505.5258,110.5
505.592,232
505.6678,140.3
505.8674,512.6
505.891,1334.1
506.0131,390.3
506.0674,19.2
506.1168,420.5
506.1803,353.2
506.2603,662.4
506.3603,6979.6
506.7234,137.7
506.7708,26.9
506.8915,3811.5
506.9598,469.4
507.0223,137.6
507.0417,94.8
507.0778,165.8
507.2484,34775.3
507.2698,545.6
507.373,799.7
507.4116,447.3
507.4741,215.5
507.6154,618.2
507.977,100.6
507.9893,112.5
508.2519,8189.5
508.4469,422.7
508.5314,22
508.671,171.2
508.8237,391.6
508.8678,24.1
508.8878,1723.4
508.9404,88
509.0046,1509.3
509.053,179.1
509.2641,11811.1
509.5544,306.2
509.6911,138.4
509.72,26.1
509.8735,231.8
509.904,565.8
510.2674,1543
510.3555,5004.5
510.3705,164.8
510.8273,129.2
510.8866,368.8
510.9517,336.3
511.0227,194.7
511.0404,24.2
511.2441,115
511.2781,1850.8
511.2977,456.2
511.8097,269.4
511.8298,458.8
511.9692,603.4
512.0768,457.3
512.2688,319.4
512.3481,197
512.4468,108.5
512.5716,696.6
512.76,21.2
512.9082,14651.4
513.0283,159.7
513.3461,192.9
513.487,419.1
513.5604,713.2
514.3846,19.6
514.4302,77
514.7212,20.6
514.9054,10733.3
515.4165,680.7
515.5647,128.7
515.7769,507
516.0114,19.3
516.1655,107.5
516.3063,10542.4
516.4763,315.7
516.601,114.1
516.7569,25.9
516.9489,243.6
517.1931,325.8
517.3996,20.4
517.6301,307.4
517.7284,608.7
517.8339,198.9
517.9241,180.2
518.1294,125.6
518.1412,813.2
518.2314,85.4
518.2545,538.4
518.3219,745427.7
518.3366,574.3
518.4053,20.3
518.4415,156.3
518.9252,27860
519.1023,470.8
519.3253,176841
519.7721,186.3
519.7853,561.2
519.8795,106.7
519.928,1939.8
520.1819,627.7
520.1913,121.7
520.2806,406.1
520.3399,122419.3
520.4073,558.3
520.4196,322.2
520.7505,101.5
520.7872,144.6
520.9222,13038.5
521.007,361.1
521.3433,29382.5
521.4554,350
521.8647,516.3
521.9505,186.2
521.9779,880
522.1408,726.3
522.2567,680.2
522.3556,119218.1
522.3937,20.9
522.7651,17.8
522.9087,436
522.9184,1080.4
522.937,4771.2
523.359,29019.3
523.4344,130.4
523.5472,96.7
523.749,322.1
523.8014,133.2
523.8239,310.7
524.1087,1238.2
524.1616,615.7
524.2492,58.1
524.2765,236.1
524.3152,386.4
524.3712,143218.4
524.4853,478.7
524.7277,744.6
524.9337,453.1
524.9761,300
525.1557,22.1
525.2098,296.3
525.2448,666
525.2707,389.6
525.3746,36183.8
525.6953,526
526.2065,264.9
526.3298,3084.8
526.377,1672.1
526.429,548.8
526.4551,18.7
527.085,295.6
527.1359,364.2
527.1918,315.9
527.2157,121.8
527.3377,234.3
527.6406,744.2
527.6497,101.7
527.7927,139.1
527.9425,360.5
528.0448,104
528.119,142.3
528.2231,137.2
528.2692,179.1
528.3446,557.3
528.8822,7892.1
528.9544,1835.1
529.001,488
529.2834,104
529.3496,109
529.4462,125
529.5623,141
529.6027,20.1
529.7072,547.7
529.8534,212.3
530.094,454.6
530.3212,404.1
530.3582,2541.4
530.5243,285.8
530.5477,549.2
530.8108,76.9
530.8786,2901.4
531.1966,218.5
531.2489,2944
531.443,146
531.7683,389.9
531.8167,591.7
531.8519,498.5
532.2468,235.3
532.2806,3881.5
532.3378,10398
532.6169,531.6
532.8041,114.1
532.9654,475.8
533.2836,574.7
533.456,21
533.6676,283.5
534.2959,209818.1
534.3132,328.4
534.3298,296.5
534.3568,654.8
534.5833,280
534.7654,90.8
534.798,402
534.8989,18061.8
535.2427,22.7
535.2534,228
535.2991,52396.2
535.3221,566
535.4012,354.1
535.4317,230.2
535.6356,19.3
535.716,520.2
535.7652,30
535.8098,303.7
535.9029,880.9
536.0016,461.4
536.2941,11978
536.7626,85.7
536.8799,214.2
536.8963,13234.2
537.1175,320.6
537.3505,421.2
537.5058,362.9
537.6564,94.1
537.8111,239.2
537.8416,564.8
537.879,498.7
537.9499,247.4
537.9929,155
538.0734,460
538.1254,460.8
538.8939,1242
538.9109,1780
538.9344,613.5
539.0146,19.6
539.2576,503.2
539.4896,119.3
540.041,128.2
540.1244,292.4
540.1785,168
540.3053,607.5
540.7527,22.2
540.8285,169.6
541.2687,152.8
541.5565,649
541.5802,91
541.7041,548.2
541.7534,545.5
541.8466,98.2
542.1135,334.4
542.1908,367.4
542.2239,141.6
542.3219,203296.7
542.4343,230.8
542.4826,136.8
543.3253,52683.6
543.4101,20.6
543.4762,565.9
543.6586,462.9
543.6905,539.1
543.9401,445.8
544.3377,205516.1
544.8555,566.4
544.9275,825.9
544.9499,478.5
545.0334,363.2
545.0709,106.7
545.2069,495.3
545.3052,395.2
545.3412,54717.7
545.3772,266
545.5377,22.1
545.6445,413.9
545.7439,279
545.913,160.7
546.0314,20.6
546.061,213.8
546.3166,120
546.3532,231843.2
546.4971,194.6
546.5308,129.5
546.7072,209.2
546.8519,402.2
547.2519,164.7
547.3067,131.2
547.3566,59509.9
547.53,255.1
548.0758,270.6
548.312,1473.8
548.3597,6047.1
548.8397,128.2
549.046,174.2
549.1289,20.9
549.5476,225.8
549.6339,123.4
549.7308,291.9
549.8324,452.1
550.0684,368
550.0901,505.9
550.2066,566.8
550.2479,182.8
550.4573,260.3
550.4808,682.4
550.8729,3909.4
551.0503,157.7
551.1038,325
551.1478,228.2
551.1588,283.6
551.2658,166.3
551.3002,127.3
551.359,164.5
551.467,573.3
551.8136,247.2
551.8671,235.9
552.0687,120.3
552.2508,23
552.2946,358.5
552.4441,184.3
552.565,495.1
552.7461,131.1
552.8164,113.4
552.8555,154.5
552.8705,1935.1
553.0497,292.9
553.1096,700.7
553.1133,735.5
553.1198,842.2
554.5432,20.4
554.7762,538.1
554.8663,407.7
554.8932,357.5
554.9278,18.2
555.0048,19.1
555.2746,239.3
555.487,124.5
555.7121,258.4
555.7362,486.5
555.8592,384.6
556.3622,103.9
556.6033,345.6
557.6436,18.5
558.2595,339.6
558.2959,59131.2
558.3528,133.2
558.7011,117.4
558.8465,316.4
558.8989,457.4
559.082,116.8
559.1956,325.5
559.2994,18814
559.3982,201
559.4319,335.2
559.6186,21.4
559.7813,362.8
559.9683,513.2
560.0291,403.1
560.3115,58648.5
560.3347,125.9
560.5787,370.7
560.6262,17.8
560.9148,385.6
561.1916,119.7
561.3151,10456.3
561.4771,825.8
561.6206,196.8
561.8193,359.5
561.9596,234.6
562.0634,103.3
562.1335,896.4
562.1508,22.3
562.23,637.2
562.311,1132
562.3271,56746.2
562.7228,359.9
563.256,418.5
563.3305,11587.6
563.4276,1003.4
563.5515,396.2
563.6638,278
563.7647,20.4
563.9323,244.3
564.2939,399.9
564.3243,425.8
564.3625,294.7
564.4661,322.2
564.603,21
564.7221,359
564.7813,178.5
564.8984,160.5
565.013,442.3
565.1863,112.1
565.2573,22.3
565.4364,567.5
565.567,544.8
565.7499,360.9
565.9196,143.3
566.3219,50281
566.4518,465.6
566.7519,578
566.9636,938.7
567.2586,504.8
567.2777,233
567.3118,120.3
567.3254,10676
567.3455,331.2
567.507,22.5
567.5779,240.6
567.7576,22.1
567.8747,128.9
568.0255,520.7
568.0641,614
568.1096,20.8
568.2602,421.9
568.3375,17050.8
568.7146,342.5
568.7984,20.2
568.8433,455.7
569.0928,228
569.1629,655.4
569.1901,137
569.3413,2516.2
569.8102,521
569.8496,104.2
569.9424,337.1
570.8674,3772.4
571.0333,135.7
571.06,2700.2
571.1683,161.7
571.5793,401.2
571.7238,129
571.8641,97
571.8841,21
572.2882,561.1
572.3376,335.5
572.3724,201.2
572.7718,151.3
572.7865,187.6
572.864,4131.1
573.0698,362.6
573.1887,24.4
573.6551,196.5
573.8941,122.4
574.1948,199.2
574.2846,487.5
574.425,861.3
574.6243,838.4
574.8473,94.1
574.8613,449.6
575.1445,302.3
575.1682,688.4
575.5035,11463.1
575.5745,129.1
576.0828,218.5
576.2802,9662.4
576.5072,705
576.8128,224.3
576.8838,7474
577.2256,463.8
577.2846,1322.3
577.4354,332.5
577.4997,136.3
577.5192,1582.8
577.9049,216.9
578.0372,131.4
578.0618,348.4
578.2321,367.9
578.277,1626.2
578.5239,120.6
578.5683,20.5
578.666,527.8
578.82,386.5
578.8812,7677.8
578.9772,170.5
579.1084,119
579.2551,290.6
579.4396,20
579.6377,586.7
579.8002,241.9
580.1308,687.2
580.481,304.8
580.5648,1076.5
580.8408,18.1
580.878,825.3
580.8957,1183.7
581.0723,507.6
581.1544,118.1
581.2637,136.2
581.4229,116.7
581.5249,819.9
581.93,169.3
581.979,18.6
582.0529,117.1
582.1452,148.7
582.1809,354
582.2168,465.8
582.2302,510.2
582.2542,178.9
582.2733,161.9
582.2961,12894.9
582.3305,417.1
582.3436,465.9
582.3873,268.1
582.5705,151.3
582.651,614.9
582.8936,461
583.0092,118.8
583.1203,149.6
583.2993,4138
583.4895,23.1
583.7058,531.3
583.7438,111.6
583.7667,177
583.9806,384.2
583.9983,23.6
584.1288,629.6
584.3115,2731.4
584.6326,268.2
584.646,20.4
584.665,20.3
584.7226,143.6
584.9522,199.9
585.0294,724.7
585.0897,145.1
585.2087,572.9
585.2716,2812.2
585.6993,23
585.7278,541.3
586.1637,21.9
586.2797,105.4
586.3095,5402.1
586.567,97.2
586.6702,128.1
586.8407,3288
586.9121,1606
587.1988,190.1
587.313,588.1
587.3298,544.2
587.5462,117.1
587.8445,306.6
588.4693,503
588.8133,447.8
588.8384,2330.4
589.1196,735.1
589.1904,267.4
589.3278,20.5
589.3627,566.9
589.4736,347.6
589.9306,196.8
590.0073,19.3
590.3218,5377.6
590.3764,119
590.5272,23.6
590.9143,173.1
590.9286,737.8
591.0662,613.5
591.1161,263.9
591.1751,928.2
591.325,942
591.3583,196.9
591.4317,278.5
591.497,704
591.5977,410.1
591.8548,99.7
592.1232,137.9
592.2541,893.5
592.3155,543.5
592.4165,493.8
592.4382,131.2
592.7461,140
592.7773,429.1
592.8245,20.1
592.8581,6338.4
593.3557,19.8
593.4948,891.2
593.672,491.1
593.9236,483.5
594.0124,21
594.0475,128.4
594.0533,134.4
594.0607,125.9
594.2528,533.1
594.6698,284.9
594.7554,544.7
594.8552,5480.1
595.1216,303.3
595.4753,189.9
595.7713,92.5
595.9501,278.4
596.1887,25.6
596.2243,525.3
596.2523,561.8
596.4567,214.1
596.851,1905.8
596.9598,229.4
596.9899,123.8
597.0614,314.6
597.2212,111.7
597.3575,293.5
597.4498,4912.8
597.4857,15067.1
597.6023,478.4
597.7207,414.7
597.8373,124.2
598.1017,470.3
598.2589,402.8
598.3256,509.9
598.4551,1312.7
598.4877,1310.7
598.695,253.6
598.8452,422.4
599.2369,435.3
599.4406,260.7
599.4683,1088.6
599.5043,4617.7
599.6928,21
599.7665,194.1
599.8059,476.2
599.823,646
599.9159,330.3
600.0723,20.5
600.173,532.1
600.2065,370.6
600.4169,296.2
600.457,268.5
600.4692,236.2
600.8459,482.4
601.4179,736.7
601.4729,264.5
601.5189,1584.9
601.6022,352.8
602.2974,1891
602.6027,364.9
602.8863,534.2
602.9007,360.8
603.4144,96.2
603.5351,504.3
603.7855,164.3
603.9361,600.1
603.974,124.8
604.0157,189.4
604.3121,1105.6
604.3645,467.9
604.5401,352.5
604.8613,99.2
604.9878,445.8
605.0016,131.2
605.516,203.3
605.7614,21.2
606.1842,106.3
606.297,1725
606.5964,635.9
606.649,319.3
606.7395,142.8
606.8083,748.4
607.1404,306.5
607.1708,607.5
607.2425,109.6
607.487,344.1
607.5023,202.4
607.774,342.8
608.0477,408.6
608.1215,639.8
608.1715,138.6
608.2307,521.6
608.7338,141.9
608.8315,1290
609.6023,291.9
609.7095,100.7
609.921,99.7
610.3277,272
610.5279,149.3
610.6264,130.6
610.8289,2598.9
610.9279,464
611.0373,466.8
611.8165,22.8
611.8413,675.8
612.058,143.9
612.3885,323.4
612.8077,151.1
612.8274,810.2
613.4745,124.3
613.5548,211.5
614.0146,18.6
614.0567,25.7
614.2804,219.9
614.5192,224.2
614.8453,405.3
615.8078,129.4
615.8278,200
616.0527,322.2
616.6314,577.9
616.6803,239.6
617.4757,7998.4
617.6822,252.4
617.8394,409.5
618.2866,21.6
618.4506,18.7
618.4777,1993.3
618.7101,598.6
618.7729,21.6
618.9543,594
618.977,91
619.0008,354.4
619.1201,996.2
619.1415,565.9
619.3178,115.8
619.4915,6437.2
619.6586,479.2
619.8389,114.6
620.1535,20
620.2817,87.5
620.4932,2154.2
620.9439,503.6
621.1023,19.8
621.1164,117.9
621.3677,511.6
621.4409,633.9
621.4534,974.4
621.4854,9386.1
621.5143,133.6
621.5224,123
621.6974,44.8
622.3641,245.4
622.3936,338.7
622.4612,953.5
622.4903,1415.4
622.6507,109.4
622.9298,136.3
623.136,8148.3
623.3775,121.8
623.4653,800.1
623.503,624.2
623.8421,184.2
623.9732,194.5
624.1402,406.1
624.2805,705.2
624.4381,592
624.4563,26.4
624.5099,309.7
624.7746,319.5
625.0342,111
625.48,827.5
625.6364,228.3
625.7394,431.6
626.757,138.1
627.2473,19.7
627.3076,714.4
627.5355,344
627.6033,21.5
628.0969,305.9
628.1563,20.2
628.2039,125.1
628.3128,123.2
628.5333,25.9
628.6879,19.8
629.153,18754.1
629.2244,111
629.873,193.3
630.1417,350.7
630.1562,3150.5
630.3974,244.2
630.4274,1045.9
630.5263,20.3
630.6436,572.4
630.9383,424.9
631.3173,626.3
631.3819,119.3
631.394,391.4
631.5197,575.2
632,204.6
632.0589,348.9
632.1225,217.5
632.1971,171.8
632.3482,553.5
633.2075,515.1
633.4427,991.1
633.4654,114.4
633.5505,700.3
633.6222,275.2
633.6975,118.7
634.015,249.6
634.3502,647.3
634.8422,3367.1
635.0686,374.6
635.2006,117.1
635.603,21.5
635.7027,241.8
636.0561,746.2
636.1171,174.5
636.6056,431.6
636.6477,518.5
636.6851,566.1
636.8395,4052.5
636.9108,520
637.0103,357.1
637.4616,401.6
637.7957,184.7
637.9719,321.7
638.3134,194.5
638.3306,155
638.4531,997.2
638.6623,587.9
638.837,1121.1
639.2256,321.6
640.6183,226.5
641.3421,521
641.4861,18.7
641.6112,137.9
641.8076,900.4
641.929,210.3
642.1454,247.2
642.2545,496.7
642.3073,223.7
642.4348,403.1
642.5276,186.5
642.8456,297.4
643.2203,127.6
643.8471,390.4
644.1369,210.4
644.3706,615.3
644.3825,729.2
644.3878,689.7
644.4376,169.4
644.5747,966.6
644.9351,130.1
644.9541,612.4
645.0077,152.3
645.1179,6746.3
645.2064,405.2
645.2514,1061.7
645.3209,458.2
645.4503,392.7
645.4872,615.4
646.1196,716
646.6176,265.6
646.635,144.2
647.0378,340.4
647.0955,282.2
647.1159,134.8
647.3676,20.2
647.4661,1000.1
647.5011,852.6
647.6224,168.2
647.7035,22.1
647.8642,21.8
647.9179,19.9
647.9432,533.7
647.9615,347.5
648.0842,112.1
648.3419,667.5
648.6929,347.6
648.8942,98.6
648.9811,256.6
649.0352,185.1
649.1501,311.6
649.4819,402.1
649.9784,424.8
650.1036,581.3
650.1666,104.1
650.2745,244.5
650.44,2014.9
650.7615,227.4
650.8174,1578.5
651.1349,28129.6
651.184,373.1
651.4277,579.1
651.4924,272.7
651.6941,20.7
651.8942,239.3
651.9344,206.7
651.9622,435
651.975,105.2
652.1384,3666
652.6729,130
652.8136,3270.3
652.8642,128.2
653.1227,425
653.1393,274.1
653.1628,263.9
653.1853,728
653.8572,375.2
654.072,143.1
654.1181,23
654.1444,199.7
654.1714,399.3
654.3062,177.9
654.489,201.4
654.6914,364.4
654.8109,1053.1
655.6385,769.9
655.9961,587.1
656.086,125.1
656.1429,169.7
656.4999,264.7
656.8918,242.4
656.9271,132.4
657.0806,353.6
657.8461,340.8
657.9252,296.1
658.2456,18
658.3699,409
658.4826,116.4
658.9296,1115.2
659.0519,427.9
659.4039,263.5
659.694,954
660.0148,245.7
660.0817,2113.5
660.1785,335.9
660.412,337
660.4449,554
660.6537,240.3
660.8699,390.6
660.9803,312.5
661.0828,3039.6
661.1336,329.1
661.2398,171.8
661.2825,345.8
661.3919,524
661.4525,178.4
661.4668,1652.8
662.1777,310.7
662.2777,861.1
662.4136,679
662.462,501.2
662.5944,76.7
662.8068,252.5
662.9124,416.5
663.1429,354.3
663.2138,551.7
663.4551,396.9
663.5936,306.9
663.8993,453.3
664.1289,114.1
664.2014,552
664.4682,3612.4
664.5882,318.7
664.8645,132.4
665.0124,384
665.644,346.3
665.6846,274.2
665.7512,835.3
666.4021,706.6
666.4482,317.4
666.4836,8996
666.5465,192.3
666.7234,492.5
666.8953,215.6
667.0995,15095
667.2167,243.9
667.3216,110.9
667.4877,2226.6
667.7472,137.6
668.1056,802.4
668.1948,144.7
668.2853,19.4
668.554,112.7
668.5616,149.2
668.7196,285.7
668.8405,782.1
668.9787,393.4
669.0029,363.9
669.1125,130.8
669.1703,20.6
669.4361,191
669.441,222.5
669.5083,514.5
669.5804,150.2
669.8118,342.9
670.3504,393.4
670.4252,746.8
670.4831,18.1
670.7262,153.1
671.2409,427.4
671.6684,23.3
671.6918,168.3
672.0013,465.5
672.1363,193.1
672.2776,21.4
672.4235,2747.7
672.6147,298.8
673.1169,43790
673.6002,658.4
673.7016,689.3
673.7902,340.1
674.1203,6812.1
674.6659,115.3
674.8048,532.7
675.1212,580.1
675.3376,159.4
675.5438,10909.6
675.6199,756.3
676.0224,157.3
676.0472,3600.8
676.5464,1285.7
676.7087,119.1
677.0381,272.4
677.0489,353.3
677.2227,20.7
677.4403,135.8
677.4907,18.1
678.0911,175.3
678.298,539.3
678.35,119.2
678.5826,129.6
678.8202,162.6
678.9836,481.2
679.5234,176.3
680.0772,161.3
680.203,245.3
680.361,372.2
680.4174,138.7
680.4369,685.1
680.4814,19.1
680.8274,551.2
681.573,23.8
681.7806,113.4
681.8231,372.7
682.0644,10924.1
682.6178,173.2
682.6882,379.8
682.7339,518.9
682.9463,204.9
683.0245,123.4
683.0653,2703.9
683.3656,19.1
683.4509,2461.3
683.4732,330.7
683.6091,134.4
683.6593,138.4
683.6856,172.5
683.6962,321.8
683.723,605.5
683.7482,297.3
683.7937,364.8
683.9564,347.3
684.0681,104.6
684.1389,207.4
684.3248,419.5
684.5401,571.1
684.5712,334.7
684.6696,111
685.0787,281.7
685.3492,874.5
685.4359,3759
686.5437,25
686.81,133.7
686.8558,359.9
687.0641,96.6
687.2508,193.1
687.3876,495.8
687.5636,112.5
687.6593,21
687.8061,119.7
687.8851,198.8
687.9563,112.2
688.1122,143.2
688.3063,283.2
688.3672,130.5
688.4111,185.4
688.695,471.4
688.8027,109.7
689.0814,12045.2
689.0907,11498.7
689.1696,363.8
689.2454,108.9
689.5026,137.7
689.5593,2459.4
689.8152,20.9
690.0944,799.1
690.1208,130.2
690.1858,183.6
690.5636,1334.6
690.593,21.3
690.6347,328.4
690.7377,100.2
690.9392,117
691.3391,20.1
691.627,158.5
692.5289,184.6
693.3402,115.5
693.3579,296.6
693.8955,252.5
694.0857,189.5
694.0902,208.1
694.4099,115
694.5309,491.3
694.7088,409.6
694.7383,459
694.7966,365.3
695.0093,117.3
695.0989,32675.9
695.1612,20.1
695.4608,568.4
695.511,1262.8
695.7037,336.8
695.7973,150.6
695.8581,24.3
696.078,179.3
696.1026,3510.4
696.1907,231.1
696.4179,800.5
696.511,846.6
696.548,157
696.7331,520.9
696.8343,118.9
697.1062,318.3
697.5258,18867.8
697.9299,721.5
698.029,3052.3
698.3203,19.3
698.3965,159.2
698.4652,359.8
698.5296,6433.4
699.0456,153.1
699.4121,147.9
699.7682,337.8
700.0514,332.8
700.1631,104.7
700.2206,222.1
700.4498,421.9
700.7328,602.6
700.8594,230.4
700.9704,328.7
701.2047,21.2
701.4757,19.9
701.5598,36119.1
701.9233,216.5
702.3412,1719.5
702.4616,840.2
702.563,12622.6
702.7095,288.5
702.89,339.8
702.9526,494.8
703.2284,132.4
703.3164,98.1
703.5754,96784.3
703.6649,23.3
703.8391,506.2
704.0465,9288.9
704.3242,126.6
704.4473,5139
704.5332,603.7
704.5577,719.4
704.579,37653.1
704.6026,609.9
704.6547,181.5
704.6986,250.4
704.7189,19.4
704.8427,338.5
705.057,1420.2
705.1216,273.7
705.3167,138.9
705.4487,828.4
705.5812,4912.9
706.0511,477.2
706.132,121.1
706.2126,828
706.3403,261.8
706.4755,464.8
706.5386,1433.2
706.5897,422.6
707.0555,153.4
707.3441,392.1
707.5507,704.9
707.7892,125.6
707.8827,22.6
707.9664,721.1
708.3509,19.5
708.5775,121.2
709.6985,158.6
709.9466,126.1
710.286,165.1
710.5877,327.1
710.7006,116.8
710.7724,618.6
710.9682,128.9
711.0395,20.2
711.0736,11239.9
711.5408,3326.1
711.9094,18.5
711.9984,156.8
712.0789,549.2
712.172,470.8
712.1916,527.8
712.2195,1087.7
712.4191,19.6
712.6521,190.9
712.6795,747.7
712.8669,611.8
712.9676,131
713.0658,318.5
713.2139,638.6
713.314,266.5
713.3692,222.3
713.3764,184.7
713.3843,174.9
713.6483,461.4
713.6934,142.6
714.2075,109.1
714.9664,213.8
715.1675,111.7
715.2105,339.4
715.3549,157.1
715.9264,248
716.0496,215.9
716.4553,19.6
716.6756,519.3
716.714,176.7
716.9715,121.9
717.081,15495.8
717.2748,977.7
717.5898,731.9
717.6996,218.9
718.0836,761.3
718.2284,110.9
718.4027,187.5
718.6163,96.6
718.9582,174.2
719.067,237.7
719.4143,18.4
719.4609,847.5
719.5303,270.4
719.556,24.1
719.6945,225.2
719.7269,340.7
719.7899,345.6
719.9655,335.3
719.9835,119.8
720.0208,2490.2
720.152,807.9
720.6191,531.9
720.8928,521.8
721.0229,935.3
721.4784,66528
721.8334,276.6
721.9791,185.6
722.002,160.3
722.0336,133.4
722.0817,127
722.426,453.7
722.4817,25617.9
722.5886,647.9
722.8139,258.5
723.0428,20.7
723.1521,327.9
723.2486,118.5
723.2885,18.4
723.3904,352.5
723.4144,85.6
723.4947,14887.8
723.5415,43845.7
723.6773,583.8
723.8311,332.8
724.1446,90.1
724.4954,1712
724.5453,14020.7
724.7999,333.7
725.1294,121.4
725.5577,103059.6
725.8387,131.9
726.0283,6330.8
726.5607,39342.9
726.8675,1026.5
727.0272,2742.7
727.2158,536.9
727.4921,880.2
727.5635,5954
727.7948,392.1
727.8173,499.4
728.0099,104.1
728.5206,1607.4
728.645,382.7
729.0312,272.8
729.0634,486
729.591,12334.1
729.9647,212.6
729.9861,108.4
730.4611,140.8
730.5388,6792.1
730.5949,1797
730.982,507.6
731.5058,171.4
731.5404,1204.9
731.6075,5814.6
731.6326,21
731.6775,562.5
731.9723,134.7
732.0396,118.1
732.4131,491.5
732.4997,26.2
732.5545,33454.6
732.6112,1732.7
732.654,350.7
732.8734,358.9
733.0561,7326
733.4519,18.7
733.558,11421.1
734.0116,387.1
734.0586,141.5
734.3222,22.4
734.5706,7526.4
734.7658,197.1
734.9645,113
735.5735,1731.7
735.8733,21.5
735.9711,233.4
736.1905,24.5
736.2619,666.4
736.2944,157.8
736.4862,21.6
736.6402,210.1
736.6681,18.5
737.0539,90.1
737.452,15977.5
737.5806,399.6
737.9885,102.6
738.0078,179.3
738.4037,121.2
738.456,4507
738.5976,157.1
738.6469,161.6
739.0623,11778.6
739.1062,603.4
739.1434,29.5
739.2102,147
739.2304,334.8
739.4568,266.2
739.5158,5891.5
739.6405,717.1
740.0044,413.5
740.063,280.5
740.191,919.5
740.467,483
740.5192,1643.8
740.7097,19.9
740.8853,404.8
740.9415,452.1
741.4428,139.7
741.5313,13686.7
741.5709,163.8
741.5891,223.1
741.6214,459.2
741.9698,638
742.0039,1828.1
742.143,182.5
742.2488,259.9
742.5348,6828.7
742.5754,8859.1
743.578,555.9
743.9986,210.6
744.5552,4263.8
744.5916,5460.8
744.8573,231.2
745.2569,760
745.4784,37121.3
745.5106,357.9
745.558,679.2
745.5957,2177.4
745.8062,508.3
745.9633,101.8
746.2369,1247.7
746.3963,95
746.4815,11604.3
746.5212,259.1
746.5703,4179.1
746.6078,1898.6
746.6879,221.5
746.8343,579.9
746.9268,18.6
747.0356,477.8
747.2433,470.6
747.3629,522.9
747.4717,339.9
747.4947,10723.8
747.5689,467.1
747.6106,1156.6
748.0097,1411.1
748.1858,323.6
748.2296,473.7
748.2627,93.4
748.4234,281.1
748.4961,2012.3
749.0084,638.3
749.344,221.8
749.3735,105.2
749.5108,6168.1
749.6872,464.9
750.4345,112.5
750.5396,456.4
750.668,406.6
750.8836,136.8
751.1025,309.3
751.2354,209.4
751.5115,193
751.5734,8691.1
751.6319,182.2
751.8797,115.9
752.1071,231.8
752.1591,231.6
752.1858,22.1
752.4069,113.5
752.5205,6253.5
752.5765,3487.3
753.2095,467.8
753.5075,391.2
753.5208,975.4
753.5892,4057.4
753.7647,157.2
753.9961,255.7
754.2418,310.2
754.4263,35.7
754.5367,26897
754.5897,425.4
754.7534,247.5
754.958,112.6
755.0385,3317.2
755.4127,561.5
755.5398,10394
755.8502,237.5
756.036,650.3
756.1471,84.2
756.3519,538.9
756.5543,34618.8
756.6379,121.7
756.9583,387.8
756.9799,339.3
757.01,246.6
757.0513,23.1
757.5578,13797.6
757.6224,1382.2
757.9542,143.5
758.1267,234.8
758.1874,340.6
758.4161,502.8
758.4428,19.7
758.5702,1142274
758.6214,323.9
758.6293,369.7
759.5008,705.7
759.5736,499353.3
759.6373,1629.4
759.7672,143.4
759.8489,19.8
759.9505,89.3
760.1953,812.5
760.2447,131.3
760.5868,376450.3
760.6431,370.1
761.0452,2217.1
761.4526,7663.9
761.5896,185511.1
761.7124,314.7
762.0339,97.7
762.303,339
762.3285,272.8
762.3425,874.8
762.4554,1704.2
762.5925,40417.9
762.7146,133.6
762.8166,126.7
763.0851,20.8
763.3112,339.9
763.4635,377.3
763.5143,204.5
763.537,25.2
763.5695,21
763.5946,2542
763.7638,89.1
763.9733,345.3
764.0551,20.1
764.1332,259.8
764.5575,3192.4
764.6897,362.3
765.1423,753.2
765.4831,1020.2
765.5589,564.6
765.6511,304
765.9255,18.3
766.1347,163.9
766.5358,2506.4
766.5748,31174.5
766.6211,99.2
766.7019,116.1
767.5784,11419.5
767.9504,85.9
768.4773,250.8
768.4958,991.2
768.5521,4631.5
768.5912,42650
768.9045,123.4
768.9503,427.2
768.9929,169.1
769.2466,24.6
769.4784,7107.2
769.5531,1109
769.5945,18133.2
769.638,115.9
769.9213,284.6
770.2171,21.6
770.2575,399.1
770.2791,369.2
770.5117,1515.2
770.571,821.8
770.6081,3538.7
770.6884,601.7
770.9449,274.9
770.9926,3841.7
771.2089,505.7
771.3777,21.1
771.5013,1260.1
771.673,340.7
771.7377,147.5
772.1802,211.3
772.3753,84.1
772.5092,423.4
772.5862,12612.8
772.6205,113.7
772.8021,125.1
773.49,122.5
773.5105,257
773.5503,342.9
773.5896,1807.6
773.6538,297.7
773.981,189.6
774.0263,232.8
774.0496,22.2
774.2474,353.2
774.4286,158.7
774.5033,91.3
774.5655,462.5
774.6021,2755.4
774.9524,217.9
775.5749,129.1
775.6155,114.3
775.8563,135.3
776.0935,785.4
776.2593,366.1
776.52,2686.1
776.7696,151.2
776.9138,207.3
777.0083,1806.5
777.0252,591
777.1584,116.7
777.1991,515.5
777.5426,600.2
777.7155,19.7
778.0143,270.6
778.0432,1957.1
778.087,287.4
778.3527,351.5
778.5364,27605.9
778.9606,194
779.289,189.8
779.5392,7410.8
779.606,693
780.2888,19.7
780.5036,323
780.5522,775928.8
780.764,151
781.1102,157.9
781.5556,342319.7
781.924,505.2
781.9524,137.6
782.1378,878.2
782.5699,762975.5
782.6174,138.2
782.7197,161.7
782.8587,577
782.9345,336.1
783.0276,2854.1
783.5043,232.2
783.5732,357777.9
783.8165,740.4
783.878,222.1
784.203,190.7
784.4894,180.5
784.5868,288137.3
784.7256,358.1
784.9395,168.3
785.0725,18.6
785.4021,18.5
785.5897,141557.3
785.6543,4867.8
786.0939,203
786.5099,387.2
786.6022,270953.3
786.6576,898.8
786.7053,582.3
786.9946,248.5
787.2057,896.4
787.429,430.4
787.6052,136745.3
787.6696,1207.5
787.8985,206
788.1761,562
788.5575,14123.7
788.6053,19545.1
788.621,9307
788.6746,99
789.1595,361.6
789.363,223.8
789.5602,5099.7
789.6225,5135.1
790.0444,1679
790.3672,300.2
790.4678,387.5
790.5489,783.2
790.5734,24437.2
790.6222,134.1
790.6938,919.5
791.5051,20.7
791.5549,667.2
791.5773,5703.6
791.712,2065
791.8791,139.6
792.194,354.2
792.427,564.9
792.4952,703.1
792.591,14025.6
792.6757,19.3
792.9829,540.8
793.105,552.7
793.3297,197.4
793.4433,537.7
793.5942,4174.7
793.6335,107.2
793.8464,392.9
793.9724,119.4
794.1349,344.6
794.5112,2044.5
794.5689,7359.1
794.6069,42190.4
795.3605,956.5
795.5738,1093.1
795.6099,18856.4
796.4342,175.8
796.4866,129.6
796.5261,150656.8
796.585,6054.4
796.6244,4284.3
796.8918,618.7
797.1443,22.2
797.5295,69214.9
797.5898,1695
797.6255,408
797.8393,18.8
798.2121,142.8
798.5431,45462.9
798.6004,239
798.6249,989.5
798.9426,146.2
799.0024,1287.4
799.5454,17268
799.6695,162.3
799.7503,241.8
800.0724,120.8
800.5538,501
800.6782,138.4
800.781,110.5
800.8127,369.5
800.9408,184.9
801.018,477.5
801.5444,837.1
801.8186,41
802.2007,183.7
802.2549,723.7
802.2782,443.5
802.4667,308.6
802.5364,20133.9
802.6605,177.5
802.9392,750.8
802.9804,503.2
803.051,553.4
803.3123,282.4
803.5398,8221.4
803.5615,447.8
804.1742,1258.3
804.2761,494.1
804.5522,389395.1
804.6106,199.3
805.0435,364.2
805.5556,183733.8
806.3339,83.1
806.5088,320.9
806.5696,316103
806.8887,91.8
807.222,308
807.3249,131.6
807.5726,156417.4
807.6035,19.6
807.6351,317.7
808.2754,20.6
808.5852,211073.8
808.7459,131.9
808.9607,106.5
809.2605,19.3
809.4933,820.9
809.5882,106063.8
809.652,310
809.8467,976.5
809.8788,815.5
810.2377,363.9
810.4887,423.9
810.6021,147556.5
810.6568,594.5
811.0762,735
811.4627,117.8
811.6052,69700.9
811.67,10640.8
812.1034,279.4
812.3639,622.3
812.4129,85.6
812.5395,743.1
812.5602,773.5
812.6032,4518.1
812.6203,19366.9
812.6738,1609
813.0895,374.9
813.6218,10747.1
813.6855,8685.8
814.1645,274
814.5747,2504
814.6224,196.8
814.6903,1215.4
814.9779,123.3
815.4376,583.3
815.6448,21.4
815.9267,730.7
816.0372,831.4
816.1323,105.4
816.3523,471.3
816.5887,18371.6
816.6959,116.1
816.727,639
816.809,18.9
817.022,399.5
817.5916,7097.5
817.76,922.9
817.8516,195.3
818.0034,97
818.1222,372.6
818.3187,134.4
818.5138,1635.4
818.6071,1657.5
819.038,305.2
819.2556,115.6
819.3161,289.1
819.5183,127
819.6088,722.8
820.3761,110.2
820.5262,83569.8
820.6228,607.2
820.8395,720.3
821.5295,37065.6
821.6488,216.5
821.9396,801.2
822.1012,435.8
822.2822,532.3
822.5427,30160.5
822.637,153.3
823.0461,328
823.5454,14472.1
824.2739,272.6
824.5579,24614.5
824.6653,132
824.7428,143.4
824.7811,95.6
825.0593,482.1
825.1689,134.5
825.5612,9732.3
826.0624,191.7
826.2097,1054
826.5703,122.5
826.6192,702.7
826.676,137.4
826.8113,304.4
827.3921,277.2
827.4723,537.9
827.6473,414.7
827.7689,562.3
828.0478,108.6
828.3985,360.8
828.552,100938
828.812,505.1
828.8222,513.9
829.2606,87.8
829.5555,50464.3
829.671,638.3
829.6972,729
829.8222,1910.7
829.8643,135.4
830.2189,184.8
830.569,51041.5
830.661,482.8
830.9391,236.4
831.4858,103.4
831.5716,25319.3
831.9399,222.4
832.5845,74007.8
832.7874,123.2
833.2097,126.8
833.2528,95.4
833.5875,37135.9
833.6497,879
833.9696,587.5
834.1562,142.6
834.4547,24.2
834.602,30637.1
834.6691,21.5
834.9819,789.7
835.6045,9794.6
835.6702,1268.5
835.7397,506.3
835.7712,650.7
836.5665,501.2
836.6006,960
836.859,114.3
837.4041,134.2
837.4355,353.4
837.6226,136.4
837.894,1379.7
838.2654,389.5
838.4143,118.5
838.4571,18.1
838.5107,2408.2
838.9164,587.4
839.0536,247.4
839.4294,132.1
839.4877,371.3
839.6317,83.6
839.8477,20
840.0211,188.8
840.7758,22.4
840.8651,200.5
840.8955,441.4
840.9517,216.5
840.9873,373.5
841.5928,350.1
841.9566,350.8
842.3983,146.9
842.5283,123.3
842.9451,515.1
843.0708,845.7
843.1195,704.3
843.3474,175.2
843.6473,139.9
843.6904,150.1
844.0038,532.3
844.0632,361.7
844.2851,24.1
844.5256,17956.8
844.8146,979.6
844.8641,1159.7
844.9132,1224.7
844.9859,111.1
845.239,110.4
845.2616,110.6
845.2971,191
845.5302,6620.6
846.362,521.8
846.4127,342.6
846.5415,6008.8
847.5443,1703.8
847.5797,27
847.7452,164.8
847.8658,375.9
847.969,24.4
848.1217,305.8
848.1494,322.6
848.4031,493.2
848.5575,10740.3
849.4861,203.4
849.5529,782.2
850.1199,240.7
850.1554,803.5
850.2934,222
850.5557,953.1
850.5934,158.8
851.1277,21.1
851.5693,17.7
851.7984,208
851.8648,174.3
852.1228,387.1
853.1652,482.4
853.57,159.3
853.9949,393.6
854.3903,503.7
854.5415,20.9
854.5662,2059.4
855.4872,131.6
855.8591,600.4
856.5839,2471.5
856.7491,394
856.8681,363.2
857.3506,281.3
857.6842,344.1
857.729,98.1
857.8298,120.6
858.1254,821.9
858.4914,267.3
858.8287,419.5
859.5459,20.7
859.846,196.4
860.2323,188.6
860.3333,19.5
860.9086,297.5
861.0121,97.9
861.3542,195.1
861.8172,662.6
862.5083,742.3
862.6124,133.6
863.4986,1423.7
863.7013,872.1
863.8751,239.3
863.9102,120.4
864.1791,299
864.5638,337.2
866.3612,370.9
867.0444,191.2
868.8519,970.1
868.9484,556.3
869.3116,141
869.3451,702.4
869.3913,322.1
869.4213,443.6
869.4747,2742.6
869.5133,410.4
869.5562,1453
869.5956,2339.8
869.6437,1465.9
869.6716,4375.8
869.7112,4492.5
869.7373,3746.1
869.766,2589.2
869.7967,1994.2
869.8282,2897.4
869.8667,2514.8
869.8965,1374.9
869.9434,791
869.9792,1102.8
870.007,732.2
870.1324,128.8
870.3547,121.8
870.9253,743.3
871.0314,447.6
871.1029,501.9
871.172,1149.3
871.4896,310.3
871.6315,246.4
871.6655,111.3
872.0713,531
872.226,480.3
872.251,455.8
872.5394,953.6
873.0001,548
873.1125,1062.1
873.3018,102.2
873.3854,615.2
873.513,120.8
873.5557,447.4
873.7652,241.3
873.8682,259.4
874.039,790
874.8074,21.8
875.4611,465.9
875.666,117.1
875.8063,194.7
875.936,126.3
876.2771,221
876.3743,134
876.4488,379
876.5378,134.9
876.7439,304.2
876.8022,161.8
876.9527,858.2
877.1212,178.2
877.7787,560.7
878.0004,119.5
878.4924,1681.1
878.5504,421.4
878.6871,636.2
879.0944,209.8
879.3509,838.3
879.8284,194.3
880.1259,204.6
880.1409,178
881.1514,318.6
881.5985,564.1
881.6209,792.1
882.1822,899.8
882.2383,113
882.5236,270.2
882.8687,217.8
883.1261,98.6
883.593,135.9
884.1024,306.2
884.2746,2131.7
884.9794,918.7
885.2475,297.7
885.3359,230.4
885.6147,516.9
886.2663,589.6
887.2495,135.7
887.7475,24.1
887.8565,324.2
888.2476,245.1
888.3371,265
888.3679,18.8
888.8708,366.6
888.9955,719.5
889.1656,897.6
889.54,507.5
889.6294,128.5
889.829,370.2
889.9758,126.6
890.2897,170.4
890.9219,204.6
890.9705,605.1
891.0829,191.3
891.1605,294.7
891.2899,166.4
891.745,156.4
891.8715,22.8
894.2776,782.3
894.4823,360
894.7687,382.2
895.856,420
896.0411,832.1
896.077,131.3
896.3415,149.8
896.5188,320.1
896.9546,298.5
897.3863,344.5
897.4854,455
897.5946,173.9
897.7625,25.5
898.5159,764.1
898.8835,608.9
898.9237,20.2
899.318,221.7
899.7095,508.2
899.8797,22
900.0059,136.6
900.2605,20.3
900.2861,196
900.4754,516.1
900.7004,785.7
900.7193,100.2
901.0924,409.6
901.3166,19.5
901.4654,626.2
901.703,1030.7
901.8684,611.9
902.6661,594.8
903.5797,706.7
904.1945,18.9
904.2252,94.5
904.5524,1705.8
905.0972,234.4
905.4558,264.7
906.3391,606.9
906.395,287.9
906.8947,419.3
907.1409,94.4
907.5505,132.7
907.9916,1665.2
908.4103,134.9
908.5543,814.7
909.2114,141.8
909.3344,28.2
909.5607,107.9
909.6012,159.5
909.9101,1231.2
909.9745,1186.1
910.1175,759.2
910.2277,428.8
910.3412,390.6
912.3259,359.8
912.4598,527
912.7371,159.8
912.8299,134.3
913.1867,160.7
913.5725,978.6
913.7557,101.7
913.9102,122.9
914.2136,146.1
914.3083,315.8
914.6103,394.6
915.7605,133.8
916.4065,597.8
916.4317,485.3
917.1031,366.3
917.3475,1002.2
917.6349,23.7
917.6868,646.1
918.4784,974.8
919.3699,540.2
920.4868,257
920.8112,21.6
920.875,375.9
921.0286,721.7
921.2294,19.8
922.9931,215.9
924.0135,302
924.2167,186.7
924.2458,538.1
924.4118,767.3
924.894,417.6
924.9066,405.4
924.9155,397.1
925.3944,108.8
925.4244,20.2
925.772,18.7
927.0815,376.9
927.2471,864.1
927.343,209.8
927.6952,118.7
927.8035,450.2
927.9539,126.6
928.1329,773.5
928.5262,107.7
928.6311,1069.9
928.8633,1458.8
928.9879,183.6
929.7649,21.7
930.0474,149.5
930.4352,19.4
930.5951,859.9
930.6567,18.8
930.8622,722.1
931.158,413
931.8362,484.9
932.186,220.2
932.8046,902
933.2818,625.4
933.7368,339.7
934.0603,22.4
934.262,353.6
935.0294,1088.3
935.094,116.2
936.5128,21.9
936.5937,565.3
937.3464,495.6
937.5318,544.4
937.8206,304.5
937.9311,364.1
938.3815,139.1
938.8311,372
939.0661,309.4
939.4641,146.2
939.8005,128.5
939.8986,310.3
940.4186,479.1
940.5246,398.9
940.7578,383.3
941.7977,459.2
942.7394,459.3
942.9757,1954.3
943.3555,251.2
944.0113,163.2
944.1996,149.5
944.4961,777.9
945.4238,641.5
945.4796,17.9
945.6051,217.6
946.1922,465.4
946.544,222.6
946.6179,123.6
946.6774,330.6
947.6487,775.6
948.3627,376.3
948.399,133.2
948.6537,104.5
948.8327,434
948.929,208.9
948.9888,432.4
950.1322,18.6
950.2239,22.4
950.3085,643.5
950.3549,219.5
950.3937,488.9
950.6745,436.3
950.7506,432.7
950.8753,715.6
951.1235,262.2
952.0362,21
952.2398,351.5
952.2794,154.3
953.1086,494
953.364,154.9
953.4887,1484.7
954.1606,707.6
954.5792,696.9
954.7183,22.8
955.2651,128.2
955.343,496.6
956.0883,199.9
956.2644,167.6
956.4308,19.6
956.4743,482.4
956.5195,182.1
956.6396,1207.9
956.7215,126.7
956.9957,20.9
957.0668,512.5
957.2744,118.1
958.0594,1285.1
958.0854,394
958.3143,653.7
959.0946,550.4
959.4259,691.9
959.5614,602
959.9252,1192.7
960.4334,562.7
962.8873,258
962.9639,149.6
963.1927,145.5
963.2748,181.6
963.4207,272.1
963.8627,415.3
964.4139,421.6
965.2412,171.7
965.3238,339.3
965.375,430.1
965.8319,843.3
965.8646,111.9
965.9132,216.2
966.2306,1172.4
966.9898,1107.9
967.102,407.6
967.4608,108.7
967.9941,20.5
968.1146,684.4
968.4103,422.7
968.4468,368.3
968.7702,961.2
969.0831,115.8
969.1289,1111.7
969.1961,522.1
969.3755,108.2
969.4913,494.8
969.6626,562.3
969.8676,322.7
970.2823,210
970.4166,413
970.6605,909.1
970.7188,88.8
971.6292,210.6
971.7833,704.6
971.8343,21.1
972.2055,397.5
973.2962,802.9
973.363,18
973.6655,660.9
973.7503,1056.6
974.2503,188
974.2769,636.8
974.723,149.5
974.8149,531.3
975.3746,783.6
975.4931,25.2
975.8293,749
976.1985,621
976.2597,446.1
976.3966,341.2
976.463,20.6
976.5118,104.1
976.5504,432.8
976.9799,123.4
977.4927,113.9
977.7615,573.1
977.9305,435.6
978.1404,412.2
978.5262,519.5
978.564,768.9
978.731,107.2
978.745,116.6
979.0342,19.4
979.0589,18.9
980.1622,19.5
980.369,1497.1
981.1984,25.3
981.2856,23.3
981.6728,96.1
982.5587,246.9
982.8353,780.8
983.4464,557
983.725,836.6
984.296,294.1
984.3265,2171.4
984.4913,20.8
984.6469,903.8
984.7764,856.4
984.8359,487.9
985.0948,1065
985.474,572.1
986.1305,325.6
986.1906,179.5
986.3944,540.2
987.2214,647.4
987.4672,543
987.6115,111.2
987.8834,490.4
987.9527,131.8
988.5178,802.7
988.992,296.1
989.2307,358.5
989.6487,525.1
989.7281,422.3
989.764,717.9
990.0364,166.5
990.1162,660.1
990.3887,95.7
990.467,237.9
990.9302,582.4
990.9779,102
991.1512,335.6
991.2794,576.9
991.7911,542.6
991.9507,377.7
992.5119,675.9
992.6772,18.7
992.7351,317.3
993.4393,552.8
993.806,150.4
994.1375,118.3
994.2441,182.5
994.3261,471.2
994.5411,21.2
995.6522,26.9
996.0099,21.1
996.7737,549.1
997.07,991.8
997.1993,182.8
997.4071,224.9
997.646,776.4
998.5917,660
999.5163,767.5
999.5734,598.3
999.6574,930.3
999.8368,1187.6
