SPECTRUM - MS,
198.RAW,
FTMS + p ESI Full ms [50.00-1000.00],
Scan #: 1-40,
RT: 0.01-1.97,
AV: 40,
m/z,Intensity

50.011,469.8
50.0234,18.9
50.0321,141.7
50.0487,98.8
50.0809,156.5
50.0991,428.3
50.1117,181.6
50.1139,279.6
50.1175,622
50.1248,175.7
50.1289,15.5
50.1414,152.1
50.1592,273.1
50.1649,127
50.1674,123.6
50.1719,134.6
50.1844,16.6
50.1944,297.8
50.2111,90.9
50.2282,113.3
50.231,686.5
50.2344,386.8
50.2372,15.6
50.2544,102.5
50.2703,524.1
50.2814,97
50.2956,95.2
50.2994,17.5
50.3038,176.3
50.3191,231.7
50.3415,240.6
50.3425,17.8
50.3468,543.9
50.372,976
50.3889,331.5
50.4286,161
50.4343,144.7
50.439,123.1
50.4459,106.2
50.4478,230.3
50.4643,319
50.4863,91
50.488,388.1
50.4964,335.4
50.5161,17
50.5271,511.7
50.549,86.9
50.5669,350.1
50.5672,139.5
50.5764,96.1
50.5828,571.7
50.5989,138.1
50.6004,192.1
50.601,339.9
50.6484,327.3
50.6499,18.4
50.6531,239.2
50.6632,17.5
50.6644,342.8
50.6754,144.8
50.6801,210
50.6986,105.1
50.7086,607.8
50.7113,99.1
50.712,130.8
50.7226,314
50.7547,112.9
50.7616,102.8
50.7715,323.1
50.7739,243.3
50.7958,263.8
50.7967,283.8
50.8091,18.6
50.8271,340.6
50.8436,129
50.8458,359.3
50.8497,484.1
50.8501,371.3
50.8538,149
50.8647,152.7
50.8671,93.1
50.884,560.6
50.9076,610.5
50.9264,106.5
50.9317,353.5
50.9372,102.3
50.9395,193.9
50.9839,315.9
50.9997,162.8
51.0154,374.4
51.017,15
51.0212,652.9
51.0374,443.5
51.0492,337.7
51.0516,224.5
51.0663,285
51.0671,19.3
51.0971,390.1
51.1014,100.9
51.1125,16.6
51.1265,556.3
51.1322,19.5
51.157,392.2
51.1614,224.1
51.1837,524.3
51.1869,278.9
51.2065,376.5
51.2387,149.4
51.2459,399.7
51.2706,608.1
51.2827,244.7
51.3065,15.4
51.3304,696.1
51.3713,92.4
51.373,636.8
51.3734,610.1
51.3923,149.2
51.3938,305.7
51.3946,414.9
51.403,111.5
51.4095,555.1
51.4211,98.5
51.4388,97.5
51.4398,158.2
51.4452,102.2
51.4594,207.9
51.4646,165.7
51.4667,169.3
51.4718,828.3
51.4906,214.7
51.5113,195.2
51.5349,444.8
51.5474,19.2
51.5516,318.7
51.5576,81.3
51.5606,353.6
51.5657,444.2
51.5756,105.4
51.5764,155.8
51.5786,524.3
51.5917,223.4
51.598,352.7
51.6057,810.5
51.6079,251.5
51.6231,115.4
51.6315,213.2
51.6431,476.8
51.6573,16.5
51.6753,400
51.6782,124.4
51.6789,94.8
51.6841,478.5
51.7008,276.3
51.7098,291.2
51.71,288
51.7161,176.3
51.7198,76.6
51.7261,322.4
51.7277,201.3
51.7284,117.1
51.7309,93.4
51.7323,108.1
51.742,805.4
51.7457,16.4
51.757,81.6
51.7734,211
51.7872,100.3
51.8058,16.9
51.8148,481.1
51.8226,17.4
51.8233,553.3
51.831,604.6
51.8504,152.9
51.8616,82.7
51.865,461.2
51.8683,353.7
51.8737,341.9
51.8841,17
51.8859,198.5
51.9052,104.4
51.922,606.6
51.927,296.7
51.9275,148.9
51.9641,19
51.9922,469.7
52.0072,15.7
52.0085,602.3
52.0226,288.9
52.0255,22.1
52.0268,523.9
52.0352,404.2
52.0362,261.5
52.0581,615
52.0947,356.1
52.1028,143.9
52.1085,103.2
52.1112,16.2
52.1349,20.3
52.1488,334.2
52.1499,169.4
52.155,380
52.1556,137.1
52.1793,390.8
52.1988,128.6
52.203,289.7
52.2211,83.5
52.2568,99
52.2605,357.6
52.2703,148.5
52.2736,16
52.2767,346.1
52.2836,170.9
52.2868,406.4
52.2888,17.8
52.2956,407.1
52.3119,748.7
52.3135,417.2
52.3194,188.7
52.3218,16.4
52.3607,135
52.3631,84.2
52.3644,115.8
52.3827,15.7
52.3869,580.2
52.3952,148.2
52.4046,226.2
52.4058,487.3
52.4465,295
52.4526,98.9
52.4534,306.3
52.4613,97.8
52.4721,764.2
52.479,524.9
52.4845,195
52.4894,155.4
52.4996,177.5
52.5163,352.2
52.5581,382.6
52.5585,14.5
52.5588,16.6
52.5599,245.5
52.5614,19.1
52.5719,260
52.5933,169.8
52.5986,344.3
52.6099,131.9
52.6253,300.4
52.6308,320
52.6464,600.9
52.6742,113
52.675,777.5
52.6796,14.9
52.7003,181.6
52.7034,664.7
52.7054,848.4
52.7257,125.3
52.7293,273.4
52.7544,517.5
52.761,345.6
52.7721,314.2
52.7742,422
52.7926,786
52.8208,69.4
52.8209,77.1
52.8307,497.5
52.8319,1331.9
52.833,527.8
52.8336,1294.3
52.8344,1745
52.8351,3243.7
52.8359,348.2
52.8367,309.6
52.8382,165.2
52.8388,357.2
52.8471,16
52.8561,213
52.8567,104.7
52.8677,104.2
52.8692,189
52.9035,112.2
52.9148,129.6
52.9178,333.8
52.9192,334.3
52.9199,18.6
52.939,242.9
52.9449,135.1
52.9503,301.4
52.9515,92.2
52.956,140.3
53.0041,151.1
53.0044,673.8
53.0138,186.1
53.0248,345.3
53.0256,107.9
53.0322,253.4
53.0339,104.2
53.0401,127.9
53.0489,533.5
53.0528,345.5
53.0584,326.5
53.0615,302.8
53.0679,107.2
53.0816,210.9
53.0915,132.7
53.1002,167.6
53.1023,335.1
53.1108,362.1
53.1255,20.5
53.1515,151.2
53.153,676.7
53.1595,709.1
53.1738,234.3
53.1799,356.7
53.1813,100.3
53.1962,77.2
53.1972,20.4
53.2114,183.4
53.2324,17.2
53.2343,171.5
53.2369,418.5
53.2494,85.3
53.2505,16.9
53.2637,105.8
53.2691,520.7
53.2783,103.5
53.2901,17.2
53.293,139.4
53.2993,99.5
53.3055,356.4
53.3094,194.8
53.3121,216
53.3387,17.7
53.3553,152.2
53.3604,202.4
53.3758,810.4
53.4042,347.6
53.4093,368.8
53.417,309.8
53.4206,92.6
53.4226,16.3
53.4254,306.2
53.4298,272.4
53.4321,633.3
53.458,17.6
53.4709,299
53.4855,235.5
53.4878,152.7
53.4957,439
53.5052,18.2
53.531,331.7
53.5335,98.3
53.5592,463.4
53.5618,628.6
53.5673,663.5
53.5748,124.6
53.5819,391.6
53.5823,313.7
53.5865,94.7
53.6131,91.2
53.6207,735
53.6359,419.7
53.6536,344.3
53.6602,142.5
53.6793,101.3
53.7166,129.8
53.7197,158.7
53.7306,414.2
53.7669,163
53.8274,17.2
53.845,501.8
53.8541,99.2
53.8722,113
53.8875,213.2
53.8943,126.3
53.905,132.7
53.932,214.8
53.9356,107.6
53.9403,223.2
53.9479,151.7
53.9601,515.5
53.9893,430
54.0126,17.5
54.0277,262.6
54.031,521.3
54.0714,501
54.0739,595.1
54.0753,75
54.0822,635.2
54.0886,145.6
54.0912,138.9
54.0985,92.4
54.1111,142.1
54.1137,198.6
54.12,174.1
54.1497,285.2
54.1736,377.6
54.1743,455.9
54.1901,220.1
54.1938,16
54.197,408.6
54.219,17
54.2256,105.8
54.2332,93.2
54.2492,17.9
54.2677,336.7
54.2757,200.2
54.2891,101.6
54.3046,348.8
54.3249,15.5
54.3449,101.3
54.3512,430.1
54.3545,659.5
54.357,16.7
54.3611,98.2
54.367,136.6
54.3927,16.4
54.4016,501.1
54.4047,15
54.4125,100.4
54.4138,15.4
54.4267,18.5
54.4292,94
54.4528,247.7
54.4586,217.2
54.4638,421.5
54.4678,270.8
54.469,179
54.4767,148.3
54.4875,347.6
54.4898,604.2
54.4935,273.2
54.4955,163.3
54.5023,566.8
54.5053,388.8
54.5078,446.6
54.5114,263.6
54.5129,122
54.5142,314.4
54.5166,19.9
54.5239,170.1
54.532,349.3
54.5345,176.2
54.5508,1011.7
54.5528,15.8
54.5606,216.5
54.5684,776.6
54.5687,82
54.5743,17.4
54.5771,142.4
54.591,102.3
54.6148,108.3
54.6172,374.1
54.6204,385.4
54.6207,16.9
54.6216,212.9
54.6259,15.7
54.6311,131.5
54.6375,413
54.6543,226.7
54.6658,100.2
54.6865,85
54.6886,406.2
54.6897,252.6
54.7082,75.5
54.7143,157.4
54.7149,127.6
54.7164,127.6
54.7186,106.3
54.7284,329.7
54.7381,15.9
54.7467,362.7
54.7489,208.9
54.7811,272.6
54.7818,258.5
54.7926,90.7
54.7957,134.6
54.8091,79.3
54.8512,137.1
54.8538,15.5
54.8644,297.8
54.8819,175.6
54.8839,183.4
54.9033,516.6
54.9112,16.2
54.9224,15.1
54.9341,130
54.9386,81.8
54.9504,572.8
54.9517,103.6
54.9605,231.1
54.9691,175.8
54.997,379.7
55.0061,105.9
55.0141,506.3
55.0741,259.3
55.0761,85.3
55.0803,92
55.0885,16.8
55.0898,17.6
55.1105,256.1
55.1396,17.3
55.14,103.7
55.1416,144.7
55.1451,874.5
55.1658,115.1
55.1776,98.6
55.1914,113.9
55.199,783.8
55.2,149.7
55.207,87.7
55.2147,137.1
55.2179,221.5
55.2216,594.5
55.2811,99.8
55.2872,322.8
55.2935,17.4
55.3009,101.6
55.3053,732.6
55.318,500.7
55.3521,645.5
55.3652,514.9
55.3688,609
55.3823,88.7
55.413,554.2
55.4198,381.6
55.4409,124.9
55.4602,411.6
55.4654,496.1
55.4747,711.3
55.5031,559.7
55.5228,17.8
55.5252,287.4
55.5363,295
55.5438,114.1
55.5559,354.4
55.5833,91.2
55.5988,482.4
55.6079,466.6
55.6125,306.5
55.6233,550.7
55.6875,379.9
55.6943,153.7
55.7014,171.6
55.7064,101.1
55.713,99.5
55.7448,16.5
55.7712,19.7
55.7813,105.7
55.7838,525.8
55.7908,597.1
55.7925,133.3
55.8047,274.2
55.8229,19.9
55.827,18.2
55.8691,336.2
55.8959,16.6
55.8982,535.3
55.902,336.1
55.9396,232.9
55.9416,144.6
55.9527,552.4
55.955,245.6
55.9801,438.1
55.9939,134.4
55.9945,16.2
56.0193,396.2
56.0281,146.3
56.0326,224.4
56.0466,17.6
56.0901,237.5
56.0949,175.2
56.0973,122.6
56.1003,119.2
56.1037,168.7
56.1127,460.8
56.115,202.6
56.1273,19.6
56.1325,325.1
56.1374,182.2
56.145,176.6
56.1542,214.7
56.1758,158.8
56.2317,18.3
56.2325,15.9
56.2386,352.3
56.2458,714.6
56.2835,281.3
56.2865,359.7
56.2869,84.5
56.2994,481
56.3075,268.5
56.3096,109.8
56.3295,262.7
56.3367,601.4
56.3371,409.1
56.3441,219.1
56.3658,110.6
56.3743,131.1
56.3822,369.8
56.3999,140.6
56.4061,217.2
56.4189,426.6
56.4254,376.9
56.429,86.2
56.478,97.4
56.4795,523.1
56.482,93.2
56.4935,157.7
56.524,154.1
56.5244,162.7
56.5326,18.5
56.5491,18.2
56.5607,141.4
56.5758,522.9
56.5958,15.1
56.6204,487.7
56.6322,162.8
56.639,192.1
56.6569,279
56.6684,341.9
56.6796,374.2
56.6972,15.6
56.7023,306.8
56.7029,499.2
56.7091,109.9
56.7273,110
56.7639,366.6
56.77,19.2
56.7733,16.1
56.7906,198.5
56.8071,178.7
56.8076,258.8
56.8431,119
56.8493,96.8
56.8822,385.4
56.8857,153.3
56.8909,377.6
56.9139,296.1
56.9309,155
56.9384,664.8
56.9692,17.8
56.9813,225.3
56.9931,125.6
57.0491,112.3
57.0809,488.8
57.0881,520
57.0956,16.7
57.1318,372.7
57.1337,176.4
57.1398,18.3
57.1493,108.3
57.1556,17.6
57.1627,670.9
57.1714,128.3
57.1803,345.3
57.1829,180
57.2156,213.7
57.2349,465.4
57.2483,15
57.2639,204.4
57.2714,165.1
57.2939,99.4
57.2947,844.3
57.3073,184.1
57.3186,305.8
57.322,473.4
57.3316,658.2
57.3864,744.2
57.4166,372.5
57.4231,81.4
57.4305,100.5
57.4338,15.6
57.4388,488.1
57.4397,134.8
57.4429,108.9
57.4533,372.8
57.459,228.9
57.475,282.8
57.4782,852.2
57.4811,16.7
57.4877,16.9
57.4897,816.8
57.4965,225.7
57.4981,390.3
57.5035,16.9
57.5195,89.9
57.5301,720.9
57.5552,168.1
57.564,99.8
57.5755,593.9
57.5809,236.8
57.5961,124.7
57.6066,185.8
57.6186,805.2
57.6415,154.9
57.6423,181.3
57.646,16
57.649,266.4
57.6532,172.5
57.6754,151.8
57.6765,15.7
57.6825,170.9
57.6839,88.8
57.6924,127.8
57.6951,223.5
57.6993,282.7
57.7265,159.3
57.7288,107.3
57.7376,760.4
57.7466,646
57.7507,138.6
57.7563,376.1
57.7571,171.6
57.8028,186.9
57.8082,170.7
57.8499,14.6
57.8788,96.6
57.8951,159.7
57.921,261.3
57.9217,474.7
57.9315,16.2
57.9348,347.9
57.9353,161.7
57.9421,543
57.9551,108.5
57.9985,374.7
58.0197,109.3
58.0272,687.1
58.0934,145
58.0986,104.3
58.1251,209.1
58.1654,391.7
58.1891,134
58.2548,582.7
58.256,504.9
58.2888,19
58.3,102.3
58.3225,410.8
58.3328,140.4
58.336,106.6
58.3425,139.6
58.3574,292.8
58.3877,121.9
58.3925,122.7
58.4145,16.9
58.424,125.4
58.4342,18.1
58.4628,533
58.4675,266.8
58.4749,17
58.4874,546.7
58.4913,281.8
58.5386,95.2
58.5453,325.8
58.5663,140.1
58.5675,297.8
58.5677,323.8
58.5767,460.7
58.578,181.9
58.5861,213.3
58.5897,17
58.6153,124.8
58.6487,16.9
58.6548,16.5
58.679,100.2
58.6807,243.5
58.6884,125.1
58.6977,400.4
58.7022,499.3
58.7079,170.2
58.7141,165.9
58.7159,667.5
58.7268,106.7
58.7329,435.3
58.7354,89.4
58.7588,477.5
58.7906,160.3
58.808,433.7
58.874,167.8
58.9072,423.6
58.9146,330.1
58.9158,95
58.9182,111.5
58.932,771.2
58.9417,410.8
58.9485,120.2
58.9533,115.6
58.9561,219.9
58.967,510.4
58.9817,108.5
58.9824,148.1
59.0095,308.4
59.0266,410.5
59.029,480.6
59.0469,235.9
59.0591,84
59.0621,114.6
59.0826,269
59.103,475.5
59.1247,216.4
59.1482,93.5
59.1523,105.4
59.1566,228.1
59.1787,181.9
59.1873,488.2
59.2139,143.7
59.2169,213.6
59.22,846.4
59.2504,108.5
59.257,144
59.2677,375.8
59.2848,231.6
59.2911,826.6
59.3169,259.5
59.318,375.7
59.333,93.6
59.3416,124.6
59.3577,19
59.3614,17.8
59.376,251.5
59.3831,206.4
59.3855,565.3
59.4344,499.5
59.4835,452.4
59.5204,316.7
59.5399,380.2
59.5617,259.3
59.5722,289.1
59.5746,125.4
59.5955,101.6
59.5957,101.6
59.5961,83.1
59.6067,102.1
59.6109,90.6
59.6131,858.9
59.6251,97.4
59.6306,315.6
59.6389,574.2
59.6443,101.1
59.6474,408.5
59.661,101.9
59.6661,402.1
59.6763,299.8
59.6798,164
59.6938,296.8
59.6977,169
59.707,158.8
59.716,178.4
59.7317,16.8
59.7458,168.8
59.7575,101.3
59.762,212.2
59.7671,89.7
59.7865,219.4
59.8098,322.1
59.8125,117.9
59.8456,99.2
59.8788,411.2
59.8795,529.1
59.8819,142
59.8832,134.7
59.9061,102.5
59.9086,510.1
59.9133,637.7
59.9268,115.5
59.9325,198.1
59.9355,531.2
59.9511,173.6
59.9782,388.2
59.9799,107.5
60.0027,20.8
60.0092,727.7
60.0242,486.5
60.0264,16.8
60.0385,90.8
60.0496,124.4
60.0577,327
60.0608,107.2
60.0634,18.2
60.0729,118.9
60.1245,18.3
60.1281,638.1
60.1619,111.7
60.1635,229.6
60.1776,372.1
60.1931,118.8
60.199,225.9
60.2123,456.6
60.2133,149.7
60.2317,734.8
60.2352,277
60.241,260.6
60.2472,171.1
60.2478,345.3
60.2779,458.7
60.2794,438.8
60.2906,256.6
60.2968,323.5
60.2971,93.2
60.3189,15.9
60.3379,210.2
60.3431,268.6
60.3466,230.3
60.3525,180
60.3534,372.2
60.3605,132.1
60.3802,92
60.3862,127.5
60.3916,19.1
60.3963,106.9
60.4218,16.1
60.426,361.1
60.4892,167.7
60.5011,103
60.512,315.5
60.5196,409.6
60.5286,134.7
60.531,105
60.5416,167.3
60.5494,378.4
60.555,161.3
60.5554,143.3
60.5698,583.9
60.5702,134.4
60.5919,124.3
60.608,98.5
60.6301,445.9
60.6354,276.2
60.6414,805.8
60.6538,561.3
60.6559,188.9
60.6669,1026.6
60.6677,280
60.6959,654.4
60.7032,822.8
60.7142,178.2
60.7198,16.1
60.7254,170.4
60.7531,148.7
60.7557,305.4
60.7683,114.5
60.7707,130.8
60.7941,116.5
60.8021,128.3
60.8448,145.7
60.861,87.5
60.8643,280.5
60.8701,638.1
60.8717,331.1
60.9147,95.5
60.9294,17.1
60.9427,116.8
60.947,83.3
61.0139,99.3
61.0207,113.4
61.0319,200.7
61.0455,95
61.0472,243.9
61.0615,124.1
61.0631,422.5
61.0683,516.3
61.0853,16.2
61.0895,883.4
61.1127,140.5
61.127,236.3
61.1316,117.5
61.1433,97.5
61.1445,169
61.1468,253.8
61.1483,127.9
61.1596,234.2
61.1847,547.1
61.1975,213.8
61.2021,504.4
61.2206,448
61.221,93.5
61.259,128.4
61.2745,101.2
61.2854,550.1
61.2874,202.2
61.2893,494.2
61.2957,149.2
61.2974,531.8
61.321,296.2
61.3214,404.7
61.3902,136.8
61.4017,93.6
61.4022,153.5
61.4559,223.7
61.4637,102.4
61.4664,934.6
61.4729,320
61.4735,106.5
61.4949,80.5
61.5009,531.1
61.5072,93.7
61.5192,619.9
61.538,19.3
61.5534,564.8
61.5535,580
61.5651,195
61.6171,157.1
61.6249,173.4
61.6336,113
61.6346,189.5
61.6738,787.7
61.6785,552.2
61.6938,229.3
61.7109,245.9
61.7513,17.4
61.7575,248.5
61.7628,18.4
61.7876,102.4
61.803,18.4
61.8408,107.2
61.8426,16.9
61.8673,93.3
61.8697,129.9
61.8705,157.9
61.8833,146.6
61.9046,732.6
61.9182,584.4
61.9254,656.1
61.9281,124
61.9343,154.7
61.9773,174.4
62.0116,16.3
62.0167,596.2
62.0181,127.7
62.0222,19.6
62.0283,304.7
62.0438,437.8
62.062,201.1
62.072,201.9
62.073,514.3
62.0739,305.5
62.0783,114.8
62.1078,142.1
62.1095,643.7
62.1176,161.7
62.1334,18
62.1347,364
62.1831,116.7
62.2079,111.4
62.2152,147.6
62.23,111.3
62.2505,89.8
62.2688,520.2
62.2957,372.6
62.3208,107.5
62.3408,306.2
62.3592,192
62.3871,186.9
62.3925,110.9
62.4033,17.6
62.41,17.1
62.4134,633.5
62.4349,335.4
62.4356,89
62.4739,248.3
62.4749,730.3
62.4956,208.5
62.5008,349.4
62.513,207.3
62.5167,380.5
62.5201,230.4
62.5211,120.1
62.546,678.8
62.5477,204.9
62.5498,687
62.5527,894
62.5676,192.5
62.593,146
62.5937,120.8
62.5982,17.2
62.6099,84.1
62.6278,168.7
62.6614,184.2
62.6741,18
62.7053,19.4
62.7074,151.9
62.7096,182.6
62.7156,568.6
62.7209,18.9
62.7342,757.7
62.7419,127.6
62.7508,190.7
62.7604,112.5
62.7794,122.9
62.7955,17.6
62.7975,104.7
62.7986,298
62.8067,770.9
62.8351,150.8
62.8403,17
62.8553,368.1
62.875,109.5
62.9025,122.5
62.9279,82.2
62.9364,17.9
62.955,486.6
62.9608,351.2
62.9811,87.8
63.0097,319.4
63.0151,394.5
63.0159,14.2
63.035,17.8
63.0419,399.8
63.0676,571.7
63.0832,559.5
63.1003,19.6
63.1118,312.5
63.1251,108.1
63.1677,287.4
63.1714,114
63.1726,579.7
63.1817,119.6
63.1824,517.4
63.1912,299.3
63.1933,109.5
63.2213,94.8
63.2279,111.2
63.237,17.2
63.261,183.5
63.2714,398.1
63.2926,15.9
63.3059,93.9
63.3216,95.9
63.325,132.3
63.3292,19.1
63.341,180.2
63.3563,182.9
63.3738,103
63.3916,439.9
63.3959,19.2
63.3991,272.1
63.4083,193.4
63.4187,134.2
63.4231,231.5
63.4342,84.9
63.4351,276.6
63.4597,98.1
63.4884,682.3
63.4958,127.6
63.5151,659.3
63.559,16.5
63.5612,94.5
63.5839,288.2
63.6402,176.5
63.6458,112.6
63.654,16.3
63.6572,291.2
63.6636,381.2
63.6766,140.7
63.6788,18.4
63.7294,128.1
63.7348,99.3
63.7471,167.1
63.7647,18.8
63.801,134
63.8121,416.6
63.8186,325.3
63.8214,16.5
63.8271,101.3
63.8307,254.7
63.8328,165.1
63.8381,244.8
63.8655,19.4
63.871,171.7
63.8789,95.8
63.884,187.5
63.8862,155.8
63.9005,145.2
63.9014,403.9
63.9078,165.7
63.9211,20.3
63.9362,18.9
63.941,18
63.9484,581.2
63.9552,83.7
64.0051,800.1
64.0314,663.6
64.0386,271.5
64.049,19.7
64.0929,261.5
64.1108,148.7
64.1274,541.7
64.1302,247.4
64.1328,154.4
64.1354,296.5
64.1881,117.2
64.1983,118.4
64.2078,241.5
64.2102,129.3
64.223,183.2
64.2249,161.2
64.2367,357
64.2491,589.9
64.2609,17.8
64.2618,545.2
64.2986,630.8
64.3017,232.9
64.3312,158.3
64.3503,122.9
64.3675,101.2
64.3714,17.8
64.3915,174.4
64.4113,132.3
64.4364,354.9
64.444,463.7
64.4611,144
64.4864,188.2
64.5242,370.8
64.5503,599.9
64.5522,233.8
64.5532,417.4
64.5661,16.7
64.5686,127.1
64.5816,417.2
64.5839,103.2
64.5907,382.2
64.61,90.7
64.623,166.2
64.6281,81.3
64.6301,665.8
64.6418,191.2
64.6577,358.1
64.6742,186.9
64.7139,198.2
64.7169,156.4
64.7212,301.4
64.7287,166.3
64.7338,248.1
64.7354,95
64.7541,285.6
64.7696,103.3
64.7741,510.5
64.7784,303.1
64.785,17
64.8774,97.8
64.888,293.9
64.8889,149.4
64.8945,368
64.8968,86.3
64.8989,85.4
64.901,92.2
64.9223,18.7
64.9383,94.8
64.941,92
64.9517,190.8
64.9694,86.4
64.9723,174
64.9783,310.5
64.9839,83.3
65.0047,187.3
65.0315,493
65.0697,515.8
65.0733,97.5
65.0773,462.5
65.0944,130.3
65.1077,18.2
65.1392,897.8
65.1438,365
65.2037,18.4
65.2138,17.9
65.231,245
65.2385,17.8
65.2394,156.3
65.2662,197.3
65.2819,22.1
65.2883,166.2
65.2951,306.4
65.3036,362.3
65.3351,219
65.3429,431.4
65.3481,320
65.3655,179.6
65.3768,189.7
65.3949,105.9
65.411,107
65.416,99.1
65.4268,18.2
65.4316,631.2
65.4492,369.7
65.4761,16.9
65.4863,18.3
65.4917,165.1
65.4949,103.3
65.4954,19.2
65.5052,85.5
65.547,236.1
65.56,17.1
65.5701,522.9
65.5834,84.5
65.5927,125.4
65.5941,377.8
65.5967,19.7
65.6569,258.2
65.6621,218.4
65.6722,176.3
65.6929,93.8
65.6948,132.6
65.7044,18.7
65.7134,18.6
65.7552,433.1
65.7581,491.6
65.7982,209.1
65.8217,91.6
65.835,178.8
65.8426,106.4
65.8613,235.2
65.8695,97.8
65.8712,180.3
65.8784,134.5
65.8836,235.8
65.8938,19
65.8947,119.9
65.9444,186.3
65.948,309.2
65.9524,90
65.9645,206.4
65.9704,869.2
66.0041,176.7
66.0155,239.6
66.0213,119
66.0478,80.4
66.0482,144.5
66.0522,19.4
66.0558,18.9
66.0566,132.9
66.0573,17.4
66.062,704.6
66.071,98.9
66.0891,350.9
66.0917,169.5
66.0921,399.8
66.0984,154.5
66.1114,108.2
66.1175,19.5
66.1188,246.8
66.1204,140.3
66.1504,195.9
66.1769,165
66.1871,19.3
66.2055,634.9
66.2075,146.5
66.2767,439.7
66.3021,131.8
66.3147,99.9
66.3212,105.5
66.3219,257
66.323,367.9
66.3264,102.8
66.3379,879.6
66.3416,397.3
66.3464,99.4
66.3606,80.2
66.3811,105.1
66.3917,311.4
66.3919,574.6
66.401,208.5
66.4153,106.8
66.47,426.2
66.4938,337.7
66.4962,211
66.5029,85.8
66.5335,166.6
66.5419,18
66.5512,139.4
66.5535,102.8
66.5572,102.3
66.5801,193.4
66.5849,449.7
66.5897,148.6
66.5983,408.2
66.6008,97.8
66.6055,102.5
66.6112,17.3
66.6156,130.7
66.6334,141.6
66.6485,140
66.6595,164.1
66.663,673
66.7364,333.6
66.7592,227.2
66.7706,186.5
66.8033,487
66.8059,306.9
66.8073,98.4
66.8223,131
66.8361,143
66.8442,636.9
66.847,428
66.8582,606.9
66.8692,147.1
66.8954,17.3
66.9026,562.3
66.9066,154.9
66.924,19.1
66.9286,288.9
66.9399,95.8
66.995,152.3
67.0109,394
67.0159,192.3
67.0354,435
67.0372,376
67.0381,542.8
67.0534,402
67.0537,389
67.0735,331.8
67.0781,211.2
67.1303,351.6
67.1599,114.2
67.1648,97.5
67.1783,354.8
67.1928,378.5
67.2021,144.3
67.2051,1294.2
67.2059,17.5
67.2144,107.7
67.2164,20.7
67.2227,324.7
67.2291,17.4
67.2315,19.1
67.2421,190
67.2462,172.5
67.2555,227.2
67.2584,135.1
67.2629,18.2
67.2783,105.5
67.3115,17.2
67.3333,556
67.3479,307.5
67.3625,105.1
67.37,175.7
67.4089,16.5
67.429,112.7
67.436,20.1
67.4471,212.6
67.4518,261.1
67.4742,145.3
67.4754,87.1
67.491,132
67.5171,155.3
67.5304,499.7
67.5348,865.3
67.5387,242.8
67.54,482.7
67.5443,330.4
67.5531,104.9
67.555,85.1
67.5707,94.5
67.5823,95.3
67.5873,110.4
67.608,18.1
67.6085,152.5
67.6139,512.9
67.6375,96.2
67.6567,624
67.6585,139
67.7038,134.6
67.7531,190
67.7606,603.3
67.7629,94.4
67.767,130.1
67.7831,374.7
67.7942,118.4
67.8035,515.5
67.8074,503.5
67.812,15.6
67.8177,107.8
67.8226,406.3
67.8411,137.3
67.8464,311
67.8543,501.3
67.8804,627.6
67.9073,448.8
67.928,123
67.9318,330.7
67.95,410.4
67.9709,169.7
68.0089,431.7
68.0118,267.9
68.021,425.7
68.0372,404.8
68.0421,16.5
68.057,109.4
68.0772,273.8
68.0846,235.4
68.0942,19.5
68.1081,310.1
68.1237,341.5
68.1469,197.3
68.1567,182.4
68.2337,364.2
68.2454,17.4
68.2834,272.3
68.2931,411.1
68.3038,95.9
68.3149,140.2
68.3334,161.4
68.3391,401.2
68.3707,328.3
68.3763,452.4
68.3848,246.4
68.409,19.4
68.4103,105.7
68.4427,182.7
68.4571,920.6
68.4598,804.3
68.5098,104.2
68.5428,201.5
68.5485,500.4
68.5693,16.5
68.5725,660.1
68.5753,109
68.5827,411.7
68.6089,18.1
68.6135,164.9
68.6291,18
68.6295,190.2
68.6753,97.1
68.6759,423
68.6946,223.8
68.7117,629.6
68.7642,350.1
68.7834,15.9
68.7848,643.9
68.7893,94.8
68.7944,90.3
68.7963,346.1
68.8025,113.6
68.8122,657.6
68.8162,439.3
68.8215,159.4
68.8341,102.5
68.8373,617.7
68.8486,139
68.8701,16.7
68.8748,15.4
68.8882,260.7
68.9047,127.5
68.9077,161.5
68.9201,101.4
68.9705,276.5
68.9856,18.5
69.0163,191.2
69.0231,83.7
69.0243,290.4
69.0253,589.1
69.0291,135.1
69.0306,186.9
69.0328,232.7
69.0371,282
69.0495,290.7
69.0547,20
69.0663,17.5
69.0729,659.8
69.0825,150.5
69.086,18.2
69.0909,103.4
69.0961,157.8
69.0979,183.4
69.1104,17.1
69.1483,246.2
69.1785,636.6
69.1935,84.4
69.2283,20.5
69.2321,271.9
69.2382,21.7
69.2466,376.6
69.25,91
69.2568,16.8
69.2777,606.6
69.2949,103.5
69.2984,18.6
69.3081,17.6
69.3202,290.4
69.3371,214.7
69.3411,111.2
69.3444,508.6
69.3478,341.7
69.381,439.9
69.393,161.7
69.4041,607.3
69.4104,154.4
69.4131,434.6
69.4142,372.4
69.4228,748.4
69.4321,294.7
69.4332,19.5
69.4561,550.3
69.5284,388.2
69.5309,396.1
69.5376,160
69.5506,161.5
69.5596,284.5
69.5701,194.3
69.5737,18.5
69.5986,187.2
69.6073,699.5
69.6318,394.9
69.6713,107.2
69.6847,682.3
69.7159,780.8
69.7193,270.3
69.7325,516.7
69.7438,862.7
69.7477,22.9
69.7552,141.8
69.76,169.4
69.7609,1007.3
69.7638,463.6
69.7734,245.6
69.7798,623.6
69.7869,209.1
69.8033,930.7
69.8076,142.5
69.8195,326.3
69.8443,316.7
69.8745,16.5
69.8755,383.1
69.8773,148
69.8852,453.8
69.9023,99.7
69.9127,91.6
69.9578,167.7
70.031,171.8
70.0449,263.4
70.0551,23.7
70.0648,553.7
70.0819,638.2
70.0873,583.5
70.0942,150.2
70.1155,392.4
70.1193,223.7
70.1246,141.5
70.1836,508.5
70.1892,17.8
70.1982,149.7
70.2,184.4
70.2065,688.6
70.2119,506.9
70.2224,1214.7
70.2509,83.4
70.266,162.6
70.2718,582.4
70.2738,317.2
70.2755,760
70.2935,93.8
70.3064,752.1
70.3075,101.9
70.3137,141.6
70.3189,184.1
70.3382,269.1
70.356,105.9
70.3578,123.2
70.3843,197.5
70.3945,383
70.4015,111.4
70.4107,357.7
70.4186,76.6
70.4318,93.8
70.437,236.8
70.4513,95.8
70.4728,606.8
70.4785,229.2
70.4861,176.3
70.5275,16
70.5369,100.3
70.5415,16.3
70.5613,17.8
70.5783,446.6
70.5982,224.7
70.6032,288.1
70.6111,124.8
70.6142,126
70.6174,750.3
70.6285,350
70.6324,531.1
70.6441,308.3
70.6553,341.5
70.6624,127.8
70.6977,145.6
70.7641,18.6
70.7741,124.5
70.7803,352.1
70.7847,17.6
70.7871,99.5
70.8033,335.6
70.807,18.3
70.8273,16.3
70.8363,300.2
70.8566,98.4
70.8762,182.7
70.8793,103.4
70.8881,111.2
70.8899,91.9
70.9154,176.6
70.9191,106.2
70.9317,417.2
70.9322,474.2
70.9466,513
70.9517,248.9
70.9654,343.8
70.9673,106.6
70.9684,112.8
71.0099,17.5
71.0114,277.9
71.0232,15
71.043,556.1
71.0473,459.2
71.0589,281
71.0711,386.9
71.0721,491.7
71.0726,234.6
71.075,419.7
71.1014,451.4
71.1062,249.2
71.1113,606.7
71.1487,93.3
71.1619,844.1
71.1938,510.2
71.1958,181.3
71.201,18.8
71.2266,541.6
71.2281,149.8
71.2661,271.4
71.268,168.1
71.2803,666.3
71.3067,147.3
71.3197,380.5
71.3695,178.2
71.3803,380.5
71.3933,247.9
71.4121,115.5
71.4248,166.4
71.4363,403.7
71.4405,100.5
71.4445,105.3
71.4615,167.1
71.4769,626.3
71.4979,174.4
71.4989,653.3
71.5223,513.9
71.5259,208.1
71.5393,124.4
71.5403,21
71.5641,129.4
71.6233,515.4
71.6313,170
71.6795,19.3
71.6817,397.7
71.6878,518.1
71.6903,20
71.7052,237.7
71.7104,375.4
71.7133,145.6
71.7253,84.2
71.7335,296.5
71.7345,772.1
71.7394,632.5
71.7404,101.8
71.7774,273.8
71.7818,425.9
71.8055,143.2
71.8084,203.3
71.8256,509
71.8488,18.6
71.8832,182
71.9076,20.3
71.9176,268.4
71.9329,310.9
71.9346,457.2
71.9362,264.3
71.9518,97
71.9556,101
71.9856,16.6
71.9906,258.6
72.0342,132.5
72.0353,560.5
72.0432,135.3
72.0455,295.9
72.0473,129.1
72.0805,299.8
72.1198,18.5
72.1376,115.1
72.1426,432.4
72.1466,160.5
72.1706,645.4
72.1875,377.7
72.1914,277.6
72.2089,520.3
72.2154,394
72.2171,400.8
72.2193,743.9
72.2202,346.6
72.2218,1912.3
72.2232,17.3
72.2241,2208.6
72.2255,550.1
72.2265,2015.4
72.2271,2232.4
72.2285,4048.8
72.2294,2646.6
72.2303,1514.8
72.2318,4858.9
72.2335,2986.5
72.2344,2243.9
72.2347,2533.5
72.2353,3406.3
72.2369,3151.1
72.2384,3901.9
72.2397,3419
72.2408,3504.7
72.2414,2631.6
72.2425,1927.2
72.2432,1154.4
72.2444,827.1
72.2447,914
72.2456,449.8
72.2465,536.4
72.2477,1132.9
72.248,1384.9
72.2488,440.7
72.2497,395.2
72.2503,257
72.2512,38.9
72.2531,37.9
72.2538,324.5
72.2542,622.6
72.2543,629.1
72.2553,19.8
72.2567,872.8
72.2588,21
72.2634,161.5
72.2788,596.2
72.294,143.1
72.3069,163.4
72.3114,123.5
72.3161,296.5
72.3285,99.3
72.3292,492.6
72.3418,90.5
72.3678,276.9
72.3795,388.1
72.3804,152.4
72.3949,159
72.4195,373.6
72.427,646.5
72.4334,228.3
72.439,262.2
72.4405,431.1
72.4444,300.1
72.448,224.4
72.4679,17.5
72.4688,711.5
72.4789,137.2
72.4832,368.8
72.4876,436.3
72.4967,17.8
72.4971,123.6
72.5171,118.9
72.5315,20.5
72.5348,18.7
72.5359,564.2
72.5385,296.7
72.549,169.6
72.5591,272.7
72.5674,109.9
72.5683,111.6
72.5767,239.6
72.5922,95.4
72.594,16.6
72.597,361.3
72.6358,238.7
72.6423,292.7
72.6436,18.7
72.6543,104.2
72.6591,210.2
72.6618,259.2
72.6663,718.1
72.6732,623.4
72.6743,16
72.678,589.3
72.7009,360.8
72.7078,112.1
72.7173,184.1
72.7195,18.4
72.7337,284.8
72.7371,203.1
72.746,24.5
72.7497,693.2
72.7505,16.4
72.7522,315.9
72.7532,767.1
72.7575,169.5
72.7717,481.1
72.7771,250.9
72.785,127.2
72.8022,398.8
72.8178,22.3
72.8784,105.8
72.8817,127.3
72.885,162.9
72.8886,507.4
72.9018,149.1
72.9052,109
72.9368,753.7
72.9518,508.8
72.9602,15.8
72.9904,21.5
73.0008,526.9
73.009,354.1
73.028,26.8
73.0286,168.1
73.0362,240.4
73.0433,207.3
73.067,19.3
73.0864,101.6
73.0896,155.4
73.1067,368
73.1254,423.5
73.1263,16.9
73.1302,15.8
73.1382,163.4
73.1579,528.4
73.1631,727.2
73.1643,444.4
73.1854,117.5
73.1949,185
73.2327,619.7
73.2332,291.8
73.2389,577.5
73.2412,406.7
73.2658,165.4
73.2873,314
73.3054,866.6
73.313,314.1
73.3962,206.2
73.4501,97.6
73.4606,173
73.4646,150.9
73.4692,116.1
73.4701,114.3
73.4827,188.2
73.4873,17
73.494,348.9
73.5076,192.5
73.5171,507.6
73.5228,688.4
73.5333,18.9
73.5344,135.5
73.5537,310.5
73.5731,550.1
73.5952,16.6
73.6294,860.7
73.6417,83.8
73.6447,585.9
73.6532,531.8
73.6643,240.1
73.6862,768
73.6891,379.9
73.6901,343.9
73.6914,388.9
73.7144,107.5
73.7286,302.2
73.7493,93.2
73.7624,15.5
73.7743,95.9
73.7774,387.3
73.7843,329.5
73.7889,18
73.803,100.9
73.8044,86
73.806,255.4
73.8081,171.4
73.8232,254.6
73.8259,140.3
73.833,188
73.8514,353.3
73.8706,102
73.8885,108.1
73.9164,171
73.9368,18.6
73.9394,303
73.9416,130.3
73.9652,147.2
73.9674,517.3
73.9748,462.8
73.9883,508.3
74.0044,670.5
74.014,176.9
74.0543,128.6
74.0597,1826
74.1218,215.8
74.1257,412.4
74.1271,467.7
74.149,206.3
74.1503,430.6
74.1649,727.3
74.1653,344.7
74.1691,161.3
74.1789,141.7
74.2124,886.4
74.2283,208.9
74.234,243.5
74.2497,294.7
74.2516,154.6
74.2759,663.5
74.2769,16.5
74.3236,16
74.3509,16.5
74.3577,305.3
74.3758,160.7
74.3946,101.1
74.4233,184.5
74.4328,424.5
74.4651,498.1
74.4738,255.5
74.4768,734.2
74.495,370.7
74.4968,19.5
74.5139,158.9
74.5213,203.6
74.5285,405.5
74.5454,391.9
74.5527,520.7
74.5686,19.5
74.5775,89.2
74.6007,377.7
74.6054,17.6
74.6223,377.4
74.6349,136.2
74.638,120.7
74.6417,137
74.6488,339.9
74.6929,22.1
74.7167,870.3
74.7283,142.4
74.7388,702.4
74.7976,135.2
74.8195,146.2
74.8501,695
74.8564,20.8
74.8835,97.7
74.8869,162
74.9028,229.6
74.9038,78.4
74.9187,20.3
74.9218,16.5
74.9247,521.4
74.9348,166.6
74.9593,546.7
74.9608,220.3
74.993,174.2
74.9958,423.6
74.9971,129.4
75.0462,88.7
75.0572,179.6
75.0704,197.6
75.0734,169.5
75.0802,16.8
75.1069,133.1
75.1094,17.5
75.1198,745.4
75.141,143.1
75.1529,18.1
75.1535,98.8
75.1883,476.1
75.2092,253.9
75.2139,153.9
75.2538,20.2
75.2705,188.4
75.2891,17
75.3154,127.6
75.3183,393.4
75.3203,552.6
75.326,447.8
75.3286,178.4
75.3326,96.2
75.3443,108.9
75.3767,17.8
75.3994,309.7
75.4039,203.2
75.4077,426
75.418,431.5
75.4206,241.7
75.4263,17.8
75.4297,168.5
75.4414,218.5
75.4468,141.2
75.4909,19.1
75.4958,470.6
75.4984,828.9
75.5002,381.8
75.5051,136.9
75.5793,140.7
75.6035,108.6
75.6121,329.1
75.6263,591.4
75.6279,317.8
75.6375,119.4
75.6441,104.5
75.6459,443.5
75.6508,599.8
75.6548,155.6
75.6567,634.9
75.7434,272.9
75.7472,109.6
75.7961,18.4
75.8149,18.1
75.8355,20.6
75.8661,673.7
75.8671,376.5
75.8993,102.2
75.9012,462.5
75.9067,85.9
75.9169,150.6
75.9288,340.9
75.9357,635.8
75.9517,232.6
75.9593,560.2
75.9658,231.4
75.9784,97.1
75.9855,105.9
76.0248,117.5
76.034,634.4
76.0584,463.2
76.0648,19
76.0712,555.7
76.0757,17.2
76.0908,18.2
76.1007,106
76.1039,161.7
76.1346,105.3
76.1455,510
76.175,574.2
76.2309,177.2
76.2531,18.2
76.2734,89.5
76.293,466.9
76.3035,138.1
76.3194,147.3
76.321,617.5
76.3226,400.4
76.3463,93.5
76.3554,181.4
76.3662,376.4
76.3765,20.7
76.3899,649.5
76.3907,347.7
76.3974,80.6
76.4083,19.2
76.41,122
76.4152,99.5
76.4244,199.8
76.433,99.5
76.4348,331.6
76.4437,17.9
76.4584,89.9
76.4738,234.1
76.4961,180.6
76.5072,181.3
76.5218,611.1
76.5324,114.7
76.5408,456.8
76.5472,104.3
76.5745,111.6
76.5871,492.7
76.5983,16.2
76.5992,375.6
76.608,446.5
76.6107,158.4
76.6157,424.6
76.6206,813.3
76.6382,370
76.6389,404.6
76.6538,295.4
76.6589,116.8
76.673,145.2
76.7102,386.2
76.7128,19.1
76.7403,178
76.7553,104
76.7773,170.2
76.818,619.1
76.868,17.1
76.8924,16.9
76.896,390.2
76.9043,176.5
76.9069,661.7
76.9179,169.6
76.9208,21.7
76.9427,509.9
76.9641,203.7
76.9666,17.2
76.9982,299.9
77.0006,248.8
77.0026,214.2
77.019,19
77.0242,253.8
77.0352,23.4
77.0383,103624.8
77.0495,364.3
77.0733,102.6
77.113,318.5
77.1316,114.2
77.1907,552.2
77.2839,578.9
77.3226,418.8
77.3391,387.5
77.3834,469.3
77.3915,150.8
77.4029,93.4
77.4037,549.4
77.4088,279.9
77.4249,189.7
77.459,161
77.4797,19.7
77.5326,326.4
77.5372,426.2
77.5597,359.3
77.5622,531.5
77.5973,177.9
77.6017,137.3
77.6179,197
77.6217,92.6
77.6359,111
77.6577,185.4
77.6684,136.8
77.6815,15.9
77.7124,508.5
77.7175,344.6
77.7294,16.4
77.7327,798.9
77.7543,350.8
77.7644,144.2
77.7912,356.9
77.8071,671.7
77.8275,159.4
77.8533,213
77.8667,182.2
77.8884,219.9
77.9412,16.8
77.9425,19.3
77.9732,15.5
78.006,525.5
78.029,568.1
78.0416,3139.9
78.0529,524.4
78.0874,375.1
78.0925,102.6
78.0949,290.6
78.0956,192.4
78.116,648.8
78.1313,20.5
78.138,94.6
78.1519,782.2
78.156,117.8
78.1678,94.3
78.1931,686.5
78.1948,702.1
78.2222,113.2
78.2296,485.8
78.2322,176.2
78.2604,377.6
78.2636,205.8
78.2675,726.9
78.2814,527.6
78.2866,121.3
78.3018,563.5
78.3594,368.3
78.3784,175.2
78.3948,93.7
78.4113,428.7
78.47,99.3
78.4882,497.1
78.5304,191.3
78.5447,142.3
78.5484,100.4
78.5624,107.5
78.5727,422
78.6584,400.3
78.7141,78.5
78.7435,377.4
78.7505,99.4
78.7685,366.4
78.7975,438.8
78.8023,377.9
78.8191,101.3
78.8451,561.7
78.8665,187.5
78.8681,480.7
78.8698,129.1
78.8753,383.9
78.923,21.6
78.9302,438.2
78.9311,163.2
78.9482,250.9
78.9524,97.4
78.9968,81.8
79.0101,17.8
79.011,16.3
79.054,1793.3
79.1301,182.7
79.1363,141.6
79.1368,197.6
79.1586,387.8
79.1744,151.3
79.2148,175.1
79.2187,327.3
79.2267,17.2
79.261,791
79.2965,172.4
79.3214,98.6
79.3885,18.1
79.3954,21.3
79.4012,304.3
79.421,361.3
79.4455,131
79.5023,117.2
79.5442,519.3
79.5776,197.6
79.5895,342.1
79.6148,419.3
79.6355,85.8
79.6385,151.6
79.6692,553.6
79.6952,124.9
79.7198,520.6
79.7286,178.6
79.7389,96.9
79.7454,174
79.7524,236.3
79.7699,189.9
79.7734,17.9
79.7958,135.2
79.8173,190.5
79.8254,17.6
79.8747,815.8
79.8956,627
79.8975,624.1
79.908,17.7
79.9241,16.7
79.9697,166
79.9798,206.6
80.0026,713.9
80.0143,220.5
80.0487,203.4
80.0777,133.2
80.0908,108.4
80.0961,163.4
80.1095,162.7
80.1169,470.2
80.146,110.6
80.1691,135.8
80.1904,149.7
80.202,290.8
80.2165,278.7
80.2356,274.7
80.2446,643.2
80.2568,737.5
80.2674,90.8
80.2722,386.6
80.2743,146.5
80.2843,373.8
80.3155,472.5
80.3423,18.2
80.3457,437.6
80.3559,17.1
80.3581,206.3
80.3601,473.3
80.3756,94.2
80.3894,476.8
80.4091,170.5
80.4311,153.4
80.4374,121.9
80.4414,656.6
80.4564,453.5
80.466,435
80.4873,117.2
80.4879,142.8
80.5021,568.3
80.5037,425.1
80.5172,113.7
80.5264,430.3
80.5303,857.9
80.5358,202.5
80.6478,189.7
80.6748,134
80.6788,85.1
80.6901,100
80.7108,140.8
80.7335,393.5
80.7421,304.5
80.7456,412.6
80.7486,198.9
80.7617,515.4
80.7626,19
80.7685,338.3
80.7836,223.2
80.8057,16.7
80.8094,114.1
80.8625,178.2
80.8944,124.6
80.9015,415.8
80.9088,194.9
80.9182,277.6
80.9234,414.2
80.9476,31735.6
80.9644,198.7
80.9722,265.7
80.9764,243.3
80.9905,414.7
80.9963,167.9
81.0255,115.7
81.0432,103.9
81.0561,232.3
81.0696,1480
81.0735,447.7
81.0811,390.8
81.1088,166.8
81.1424,125.7
81.1451,17.8
81.148,133.3
81.1628,599.4
81.1686,725.9
81.1703,235
81.1711,40.7
81.1721,200.9
81.1729,1073.4
81.1738,271.6
81.1751,867.5
81.1898,383.6
81.1918,795.5
81.2095,189.8
81.2251,197.9
81.2262,672.8
81.2473,234.5
81.2597,436.8
81.2651,82.4
81.2976,681.5
81.363,15.5
81.3873,18.6
81.4052,168
81.4241,268.1
81.4492,417.1
81.4512,431.2
81.4546,147.5
81.4777,639.4
81.4875,18.6
81.4971,284.1
81.5053,390.6
81.5125,673.5
81.5326,343
81.5537,17.3
81.5692,149.2
81.598,323.1
81.6079,596
81.6177,177.4
81.6233,111.1
81.6407,135
81.6476,23.7
81.7013,19.5
81.7034,159.9
81.7448,112.7
81.7496,220.6
81.7561,462.5
81.7982,291.2
81.8526,90
81.8742,710
81.883,541.9
81.8974,185.1
81.9153,15.7
81.9345,545.9
81.9416,559.8
81.9754,17.5
81.9853,397.3
81.9894,340
82.0024,427.9
82.0088,227.1
82.021,172.4
82.0319,208
82.0598,141.7
82.0682,137.9
82.0828,415.9
82.0882,113.5
82.0911,436.6
82.1135,155.2
82.1961,172.1
82.255,17.5
82.294,1111.6
82.2996,653.3
82.328,19.2
82.3289,127.7
82.3319,220.5
82.3587,18.6
82.4042,438.8
82.4165,866.4
82.427,234.2
82.4393,156.2
82.4523,293.6
82.4557,133
82.4564,562.2
82.4786,513.5
82.4858,172.8
82.494,677
82.5015,296.9
82.5052,383.8
82.5259,402.6
82.5631,126
82.5788,131.6
82.594,122.3
82.5978,295.4
82.6174,416.1
82.623,114.8
82.6243,115
82.6544,506.5
82.659,397.7
82.6628,128.2
82.6697,652.4
82.7065,108.1
82.7211,440.1
82.7326,17.2
82.7516,130.1
82.7821,507.6
82.7894,419.1
82.8201,461.9
82.8298,102
82.8325,184.3
82.8703,271.7
82.8967,232.8
82.9007,540.2
82.9037,132.3
82.9162,148.1
82.9316,142.4
82.9365,166.9
82.9446,8832.1
82.9708,373.1
82.9987,895.9
83.0057,451.5
83.0079,119.2
83.0214,162.9
83.0487,171.8
83.0587,181.8
83.075,18.4
83.0771,92.5
83.0854,23.1
83.0887,696.5
83.098,77.6
83.1042,84.2
83.1128,253.2
83.1161,512.6
83.1253,17.9
83.1574,19.2
83.1614,24.4
83.242,106.2
83.278,112.1
83.2843,115.4
83.2858,230.9
83.2933,200.4
83.2952,94.1
83.3088,216.1
83.3141,385.9
83.3225,17.3
83.3262,134.2
83.3291,225.5
83.3298,17.2
83.3426,129.7
83.3584,396.2
83.3617,297.6
83.3954,21
83.4301,205.1
83.4314,279
83.4581,294.5
83.4604,173.1
83.464,179.8
83.4804,443.2
83.4953,17.3
83.5297,102.4
83.5438,358.3
83.5566,168.8
83.576,19.5
83.5852,122.9
83.5896,19.5
83.6083,252.4
83.6119,122.8
83.6163,923
83.6383,601.8
83.6486,184
83.6977,190.2
83.7337,339.8
83.7499,161.4
83.7637,195.3
83.7859,384.1
83.7942,678.1
83.8382,311.9
83.8554,416.7
83.8732,436.5
83.9298,262.1
83.934,553.2
83.9413,127.3
83.9611,241.2
83.9663,260.7
83.9682,566.4
83.9703,142
84.03,201.9
84.0441,873.9
84.0541,548.2
84.0556,350.5
84.0568,786.4
84.0738,205.4
84.0786,301.8
84.0806,650.5
84.084,121.6
84.1162,92.7
84.1348,184
84.1531,557
84.1715,227.5
84.1802,199
84.1933,586.6
84.2004,118
84.2384,186
84.2442,163.4
84.2526,16.3
84.2604,621.7
84.2642,19.9
84.2744,21.2
84.3484,96.2
84.3539,346.2
84.366,227
84.3753,117.7
84.389,597.4
84.3932,188.9
84.4149,484.8
84.4627,259
84.4754,345
84.5034,514.1
84.5615,252.5
84.6284,526.1
84.6321,121.6
84.6579,19.5
84.7186,186.6
84.7254,203.4
84.7287,18.9
84.7462,657.3
84.7499,248.9
84.7722,130.9
84.7861,667.3
84.7904,272.2
84.8252,758
84.8705,118
84.8806,449.4
84.8833,97
84.8852,195.5
84.8919,165.3
84.9055,156.1
84.9584,379.9
84.9595,13759.2
84.97,387.8
84.9763,316.9
84.9819,101.1
85.0016,133.1
85.0052,18.7
85.0158,120.9
85.0282,11700.4
85.032,212.1
85.0336,806.2
85.0387,15.9
85.0439,203.9
85.0674,408
85.0723,421.7
85.0738,635.1
85.0747,121.7
85.1179,17.4
85.148,273.8
85.1602,17.3
85.1633,116.1
85.1704,177.7
85.1813,206.6
85.2324,17
85.3125,485.9
85.3464,216.2
85.3594,169.4
85.3808,204.7
85.4209,165.5
85.4236,87.2
85.4355,234.9
85.4661,390.1
85.4753,139.9
85.4822,368.1
85.5071,18.7
85.5095,918.2
85.5281,818.3
85.5371,240
85.5812,234
85.6117,133.3
85.6229,111.9
85.6246,702.2
85.6562,280.4
85.6622,355.3
85.6798,240.3
85.6842,282.3
85.7073,216.3
85.7675,230.5
85.7688,267.9
85.7723,697.6
85.7764,165.6
85.7807,107.3
85.8023,190.7
85.8033,192.7
85.8158,132.8
85.8161,129.5
85.8164,131.9
85.8475,216
85.8635,228.3
85.8643,762.8
85.9223,274.1
85.9248,203.5
85.9292,229.1
85.9729,115.2
85.9779,213.7
86.0232,134.8
86.0598,22228.2
86.0672,312.4
86.074,107.3
86.0916,167.5
86.0962,146410.7
86.1234,228.3
86.134,20
86.16,167
86.1696,114.3
86.2284,129.1
86.2411,22.3
86.2529,240.4
86.2633,17.3
86.2718,137
86.3652,136.2
86.3665,185.4
86.3744,143.2
86.3855,747.3
86.4265,181
86.461,17.4
86.5023,138.6
86.516,18.6
86.5272,205.2
86.5339,367.9
86.5505,456.6
86.5712,220.1
86.5869,981.3
86.5941,473.1
86.622,394.4
86.6369,19
86.6817,614.3
86.6855,376.2
86.7083,119.1
86.7368,16.8
86.7773,285.1
86.8475,183.8
86.8668,607.5
86.8781,86.1
86.9035,765.5
86.9188,458.8
86.9526,124.3
86.9598,215.6
86.9792,108.4
86.9978,392.1
87.0248,184.4
87.0397,111.4
87.0463,706.7
87.051,648.9
87.0996,5267.8
87.1056,94.9
87.1173,83.9
87.1419,101.5
87.196,114.4
87.212,600.4
87.2139,161.2
87.2349,16.9
87.2354,103.8
87.2435,968.4
87.2747,197.5
87.279,925
87.2801,182.2
87.2823,179.2
87.3049,128
87.3091,658.1
87.3103,121
87.3425,175.6
87.3515,438.7
87.3531,105.1
87.3631,467.1
87.3753,17.4
87.4046,339.9
87.4136,175.3
87.4577,19.7
87.5206,116.3
87.5511,368.6
87.5559,304.1
87.5593,326.1
87.5618,178
87.5818,109.3
87.6061,546
87.6415,255.8
87.6712,186.1
87.6726,452.8
87.6835,265.7
87.6871,18.9
87.7294,616.8
87.7465,483.3
87.7491,17.1
87.765,145.4
87.8069,211.1
87.8249,384.7
87.8725,580
87.8801,212.7
87.8868,597.9
87.9008,618.3
87.9052,115.1
87.9255,487.8
87.9584,248.4
87.9603,100.8
87.9613,243.6
87.9778,164.1
87.9836,506
88.0144,100.8
88.0172,520.9
88.0391,4452.4
88.122,146.5
88.1264,18.4
88.133,134.6
88.1792,318.8
88.1866,23.7
88.1954,17.8
88.1988,211.2
88.2165,19.4
88.2262,160.7
88.2393,172.8
88.2475,637.7
88.2766,440.2
88.2878,535.4
88.3035,263.9
88.3056,103.1
88.3136,108.3
88.3497,109.2
88.3565,789.6
88.3594,140.1
88.3715,223.7
88.3807,488.4
88.3828,1048.6
88.3839,451.6
88.4053,382.4
88.4056,489
88.4059,342.3
88.4102,166.2
88.4254,174.3
88.4267,178.2
88.4485,357.6
88.4739,861.7
88.477,226.9
88.4949,407.4
88.5151,249.1
88.5376,331.6
88.5568,137.7
88.5699,222.3
88.6043,99.6
88.6079,16.8
88.7139,89.4
88.7282,91.4
88.7544,675.9
88.7556,475
88.7682,162.5
88.7705,143.2
88.8272,95.1
88.8427,115.6
88.8616,23
88.8705,256.5
88.8907,373.9
88.8925,546.9
88.9016,343.3
88.9046,99.9
88.9522,47.6
88.9551,138.5
88.9682,16.4
89.0174,638.9
89.0353,18.6
89.0601,18.5
89.0811,18.2
89.0924,119.3
89.1079,801.6
89.121,404.6
89.1487,20.8
89.1504,468.5
89.1745,221
89.1781,443.5
89.1866,567.8
89.1874,207.4
89.1889,158
89.1988,841
89.2588,551.1
89.2818,191.7
89.2822,144.9
89.2825,163.7
89.2918,103.6
89.3235,167.8
89.3527,725.5
89.3691,210.5
89.4035,365.7
89.415,209.1
89.4324,312.1
89.4348,18.3
89.4495,17.1
89.456,979.3
89.5391,102.5
89.5425,213.4
89.5586,289.9
89.5624,232.9
89.5842,929.4
89.5902,444.4
89.6104,19.7
89.7036,19.1
89.7075,142.1
89.7416,17.3
89.7445,401.2
89.7868,509.8
89.8208,179
89.8231,21.3
89.8526,156.7
89.8572,154.9
89.9071,148
89.9278,106.7
89.9465,182.2
89.9608,24.3
89.9635,370.5
90.0021,264.5
90.0539,158.2
90.0567,18.5
90.0682,19.8
90.0823,405.8
90.0874,251.1
90.0967,473.1
90.2005,226.4
90.2137,685
90.2297,249.5
90.2354,29.6
90.2369,344.8
90.2969,107.7
90.3115,885.9
90.3156,91.6
90.3442,467.1
90.3663,408.5
90.3984,340.2
90.4627,101.6
90.4854,120.6
90.5069,359.2
90.5188,179.4
90.5292,16.5
90.6059,545.1
90.608,159.5
90.6331,172.3
90.6448,492.3
90.6468,698.9
90.6616,450.4
90.7015,469.4
90.7147,220.3
90.7445,196.4
90.7572,20.9
90.7907,20.4
90.8146,224.7
90.8173,186
90.8205,596.1
90.8301,173.2
90.8331,108
90.8717,437.7
90.8778,510.4
90.8904,304.2
90.8967,269.4
90.9031,165.6
90.9111,548.9
90.9292,117.2
90.9396,159.9
90.9475,3484.6
90.9647,20.6
90.9764,6069.3
90.9895,243.8
90.9995,112.3
91.0232,773.1
91.0302,176.2
91.0389,512.3
91.0497,19
91.054,1463.5
91.0677,181.5
91.0695,171.6
91.1151,560.3
91.123,190.8
91.1391,101
91.1513,397
91.155,455.1
91.2245,227.7
91.2362,492.5
91.2427,249
91.2786,96.3
91.3136,19.3
91.3398,19.5
91.3499,854.7
91.3949,498.7
91.4106,164.5
91.4413,112.8
91.4626,432.8
91.5128,157.5
91.5216,164.3
91.5269,313.8
91.5409,536.7
91.542,327.2
91.5604,361.2
91.5692,419.4
91.5775,876.6
91.5952,170.8
91.6215,167.9
91.6712,205.3
91.6884,579.1
91.6948,144.6
91.7048,389
91.7119,306.3
91.7389,162.4
91.7503,479.4
91.7721,883.2
91.7801,241.2
91.7811,347.1
91.7845,210.9
91.7851,190.7
91.8011,16.9
91.8138,18.3
91.8275,105
91.8491,104.9
91.8536,228.7
91.8598,192.6
91.864,553.9
91.8699,212.2
91.9105,813.9
91.9246,761.5
91.9302,596.5
91.9424,20.6
91.9474,129.2
91.9504,407.9
91.9808,93.9
92.0413,147.1
92.0493,187.1
92.0825,354.5
92.1152,500.7
92.1412,262.6
92.1525,96.1
92.1721,83.4
92.1783,18.3
92.2193,221.1
92.2786,758.2
92.2962,425.6
92.3301,84.7
92.3372,222.7
92.3661,18
92.3902,210.6
92.3911,403.1
92.417,422.2
92.44,366.5
92.4464,141.8
92.4988,17.1
92.4995,138
92.5331,18.3
92.5484,169.7
92.5678,336.8
92.575,562.5
92.6875,817.2
92.7117,514.2
92.7293,143.3
92.8021,206.3
92.8201,733.9
92.8288,214.3
92.8347,718.3
92.8503,381.8
92.8747,93.3
92.8827,382
92.9412,92.1
92.9488,465.8
92.998,319
93.0125,304.6
93.031,262.1
93.0507,523.7
93.0598,389.6
93.0695,19.1
93.0781,425
93.0987,18.6
93.107,205.6
93.1325,166.4
93.1427,456.3
93.1476,161.2
93.1987,116
93.273,304.7
93.2829,176.8
93.3082,510.2
93.3949,132.6
93.4049,468
93.4392,387.5
93.4426,207.6
93.4447,151.3
93.4525,85.1
93.493,224.1
93.5203,148.8
93.5573,423.3
93.5806,213.6
93.6185,375
93.6958,101.7
93.7008,278.1
93.7079,146.7
93.7148,429.9
93.7491,145.9
93.8021,684.4
93.8104,118
93.811,99.3
93.8295,20.1
93.8458,667.8
93.852,104.4
93.8716,341.2
93.878,368.6
93.885,785.2
93.9219,133.2
93.9356,110.3
93.9652,617.9
93.9679,20.6
93.9941,150.9
94.0078,200.4
94.0301,153.8
94.0371,19
94.0386,33.9
94.039,34.8
94.0398,478.8
94.0411,54452.2
94.0447,395.5
94.0569,548.7
94.0646,328
94.0732,358.7
94.0892,338.7
94.115,119.9
94.1587,615
94.1707,80.9
94.2172,306.4
94.2425,512.1
94.2475,178.3
94.2729,556.8
94.3035,114
94.3071,355.3
94.3086,336.1
94.3165,379.2
94.3277,154.4
94.3287,340.5
94.3728,173
94.3734,516.2
94.3761,429.6
94.3788,386
94.3898,690.4
94.3923,573.4
94.4068,618.6
94.4123,185
94.4395,19.7
94.4557,533.4
94.4716,19.6
94.5595,21
94.5716,106.3
94.5959,865.2
94.6079,214.7
94.6173,194.5
94.6381,735.2
94.6561,802.9
94.6749,132.9
94.6929,17.7
94.7195,665.9
94.7249,216.5
94.7366,282.2
94.7979,304.4
94.8234,19.7
94.8381,384.5
94.8611,163.9
94.8787,570.3
94.9096,765.2
94.9203,126.8
94.9234,448
94.9607,529.5
94.9978,510
95.0445,1007.6
95.0462,56.9
95.0469,69.9
95.0489,376316.9
95.051,57.1
95.0512,54.9
95.0524,295.9
95.0581,706.7
95.0599,146.8
95.0623,27.6
95.08,555.4
95.0853,820.6
95.1057,166.3
95.1114,229.9
95.1234,572.1
95.1316,242
95.138,468.3
95.1606,18
95.1728,375.4
95.1848,22
95.2167,110.5
95.2332,261.5
95.2431,126.1
95.3628,512
95.3694,243
95.4438,116.3
95.4477,104.5
95.5351,533.7
95.5597,345.9
95.5602,333.9
95.5665,317.6
95.5676,100.8
95.5804,272.9
95.6016,117.2
95.6171,827.2
95.6174,805.7
95.6245,107.5
95.639,98.4
95.6428,169.7
95.6471,132.4
95.6857,82
95.6984,160
95.7128,185.7
95.795,513.3
95.8407,123.7
95.8619,219.8
95.8713,99.4
95.8876,164
95.9021,181.8
95.931,560.8
96.0523,18086.5
96.0807,23.1
96.1181,18.4
96.1271,19.9
96.139,176
96.1873,347.7
96.2076,89.5
96.2639,91.9
96.2911,237.4
96.3095,131.1
96.3271,636.1
96.338,365.8
96.3594,162.1
96.3799,164.4
96.4347,180.3
96.4451,235.8
96.4474,783.2
96.452,251.7
96.4718,339.2
96.4755,248
96.5166,157.5
96.5536,455.4
96.5932,15.9
96.5966,160.1
96.6352,116.8
96.6508,22.9
96.7929,105.4
96.8089,661.1
96.8106,324.4
96.8801,418.4
96.8893,217.5
96.9115,164.6
96.9216,122420.3
96.9374,151.1
96.9435,172.3
96.964,654.4
96.9857,18
96.9891,113
97.0074,134.6
97.0104,66.4
97.0532,25.4
97.0556,42.2
97.0659,110
97.082,195.7
97.0946,18.2
97.101,27.5
97.1332,17
97.1343,348.4
97.161,98.4
97.1627,102.2
97.194,732.4
97.1989,474.3
97.2395,175.1
97.2898,18.9
97.3111,131.3
97.3234,519.4
97.3465,15.9
97.3615,142.7
97.3864,734.2
97.3931,18
97.444,156.5
97.4665,117.3
97.4686,237.6
97.4764,484.6
97.4924,20
97.4966,134.4
97.5338,402.7
97.5366,89.2
97.5378,126.7
97.5598,18.7
97.5898,884
97.6144,494.7
97.623,205.2
97.6405,379.6
97.6626,349.7
97.6765,141.8
97.6968,102.1
97.7309,87.5
97.7413,144.6
97.77,143.3
97.7954,110.4
97.8452,17.3
97.8637,212
97.8692,465.4
97.8704,317.1
97.8793,274
97.9005,128.5
97.9431,16.4
97.9573,621.4
98.0156,275.5
98.0365,1010
98.046,136.3
98.0487,80.9
98.0497,325.9
98.088,325.1
98.0904,269.8
98.1064,267
98.1431,566.5
98.1453,1027.8
98.1756,305.4
98.1868,629.5
98.2541,238.7
98.2676,141.6
98.3554,235
98.365,18
98.3672,1038.5
98.3696,765.2
98.4103,399.9
98.4166,171.3
98.4678,21
98.4879,76.5
98.4963,214.3
98.5494,178.8
98.5584,630.1
98.5829,157.9
98.5833,171.1
98.5836,184
98.6108,17.3
98.6299,327.1
98.6674,175.8
98.6874,141.4
98.7065,108.6
98.7166,278.8
98.7628,92.8
98.8092,359
98.8227,116.8
98.8678,153.6
98.8864,569.3
98.9187,33281.5
98.9197,4017.6
98.9593,20.5
98.9751,10093.6
98.9768,797.3
98.984,93.6
98.9941,629.9
98.9968,118.7
99.0149,423.2
99.0221,184.3
99.0506,642.7
99.0538,134
99.0607,476.6
99.0635,171.7
99.0719,646.1
99.0799,756.1
99.0876,140.2
99.0916,38
99.0939,132.2
99.1024,87.4
99.1055,101.2
99.1306,363.9
99.2117,638.7
99.2138,95.1
99.2172,341.7
99.2201,142.2
99.2358,90.8
99.2679,252.5
99.3097,153.8
99.334,193.7
99.3423,374.2
99.3585,110.7
99.3766,18
99.3983,364.3
99.4111,155.6
99.4353,123.5
99.442,16
99.4747,109.1
99.4863,573
99.4984,749.9
99.5474,149.9
99.6082,163.4
99.6203,152.7
99.6238,120.7
99.6277,374
99.6419,223.9
99.6631,183.8
99.671,118.7
99.7035,263.1
99.7784,265.7
99.8135,417.5
99.8466,398.2
99.8496,899.3
99.8591,18
99.8633,173.7
99.8723,536.5
99.8853,207
99.9217,184.7
99.9323,246.7
99.9357,349.6
99.9621,544.2
99.9661,120.4
99.9957,96.7
100.0037,100.1
100.0599,82.9
100.1008,18
100.115,548.5
100.1606,165.1
100.1674,410.7
100.1962,570.5
100.2134,565.2
100.2256,144.3
100.2275,125.5
100.2845,19.2
100.3219,135.7
100.3464,128.3
100.3627,151.2
100.3848,115.3
100.3889,183.9
100.4121,135.9
100.4253,191.1
100.4622,296
100.49,21.2
100.4946,195.2
100.519,276.5
100.5682,88
100.5706,381.7
100.577,512.4
100.5871,110.9
100.6274,249.9
100.6688,16.1
100.7136,175.7
100.7574,308.3
100.7816,105.4
100.8106,210.6
100.8386,89.3
100.8425,194.5
100.861,214.9
100.8737,452.3
100.8835,380.9
100.8857,334.8
100.9317,126.2
100.9423,674.9
100.9677,446.7
101.0064,261.7
101.03,19.5
101.0416,360.5
101.0469,522.9
101.0527,480.4
101.053,517.8
101.0575,241.7
101.0596,18.8
101.0707,1306.6
101.1025,151.3
101.1675,185.3
101.1723,504
101.188,215.8
101.1912,110.1
101.2285,570.1
101.2302,106.6
101.2478,18.5
101.2644,369
101.2744,700.7
101.2901,385.1
101.2925,110.4
101.3136,16.9
101.3504,162.1
101.4239,648.2
101.4278,24
101.4735,20.5
101.4916,455.4
101.5077,216.8
101.5434,181.3
101.5545,17.6
101.5703,162.1
101.6291,220.5
101.6476,17.1
101.6818,302.6
101.7092,146
101.7419,342.6
101.7439,20.4
101.7605,322.1
101.794,340
101.8056,133.8
101.8217,500.3
101.834,181.6
101.8639,148
101.8734,108.5
101.9073,459.6
101.9307,525.8
101.9365,16.6
101.9635,299.3
101.9795,416.6
102.0359,95.3
102.0548,3263.8
102.0755,158.8
102.0934,158.6
102.1103,463.9
102.1332,17.5
102.1352,143
102.1442,17.8
102.1496,138.7
102.162,157.3
102.1684,142.9
102.1746,310
102.1893,546.2
102.1918,164.6
102.209,101.1
102.2351,395.7
102.24,89.1
102.2479,152.7
102.2624,17.8
102.2886,110.2
102.3043,267.4
102.3401,170.5
102.3901,132.9
102.4193,623.9
102.4366,113.8
102.4657,18.9
102.4865,153.8
102.4933,179.7
102.4941,660.8
102.5136,16.9
102.5326,185.2
102.5375,357.6
102.552,746.3
102.5549,445.2
102.635,21.3
102.6585,834.6
102.6943,17.8
102.6947,22.9
102.6952,16.5
102.7043,147.5
102.7174,254.2
102.7357,187.1
102.7618,107.3
102.7927,350.9
102.796,144.8
102.8017,576.8
102.8045,19.6
102.8097,18.8
102.8173,18.8
102.8473,125
102.851,395.7
102.9305,346.8
102.9653,165.9
102.9681,141.3
102.9701,477.3
102.976,186.2
102.983,209.7
103.013,188.4
103.0494,298.1
103.0538,630.2
103.0864,85.3
103.0884,245.5
103.1047,133.1
103.1414,23.8
103.1587,206
103.1615,322.1
103.1633,91.1
103.1812,100.3
103.1963,191.6
103.2048,123.4
103.3051,692
103.318,280.9
103.3219,308.3
103.342,394.9
103.3642,833.9
103.3834,21.3
103.3986,808.3
103.417,104.7
103.4193,110.5
103.439,188.7
103.4817,252.6
103.4916,133.2
103.5159,91.1
103.5276,185.9
103.5322,122.9
103.5382,477.4
103.5464,445.1
103.5611,141.3
103.6153,20.1
103.6269,762.9
103.6821,150.2
103.7215,226.7
103.7464,413.9
103.7622,93.2
103.764,925.1
103.7734,649.5
103.7903,113.4
103.7928,249.2
103.8042,326
103.8121,431
103.8694,913
103.9585,20.1
103.9727,99.5
103.9746,548.6
103.9792,281.1
103.9841,152.9
103.9957,145.5
104.0222,166.6
104.0233,239.5
104.0439,100
104.0784,82.1
104.1068,650596.4
104.1449,460.3
104.1614,104.1
104.1646,122.6
104.1983,333.8
104.2023,18.2
104.2544,242.7
104.2671,136.7
104.2939,156.9
104.3281,934.1
104.3492,365.5
104.3522,18
104.3713,688.8
104.3788,569.8
104.4074,145.9
104.4159,420.7
104.4323,670.5
104.4749,426.1
104.518,206.3
104.5312,113.6
104.5408,177.8
104.556,565.6
104.5588,445.8
104.568,378.2
104.5708,552.9
104.5818,241.1
104.5837,207.3
104.5903,289.9
104.5911,352.8
104.6005,409.4
104.6023,218.5
104.6048,446.2
104.6131,113
104.6336,109.9
104.6372,235.2
104.6494,387.9
104.657,835.8
104.6669,147
104.6862,403.7
104.7276,591
104.7556,376.6
104.761,485.4
104.7689,532.8
104.7862,192.1
104.8208,655
104.8306,218.3
104.8369,15.3
104.8627,377.1
104.8816,163
104.8852,288
104.9453,755.6
104.948,112.6
104.9632,4137.9
104.9737,398.3
104.9921,772.1
105.0032,25.7
105.0222,244.8
105.0302,800.9
105.0339,596.4
105.0446,35490.4
105.0639,322.2
105.1102,23434.7
105.1181,252.5
105.1403,105.8
105.1431,294.6
105.1443,242.6
105.1973,382.1
105.2052,251.6
105.2151,408.3
105.225,17.4
105.2404,116.9
105.2634,327.5
105.278,500
105.288,169.4
105.292,22.8
105.3499,654.4
105.4328,126.7
105.4341,219.8
105.4607,155.1
105.4856,21
105.4879,185.7
105.506,16.9
105.5588,660.5
105.5986,543.2
105.6586,248.6
105.6607,249.7
105.6648,129.9
105.6666,257.3
105.6797,115.8
105.7311,121
105.7652,853.2
105.7747,482.9
105.7851,177.4
105.7871,224
105.811,404.9
105.8376,581.6
105.8557,346.4
105.8753,849.9
105.8922,393.2
105.8983,540.1
105.9207,299
105.9245,160.1
105.9286,101.2
105.9324,18
105.9339,415.4
105.938,115.5
105.9455,170.4
105.9739,18.1
105.9848,104.2
106.0221,16.4
106.0372,261.6
106.0479,495.7
106.065,65.4
106.0776,16.7
106.0836,365.7
106.0968,470
106.1169,115.5
106.1203,213.3
106.1298,18.3
106.1546,269
106.1577,108.1
106.2338,639.5
106.2614,15.9
106.263,227.8
106.281,102.5
106.2908,17.3
106.3245,106.2
106.3366,172.1
106.3681,141.1
106.3768,165.7
106.3954,17.5
106.4079,160
106.4271,82.9
106.4312,414.9
106.4667,749.9
106.4809,433.3
106.4819,214.2
106.5078,325.2
106.5761,16.8
106.6206,472.3
106.6892,125.7
106.7591,152.9
106.7897,20.3
106.7939,19.4
106.7948,556.1
106.8065,16.5
106.8203,175.7
106.8459,834.5
106.883,298.5
106.897,127.3
106.9235,575.9
106.9395,492.4
106.9433,44.8
106.9505,4476.7
106.9636,21.3
106.9762,467
106.9899,16.4
106.9917,39.8
106.9943,178
107.0039,293.2
107.012,398.1
107.0282,51.2
107.049,358
107.0536,292.2
107.0701,273.7
107.084,108.9
107.0853,44.6
107.1112,100.8
107.1144,201.6
107.149,296.6
107.1584,573.1
107.1935,125.1
107.2055,199.6
107.2189,372.5
107.2212,660.8
107.2302,128.3
107.2626,286
107.2684,550.4
107.285,230.5
107.2894,433.5
107.2919,180
107.3013,17.6
107.3167,539
107.3289,360.2
107.3343,96.7
107.3947,359.9
107.4184,18.1
107.4303,18.3
107.4383,274.6
107.4549,371.7
107.4578,19
107.476,226.6
107.4933,17.3
107.5035,145.6
107.5222,708.9
107.532,398.3
107.5585,22.6
107.5655,143
107.5735,394.8
107.6091,218.2
107.6466,699.3
107.6671,166.9
107.6893,158.1
107.7381,81.4
107.7435,713.5
107.7535,589
107.7548,167.3
107.8195,164.4
107.8362,93.4
107.8402,148.2
107.862,140.4
107.9301,413.6
107.9366,384.6
107.9484,397.5
107.9783,245.8
107.9871,390
108.0729,152.9
108.0889,216.3
108.0932,378.1
108.1076,16.8
108.12,778.6
108.1638,547.8
108.1762,467.1
108.1817,531.2
108.1893,17.8
108.1932,113.4
108.2242,410.1
108.2254,23.2
108.2331,377.3
108.2392,585.8
108.2437,97.5
108.2594,235.1
108.2632,567.5
108.2701,164
108.2756,241.6
108.3252,143.1
108.3286,375.2
108.3361,577.2
108.3382,218.2
108.4247,382.4
108.5151,318.6
108.5548,174.3
108.5567,168.2
108.5727,631.8
108.5978,131.4
108.6405,139.6
108.6752,113.3
108.6831,108.9
108.6864,182.2
108.7111,647.2
108.7158,153.2
108.7202,16.1
108.7764,368.8
108.8242,244.6
108.8446,287.3
108.9183,16.2
108.9301,129
108.9582,100.2
108.9592,18.3
109.0105,34.1
109.0288,534.8
109.032,411.4
109.0646,57386.5
109.066,60.1
109.101,1135
109.1533,620
109.2013,256
109.2291,20.4
109.2303,107.6
109.2424,333.8
109.2635,15.6
109.2942,173.8
109.2962,20.7
109.2973,19
109.3057,98.3
109.3181,216.8
109.3684,137.2
109.4605,131.3
109.4771,107
109.484,321.7
109.4873,96.3
109.5992,17.3
109.6535,452.4
109.6799,456.1
109.6956,179.5
109.6997,181.7
109.7193,260.5
109.8023,440.7
109.8062,237
109.8144,326.7
109.8201,447
109.8339,22.2
109.8616,101.1
109.8635,487.4
109.8742,471.4
109.8927,255.5
109.909,503.3
109.9387,343
109.9501,126.9
109.9609,164.9
110.0028,379.7
110.0088,127.8
110.0571,437.5
110.068,1388.2
110.0711,2387.3
110.0922,154.3
110.1342,154.9
110.1366,207.9
110.1383,78.9
110.1398,166.1
110.1835,180.8
110.1869,878.5
110.2256,196.9
110.2312,396.5
110.2598,19.7
110.2691,151.3
110.2821,112.1
110.3715,184.1
110.3906,271.5
110.398,18
110.4189,382.1
110.4591,159.5
110.4747,193.2
110.5444,184
110.5458,141.2
110.5733,19.2
110.5745,889.9
110.5921,203.7
110.6029,103.9
110.6217,224.7
110.6624,357.5
110.6929,385
110.7081,103.8
110.7119,540.3
110.7243,710.5
110.7418,114.4
110.7435,831.5
110.7471,698
110.773,225.5
110.7829,18.1
110.7943,18
110.799,374
110.8141,150.2
110.8415,198.7
110.8799,17.6
110.8966,390.8
110.9045,106.9
110.9167,545.2
110.9266,17.3
110.9656,108.4
110.9871,23.4
111.0133,18.2
111.0231,192.9
111.0439,204.2
111.0582,266.5
111.1483,707.2
111.1746,186.8
111.1767,222.9
111.1887,349.4
111.2005,386.3
111.214,374.6
111.2318,86.5
111.2448,16.7
111.2873,95.9
111.3126,159.2
111.3233,353.6
111.3346,239.6
111.3376,681.7
111.3456,155.5
111.3689,396.3
111.4142,190
111.4267,496.7
111.4431,373.6
111.4466,242.1
111.5129,18.3
111.518,155.7
111.5293,81.8
111.5605,154.4
111.6047,157.8
111.6144,282.2
111.636,18.2
111.6927,107.6
111.7636,231.7
111.7771,259.7
111.793,709.2
111.8142,150.6
111.8299,18.7
111.8378,19.2
111.8462,659.4
111.9934,548.7
112.0127,608.1
112.0145,139.3
112.029,121.8
112.0605,301.4
112.0995,85
112.1008,19
112.1435,127.7
112.1641,83.5
112.1697,77.5
112.2016,357.1
112.208,362.6
112.2122,145.1
112.2509,471.2
112.2525,101.9
112.2621,106.3
112.3204,352.7
112.3359,19.4
112.343,328.7
112.3521,495.4
112.3629,471.7
112.4744,122.6
112.5174,953.2
112.5399,172.9
112.5573,809.1
112.5763,428.5
112.6034,100.8
112.6113,272.8
112.63,164.1
112.631,172.9
112.64,343.8
112.676,130.5
112.7146,291.7
112.7381,124.5
112.7391,19.9
112.7624,154.4
112.7775,106.1
112.8892,488.9
112.8956,452343.7
112.9168,405.7
112.9436,334.9
112.9536,21.4
112.9712,424
112.9938,482.3
113.015,290.4
113.0296,20.3
113.051,236.4
113.0517,80.2
113.06,18.7
113.1072,131.2
113.1343,114.5
113.1383,96.4
113.2059,379.4
113.2105,294.7
113.2528,136
113.4035,149.8
113.4114,17.5
113.4322,96.1
113.4685,106.6
113.4735,806
113.4928,107.8
113.4992,179.9
113.578,562
113.6591,104.1
113.6623,212.9
113.6847,527.1
113.7119,562.1
113.7283,20.7
113.732,553.7
113.7677,107.7
113.7822,176.1
113.8127,485.5
113.8732,107.5
113.9114,240.1
113.916,111.9
113.9342,665.6
113.9767,20.9
113.9794,223.2
113.9807,452.6
113.99,380.1
114.0548,30859.2
114.0658,1271.6
114.0912,20.7
114.1195,251.5
114.1247,281.3
114.1346,504.8
114.1556,97
114.1574,109.5
114.231,233.8
114.2661,395.4
114.2943,247.8
114.3154,19.4
114.3497,237
114.3548,302
114.3718,413.3
114.4616,205.4
114.4945,463.2
114.5346,617.7
114.6192,16.8
114.6518,21.3
114.6644,348.4
114.6692,109.9
114.6781,178.9
114.7408,166.2
114.7628,188.3
114.7656,20.9
114.7742,112.2
114.7804,112.2
114.7976,157.8
114.8287,126.3
114.8394,322.7
114.8728,23.3
114.8812,223.8
114.8927,142001.8
114.933,204.3
114.948,933.6
114.9869,143.2
115.0309,99.4
115.0366,28.8
115.0581,121.1
115.0751,141.8
115.1282,651.4
115.132,160.4
115.1752,154.6
115.1848,138.1
115.2248,616.6
115.2259,372.6
115.2517,26.9
115.3027,104.1
115.311,860.1
115.3149,236.2
115.3475,831
115.3606,389.5
115.3711,170
115.3852,210.8
115.3931,184.5
115.4258,255.6
115.4404,194.6
115.4432,425
115.5062,343.1
115.51,344.3
115.5183,199
115.521,378.9
115.5711,159.7
115.6392,18.6
115.6474,496.7
115.6505,20
115.6625,105.4
115.8315,339.7
115.8481,652
115.8642,139.2
115.8682,585.2
115.9149,170.3
115.9182,18.3
115.9305,196.6
115.9572,149.9
115.9792,646.8
115.9945,172.2
115.9971,277.3
116.0392,113.3
116.0705,2253.8
116.1422,365.5
116.1551,107.9
116.1686,830.6
116.1739,745.9
116.1798,168.2
116.1864,304.3
116.1914,17.6
116.2013,216.3
116.2319,591.5
116.2561,191.9
116.2623,168.9
116.2775,211.2
116.2827,119.8
116.2918,20.8
116.3528,88.7
116.3668,181.8
116.38,231.8
116.506,16.4
116.526,752.7
116.5549,110.6
116.5639,468.4
116.5747,523.7
116.5778,94.6
116.6322,112.8
116.6567,140.9
116.6705,177
116.675,17.5
116.732,156.1
116.7467,19.1
116.7614,105.6
116.7896,306.7
116.7969,333.4
116.8034,154.7
116.8054,198.4
116.829,190.1
116.844,132.5
116.864,651.7
116.8908,14864.1
116.9229,158.5
116.9495,81.9
116.9567,362.5
116.9632,188.1
116.9844,23.1
116.9858,200.3
117.0407,741.2
117.0704,546.2
117.0745,23.8
117.0835,426.1
117.0888,155.9
117.1213,98.4
117.1506,256.4
117.1596,609.3
117.1697,267.3
117.1944,623.8
117.2002,19.7
117.2087,152.5
117.2155,105.9
117.2701,262.1
117.2901,18.3
117.3152,155.6
117.3316,202.7
117.3327,350.8
117.3385,636.5
117.3636,19.7
117.392,17.9
117.4237,391.8
117.4417,124.7
117.4674,211.2
117.5014,17.2
117.5037,401.1
117.5176,392
117.5252,251.6
117.5563,135.9
117.5788,586.1
117.6046,95.3
117.6886,573
117.7124,19.7
117.7641,447.1
117.779,398.4
117.786,1135.8
117.7939,644.3
117.7956,792.4
117.8021,369.7
117.8073,17.2
117.9309,91.7
117.9604,273.1
117.9788,369.3
118.0027,620.4
118.0647,140.9
118.0926,359.7
118.1237,470.4
118.1563,84.6
118.1733,202.9
118.2193,191.8
118.2729,346.1
118.3103,106.1
118.3312,109.6
118.3608,124.1
118.3756,126.6
118.3858,281.7
118.3866,298.4
118.3924,103.2
118.4015,446.2
118.4148,86.5
118.4262,231.2
118.453,545.3
118.4554,708.5
118.4955,169.5
118.4989,180.3
118.5123,298.6
118.5695,508.5
118.6133,281.2
118.6307,20.5
118.6722,16.5
118.6769,168.9
118.7205,133.3
118.7671,429.3
118.8595,274.3
118.8702,79
118.8731,146.9
118.8958,361.4
118.9087,89.7
118.918,150.9
118.9301,407.3
118.9378,336.7
118.9424,747.1
118.9467,180.1
118.9605,143.2
118.9789,649.5
119.0188,22.1
119.0534,528.1
119.0727,121.6
119.0732,121.8
119.0853,19.7
119.1075,276.7
119.1168,21.5
119.2257,336.1
119.2459,176.3
119.2745,149.2
119.2759,186.2
119.2792,18.3
119.2828,228.5
119.3051,194.4
119.3102,107.2
119.3191,124.9
119.3331,897
119.3465,146.7
119.3734,239.8
119.3887,139.3
119.3961,187
119.4497,180.2
119.562,16.8
119.6232,152.8
119.6237,154.6
119.6489,123.5
119.6651,370.5
119.6687,263.7
119.6716,249.6
119.7474,99.8
119.7544,151.1
119.7684,595.6
119.7788,18.4
119.7816,196
119.8386,15.5
119.8841,18.9
119.9126,17.6
119.9623,557.4
119.9836,263.5
120.0032,2015.5
120.0064,86.2
120.0424,166
120.0475,449.2
120.0806,9550.9
120.0991,451.3
120.1262,311.4
120.142,237.1
120.1491,404.7
120.176,370.7
120.1841,227.1
120.1893,266.4
120.2136,158
120.2855,118.8
120.3527,18.8
120.3578,679.2
120.3636,19.3
120.388,108.9
120.4325,307.5
120.4469,460.2
120.4516,417.9
120.4587,189.5
120.4662,263.1
120.516,845
120.5331,176.6
120.5726,97.3
120.583,17.1
120.6064,18.9
120.6496,118.9
120.6839,346
120.6864,113.3
120.7371,176.4
120.7432,187.9
120.8193,83.3
120.8349,104.6
120.8765,430.9
120.8794,18.7
120.9188,118
120.9223,329.1
120.9334,88.6
120.9663,507.6
120.9792,26.4
120.9808,85.3
120.9853,19.9
120.9977,121.5
121.0074,209.1
121.0283,291
121.0395,50.9
121.0656,126.2
121.0983,268
121.1009,118.7
121.1174,372.8
121.1202,108.6
121.1489,17.7
121.1665,259.2
121.17,279.9
121.1896,120.2
121.2529,500.8
121.2711,89
121.2879,409.8
121.293,171.3
121.3083,178
121.3299,109
121.4284,17
121.4595,634.4
121.4923,607.6
121.5414,79.8
121.5596,147.8
121.5864,644.8
121.6183,140
121.7168,182.8
121.7245,361.3
121.734,554.6
121.74,128.8
121.7691,363
121.7869,553.9
121.8153,259.9
121.8193,279.7
121.8376,400.1
121.8863,238.2
121.9037,494.9
121.9226,18.5
121.9261,347.3
121.9383,695.9
121.9504,569.2
121.9741,149.6
122.0057,148.5
122.0419,270.6
122.0565,121.8
122.0625,112.2
122.093,96.4
122.1037,496.9
122.1124,186.3
122.1253,608
122.1281,20.3
122.1404,109.8
122.1549,445.8
122.1587,119.8
122.1809,440.3
122.2315,340.1
122.257,18.9
122.2732,486.6
122.3003,196.1
122.3188,238.6
122.3473,125.2
122.3518,118
122.3627,175.4
122.398,146.5
122.4389,181.9
122.4475,179.1
122.4733,102.3
122.4963,479.7
122.5081,513.6
122.5277,415.7
122.5308,443.1
122.5523,108.5
122.5718,176.5
122.5757,265.7
122.6093,18.7
122.6235,533.6
122.7015,100.9
122.7044,502.7
122.7758,185.8
122.8094,251.3
122.8433,312.9
122.9188,403.4
122.9244,18087.2
122.9293,31.5
122.9738,183.3
122.9818,337.3
123.003,150.4
123.0173,107
123.0748,19.3
123.0806,18.3
123.0835,209.4
123.106,105.7
123.1081,98.4
123.1335,17.8
123.1568,434.9
123.1581,94.6
123.1702,419.2
123.1787,90.4
123.2041,402.7
123.225,19.2
123.2474,158
123.2815,145.1
123.2914,828.9
123.335,506.2
123.352,544.8
123.4016,150
123.4302,280.5
123.4474,389.5
123.472,443.8
123.5286,596.5
123.6081,285.2
123.6704,92.7
123.698,458.9
123.7029,300.5
123.739,408.6
123.764,141.2
123.771,518.1
123.7793,79.9
123.8208,175.3
123.8618,363.2
123.9271,301.7
123.9387,121.7
123.947,217
123.9525,85.6
123.9964,695.7
124.0088,138.8
124.0335,90.1
124.0384,325.7
124.0557,125
124.0953,299.5
124.1627,235
124.1928,556.8
124.194,501.5
124.2454,651.4
124.2994,136.9
124.3046,119.5
124.3065,20.4
124.3938,108.3
124.4019,16.8
124.437,17.5
124.5758,478.8
124.5828,90.1
124.5941,271.4
124.6638,135.1
124.6768,428.6
124.7081,472.5
124.7247,816.7
124.7746,195.7
124.8523,413.7
124.9226,3324.9
124.9546,120.5
124.9665,98.8
124.9855,163
124.9998,8811
125.0055,1123.1
125.0388,148.1
125.0422,137.7
125.0596,33.7
125.0979,351.1
125.1337,208.4
125.1414,204.3
125.1441,173.9
125.1506,697.3
125.1696,205.8
125.1881,142.3
125.2019,377.3
125.226,16.7
125.2319,115.2
125.2348,183.8
125.2473,18.8
125.2817,19.5
125.2865,83.2
125.2898,970.4
125.291,287.6
125.3698,98.6
125.415,91.3
125.4379,400.5
125.4773,123.9
125.4921,130.3
125.4999,783.2
125.5263,149.4
125.5492,213.4
125.5773,514.9
125.6283,102.8
125.6648,108.1
125.6676,192.1
125.6847,207.2
125.699,689.8
125.7437,574.2
125.7665,813.6
125.7745,88.7
125.8212,186.1
125.8364,265.2
125.9457,773.4
125.9773,95.7
125.9909,19
126,191.4
126.0053,100.8
126.0088,25.3
126.0888,577.9
126.1149,440.7
126.1416,121.6
126.1474,474.3
126.1649,440.5
126.1814,155.6
126.2325,726.7
126.243,455.4
126.2492,113.6
126.2657,17.9
126.3062,158.1
126.312,18.2
126.3222,825.9
126.3675,208.4
126.4835,158.3
126.4907,175.7
126.4959,643.5
126.5242,384.9
126.539,19.7
126.5908,19
126.5988,534.2
126.6179,144.5
126.6517,143.2
126.6749,22.8
126.7473,991.3
126.7522,139.6
126.7621,156.6
126.7714,20.3
126.7975,305.7
126.8002,88.5
126.9192,230.7
126.933,156.6
126.9529,405.1
126.9615,19.9
127.0477,293.1
127.0526,231.3
127.0672,90.9
127.0765,570.4
127.0975,893.9
127.1175,407.6
127.1546,162.4
127.1724,135.4
127.1896,96.4
127.1928,17.6
127.2287,917.1
127.2633,128.3
127.2722,145.6
127.3211,104.3
127.3889,530.6
127.3916,20.5
127.4023,611.7
127.4122,658.3
127.4842,147
127.4858,153.5
127.4997,17.7
127.5129,809.9
127.5647,155.6
127.6074,779.5
127.6193,109.6
127.6372,670.1
127.6621,165.7
127.7086,20.5
127.7309,17
127.7821,151.6
127.8028,20.1
127.815,154.1
127.8914,199.7
127.894,294.9
127.899,234.3
127.9094,202.8
127.9182,19.8
127.9487,17.1
127.9774,217.3
127.9794,53.9
127.994,653.2
128.0156,21.5
128.0978,130.8
128.1284,136.8
128.1355,97.1
128.145,279.3
128.1589,691
128.1804,18.2
128.2155,359.8
128.2993,163.7
128.4241,227.1
128.4314,767.9
128.4505,178.3
128.4699,19.3
128.5256,106.4
128.5766,195.3
128.5885,304.9
128.6897,618.4
128.7165,99.8
128.7444,159.8
128.7468,707.2
128.7738,115.8
128.831,189.7
128.8327,548.6
128.8346,143.2
128.8969,364.5
128.9379,167.7
128.9637,519.6
128.9873,154.4
129.0084,19.5
129.0178,432.6
129.0223,446.4
129.0956,327.8
129.1021,2392.4
129.1131,89.5
129.1512,427.2
129.159,177.8
129.1743,93.6
129.2059,631
129.255,265.2
129.3266,101.3
129.3422,20.9
129.3798,349.7
129.4169,18
129.4625,247
129.4797,529.4
129.4951,316.7
129.501,101.8
129.524,2089.9
129.6189,256.4
129.6396,109
129.6638,108.4
129.6879,209.5
129.6905,284.5
129.7685,17.5
129.8536,588.7
129.9585,215.1
129.9949,141.2
130.008,105.3
130.0333,552.1
130.0498,10685.7
130.1241,145.7
130.1501,182.2
130.1573,177.6
130.1604,104.7
130.2146,298.9
130.2247,92.1
130.2406,278.3
130.256,21.2
130.2618,427.6
130.2632,381.8
130.2819,420.9
130.3117,179.1
130.3148,894.4
130.3553,181.8
130.3594,577.4
130.418,233.8
130.4226,396.9
130.4289,18.1
130.4351,90.2
130.5096,121.7
130.5825,417
130.6365,1104.3
130.6468,19.1
130.6628,173.6
130.6776,276.4
130.7095,165.7
130.7212,386.9
130.7298,200.8
130.7742,591.2
130.7877,18.8
130.8332,551.2
130.8782,19.9
130.8915,123.2
130.9307,340.7
130.9324,579.5
130.9577,974.7
130.9825,19.4
130.9838,487.4
130.9847,532.8
131,111.3
131.0088,314.3
131.0333,497.5
131.0439,113.1
131.0476,181.2
131.0508,334.7
131.1494,717.2
131.1548,406.7
131.1786,134.9
131.1809,409.1
131.2317,156.8
131.2433,154.5
131.2543,204.2
131.2577,176
131.2782,247.7
131.2796,100.8
131.2873,108.2
131.3823,723.3
131.3944,166.7
131.4562,408.4
131.4997,472.9
131.5099,151.3
131.5815,534
131.6377,20.2
131.6539,418.8
131.8616,143.5
131.8853,230.6
131.9213,95.8
131.9405,193.6
131.9501,402.6
131.9749,553.4
131.9957,22.2
132.0031,32552.9
132.04,19.1
132.0615,109.9
132.0654,53797.4
132.0767,317.5
132.1048,135.5
132.191,214.7
132.2197,447.5
132.2326,231.5
132.3271,158.1
132.3449,163.4
132.3636,220.5
132.4545,100
132.4759,493.3
132.4962,86.9
132.5034,550.5
132.5273,395.3
132.5314,504.4
132.5519,17.4
132.5591,637.2
132.566,319
132.5712,166.5
132.6148,221.7
132.636,258.9
132.6392,163.4
132.6586,110.9
132.6695,228.3
132.7252,340.6
132.774,107.9
132.7859,17.1
132.8082,152.2
132.8161,533.8
132.8183,226.5
132.8595,752.7
132.8948,534.3
132.9027,147.2
132.9301,285.2
132.9421,105.6
132.9581,784.5
132.9696,43.4
132.9837,377.9
133.0426,93
133.0688,810.7
133.0796,186.2
133.0859,25.7
133.0971,12599.9
133.1091,581.5
133.1644,98
133.189,90.6
133.2891,185.3
133.3074,112.9
133.3202,108.8
133.3257,20.1
133.3493,474.3
133.3912,160.7
133.4118,16.7
133.5012,345.6
133.6021,18.2
133.6217,19.9
133.6272,210.6
133.6454,207.5
133.6821,787.8
133.7222,208.2
133.7403,489.5
133.7458,17.1
133.7807,611.1
133.7823,88
133.792,19.5
133.8414,378.8
133.9278,620.4
134.0188,4582.9
134.0745,727
134.0875,17.8
134.0898,526.7
134.1844,183.7
134.2888,540.9
134.3581,20.3
134.3737,140.1
134.3855,98.3
134.4081,371.8
134.4522,19.7
134.4821,114.5
134.5298,270.9
134.5313,137.5
134.5321,131.7
134.5344,106.5
134.5557,244.1
134.5619,101.1
134.5722,432.8
134.6232,217.1
134.659,138.6
134.6796,212.2
134.7234,159.3
134.7265,583
134.7416,16.9
134.7701,585.5
134.7802,290.1
134.8193,102.2
134.8204,184
134.842,106.2
134.893,724.6
134.9441,539.4
134.9738,29.7
134.9863,214.7
134.9891,175.7
134.9964,48.3
135.0028,56885.9
135.0448,106
135.0839,170.3
135.0859,151
135.0867,274
135.0871,271.5
135.1164,700.8
135.1183,266
135.1631,173.9
135.1878,202.5
135.1925,179.8
135.2048,258.2
135.2843,187.8
135.3,271
135.3192,645.8
135.3329,311.9
135.3599,161.6
135.3713,97.1
135.4158,227.1
135.5717,174.2
135.5872,237
135.5955,166.4
135.6614,141.8
135.7316,126.3
135.76,147.2
135.7875,545.1
135.84,362.3
135.9325,16.2
135.9467,501.1
135.9501,173.5
135.977,2194.3
136.0022,167.2
136.006,324
136.0442,551.9
136.0482,3934.2
136.0756,6475.1
136.1467,229.5
136.18,405.2
136.2595,657
136.2844,86.8
136.3057,262.8
136.3719,96.8
136.3828,297.6
136.4349,728.1
136.4811,262.5
136.5238,250.4
136.5435,326.4
136.5775,193.4
136.7036,161.9
136.7411,351
136.7507,19.3
136.7638,516.9
136.8043,237.8
136.8266,24
136.8471,98.5
136.8626,362
136.9094,269.5
136.9188,428.5
136.931,1140.3
136.9531,143.5
136.964,21.2
136.9748,108.1
136.9896,26
137.0145,650.4
137.0331,105.8
137.035,230.6
137.0389,461.8
137.1065,21.3
137.1217,941.9
137.1257,386.6
137.1293,792.8
137.1324,22.6
137.1396,473.8
137.1429,575.3
137.1595,697
137.1848,820.8
137.1962,295.3
137.21,218.8
137.3152,550.3
137.3688,219
137.4268,20.9
137.4466,90.8
137.4661,144.7
137.5364,811.8
137.6883,244.4
137.6935,154.1
137.7083,89.9
137.7589,123.7
137.7619,462.6
137.7817,193.3
137.7823,194.7
137.8467,18.6
137.9121,380.9
137.9594,310.6
137.9889,139.7
137.9925,122.4
138.0002,24.4
138.028,546.9
138.0355,863
138.0525,5566
138.0662,45
138.087,103.3
138.2028,133
138.2083,23
138.2104,147.9
138.2129,809.4
138.2194,794.7
138.3051,172.9
138.339,717.5
138.3755,460.5
138.3838,1002.7
138.4218,451.2
138.4848,153.5
138.5833,121.3
138.6003,411.4
138.6096,101.8
138.6276,461.1
138.6478,88.1
138.6567,123.7
138.667,161.4
138.6893,425.5
138.7517,18.6
138.8568,702.4
138.9063,684.1
138.9133,281.2
138.98,319
138.9841,30.7
139.0116,1018.9
139.0304,198.1
139.0687,201.1
139.1814,445.8
139.2006,118.6
139.233,122.8
139.2799,88.7
139.2996,108.8
139.31,322.2
139.3299,570.4
139.3332,141.4
139.366,529.2
139.4027,247.3
139.427,137.2
139.5294,134.8
139.5863,19.8
139.6123,178.3
139.6255,264.9
139.6305,19.8
139.6384,417.8
139.7309,103.5
139.8446,106.3
139.926,97.2
139.937,435.7
139.9473,150.7
139.9582,430.6
139.9589,652.7
139.9596,605
139.9683,97.2
139.983,514
140.0164,4141.8
140.0675,81.5
140.0861,93.8
140.1007,97.5
140.1127,21.2
140.1401,122.6
140.1431,685.3
140.1836,438.8
140.1921,213.4
140.2164,109.9
140.2348,22.7
140.3325,111.3
140.4745,561.3
140.5259,511.5
140.5601,100.2
140.5988,179.3
140.6103,689.9
140.6213,224.5
140.6226,514.1
140.6485,423.8
140.664,666.7
140.7355,16.7
140.7392,101.7
140.7603,20.7
140.8258,168.7
140.8889,167.5
140.9036,1114.5
140.9253,121.5
140.938,104.6
140.9514,20.2
141.0004,15144.1
141.0171,703.4
141.0197,170.2
141.1349,206.6
141.1643,195.7
141.1726,105.4
141.1821,134.8
141.188,257.4
141.2052,157.6
141.2626,102.7
141.3272,382.7
141.339,18.7
141.4064,689.1
141.4265,437
141.4774,99.8
141.5324,17.6
141.5989,136.5
141.6488,157.3
141.6816,547
141.7115,100
141.7847,1079.2
141.8094,484.9
141.8189,301.1
141.8301,110.9
141.9006,151
141.9128,19.6
141.9846,646.7
141.9949,270.3
142.0037,516.7
142.0073,110.3
142.0125,189
142.0151,22.8
142.0367,410.2
142.0579,504.6
142.0735,20.1
142.2076,241.1
142.2102,383.3
142.2339,531.8
142.2911,18.3
142.2979,158.8
142.3055,18.7
142.3173,136.4
142.3193,193.8
142.3376,244.6
142.413,664.8
142.4199,606.8
142.4267,579.2
142.4824,113.8
142.6608,161.6
142.6668,452.6
142.699,252.4
142.7174,143.4
142.8232,283.4
142.8439,265.1
142.8812,421.7
142.9119,453.3
142.9522,202.4
142.9962,210.6
143.0128,333.6
143.0189,928.2
143.0253,115.7
143.0319,263.7
143.036,366.6
143.0512,216.9
143.0814,105.7
143.0871,180.7
143.1488,103.7
143.1603,200.5
143.2106,18.9
143.4127,535
143.4178,18.8
143.4218,237.8
143.4786,860.3
143.5148,1011.4
143.5315,314.4
143.5559,521.3
143.6031,341.2
143.6263,101.2
143.6498,162.2
143.6813,18.8
143.7025,429.9
143.7637,247
143.8056,110.2
143.8091,191.1
143.847,463.1
143.8919,579.4
143.895,20.4
143.9099,446.1
143.9729,377.9
143.9751,147.9
143.9811,377.5
143.9852,16.6
143.9924,90.3
144.0106,1068.7
144.0615,427.7
144.0868,18
144.1017,712.3
144.1144,297.5
144.1599,112.2
144.1615,482.4
144.1817,121.4
144.2347,202.4
144.3347,103.8
144.3509,128.5
144.3678,331.3
144.3833,317.5
144.425,18.1
144.4304,230.6
144.4332,647.4
144.4761,219.2
144.5017,418.5
144.5149,308.5
144.5352,286
144.5699,401.8
144.5835,183.5
144.6843,422.4
144.6919,18.2
144.6944,127.9
144.7932,18.4
144.8464,204.9
144.8489,23.3
144.86,489
144.8751,605.7
144.9028,235.3
144.9182,193.5
144.9376,19.3
144.9586,517.9
144.964,93.6
144.978,471.9
144.9805,744.5
144.9946,50.9
145.0035,22
145.0075,18.3
145.0119,19.9
145.0801,729.1
145.1167,336
145.1253,358.2
145.1869,1161.2
145.1976,252.5
145.3258,17
145.4972,84.2
145.5942,519.8
145.652,646.9
145.7293,293.2
145.7718,513.2
145.8194,390.9
145.8955,135.4
145.9072,391.4
145.9233,409
145.9535,164.2
145.9822,169.1
145.9945,309.9
146.001,973
146.0047,155.9
146.0056,288.2
146.0124,1148.1
146.0188,19134.2
146.0262,137.4
146.069,677.5
146.0797,777.2
146.1281,157.9
146.1373,20.1
146.1843,108.9
146.2085,295.4
146.2312,409
146.2833,187.2
146.2916,217.6
146.3657,1056.7
146.4193,171.7
146.446,18.9
146.4776,19.4
146.5133,162.7
146.5873,19.5
146.7028,197.7
146.7088,19.1
146.7105,448.2
146.7598,604.6
146.8246,152.5
146.8341,18.5
146.8993,136.2
146.9435,25
146.9746,51.5
146.9817,143814.7
147.0398,487.1
147.0425,569.1
147.0764,64334.5
147.1128,29379.1
147.1169,494
147.1293,536.5
147.2029,19.9
147.3234,17.5
147.4378,113
147.4669,343.2
147.4843,216.1
147.5119,251.8
147.5256,525.4
147.5682,167
147.5736,95.8
147.5871,210.3
147.6157,137.8
147.625,795
147.6535,86.5
147.6647,343.6
147.759,399.1
147.8239,391.7
147.843,148
147.9029,671.5
147.9124,208.9
147.9378,339.1
147.9467,87.8
147.989,203.3
148.0797,299.6
148.1119,51.5
148.1144,343.1
148.1233,134.4
148.1287,601
148.1418,485.5
148.1551,19.7
148.168,194.9
148.1921,185.3
148.2068,152
148.2506,201.5
148.2535,398.9
148.2932,149.6
148.2964,335.4
148.3565,194.8
148.3802,505.7
148.3871,120.4
148.4696,555.6
148.4893,158.8
148.5172,764.7
148.5321,4691.2
148.61,732
148.6345,146.1
148.6872,105.2
148.7669,17.3
148.7744,135
148.7829,20.8
148.8536,17.8
148.8814,17.9
148.914,788.8
148.931,352.4
148.9353,342.8
148.9612,509.9
148.9886,137.2
149.0023,27.2
149.0074,148.3
149.0185,4273.3
149.0233,4059.2
149.0449,183.5
149.0679,254.7
149.1366,110.9
149.1903,179.5
149.2956,214.3
149.3324,201.3
149.3489,374.5
149.356,178.5
149.3962,273.4
149.4609,528.5
149.4779,132.4
149.4911,118
149.6203,137.4
149.6699,158.5
149.7942,18.3
149.7954,16.5
149.8427,212.3
149.8538,498.1
149.8584,406.5
149.8779,611.2
149.9765,18.9
149.9928,3974.7
150.0049,175.1
150.0137,2480
150.0267,21.9
150.0493,138.4
150.0753,137.8
150.1181,18.5
150.1363,230.1
150.1783,436.2
150.1804,318.7
150.2157,97.6
150.2557,150.5
150.2586,155.2
150.348,526.3
150.3639,831.2
150.4037,17.4
150.4174,181.2
150.4181,176.8
150.4192,117.8
150.4428,296.2
150.4904,321.7
150.5357,206.8
150.5438,16.7
150.5519,467.6
150.5733,176
150.5972,1010.7
150.6029,217.3
150.6508,240.5
150.7354,17.9
150.8805,468.6
150.8919,328.2
150.9272,25.6
150.939,106.9
150.9688,33.2
150.9768,42345.1
150.9841,5800.8
150.9957,98.8
151.0477,3833.6
151.0929,182.3
151.1439,266.8
151.1717,262.2
151.2007,235.3
151.204,17.3
151.2763,22.5
151.2845,162.5
151.3267,174.7
151.3463,492.1
151.369,190.6
151.4065,674.5
151.4082,992.4
151.4313,218.2
151.4647,20.7
151.4772,146.6
151.4812,91.9
151.5152,18.2
151.5297,19.2
151.5878,265.3
151.6164,149.4
151.639,135.8
151.6464,164.4
151.6794,243.3
151.7298,305.3
151.8179,116.7
151.8244,377.5
151.8327,268.4
151.9873,182.9
151.995,106.2
152.0079,218.5
152.012,697.6
152.022,12977.5
152.0318,4368.3
152.0601,118.3
152.0815,187.9
152.1159,377.6
152.1224,18.4
152.1808,95.1
152.1916,207.9
152.216,514.9
152.259,21.8
152.2742,194.1
152.2774,191.1
152.339,200.9
152.3895,147.4
152.4804,21.9
152.5863,697.3
152.6054,16.4
152.6236,262.9
152.6517,185.1
152.6642,213.4
152.6741,140.2
152.7077,165.9
152.7111,18.4
152.8031,574.6
152.9012,100.8
152.9131,93.3
152.9155,18
152.954,653.9
152.9691,18.1
152.9748,1609.5
152.9845,23.3
153.0014,170.6
153.0703,466.6
153.1305,118.6
153.1468,360.1
153.2124,425.8
153.216,141.3
153.2263,382.5
153.2618,121.3
153.4034,326
153.464,19.4
153.4976,18.1
153.502,22.5
153.5076,169
153.5182,17.1
153.5448,188.2
153.5516,381.1
153.5948,110.2
153.6143,767.5
153.6272,162.1
153.6563,145.1
153.7078,441.1
153.7185,271.5
153.7488,151.9
153.8143,479.4
153.8207,401.3
153.8655,270.2
153.9103,109.9
153.9468,285.3
154.0109,327.5
154.0246,89.5
154.0265,559.6
154.0482,178.8
154.0979,187.9
154.1383,392.7
154.2222,198.1
154.2319,913.9
154.2489,136.6
154.3192,548.8
154.3809,999.4
154.4064,204.9
154.4512,828.2
154.4549,259.3
154.4565,597.1
154.4622,1045
154.4642,546
154.4721,205.7
154.5436,135.6
154.5611,789.6
154.614,408.5
154.6454,170.2
154.8041,154.2
154.8487,538
154.8539,254.7
154.8574,21.3
154.9075,19.2
154.9205,122.8
154.9644,197.2
154.9689,316
154.9709,132.1
154.9844,260.9
155.0427,862.2
155.0539,4066.3
155.0629,130.2
155.1025,107.5
155.1331,157.7
155.1396,300.5
155.1792,263.5
155.2062,116.9
155.2681,19.9
155.3088,499.3
155.4327,171.9
155.4754,138.2
155.6235,717.8
155.6743,306.4
155.7957,872
155.7995,986
155.8647,148
155.8773,309.5
155.9027,16.7
155.9033,16.4
155.9627,17.2
156.008,431.8
156.011,62.4
156.0164,229
156.0421,1241.3
156.0574,51.1
156.0767,55247.9
156.3541,18.9
156.4096,85.5
156.4387,144.4
156.4745,256.6
156.4786,86.7
156.4876,379.1
156.6777,254.2
156.6822,20.6
156.7047,291.6
156.7373,164.8
156.7493,120.5
156.8617,594
156.9197,113.2
157.0054,27.2
157.0185,158.2
157.0805,258.5
157.0972,86.6
157.1033,287.1
157.1956,505.9
157.2055,181.4
157.2302,211.3
157.2419,614.7
157.3185,174
157.3646,211.8
157.3862,1131.3
157.3924,252.8
157.421,415.6
157.4712,279.6
157.5699,308.8
157.5869,258.3
157.6,17.5
157.628,203.2
157.6816,652.6
157.7127,17.4
157.7202,172.9
157.7575,771.8
157.7971,18.9
157.8577,137.5
157.9002,251
157.911,19.2
157.9189,518.4
157.9598,177.4
157.9701,17.6
158.027,3624.9
158.0481,160.8
158.0662,157.9
158.0774,396.7
158.1851,158.5
158.1946,200.9
158.2623,308.8
158.3558,107.5
158.3605,154.2
158.4149,885.6
158.4539,396.7
158.5032,603.3
158.5246,297.4
158.5561,180.6
158.6366,356
158.6713,607.9
158.7408,571.7
158.7733,427.6
158.8261,107.3
158.8364,396
158.8938,561.9
158.9139,232.6
158.9157,208.1
158.9278,661.9
158.9641,7170.5
158.9776,18.8
158.9964,2665
159.0139,439.6
159.0304,110.3
159.0625,118.4
159.076,99.2
159.0798,431.4
159.1199,16.7
159.1593,408.2
159.2018,293.6
159.2117,641.3
159.3736,788.5
159.3806,170.2
159.3934,122.1
159.4124,97.1
159.416,373.2
159.4243,111.6
159.4979,149.4
159.5378,187.1
159.5535,265.5
159.5964,254.8
159.6175,138.2
159.6323,142.8
159.6574,19.9
159.6604,92.9
159.6754,137.3
159.6823,125.4
159.7085,643.9
159.7173,440.5
159.9203,106.3
159.9397,128.1
160.0226,59.7
160.0345,14959.5
160.0604,51791.6
160.0858,209.9
160.1244,598.3
160.1445,808.6
160.1672,393.7
160.2001,19.6
160.2278,455.1
160.2609,101.3
160.2657,117.1
160.2975,190.5
160.3764,736.7
160.5081,149.3
160.5172,763.2
160.5438,201.3
160.5551,123.5
160.655,347
160.6855,183.9
160.7364,18.3
160.7587,19.3
160.7979,174.2
160.8088,109.2
160.8675,264.8
160.8711,678.1
160.9242,17.6
160.9921,186.2
161.0215,145.6
161.0385,84.7
161.0638,743
161.0692,98.6
161.0963,18.9
161.1323,225.8
161.1944,153.3
161.2014,97.9
161.2536,367.3
161.3076,210.4
161.3327,473.8
161.3561,88.6
161.3936,17.2
161.4072,218.2
161.4231,221.5
161.4297,537.3
161.4442,293.8
161.4543,167.1
161.6118,180.5
161.6363,447.3
161.6693,556.5
161.6962,156.4
161.7135,372.2
161.7731,136.6
161.8144,442.7
161.9022,189.7
161.9189,96.2
161.9332,19.6
161.9402,134.3
161.9481,612
162.0502,9950.6
162.0838,897.6
162.1097,162.4
162.1175,213.7
162.1934,466.3
162.1977,939.7
162.2328,17.2
162.2805,504.8
162.3832,171
162.4341,16.9
162.5025,17.3
162.5297,108.7
162.5721,20.7
162.6791,144.6
162.7158,136.3
162.8231,555.9
162.858,93.7
162.8776,268.8
162.8841,333.9
162.9134,163.5
162.9557,8712.7
163.0155,2151
163.055,179.2
163.0606,28.8
163.1275,177.7
163.2462,95.9
163.4135,876.3
163.5116,222.8
163.5247,386.3
163.5874,18.1
163.5993,332.4
163.6078,216.7
163.6242,411
163.6656,471.6
163.6757,320.3
163.6804,726.4
163.74,179.1
163.9555,426.8
163.9625,753
163.9752,165
163.9771,18.7
163.9918,19.2
163.9995,29.9
164.0295,8352.1
164.0743,230.3
164.1013,419.2
164.1322,148.5
164.1395,198
164.2174,345.7
164.2265,885
164.2288,134.2
164.2372,18.8
164.2848,19.7
164.2941,18.4
164.3893,21.2
164.3934,18.7
164.3999,211.8
164.4077,536.2
164.4166,341.6
164.5072,272.2
164.5111,184.9
164.5342,406.4
164.6317,401.4
164.6347,187.4
164.6525,591.3
164.7177,703.3
164.7414,20.4
164.8078,139
164.825,634.7
164.9105,106.8
164.9127,99.5
164.9206,3675.1
164.9301,6413.3
164.9844,23.1
164.9926,3279.5
164.9957,48.6
164.9997,456.3
165.0113,111.8
165.0196,491.5
165.0774,89.1
165.0968,156.9
165.1451,646.2
165.1719,169.3
165.1893,363.8
165.1968,166
165.2093,384.5
165.2112,167.4
165.2142,257.3
165.2253,154.9
165.3171,97.2
165.4632,19.9
165.5213,750.7
165.5388,749.5
165.6012,20.3
165.7511,825.2
165.7611,109.8
165.7829,407.1
165.7878,675.8
165.8253,573.1
165.8728,552.1
165.8841,179.7
165.9357,18.5
165.9402,294.1
165.9669,846.9
165.9788,2908.4
165.9878,2226.8
165.995,2128.8
166.0334,186.4
166.0739,364.7
166.0839,1678.5
166.1533,398
166.1689,98
166.177,16.9
166.2213,401.3
166.229,18.3
166.2383,419.9
166.2725,140.5
166.2837,179.9
166.2936,876
166.3147,520.5
166.4006,275
166.4067,120
166.4484,244.6
166.5202,85.2
166.5227,159.7
166.5681,725.9
166.5723,220.1
166.5911,17.9
166.6116,507.4
166.6818,113.2
166.7661,465.9
166.8135,133.1
166.8406,128.6
166.9303,176.6
166.9457,19.7
166.9508,23423.9
166.9789,33.9
166.9836,365.9
166.9897,164.8
166.999,102.5
167.0106,209.1
167.0217,10971.5
167.1117,151.2
167.1651,476.1
167.1915,333.6
167.2492,306.4
167.2528,107
167.2557,228.7
167.2948,19
167.3663,101.3
167.3864,307.7
167.4094,183.4
167.4882,142.8
167.5387,101.5
167.5428,189.9
167.5717,118.3
167.6014,843.5
167.6308,101.8
167.6507,306.3
167.6677,113.5
167.7315,113.5
167.7906,387.2
167.9502,653.1
167.9871,162.6
167.9946,792.5
168.006,1125.7
168.0214,481
168.0535,92.5
168.0879,379.5
168.1168,390.1
168.1185,115.7
168.1223,527.6
168.1794,411.9
168.2098,18.3
168.2766,564.9
168.2834,449.5
168.2915,826.8
168.377,144.7
168.4311,417.7
168.4918,718.6
168.5475,473.1
168.5495,191.1
168.5531,18.7
168.6043,348.5
168.6139,290.2
168.6862,465.3
168.7034,751
168.7075,293.5
168.7586,707.8
168.8099,122.6
168.8296,386.3
168.8438,440.2
168.8445,447.4
168.868,17.2
168.9006,155.7
168.9249,85
168.9318,297.6
168.9339,92
168.9374,144.4
168.9489,1373.3
168.9526,635.4
168.9961,20.6
169.0225,267.7
169.0254,186.4
169.0345,355.8
169.0584,73336.8
169.0646,742.7
169.0945,1411.1
169.0972,542.2
169.175,416.1
169.2143,395.6
169.2351,243.7
169.4434,507.9
169.4479,249.5
169.4579,134.4
169.4618,180.6
169.6732,18.1
169.7245,350.9
169.8277,292
169.843,292.8
169.8711,145.6
169.8741,209.5
169.8835,289.4
169.8903,435.8
169.9342,23.2
169.9747,177.7
169.9761,170.3
169.9859,12350.9
170.027,18
170.0327,419.3
170.0924,9063
170.1145,16.5
170.16,18.6
170.2243,171.8
170.2329,205.1
170.318,141.9
170.3634,197.1
170.4784,250.5
170.4967,98.7
170.7033,156.6
170.7161,195
170.7919,293.8
170.8262,394
170.8544,4464.8
170.8995,624.5
170.914,156.8
170.9982,19.6
171.0063,244.5
171.0088,262.6
171.0167,1921.7
171.0218,112.2
171.0233,124.4
171.0279,135
171.0535,363.6
171.0633,134
171.0852,394
171.0897,156.7
171.1466,104.3
171.2263,243.5
171.2692,205
171.2738,1059.1
171.3328,252.4
171.3547,117.5
171.3669,19.3
171.3841,886.3
171.392,382.1
171.4349,222.2
171.4412,872.3
171.4459,173.5
171.4648,17.3
171.4767,418.2
171.4827,126.2
171.4971,530
171.5789,436.3
171.5875,196.2
171.5982,93.3
171.6502,98.8
171.6855,505.3
171.7471,233.3
171.7534,597.2
171.7728,113.1
171.777,112.5
171.9063,468.6
171.9915,18.9
172.012,113
172.0205,862.4
172.0281,303.7
172.0566,131.9
172.0704,163.7
172.0838,695
172.0988,361.7
172.1333,166.3
172.145,25.2
172.1538,92.9
172.1811,482.4
172.1894,97.9
172.1973,445.7
172.2844,813.6
172.312,310
172.3322,797.3
172.3377,183.3
172.3536,132
172.3754,391.1
172.4407,258
172.462,637.3
172.719,19.9
172.7337,155.1
172.7579,432.3
172.7682,149.7
172.809,20.5
172.8414,152.9
172.8513,3631.8
172.8587,450.4
172.8775,19.2
172.8847,19.9
172.8888,136.8
172.8994,26.1
172.9335,176.3
172.9673,675.5
172.9867,185.9
173.0268,213.4
173.0297,402.8
173.1358,523.8
173.1834,197.2
173.2092,21.8
173.2172,197.8
173.2548,101.5
173.2663,241.7
173.3247,183.6
173.3501,130.5
173.434,176.9
173.4878,17.1
173.4919,21.4
173.5043,263.5
173.5662,160.8
173.6644,198.9
173.6815,603.5
173.7177,810.6
173.7406,410.5
173.7462,398.7
173.7489,241.3
173.7554,170.2
173.8068,19.3
173.8507,386
173.863,368.9
173.8697,82.4
173.9706,457.1
173.9943,102.3
174.0007,117.2
174.0301,37.6
174.039,277.2
174.0575,109.4
174.1175,101.3
174.1916,103
174.3124,239.3
174.3181,431.5
174.3592,209.6
174.378,241
174.4315,1060.9
174.438,143.3
174.4634,364.8
174.53,19.3
174.5996,17.6
174.6161,676.2
174.6309,366.3
174.697,349.3
174.709,134.4
174.8057,231.1
174.8261,358.1
174.8529,164.7
174.8575,195.5
174.896,671.5
174.9003,172.9
174.9381,2966
174.9623,564.5
174.9688,553.7
175.0343,2402.9
175.0385,864.4
175.0455,2761.1
175.0722,583.2
175.1069,770.4
175.119,128946.8
175.1261,145.4
175.147,17.3
175.154,17.9
175.1747,17.7
175.2,197.8
175.2452,151.2
175.2583,664.7
175.3702,178.5
175.4184,130.6
175.4365,506.5
175.4762,18.1
175.5394,16.5
175.5774,811
175.6008,202.6
175.6086,506.9
175.6154,506.6
175.7085,536.7
175.8402,168.8
175.8556,246.5
175.8808,18
175.9105,180.6
175.9532,503.3
176.0005,66.5
176.0085,9182.4
176.0161,24.8
176.0659,18132.6
176.1224,3811
176.1317,378.9
176.244,419.7
176.2513,106.1
176.2871,930.8
176.3508,95
176.3811,754.7
176.4221,360.6
176.4466,432.1
176.4515,108.3
176.4566,333.7
176.5827,204.6
176.667,504.6
176.6733,20.1
176.7673,260.6
176.7938,107.9
176.8423,211.1
176.8938,200.8
176.9333,22.9
176.9599,653.9
176.9748,87.2
176.9923,3731.6
177.0249,1172.1
177.0612,1457.7
177.0871,459.1
177.1198,282.6
177.1279,18.8
177.164,18.5
177.2674,138.6
177.2934,551.7
177.3923,121
177.4185,429.2
177.4947,125.9
177.5144,111.9
177.5486,17.4
177.6043,196.1
177.6215,119.7
177.6246,18.4
177.6505,100
177.697,479.7
177.8092,736.1
177.8655,173.8
177.894,28.9
177.9004,24.6
177.9313,23.2
177.9712,198.6
177.9909,22.9
177.995,26.4
178.0087,10844.9
178.0243,6088.4
178.0587,3881.2
178.0845,126
178.1392,384.2
178.1859,17.4
178.2404,542.7
178.2502,166.9
178.312,20.3
178.3779,80.2
178.4074,124.8
178.4832,200.2
178.5188,86.7
178.6048,22.8
178.6651,727.4
178.6784,196.2
178.6982,207
178.7261,18.3
178.7704,160.9
178.7989,168.5
178.8606,122.2
178.8928,76.9
178.9217,63.1
178.9717,397.8
178.9828,405
179.0002,46.3
179.0029,165.4
179.05,272.1
179.1341,152.2
179.3207,152.4
179.3246,132.9
179.3634,636.9
179.481,177.4
179.6088,381.3
179.7096,180.7
179.7495,103.7
179.8012,139.7
179.8048,17.6
179.8162,640.1
179.8354,166
179.853,158.4
179.8575,202.5
179.889,100.7
179.9057,272.4
179.9477,325.5
179.9886,346.6
179.9915,102.7
180.0035,8838.8
180.0066,296.4
180.0105,191.7
180.0267,20
180.0617,130.8
180.0709,757.4
180.1732,222.6
180.2059,127.9
180.3043,185.4
180.3126,81.1
180.3857,231.6
180.4671,298.4
180.4721,465.7
180.5596,395.3
180.591,370.5
180.6241,499.7
180.7209,641.9
180.7498,18.9
180.8817,99.5
180.8882,867.9
180.8945,2495.3
180.9041,3168.9
180.9067,536.3
180.9167,21.3
180.9572,664.6
180.9774,186.1
181.0156,32.6
181.0262,1021.9
181.0499,20.4
181.0649,5947
181.121,21
181.3147,420.8
181.3203,798.3
181.3225,110.5
181.3665,174.5
181.38,972.2
181.4301,637.4
181.5957,23.8
181.6074,243.7
181.6907,534.2
181.7267,397.1
181.7955,96.7
181.8612,89.1
181.961,437.2
181.9977,401.6
182.0062,18.6
182.0111,41.9
182.0425,31210.9
182.0677,183.6
182.0759,561.5
182.1061,17
182.1089,106.7
182.1801,20
182.2102,1532.8
182.2251,217.5
182.2799,166.7
182.2951,22.2
182.3032,94.8
182.3064,110
182.3612,356.3
182.4505,745.3
182.4788,19.1
182.5989,165.7
182.7649,552.1
182.8004,586.9
182.9025,22.9
183.0444,712.4
183.071,85.1
183.31,110.1
183.3279,18
183.4718,447.7
183.5687,318.3
183.5761,84.5
183.6278,658.2
183.6589,545
183.6789,225.5
183.7341,85.5
183.7976,19.6
183.8154,318.3
183.8186,144.7
183.8663,441.5
183.9403,629.7
183.958,160.1
183.9648,1561.7
183.9828,717.9
184.0375,423.1
184.0565,159.7
184.0668,1115.5
184.0734,4479159
184.079,1544.3
184.11,219.4
184.1644,102
184.1697,209.2
184.1821,2324.4
184.2259,705.1
184.2435,177.1
184.2701,723.3
184.3134,384.4
184.3246,179.3
184.3659,426.6
184.4154,440.3
184.5365,371.2
184.7919,284.5
184.8698,253.8
184.9297,78.2
184.9585,24.4
184.9642,166.1
185.0324,103235.2
185.0704,7826.4
185.0767,210301.9
185.1297,128.2
185.163,23.1
185.2111,114.6
185.2178,18.5
185.2241,577.3
185.3501,17.7
185.4152,536.2
185.4318,148.2
185.4813,404.2
185.5107,177.8
185.5155,188.9
185.5198,136.7
185.6072,136
185.6674,520.2
185.7407,447.4
185.7482,318
185.7564,459.8
185.7931,842.9
185.8924,18.1
185.9599,13435
186.0165,453.1
186.0289,960.3
186.0357,1427.5
186.048,142
186.0776,25989
186.1282,361.4
186.5367,22
186.6102,226.5
186.6262,101.5
186.6699,454.6
186.6708,449.5
186.778,150.7
186.8164,135.6
186.8525,370.1
186.8787,86.9
186.9073,343.6
186.9121,1483.7
186.9258,17.7
186.9528,191.1
187.0303,4130.4
187.0367,151.4
187.053,229.3
187.0578,7628.2
187.0714,1021.2
187.081,445.9
187.0841,418.3
187.0928,207.7
187.1784,19.7
187.25,17.5
187.2897,108.7
187.3309,226.4
187.3364,185.6
187.356,354.5
187.4087,142.2
187.4727,448.5
187.529,449.9
187.6212,273.2
187.6723,423.1
187.7293,906.7
187.7533,390.4
187.8313,20.3
187.8579,139.7
187.8958,365
187.9074,422
187.9326,622.6
187.9704,141.3
187.9891,143.7
188.0229,372.9
188.0538,143.7
188.0715,313.2
188.0752,197.1
188.1063,694.2
188.2243,108.2
188.2541,677.4
188.258,202.3
188.2805,354.1
188.298,105.8
188.4152,559.8
188.4239,100.2
188.4386,632.4
188.4508,389.2
188.4863,17.8
188.5613,381.5
188.6651,696.9
188.7687,157.9
188.8474,266.3
188.8731,503.5
188.8775,19.2
188.905,108.5
188.9241,127.6
189.0207,320.3
189.043,454.9
189.0611,3289.9
189.0871,8030.1
189.0924,204.9
189.1696,574.6
189.2387,106.9
189.3815,367.7
189.4279,225.6
189.5544,185.9
189.6251,392.4
189.6537,174.6
189.6765,443.6
189.7874,625.8
189.8669,196.3
189.9192,87.9
190.0546,18
190.0722,113.1
190.0825,502.7
190.4203,903.1
190.4467,161.8
190.5109,882.9
190.5978,87.1
190.7346,169.8
190.7683,426.7
190.803,438.4
190.8186,580.1
190.8337,20.1
190.8555,116.3
190.8628,297.6
190.8726,539.6
190.8883,388.6
190.9001,437.3
190.9092,26
190.9123,1495
190.9444,22.6
191.0002,126.7
191.0082,2988
191.0241,47.4
191.0404,103515.7
191.0769,11880.9
191.111,127.2
191.4421,232.3
191.4507,19.4
191.4637,412.2
191.4729,221.7
191.5664,721.8
191.6533,401.9
191.6766,110.9
191.6892,979.9
191.7347,625.1
191.8107,378.8
191.8184,257.9
191.8806,31.8
191.9826,1379.3
191.9877,19.5
192.0026,662.7
192.0109,63.9
192.0399,11343.6
192.0438,2989.6
192.1323,102.6
192.1715,130.3
192.2434,116.9
192.2526,165.3
192.2737,445.2
192.2897,509
192.4048,299
192.4223,212.5
192.468,110
192.485,333.7
192.6443,392.3
192.6554,19.3
192.6818,154.8
192.8382,654.3
192.9103,29.1
192.9582,616.2
192.98,194
192.9833,122.1
192.9958,50.8
192.9988,4659.2
193.0033,314
193.0165,249.8
193.0252,447.8
193.0352,1841.8
193.0536,427.4
193.0793,231.4
193.092,190.8
193.1027,514.1
193.1213,197.6
193.1862,261
193.1908,19.1
193.2815,101.2
193.3222,21
193.4794,594.4
193.5238,508.8
193.6357,506.2
193.6449,116.1
193.6656,17.3
193.6818,110.8
193.8013,18.8
193.8047,529.5
193.8321,118.1
193.9492,19.5
193.9643,572.4
193.9902,580.4
193.9983,1595.5
194.0047,649.2
194.0103,190.4
194.0328,1540
194.1541,49
194.2194,393.4
194.223,17.2
194.2355,424.8
194.2652,434.4
194.3228,735.3
194.3761,100.7
194.448,124.7
194.4861,553.3
194.5349,217.7
194.547,490.3
194.6881,110.8
194.7262,239.7
194.8071,106.2
194.8583,109
194.9039,294.5
195.0113,20.5
195.0445,136.1
195.0602,106.7
195.1614,111.7
195.1656,96
195.1859,21.4
195.1926,199.8
195.2163,19.2
195.2265,117.2
195.5054,104.8
195.5344,230.3
195.5644,18.1
195.6096,563.5
195.7116,432.9
195.7779,728.2
195.9584,17.7
195.9645,202.5
195.9667,16.5
195.9774,2096.2
196.0185,96.8
196.0218,604.7
196.0792,355.6
196.1177,713.2
196.1698,466.6
196.2365,848.8
196.2712,472.4
196.317,266.6
196.3369,531.9
196.4495,469
196.6123,115.9
196.6158,384.4
196.6708,18.8
196.6721,17.7
196.7622,161.6
196.8574,141.1
196.8653,2053.7
196.8685,1045.6
196.8778,509.4
196.9004,757.7
196.925,16.3
196.9324,245.3
196.9694,646.8
197.1011,657.1
197.1277,17.5
197.192,295.9
197.2071,160.4
197.2591,504.4
197.5371,411.8
197.5839,184.9
197.6101,222
197.6146,244.9
197.6467,105.3
197.6855,618.1
197.7201,98.4
197.7247,575.2
197.7651,347.8
197.8408,161
197.879,771.9
197.8886,504.1
197.8907,29.9
197.9213,97.8
197.9328,379.5
197.9434,396.9
197.9523,537.8
197.9555,143
198.007,19.6
198.085,7360.1
198.1853,4501.5
198.1907,472.2
198.2374,186.7
198.2523,20.9
198.3302,18.9
198.3698,393.5
198.4309,549.9
198.4648,372.8
198.4824,394.6
198.4866,177.9
198.5269,608.7
198.7283,17.9
198.8545,53.5
198.8623,3935.9
198.8996,675.5
198.9502,115.9
198.9568,533.6
198.9737,23.9
198.9986,602.9
199.0168,194.4
199.0211,223.9
199.0263,313.3
199.0342,707.7
199.0397,124.4
199.045,110.7
199.0615,21.8
199.069,1128.7
199.0755,570.4
199.0804,79.3
199.0907,384.1
199.1428,151.1
199.1888,208.9
199.3304,88.2
199.3624,1055.4
199.4252,261.6
199.5276,379
199.5894,182.8
199.6588,24.6
199.7216,132.8
199.8725,138.6
199.9348,323.3
199.9408,543.7
199.9908,33433.2
200.0408,9453.8
200.1054,92.7
200.1191,371.7
200.1288,478.5
200.1615,752.4
200.1829,804
200.2455,427.2
200.2789,298.8
200.2883,426.8
200.3258,9027.6
200.3279,7048.9
200.3829,160.6
200.4083,22.4
200.5891,20.5
200.6199,126.9
200.6264,140.7
200.6465,261.5
200.6544,198.4
200.6977,150.3
200.7332,184.7
200.8519,157.6
200.8943,3277.2
201.0548,116.6
201.0602,180.7
201.0844,257
201.0871,131.5
201.1263,490.7
201.1696,115.7
201.1994,19
201.2045,123.7
201.2632,513.7
201.2653,24.9
201.3575,728.3
201.4437,111.4
201.6812,584.2
201.7561,357
201.8664,919.8
201.8943,242.3
201.9042,83.8
201.934,4880.2
201.9757,95.9
201.9902,449.3
201.9955,138.4
202.0163,102.8
202.07,166.8
202.0944,383.4
202.2193,1370.2
202.2236,286.6
202.2345,476.4
202.2431,589.3
202.2557,238.1
202.2594,481.2
202.2699,273.8
202.3508,290.1
202.5737,158.1
202.6571,13665.9
202.6624,369.5
202.7006,346.8
202.7109,18.8
202.7236,487.8
202.7401,574
202.8191,717.9
202.8506,21.1
202.8733,24.3
202.895,44.1
203.0319,3637.2
203.0527,1220134
203.0768,7213.4
203.0934,568.6
203.1029,117.8
203.2527,207
203.3077,222.1
203.3162,875.5
203.3809,97.3
203.3902,834
203.4385,530.2
203.4778,215
203.5331,84.2
203.5931,134.2
203.6517,243.8
203.6959,586.7
203.7123,406.2
203.7199,98.7
203.7798,426
203.7905,21.7
203.8113,153.8
203.8212,603.4
203.898,194.7
203.9016,85.4
203.9176,96.3
203.9326,432.3
203.9455,20.6
204.0142,141.1
204.0244,40887.3
204.0318,61.5
204.0383,304.2
204.0472,19.2
204.0561,63489.9
204.0631,391
204.0649,566.2
204.0779,102.4
204.1591,97
204.261,158.4
204.2711,596.2
204.2759,120.9
204.2818,18.1
204.2869,344.5
204.4231,172.1
204.4905,337.1
204.5599,197.4
204.5999,232.6
204.7478,95.4
204.7651,257.2
204.8288,142.8
204.883,454.5
204.8888,690
204.9411,115.8
204.9817,22.1
205.0161,214.4
205.0279,525.6
205.0368,233.5
205.0569,6942.3
205.0819,920.9
205.1313,115.8
205.2407,85.5
205.2703,121
205.4106,20.5
205.4761,143
205.4985,105.3
205.668,193.9
205.7919,117.6
205.8717,325
205.8745,412.9
205.8889,57.9
205.9424,21.8
206.0475,127.6
206.0556,1553.2
206.094,19.5
206.1164,294.4
206.1336,18.1
206.1732,281.6
206.2944,331.6
206.3107,159.4
206.3247,185.5
206.3283,156.7
206.4602,169.8
206.4761,19
206.5047,340.3
206.6563,131.2
206.684,548.7
206.7087,420.4
206.7358,179.1
206.7536,181.6
206.7756,163.2
206.7787,17.2
206.8217,105.5
206.8878,164.7
206.8941,10017.5
206.9169,225.5
206.9409,125.6
206.954,564.6
206.9824,2218.2
206.9984,247.1
207.0053,246.4
207.0144,83061.4
207.0318,23.8
207.0441,600
207.0509,8759
207.1432,130.8
207.1848,132.1
207.2682,156.1
207.3178,104.3
207.3343,114.6
207.3539,188.3
207.4381,249.4
207.6044,338.1
207.8092,109.5
207.8751,199.7
207.8863,126.9
207.9432,83.5
207.9618,270.6
207.9791,586.8
207.9908,983
208.0136,1404.5
208.0179,935.1
208.0543,628.3
208.2417,17.8
208.3313,21.1
208.3776,240
208.598,432.1
208.6145,164.8
208.7708,112.4
208.7796,267.5
208.8832,1708.8
208.8912,8178.5
208.9356,686.6
209.0126,3623.7
209.1192,174.7
209.1229,298.8
209.4203,191.8
209.5794,384.8
209.9778,22.6
210.3871,19.7
210.7077,193.5
210.8207,160
210.8838,23.6
210.9479,22.5
211.0007,671.3
211.0312,713.4
211.0567,131.8
211.0691,940.9
211.102,597.1
211.114,570.7
211.1189,229.3
211.1358,232.4
211.1378,143
211.3116,473
211.3185,2190.2
211.3228,5148
211.3272,12763.1
211.3339,31411.5
211.3371,39812.7
211.3439,7445.8
211.3483,10041
211.3587,17
211.4526,19.2
211.4933,355.1
211.5305,93.6
211.737,427.3
211.7796,874.1
211.7951,500.3
211.8598,135.4
211.9591,24.9
211.9667,94.7
211.9753,609.4
212.0238,23.6
212.0742,75.8
212.1607,218.6
212.1966,18.5
212.2514,122.4
212.2656,609.5
212.2931,20.9
212.3707,143.1
212.604,116.8
212.6162,154
212.64,24.6
212.7915,130.5
212.8391,2086.9
212.8753,127.2
212.9113,105.1
212.9517,793.7
213.0174,814
213.0547,722.3
213.0753,716.4
213.0977,16.5
213.1113,690.9
213.1706,20.1
213.1738,224.3
213.2066,147
213.3028,470.2
213.4088,189.3
213.4274,129.7
213.4355,411.9
213.5822,410.1
213.6272,479.4
213.687,306.4
213.7179,261.3
213.8344,534.2
213.8433,124.3
213.9379,17.6
213.962,2882
213.9847,189
214.0066,1525.8
214.059,14805.8
214.0898,1063.9
214.2624,343.6
214.3193,113.6
214.4825,164.9
214.4842,172.8
214.4857,153.4
214.5734,340.2
214.5824,19.2
214.5975,434.4
214.6104,176.1
214.7941,123.9
214.8233,17.1
214.8362,428.6
214.8735,284.5
214.884,169.6
214.9099,465.6
214.9175,884.6
214.9654,78.2
215.0166,443.7
215.093,46
215.2146,186.7
215.2181,543.3
215.3504,256.5
215.3949,18.3
215.4201,159.2
215.4637,328.7
215.7087,21.2
215.756,143.5
215.7903,244.9
215.8737,25.9
215.8812,21.8
215.9448,189.2
215.9579,26.7
215.9645,173.9
216.0091,558.4
216.0149,6863.1
216.0616,18.5
216.1205,175.2
216.1473,432.6
216.1762,23
216.2762,410.8
216.2784,576.9
216.3473,135.5
216.3529,562.5
216.3592,123.6
216.3896,189.3
216.4101,108.5
216.5176,995.3
216.564,901.8
216.6069,430.4
216.6418,99.2
216.6807,282.1
216.7049,174.7
216.7581,383.3
216.829,498.5
216.8344,105.2
216.8381,830.9
216.8771,113
216.8892,202.9
216.9229,32495.8
217.0188,21.9
217.027,515.8
217.0571,287.2
217.0946,211
217.1215,263.6
217.1942,551.9
217.5207,330.8
217.855,102.6
217.8993,105.3
217.9263,510.2
218.0051,199.3
218.0367,303.8
218.1041,139
218.1542,453
218.1823,145.9
218.2498,176.9
218.2673,206.4
218.3043,491.6
218.365,335.1
218.473,109
218.5624,252.3
218.616,849.2
218.696,677.6
218.702,119.9
218.8384,104.6
218.8448,16.6
218.8455,16.9
218.851,717.9
218.8676,311.6
218.8865,19.5
218.9045,425.3
218.92,7219.5
218.9568,97
218.9771,154.8
219.0177,921.7
219.0267,1579743.4
219.0644,633.6
219.083,8559.9
219.1676,468.4
219.1976,135.8
219.2258,289.9
219.2673,127.2
219.4059,125.4
219.4417,154.9
219.4889,524.8
219.4957,265.7
219.5973,757.3
219.6179,17.2
219.6983,369.4
219.7068,199
219.7081,168.2
219.7095,104.1
219.7201,562.5
219.7465,330.2
219.7475,306.9
219.7489,177.7
219.8394,205.1
219.9052,457
219.9985,440.5
220.0301,76821.4
220.0371,953.7
220.067,3205.1
220.1028,224.3
220.11,104.5
220.1333,113.4
220.1673,429.6
220.212,17.7
220.219,746.6
220.3097,169.5
220.3431,108
220.3628,436
220.3766,117.9
220.4086,140.8
220.482,227.3
220.5269,17.9
220.5291,17.9
220.5352,188.7
220.5702,130.3
220.5794,20.6
220.5829,124.9
220.5953,199.5
220.6355,19.6
220.7046,156.4
220.7248,99.8
220.7949,268.9
220.8836,85.7
220.9035,29.6
220.908,294.9
220.9403,19.7
220.9655,116.7
220.9718,128.2
220.9787,17.8
221.0085,215.9
221.0248,97249.4
221.031,13019.3
221.0367,427.3
221.051,1234
221.0845,512.7
221.1588,800.8
221.1701,21.3
221.2271,121
221.2433,194.6
221.2874,520.6
221.2908,103.2
221.416,568.5
221.6563,18.7
221.6613,19.6
221.8198,125.6
221.831,341.8
221.8339,20.5
221.9562,138.8
221.9836,1197.6
222.0283,773.4
222.0533,207.9
222.0683,103.2
222.12,374.8
222.1494,226.8
222.2815,380.7
222.3282,163.4
222.3985,317.1
222.4855,535.2
222.518,21.5
222.5243,581.4
222.557,95
222.6693,161
222.868,12173
222.882,148.7
222.8988,464
222.9197,560
222.9314,19.7
222.9541,817.5
222.9885,11731.5
223.0044,457.5
223.0245,491.9
223.0366,1050.7
223.0688,201.5
223.129,191.8
223.1322,645.4
223.2942,466.7
223.3428,16.7
223.3653,127.5
223.419,21.7
223.428,314.1
223.4322,374.5
223.51,449
223.7601,94.8
223.8395,17.5
223.8645,171.3
223.9045,267.4
223.9296,172.6
223.9398,159.3
223.9527,19.3
224.0096,111.1
224.146,20.7
224.2212,392.1
224.3438,321.2
224.3881,462.7
224.4118,344.7
224.5623,189.3
224.5883,151.9
224.617,714.1
224.6313,536.2
224.7918,22.6
224.8138,458.2
224.8572,328.1
224.865,7323.5
224.8828,421.3
224.9113,112.7
224.9275,85
224.9382,21.2
224.9828,162
224.987,1060.9
224.9939,639
225.0236,21.7
225.043,24.6
225.0548,21548
225.0844,516.6
225.234,100
225.4397,114.2
225.5163,116.2
225.5308,299
225.6249,209.5
225.7157,441.4
225.8097,189.7
225.8656,189
225.9446,19.6
225.9515,25.3
225.9621,109.2
225.9783,95
226.0024,25.1
226.0061,1489.9
226.0104,108.2
226.0242,7653.6
226.0452,5643.3
226.0995,504.7
226.1159,174.2
226.4204,122.4
226.4429,216.9
226.4465,186
226.4838,194.7
226.5866,383.3
226.6166,179.3
226.624,19
226.8494,46.1
226.9325,688.6
226.9517,29285.5
227.0342,318
227.0428,642.6
227.0796,1767.6
227.0865,164.1
227.1316,345.4
227.1327,334.7
227.1972,1003.4
227.1993,487.9
227.2064,627.6
227.2557,416.8
227.3268,161.4
227.349,463.4
227.5471,614.2
227.6325,342.7
227.6478,155.5
227.6538,17.6
227.6817,187.3
227.728,104.7
227.7997,500
227.8064,312.4
227.8116,147.4
227.8191,394.2
227.8407,20.8
227.955,735.8
227.9617,458.6
227.9675,169.8
228.0001,195.7
228.0221,375.1
228.0562,921.8
228.0716,273.4
228.112,184.6
228.1345,168.3
228.2041,378.5
228.2913,177.6
228.4387,212.3
228.4609,384.7
228.4649,146.8
228.5797,90.7
228.5934,102.9
228.622,583.1
228.6711,16.2
228.7415,600.5
228.8731,858.5
228.8743,1174.8
228.8761,940.9
228.8892,76.7
228.8957,19.7
228.9601,151.7
229.1218,496.2
229.1361,789
229.2368,18.5
229.281,756.1
229.3323,230.4
229.4973,678.7
229.5274,18.3
229.5544,754.8
229.6156,150.7
229.6713,561.2
229.6794,197.5
229.8114,194.8
229.8236,184.4
229.913,27.5
229.9313,91.3
229.9397,506.5
229.957,8986.6
230.0224,520.3
230.0351,702.3
230.2458,234.5
230.3247,564.6
230.326,703.6
230.328,427.7
230.4133,229.6
230.4555,112.9
230.554,582.7
230.5888,18.8
230.6529,123.4
230.7497,197.4
230.7699,98.3
230.8099,475.5
230.8227,247.4
230.8368,134.9
230.8901,439.2
230.9603,391
230.9746,129.7
230.991,19.9
231.014,257.5
231.0692,499.2
231.218,23.6
231.268,356.6
231.3415,23.2
231.3761,109.7
231.3806,115.4
231.4371,94.5
231.5096,645.4
231.5319,17.4
231.6442,119.2
231.6658,394.6
231.6771,386.3
231.7238,19.4
231.9125,35.4
231.9491,17
231.9527,224.7
231.9574,244
231.9617,36.1
231.9688,369.6
231.9727,220.9
231.9954,134.3
232.1218,602.1
232.1561,125.1
232.2588,19.5
232.2934,514.9
232.4145,937.7
232.4921,266.2
232.7153,118.9
232.7214,96
232.7309,146.5
232.735,771.5
232.8453,558.3
232.8834,167
232.8968,34033.6
232.9206,27.3
232.9668,471.8
232.9856,1535.3
233.051,8372.1
233.0583,21.4
233.1128,175.5
233.3041,16.4
233.3502,93.8
233.4356,210.8
233.5643,103.2
233.5979,88.1
233.6869,256
233.7858,226.7
233.9212,187.2
233.9535,26.3
234.0113,700.5
234.1089,722.2
234.17,318.1
234.204,87.8
234.2097,435.3
234.2318,108.6
234.2637,93.9
234.3556,19.4
234.5084,213.9
234.5367,187.7
234.6118,818.1
234.7912,201.5
234.864,112.1
234.8938,9258.5
234.8997,120.7
234.9724,179.7
234.9817,1652.2
235.0398,151.9
235.057,6311.5
235.0665,1387.3
235.0722,400.5
235.0856,350
235.0926,6911.4
235.1177,650.9
235.1328,357.1
235.2747,139.2
235.4345,589.4
235.4547,284.1
235.6468,672
235.6856,548.9
235.743,163.8
235.7663,234.1
235.9374,733.3
235.9941,126.8
236.0002,279.4
236.022,101.6
236.0411,2919.4
236.0495,403
236.0718,51128.4
236.1741,178.4
236.4953,399.8
236.6223,114
236.7422,683.1
236.828,423
236.8679,24.5
236.8781,335.6
236.9071,27.8
236.9271,493.3
236.9837,267.1
237.0524,500.1
237.0715,114.3
237.0751,2119.8
237.2159,660.4
237.3664,180.1
237.4112,380.6
237.488,188.4
237.6032,431.2
237.6137,184.5
237.6787,18.7
237.6903,559
237.9345,853.3
237.9712,575.8
238.0675,871.2
238.0784,41.9
238.2383,168.3
238.2826,154
238.3498,336.1
238.3791,23.4
238.395,769.2
238.4348,615.1
238.4493,340.8
238.4563,364.8
238.6346,481.3
238.6615,112.9
238.7878,172.3
238.8197,19.4
238.842,6961.2
238.853,457
238.8697,197.5
238.9436,224.6
239.0091,4260.4
239.0452,171.6
239.0504,347.3
239.0639,896.7
239.0679,524.3
239.2522,240.7
239.3325,203.6
239.3536,115.6
239.5861,262
239.753,111.2
239.8374,138.1
239.8891,322.2
239.9093,135.4
239.9476,103.9
239.9791,20.2
240.0025,487.6
240.0303,405.5
240.0396,99.2
240.0997,3317
240.2294,209.8
240.2766,146.3
240.2951,565.3
240.546,180.6
240.606,119.3
240.7638,838.4
240.7937,1011.8
240.828,416.2
240.8388,3314.6
240.8663,25
240.9035,20.1
240.9268,725.5
240.9423,219
240.9436,249.6
240.9455,141.1
240.9549,1185.6
240.9673,2138.5
241.0032,408.3
241.0087,1863.1
241.127,152.3
241.1659,157.6
241.2866,287.7
241.2924,149.2
241.3445,468.9
241.3496,505.9
241.6047,168
241.8437,141
241.8845,110.3
241.9625,255
241.9774,143.5
241.9982,1231.7
242.0194,2951.3
242.0422,20.6
242.057,102.7
242.0818,686.7
242.1609,154.5
242.2106,469.8
242.3524,18.9
242.4687,100
242.6084,222.4
242.6329,258.3
242.6498,414.2
242.8133,57.6
242.9257,18663.5
242.9329,119.8
242.9656,22.6
242.9756,26.4
242.9798,21.9
243.0065,157.8
243.0328,594.1
243.0533,7417.2
243.0653,7567.1
243.1889,326.1
243.2389,214.5
243.3454,17.6
243.4544,490
243.5353,678.1
243.8087,459.3
243.8288,420.8
243.9274,18.9
243.9727,3324.3
244.0127,181.5
244.192,819.4
244.2516,667.3
244.2707,18.2
244.422,301.5
244.4646,123.3
244.5178,305.6
244.5408,726.3
244.6096,190.4
244.6588,149
244.8709,2337.1
244.9299,641.4
244.9426,552.3
244.9587,21.1
244.976,164.1
245.2165,170.1
245.2271,892.5
245.2767,149.5
245.3049,150.8
245.3673,181.7
245.3955,453
245.4939,19.1
245.8434,99.8
245.8801,173
245.9497,352.5
245.9685,62.2
245.973,88.1
245.9883,104.3
246.0034,167.5
246.0613,18.6
246.0657,201
246.0986,576.5
246.1933,169.5
246.2752,586.9
246.29,424.8
246.3048,104.8
246.478,118.3
246.5737,168.8
246.637,925.9
246.7331,307
246.7843,452.7
246.8041,143.5
246.8076,94
246.8203,846.4
246.8624,400.8
246.8991,20.3
246.9516,2212.2
246.9595,129.4
246.9733,16.5
247.0366,757
247.0583,1114.3
247.0669,1440.5
247.0927,3451.1
247.1121,554.7
247.1354,553.7
247.2259,188.5
247.296,18.7
247.3306,212.8
247.3893,342.6
247.5215,348.6
247.5678,150.9
247.7586,124.3
247.8014,209.3
247.9471,645.4
247.9584,750.7
247.9677,678.1
247.9834,442.6
248.0107,103.8
248.0151,352.8
248.0374,221
248.0702,182.7
248.1243,13150
248.1579,396.6
248.1797,339.4
248.3129,451.9
248.378,817.5
248.4383,267.4
248.4624,343
248.606,133.7
248.6378,298.8
248.6476,525.7
248.6565,456
248.6617,87.2
248.6679,384
248.6898,264.8
248.7052,173.8
248.7433,123.2
248.7837,128.3
248.8303,283.7
248.862,30.2
248.8708,9138.7
248.8771,119.9
248.901,165.4
248.9157,37.4
248.9484,93.9
248.9596,4481.6
248.975,452.4
248.9822,353.1
248.9928,229.8
249.0041,20
249.0158,433
249.0225,365.8
249.0322,336.5
249.0468,144.2
249.0612,8895.6
249.0715,144.5
249.1097,690.9
249.1205,531.9
249.1258,20.3
249.3061,189.3
249.3423,1308.1
249.4453,19.6
249.4665,469.7
249.56,128.4
249.6656,325.7
249.7097,741.9
249.757,235.3
249.809,224
249.8184,112.1
249.886,31.1
249.9609,106.9
250.0074,20.8
250.0382,1593.5
250.0454,356.2
250.118,909.1
250.1556,110.2
250.1687,135.9
250.2544,277.9
250.3041,412.7
250.3205,21.1
250.3275,439.2
250.3755,260.5
250.4296,814.3
250.5664,178.3
250.6758,498.9
250.7198,22.5
250.8678,2104.9
250.8938,138.7
250.8988,386.2
250.9207,1311.6
250.9464,24
250.9558,742.8
250.9842,358.9
250.9955,19.2
251.0026,18
251.0323,189.1
251.081,951.8
251.1027,239.3
251.1543,135.9
251.1958,883
251.2428,235.5
251.3317,411.2
251.3414,152.7
251.4315,428.4
251.4903,928.9
251.5095,223.6
251.5677,136.8
251.5821,214.9
251.6507,19.2
251.7911,93.6
251.8171,18.9
251.8231,510.4
251.8567,204.2
251.8698,23.1
251.9291,232.5
251.9803,503.9
252.0263,149.9
252.0353,290.5
252.0457,110529.6
252.0606,19.8
252.162,772.3
252.279,391.3
252.4731,121.7
252.5459,822.4
252.5592,539.4
252.5636,532.6
252.6114,806.5
252.644,341.8
252.6577,537.7
252.6636,827.8
252.7958,94.2
252.8066,135.1
252.8266,1382.1
252.8664,146.8
252.8754,590.5
252.911,339.8
252.9174,1248.4
252.9523,34.5
252.9882,323.8
252.9901,367.6
253.0435,433.5
253.0491,6420.2
253.0974,146.8
253.4437,331
253.4688,18.1
253.9083,522.6
253.9404,618.3
253.9797,194.5
254.0248,18.4
254.0309,231.9
254.0356,458.1
254.0438,3053.5
254.1206,94
254.1246,396.8
254.2,417.2
254.2796,724.2
254.3139,678.4
254.356,21.2
254.3619,191.2
254.4974,211.2
254.5944,331.4
254.7392,328.6
254.8159,1865.6
254.8238,3165.9
254.9861,137.8
254.9966,26.9
255.0331,26880.7
255.038,1558.8
255.0466,699.3
255.2467,196.2
255.3103,98.4
255.5232,20.6
255.5859,95.4
255.6414,116.9
255.7053,583.8
255.7273,16.1
255.9495,23.5
255.9728,29.4
255.9902,110.7
256.0034,2132.8
256.0413,257
256.0583,46.5
256.0666,761
256.1864,398.2
256.2773,283.1
256.5128,241.7
256.514,306.9
256.6384,19.1
256.7592,109.4
256.8125,360.6
256.821,7313.8
256.8528,168.3
256.8917,96.3
256.9293,1342
256.9336,160.9
257.0222,226.8
257.0486,7639
257.0637,566.2
257.0746,44544.6
257.0816,22.1
257.1032,19.3
257.1564,189.4
257.254,183.9
257.3224,387.3
257.3412,399.1
257.4137,151.3
257.4209,207.4
257.5022,251.8
257.6829,651
257.6958,242.6
257.7107,109.3
257.7272,151.3
257.9067,517.9
257.9245,664.4
257.9519,204.2
257.9553,104.7
257.9885,164.7
257.991,198.1
258.0301,291.4
258.0743,34.7
258.078,872.3
258.1103,35715.9
258.1644,113.5
258.1766,631
258.2258,172.8
258.3113,416.9
258.3563,127
258.3791,154.4
258.6004,320.1
258.8081,22.9
258.8182,2194.1
258.863,22.2
258.8809,237.8
258.8998,3087.1
258.9352,453.5
259.0124,323.2
259.0276,602
259.0736,452.9
259.1761,833.1
259.1945,162.6
259.2053,420.9
259.4759,935.5
259.5617,17.8
259.8431,174.2
259.9159,169.7
260.0164,21.3
260.0876,540.1
260.1163,146.9
260.1815,615.1
260.2106,562.6
260.311,320.6
260.324,375.9
260.4539,727.3
260.5304,767.6
260.6191,225.6
260.7614,192.8
260.8162,456.6
260.845,1431.3
260.8782,28.9
260.9494,4491
260.9603,138.4
261.0177,131.1
261.0457,388.2
261.1247,196.3
261.1305,350.4
261.2011,157.5
261.3028,742.2
261.33,257.9
261.4355,411.6
261.5131,189.7
261.5937,19.5
261.6255,128.7
261.6445,102
261.6888,19.4
261.8277,20.6
261.9699,81.4
261.9833,250.3
262.1103,618.9
262.1974,322.4
262.2617,192.4
262.3276,179.4
262.3358,662.5
262.4945,19.7
262.5363,112.4
262.659,516.5
262.759,17.9
262.765,272.2
262.8147,412.4
262.8402,20
262.8774,19.8
262.9315,28.8
262.9383,244.7
262.9933,126.3
263.0132,750.5
263.0775,622.3
263.1746,288.3
263.1898,413.6
263.2124,673.4
263.2971,483.5
263.3841,166.8
263.4408,167.6
263.4435,213.3
263.591,17.6
263.6442,182.9
263.7248,376.5
263.7406,264
263.7755,540.9
263.8066,647.1
263.9023,26.5
263.9439,580.4
263.9873,160.5
264.3019,20.9
264.3424,588.7
264.3528,431.8
264.358,181.8
264.4026,172.3
264.4464,725.6
264.4851,381
264.629,800.6
264.8017,240.4
264.8447,2073.2
264.8525,2366.5
264.8731,199.8
264.9199,23.1
264.9337,10662.7
264.9535,452.4
264.9625,168.5
264.9884,9609.5
265.0159,36.1
265.0352,6046.2
265.0474,2512.3
265.0645,435
265.1163,20.4
265.2431,607.9
265.2993,17.2
265.3035,404.1
265.4111,159.4
265.5402,484.8
265.6971,673.1
265.7378,202
265.7962,111.1
265.8149,159.5
265.8599,123.7
265.9035,21
265.9575,160
265.9783,343.2
265.994,25.8
266.2311,118.5
266.2599,452.5
266.3698,131.9
266.3791,93.6
266.4183,103
266.442,993.8
266.544,576.5
266.5527,26.2
266.6382,120
266.6442,104.1
266.6721,111.7
266.8496,3794.3
266.8945,2282.6
266.9589,63.1
266.9692,18.2
266.9905,22.3
267.0064,18.3
267.0128,47.2
267.1804,228.1
267.3468,222.2
267.8571,245.1
267.8825,19.1
267.9353,561
267.9539,111.7
267.9621,601.8
267.9736,94.7
267.9944,992.7
268.0093,77
268.0134,195
268.0294,665.7
268.0675,784.7
268.185,19
268.2705,265.7
268.2963,663.8
268.3534,301.9
268.3892,701.1
268.436,237.4
268.4928,185.3
268.6221,211.1
268.7156,136.2
268.7273,410.7
268.7337,510
268.8305,703.1
268.8623,24.9
268.891,528.6
269.0283,628
269.0452,14381.3
269.0487,41086.3
269.058,705.3
269.0653,648.3
269.0746,182.7
269.0854,17.7
269.3436,584.7
269.491,171.2
269.4959,183.5
269.6021,287.7
269.6272,232.4
269.7325,871.2
269.7946,134.2
269.9894,302.9
269.9995,786.9
270.0095,95.4
270.0248,16814.7
270.0362,599.8
270.0474,18838.5
270.1216,187.9
270.1336,213.4
270.2489,737.1
270.277,89.2
270.417,331.3
270.4656,581.6
270.5982,455.8
270.798,2015.3
270.8162,447.6
270.83,328.5
270.9596,50.5
270.978,11701.2
271.0176,23.3
271.028,1376
271.0508,418.6
271.0641,242.8
271.0774,150.4
271.0903,3345.4
271.2898,130.7
271.292,189
271.2931,183
271.3434,473.9
271.4832,224.2
271.5893,190.7
271.6169,436.6
271.7173,201.7
271.7577,672.1
271.9374,230.4
271.9653,1032
272.0052,22.4
272.0153,583
272.0206,528.7
272.0291,28.3
272.0429,46.9
272.0804,194.3
272.1099,658.6
272.1699,292.5
272.1816,132.3
272.2279,156.5
272.2804,668.3
272.3842,296.9
272.4622,114.7
272.5679,195.9
272.5806,938
272.5909,453.7
272.6181,97.5
272.7153,108.7
272.795,3844.1
272.8245,56.1
273.0284,162.8
273.0486,3471.9
273.237,200.2
273.2734,292.4
273.3503,500.3
273.5467,402.7
273.6505,17.3
273.8383,276.3
273.8925,19.3
273.9626,13561.8
274.04,61.2
274.069,81.3
274.0926,2689
274.2768,180.7
274.3187,138.8
274.3271,25.9
274.3356,142.3
274.3409,277.4
274.5699,637
274.6685,92.7
274.8024,47.8
274.9388,242.8
274.9675,107.7
274.9826,23.4
274.9978,381.3
275.0849,406.1
275.1121,767.8
275.1893,141.6
275.2115,21
275.5974,426.7
275.6378,184.4
275.734,276.3
275.7713,459.1
275.8063,174.7
275.8336,782.2
276.0033,89.9
276.0844,24.5
276.1393,873.8
276.2203,142.7
276.5079,229.1
276.522,946.1
276.5359,297.3
276.6041,210.2
276.6109,199
276.7534,162.9
276.7658,436.2
276.9108,31.3
276.9232,5244.2
277.0404,19
277.0614,360.1
277.0897,398.3
277.101,177.5
277.1325,457.9
277.4083,159.4
277.4494,103
277.6616,219.4
277.6903,627.5
277.8037,177.4
278.0004,52.4
278.019,399.8
278.0357,1017.2
278.2011,114.6
278.233,585.1
278.2538,302
278.4664,776.2
278.6664,113
278.8902,334.8
278.9192,395.4
278.9873,1727.4
279.0041,1360.6
279.0566,35962.1
279.2847,277.7
279.5368,477.3
279.7278,454.4
279.7665,18.9
279.776,159.9
279.7944,155.5
279.8089,140
279.8603,354.7
279.892,620.1
279.9004,476.2
279.9077,254
279.9102,224
279.9135,293.9
280.0122,452.3
280.0153,245.2
280.0598,319.4
280.0777,209.4
280.0923,9562.3
280.0999,257.4
280.1056,565.6
280.191,328.4
280.5315,675.6
280.5754,21.8
280.6272,213.1
280.814,133.2
280.8266,1563.1
280.8404,145.3
280.8538,319.3
280.9293,447.1
280.9409,18.7
280.9559,301.1
280.9628,130.4
281.0099,1528.4
281.0513,428.2
281.1749,199.2
281.3389,162.3
281.3431,389.8
281.4239,182
281.4313,90.8
281.5207,241.9
281.643,108.4
281.669,94.6
281.7008,123.4
281.7803,331.5
281.7876,21.4
282.0148,74.4
282.0458,186.8
282.0512,28.5
282.0646,287.3
282.1406,130.7
282.3638,89.8
282.5438,147.7
282.5985,246.1
282.7261,218.8
282.824,1977.2
282.8698,878.3
282.8859,334
282.8903,201.3
282.8962,20.9
283.0281,1221.4
283.0443,106.9
283.0661,31.2
283.1357,19.5
283.2627,22.1
283.3414,472.7
283.38,127.4
283.4409,327.9
283.4843,288.9
283.5633,20
283.634,152.1
283.67,843.2
283.6788,111.6
283.7051,513.2
283.9609,401.6
283.9888,54.3
284.0041,90.2
284.0245,173.4
284.0374,450
284.0465,140.7
284.063,80
284.0939,416.6
284.1282,222.6
284.1833,525.4
284.2337,188.1
284.2809,212.6
284.3593,23.6
284.4351,322.6
284.5226,105.8
284.5266,595.7
284.5352,946.9
284.5426,204.3
284.6069,436.9
284.7745,143.5
284.8513,24.7
284.8839,151.2
284.8937,204.8
285.0229,474.7
285.05,23.4
285.1154,405.6
285.1268,21.4
285.1753,949.2
285.2119,138.9
285.344,328.7
285.4204,348.6
285.4897,19.1
285.815,469.4
285.8687,98.2
285.8914,122.8
285.9086,131.4
286.0197,4344.9
286.0515,651.6
286.0958,28.2
286.1242,441.4
286.1972,20
286.6898,660.6
286.7306,667.3
286.7718,4103.1
286.8029,31.3
286.932,495.3
286.952,5377.1
286.9665,111.1
287.0046,543.7
287.023,364
287.0553,25755.8
287.1112,198.4
287.206,205.4
287.2312,304.7
287.3216,19.2
287.3493,742.7
287.3644,198.4
287.3987,542.7
287.4144,242.7
287.7925,158.7
287.7978,201
287.9496,132.3
288.0159,147.5
288.0357,125.7
288.0586,241.1
288.0846,69.5
288.1304,709
288.1556,7442.9
288.2409,235.7
288.3486,103.4
288.3635,406.9
288.4144,146.2
288.6485,192.1
288.6995,549.5
288.769,2142.1
288.8657,2236.9
288.8688,1326.4
288.879,4579.5
288.8845,7153.4
288.891,5862.5
288.8976,8733.5
288.9024,10937.2
288.9058,10206.7
288.9131,13600.3
288.923,16387
288.9261,16607.3
288.9326,14891.2
288.9359,17149.1
288.9407,17079.5
288.9485,20462.9
288.9527,21248.7
288.956,19227.5
288.9598,17584
288.9631,16262.9
288.9668,14519.6
288.9734,9120.7
288.9797,8335.9
288.9825,6569
288.9864,7370.7
288.997,3078.6
289.0048,1572.2
289.0084,970.8
289.0147,577.3
289.0262,620.2
289.0404,538.1
289.1592,552.7
289.226,162.9
289.2933,18.1
289.3031,709.4
289.3277,426.4
289.5727,503.5
289.6205,101.4
289.6747,863.1
289.6866,388.8
289.7117,209.6
289.9367,1700.9
289.9454,197.8
289.9708,22
290.0124,643.1
290.079,126.1
290.0899,197.9
290.1003,17.9
290.14,177.7
290.178,19.4
290.283,504.9
290.4571,410
290.6096,18.3
290.6272,455.7
290.6648,118.5
290.7387,18.1
290.7481,18
290.7659,989.3
290.7977,125.9
290.8054,19.2
290.8246,18.7
290.8347,20.4
290.8898,125.9
290.9862,196.3
291.0269,1573
291.0434,148.9
291.1277,675.8
291.1681,504.5
291.2867,270.4
291.3458,23.3
291.4224,23.1
291.4259,80.5
291.5235,470.3
291.5814,512.8
291.7057,1090.5
291.7122,101.5
291.9734,107.6
291.9963,599.4
292.0802,36.9
292.1023,273.9
292.1995,657
292.21,187
292.2282,626.4
292.2666,115.9
292.3904,117.4
292.4216,157.7
292.5944,685.9
292.6149,501.9
292.6746,19.3
292.6937,108.3
292.8868,421.7
292.8973,1286.1
292.9699,94
293.038,233.2
293.0721,2209
293.0983,208170.6
293.1793,2439.5
293.2183,19.7
293.3126,20.5
293.4438,103.2
293.5466,217.8
293.6664,127.1
293.6939,622.3
293.8609,295.5
293.8971,18
294.0098,195.4
294.0418,148
294.1016,16711.2
294.1607,233.6
294.26,155.6
294.4486,239.4
294.5036,140.4
294.568,250.4
294.5792,674.3
294.6064,297.5
294.8211,237
294.8295,27
294.8862,20.8
294.9905,224.2
295.0307,1220.1
295.0652,912
295.1025,637.4
295.1947,23603.9
295.2566,173.3
295.3819,852
295.4792,615.1
295.5288,468.6
295.5452,373
295.7284,83.8
295.855,131
295.9381,471.7
295.9773,116.6
296.0023,587.1
296.0093,696.7
296.0265,24.2
296.0321,104.3
296.0572,693.8
296.0663,5709.5
296.1043,639.8
296.1613,241.4
296.2491,171.1
296.2632,569.9
296.5866,133.9
296.6939,311.9
296.7023,418.5
296.8613,18.1
296.9876,89
297.0636,140
297.1342,500.1
297.1461,98
297.1896,384.7
297.3194,180.3
297.3691,349.3
297.4016,174.5
297.4901,510.4
297.6489,227
297.7031,84.9
297.7139,556.8
297.7942,1094.3
297.8592,557.2
297.8882,599.3
298.0255,273.4
298.0424,11760.1
298.1106,68.4
298.1293,499.7
298.2589,136.9
298.3176,165.6
298.3772,659
298.4039,751.7
298.432,214.5
298.7137,21.3
298.8589,243.3
298.8943,736.9
298.9406,125.8
298.9864,27.3
299.0455,376.4
299.062,24
299.1146,21.1
299.1398,775.8
299.1612,24.4
299.2961,221.8
299.5518,840.5
299.5583,407
299.9947,228.8
300.0052,870.9
300.0354,1091.5
300.0668,107.9
300.0754,349.4
300.0949,982.6
300.2001,503.7
300.3281,170.1
300.4019,349.8
300.4099,122.5
300.5058,457.1
300.6093,726.5
300.7355,160
300.7444,716.6
300.7605,356.8
300.7729,472.1
300.8138,203.3
300.8452,271.8
300.9303,19.2
301.0123,106.3
301.0184,142.5
301.0387,21870.4
301.0785,176.6
301.1295,180.5
301.1339,322
301.1414,251.5
301.2119,3069.8
301.2761,336
301.297,475
301.3448,813.7
301.3651,213.5
301.4885,18.5
301.5471,347
301.5594,498
301.6148,17.3
301.6464,18.7
301.6882,329
301.8258,275.1
301.8453,158.1
301.8777,629.9
301.9396,170.4
301.9939,6516.2
302.0199,897.7
302.0358,19.7
302.051,264.1
302.0641,2863.5
302.1175,117.4
302.1703,413.6
302.2478,16.8
302.3823,794.7
302.4825,210.9
302.5271,340.4
302.5359,198
302.6022,614.6
302.685,279.6
302.6985,160.2
302.7288,378.1
302.7401,1051.5
302.7455,1292.5
302.7513,451.5
302.7618,115
302.7875,668.3
302.8055,118.2
302.8298,2312.3
302.9974,94.6
303.0343,108.2
303.0675,278.9
303.0743,1837.4
303.2059,1133.5
303.2171,1327.8
303.2994,148.5
303.3194,144.4
303.3271,20.6
303.382,138.9
303.3933,22.6
303.4276,136.7
303.7703,567.3
303.9859,465.6
304.0256,444.7
304.0307,875.3
304.0596,68.3
304.0689,19.3
304.1399,351
304.1868,25
304.272,411.7
304.3431,903.7
304.7066,18.8
304.7189,98.1
304.7434,1015.4
304.798,238.1
304.8139,77
304.8273,481.6
304.8972,849.5
304.9052,28.2
304.9264,129.2
304.9512,356.2
304.9615,195.6
304.9752,545.3
304.9957,743.4
305.0066,364.4
305.2333,1036.1
305.2693,570.6
305.3568,124.5
305.3669,596.8
305.4083,605.6
305.4228,111.2
305.4437,380.6
305.4494,18.6
305.5121,276.2
305.5278,241.3
305.7284,207.3
305.8986,95.4
305.9104,127
305.9458,89.5
305.9674,21
305.983,68.5
306.071,560.8
306.1012,344
306.1469,17.8
306.3772,16.8
306.5145,17.8
306.5715,276.7
306.6321,391.8
306.6774,241.1
306.6975,460.3
306.7534,106.5
306.7769,636.8
306.8397,185.4
306.8878,19.3
306.8948,60.9
306.9582,860.7
306.9773,1488.6
307.228,522
307.3177,265
307.3246,350.3
307.6633,211.6
307.9729,251.3
307.9834,354
308.2811,390.8
308.3497,158.2
308.4886,587
308.6475,421.5
308.6562,301
308.6639,160.8
308.6872,905.2
308.8082,221.1
308.879,1104.5
308.9401,485.6
308.9556,423.8
309.0059,97.9
309.0376,2285.7
309.0692,194.6
309.0831,744.9
309.1212,423.9
309.1271,94
309.1441,19.6
309.1515,368.3
309.2298,20.2
309.4589,103.9
309.8838,659.2
310.1538,19
310.1952,163
310.1965,168.4
310.3694,263.2
310.5147,136.1
310.5375,273.2
310.6204,230.5
310.6461,330.1
310.6847,232.8
310.7883,179.1
310.8033,21.7
310.849,245.9
310.8764,1081.4
310.8874,235.6
310.9476,783.7
310.9737,113.7
311.0031,73.8
311.1671,1741.7
311.19,142.5
311.2064,428.6
311.2877,469.2
311.4996,429.5
311.5753,842.6
311.643,136
311.6724,20.6
311.8139,371.3
311.8399,20.2
311.8439,258.3
311.871,21.9
311.999,99.1
312.0202,311.8
312.0298,546
312.1705,81.4
312.2728,170
312.4017,112.1
312.5095,19.5
312.5679,869.6
312.6335,107.9
312.8071,105
312.8204,425.6
312.867,21.7
312.8733,409.7
312.9293,301.7
312.9436,293.8
312.9789,245.5
313.0024,47
313.0119,105.2
313.0176,179.7
313.0671,169.4
313.1345,206.5
313.1855,133.7
313.2741,65523.4
313.328,740.4
313.4824,232.3
313.5923,385.7
313.742,1248.8
313.8269,21.8
313.8833,116.5
313.9818,88.7
314.0147,4783.9
314.0911,132.5
314.1139,19.4
314.2774,10044.5
314.3505,341.5
314.43,136.4
314.4377,377.2
314.5198,19.3
314.7498,100
314.7802,448.3
314.798,147.1
314.8142,182.2
314.8368,5014.7
314.8581,219
314.999,3562.7
315.0181,430.2
315.0268,188.7
315.0552,8266.5
315.062,3109.2
315.0662,10952.5
315.07,16460.1
315.0802,7491614
315.0898,13847.3
315.0941,5476.6
315.0985,3574.4
315.1004,3508.5
315.1046,1803.4
315.1089,1136.7
315.1171,142.8
315.1614,3623.4
315.2613,229.3
315.2661,19.4
315.3237,4843.3
315.4124,210.2
315.4563,854.9
315.4857,197.7
315.6254,385.1
315.7143,298.6
315.81,382.9
315.9066,135
315.969,738.1
315.9817,622.9
316.0105,137.6
316.0275,812.7
316.0529,38.8
316.0699,733.7
316.0774,42787.4
316.0835,770803.8
316.1121,1127.5
316.1492,806.8
316.2221,174
316.248,2267.3
316.3039,21.5
316.3817,258.4
316.7262,303.3
316.7527,473.9
316.7642,151.3
316.7768,105.3
316.797,127
316.8531,358.7
316.9869,732.3
317.017,21.3
317.0355,476.2
317.0457,16.9
317.0562,155.1
317.0651,431.1
317.084,87372.5
317.1622,501.2
317.1776,575.6
317.2667,430
317.3787,516
317.4851,21.2
317.5219,637.5
317.5625,19.5
317.5923,18
317.7559,228.7
317.8222,67.7
317.8856,435.4
317.9652,837.7
318.0876,8587.1
318.1949,16.9
318.3753,19.5
318.4962,17.4
318.5197,837
318.7415,130.9
318.7925,772.6
318.8033,379.2
318.8304,24.2
318.872,146.3
318.9623,111.5
318.9765,478.4
319.0402,457
319.0968,630.3
319.1175,238.5
319.1602,197.5
319.1947,34116.4
319.2319,360.9
319.465,164.5
319.7379,272.5
319.8042,225.8
319.8848,102.9
319.901,22.1
319.9241,560.1
319.9425,455.4
319.9585,220.8
320.0042,140.8
320.0057,147.5
320.0076,126.9
320.0749,74.8
320.198,3721.5
320.2588,2768.9
320.4106,22.2
320.8005,469.2
320.8195,125.4
320.8306,50.7
320.9096,731.4
320.9412,21
320.9692,121.7
321.1628,18.2
321.2104,65345.5
321.2619,100.6
321.3669,186.2
321.4957,397.9
321.8167,26.9
321.8335,168.6
321.8518,18.8
321.9092,163.3
321.9745,321.4
321.9965,25.4
322.0089,133.8
322.0373,302.7
322.2139,9112.1
322.3676,296.5
322.4107,165.9
322.4857,22.3
322.6248,593.4
322.6504,859.8
322.6934,165.5
322.8465,19.7
322.8714,208.5
322.9541,712.5
323.0125,19.6
323.0208,8728.4
323.2058,579.4
323.2263,3338.2
323.2452,626.6
323.2468,616.4
323.2871,500.4
323.3121,125.5
323.3485,20.6
323.5188,451.2
323.525,693.7
323.5521,18.9
323.5946,84.1
323.7517,18.4
323.909,178.6
324.0018,7008.4
324.0237,620.3
324.0587,116.9
324.0952,446.7
324.1338,396.8
324.2584,371.6
324.5045,248.8
324.6555,258
324.6762,2105.4
324.6864,3599
324.694,4777.5
324.8084,393.8
324.8376,114.7
324.8529,1254.5
324.8632,404.9
324.9153,186.6
324.9298,386.7
325.0028,541.9
325.0561,1001.9
325.1564,526.7
325.212,6092.9
325.3524,197.6
325.4738,125.1
325.7809,678
325.9508,197.8
326.005,23.7
326.1354,218.1
326.1503,19.5
326.2854,209.4
326.3646,208.1
326.3992,552.4
326.4412,841.8
326.4953,266.3
326.5571,129.3
326.733,132.5
326.8501,2580.2
326.9069,396.8
327.0156,4035.1
327.1261,149.6
327.1889,144
327.2211,464.2
327.2274,20560
327.3866,127
327.4078,679.4
327.4278,142.7
327.4658,197.3
327.4973,548.6
327.5052,512.7
327.7474,247.7
327.7615,532
327.8088,229.5
327.8392,145.2
328.0296,22.7
328.1419,265.7
328.2305,1672
328.2529,110.9
328.3101,542.6
328.4823,205.4
328.4983,854.3
328.5083,1205.9
328.5168,163.5
328.5631,204.2
328.756,370.5
328.8142,84.3
328.8345,193.4
329.096,378.1
329.1225,494
329.1362,378.3
329.3763,287.8
329.428,196.2
329.5169,115.6
329.7618,455.6
329.861,515.1
329.954,169.5
330.0373,136.5
330.0588,58.4
330.2267,825.9
330.3305,144.8
330.3721,507.3
330.6232,19.9
330.747,279.5
330.7742,335.4
330.9614,531.3
331.0191,518.6
331.0454,80442.2
331.0541,1106892.8
331.1572,99.6
331.2971,391
331.3266,687.3
331.6919,221.5
331.7059,87.6
331.8377,26.6
331.9228,501.3
331.9417,1085.3
331.9547,144.9
332.0254,25.6
332.0481,3006.6
332.0575,101061.9
332.3861,116.6
332.7155,681.6
332.7787,22.3
332.8085,65.6
332.8399,560.3
332.8645,604.5
332.9304,119.5
332.9407,330
332.9613,854.6
333.0523,64747.7
333.0579,11088.2
333.1149,19.4
333.1516,919.4
333.1725,237.6
333.1883,19.6
333.2387,434.3
333.263,623.1
333.5472,21
333.5544,123.2
333.6894,178
333.7379,96
333.767,21
333.8126,96.1
333.8372,161.9
334.0556,5326
334.2362,308.1
334.3206,619.6
334.4228,256.3
334.4587,540.9
334.5635,509.4
334.6037,190.4
334.6265,517
334.6999,345.3
334.7231,173.9
334.7732,332.5
334.7975,376.8
334.8368,59.4
334.9155,134.8
335.0334,262.8
335.167,3817.6
335.2348,19.4
335.5008,754.5
335.5715,20.7
335.6711,468.4
335.8046,22
335.8328,67.2
335.8962,18.7
336.0089,500.9
336.0397,92.7
336.0743,19.4
336.1193,131.8
336.1292,589.4
336.1704,779.8
336.204,215.4
336.2712,712.4
336.4955,166.2
336.6139,17.3
336.6452,208
336.6532,218.6
336.7209,19.2
336.9813,880.7
337.0363,14284
337.0497,18793.6
337.0622,535135.3
337.1829,6572.6
337.196,1133.9
337.2742,12349
337.4406,459
337.4708,181.2
337.6019,225.4
337.8004,491.7
338.0655,50880.7
338.08,733.9
338.168,255.9
338.1868,237.2
338.2794,1506.4
338.3423,25.1
338.3738,111.7
338.3967,115.1
338.4744,477.6
338.7791,207.7
338.901,227.4
338.9807,596
339.0381,1088.6
339.0477,402.8
339.0661,3428
339.0998,117.2
339.2003,262.8
339.2507,1182.1
339.2629,521.8
339.2898,15726.4
339.3412,363.9
339.4208,231.4
339.4262,105.1
339.4501,192.2
339.5556,159.4
339.6451,168
339.7323,250.7
339.8546,774.2
339.9589,395.8
339.9665,610.3
339.9758,1643.8
340.1039,637.1
340.2012,20.6
340.2238,132.6
340.2368,105.7
340.3661,99
340.3967,302.1
340.5134,103.1
340.706,388
340.8285,571.5
341.0183,227.2
341.221,18.8
341.295,452.6
341.3055,9030.7
341.3616,19.4
341.4103,20.7
341.5438,22.3
341.5843,143
341.8238,22.3
341.885,411.7
341.989,335.1
342.0031,21.8
342.0153,7763.3
342.2402,652.3
342.2976,99
342.3641,121.6
342.5139,138.3
342.5861,184.1
342.6,160.7
342.6293,99.7
342.74,443.6
342.8047,547.5
342.9522,181.1
342.974,293.5
342.9896,1452.5
343.0193,226.9
343.0893,94.7
343.1947,16253.6
343.2019,1112.8
343.5841,107.1
343.6407,223.8
343.8624,420.3
343.8831,278.7
343.9885,163.1
344.0064,508.6
344.1976,413
344.4656,186.6
344.7343,18
344.8176,99.1
344.8981,120.4
344.9436,244.7
344.9528,256
344.9751,202.3
345.1795,529
345.2233,446.4
345.8176,20.8
345.841,105.9
345.9838,39676.2
346.0098,126.2
346.0412,169.6
346.4798,231.7
346.6797,478.8
346.9209,1342.7
346.9877,1235.5
346.9934,136.1
347.0176,1485.7
347.0872,268
347.1259,231.1
347.4282,132.9
347.5369,98.9
347.574,334.3
347.6461,387.4
347.7227,344.2
347.7484,95
347.7889,403.5
347.8233,111.5
347.8331,198.2
347.9611,22.3
348.0055,115.3
348.0276,248.1
348.1223,151.5
348.3373,120.7
348.7028,125.8
348.8148,483.4
349.018,986.2
349.121,101.3
349.2119,713.2
349.4543,484
349.4899,317.2
349.6645,564.6
349.6956,681.6
349.7249,848.1
349.7816,127.8
349.8072,244.3
349.8633,19.8
349.967,233
349.9795,183.8
350.013,20.6
350.0732,213.1
350.2862,147.2
350.3384,115.8
350.3728,142.6
350.5127,153.5
350.5798,89.5
350.6643,135.7
350.9279,536.3
351.0263,121.8
351.117,716.5
351.2861,18.5
351.4717,110.1
351.4911,466.1
351.5575,181.7
351.6044,264.6
351.6531,87.4
351.6942,549.1
351.7486,23
351.7899,18.3
351.8085,18
351.9027,383.9
352.1913,252
352.2308,693.2
352.2986,17.7
352.4137,366.8
352.4342,583.9
352.4638,175.1
352.4761,178.7
352.4849,19.4
352.6288,429.5
352.8841,563
352.8944,558.9
353.0037,693.2
353.0273,121083.9
353.0361,245064.8
353.1655,859.9
353.192,19.6
353.2262,106.7
353.2513,843.3
353.3695,325.3
353.4886,557.7
353.5243,207.4
353.5601,452
353.6285,19.9
353.7039,20
353.903,227.2
354.0304,8202.8
354.0394,23847.2
354.2374,106.9
354.4484,680.5
354.4589,18.6
354.4905,415.9
354.6131,638.1
354.7584,123.9
355.0119,576.5
355.0343,13190.9
355.0574,808.2
355.0677,956.2
355.236,112
355.4046,217
355.411,501.6
355.4731,701.1
355.5146,20
355.7463,181.5
355.8778,501.6
355.901,663.5
355.9389,18.8
356.0579,217.3
356.0699,94.7
356.3318,202.1
356.5152,686.4
356.5294,366.2
356.5708,167.3
356.6891,701.7
356.8676,90
356.8877,694
357.009,333.8
357.0481,434.4
357.0671,80.1
357.0767,18.8
357.3037,96.3
357.3274,98.6
357.4488,322.8
357.4593,336
357.5177,21.1
357.6653,497.5
357.6724,263.1
357.6797,457.6
357.6877,137.8
357.6933,282.1
357.6993,379.9
357.7488,217.6
357.7924,294.9
357.8909,107
357.9527,105.6
357.9774,199
358.037,516.6
358.5916,376.2
358.6707,892.8
358.6949,112.4
358.7896,611.4
358.884,234.4
359.0072,163.3
359.0223,490.3
359.0317,17657
359.0441,381537.4
359.167,1600.6
359.2563,933.8
359.2767,108
359.2912,230.4
359.3366,967.4
359.344,324.4
359.3534,253.2
359.3704,1707.6
359.385,483.4
359.3931,200
359.4051,1100.7
359.4163,726.5
359.4216,627.8
359.4414,1381.7
359.4487,889.2
359.458,579.1
359.4652,608.6
359.4777,112
359.5035,157.4
359.5932,280.1
359.6015,845.1
359.6659,214.9
359.6927,721.3
359.9203,250.4
359.9427,154.1
359.9638,98
360.0475,33293.3
360.2279,599
360.2808,83.1
360.3239,183
360.3341,208.2
360.3517,379.2
360.3536,367.1
360.4596,498.6
360.7862,214
360.8375,1076.4
360.8532,165.5
361.0203,4541.5
361.0279,762.8
361.048,1483.5
361.0763,182.8
361.1701,195.8
361.1824,255.1
361.2742,1437.4
361.3645,128
361.5319,121.5
361.5821,619.8
361.616,821.8
361.7655,168.1
361.9173,135.6
361.9486,162
361.9578,15803.3
362.1266,226.7
362.2762,112.3
362.4195,399.8
362.5697,19.9
362.7233,18.8
362.7326,120.9
362.7861,152.7
362.8002,187.7
362.8201,75.7
362.8577,175.4
362.9269,1357.5
363.0219,82.3
363.0827,195.6
363.705,17.5
363.7111,105
363.8196,24.8
363.9972,3358.8
364.1112,243.2
364.2243,375.9
364.3074,18.5
364.5762,108.1
364.7881,730.7
364.8784,120.4
364.9138,459.7
365.0165,113
365.1057,9579.1
365.264,20.7
365.4033,243.5
365.4494,104.2
365.5068,108.9
365.8675,123.9
365.9177,89.4
365.96,124.9
365.9863,122.2
366.1174,18.5
366.1391,481.3
366.1876,416.4
366.2751,175.5
366.495,264.2
366.5183,22.6
366.8345,749.1
366.8991,333.4
367.1063,19.4
367.1194,19.3
367.1607,696.7
367.1944,1185.3
367.303,23.8
367.3513,593.8
367.4237,307.4
367.7739,113.7
367.8188,140.5
367.9919,1467.6
368.0029,437.2
368.2096,19.6
368.2767,223.5
368.4026,417.1
368.4171,19.4
368.4501,98.9
368.7293,157
368.8278,154.4
368.9439,116.3
368.9924,1543.8
369.0011,14836.6
369.0101,9701.8
369.0899,483.3
369.1224,21.7
369.2435,110.3
369.2681,19
369.4933,22.4
369.8271,692.7
370.0136,176.1
370.1,907.8
370.7526,380.1
370.9088,92.2
370.9516,115.2
370.9707,405.3
370.9998,1050.7
371.0422,948.8
371.1348,864.4
371.149,157.3
371.2254,576.7
371.7338,18.5
371.7671,1298.6
371.9593,207.5
372.11,198.1
372.3674,131.5
372.4216,388
372.4292,322.8
372.4482,275.6
372.5297,840.7
372.7071,154
372.7363,181.5
372.9817,235.2
373.2785,22.3
373.4145,703.9
373.4918,169.5
373.5101,495.2
373.8109,18
373.8299,304.1
373.8502,435
373.9496,19.9
374.0311,110
374.0733,604.1
374.1456,376.1
374.2372,270.2
374.2532,18.2
374.4999,210.4
374.8749,201.5
374.964,602.9
375.0092,120745.2
375.0181,125018.3
375.3098,21.4
375.3346,161.4
375.6142,271.3
375.8247,109.4
375.965,68.6
376.0125,6646.6
376.0214,9710.8
376.1594,22.2
376.1746,116.3
376.2271,20.1
376.2817,521.8
376.2938,999.5
376.2977,1065.6
376.4725,18.5
376.6794,221.4
376.7788,111.3
376.8271,20.5
376.8379,124.2
376.971,350.9
376.9943,1411.2
377.0085,176.5
377.0164,5939.8
377.1686,154.3
377.2652,166.2
377.3305,127.6
377.4254,281.5
377.4412,213.1
377.4867,166.8
377.5716,452.2
377.7152,487
377.8391,419.2
377.8938,392.8
377.932,1091.3
378.0175,248.3
378.0234,456.1
378.3348,149.6
378.4029,835.2
378.4707,106.6
378.8631,351.6
378.9461,91.5
379.0182,353.1
379.0551,344.1
379.0644,22.3
379.1996,92.3
379.5847,622
379.627,146.9
379.8842,107.7
380.3269,20.1
380.7444,139
380.7879,374.1
380.8189,107.5
380.8308,25.3
380.8915,400.5
381.0136,24135
381.0261,229011.7
381.0801,5963.4
381.5494,94.7
381.5822,19.4
381.6467,135.5
381.7249,19.7
381.759,19.4
381.9062,188.4
382.0295,21022.6
382.0482,742.8
382.0635,19.8
382.1806,147.2
382.3425,196.5
382.6834,236.1
382.7204,520
382.7672,1869.9
382.8757,675.9
382.8858,198.4
383.0107,467.8
383.0312,119.2
383.1164,184366
383.6718,672.8
383.6933,141.6
383.9051,164.9
383.9654,1383.2
383.9769,373.6
384.0479,318.4
384.1198,17411.8
384.2473,503.2
384.2586,335
384.3785,1060.5
384.5152,106.4
384.5436,860
384.5674,125.4
384.5841,257.4
384.6093,114.5
384.6524,23.6
384.7113,692.6
384.7255,167.2
384.7377,317.9
384.7643,363.2
384.8892,113
384.9734,451.8
385.198,382.5
385.2738,580.8
385.3972,422.6
385.4782,133.8
385.6079,430.7
385.6694,201.6
385.7134,150.8
385.742,109.3
385.7574,284
385.7818,92.4
385.9264,18.6
385.9793,13953.7
386.2581,590.9
386.2836,21.8
386.378,522.9
386.3921,906
386.4197,652
386.5134,702.6
386.53,250.4
386.5469,468.3
386.605,375.1
386.6511,202.9
386.9516,21.5
386.9777,379.6
387.0028,1370.9
387.0686,349.6
387.1083,425.3
387.2718,109.8
387.3438,117.4
387.5596,259.6
387.8587,604.6
387.9785,916.8
388.3098,106.8
388.3341,99.3
388.5032,458.2
388.7737,198.4
388.9298,220.6
388.97,122.4
389.0299,121.6
389.2206,587.5
389.2518,17.3
389.2807,227.8
389.6134,241.1
389.6297,539.2
389.8187,907.2
389.8618,125.1
389.9433,382.8
389.9736,41809.6
389.9841,129.5
390.0003,98.5
390.0267,101.5
390.0907,844.7
390.1806,452.4
390.1859,708.4
390.3157,128.6
390.3575,124.8
390.453,409.9
390.7096,418.1
390.7989,677.2
390.9049,138.8
390.9369,846.3
390.9498,28.4
390.9592,375.4
390.9745,9608.2
390.9829,23988.4
390.992,16603.5
391.0229,255.3
391.0781,679.5
391.1759,709.3
391.3498,163.3
391.5022,21.2
391.6125,262.1
391.8207,917.7
391.8373,158.4
391.9782,145.1
391.9859,241.6
391.9957,154.5
392.2822,471.7
392.4134,269.4
392.4486,306.2
392.7627,391.1
392.7745,278.3
392.7969,696.6
392.8472,21.1
392.9817,2805.2
393.0074,148.6
393.1092,252.3
393.2381,771.1
393.3757,456.6
393.4517,412.7
393.5327,429.1
393.5465,272.2
393.6859,664.4
393.7347,19.7
393.7552,145.3
393.8248,17.9
393.8379,25.9
393.9749,736.9
394.0379,567.9
394.3075,460.1
394.3749,319
394.5211,452.1
394.5978,600.9
394.9517,21.2
394.9579,211
394.9752,518.2
395.029,90.9
395.1777,99.4
395.3047,740.1
395.3393,485.6
395.4434,558.1
395.6391,165.4
395.8222,155.8
395.8965,207
396.3143,148.2
396.3799,467.8
396.4508,20.5
396.7049,391.9
396.7448,787.9
396.766,20.7
396.8841,617.7
396.9912,164115.1
397,85071.4
397.1664,799.9
397.2325,241.6
397.3124,572.9
397.3879,88.1
397.6901,134.9
397.9667,24.4
397.9944,11396.5
398.0034,3819.4
398.2419,2130.5
398.2802,205
398.36,19.6
398.5046,140.7
398.7062,148.8
398.7411,1138
398.7618,2354.8
398.8405,105.9
398.8504,181.1
398.9028,281.8
398.9748,216.2
398.9871,380.7
398.9984,1543.2
399.0245,269.5
399.3107,17.8
399.3333,18.1
399.5511,108.1
399.6732,414.9
399.8769,743.5
399.8824,179.3
400.203,660.8
400.2959,48.1
400.3483,83.6
400.4926,306
400.7155,223.5
400.7389,1549.5
400.8289,616.2
400.9593,202.7
400.9838,448.7
401.0001,139.5
401.1503,168.7
401.1647,203.6
401.4514,100.9
401.5195,118.7
401.9531,4164.7
402.1615,290.1
402.3056,737.2
402.5257,932.7
402.7946,134.8
402.9924,364.8
403.0081,262968.3
403.0575,19.3
403.4172,726.3
403.7634,404.1
403.8242,23.1
403.8925,17.4
403.9424,949.4
403.9519,152.2
404.0113,21801
404.1919,379
404.4773,343.5
404.6809,759.4
404.7783,166
404.7928,23.9
404.8226,647
404.9473,228.6
405.0116,1738.9
405.1185,104.7
405.1436,418.9
405.1493,161.8
405.172,457.2
405.2043,218.7
405.2764,658.7
405.3576,474.8
405.4836,100.5
405.5264,199.8
405.65,177.3
405.9475,30860.8
405.9777,23.5
406.1482,423.4
406.2413,18.5
406.3296,984.3
406.5681,483
406.6445,568.8
406.7732,711.5
406.9483,917.4
406.9541,853.5
407.3328,195.9
407.7411,152.5
407.7479,453.8
407.7566,226.4
407.8177,129.3
407.9456,625
407.9545,227.9
408.0057,133.8
408.094,105
408.2574,101.8
408.5654,19.9
408.5921,746
408.6581,957.1
408.7614,646.9
408.7702,1871.3
408.881,178.3
408.9567,227.2
408.9656,169.5
408.9852,1497.6
409.0155,422.5
409.3844,293.5
409.5875,567.5
409.8852,193
410.064,521.2
410.2052,99.5
410.3261,822.9
410.3412,17.8
410.3514,521.1
410.3896,157.5
410.4011,299.2
410.4108,382.1
410.4685,172.5
410.4829,236.1
410.6491,357.2
410.6887,155.5
410.7765,343.4
411.0946,410.7
411.1648,20.2
411.1868,716.2
411.2282,148.4
411.3722,23.3
411.5995,24.2
411.6274,244.5
411.6868,526.2
411.93,152.4
411.9586,208.9
412.0326,128.3
412.1069,405.7
412.1855,523.8
412.3211,2743.3
412.4069,874.8
412.5097,332.7
412.7522,1342.4
412.7825,100.7
412.9646,42128.4
412.9739,14073.6
413.0074,167.2
413.1624,18.3
413.2667,4298.4
413.2754,1032.9
413.3249,318.1
413.351,159.6
413.811,140
413.8814,94.2
413.9393,174.5
413.9669,1270.7
413.9768,341.4
414.0361,310.1
414.0931,438.2
414.2001,151.5
414.2696,265.7
414.3028,20.1
414.3269,26.7
414.3418,113.1
414.4496,586.6
414.4688,371.8
414.7154,473.2
414.964,1301.5
414.9732,133.5
414.997,842.8
415.0373,151.4
415.081,978
415.1446,194.8
415.2227,2002.2
415.2474,1038.7
415.3191,203
415.5324,378.8
415.6916,19.9
415.9705,165.9
416.0369,24.2
416.1351,8207.9
416.1437,455.7
416.2143,29192.2
416.3608,191.3
416.538,19.8
416.6637,279.1
416.6828,714.3
416.6923,113.4
416.803,742.7
416.8661,201.4
416.9129,448.4
416.9366,188.1
417.0312,21.9
417.2171,2812.8
417.2452,19.4
417.2687,173.5
417.2795,247.9
417.4022,156.1
417.7159,100.8
417.9265,437.7
417.993,921.4
418.5542,101
418.7995,759.8
418.8087,50.2
418.982,107702.7
419.0212,105.2
419.0648,153.5
419.1267,23.1
419.2556,1277.5
419.3057,17.5
419.7125,602.2
419.8201,21.4
419.8889,18.3
419.9553,33.5
419.9853,8017.2
419.9992,61.2
420.2994,98.4
420.4375,1062.1
420.6544,911.7
420.8055,203.4
420.8724,165.9
420.9467,502.1
420.9805,4871.3
421.0277,774.1
421.1562,140.4
421.3159,292.8
421.3801,420.8
421.5152,473.2
421.5403,102.1
421.6736,17.6
421.8332,146.8
421.8576,355.4
421.8694,20.1
421.9214,9818.6
422.0195,17.6
422.5735,178.3
422.7703,175.6
422.8085,490.3
422.834,323.8
422.9035,277.9
423.0102,120
423.1046,223.1
423.1313,428
423.1996,536
423.2687,859.8
423.3897,159
423.4288,334.3
423.629,655.8
423.7204,392.7
423.9193,188.7
423.9921,565
424.0648,115.1
424.1999,187.3
424.2347,135.6
424.3137,441.7
424.3252,102.3
424.354,119.8
424.3779,342.8
424.4078,20.4
424.5777,236.1
424.6446,139.4
424.7453,411
424.7778,154.1
424.8868,136.9
424.9651,20.3
424.9754,22.1
424.9865,447.3
425.1595,475.8
425.2091,124.6
425.2197,18.5
425.2394,408.2
425.3464,17.1
425.5022,501.3
425.5921,208.4
425.6523,415.6
425.6934,1042
425.827,25.9
426.1378,411.8
426.3065,20.1
426.3578,1160
426.9417,81.1
427.0346,275.5
427.084,332.8
427.2734,19
427.3364,670.4
427.3641,145.9
427.4501,149.1
427.4648,846.1
427.5642,195.6
427.6283,439.5
427.9211,495.7
427.9333,21.6
427.973,156.3
427.992,454.6
428.005,95.7
428.0667,260.2
428.1482,116.6
428.6226,744.7
428.8925,272.6
428.9377,10702.6
428.9498,180.6
429.0569,1397.9
429.0655,1235.1
429.0768,509.5
429.0891,968.6
429.1058,299.2
429.4661,159.9
429.6032,369.2
429.6261,104.6
429.756,277.9
429.8936,396.7
429.9406,122
430.0881,166.1
430.161,226.5
430.2337,656.7
430.3324,161.5
430.6117,170.9
430.9138,571.5
430.9378,177.6
431.0045,313.5
431.0592,181.5
431.0845,20.8
431.2168,4511.6
431.238,22.2
431.5262,22
431.5462,416.2
431.5935,1268.3
431.6373,118.5
431.7749,114.9
431.805,184.7
431.9511,21.5
432.039,219
432.1411,224.3
432.1765,168.9
432.2529,506.4
432.3921,21.8
432.468,300.5
432.8644,24.1
432.9517,458.2
433.061,834.7
433.1242,124.5
433.142,937.2
433.2501,78.2
433.2861,18.8
433.4038,761.7
433.7293,496.9
433.8784,174
433.9989,114.4
434.2433,373
434.3334,269.2
434.7626,118.7
434.8931,268.7
434.9559,23725.9
434.9922,143.8
435.4105,229
435.5272,22.2
435.5487,739.7
435.5576,109.6
435.5863,474.1
435.645,231.5
435.6683,194.7
435.7343,753
435.8482,37.8
435.9577,1154.6
436.5621,104.8
436.572,321
436.6271,154
436.6546,225.5
436.8277,189.2
436.933,370.8
436.954,1338.4
437.0575,106.2
437.2047,1957.1
437.2268,555.6
437.2853,259.7
437.4874,104.5
437.5299,19.2
437.595,135.8
437.7756,169.7
437.8679,17
437.8975,99.2
438.3838,102.7
438.5614,100.2
438.7986,113.9
438.9727,3354.5
438.9847,5400
439.0281,337.6
439.0962,22.3
439.1177,378.1
439.1593,116.3
439.1936,154.2
439.2206,1246.7
439.2294,166.6
439.2788,108.8
439.3258,374.7
439.4764,335.2
439.5002,1034.3
439.5341,280.4
439.7421,603.9
439.7566,277.2
439.8098,117.1
439.9391,422.7
440.4992,472.5
440.7626,917.3
440.8845,17.9
440.9104,468.3
440.955,228.1
440.9695,807.8
440.983,382
441.0285,162.3
441.2378,1147.3
441.2978,178.2
441.3135,18.6
441.3242,479
441.5452,188.9
441.5669,471.6
441.5929,688.9
441.6288,19
442.0131,437.3
442.0445,261.2
442.4028,163.4
442.4573,147.2
442.5136,101.2
442.6174,19.9
442.7679,367.1
442.8103,20.8
443.0994,369.2
443.1351,419.7
443.1819,124.9
443.2536,3333.4
443.4679,113.8
443.48,884.9
443.5912,173.7
443.6136,584.1
443.7821,361.6
443.9387,783.1
443.9724,57.9
443.9911,415.5
444.0748,273.2
444.1591,276.7
444.2453,456.9
444.433,184.6
444.6962,388.6
444.765,19.8
444.8522,436.3
444.9124,199.6
445.0042,293.1
445.2326,1833.2
445.242,188.9
445.2694,2527.5
445.3153,23.1
445.5066,332.4
445.5894,104.2
445.6469,414.5
445.7013,195.6
445.9805,620.8
446.1632,209.1
446.3091,355.8
446.3595,463.6
446.5903,20.1
447.0455,697.4
447.0902,103.4
447.1225,344.1
447.1489,560.8
447.2064,511.3
447.4713,342.8
447.697,589.9
447.825,293.1
447.8325,18.6
447.9319,3562.5
448.1148,526.8
448.667,404.2
448.7499,549.4
448.8481,20.4
448.9321,2354.1
449.1543,2767.2
449.2323,112.7
449.3047,245.2
449.5158,24.1
449.8248,158.2
449.8569,116.6
449.9291,127.7
450.1575,745.1
450.3084,298.1
450.725,565.7
450.8656,191
450.9293,1265.6
450.9928,426.4
451.1499,198.7
451.1972,168.1
451.3463,247.1
451.9169,776.2
451.9348,132.6
452.0729,115.9
452.4852,1488.8
452.9913,208.8
453.1739,1348.8
453.2527,312.6
453.3147,582.4
453.3843,406.7
453.4078,143.8
453.5844,396.8
453.7015,211.5
453.7947,328.3
454.1753,110.4
454.4214,180.4
454.49,443.7
454.4944,391.5
454.6269,545.9
454.6504,115.4
454.9361,19.9
454.9499,32860.5
454.9703,415.6
455.0048,600.6
455.3048,406.1
455.5061,609.2
455.5129,503.6
455.5176,603.4
455.5817,132
455.8305,353.2
455.9541,1299.4
456.0182,657.1
456.129,459.5
456.2333,133.6
456.6155,806.1
456.6999,477.6
456.722,672.1
456.759,243.4
456.9471,5092.4
457.0258,151.7
457.0963,93.7
457.2331,18174.1
457.3369,1039.5
457.3476,103.3
457.4923,510.7
457.6578,136.3
457.6705,481.5
457.6787,306.7
457.7395,462.7
457.8035,183.3
457.8087,466.7
457.8111,428.4
457.9062,797.2
457.9501,450.1
457.9626,152.7
458.2358,1452.8
458.2884,282.4
458.6965,486.4
458.9737,20.1
459.1177,856.1
459.2486,697444.3
459.298,18.7
459.3582,209
459.4213,128.7
459.5952,219.4
459.9128,179.8
459.9458,50.4
460.2519,141277.1
460.4437,111.2
460.514,259.8
460.6741,797.8
460.9667,78495.4
461.1512,160.5
461.2554,12352.6
461.5814,99.4
461.7025,634.6
461.7488,473.5
461.97,3378.6
461.9997,20.1
462.0141,174.9
462.0374,194.1
462.2123,343.7
462.2565,918.4
462.7818,21.2
462.9637,19207.9
462.9966,447.7
463.1515,460.6
463.203,1205.4
463.9063,1082
463.9673,447.7
463.9916,20.1
464.0938,526.5
464.4558,574.8
464.6071,458.7
464.8293,378.1
464.9787,6284.3
465.0647,338.8
465.3163,445.5
465.693,684.1
465.8561,245.5
465.9067,18.3
466.3192,105.1
466.3446,307.4
466.6019,17.8
466.6621,106.1
466.7246,468.8
466.7951,504.3
466.9452,162.4
466.9897,23.2
467.0083,110.7
467.4709,428.2
467.6836,476.8
467.8339,1062.8
467.8712,405
467.9132,116
467.9362,726.5
468.0147,18.3
468.3081,678.7
468.4509,186.5
468.8976,330.8
469.0148,579.8
469.0642,618.7
469.1467,821.5
469.2565,244.7
469.4011,455.4
469.4309,385
469.5337,166.4
469.5859,415.4
469.7325,481
469.8886,636.4
469.9425,19.4
470.2578,17.4
470.3226,25.5
470.6622,756.7
470.705,332.8
470.8123,542.5
470.8875,144
470.9237,13679
470.9955,2597.6
471.107,155.8
471.1774,360.6
471.2746,144.1
471.285,3802.6
471.2958,19.7
471.3139,31.8
471.3472,417.4
471.5738,201.4
471.7326,232.2
471.7734,461.6
471.8254,157.3
471.927,431.5
471.9647,153.2
472.0877,429.6
472.2646,518.7
472.3034,1572.9
472.3208,473.7
472.3634,242.9
472.3847,147.9
472.4315,332
472.8063,19.8
472.9207,1802.9
472.9488,175.4
473.0231,208.1
473.0434,987.8
473.0466,986.2
473.0616,275.6
473.0978,355.6
473.2434,418.2
473.2643,6883.3
473.7533,339
473.8933,194.6
473.9449,124.4
474.0427,145.2
474.2678,1179
474.5808,168
474.7873,288.1
474.9774,801.3
475.2225,39064.9
475.2447,1171.9
475.2572,19.3
475.3807,180
475.5896,410.2
475.6626,167.9
475.7268,801.9
475.988,98.4
476.0877,209.5
476.1888,142.9
476.2261,5321.4
476.2472,555.1
476.3134,319.4
476.4047,19.9
476.7787,290.2
476.8629,133.3
476.9406,50635.3
477.2199,1158.9
477.5631,134.9
477.7291,135.9
477.7442,408.9
477.7968,148.9
477.9444,4179.8
478.0908,440.6
478.1677,89.3
478.3295,55671.2
478.5139,943.3
478.7751,115.4
478.9377,18253.8
478.9601,17.3
479.0569,112.9
479.0715,173.9
479.101,216.2
479.1271,1096.6
479.2551,19.7
479.3329,11947.9
479.3466,629.6
479.502,401.7
479.538,739.9
479.7995,87.2
479.9759,496.8
480.1583,139.5
480.2179,538.3
480.3452,1892.2
480.9372,543.9
480.9525,2709.7
480.9766,658.4
481.0914,1728.8
481.1259,25.4
481.2325,3514.4
481.3904,150.4
482.0612,348.9
482.095,315.7
482.3252,2136.8
482.3603,754
482.4169,370.8
482.6774,294.1
483.0866,126.4
483.2486,206276.7
483.3529,148.5
483.3683,17.9
483.4496,112.6
484.2518,47253.6
484.3494,214.7
484.412,371
485.0886,18.1
485.1033,458.1
485.2642,192327.3
485.5071,425.7
485.6107,165.5
485.699,122.2
486.0337,117.8
486.1164,129.6
486.2677,40056.5
486.3351,173
486.4108,115.9
486.495,264
486.7364,23.3
486.7525,19.6
486.8971,1425.4
486.9137,321.2
486.932,450
486.9691,696.2
487.0878,160.9
487.1236,280.1
487.2798,171193.7
487.6559,172.4
487.6935,535
487.705,131.3
487.7996,129.7
488.0427,103
488.049,184.4
488.2832,36925.3
488.7757,109.8
488.8953,380.9
489.047,554.3
489.0556,27.5
489.0747,169
489.1434,1335.9
489.1822,262.8
489.1939,472.5
489.2087,125.8
489.2248,18.5
489.2861,2816.8
489.3131,157.5
489.356,1014.9
489.5741,361.1
489.6507,345.6
489.8963,559.7
489.9433,356.5
490.1208,19.7
490.1309,119.2
490.2051,132.6
490.2909,8011.2
490.3209,239.5
490.3609,112.9
490.3748,22.4
490.4947,203.7
490.6576,317.2
491.0872,24.8
491.2789,144
491.2935,448.7
491.3704,1564.9
491.6264,153.9
491.847,230.5
491.9148,1714.9
492.3937,236.2
492.4903,776.2
492.7923,779.3
492.8156,21.5
492.9148,7774.6
493.0803,105.3
493.1005,341.5
493.2964,432.3
493.3248,568.8
493.5467,279.7
493.6633,347.8
493.9176,566.5
493.9525,150.9
493.9958,146.4
494.081,239.7
494.2333,268.7
494.2852,641.9
494.3245,10906.5
494.7128,117.5
494.912,2831.9
494.9265,250.4
494.9397,198
494.965,102.8
495.1487,19.4
495.1603,252.8
495.2415,188.5
495.3267,531.6
495.3602,102.3
495.6339,450.4
495.6768,192.5
495.7284,143.1
495.7939,541.5
496.3401,629799.6
496.6312,116.1
496.879,187
496.9323,823
497.2646,140.4
497.3009,168.6
497.3433,161702.2
497.5495,173.3
497.9106,320.2
497.9278,19.6
497.9947,114.7
498.2901,482.4
498.3463,12672.2
498.5598,667.2
498.7224,153.6
498.8213,162
499.1014,305
499.2224,9878.9
499.3512,875.9
499.3887,682.8
499.442,24.3
499.5272,554.7
499.5636,19.2
499.6273,239
499.7833,283.8
500.178,97.1
500.2271,574.2
500.6206,329.6
500.6317,901.1
500.6548,194.9
500.7609,121.8
501.0538,163.2
501.1052,151.2
501.2382,9324.5
501.2614,1251.3
501.5469,316.1
501.5893,686.9
501.6551,126.8
501.8021,20.3
501.8353,19.5
501.8595,25.2
502.2159,443.9
502.2415,1744.4
502.2931,1914.8
502.329,22920.5
502.76,160.2
502.8884,508.2
502.9153,445.2
503.0327,240.8
503.0643,23
503.1076,304.3
503.2538,14687.9
503.3326,1186.1
503.6585,143.3
504.2464,110.8
504.3062,6399.4
504.3441,13559.5
504.4269,193.3
504.7731,475.8
504.802,130.9
504.8203,176.8
504.9701,109.9
505.1047,22.7
505.2314,316.7
505.3478,1714.1
505.7954,174.5
505.8909,391.2
505.9372,130.8
505.9517,351.7
506.2307,532
506.2646,1208
506.36,5578.5
506.6572,116.3
506.8916,1660.9
506.9151,864
507.1428,442.4
507.2302,21.5
507.2484,61304.5
507.5711,404.5
507.663,85.7
507.7827,221.4
507.8869,348.9
508.1874,471.4
508.2281,445.2
508.2519,14873.8
508.336,665.2
508.3764,2533.8
508.4726,220.8
508.4999,578.6
508.8876,2006.7
509.0048,2057
509.1846,19.2
509.2323,768.6
509.264,15617.2
509.41,913.2
509.5186,139.2
509.5458,110.9
509.57,114.7
509.6203,27.8
509.7087,89.7
509.8882,414.2
510.0006,178.9
510.2669,2151.5
510.2954,21.1
510.3551,5712.8
510.6508,19.3
510.6738,20.7
510.8265,98.8
510.9375,20.7
510.9518,383.4
511.0253,321.5
511.2806,895.6
511.3078,313.9
511.3626,416.3
511.4187,18.6
511.4836,408.1
511.5433,18.9
511.6119,22.2
511.8987,154.8
511.9702,572.6
511.9916,324.7
512.0458,207.2
512.0789,170.8
512.2218,755.5
512.5803,157.1
512.7795,337.9
512.9086,12443.1
513.0297,19.4
513.0963,922.9
513.1994,186.5
513.61,230.1
513.6207,852.4
513.7218,143.4
513.8842,454.8
514.1026,252.9
514.322,687.3
514.448,921.5
514.5701,1167.3
514.6319,278.6
514.7765,322.9
514.7811,223.1
514.809,19.5
514.9053,6514.3
515.3505,128
515.3655,396.6
515.607,272.2
515.682,118.6
515.7592,774.8
515.9662,20.8
516.13,22.4
516.3066,27068.3
516.3487,691.5
516.4965,877.8
516.7552,24.6
516.9204,1064.3
516.9779,621.3
516.9912,140
517.0035,520.2
517.0916,19.8
517.3095,4615.7
517.4779,418.3
517.5068,266.3
517.613,20.2
517.7512,404.7
517.7792,20.5
517.7921,25.2
518.2077,243.9
518.265,544.3
518.3221,1208312.9
518.4013,151.2
518.4569,245
518.8045,358.6
518.8271,396.9
518.9253,27047.2
518.9769,18.6
519.1909,211.8
519.3254,285089.2
519.428,456.8
519.4924,173.9
519.8323,400
519.862,450.2
519.9286,622.4
520.1417,718.2
520.1892,600.5
520.237,420.7
520.3293,33410.9
520.34,183453.9
520.3658,90.6
520.4085,582.6
520.4242,109.1
520.4524,230.3
520.4976,580.3
520.5159,171.8
520.6707,236.6
520.812,182.4
520.9224,11388.5
521.0526,182.4
521.0939,818.5
521.33,2324.2
521.3434,46873.2
521.4119,199
521.4241,262.7
521.6095,112.9
521.8709,146.3
521.9678,994.6
522.3345,538.9
522.3557,187181.8
522.432,115.2
522.4613,19.2
522.5081,368
522.9199,582.9
522.9373,4653.9
522.9703,452.9
523.059,191.1
523.1047,404.7
523.1591,151.9
523.166,158.7
523.2223,3998.3
523.359,54859.3
523.5432,415.6
523.5835,229.3
523.782,543.9
523.8526,165.2
523.9412,428.7
523.9609,148.7
524.1233,578.5
524.1383,1358.5
524.1442,1202.3
524.1564,1221.8
524.249,139.7
524.2729,715.2
524.3713,205440.9
524.7904,197.5
524.9282,477.7
525.0575,558.3
525.2379,888.3
525.2548,209.6
525.2931,631.2
525.3747,54723.5
525.7737,136
525.7874,811.9
525.9037,291
526.0171,562.3
526.2281,340
526.2875,503.4
526.3291,5099.7
526.378,4209
526.4951,259.4
526.7541,634.6
526.9364,18.2
527.0035,19.3
527.1376,238.5
527.1585,21708.2
527.1918,144.6
527.2842,18.1
527.3339,358.3
527.3781,204.4
527.9427,320
528.1621,1615.9
528.3459,360.3
528.6578,689.5
528.8823,6745.5
528.9344,229.9
529.0093,415.8
529.0506,109.7
529.2366,664.6
529.7581,166.2
530.3586,6297
530.3789,18.8
530.4715,646.7
530.6691,321.3
530.7919,192.5
530.8796,3819.1
530.919,19.3
530.9516,1032.8
530.9912,404.8
531.0371,124
531.176,513.3
531.2488,9206
531.3614,427.7
531.5149,633
531.6696,649.6
531.783,21.1
531.8235,577
531.8843,21.9
531.9086,145.4
532.2518,628.7
532.2807,5908.8
532.3379,16438.1
532.3789,423.5
532.6886,113.1
532.7035,210.2
532.9655,1041.4
533.2646,1747.1
533.3141,366.5
533.3416,2921.1
533.4831,805.2
533.4948,308.5
533.7948,388.2
533.965,118.1
534.1846,18
534.2961,362065.1
534.3165,3460.9
534.5756,252.7
534.8177,22.3
534.8994,16337.2
535.0502,179
535.1194,294.4
535.1593,787.5
535.2803,868.9
535.2994,86546.8
535.4311,156.7
535.5536,22.7
535.6176,471.8
535.7775,131.2
535.8491,646.4
535.8575,20.6
535.9016,470.8
536.1398,144.9
536.1785,18.5
536.2946,20479.1
536.4077,201.4
536.4322,636.9
536.5422,821.4
536.5966,198.6
536.8966,9422.3
536.9504,716.5
537.1576,458.6
537.2421,247.2
537.2981,2382.1
537.343,233.9
537.3692,20.2
537.5323,447
537.6171,109.4
537.6947,150.6
537.7418,171.3
537.9514,557.8
538.5201,313.7
538.6678,257.6
538.8179,120.2
538.8947,1141.3
538.9118,577.7
539.1521,345.6
539.2507,406.7
539.3968,296.1
539.5268,743.5
539.6554,712.6
539.7213,20.2
539.8311,180.3
539.9145,313.8
540.0384,217.3
540.1172,172.5
540.1498,806.1
540.3053,2798.1
540.3406,304.5
540.5373,158
540.7473,111.6
540.9542,239.2
541.1617,256.9
541.2347,608.6
541.3226,135.7
541.4241,23.2
541.521,144.4
541.7253,115
541.9545,473.6
541.9724,319.8
542.0183,342.2
542.2679,260.7
542.2716,301.5
542.3047,304.1
542.3221,306426.1
542.353,364.6
542.3693,413.7
542.3946,237.4
542.562,101.1
542.8938,539.8
543.1321,3090.5
543.3254,83569.4
543.4017,3930.9
543.5848,19.6
543.6991,167
544.1478,175.3
544.1922,850.4
544.2737,780.6
544.3004,647.2
544.3379,345560.9
544.4759,543.9
544.6304,107.7
544.685,20.6
544.8564,1119.6
544.928,1535.9
544.9502,403.3
545.1415,239.8
545.3414,90091.4
545.3582,243
545.4165,765.9
545.4353,155.9
545.5838,672.9
545.9038,538.9
545.9404,176.8
546.2572,2012.8
546.3533,357498.1
546.6323,217.2
546.7246,220.1
546.8513,774.7
547.0085,130.8
547.0565,228.2
547.2484,25.9
547.3568,92383.3
547.4438,131.1
547.7892,102
548.0794,416.3
548.0844,520.6
548.1277,258.4
548.1324,298.2
548.1908,395.6
548.2748,1014.4
548.3112,1905.3
548.3595,12710.7
548.6214,22.1
548.738,141.9
548.9235,1216.3
548.9951,22.1
549.1411,863.3
549.3138,19.3
549.416,436.9
549.7518,286
549.9896,452.3
550.1356,257
550.1504,442.2
550.1778,269.4
550.3302,103.7
550.4042,969.5
550.4242,186
550.4333,91.3
550.8731,3783.2
551.0006,162
551.3732,691.4
551.5855,652.8
551.8239,547.9
551.8773,389
552.1252,649.2
552.1372,461
552.2778,23.3
552.744,259.5
552.7708,300
552.8703,2389.4
552.9225,116.4
552.977,175.8
553.5315,107.3
553.8462,266.9
553.961,121.7
553.9784,684.5
554.2985,121.7
554.7294,186.1
555.0867,624.1
555.2008,160.7
555.2574,146.6
555.3026,18.6
555.4374,201
555.7562,263.5
555.8895,308.8
555.9336,479.2
556.4884,295.3
556.5187,497.2
556.6848,380.8
556.7595,369.4
556.7747,260.6
557.0207,127.9
557.03,116.4
557.6534,692.6
557.7125,99.9
557.7554,540.7
558.2961,97749.8
558.5347,103.5
558.6036,275.9
558.9059,671.4
559.0018,305.8
559.1796,170.9
559.2994,22773.2
559.3705,144.8
559.8798,21.5
559.8928,97.7
560.1084,18.8
560.1986,502.1
560.2944,1857.2
560.3117,99648.6
560.5789,214.9
560.6288,777.9
560.7698,22.2
560.8645,19.3
561.067,503.7
561.0752,163.3
561.0937,21.1
561.315,22624.5
561.4126,6514.3
561.4767,108.6
561.8137,166.7
561.8642,110.1
561.8898,114.8
562.0356,187.6
562.0975,825.9
562.121,95.9
562.3274,95618.8
562.4169,2281.9
562.7105,23.3
562.7653,256.4
562.8587,95.1
563.185,342.7
563.3307,22760
563.4282,5125.8
563.5025,253.9
564.3258,3555.9
564.3668,266.5
564.6305,172.6
565.7687,155.8
566.1465,431.4
566.322,90224.4
566.3656,738.9
566.7915,187.6
566.826,310.2
566.847,687.5
566.9138,124.9
566.9639,445
567.242,155.2
567.3257,23155.7
567.6987,747
567.8524,237.8
568.2933,217.3
568.3056,616.9
568.3379,32621.2
568.4023,414.8
568.417,492.1
568.7217,108
568.829,580.5
569.0884,576.2
569.2499,827
569.3412,5479.2
569.4523,18.3
569.5181,157.3
569.6648,101.9
570.2564,500.7
570.3505,274.4
570.4905,22
570.5437,273.1
570.6911,105.2
570.8673,4690
571.0591,1041.9
571.2358,233.6
571.3915,132.3
571.637,434.1
572.3687,3627.5
572.8649,1553.6
572.8981,19.9
573.0407,107
573.2746,353.1
573.2814,352.9
573.7961,485.2
574.1894,541.2
574.2521,276.8
574.4314,473
574.6158,110.4
575.1081,347.6
575.1403,457.8
575.1992,218.6
575.5039,10933
575.6318,626.8
575.6515,432.5
576.0835,154
576.2205,550.2
576.2806,8575.4
576.3164,22.5
576.346,127.5
576.5072,1442.8
576.8635,743.4
576.884,7452.3
576.9455,201.6
577.0588,20
577.284,756.6
577.5193,1675.1
577.5722,105.4
577.876,131
577.9342,318.1
578.1947,755.5
578.2788,1830.2
578.3885,538.4
578.4413,166.8
578.4684,118.8
578.5681,20.7
578.6245,169.2
578.6556,134.2
578.7555,21.3
578.8501,105.5
578.8811,5484.3
579.168,22.6
579.5043,535.9
579.5911,213.4
579.8538,182.1
580.2918,709.1
580.3995,673.9
580.4552,129.6
580.4612,186
580.4661,199.2
580.624,629.4
580.8774,843.8
580.8963,1226.8
580.9519,19.2
581.2022,191.9
581.4733,20.2
581.5025,162.3
581.6449,217.4
581.7222,154.3
581.8181,194.6
582.0241,131.8
582.0463,190.6
582.0767,210.2
582.0835,227.3
582.0883,255.7
582.1129,238.5
582.1263,919.3
582.1464,301.9
582.1866,612.5
582.2351,307.3
582.2438,362.7
582.2633,512.5
582.296,29062.4
582.3259,186.4
582.415,849.7
582.6994,123.3
582.8925,585.7
582.9372,128.7
583.0893,214.6
583.2223,401.6
583.2563,2574.1
583.2989,4241.3
583.3581,211.3
583.4799,118.6
583.5472,190.3
583.7408,21.1
583.9819,1052.2
583.9973,159.1
584.0156,699.2
584.0244,403.1
584.0439,194.6
584.3117,6297.1
584.3934,190.5
584.5188,891.8
585.2706,4113.3
585.283,434.3
585.3102,1989
585.314,1868.3
585.6897,280.2
585.9708,108
586.019,124.2
586.1817,22.7
586.3098,8466.4
586.4103,342.1
586.842,2250.1
586.9132,1611.1
587.0698,21.3
587.2131,827.1
587.3132,1235.6
587.4334,102.6
587.4591,21.9
587.5909,92
588.0219,21.5
588.0638,237.4
588.0881,181.2
588.6932,183.3
588.7562,513.5
588.8259,292.3
588.8383,833.5
588.8876,491.3
588.9089,441.8
588.9572,181.3
589.1964,403.8
589.3284,357.4
589.5557,180.5
589.847,112.3
589.9391,18.2
590.0787,113.8
590.3223,12701.1
590.3604,706.7
590.427,579
590.5663,105.2
590.6073,120.9
590.7052,259.4
590.8032,842.2
590.936,573
590.9818,522.9
591.1592,181.3
591.3267,1994
591.3516,486.5
591.3996,424.2
591.8481,119.3
591.8813,20.6
591.9308,315.5
592.254,2512.6
592.3372,1593
592.8582,5758.9
592.9316,237.8
593.4391,542.1
593.7393,157.7
593.8496,564.8
594.0584,119.8
594.5764,21.4
594.5967,161.7
594.8551,7960.1
595.3568,215.9
595.3955,601.5
595.9145,18.8
596.2045,22.1
596.553,317.3
596.8517,2052
596.8723,407.7
596.9709,19.1
597.2677,630.6
597.4495,11932.3
597.4857,9100.6
598.4513,950.1
598.5611,21.2
598.8811,1089.3
599.0472,362
599.2765,276.9
599.3417,542.5
599.348,540.6
599.4651,7291.2
599.5032,5784.5
599.7604,25.3
600.2814,765.3
600.4685,1617.3
600.5116,582.1
601.4799,288.8
601.5024,121.1
601.5182,670.2
601.6638,196.4
601.6954,23.2
601.9639,115.2
602.2956,2128.9
602.4951,475
602.8859,421.2
602.9558,482.3
602.9897,23.4
603.5354,1013.7
603.6907,502.2
603.7053,835.4
603.83,588
604.0668,222.3
604.209,340.7
604.3121,1018
604.3162,1039.1
604.8127,434.5
604.9644,397.3
605.1244,214.8
605.2498,173.8
605.2941,429.4
605.5177,571.9
605.803,21.9
605.827,600.3
605.8956,94.5
605.9513,127.7
606.2957,1439.9
606.4295,136.4
606.4998,442
606.8297,281
606.9545,20.5
607.0321,259.3
607.1691,103.6
607.3002,418.6
607.6188,173.3
607.8671,397.8
607.8967,207
607.9343,216.1
608.0523,20
608.3114,1173.6
608.3568,690.9
608.8315,1165.1
608.948,193.9
609.1771,439.7
609.5959,128
609.6959,745
609.7735,115.8
609.8987,193.5
610.313,946.2
610.3413,445.3
610.4619,765.5
610.8287,1645.4
610.8491,753.1
611.0373,907.2
611.3799,170
611.7704,174.7
611.9346,313.1
612.1682,402.3
612.3257,1167.2
612.4541,22
612.6497,521.5
612.6777,353.6
612.8268,737.1
613.0249,536.8
613.3656,163.1
613.3911,97
613.4221,526.1
613.5339,295.6
613.8075,112.7
613.8968,129.8
614.0325,393
614.0488,400.6
614.1148,115.1
614.1723,17.6
614.247,116.4
614.3098,801.5
614.337,765.3
614.5891,125.8
614.6501,101.1
614.7539,98.4
614.777,139.7
615.1313,121.2
615.3585,19.9
615.4596,15360.9
615.912,427
615.9719,244.9
616.362,420.1
616.4637,5099.5
617.4755,40117
617.6666,459.4
617.7203,175.8
617.9551,444.1
618.1687,287.7
618.2721,425.3
618.4787,10743.5
618.8822,559.8
618.9942,224
619.053,991.8
619.1388,212.8
619.3468,230.9
619.4332,191.6
619.4912,21249.5
619.7641,22.2
619.9315,661.2
619.9922,161.8
620.2446,837.5
620.3664,20
620.4949,5045.4
620.6547,18.4
620.7808,99.8
621.1111,224.6
621.1299,294.6
621.3066,241.6
621.3665,103.5
621.4528,1975.8
621.4854,9996.7
621.7749,132.2
621.8237,657.4
621.9462,237.2
621.9737,324.8
622.4525,598.1
622.473,717.9
622.4904,2925.7
622.7606,429.9
622.8752,124.2
623.0434,657.3
623.136,8730.6
623.3785,19.6
623.4728,1328.6
623.4999,765.8
623.8148,108.9
624.1402,376.7
624.373,797.5
624.4137,458.1
624.5039,203.3
624.9462,129.6
624.9864,352.7
625.4832,300.2
625.5187,1503.4
625.5394,180
625.8089,260.6
626.2213,488.2
626.3194,121.9
626.4953,126.2
626.5222,146.2
626.6123,189.7
626.9545,19.7
627.0403,150.3
627.139,681.4
627.2389,535.6
627.4752,424.8
627.5356,1933.4
627.7654,420.4
628.5402,536.8
628.6046,847.1
628.7685,687.6
628.8417,142.2
629.0814,208.5
629.1529,18378.4
629.2029,129.4
629.5995,406.9
629.6948,842.7
629.7098,101.2
629.7309,520.8
630.0962,216.1
630.1374,107.6
630.1563,1839.6
630.4665,527.6
630.9119,133.6
631.0856,92.6
631.4873,245.1
631.6016,510.7
631.7863,321.8
631.8615,548.7
631.9491,753.7
632.0138,422.6
632.0412,201
632.0562,145.6
632.1279,151.7
632.2934,987.6
632.7147,125.4
632.9247,106
633.2528,18.8
633.2742,21.1
633.4498,4676.9
633.5138,19.4
633.5387,17.4
633.9136,173.4
634.2375,385.2
634.4568,389.1
634.6251,149
634.8431,1737.5
634.9171,581
635.0283,190.8
635.1069,895.1
635.1291,187.1
635.4656,883.1
636.1342,138.3
636.2082,303.6
636.2909,231
636.4718,518.5
636.5503,19.1
636.781,156.5
636.84,1164.4
636.8788,1140.4
637.1912,526.9
637.4788,245.6
637.5612,20.4
637.9731,643.5
638.1974,163.5
638.4231,709.1
638.4444,789.9
638.4779,166.7
638.5512,239.2
638.8369,437.5
639.0019,108.8
639.4589,625.7
639.4947,263.1
639.8689,21
639.9765,188.1
640.2973,121.5
640.3955,591.5
640.6689,124.5
640.9268,855.7
641.1989,22.2
641.2634,20.2
641.3467,153.8
641.8246,109
642.0844,453.4
642.1182,160.7
642.259,198.7
642.5798,18.2
642.6076,711.7
642.6469,323.9
642.7927,801.1
643.1569,609.7
643.2024,136.3
643.2754,139.8
643.3265,19.4
643.4764,212.7
643.4936,810.3
643.5222,171.9
643.573,121.1
643.6944,348.5
643.8817,20.6
644.5383,338.4
645.007,166.6
645.118,7333.8
645.2719,496.8
645.3718,857.1
645.3887,293.6
645.4876,1414.5
645.5275,314.9
646.0784,457.8
646.121,154.3
646.1345,121
646.1966,178
646.4285,2459.5
646.6078,449
646.6707,122.4
646.8702,420.2
646.9303,2446.6
647.0129,627.2
647.0991,126.9
647.1219,103.5
647.1898,465.5
647.4724,19.8
647.9464,567.7
647.992,96.8
648.0083,127.1
648.0863,186.9
648.165,122.9
648.3013,333
648.3872,1380
648.4385,539.2
648.8207,627.5
648.9159,581.9
648.9669,184.5
649.0377,201.8
649.2996,108
649.4676,675.6
649.49,146.5
649.516,1339.1
650.0355,730.1
650.1698,258.7
650.1937,184.6
650.3358,96.4
650.439,1216.8
650.4933,113.8
650.542,276
650.6428,188.5
650.8169,1365
651.1348,25549
651.2535,120.3
651.4331,457.8
651.4561,986.1
651.6498,151.9
651.8547,122.9
651.9834,137.4
652.1387,3700.9
652.3316,183.5
652.403,629.5
652.419,360.1
652.4552,856.3
652.8139,1892.2
652.8549,168.4
652.9525,368
653.2823,481.5
653.3082,206.8
653.6908,20.7
653.8901,710.1
654.1519,536.3
654.3304,102
654.3464,687.8
654.7144,484.3
654.7597,378.3
654.8117,795.8
654.8305,17.9
655.1822,977.8
655.4004,118.5
655.7336,462.1
656.3876,340.4
656.8195,386.9
656.8764,180.3
657.0441,366.2
657.0608,463.7
657.2227,19.9
657.5751,510.1
657.6618,470.6
657.7039,785.2
657.7314,418.9
657.962,124.7
658.3367,23.3
658.4279,2251.4
658.4916,477.3
658.7848,101.5
658.9533,461.4
659.3027,269.3
659.7978,186.6
660.0826,1180.6
660.1088,590.4
660.2463,213.4
660.3232,267.3
660.757,18.8
660.8926,664.4
660.9466,1108.6
660.9801,270.9
661.0191,105.6
661.0829,3808.8
661.1116,128.1
661.4397,776.8
661.4683,532.5
661.6008,146.5
661.6519,101.2
661.6828,469.4
661.9688,151
662.0481,432.1
662.2213,304.5
662.4069,288.4
662.4734,573.3
662.8451,355.5
663.4418,361.9
663.6446,459.7
663.7357,97
664.3053,200
664.327,92.3
664.4524,689.5
664.4687,4129.6
664.5757,694.3
664.5891,624.1
664.6088,243.9
665.0107,144.9
665.1241,101.7
665.4676,585.7
665.7552,805.2
666.066,251.3
666.1214,119.6
666.2808,246.7
666.4832,6719.9
666.5753,24.5
666.7904,1097
667.0468,138.5
667.0995,16220.2
667.1523,588.3
667.4862,2317.4
667.8784,149
667.958,723.2
668.1112,363
668.1901,268.8
668.7854,959.3
668.8604,231.6
669.0002,162.6
669.4941,946.4
669.5381,171.3
669.6939,623.7
669.8185,328.4
670.054,742.3
670.1093,150.8
670.2488,165.4
670.3381,17.3
670.9314,629.2
671.1923,459.3
671.4364,920
671.6119,238.8
671.8382,188.2
672.0297,20.5
672.055,288.9
672.1214,377.1
672.4225,1622
673.1166,45262.8
673.3302,166.4
673.4232,1167.9
673.5275,1260.9
673.5949,178
673.6215,145.5
673.8727,105
673.928,187.5
674.0513,116.7
674.0896,221
674.0973,286.9
674.1198,7107.2
674.1539,217
674.4092,388.8
674.5241,262.3
674.6823,124.5
675.1032,508.6
675.123,330.9
675.1722,134.4
675.2586,140.1
675.5121,18.8
675.5437,17634.7
675.6228,204.5
675.945,348.8
676.0474,2611.8
676.0838,404.3
676.1005,603.4
676.2474,937
676.2672,483.3
676.416,946.8
676.4925,137.4
676.5476,2701.5
676.9391,525.8
677.0284,718.1
677.1838,230.2
677.9012,823.2
677.9334,983.4
678.0688,117
678.1701,17.4
678.5995,113.9
679.0163,23.2
679.1412,215.6
679.3339,119.6
679.3575,215.7
679.5883,115.1
680.0802,570.8
680.3705,20.7
680.4892,108
680.7626,123.4
681.0914,620.7
681.3062,353.2
681.3842,22.6
681.6886,791.4
682.0643,9132.2
682.1537,198.2
682.2126,135.2
682.7375,852.5
683.0234,182.6
683.0659,3007.3
683.2453,218.7
683.2798,496.4
683.3014,116.3
683.3375,21.7
683.4522,1720.3
684.0275,107.7
684.0546,107.7
684.3193,789.1
684.471,415.7
684.6673,126.5
684.7463,456.1
684.9502,185.4
684.987,98.4
685.0703,141.8
685.4361,4512.8
685.4676,980
685.7046,1150.4
685.8549,290.1
686.4394,148.5
686.4433,151.3
686.4536,102.4
686.6704,405.4
686.792,493.7
686.8225,619.4
686.8762,177.3
686.9933,741.1
687.1458,262.7
687.2747,485.1
687.3115,139
687.4666,20
687.6653,285.5
687.7683,259.5
687.9499,208
688.1714,109.8
688.2251,402.8
688.4161,1358.6
688.9673,135.7
689.0815,15297.1
689.0895,13546
689.1973,107.5
689.2366,125.4
689.4251,683.1
689.5604,4316.4
689.6248,18.3
689.7395,609.2
689.9679,120.5
689.9941,107.6
690.0815,650.6
690.1967,338.7
690.4713,133.1
690.5636,728.8
690.6103,115.3
690.8615,420
691.2042,152.4
691.3187,723.4
692.143,264.4
692.191,298.8
692.6169,418.5
692.8808,596
692.9595,379.1
693.0843,792.4
693.3551,128.5
693.6394,148.4
694.0303,135.3
694.1506,965.9
694.1811,508.8
694.5482,20.4
694.7998,661.4
694.9049,146.8
695.0526,460.3
695.0577,439.1
695.0643,392
695.0988,32799.1
695.5108,3399.9
695.6122,19.8
696.0437,141.2
696.1027,4970.4
696.3805,272.1
696.4204,107.3
696.5994,537.6
697.031,196.1
697.103,244.1
697.4635,203.3
697.5262,26947.5
697.7088,703.8
697.786,217.3
697.9814,377.7
698.0295,1898.3
698.0398,1085.9
698.5293,9054.3
698.9212,17.9
699.1525,494.7
699.5353,759.7
699.8579,360.9
700.0584,257.5
700.3478,1184.7
700.4686,99.7
700.654,341.3
700.7024,264.2
700.8919,152.2
700.9276,327.6
700.98,190.8
701.0372,132.5
701.2742,178.2
701.3298,111.7
701.4074,1437.6
701.5598,48445.9
701.8534,276.4
701.9023,18.2
701.9267,313
702.1004,19.4
702.2079,196.1
702.3427,2176.4
702.4094,174.9
702.4895,19.7
702.563,17466.5
702.9215,144.4
702.9677,211.3
703.3049,714.4
703.5482,735.4
703.5757,98550.8
703.985,129.5
704.0465,7014.4
704.3567,189.8
704.4478,4268.5
704.5111,91.6
704.579,40369.6
704.833,581.2
705.0569,1794.1
705.51,125.4
705.5808,3545.9
705.8436,190.9
705.914,115.6
705.9404,740.1
706.057,996.3
706.1136,121.5
706.2942,164.1
706.5367,772.6
706.8038,441.3
706.8569,254.1
707.0216,222.4
707.0536,480
707.5366,185.8
707.581,105.8
707.9085,21.2
707.9283,413.4
708.214,256.9
708.5477,522.3
708.685,155.6
708.877,477.3
708.9688,179.6
709.0374,109.8
709.3513,404.7
709.7517,176.1
709.7904,177.4
709.8979,208.1
710.0991,281.4
710.7708,280.2
710.7802,261.6
710.8,118.2
710.8568,17.9
711.0732,14082.2
711.1506,112.5
711.5418,9102.9
712.0773,938.3
712.1525,774.8
712.5474,711.9
712.7228,654.7
712.8512,752.3
712.8915,177.3
713.0497,684.5
713.0717,191.3
713.1251,103.3
713.5007,2600.1
713.5944,20.9
713.7122,135.9
713.7626,315.1
714.0492,754.4
714.5152,130.3
714.8318,709.2
714.8659,136.3
715.1306,197.6
715.3906,17.2
715.4916,182.5
715.7958,679.4
715.8417,321.1
715.9448,228.1
716.1243,25.4
716.551,171.9
716.5819,602.2
716.6977,110.6
716.861,529.5
717.0806,18090
717.1288,21.1
717.7151,231.9
717.8323,218
718.0832,739.8
718.253,194
718.5761,290.5
718.5966,491.5
718.6295,669.2
718.8098,385.3
718.9269,446.7
718.9698,701.3
719.0251,328.1
719.14,485.4
719.5789,366.4
720.0226,1659.1
720.6339,88.8
721.205,189.6
721.4785,58705.4
721.8119,107.3
722.0348,229.1
722.0936,138.1
722.4821,20108.1
722.5253,501.2
722.6612,112.1
723.4947,11675.1
723.5418,55229.8
723.6417,188.8
723.7757,608.9
723.9243,467.2
724.034,221.5
724.1731,147.6
724.4973,2270.2
724.5453,24772.6
724.7035,473.7
725.4496,372.2
725.5578,104818.2
725.8184,114.2
725.8409,17.6
726.001,125.6
726.0285,3907.4
726.1282,979.1
726.4375,1010.8
726.561,41301.2
726.6455,462.4
726.6968,258.9
726.8842,18.9
726.9425,259.7
727.0367,1202.9
727.3138,998.8
727.5643,6015
727.6345,530.3
728.0224,163.7
728.1834,338.1
728.3673,485.4
728.5194,2497.7
728.5675,689
729.0791,422.9
729.4426,128.3
729.5913,13878.4
729.6706,462.6
730.4826,968.4
730.5388,9915.5
730.5948,4544.4
730.6948,134.7
730.7249,144.8
730.9149,108.7
731.0137,132
731.5436,1930.7
731.6074,6230.8
731.733,423.4
732.0489,327.8
732.0955,125
732.3352,1091.4
732.4128,406.1
732.5546,45486.7
732.6098,864.4
733.0452,6191.5
733.0565,8451.7
733.1699,174.8
733.2759,1070.5
733.5578,17635.3
733.6106,400.3
733.8013,272.7
734.4947,209.4
734.571,11067.2
734.6076,183.2
735.1004,392.3
735.2765,269.8
735.5738,3263.3
735.6934,199.7
735.7451,171.6
735.8325,107.2
735.8729,18.3
735.9842,341.8
736.0502,414.5
736.1211,176.1
736.3451,255.2
736.4437,672
736.5282,453.8
736.8893,245.3
736.9704,333.3
737.0244,108.7
737.4237,193.4
737.4529,14399
737.5424,100.5
737.7471,401.4
738.2996,487.4
738.3809,19.6
738.4568,5226.9
738.6327,152.2
738.7828,105.5
739.0627,10955
739.097,964
739.1408,799.2
739.1571,402.7
739.1677,324.9
739.3925,636.5
739.4668,167.6
739.5168,5287.9
739.5974,267.9
739.7698,18.9
740.4169,328.3
740.5191,1674.5
740.8585,778.2
740.8876,582.7
741.1906,19.8
741.3758,126.5
741.4678,190.7
741.5318,14595.4
741.7526,20.7
742.0031,1435.3
742.383,428.9
742.4666,973.3
742.5349,6424.6
742.5751,5217.5
743.0049,137.3
743.1038,211.9
743.4455,127.9
743.467,425.7
743.5774,1193.8
744.0396,399.4
744.292,370.8
744.3387,873.3
744.5543,5870.5
744.5913,4381.4
745.2643,17.6
745.3711,728.6
745.4787,39126.3
745.5925,1014.3
745.9415,18.9
746.0371,18.5
746.3794,107.1
746.4087,455.2
746.482,14210.8
746.5116,131.2
746.5706,3811.9
746.6077,2812
747.0149,225.2
747.0314,759.2
747.3893,606.3
747.4946,7482.9
747.5753,586.7
747.6101,1886
747.6586,751.1
747.6901,258
747.7492,298
747.892,466.9
748.0098,1579.8
748.496,462.3
748.5901,386.4
748.8701,572.7
749.0103,827.2
749.0423,972.7
749.1084,177.6
749.361,146.7
749.5098,2078.6
749.5511,266.8
750.0461,917.3
750.1793,165
750.5149,852.6
750.5758,400.7
750.8848,234.3
751.0494,19.1
751.3633,356.5
751.5219,21.1
751.5732,11386.1
751.7672,521.3
751.8675,240.6
751.9304,21.7
752.1839,335.5
752.3235,357.6
752.4271,1061.2
752.5208,9387.5
752.5768,1852.5
752.7589,387.6
752.8025,244.5
752.9393,517.8
752.9616,100.5
753.4958,109.7
753.5903,4019.8
753.8131,122.1
754.0504,689.8
754.082,16.8
754.312,1786.4
754.45,342.5
754.5369,45189.8
754.6459,655.5
754.9052,319.5
755.0254,3204.8
755.0387,3746.9
755.143,860.5
755.4967,91
755.5396,13438.5
755.8009,425.4
755.9038,694.6
756.0425,225.3
756.1189,591.1
756.5543,50480.7
756.6143,253.7
756.6496,173.7
757.2947,402.4
757.4713,207
757.4939,19.5
757.5567,21043.6
757.6239,1743.2
757.9516,996.6
758.5702,951426.2
758.6931,140.7
759.0757,670.4
759.4664,881
759.5736,422563.8
759.6391,2222.8
759.8853,196
760.2458,480.4
760.5868,353011.3
760.611,599.6
760.7855,183.2
761.0451,3727
761.2686,125.9
761.4521,10438
761.4902,283.1
761.5896,168211.6
762.3481,189.8
762.5924,37426.9
762.8745,413.6
762.8819,363.2
762.8967,284.9
763.0103,175.7
763.255,18.3
763.4705,241.7
763.5953,3395.2
763.9447,89.3
763.975,490
764.2232,153.8
764.3384,143.2
764.4856,221.7
764.5583,902.9
764.8658,19.2
765.2305,551.9
765.4671,138.5
765.5447,94.9
765.7537,108.5
765.7847,450.7
765.8231,721.8
765.9626,202.8
766.135,521.8
766.2032,118.4
766.246,194
766.5357,2329.8
766.5749,27385.2
766.6831,197.4
767.3031,192.9
767.3999,19
767.4758,353.9
767.5399,1960.5
767.578,8306.1
767.6542,353.8
767.8054,177.3
767.931,150.5
767.9631,19.1
768.5535,5178.3
768.5911,38385.1
768.6554,17.6
768.7314,535.1
769.0059,578.1
769.1596,479.4
769.4788,6886.4
769.5246,457
769.5591,606.4
769.5944,13592
769.7021,113.4
769.7869,18.4
769.8443,1072.1
769.8883,544.8
769.9016,532.8
770.4807,521.7
770.5093,4205.5
770.5674,728.2
770.6084,1839.3
770.7556,464.6
770.9914,2634.4
771.0149,452.7
771.1475,564.6
771.4276,322.1
771.495,2140.1
771.5739,221.6
771.6106,897
771.6483,767.4
771.6865,984.9
771.8264,127.6
771.9952,618.5
772.0647,680.2
772.345,185.9
772.5863,7058
772.9255,431.6
772.9573,1061.7
773.1372,719.5
773.5097,1385.7
773.5892,1657.5
773.8278,192.6
773.908,21.6
773.9411,583.2
774.36,106.9
774.5108,363.2
774.5562,289
774.6103,216.3
774.6538,265.1
774.7622,113.9
774.7824,158.2
775.0015,97.2
775.0483,517.7
775.2549,112
775.3296,470.6
775.6066,169.7
775.7894,102.4
776.3816,659.8
776.5213,2780
776.5903,187.5
777.0087,2862.7
777.1202,167.5
777.1916,125.8
777.221,336.2
777.5318,284.4
777.7154,17.8
777.7242,17.7
777.8445,848.4
777.8694,1358.4
778.0113,181.7
778.0436,568.4
778.5367,34079.6
778.7611,18.1
779.2239,174.8
779.5401,12302.5
779.5686,20.9
779.868,233.8
780.5523,726124.6
780.6025,264.2
780.7509,140.3
780.956,124.1
781.5558,322106.1
781.8423,20.3
782.5699,851430.9
782.8995,285.8
783.0268,3811.1
783.1961,405.5
783.3055,581.2
783.4066,113.9
783.4906,164.8
783.5732,395648.1
783.6387,96.2
783.6589,438.9
783.7908,503.8
783.845,462
784.0343,368.1
784.09,198.2
784.352,279.4
784.3676,187.1
784.5132,191.5
784.5871,237355.5
784.806,1024.8
784.9026,170.1
785.0704,175.6
785.4074,609.9
785.5898,123341.9
785.6546,4067.4
785.9535,527.2
786.4466,400.8
786.6021,225140.5
786.6564,936.6
787.0348,727.1
787.6051,108093.8
787.6686,864.5
788.0409,473.8
788.5148,485.2
788.5574,14642.1
788.6052,15613.2
788.6202,12817.7
788.8322,432.7
789.5599,2266.2
789.6217,5934.7
790.14,21.8
790.2585,454.1
790.2781,559
790.5428,1839.9
790.5734,19914.4
791.3139,109.3
791.488,902.4
791.5761,4408.6
791.7296,125.3
792.4911,180.9
792.5911,13384.7
792.6349,209.5
792.7028,113.6
792.9837,1396
793.3031,764
793.5379,407.5
793.5945,2234.8
793.6433,269.1
794.072,929.1
794.5111,4199
794.5705,4110.8
794.6068,47963.4
794.9789,289.8
795.373,446.7
795.5133,2761.4
795.61,23523.5
795.8106,100.4
795.8762,22.5
795.9635,544.7
795.9898,482.7
796.3734,593.5
796.4544,450.6
796.5262,159301.5
796.5863,6100.3
796.6243,4018.8
796.9203,325
797.4212,123
797.4818,175.8
797.5296,69714.6
797.5851,316.8
797.6267,1253.7
798.1862,214.3
798.3171,990.9
798.543,50299.4
798.9635,413.5
799.0005,1195.2
799.2475,26.6
799.2796,107.6
799.3157,394.1
799.5451,20512.1
799.6699,216.3
799.9985,247.4
800.0647,163.5
800.46,466.6
800.5494,289.8
800.6746,239.4
800.7954,286.9
801.0282,281.2
801.319,118.7
801.3801,184.6
801.425,127.5
801.5525,173.9
801.5733,197.2
801.6656,313.1
801.8631,544.5
801.893,163.8
802.0454,770.9
802.1649,475.2
802.3355,466.3
802.5366,26040.2
802.574,874.2
803.4489,1085.3
803.5393,8934.4
803.6231,507.5
803.7611,262.4
804.5524,482069.5
805.1245,670
805.2024,689.5
805.3486,116
805.5557,224196.8
805.7254,39
805.9592,251.9
806.5169,295.6
806.5698,303332.5
806.6981,152.2
806.7959,604.2
807.1813,644.9
807.279,19.8
807.5101,178.8
807.5429,295.8
807.5726,153087.8
807.6366,2334.7
807.7326,398.7
807.9363,1044.1
808.3179,18.2
808.5854,223013.5
808.678,613.5
809.4596,233.2
809.5884,113172.4
809.6534,279.2
809.705,321.4
809.8702,22.3
810.6022,179355
810.6634,139.9
810.8589,246.3
811.3378,122
811.4021,488.9
811.4724,180.9
811.6051,92136.6
811.6694,8581.6
811.9759,524.5
812.1587,169.9
812.4736,19.1
812.6037,7714
812.6204,21172
812.6734,1928.1
812.9937,171
813.1565,224.6
813.4571,98.2
813.6219,9843.1
813.6444,367.5
813.6866,7050.4
813.7297,148.2
814.0114,739.3
814.1646,872.5
814.5691,1918.5
814.6228,305.9
814.6614,1198.5
814.6896,2140.9
814.9777,517.1
815.4259,721.3
815.4862,108
815.5641,445.6
815.6941,182.8
815.8469,315.3
816.5884,29359.9
816.6983,34.1
816.7599,227.7
817.4246,23.6
817.5921,9384.4
817.6291,156.8
817.7958,574.1
817.9989,557.1
818.33,18.5
818.4313,604.4
818.4857,24.6
818.5114,2225.5
818.5699,1218.8
818.6061,1486.5
818.738,838.6
818.7984,21.1
818.9736,115.2
819.2759,432.3
819.4326,654.6
819.586,113.5
819.6109,1096.1
819.7558,535.8
819.8166,515.9
819.8454,23.9
820.0541,370.8
820.1411,305.2
820.2476,109.6
820.5262,103083.3
820.6191,995.7
820.6973,147.5
821.5294,52693.5
821.628,334
821.7951,114.4
821.8832,19.2
821.9349,537.1
821.962,648.7
822.0602,140.4
822.0832,22.1
822.4263,383.8
822.5065,713.5
822.5151,658.2
822.5435,33929.4
822.6104,161.4
822.6387,696
822.8569,327
823.3524,112.2
823.5458,10614.8
824.5177,248.5
824.5581,26727.6
824.7004,465.3
825.0373,451.1
825.3855,327.6
825.487,1308.2
825.561,11429.7
825.8611,161.6
825.9819,238.8
826.4922,852.5
826.5354,1009.9
827.6865,110.8
827.9225,406.3
828.0172,246.3
828.0469,241
828.0881,1602.3
828.2596,862.1
828.5523,108193.6
829.2155,119.2
829.4582,935.7
829.5557,51690.4
829.6818,343.4
830.0753,684
830.1194,149.5
830.424,726.1
830.5689,79017.3
831.3973,150.9
831.5716,38180
832.3939,130.6
832.5485,1022.2
832.5843,102994
833.5876,54973.4
833.6506,2458
834.0643,20.6
834.473,457.1
834.5136,125.6
834.6023,30522.3
835.0877,588.7
835.6051,16135.9
835.6759,495.2
835.7439,463.7
836.4341,650.4
836.6185,2357.4
837.2335,370.9
837.4173,86.4
837.6224,948.2
838.077,161.6
838.1733,417.6
838.3922,817.3
838.6916,257.2
839.3424,319.3
839.6395,956.3
840.0176,383.9
840.9091,167.2
840.956,1359.1
840.9881,223
841.2138,175.4
841.4557,19.7
842.0361,690.5
842.5323,1297.7
842.7597,155.2
842.7971,177.4
843.0324,195.4
843.2266,738.9
843.642,111.1
843.7686,123.9
843.7999,115.8
843.9088,18.3
844.5264,22076.6
844.6196,187.6
845.1802,19.3
845.4785,163.4
845.53,8378.6
846.1903,463.2
846.3654,194
846.5427,14751.1
846.647,184.2
847.543,2246
847.8828,400
848.5575,17598.2
848.9508,244.2
849.0082,364.8
849.2133,153.8
849.5611,3505.2
849.8746,121.7
850.2104,18.7
850.3114,595.4
850.5691,460.6
851.0721,397
851.6637,25.6
851.8314,19.4
852.0575,23.8
852.4917,89.4
852.8263,1039.7
853.1062,411.8
853.2149,100.1
853.4872,21.5
853.8012,285.6
854.1264,676.3
854.1696,608.6
854.5694,4048.8
855.1372,389
855.57,329.9
856.1658,111.5
856.5835,8786.3
857.304,203.6
857.3835,242.3
857.587,3681.3
857.6593,115.1
858.3694,152.7
858.4565,208.1
858.5998,1203.8
858.6827,506.3
858.9964,487.8
859.0496,1010.9
859.2536,738.6
859.312,260.3
859.4982,18.7
859.6022,194.6
859.7592,879.2
860.6451,219.7
860.76,431.4
861.1379,464.3
861.372,550.8
861.5261,21.6
862.0249,207.9
862.067,220.2
862.8018,741.7
862.9422,830
863.1661,570.6
863.5131,176.2
863.8457,110.2
863.8979,103.7
864.0914,425.4
864.5299,742
865.6579,136.5
866.3203,533.6
866.5646,21.9
866.6929,161.8
867.6086,113.8
867.6795,107.3
868.0085,182.1
868.0618,1080.4
868.3577,313.6
869.017,176
869.2301,18.6
869.2452,20
869.3695,520.1
869.4099,1321.5
869.454,303.5
869.5081,2740.2
869.529,3533.2
869.5676,4348.8
869.6133,5213.9
869.6264,5230.2
869.6918,3079.5
869.7452,3955.9
869.7915,2018.8
869.8399,1063.2
869.8663,574.9
869.9005,594.1
869.9078,623.1
870.3769,215.9
870.503,201.8
870.6794,1822.3
870.7107,302.9
871.0357,113.7
871.2589,181
871.3527,138.1
871.4128,224.4
872.8207,186.4
873.5044,180
874.1984,298.9
874.5274,243.6
874.7508,167.9
875.3218,22
875.4322,914.6
876.7319,1230.5
876.7891,237
877.5875,835
877.7145,465.4
878.202,413.5
878.759,488.4
879.1773,437
879.4233,23.3
880.7845,705.9
881.3151,547.5
883.2057,155.1
883.471,952
883.6315,439.4
883.7256,18.7
884.0277,384.7
884.7605,706.3
885.5212,494
886.7896,171
886.871,579.2
887.241,830.3
887.3473,220
887.5779,482.7
888.1274,432.2
888.2735,930.4
888.5666,115.7
889.2539,612
889.3516,278.2
889.6543,709
889.7943,260.4
890.0596,285.7
890.1953,328.5
890.5465,96.7
891.024,316.4
891.2975,21.3
891.4848,970.5
892.0174,19.1
892.0796,424.7
892.2842,116.2
892.7789,257.4
892.8778,192
893.214,1283.6
893.2874,190.5
893.4652,20.4
894.2407,128.8
894.4062,126.9
894.5384,154.4
894.8244,1053.6
895.3328,358.9
895.6057,187
895.7635,610.5
896.2158,243.8
896.4345,167
897.1223,22.9
897.186,109.9
897.4573,21
897.7607,734.2
897.9072,19.4
898.0035,341.3
898.1725,358.4
898.5082,501.4
898.7654,132.5
899.1885,23.5
899.4357,916.3
899.6037,656.7
900.1112,475.5
900.1393,188.1
900.2993,400.7
900.54,185.6
900.889,272.1
901.5239,1263.5
901.9583,1036.6
902.3914,1348.4
902.6207,91.4
903.4202,641.9
903.4426,270.6
906.6225,803.6
906.7067,227.8
906.8481,1062.2
907.2168,1646.1
907.5879,268.3
908.4917,674.5
908.6231,283.7
908.7456,22.2
909.2937,1202.8
909.3757,271
910.0936,151
910.1148,218.3
910.4625,472.1
912.1859,402.3
912.7949,19.2
912.8698,91
913.1848,23.2
913.4566,871.1
913.7942,19.3
913.8413,172
914.2598,502.9
914.4043,22.2
915.151,323.2
915.2511,320.2
915.8107,1024.6
916.1184,314.3
916.4728,843.6
916.7206,368
917.1557,266.7
917.4412,600.6
917.8021,446.4
918.5664,113.5
919.1469,779.5
919.2793,206.8
919.5589,166.3
919.8938,700.7
919.9271,115.9
920.118,124
920.2562,420
921.0981,618.6
921.8273,1009.7
922.0656,956.5
922.1893,135.5
922.3594,421.3
922.5676,115.1
922.8159,194.4
923.2609,618.9
923.4396,253.5
923.9123,541.8
924.7909,317.6
924.8503,490.1
924.9655,135.2
925.4027,1933.6
925.6806,682.1
926.1815,486.7
926.4268,937.2
926.5197,484.3
926.6953,20.8
926.9102,806.6
927.0786,232.7
927.4059,434.2
928.4052,1163.8
928.8747,96.3
929.3789,373.3
929.6667,254.2
930.6532,478.8
930.9095,115.6
931.058,734.2
931.7497,977
931.9358,23.8
931.9972,660.5
932.2679,208.7
932.3615,165.6
932.6435,172.6
933.0571,17.6
933.1527,887.3
934.7646,406.2
934.772,412.3
935.2665,631.4
935.4615,20.2
935.5511,191.6
935.6082,1040.5
936.5071,19.2
936.6031,109.4
936.6705,82.8
936.8583,607.4
937.0552,960.6
937.2736,1086.9
937.7041,22.8
937.9786,534.1
938.127,239.8
938.4854,331.6
938.5184,308.3
939.1058,526.6
939.4096,195.6
939.6242,611.2
939.8368,248.9
940.0819,198.6
940.1484,472.5
940.3299,1190.9
940.5401,1046.5
940.665,711.6
941.8016,507.7
942.6741,167.2
942.7124,874.7
942.9095,181.9
942.9489,879
943.1578,142.1
943.4596,362.7
943.5278,471.4
943.5532,157.9
943.8934,22.8
944.141,1258.4
944.6369,132.1
944.7646,513.3
944.8295,607.1
944.925,955.1
945.0572,321.9
945.759,21.9
946.6301,546.8
946.7678,696.7
947.7166,359.2
948.0488,335.3
948.0825,675.5
948.1233,644.6
948.2855,144.4
948.3646,1112.9
948.6095,324.9
949.0666,338.6
949.3538,20.3
950.1553,21
950.4427,21.8
950.511,691.9
951.1607,440.4
951.4212,534
951.4757,218.4
953.5893,471.1
953.8727,807
953.9247,634.7
954.3019,22
954.3402,489.1
954.4232,380.2
954.9919,18
955.6931,95.5
956.4778,1480.2
956.5433,25.4
956.6387,637.8
956.6951,374.9
957.1001,638.8
957.1452,646.9
957.5702,855.6
957.8109,1151.4
958.2275,101.2
958.8301,555.6
958.8533,574.6
959.2684,544.5
959.5154,679
959.6569,536.1
959.6858,270
960.2894,221.9
961.1225,885.1
961.8104,147.6
962.2786,316.2
962.5361,614
962.5839,434.7
963.5149,820.9
963.6556,372.5
964.5237,119
965.222,211.1
965.3508,431.5
965.3782,519.5
965.4237,126.5
965.4744,116.3
965.8312,185.4
965.8993,101.8
965.9533,740.2
966.2615,154.3
966.5378,924
966.7523,844.6
966.8214,518.1
967.4891,864.5
967.6655,746.7
968.0436,112.7
968.4218,21.4
968.5151,353.1
968.9431,746.2
969.0599,340.2
970.1598,486.8
970.2405,803.8
970.3231,190.8
970.5876,135.3
971.4119,301.8
972.1451,137.3
972.3509,166.9
972.8022,564
972.8419,119.1
973.7027,202.5
974.0618,141.2
974.2669,573
974.8339,245.9
974.8614,400.5
975.0375,446.9
975.0943,1461.6
975.7524,389.1
975.9003,117.1
976.1469,108.4
976.1671,261.4
976.3432,132.2
976.3804,395.9
976.6563,19.5
976.8635,806.9
976.9139,1097.8
977.1114,142.8
977.2622,112
977.462,369.5
977.5667,423.8
977.8586,402
978.1126,19.9
978.2222,21.4
978.5451,459.3
978.6591,997.9
978.8259,729.4
979.0179,638.3
979.4381,240.1
979.6983,451.2
980.1632,863.1
980.225,302.1
980.913,207.5
982.5617,118.6
982.7133,85.2
983.0748,217.6
984.0017,208
984.2093,384.6
984.3657,19.1
984.9253,331.3
985.0735,150.1
985.3184,924.4
985.4493,220.7
985.7242,125.1
985.9333,742.2
986.1389,22.4
986.3745,294.5
986.6226,147.4
987.2028,1053.1
987.324,115.4
987.6431,706.8
988.3609,348.2
988.6068,1032.1
988.6381,952
988.8444,264.1
989.6491,24.7
989.9735,772.7
990.8332,951.6
990.8691,913.1
991.1315,102.6
992.0292,1023.5
992.1714,97.3
992.4613,363.4
993.0488,779.1
993.3045,251.6
993.5438,220.3
993.7045,797.1
993.7477,532.4
993.9077,707.5
993.9621,22.3
994.1044,824.7
994.2645,24.8
994.5634,123.5
994.7364,567.1
995.1511,21
995.2713,1023
995.9936,206.6
996.1776,1532.8
996.2328,843.5
996.7033,513.9
997.8717,19.3
997.9549,21.2
998.1564,120.6
999.2885,93.5
999.6232,716.5
