SPECTRUM - MS,
215.RAW,
FTMS + p ESI Full ms [50.00-1000.00],
Scan #: 1-40,
RT: 0.01-1.97,
AV: 40,
m/z,Intensity

50.0139,556.2
50.015,414.6
50.0337,204.6
50.0448,134.3
50.0451,172.4
50.0515,660
50.0533,276.2
50.0747,587.8
50.0801,294.1
50.0859,211
50.0909,748.6
50.0984,692.5
50.1041,377.8
50.1047,117.2
50.1169,102.9
50.1361,171.9
50.177,91
50.19,18.8
50.2019,89.2
50.2147,202.2
50.2268,345.2
50.2282,495.7
50.2293,113.7
50.2417,201.6
50.2506,553.8
50.2655,221.3
50.2776,282.6
50.2845,203.4
50.2923,136
50.2964,311.5
50.2968,156.1
50.2995,471.3
50.315,17
50.3251,114.5
50.3315,603.6
50.3602,295.1
50.3792,739.5
50.4026,264.4
50.4128,17.1
50.4166,453.3
50.4301,171.5
50.4329,23.1
50.4391,15.9
50.4506,122.5
50.4711,201.1
50.4771,143.2
50.4936,365.7
50.4941,241.5
50.5063,89.3
50.5089,17.2
50.5297,135.8
50.564,235.7
50.5769,621.1
50.5874,432.7
50.5892,125.9
50.5943,122.8
50.595,227.5
50.6077,168.3
50.6128,87.4
50.6252,194.3
50.6396,485.4
50.6565,510.3
50.6579,150.3
50.6705,115.1
50.6924,228.3
50.6999,460.8
50.7054,425
50.7105,117.5
50.7143,474.5
50.7231,158.6
50.7255,231.1
50.7309,176.9
50.7656,324.3
50.8215,117.2
50.8298,112.4
50.8416,175.6
50.8482,209.1
50.8538,164.8
50.8553,398.9
50.8653,99.6
50.8702,440.4
50.8708,108.9
50.8735,499.4
50.9203,443.9
50.9437,665.1
50.9523,328.3
50.9547,21.4
50.9551,424.8
50.9574,224.8
50.9704,293.3
50.9751,84.3
50.9965,105.7
51.0081,360
51.0105,16.8
51.0161,179.4
51.025,173.7
51.0314,505.3
51.0346,199.7
51.0526,17.4
51.0628,476.4
51.0633,166
51.0686,318.7
51.0732,425.9
51.101,464.2
51.1075,92.3
51.1127,136.2
51.1355,100.8
51.1362,17.1
51.1368,447
51.1414,216.2
51.1673,275.2
51.1695,18.7
51.174,204.4
51.1795,640.1
51.2104,261.3
51.2145,561.5
51.2183,19.3
51.2219,588.5
51.2276,17.6
51.2416,198.7
51.2435,438
51.259,153.3
51.2613,211
51.2738,116.3
51.2901,107.2
51.3119,257.5
51.3152,96.5
51.3163,18.4
51.3298,705.3
51.3356,190.3
51.3362,209.9
51.3578,458.5
51.3596,16.5
51.3693,438.5
51.3738,376.2
51.376,272.1
51.406,167.2
51.4376,241
51.4495,94.7
51.4583,16.3
51.5101,186.3
51.5108,519.4
51.5155,211.7
51.5162,283.7
51.5227,367.4
51.5264,394.3
51.5273,107.7
51.5554,256.1
51.56,187.7
51.565,383.7
51.5842,555.8
51.598,18.4
51.6074,18.4
51.6115,212
51.6203,557.4
51.6243,158.5
51.6327,254.9
51.637,190.5
51.6378,100.6
51.64,237.7
51.6709,652.3
51.6816,127.5
51.6834,16.8
51.7046,562.7
51.7069,93.5
51.7202,277.6
51.7211,103.9
51.7379,119
51.7535,181.2
51.7595,640.6
51.7733,81.2
51.7783,266.3
51.819,116
51.8204,212.9
51.8319,19.3
51.8352,325.8
51.8429,97.9
51.8522,264.3
51.867,799.2
51.8926,698.4
51.9063,146.6
51.9273,105.5
51.9813,16.8
51.9836,150.8
51.9918,358.4
52.0031,435.5
52.0046,556.2
52.006,429.7
52.0131,102.9
52.0216,17.3
52.0362,18.6
52.061,489.1
52.0659,104.8
52.0852,182.7
52.0912,462.3
52.1142,154.9
52.1227,152.6
52.1333,160.8
52.1431,18.2
52.163,17.8
52.173,280.5
52.1909,103.6
52.1926,490.1
52.2011,265.6
52.2063,160.5
52.2077,548.8
52.2122,673.1
52.2279,203.3
52.2305,99.7
52.2448,165.6
52.2453,447.8
52.2797,123.3
52.2978,342.5
52.298,358.2
52.2992,265.1
52.3172,16.3
52.3282,678.3
52.3543,108.5
52.3659,681.5
52.3726,184.4
52.3735,121.9
52.3741,484.7
52.3779,576
52.3859,421.7
52.4175,247.5
52.4204,621.4
52.4369,341.7
52.4464,280.9
52.459,533.5
52.494,120.1
52.4944,108
52.5176,133.2
52.5239,127.5
52.554,306.4
52.5683,160.9
52.5861,116.8
52.614,21.4
52.6292,130.1
52.6519,573.8
52.6589,154.1
52.6796,101.8
52.6909,161
52.709,190.2
52.7225,199.3
52.7249,83.5
52.7333,114.2
52.7477,450.2
52.7534,17.5
52.7547,103.9
52.7596,107.7
52.7604,149.9
52.7646,105.5
52.7649,529.9
52.7758,256.4
52.7786,530
52.7819,121.6
52.7866,133
52.7902,188.6
52.7987,18.5
52.8014,84.2
52.8076,123.1
52.8094,205.9
52.8273,329.2
52.835,1738.5
52.836,1452.1
52.8372,807
52.8374,492.6
52.8378,606
52.8385,390.4
52.8391,610.1
52.841,187.7
52.8428,183.7
52.8479,261.8
52.8496,440.1
52.8563,235.1
52.8706,317.7
52.8719,149.8
52.9042,456.1
52.9053,668.6
52.9122,238.2
52.9233,118.5
52.9488,674.1
52.9521,405.5
52.9754,20.6
52.981,121.5
53.0092,241.9
53.0101,280.3
53.0257,180.2
53.0444,279.1
53.0624,142.7
53.0685,190.8
53.0705,465
53.0722,120.4
53.0784,153.4
53.0897,429.7
53.1071,474.4
53.1087,251.5
53.1113,136.3
53.1397,516.4
53.1485,18.1
53.1522,110.3
53.1649,16.5
53.1691,100.5
53.1766,101.8
53.1912,106.9
53.2009,442.6
53.2185,106.7
53.2616,291
53.2789,104.5
53.2867,125.4
53.3136,111.4
53.3177,107.5
53.3294,298.9
53.3416,209.3
53.3491,506.8
53.3503,135.2
53.3606,585
53.4185,452.5
53.435,164.5
53.4757,125.6
53.4775,176.6
53.4808,131.2
53.4929,176.8
53.4954,394.8
53.5199,115.4
53.5495,484.8
53.5589,104.9
53.5606,89.1
53.5612,594.2
53.6011,146.1
53.6019,997.8
53.6194,357.7
53.644,410.1
53.6508,198.6
53.6536,17.7
53.6659,101.5
53.67,418
53.6747,133.7
53.6888,801
53.6913,237.7
53.6922,661.3
53.6943,96.8
53.6984,650.4
53.7112,16.8
53.75,115.5
53.7726,406.9
53.7755,435.5
53.7775,17.1
53.7883,158.6
53.7888,434.4
53.7956,142.1
53.7999,105.6
53.8023,102.1
53.8276,17.2
53.832,148.6
53.8378,158.1
53.8473,164.2
53.851,105
53.8804,94.5
53.927,17.5
53.9279,107.9
53.9284,180.9
53.9367,664.5
53.943,18.2
53.9708,241.2
53.9761,145.1
53.9895,246.2
53.9943,506.7
53.9996,99
54.011,281
54.0167,98.9
54.0213,202.9
54.051,106.4
54.0532,665.5
54.0545,15.7
54.0697,111.7
54.0788,92.5
54.0952,92
54.0989,537.4
54.1088,645.1
54.1132,85.9
54.1303,97.2
54.1324,220.3
54.1427,123.6
54.1636,690
54.1641,158.6
54.1795,224.9
54.1903,198
54.1991,202.1
54.2052,260.9
54.2453,601.9
54.2703,131
54.2777,109.1
54.2851,141.1
54.2859,113.5
54.287,487
54.2926,172.5
54.3014,457.5
54.3238,350.2
54.3288,484
54.3337,19.2
54.3379,199.6
54.3398,223.5
54.3505,210.3
54.3576,217.5
54.3595,346.6
54.3625,17.1
54.3669,202
54.3965,329.8
54.3976,20.1
54.4094,128.1
54.41,18.5
54.4124,521.4
54.4134,273
54.4266,229.3
54.4288,486.4
54.4683,115.8
54.4719,502.1
54.4767,468.1
54.4849,89
54.4946,162.4
54.498,97.1
54.5044,203.6
54.5114,413.3
54.5119,585.1
54.5172,21.2
54.5294,331.8
54.5345,433.7
54.5463,183.1
54.554,370
54.5691,95.1
54.5804,112.2
54.5869,98.6
54.593,141.3
54.6043,377.9
54.6059,438.6
54.6079,558.8
54.614,145.4
54.6177,660.5
54.6227,265.3
54.6528,621
54.6594,275.9
54.6907,419.9
54.7101,114
54.7114,154.5
54.7358,333.9
54.7368,206.1
54.7479,455.1
54.7531,449.6
54.7717,145.1
54.7808,100.8
54.8179,425.4
54.8267,187.1
54.8339,115.2
54.8442,86
54.8479,169.9
54.8792,484.5
54.885,464.2
54.8872,169.5
54.8888,139.7
54.8998,198.5
54.9425,259.5
54.9539,77
54.9647,148.7
54.9649,168.2
54.9651,133.6
54.9725,201.1
54.9833,576
54.9843,17.5
55.0036,161.3
55.0199,189.5
55.0641,107.9
55.0691,448.2
55.0829,216.5
55.0835,975.4
55.0924,112.2
55.0926,96
55.1029,17.8
55.1142,117.4
55.1309,540.3
55.1324,94.9
55.1374,288.1
55.1383,219.1
55.1399,156.1
55.1451,234.4
55.1659,115.1
55.182,145.6
55.1896,553.2
55.2023,607.3
55.2051,138.4
55.2071,110.3
55.2078,278.1
55.216,289.1
55.2331,16.7
55.2427,98.9
55.2628,144
55.2661,242.8
55.2957,104.5
55.3071,311.9
55.3257,101.2
55.3302,431.1
55.3415,561.4
55.3488,133.1
55.3503,780.5
55.3776,15.9
55.3897,135.9
55.4095,452.4
55.4203,349.8
55.4353,120.7
55.475,598.6
55.476,454
55.5076,112.2
55.5095,17.3
55.5237,386.4
55.5315,108.2
55.5568,217.4
55.5637,385.3
55.5829,17.2
55.5937,353.9
55.6297,541.9
55.6682,463.2
55.6766,115.7
55.6831,20.9
55.6868,118.1
55.6898,115
55.7158,623.1
55.7239,116.1
55.7361,264.3
55.7427,446.4
55.7472,309.9
55.785,473.8
55.8036,637.8
55.8116,390
55.8178,21.9
55.845,155.8
55.8492,315.5
55.8549,481.1
55.8673,663.9
55.8696,268.8
55.874,568.6
55.933,118.8
55.9612,495.5
55.969,225.3
55.9698,16
55.972,198.8
55.9764,124.2
55.9776,21.3
55.9902,232
55.9922,126.7
56.0012,174.2
56.0093,96.3
56.0181,253
56.025,156
56.0462,510.4
56.0473,161.8
56.0552,149
56.0561,783.1
56.0625,16
56.0675,244
56.0846,491.4
56.1157,364.5
56.1342,15.1
56.1576,101.2
56.1735,117.6
56.1825,523.5
56.1868,378
56.2027,234.2
56.2151,170.3
56.23,171.4
56.2367,116
56.2485,207.9
56.249,221.3
56.2509,89.1
56.2515,21.9
56.2556,747.8
56.2632,453.9
56.2716,15.3
56.2742,237.6
56.2895,200.9
56.2899,598.2
56.2963,205.5
56.3086,251.4
56.3239,190.7
56.331,202.3
56.3334,101.7
56.3523,221.9
56.3633,167.2
56.3671,107
56.3686,811
56.3727,340.7
56.3763,1031.5
56.3822,103.1
56.3904,317.4
56.4023,213.8
56.414,188.8
56.4264,103.8
56.4592,389.7
56.4882,16.5
56.4987,334.5
56.5021,270.5
56.5247,164.1
56.5267,597.9
56.528,463.6
56.5285,211.6
56.5368,185.2
56.5404,606.6
56.5424,445.2
56.5688,516.6
56.5855,193.2
56.5958,482.3
56.5966,17.4
56.6056,424.5
56.6152,210.7
56.6315,456.7
56.6373,105.4
56.6474,482.1
56.6493,104.8
56.6777,901.6
56.6838,155.3
56.6936,16.6
56.7218,197.5
56.7266,416
56.7883,517
56.7971,113.7
56.8049,98.2
56.8129,130.8
56.8171,17.4
56.8226,159.1
56.8273,290.8
56.8281,236.9
56.83,122.1
56.8571,280.3
56.8712,265.8
56.8718,237
56.8885,287.6
56.9047,384.1
56.9178,462.5
56.9252,130.6
56.9293,127.7
56.9632,452
56.9659,426.8
56.9776,384.3
56.9815,164.4
56.9836,150
57.0113,626.9
57.0183,158.7
57.0216,125.2
57.0528,162.2
57.0542,110.2
57.0592,496.4
57.0747,103.6
57.0792,16.5
57.0811,90.8
57.0913,168.1
57.0935,333.2
57.1061,645.4
57.108,362.4
57.1206,490.9
57.1264,193.1
57.1422,180.2
57.1484,361.5
57.1509,16
57.1567,15
57.1605,17.3
57.1645,475.6
57.1744,616.8
57.1751,343.1
57.1929,559.4
57.1936,410.3
57.2047,467.1
57.2054,143.8
57.2148,707.9
57.2544,325.2
57.2582,632.4
57.26,478.7
57.2707,398.7
57.2847,241.3
57.2996,429.8
57.3001,94.7
57.3068,347.8
57.3268,203.7
57.3322,18.5
57.3348,184.9
57.3461,715.7
57.35,16.3
57.3542,352.9
57.3556,121
57.3746,672.3
57.3756,525.3
57.3797,427.1
57.3974,551.4
57.4227,589.4
57.4235,348.9
57.4309,402.1
57.4435,711.9
57.4967,102.3
57.5016,17.1
57.5074,209.6
57.5135,293.3
57.5424,331.3
57.5459,494.6
57.5588,122.4
57.5619,605.2
57.566,353.6
57.58,365.6
57.6156,118.9
57.6443,237.8
57.6454,526
57.6513,99.6
57.6516,115.1
57.6517,126.5
57.6734,419
57.6891,371.2
57.6947,407.6
57.7106,88.2
57.7131,292.4
57.7299,96.9
57.7374,300.4
57.7409,436.7
57.756,89.7
57.7579,100.7
57.7586,435.3
57.8074,492.8
57.8107,154
57.8137,16.7
57.8419,117.6
57.8628,115.7
57.8655,145.2
57.8714,300.5
57.8732,118.8
57.9117,660
57.9122,236.9
57.9269,95.2
57.935,102.5
57.991,374.7
58.0126,640.9
58.0173,105.2
58.0183,158.6
58.0202,202.7
58.0245,101.3
58.037,407
58.0469,534.2
58.0513,17.5
58.052,437.2
58.064,252.6
58.0862,359
58.0944,144.3
58.1123,108.5
58.1498,125.3
58.1761,15.7
58.196,134.6
58.2032,111.7
58.205,18.2
58.206,305.3
58.2108,130.2
58.2149,19.6
58.2308,125.5
58.238,20.8
58.2446,233.8
58.2586,18.1
58.2782,623.6
58.288,101.6
58.2993,124.6
58.3075,144.7
58.3322,167.4
58.338,220.7
58.3509,126.8
58.358,373.4
58.3725,117.8
58.376,110.6
58.393,224.7
58.3939,258.8
58.3992,364.4
58.406,213.3
58.4268,219.7
58.4317,21.1
58.457,107.3
58.4624,120.6
58.4684,524.7
58.4955,160.2
58.4987,407.2
58.5001,712.9
58.5026,537.8
58.5039,102.2
58.507,189.3
58.512,103.2
58.5146,354.7
58.5184,238.2
58.5463,18.3
58.5742,20.3
58.6056,411
58.6162,209.5
58.6176,544.1
58.623,148.8
58.6327,185.5
58.6451,608.5
58.667,19.6
58.7071,118.7
58.71,477.3
58.7156,221.7
58.7494,102
58.7705,121.6
58.7763,17.1
58.792,290.1
58.7939,114.2
58.7961,180.4
58.8005,305.9
58.8161,662.8
58.8433,91.5
58.851,703.6
58.8904,120.7
58.9096,546.4
58.9454,121.9
58.9508,183.8
58.9538,271.8
58.9801,222
58.9944,745.4
59.0147,15.5
59.0212,106
59.0396,302
59.0398,316.4
59.0465,166.2
59.0534,95.3
59.0672,19.7
59.0827,439.4
59.0848,378.8
59.0923,425
59.0944,16.6
59.1042,18.5
59.1211,592.8
59.1375,363.5
59.1379,348.9
59.1413,18.9
59.1425,384.6
59.1441,125.1
59.1565,15.8
59.1638,638.4
59.1703,131.8
59.1828,119.1
59.1839,349.2
59.1894,335.2
59.2228,240.7
59.2248,99.5
59.2449,107.4
59.2548,109.3
59.2642,163.8
59.2654,131.3
59.2662,14.1
59.268,477.1
59.2769,460.2
59.2863,367.3
59.2933,167.2
59.2963,113.3
59.2975,626
59.3137,98.7
59.321,17.2
59.3459,16.5
59.3505,218.8
59.3539,113
59.359,457.1
59.3612,168.5
59.3669,19
59.3718,213.7
59.3732,17.8
59.3782,584.4
59.3928,192
59.4057,210.3
59.4121,16.8
59.4368,95.1
59.4564,155.9
59.4783,99.7
59.5146,414
59.5334,799
59.5777,114.6
59.5782,233.2
59.625,100
59.6266,16.8
59.6367,15.8
59.6512,99.4
59.6607,102.5
59.6658,189.5
59.6734,442.2
59.6932,17.3
59.7049,515.9
59.707,149.1
59.7097,101.9
59.7131,271.9
59.753,16.7
59.7566,166
59.7661,425.3
59.7754,304.1
59.7802,171.1
59.8031,150.1
59.8044,104.5
59.8055,396
59.808,377.2
59.8164,394.2
59.8244,323.4
59.8266,820.7
59.8347,83.8
59.8377,306.8
59.8397,16.1
59.852,16.3
59.8595,530.6
59.8631,649.2
59.8667,102
59.8672,559.7
59.8698,167
59.8842,146.7
59.8943,163.9
59.9001,280.4
59.9276,146
59.9408,421.9
59.9444,162.3
59.9453,110.5
59.9507,236.3
59.9729,209.4
59.9739,423.2
59.9872,667
59.9982,118
60.011,121.6
60.0174,567.4
60.0383,642.5
60.0546,124.2
60.0813,112.5
60.0972,151.8
60.1077,816.5
60.1149,89.4
60.1308,349.2
60.1317,101.5
60.135,436.5
60.1421,320.6
60.1512,212.5
60.155,107.1
60.1778,325.8
60.1892,540
60.2385,342.6
60.2442,119.4
60.2454,104.1
60.2548,184.6
60.2806,138.3
60.3073,411.2
60.3161,456.3
60.33,387.7
60.3351,122.8
60.3374,545.8
60.3419,819.9
60.3447,532.9
60.358,122.8
60.3663,488.3
60.4305,452.1
60.4426,112.4
60.446,139.6
60.447,181.4
60.4596,237.6
60.4608,116.1
60.4621,122.1
60.475,142.1
60.4784,667.7
60.5018,122.3
60.5032,170.2
60.5129,351.5
60.5187,153.7
60.5195,701.9
60.5282,16.9
60.5535,175.6
60.5797,776.5
60.5862,289.7
60.5937,375.1
60.5965,307.3
60.6162,131.8
60.622,734.7
60.657,409.4
60.6655,441.2
60.6671,200.5
60.6847,631.9
60.6892,496.1
60.727,207.7
60.7432,699.9
60.7439,271.8
60.7484,155.5
60.7701,16.8
60.7857,196.6
60.7979,145.4
60.8092,462.7
60.8291,220.8
60.8304,141.2
60.847,194.1
60.86,104.6
60.8637,205.5
60.8818,20.2
60.8873,96.5
60.8881,115.1
60.9066,285
60.9077,227.7
60.9285,799.8
60.9746,166.6
61.0004,160.4
61.037,287.3
61.0416,626.7
61.05,202.3
61.0517,479.3
61.0875,133.8
61.1014,282.6
61.1159,157.3
61.1253,111.7
61.1492,269.6
61.1515,186.8
61.165,22.8
61.1684,557.5
61.1725,463.6
61.1955,164.7
61.1972,174.8
61.2083,327.1
61.2289,206.8
61.2363,542.1
61.256,268.8
61.2604,537.4
61.2743,106.1
61.3354,21.9
61.3554,370.4
61.3588,145
61.3605,18.1
61.3868,251
61.399,632.5
61.4043,16.5
61.413,695.7
61.4206,436.6
61.4631,16.4
61.4992,140
61.5123,81.9
61.5357,183.2
61.5371,115.9
61.5445,193.2
61.571,476
61.5822,803.8
61.5917,241.7
61.5996,209.2
61.6183,104.3
61.6247,18.1
61.6285,408.1
61.6343,103.2
61.6517,177.8
61.6546,480.4
61.6706,16.8
61.7314,596.9
61.7397,654.5
61.7557,623.3
61.802,21.3
61.8181,120.1
61.8196,189.7
61.822,204.8
61.8241,33.8
61.8264,118
61.8674,92.1
61.8935,285.8
61.9107,329.8
61.9472,169.3
61.9495,409.9
61.9699,425
61.9744,241
62.0029,529.4
62.0222,255
62.0289,108.4
62.0296,448.7
62.0369,338.9
62.0404,85.6
62.0478,121.9
62.0493,497.7
62.0612,450.1
62.0668,109.8
62.0849,232.4
62.1115,15.7
62.1555,165.7
62.1591,106
62.1678,626.3
62.1844,300
62.1952,505
62.2198,148.1
62.2255,149.3
62.2317,303
62.2377,168.7
62.249,15.8
62.2553,157.7
62.2652,625.3
62.2746,135
62.2873,213.4
62.2974,171.5
62.3189,101.5
62.3343,248.1
62.3368,134.6
62.3422,247.5
62.3555,141.8
62.3565,101
62.362,18
62.3675,331.8
62.3685,106.8
62.3744,667.7
62.3797,281
62.3826,17.7
62.414,240.9
62.4322,494.7
62.4521,137.1
62.4569,694.7
62.4652,642.7
62.4682,17.3
62.4965,121.1
62.4975,17.5
62.5025,134.6
62.5275,196.7
62.529,258.2
62.5314,187.4
62.548,16
62.5534,850.1
62.5557,164.9
62.5625,787.4
62.5634,132.3
62.5725,111.6
62.579,190.1
62.5885,113.4
62.5901,349.3
62.5977,723.9
62.5994,389.5
62.6021,729.1
62.6185,215
62.6238,128.8
62.6373,658.4
62.6397,94.9
62.6438,237
62.6445,173.8
62.6551,261.6
62.6556,153.1
62.6707,371.3
62.7118,507.9
62.7319,795.8
62.7725,198.1
62.7791,218.8
62.8019,17.7
62.8084,635.9
62.8117,208.1
62.8349,287.2
62.8925,859.9
62.8963,671.8
62.9103,273.2
62.9108,369.4
62.9255,265.4
62.934,195.8
62.9393,244
62.94,112.3
62.9496,131.5
62.9895,143.3
62.9913,158.1
62.992,193.5
63.0203,304.4
63.0469,162.1
63.0709,301.1
63.0729,408
63.0934,405.6
63.1016,910.4
63.1112,15.4
63.1117,18
63.1138,423.3
63.1186,97.1
63.1201,458.8
63.1256,220.9
63.148,99
63.1588,658
63.1616,201.3
63.1794,185.8
63.1869,314.2
63.1873,121.5
63.1918,382.8
63.2021,150.9
63.208,98.6
63.2146,415.3
63.2352,251.9
63.2451,344
63.2518,245.4
63.2551,146.9
63.2889,21.3
63.311,215.5
63.316,16.3
63.3436,457.1
63.352,756.7
63.355,17.9
63.3579,125.6
63.3758,19.3
63.3845,271.1
63.3926,229.8
63.4105,215.1
63.4162,91.4
63.4274,677.2
63.439,109.1
63.4446,116.7
63.448,444.2
63.4541,148.6
63.4678,176.4
63.4819,101.8
63.4854,465.7
63.5035,18.9
63.5408,16.5
63.5529,138.2
63.5562,115.3
63.5705,124.9
63.5821,149.4
63.5883,749.7
63.5956,129.7
63.6134,205
63.6403,399.8
63.6685,509.5
63.6954,105.4
63.7248,18.2
63.7288,516
63.7492,363
63.7768,129.7
63.7857,277
63.8401,511.9
63.8597,459
63.8633,606.1
63.8648,684.4
63.8683,481.7
63.8728,205.2
63.8879,253.6
63.8907,112.4
63.9103,378.7
63.9138,525.4
63.9676,190.3
63.9802,15.8
63.989,585.7
63.9908,144.1
63.9963,119.7
64.0021,590.6
64.0075,368.1
64.0172,103.4
64.0352,19
64.0416,170.7
64.0601,263
64.0643,130.4
64.0847,429.7
64.0912,17.7
64.0931,140.5
64.103,113.9
64.1137,249.2
64.1156,15.7
64.1517,112.1
64.167,249.4
64.2344,126.7
64.2379,117
64.2437,582.7
64.2619,613.2
64.3218,194.6
64.3333,17
64.3363,191.7
64.3443,417.5
64.3523,18.5
64.3626,20.6
64.3653,591.3
64.3675,160.5
64.3682,239.9
64.3732,435.9
64.3939,164.7
64.399,112.3
64.4057,566.2
64.4404,561.2
64.4992,170.8
64.5096,533.5
64.5119,200.4
64.5249,178
64.5301,17
64.5614,115
64.5678,294.3
64.5918,279.7
64.594,260.1
64.5981,128.7
64.5992,116.8
64.6354,142.9
64.6514,115.2
64.6524,606.8
64.6606,727
64.695,242.6
64.7187,234.7
64.7195,112.8
64.7327,162
64.7405,112.9
64.741,176.5
64.7451,781.3
64.749,230.3
64.7543,690.9
64.7655,110.2
64.7778,480.6
64.7862,280.2
64.7869,115.5
64.8099,16.4
64.8214,289.9
64.8286,18.3
64.8295,152.6
64.835,325.3
64.8596,164
64.8622,17.3
64.8774,144.5
64.8807,242.9
64.8869,145.9
64.8908,157.1
64.898,125.4
64.9036,150.1
64.934,149.4
64.9431,97.3
64.9709,154.8
64.9714,117.5
64.9733,581.6
64.9796,190.2
64.9853,15.7
65.0339,721.5
65.0473,477.9
65.0643,410
65.0882,99.9
65.0906,167.4
65.0958,163.5
65.097,490.6
65.1016,93.8
65.1139,299.2
65.1273,16.4
65.1299,18.7
65.1367,416.7
65.1536,308.4
65.1544,348.8
65.1784,586.8
65.1838,481.4
65.2002,125.4
65.2017,225.5
65.2355,395.1
65.2834,109.5
65.2988,337.5
65.3158,693.5
65.3194,536.4
65.3482,727.5
65.3672,353.5
65.3888,131.9
65.402,16.6
65.4041,144.7
65.4242,437.6
65.4252,16.3
65.4679,323.4
65.4787,247.7
65.4908,130.8
65.4923,152.2
65.5077,458.3
65.509,502.2
65.5256,108
65.5341,203.6
65.538,144.6
65.5598,152
65.5725,206
65.58,447.3
65.5833,238.3
65.5891,514.3
65.5954,401.3
65.6026,181.1
65.6103,122.3
65.6162,260.3
65.6227,125.7
65.6259,184.7
65.6523,153.8
65.6732,474
65.7192,165.6
65.7441,463.1
65.7505,545.2
65.7535,269.3
65.7634,183.8
65.7687,21.6
65.7759,232.6
65.7918,660.3
65.7989,214
65.7999,142.1
65.8037,159.5
65.8051,393.8
65.8077,334.4
65.8083,519.6
65.8111,548.4
65.8118,17.9
65.8219,301.8
65.8624,258.1
65.8641,163.2
65.8676,184.9
65.8899,273.3
65.9197,150.1
65.9253,185.1
65.9316,740.7
65.9379,134.5
65.9465,374.9
65.9495,330.4
65.9619,128.9
65.9725,236.5
66.0028,107.7
66.0126,165.2
66.0237,467.8
66.0325,120.4
66.0634,169.3
66.0888,356.3
66.0941,210.2
66.1055,286
66.1069,415.9
66.1259,227.5
66.1323,377.2
66.1574,252.9
66.1637,157.2
66.2107,579.4
66.2412,162.5
66.2618,234.2
66.2788,472.4
66.3055,18.7
66.3075,197.1
66.309,113.8
66.3175,558.9
66.3241,595.3
66.3364,276.9
66.3662,123.8
66.3753,541.8
66.3786,539.7
66.3821,181.1
66.3827,350.7
66.3959,244.6
66.4075,222.7
66.4222,98.4
66.4236,274.9
66.4483,227.6
66.4575,16.2
66.4761,281.1
66.4862,440.6
66.5202,152.7
66.5454,543.7
66.5497,18.4
66.5631,18.2
66.5673,464.6
66.5828,16.2
66.5879,198.1
66.6289,124
66.6368,353
66.6393,243.9
66.6472,535
66.6517,17.4
66.6639,117.1
66.6756,165.8
66.6814,102.3
66.6833,364.1
66.692,717.6
66.7055,516.6
66.7148,181.6
66.7197,87.1
66.7249,110.6
66.7526,483.9
66.755,294
66.7607,311.8
66.7613,110.4
66.7623,18.6
66.7636,252.5
66.7645,115.8
66.768,356.5
66.7948,387.5
66.7987,128.3
66.8063,523.2
66.8328,130
66.8403,141.1
66.8464,223.1
66.8583,634.4
66.8683,338.4
66.873,252.8
66.8772,474.6
66.8954,130
66.8991,14.9
66.906,92.5
66.9146,20.2
66.9155,136.5
66.9231,183.8
66.9468,689.8
66.9524,131.2
66.9535,326
66.9617,92.4
66.9797,290.5
66.9892,125
66.9911,136.7
66.9987,636.1
67.0053,534.3
67.0089,97.6
67.0195,16.9
67.0373,120.4
67.0539,113.4
67.059,127.5
67.1022,179.6
67.1156,154.4
67.1264,281.3
67.1608,292.1
67.1766,342.8
67.1821,254.4
67.1872,322.5
67.1916,17.7
67.2187,352.4
67.2348,189.6
67.2506,499.8
67.2547,93.7
67.2668,196.2
67.27,107.6
67.2855,620.3
67.2868,15.5
67.2879,517.8
67.2997,715.6
67.3174,98.5
67.3419,17.8
67.3468,449.6
67.3595,586.3
67.3602,177.4
67.361,17.3
67.373,205.5
67.4016,261.6
67.413,229
67.4329,134.2
67.4335,493
67.4415,719.2
67.4421,599.4
67.4482,148.3
67.4623,197.1
67.4678,104.4
67.4855,656.9
67.5129,201.6
67.5258,160.9
67.5294,211.5
67.5412,185.5
67.5661,190.6
67.5907,538.4
67.5925,156.2
67.61,89.8
67.6355,547.7
67.6637,198.2
67.6647,121.3
67.689,16.2
67.6947,321.8
67.7107,109.8
67.7368,188.2
67.7387,148.4
67.7394,252.2
67.7403,260.1
67.7496,20.7
67.7619,19.2
67.7796,118.2
67.7831,598.1
67.7959,273.6
67.7978,21.6
67.8051,271.1
67.8383,170.2
67.872,183.7
67.8991,164.1
67.9172,170.4
67.9245,287.1
67.9261,186.2
67.9306,500.2
67.9407,347.7
67.9597,160.6
67.9608,18.3
67.9804,16.1
68.0091,489.3
68.0107,112.6
68.0233,614.9
68.0347,587
68.0419,121.3
68.0447,177.1
68.0639,604.2
68.0796,634.2
68.0825,111.2
68.1157,190.9
68.1295,502.5
68.1541,168.8
68.1574,118.9
68.2086,839
68.2234,111.5
68.2368,146
68.2449,104.7
68.2791,161.8
68.3267,119.5
68.3388,764.7
68.3885,116.2
68.4073,302.5
68.4186,342.6
68.4255,21
68.4274,245.5
68.4468,120.1
68.4875,195.1
68.4933,182
68.5186,125.1
68.5217,222.4
68.5232,619.4
68.527,100
68.5281,16.7
68.5635,134.3
68.5658,88.6
68.5909,19.2
68.5922,153.9
68.5949,645.2
68.6409,189.7
68.6421,183.7
68.6481,513.6
68.6519,281
68.6578,611.6
68.6596,703.3
68.677,91.8
68.6875,184.5
68.6899,178.6
68.6913,474.7
68.696,251.1
68.7024,119.1
68.7102,442.5
68.724,336.8
68.7416,16.8
68.7575,133.2
68.7612,103.1
68.7736,164.1
68.7809,391.9
68.795,218.8
68.8179,725.6
68.8328,796.4
68.8372,15.8
68.8374,15.7
68.8507,626.7
68.8646,347.9
68.8831,158.7
68.8847,267.3
68.8906,104.8
68.8976,122.5
68.9202,196.2
68.9378,316.4
68.9454,153.6
68.9773,133
68.9788,203.1
68.9889,529.9
69.0153,99
69.0297,21
69.0392,116.2
69.0558,761.4
69.0719,363.2
69.0775,17.1
69.0811,643.2
69.0875,248.4
69.1255,18.2
69.1279,117.2
69.1535,103.2
69.1757,111.1
69.1843,195.6
69.2022,112.2
69.211,18.5
69.2225,102.8
69.2419,212.7
69.2429,17.9
69.2455,155.8
69.2521,16.8
69.2526,204.4
69.2545,371.9
69.2658,20.5
69.2824,601.9
69.3005,312.4
69.3165,389.6
69.3183,693.1
69.328,177.7
69.3294,215.6
69.3346,96.1
69.3527,121.7
69.3647,339.5
69.373,156.1
69.3748,201.5
69.3784,166.4
69.3915,762.8
69.3969,143.3
69.4031,190.1
69.4751,545.3
69.491,272.4
69.4917,489.3
69.502,17.5
69.5181,884.4
69.5469,110.3
69.5559,732.1
69.5763,541.7
69.5876,147.9
69.6071,100.2
69.6095,186.6
69.6205,22.2
69.6256,16.4
69.6743,514.7
69.6972,96.5
69.6985,95.2
69.7095,504.2
69.7174,597.4
69.7208,314
69.7494,800.7
69.7782,696.1
69.8264,125.3
69.8351,128.8
69.8421,162.8
69.8444,571.8
69.8493,19
69.8505,364.6
69.8515,182.9
69.854,159.9
69.888,451.6
69.8901,186.1
69.9022,376.9
69.9108,454
69.9256,389.6
69.9366,18.6
69.9663,644.5
69.9893,116
69.9952,492.4
70.0178,126.1
70.0213,701.7
70.0226,187.3
70.0251,18.1
70.0458,106.2
70.053,307.1
70.0635,164.9
70.0648,131.8
70.0741,129.6
70.0831,102.6
70.0847,19.1
70.1081,556.5
70.1204,106.4
70.1313,572.7
70.1495,650
70.1541,291.1
70.1552,474.1
70.1702,135.2
70.1842,745.5
70.1974,456.3
70.2064,554.3
70.219,161.6
70.2463,17.7
70.2836,94.6
70.2918,112.7
70.2937,258.6
70.3151,326.5
70.3163,203.4
70.3188,16.2
70.3417,138.5
70.3426,760.8
70.3536,305.6
70.3567,153.3
70.3688,17.9
70.3771,198.7
70.3792,16.8
70.3801,229
70.4015,342.5
70.4099,264.4
70.424,20.1
70.4326,170.4
70.4395,317
70.4564,206.9
70.4604,90.5
70.4885,20.3
70.4901,607
70.5594,167.9
70.571,222.1
70.6056,596
70.6215,305.2
70.6262,132.5
70.6386,119.5
70.6528,214
70.6701,164.5
70.6881,16
70.6952,439.3
70.6996,113.2
70.7166,106.8
70.764,115.2
70.79,355.5
70.8313,710.9
70.8409,157.5
70.8535,293.9
70.8582,192.8
70.8837,693.7
70.9072,429
70.9158,168.9
70.926,643.6
70.935,660.2
70.9575,328.7
70.9914,15.9
70.9937,391.9
71.0163,436.1
71.0297,184.2
71.0335,457.7
71.0393,286
71.0456,281.8
71.0527,564.4
71.0587,125.8
71.0669,172.1
71.069,417.5
71.0705,616.7
71.0721,19.5
71.0748,95.6
71.0939,175.4
71.1163,213.3
71.1221,656.4
71.1278,294.7
71.1314,255.1
71.1592,300.1
71.1974,164
71.1985,607.3
71.2081,116.9
71.212,384.4
71.2144,215.6
71.2217,18.5
71.2247,166.2
71.2324,807.9
71.2387,17.3
71.2622,169
71.2955,968.7
71.335,224.9
71.337,90
71.3504,161.9
71.3793,100.9
71.3802,553.7
71.3844,99.4
71.3888,134
71.406,1038.9
71.441,144.7
71.4422,292.7
71.4583,176
71.4688,214.8
71.4908,119.2
71.4989,191
71.5079,209
71.5236,82.9
71.5297,120.9
71.5327,174.4
71.5504,268.3
71.5643,219
71.5945,496.5
71.6,146.5
71.605,16
71.6095,370
71.6224,186.2
71.6235,154.5
71.6506,110.3
71.6669,455
71.6727,461.8
71.676,15.3
71.6798,18.8
71.6984,227.7
71.7511,372.8
71.7808,428.5
71.8071,392.6
71.832,105.7
71.8362,170.4
71.8622,141.4
71.8909,188.9
71.8918,594.5
71.8953,249.6
71.9137,190.8
71.9275,608.8
71.94,18.1
71.9415,259.7
71.9512,625
71.9558,84.3
71.9604,503.6
71.9662,20
71.9783,204.1
72.0207,618.8
72.052,368.1
72.0698,99.2
72.0805,876.5
72.0931,126.8
72.1012,275.8
72.1477,853.3
72.1843,19
72.1861,452.7
72.2047,157.5
72.2064,108.7
72.2087,17.3
72.2143,130.5
72.2205,136.5
72.2212,136.2
72.222,162.7
72.2228,671.4
72.2242,292.1
72.2255,929.1
72.226,1148.2
72.2266,1455.5
72.2284,1044.1
72.2286,996
72.2297,1816.9
72.2304,3304.3
72.2318,2362.2
72.2327,2154.3
72.2336,4367.3
72.2347,4515.1
72.2356,4327.5
72.2358,4376.2
72.237,2942.3
72.2381,5090.7
72.2393,4638.7
72.2408,2554
72.242,1587.9
72.2429,1612.5
72.244,1500.5
72.2449,1220.6
72.2452,1275.7
72.2459,505.4
72.2482,448.3
72.2755,158
72.2799,20.6
72.2828,148
72.2862,86.4
72.3097,281
72.3308,135.8
72.3348,154.9
72.3579,120.3
72.3696,272.5
72.3835,311.4
72.3941,289.4
72.3994,581.2
72.4138,305.3
72.4328,230.1
72.4338,163.6
72.4358,195.7
72.4458,119.1
72.448,597.9
72.4498,169.3
72.4705,208.7
72.479,323.6
72.494,15.9
72.5069,489.8
72.551,98.1
72.5604,729.6
72.5672,220.3
72.577,626.2
72.5801,174.2
72.5904,133.5
72.6014,585.6
72.6266,509.5
72.6286,852.7
72.6385,424.8
72.6604,204.5
72.6691,149.9
72.6846,15.2
72.7073,272.7
72.7314,771.1
72.7416,87.3
72.7495,536.5
72.7502,20.1
72.7652,17.3
72.7832,21.5
72.7943,155
72.7966,678.8
72.8013,162.7
72.8223,17
72.8247,275.7
72.8318,610.7
72.8557,461.9
72.8818,643.6
72.912,644.1
72.93,15.9
72.934,16.4
72.9368,770
72.9404,234.4
72.9688,149.5
72.9832,128.9
73.0156,242.4
73.0337,97
73.0445,175
73.0808,380.8
73.0886,163.2
73.1024,186
73.1451,462.7
73.2111,167.4
73.231,177.1
73.2383,199.9
73.2406,463.6
73.2477,806.4
73.2515,623.8
73.2635,121.7
73.2761,174.5
73.2776,104.5
73.2882,169.4
73.2951,602
73.311,17
73.3177,141.2
73.3323,494.6
73.3349,366
73.3453,526
73.3684,684.5
73.3797,157
73.398,197.8
73.4461,96.4
73.4764,92
73.48,116.4
73.4813,109.9
73.4966,121.6
73.5049,18.8
73.5154,203.4
73.53,401.6
73.5351,234.2
73.564,91.1
73.572,98.4
73.5788,337.8
73.5916,392.1
73.6214,558.3
73.6272,309.4
73.6331,479
73.6351,291.3
73.6386,473
73.649,711.1
73.6523,181
73.6602,449.6
73.6927,667.9
73.7106,96.1
73.7617,430.2
73.7634,231.3
73.8082,589.5
73.8197,666.6
73.8236,109.3
73.866,154.2
73.8754,143.3
73.8848,136.3
73.8958,266.7
73.9385,273.1
73.9426,534.7
73.9524,517.6
73.9725,93.3
73.9764,512.7
73.9867,17.5
74.0022,158.3
74.0142,144.2
74.0245,18.4
74.0262,149.6
74.0401,98.3
74.0414,486.6
74.0453,121.4
74.0549,528.6
74.0597,1533.6
74.0641,246.1
74.129,186.4
74.135,591.9
74.1387,165.3
74.1441,241.7
74.1517,146.2
74.1613,154.5
74.1631,578.7
74.217,16.7
74.2286,397.6
74.2378,18.2
74.2485,104.8
74.2619,621.6
74.2838,16.3
74.2987,273.1
74.3007,139.4
74.3425,135.4
74.3629,131.6
74.3768,20.1
74.3843,621.6
74.39,206.3
74.4257,255.8
74.4283,711.2
74.4464,264.5
74.4999,95.4
74.5093,611.2
74.5519,18
74.569,133.3
74.6204,688.9
74.6282,606.2
74.6313,17.9
74.6496,104.4
74.6771,150.8
74.6938,613.7
74.7305,399.8
74.7457,163.8
74.7555,18.7
74.7618,376.6
74.764,297
74.8055,288.1
74.8399,26.3
74.8538,598.5
74.8757,448.6
74.8771,179.3
74.883,142.5
74.897,17
74.8986,292.4
74.9056,127
74.9125,168.3
74.9261,236.8
74.9453,123.4
74.9459,380.2
74.974,148.3
74.9765,251.9
74.9856,94.4
75.0059,127
75.0136,166.1
75.0161,682.8
75.0273,263.4
75.0349,681
75.0666,146.5
75.0675,109
75.0908,383.5
75.1106,237.1
75.1165,274
75.1179,158.9
75.1281,20.3
75.1364,397.8
75.1404,122.7
75.1688,163.5
75.1775,16.7
75.179,174.1
75.1953,105.4
75.2021,559.3
75.2059,243.4
75.2445,343.2
75.2531,216.6
75.2633,550.3
75.2683,245.5
75.3063,134.5
75.3222,559.6
75.33,330.8
75.3366,158.6
75.3472,121.6
75.3488,16.4
75.3589,408.8
75.379,854.8
75.3822,142.3
75.387,16.9
75.4007,90.1
75.4097,478.8
75.4146,415.4
75.4169,120.8
75.4218,121.6
75.4235,117.4
75.4297,188.6
75.4313,119.3
75.4731,180.1
75.5101,667.5
75.5581,535.9
75.5774,223.9
75.5946,249.8
75.6115,116.2
75.6156,309.8
75.6195,99.9
75.6208,164.4
75.6354,105.4
75.6455,380.3
75.6527,214.8
75.6651,117.8
75.6687,143.2
75.6989,155.1
75.7014,348.1
75.7077,349.2
75.7194,101.9
75.7268,230.9
75.7275,257
75.7352,172.1
75.7442,19.6
75.7735,465.9
75.8352,241
75.8386,163.4
75.8436,19.5
75.8729,336.8
75.8782,524.3
75.8806,155.4
75.891,165.5
75.906,472.4
75.9327,149.8
75.9415,302
75.9867,144.8
75.9887,188
76.0044,167.8
76.0056,167
76.0421,19.7
76.0431,238.4
76.0574,661.8
76.0813,104.6
76.0945,677
76.1464,18.1
76.1754,184.8
76.1867,607.2
76.188,226.4
76.1985,284.5
76.2079,503.5
76.2128,309.3
76.2172,715.7
76.2356,190.7
76.2407,95.2
76.2484,145.3
76.2736,692.9
76.2862,267.7
76.2921,17.8
76.3055,18.9
76.3223,292
76.3421,560.1
76.3466,138.9
76.3891,170.1
76.3948,302.3
76.3992,204.3
76.4101,164.5
76.4113,148
76.4296,693.4
76.4475,145.5
76.4581,144.3
76.5258,162.6
76.5626,160.5
76.5744,152.7
76.5887,118.4
76.6077,315.3
76.6173,151.6
76.62,96.9
76.6778,185.2
76.6881,220.2
76.6924,289.6
76.6965,374.2
76.7234,658.4
76.7318,114.2
76.7398,156.7
76.7416,409.7
76.7662,17.1
76.7695,116.4
76.7715,644.8
76.7774,530
76.7892,268.3
76.7897,145.1
76.8345,136.9
76.84,19.5
76.8955,458.1
76.8964,125.7
76.9037,153.6
76.9044,145.3
76.9102,170.3
76.9331,194.2
76.9456,788.1
76.9585,108.8
76.9598,102.3
76.9636,17.2
76.9821,262.7
76.9933,188.7
77.0155,91.2
77.0309,396.9
77.0352,995.7
77.036,20.9
77.0367,104.6
77.0383,106071.2
77.0444,102.8
77.05,318.7
77.0664,602.2
77.0712,17.7
77.116,206.7
77.1391,18
77.1571,478.4
77.1588,435.7
77.1894,749.5
77.2249,214.9
77.2283,643.1
77.2333,731.1
77.2662,313
77.3008,93.2
77.3054,705.2
77.3104,474.7
77.3437,98.1
77.3581,148.7
77.3617,298.8
77.3654,440.4
77.3871,134.1
77.4148,129.2
77.4331,234.2
77.4374,177.5
77.4744,197.7
77.507,475.4
77.512,200.3
77.5317,134.6
77.5931,523.3
77.6082,20.2
77.6427,727.8
77.6437,110.3
77.6531,113.2
77.6627,546.9
77.6633,117.4
77.6733,258.3
77.7005,111.6
77.7032,239.1
77.7161,524.9
77.7231,109.6
77.7415,134.9
77.7749,574.9
77.8138,271.5
77.8488,19.2
77.8552,188
77.8619,121.7
77.8684,765.9
77.8835,188.2
77.895,105.1
77.925,251.8
77.9449,296.1
77.981,268.4
77.9958,507.7
78.0046,16.2
78.0051,288.5
78.0119,790.2
78.0202,152.4
78.0337,303.5
78.0399,240.1
78.0417,2385.2
78.0631,107.6
78.0693,430.8
78.1415,108.9
78.1701,666.6
78.186,557.1
78.1912,522.5
78.2199,447.2
78.2354,132.5
78.2392,17.9
78.2626,118.2
78.2644,108.3
78.2728,508.7
78.2972,382
78.3032,20.1
78.3057,296.7
78.3263,459.1
78.3564,286.7
78.3647,16.1
78.4122,279
78.4275,347
78.4469,200.6
78.4476,17.1
78.4656,619.8
78.5321,677.3
78.534,147.9
78.5443,19.5
78.5612,265
78.5722,385.2
78.5778,722.6
78.5843,137
78.5968,517.1
78.6246,137.3
78.6307,737.4
78.6331,16.6
78.6601,504.8
78.663,19.6
78.6711,726.8
78.7115,357.7
78.7128,104.1
78.7397,112.3
78.742,447.6
78.7608,559.5
78.8007,91.9
78.8061,18
78.8084,804
78.814,85.1
78.8216,272.3
78.8286,141.2
78.8376,516.3
78.8404,136.9
78.8459,165.7
78.8521,454
78.8832,187.6
78.9039,158.3
78.9304,100.8
78.9322,379.1
78.9363,159.9
78.9609,172.3
78.9968,151.5
79.0155,132.3
79.0371,223.4
79.0454,17.2
79.0509,770.3
79.054,1287.1
79.0735,16.9
79.0981,112.9
79.1182,17.2
79.1401,101.5
79.1514,693.3
79.1553,491.6
79.1594,700.9
79.1831,402.3
79.1982,196.6
79.2067,16.2
79.2152,18.2
79.224,158.3
79.236,401
79.2377,448.8
79.279,493.6
79.2928,597.7
79.2992,412.2
79.301,162.1
79.3127,255.4
79.3752,230.9
79.3866,20.2
79.4152,104.3
79.4191,605.5
79.4565,695.6
79.4592,203
79.4808,321.7
79.5134,155.1
79.5156,689.1
79.5359,17
79.5532,190.1
79.56,19.5
79.5695,129
79.581,170.8
79.5878,16.6
79.5911,481.6
79.6031,119.6
79.615,16.9
79.6475,16.1
79.6712,181.8
79.6754,419.1
79.6944,189.2
79.7105,184.4
79.7314,450.3
79.7405,393
79.7496,610.6
79.7537,331.6
79.7799,130.2
79.7989,207.1
79.8006,279.8
79.8256,385.8
79.8357,191.9
79.8587,16.1
79.8636,19.6
79.8808,176.4
79.8886,242.6
79.9202,19.2
79.9235,131.5
79.9505,320.1
79.9546,21.5
79.9697,125.1
79.9798,193
79.9824,522
79.9979,547.4
80.0315,207.3
80.0465,255.8
80.0571,23
80.0745,156.3
80.0783,170.1
80.0819,140.8
80.1046,338.9
80.1196,109.2
80.1405,100.5
80.1501,104
80.1524,654.3
80.2233,17.9
80.2295,351.1
80.236,266.6
80.2852,143.2
80.3067,512.7
80.3094,123
80.3307,121.4
80.3705,148.1
80.3816,212.9
80.3924,193.6
80.4031,716.9
80.4305,108.8
80.5212,99.2
80.5303,416.3
80.5436,243
80.5549,17.7
80.5563,301.8
80.5768,593.4
80.587,21.5
80.6128,582.3
80.6499,151.9
80.6699,498.1
80.6735,18.8
80.6775,18.7
80.6871,16.7
80.7459,323
80.7625,17.4
80.777,16.5
80.7906,111.2
80.8184,16.9
80.8221,126.9
80.8286,387.6
80.8468,109.2
80.8505,102.7
80.8736,110.6
80.8859,169.6
80.8883,305.9
80.9305,125.9
80.9451,356.6
80.9476,50180.6
80.9662,369.2
80.9785,248.7
81.0052,818.2
81.0084,390.9
81.018,747.6
81.0239,183.1
81.029,18.5
81.0386,954.6
81.0628,119
81.0696,891.1
81.0726,501.4
81.0734,236.1
81.0899,221.6
81.0919,315.4
81.0996,186.2
81.1025,100.1
81.1048,188.1
81.1212,17.7
81.1315,101.5
81.1615,19.7
81.1667,643.2
81.1721,1445
81.1736,831.4
81.1743,968.3
81.1754,534.7
81.1762,1191.7
81.1775,224.4
81.1786,279.1
81.1862,225.5
81.1886,239.6
81.1912,232.6
81.1963,114.8
81.2491,357.6
81.2875,111.2
81.3046,18.8
81.3196,148.3
81.3397,623.9
81.4152,105.8
81.433,152.8
81.4451,424.4
81.4573,23.7
81.4676,15.3
81.4765,264
81.4887,266.8
81.4987,230.3
81.5058,151.6
81.5205,422.2
81.534,15.8
81.5394,142.8
81.5935,219.2
81.6263,106.6
81.6321,518
81.6324,525.6
81.6844,582.8
81.7063,532
81.7083,108.7
81.7142,515.7
81.7162,104.9
81.7425,352.9
81.7528,285.4
81.7572,188.9
81.7755,621.3
81.7777,272.6
81.7852,106.5
81.805,164
81.8291,203.7
81.8361,239.3
81.8547,176.9
81.8559,300.2
81.882,432.9
81.8835,286.9
81.8929,420.3
81.8957,452.1
81.9222,607.7
81.9305,434.3
81.9372,340.2
81.9445,190.4
81.949,20.6
81.9569,131.5
81.9644,135.8
81.9879,119
82.0234,119.1
82.0321,930.7
82.0378,18.6
82.0416,135.2
82.0526,602.1
82.0557,349
82.0648,22
82.0829,263.9
82.1056,121.2
82.1165,147.9
82.1212,21.4
82.1384,119
82.145,540.2
82.1491,160.3
82.1499,579.3
82.1574,236.3
82.1987,112.2
82.2363,678.9
82.2455,145.1
82.2485,18.1
82.2583,548.1
82.2612,407.2
82.2813,156.6
82.2891,585.2
82.2952,235.6
82.2998,91.7
82.3143,89.9
82.3315,553.4
82.3337,218.6
82.3368,20.9
82.3428,357.7
82.3519,182.2
82.3769,18.2
82.3803,398.4
82.411,171.5
82.435,20.6
82.4467,338.2
82.4737,533.7
82.5069,331.2
82.527,518.6
82.5378,306.2
82.5519,457.2
82.5743,447
82.5776,323
82.5804,256.1
82.6049,132
82.613,107.4
82.6259,107.7
82.6369,136.9
82.638,17.8
82.6446,309.5
82.6481,195.7
82.6628,252.4
82.6645,20.5
82.6876,754.7
82.7009,162.7
82.7739,406.7
82.7808,254.2
82.807,173.6
82.8192,215.5
82.8204,555.8
82.8324,17.9
82.837,159.7
82.846,16.7
82.8482,670.6
82.9332,472.7
82.9446,12471.4
82.9501,328.8
82.9779,17.6
82.9991,114.5
83.0037,119
83.0134,521.9
83.02,133.5
83.0213,187.1
83.1012,546.6
83.1113,314.9
83.168,363.9
83.2256,789.7
83.2294,118.7
83.2389,107.9
83.2441,278.1
83.2853,14.9
83.289,16.8
83.3066,122.9
83.3144,121.2
83.3162,563.2
83.3301,157.8
83.3408,20
83.3477,138.5
83.3938,189.1
83.4098,225.7
83.4214,499.5
83.4383,126.1
83.4396,20.4
83.4404,389
83.4426,171
83.4605,585.1
83.4704,705.8
83.4889,155.6
83.5404,177.3
83.5911,155.6
83.6143,142
83.6393,19.2
83.6459,15.9
83.6746,1039.6
83.713,279.1
83.7291,473.2
83.7482,97.6
83.7665,207.3
83.7832,362
83.7848,129.5
83.8156,177.9
83.8421,648.5
83.8442,394.2
83.8658,239.6
83.8702,296.3
83.88,330.8
83.8914,501.9
83.9138,225.1
83.9332,156
83.9406,399.4
83.9503,122.2
83.9642,106.1
83.9949,386.2
83.9986,709.2
84.0062,17.8
84.0441,1497.2
84.0805,699.7
84.0879,150.4
84.0938,374
84.0965,98.4
84.1005,103.8
84.143,210.5
84.1471,118.7
84.179,208
84.2157,270.3
84.2276,568.7
84.2497,261.6
84.2793,162.6
84.294,650.2
84.2966,104.2
84.3009,473.6
84.3079,126.8
84.3284,118.5
84.3433,114
84.3907,129.6
84.4259,158.5
84.4324,214.8
84.4365,571.7
84.4379,391.3
84.4659,521.1
84.479,252.2
84.4932,665.3
84.4954,524.6
84.5034,114
84.5556,16
84.5873,156.7
84.6126,99.5
84.6487,509
84.6512,451.8
84.6586,105
84.6676,99.9
84.6898,337.8
84.6998,169.2
84.7128,226.3
84.7412,95.9
84.7457,359.8
84.7589,248.2
84.7613,18.8
84.7662,20.7
84.7671,335.9
84.7727,295.5
84.7883,781
84.8515,101.1
84.8532,104.1
84.8668,105.2
84.8798,125.6
84.8867,17.4
84.8963,271
84.9099,134.1
84.954,20.5
84.957,22.5
84.9594,16596.6
84.9815,163.8
84.9898,291.7
84.9999,166.2
85.0087,18.6
85.0127,482.6
85.0186,389.3
85.0281,1210.4
85.0303,720
85.0632,643.1
85.0771,639.1
85.0852,191.7
85.0876,514.9
85.1057,423.9
85.1094,243.6
85.1538,154.6
85.1602,272.4
85.1644,203.8
85.2408,155.9
85.2432,299.5
85.2536,106.1
85.269,419.8
85.2828,19.8
85.2958,288
85.3064,17.7
85.3163,282.3
85.3533,270.1
85.3536,254.1
85.4871,16.5
85.5235,288.5
85.5381,182.5
85.5389,132.7
85.5469,725.2
85.5483,504.6
85.5616,110
85.632,581
85.6354,147.5
85.6528,606.1
85.6624,107.7
85.6733,17.3
85.7218,198.4
85.7273,374.3
85.7804,154.5
85.7819,120.8
85.7837,196.7
85.8036,213.8
85.8134,395
85.8155,220.2
85.8188,93.4
85.8419,98.6
85.8472,511.6
85.8557,121.6
85.8655,166
85.8724,325.7
85.8832,483.8
85.8884,91.1
85.9115,21.2
85.9452,18.8
85.9932,228.4
86.0068,742
86.0125,221.1
86.0584,109.6
86.0598,19954.4
86.0856,827.6
86.0879,568.3
86.0962,125334.9
86.1008,159.2
86.1028,497.2
86.1038,524.5
86.112,202.7
86.1708,131
86.1796,325.9
86.2003,224
86.2431,736.8
86.2632,339.6
86.2897,16
86.2927,94
86.2965,301.2
86.3096,16.5
86.3394,797.2
86.3403,111.6
86.3675,19.6
86.3753,741.1
86.4051,577.4
86.4066,179.6
86.4341,19.5
86.4559,159.8
86.4587,302.3
86.4648,147
86.5574,176.8
86.5656,736.2
86.6927,287.5
86.7025,129.2
86.7095,486.9
86.712,203.2
86.7463,136.2
86.7677,95.8
86.7808,706.6
86.7951,21.6
86.8189,516.7
86.8579,660.5
86.8915,203.8
86.8991,545.1
86.9154,128
86.9525,127.2
86.9995,237.1
87.0078,657.1
87.0203,645.6
87.0238,20.7
87.0292,237.7
87.0571,791
87.0768,371.6
87.096,565.4
87.0996,2034.2
87.112,551
87.1683,185.5
87.1835,93.4
87.185,672
87.1942,768.2
87.2022,179.2
87.2031,190.4
87.2077,157.8
87.2131,115.5
87.2213,507.7
87.2402,163.8
87.2454,17.1
87.2565,19.5
87.2755,185.4
87.2766,121.1
87.289,22.8
87.3021,137.5
87.3029,386.6
87.3177,118.9
87.3371,178.8
87.3482,571.9
87.4247,445
87.4279,720.2
87.4831,172.9
87.504,285.9
87.5291,285.7
87.5516,568.5
87.5856,150
87.6081,102.5
87.6258,376.3
87.6282,298.5
87.6302,17.1
87.6976,161.8
87.703,225.9
87.7414,100.5
87.8352,123
87.8365,572.1
87.8997,228.4
87.9453,17.1
87.9595,193.5
87.9638,155.6
87.9796,847.8
87.9937,128.6
88.0391,4131.4
88.0399,230.2
88.0617,213.2
88.0653,650
88.0745,141.7
88.0785,146.4
88.1215,231.6
88.1265,115.2
88.1577,18.9
88.17,249.6
88.2524,211.7
88.2728,18.9
88.3239,19
88.3267,312.1
88.3322,18.8
88.3586,514.1
88.3951,135.1
88.4222,221.1
88.4249,164.5
88.4359,173.7
88.453,170.7
88.4656,241.7
88.514,157.2
88.542,208.5
88.5768,463.3
88.6469,245.6
88.661,562.7
88.674,551.1
88.6861,273.7
88.7124,569.1
88.7225,207.5
88.7387,211.6
88.7682,132.7
88.7706,568
88.8286,545
88.8391,343.8
88.8545,268.8
88.8691,449.9
88.8955,273.1
88.9089,200.9
88.9212,375.1
88.9521,49.6
88.9535,195.2
88.963,150.9
88.9682,21.6
89.0083,480.1
89.0127,154.6
89.0426,654.8
89.0752,18
89.0828,262
89.0898,394.1
89.0936,412.1
89.0972,16.9
89.1033,234.7
89.1056,102
89.1145,18.8
89.126,129
89.1339,21.7
89.1392,21.7
89.143,275
89.1647,634.5
89.1809,197.8
89.2324,488.7
89.2371,211.4
89.2756,289.6
89.3177,217.1
89.3371,194.5
89.3478,585.4
89.3529,173.8
89.4119,103
89.4218,795.4
89.4438,811.5
89.4478,506.5
89.4917,308.8
89.514,140.6
89.5392,271.3
89.6244,462.7
89.6362,152.2
89.6486,266.3
89.6552,304.4
89.6957,522.3
89.7543,189.7
89.7691,191.9
89.7834,19.2
89.8057,569
89.8227,18.2
89.8252,497.2
89.8486,523.8
89.852,110.3
89.8649,131.8
89.8897,741.7
89.9067,17.1
89.9109,386.8
89.946,171.3
89.9609,26
89.9635,424.5
89.9735,296.9
89.9763,120.4
89.9949,221.9
89.9999,17.7
90.0236,307.4
90.0352,150.6
90.0368,100.3
90.0846,156.4
90.1003,471.3
90.1418,385.4
90.1685,676.8
90.173,148.1
90.1866,221.9
90.191,728.5
90.1923,102.5
90.2394,196.6
90.2434,132
90.2454,139.3
90.2593,16.6
90.2699,183.9
90.3162,380.6
90.3197,124.5
90.3283,207.7
90.3342,17.4
90.3398,327.3
90.3877,173.1
90.4038,18.1
90.4158,155.3
90.4357,160.4
90.4558,208.3
90.466,119.6
90.4671,424.3
90.5325,205.6
90.5403,152.9
90.5873,118.9
90.5901,195
90.6069,201.5
90.6138,397.2
90.6276,216.2
90.6459,286.8
90.6743,212.4
90.6932,174.2
90.7794,459.8
90.7802,22.6
90.7875,225.5
90.8005,119.5
90.8109,607.5
90.8297,476.7
90.851,552.5
90.8837,230.4
90.903,107.1
90.9039,272.9
90.9072,247.2
90.9368,158.5
90.9475,4034.7
90.9678,307.4
90.9714,208.8
90.9753,628
90.9764,7059.9
90.9871,465.6
91.054,1789.7
91.0584,107.7
91.0652,318.1
91.0734,134.8
91.0903,113.5
91.0916,700.5
91.1137,106.2
91.126,116.2
91.1583,538.4
91.1711,19
91.1741,811.8
91.175,532.2
91.1919,280
91.2022,381.9
91.2036,240.3
91.2359,19.3
91.2428,300.9
91.2483,145.1
91.2743,122.3
91.2791,17.8
91.29,305.9
91.309,18.6
91.3443,189.8
91.3687,114.1
91.3935,177.2
91.422,582.2
91.4307,139.8
91.4482,309.7
91.4783,452.7
91.5066,143.8
91.5435,235.5
91.5504,157.4
91.5514,555
91.5784,273.8
91.5842,464.4
91.5949,458.1
91.6058,666.2
91.6114,17.7
91.6285,126
91.631,137.1
91.6806,928.3
91.7062,144.1
91.7359,102.4
91.7519,415.6
91.7939,697.6
91.8113,210.2
91.8405,313.5
91.8413,18.4
91.8511,206.6
91.8659,181.1
91.8793,285.3
91.8904,295.8
91.9232,264.2
91.935,391.9
91.9537,274.8
91.9659,266
91.9872,244.7
91.9949,220.1
92.0015,27
92.0493,162.2
92.0737,360.9
92.0762,221.5
92.0832,662.9
92.1026,820.8
92.1424,261.4
92.1711,121.9
92.1868,502.7
92.2206,112.5
92.2406,114.9
92.2648,699.4
92.2761,99.9
92.3047,413.1
92.3068,19.4
92.3104,112.6
92.3488,372.1
92.3538,350.9
92.3695,414.4
92.3707,142.7
92.3924,503
92.4576,444.4
92.4775,673.7
92.4943,219.3
92.5367,772.1
92.5377,168.7
92.6077,354.5
92.609,310.7
92.6274,112.1
92.6372,166.1
92.6582,103.8
92.6917,190.3
92.705,359
92.713,120.8
92.7556,109.9
92.7584,282
92.7718,17
92.7881,432.8
92.7886,477.7
92.7908,16.3
92.8183,186.8
92.822,466.6
92.8308,473.3
92.8449,401.7
92.8726,879.1
92.8816,1107
92.9144,234.5
92.9281,857.1
92.9369,142.6
92.9828,805.3
93.0033,652.8
93.0125,393.8
93.018,111
93.0266,22.6
93.0333,17.5
93.0361,146.6
93.0412,120.9
93.0697,24.4
93.1265,19
93.1336,511.2
93.1398,496.5
93.162,254.9
93.1745,623.6
93.1911,17.4
93.2426,741.7
93.257,20.4
93.3016,118.9
93.3687,480.9
93.3881,162.3
93.4368,16.7
93.4379,143
93.4398,372.2
93.5047,497.2
93.5093,786.9
93.5208,150.9
93.5434,100.1
93.5588,347.1
93.5986,20.4
93.6248,17.6
93.6486,21.2
93.6516,20
93.6782,19.3
93.6942,105.6
93.7312,18
93.7329,586.9
93.7374,19.3
93.7627,200.5
93.766,431.3
93.7809,110.4
93.7956,261.7
93.8037,117
93.8332,205.1
93.8512,592
93.8638,18.8
93.9177,600.3
93.9443,131.6
93.9709,390
93.9726,493.5
93.9882,20.1
93.9901,143.8
94.0011,856.3
94.0388,25.5
94.0411,54943.1
94.0769,140.8
94.0893,169.9
94.0929,365.6
94.0943,759
94.1204,910.8
94.1293,167.4
94.1569,438.1
94.1891,103.3
94.1938,396.1
94.2047,363.6
94.2418,22.8
94.2515,95
94.2521,200.8
94.2577,508.2
94.2631,148.1
94.275,157.8
94.3502,141.4
94.3668,234.1
94.382,139.2
94.3827,187.1
94.3857,132
94.3994,505.8
94.4083,180.6
94.4095,126.2
94.4452,522.9
94.4578,95
94.4682,194.5
94.4697,18.9
94.4825,106
94.4905,318
94.4982,17.6
94.5054,289.9
94.5119,186.2
94.5403,527.9
94.5492,161.4
94.612,532.7
94.6135,17.5
94.634,144
94.6693,444.5
94.7133,290.7
94.7338,383.1
94.7791,183.1
94.842,247.7
94.8667,384.7
94.8818,196.4
94.8839,503.4
94.8879,328
94.8978,269.2
94.9182,327
95.0175,190.5
95.0445,1493.2
95.0459,51.8
95.0466,44.6
95.047,65.7
95.0489,381173.4
95.0596,276.5
95.0624,51.9
95.0669,17.2
95.0853,783.3
95.09,433.1
95.1219,521.1
95.1252,307.9
95.1394,22.8
95.2782,592.5
95.2824,185
95.2831,102.1
95.2989,276.3
95.3331,17.1
95.3347,217.2
95.3553,269.5
95.3656,19.8
95.3695,119.4
95.3965,123.3
95.4678,19.4
95.4971,114.2
95.5323,668.5
95.5437,109.5
95.547,580.3
95.5656,133.1
95.6572,297.2
95.6804,93.6
95.736,310.9
95.7523,632.5
95.7964,620.7
95.8032,205.9
95.8168,352.8
95.8221,604.9
95.8385,277.4
95.8622,236.7
95.8706,285.7
95.8723,396.1
95.8991,274.2
95.9098,235.5
95.9172,495.6
95.9344,401.3
95.9489,192.7
95.9525,587.5
95.9821,116.3
96.0129,220
96.0168,345.9
96.0354,21.4
96.0523,16443.3
96.055,40.9
96.0601,246.1
96.0707,22.8
96.0844,88.4
96.0974,113.7
96.1406,207
96.1458,20.1
96.1566,288.5
96.16,318.2
96.1945,103.4
96.2213,248.6
96.2834,17.9
96.2911,101.6
96.2975,170.7
96.3063,533.8
96.3224,174.5
96.3563,20
96.3617,113.3
96.3703,376.3
96.3834,178.6
96.391,283.7
96.4005,168.3
96.4037,24.6
96.4231,282.7
96.4288,187.9
96.4536,18.8
96.4995,221.1
96.5113,163.7
96.53,637
96.5327,19.4
96.5442,682.4
96.5528,17.7
96.5658,635.8
96.584,156.5
96.5987,871.1
96.6285,16.4
96.6303,228.8
96.6394,440.2
96.6548,263.3
96.6601,130
96.6612,203
96.6814,21.9
96.6853,148.4
96.7205,383
96.8218,129.3
96.8288,525.4
96.8332,210.5
96.8368,245.2
96.8371,253.5
96.8438,138.9
96.8646,109.4
96.8722,94.9
96.9216,162936
96.9374,157.8
96.968,436.2
96.9714,371.3
96.9822,118.1
96.9881,853
97.0074,119
97.0105,135.2
97.0532,68.9
97.0757,26.6
97.0917,807.6
97.1099,142.3
97.1247,108.9
97.1439,276
97.1506,210.8
97.1676,132.9
97.1941,242.7
97.2027,594.1
97.2072,17.8
97.2289,133
97.2865,164.5
97.303,686.2
97.321,22.5
97.3254,95.8
97.3324,162.5
97.3649,369.2
97.3874,36.4
97.3901,94.3
97.3922,20.4
97.4134,327.1
97.4352,571
97.4372,518.3
97.4385,175.7
97.4415,552.2
97.4611,115.6
97.4636,143.7
97.5175,109.2
97.522,166.7
97.5469,471.3
97.5773,114.3
97.6067,17.1
97.6277,164.9
97.6313,21.6
97.6569,101.6
97.6616,234.7
97.7055,253
97.736,612.2
97.7499,18.9
97.7559,163.4
97.7718,373
97.7767,458.6
97.7938,115.5
97.9224,750.9
97.9414,260.6
97.9432,140.5
97.9671,252.2
97.979,275.9
98.0059,341.1
98.0421,162.2
98.0465,376.1
98.06,30.5
98.0696,411.5
98.0761,21.9
98.0892,168.7
98.0916,161.1
98.149,22.1
98.2202,215.5
98.2244,97.7
98.2344,542.2
98.2565,102.9
98.2593,167.5
98.32,111.1
98.3861,180.6
98.3875,93.2
98.4134,17.4
98.4182,98.4
98.4339,470.1
98.4408,127.8
98.4835,128.7
98.5058,457.3
98.5379,144.8
98.5585,511.2
98.5658,172.3
98.5833,91.2
98.5925,19.1
98.6633,204.5
98.6729,226.3
98.6756,416.4
98.6918,626.7
98.6981,124
98.7279,123
98.7821,259.2
98.7991,214.2
98.8177,145.3
98.8232,174.1
98.8305,108.1
98.9032,214.5
98.9035,222
98.904,129.3
98.909,122.8
98.9186,45753.9
98.9197,6173.7
98.9359,109.3
98.9395,98.7
98.9593,124.7
98.9751,11289.9
98.984,104.7
98.9989,221.1
99.0054,93.5
99.0295,206.7
99.0576,162.6
99.068,527.9
99.1321,17.5
99.133,715
99.1349,240.3
99.136,104.6
99.1436,251.2
99.1612,111.6
99.193,515.5
99.2023,135.3
99.2119,128.8
99.2181,100.6
99.2214,120.8
99.3153,20.1
99.3325,586.1
99.355,160
99.3961,120.2
99.4338,522.2
99.4394,792.3
99.4556,22.7
99.463,19.2
99.4663,175
99.4699,306.7
99.4774,119.2
99.5035,139.1
99.5091,103.4
99.5358,19.8
99.5541,251.2
99.6383,188.5
99.6436,239.8
99.644,232.6
99.6534,140.4
99.6618,237.4
99.6943,167.1
99.7409,414
99.8004,145.7
99.8066,423.4
99.8605,20.4
99.8891,127.7
99.9108,144.1
99.93,294.4
99.9393,592.9
99.949,502
99.9673,105.3
100.0137,521.3
100.0426,117.5
100.0754,23.5
100.0917,117.4
100.107,554.5
100.1312,235.8
100.1331,20.9
100.1686,591.1
100.1766,368.6
100.2376,124.9
100.2428,175.6
100.2761,319.3
100.2932,341.2
100.3819,410.1
100.3864,92.7
100.4008,606.7
100.4522,254.3
100.4654,19.3
100.4695,129.6
100.4924,199.4
100.5016,207.1
100.5299,218.3
100.5356,274.9
100.5512,469.2
100.5549,95.2
100.6644,495.2
100.6822,389.1
100.6993,226.2
100.7012,360.5
100.78,144.9
100.7918,440.1
100.8217,288.4
100.859,15.8
100.9166,1156.8
100.9255,316.9
100.9637,166.5
100.9859,16.6
100.9883,311.1
101.0003,455.2
101.0109,677.4
101.0239,18.1
101.0418,195.1
101.047,138.8
101.0708,811
101.0724,115.2
101.0837,622.3
101.1052,19.1
101.1074,546.2
101.1156,308.8
101.1316,100.9
101.1364,113.3
101.1604,170.2
101.1636,272.8
101.1741,174.3
101.1859,467.9
101.2043,312.8
101.2242,510.5
101.2384,198.2
101.2939,352
101.3659,168.2
101.3811,168.7
101.4585,307.4
101.4878,554.2
101.4919,243.2
101.502,693.2
101.5781,541.7
101.5995,18.5
101.6167,549.1
101.6366,188.6
101.663,163.3
101.6695,529.9
101.7105,92.4
101.7149,482.9
101.7248,19.5
101.7524,158.1
101.7692,339.1
101.7803,17.3
101.7901,155.6
101.7985,317.9
101.9166,135.2
101.9635,292.3
101.9652,125.6
101.9869,166.4
102.0251,423.5
102.0268,234.3
102.0548,2372.6
102.0694,162.8
102.1043,17.4
102.1192,205.3
102.1317,167.4
102.1358,214.1
102.1374,122.2
102.1686,17.6
102.194,119
102.1957,152
102.2066,325.5
102.2372,124.7
102.2467,566.7
102.2729,129
102.286,512.4
102.2908,18.6
102.3066,766.6
102.3095,198.5
102.3337,472.8
102.3372,15.9
102.3433,17
102.3441,319.1
102.366,118.3
102.4293,20.7
102.4377,736.4
102.4401,126.9
102.4585,193.3
102.4683,537.3
102.4714,111.9
102.528,286
102.5334,119
102.5689,546.4
102.5823,285.6
102.584,165.6
102.6112,123.6
102.6154,354.9
102.6336,486
102.6707,184.9
102.6728,152.4
102.6853,163.7
102.7223,110.7
102.7491,127.9
102.753,203.4
102.7962,784.7
102.8065,95.7
102.8134,391.5
102.8902,298.3
102.8921,180.2
102.9677,326.2
102.9701,444.7
102.9715,19.9
102.9786,492
102.9873,18.8
103.0148,166.7
103.0466,129.3
103.0539,195.5
103.0711,116
103.1241,238.4
103.1413,107.9
103.1848,290.9
103.2224,436.4
103.2367,237.1
103.2522,19.7
103.2813,217.8
103.2932,383.3
103.3027,18
103.3165,98.6
103.3558,19.5
103.3647,860.2
103.3798,138
103.4987,185.8
103.499,263.7
103.5294,325.7
103.5738,105.6
103.5977,633.5
103.6248,109.9
103.6481,18.3
103.6702,493.7
103.6746,370.9
103.7062,513.5
103.7263,787.9
103.7802,196.1
103.7985,248.1
103.828,419
103.8448,278.7
103.8938,581.7
103.8956,19
103.9293,206.5
103.956,18.8
103.9662,19.6
103.9792,290
103.9844,345.4
104.0375,15.1
104.0528,119.4
104.071,388.9
104.1068,464183.3
104.1153,188.5
104.1185,504.7
104.1655,425
104.171,229.8
104.2059,462.2
104.2443,240.4
104.2484,126.5
104.2666,150.7
104.2999,261.7
104.3024,227.2
104.3073,235.2
104.3239,176.6
104.4117,245.6
104.4365,403
104.4483,104.3
104.4844,288.9
104.4862,291.6
104.5322,354.4
104.5349,289.1
104.5678,112.8
104.5734,582.8
104.5993,111.9
104.6263,17
104.6356,666.2
104.6584,19.7
104.6595,807.9
104.6966,127.8
104.7206,108.3
104.7815,375.1
104.8174,107.5
104.819,766
104.8974,17.7
104.908,583.3
104.9119,263.1
104.9241,271.9
104.9479,125.9
104.9561,307
104.9632,4260.7
104.9683,133.5
104.9809,443.5
104.9909,133.2
104.9932,101.5
105.0293,97.7
105.0446,33846.1
105.07,17.8
105.1102,17963.1
105.1133,164.4
105.1419,194.4
105.1433,112.9
105.1501,466.5
105.1672,261.8
105.2067,675.3
105.2904,191.2
105.4068,134.2
105.4103,16.8
105.4678,239.1
105.4804,125.6
105.4897,629.3
105.4906,840
105.5048,208.2
105.5093,265.5
105.5489,218.9
105.5593,17.8
105.619,161.8
105.6278,17
105.6521,120.2
105.7354,555.3
105.7397,104.5
105.7699,567
105.7732,379.3
105.7752,104.3
105.8003,111.3
105.8314,156.2
105.8749,664.6
105.9171,18.4
105.9254,308.6
105.9611,631.1
105.9636,20.2
105.9652,16.1
105.9707,19.9
106.005,174.4
106.022,677.5
106.0263,539.7
106.0362,16.2
106.0415,18.3
106.0479,534.5
106.0489,160.5
106.0649,83.2
106.2105,122.5
106.2212,315.5
106.3061,242
106.313,22.9
106.3736,745.8
106.3825,145.3
106.3848,574.9
106.3935,195.3
106.3967,156.3
106.399,101.8
106.4049,94.9
106.4292,772
106.4433,155.4
106.4455,191
106.4518,17.5
106.5286,491.8
106.5373,166.8
106.5619,198.9
106.5825,128.2
106.6345,19.2
106.6363,291.4
106.6379,20.8
106.6649,354.8
106.6668,350.4
106.678,164.4
106.6793,647.7
106.6865,175.6
106.6957,644.4
106.7152,351.5
106.7548,125.4
106.7557,171.8
106.8534,122
106.8911,17.3
106.9002,524.2
106.9168,281.2
106.9303,649.3
106.9365,302.3
106.9505,4462.4
106.962,298
106.9636,92.2
107.0282,71.8
107.0486,932.8
107.0855,20.7
107.1053,113.4
107.1201,108.2
107.1458,236.6
107.1527,640.2
107.1618,137.2
107.177,17.6
107.265,18.1
107.2677,720.7
107.2903,18.1
107.3646,247.1
107.3883,239.1
107.4,314.5
107.4126,494.4
107.4486,18.6
107.4589,626.4
107.4658,494.1
107.509,505.4
107.5517,106.7
107.5658,121.1
107.6087,554.5
107.6446,380.2
107.6466,164.5
107.6759,394.7
107.6935,19.5
107.7101,515.2
107.7133,582.3
107.7437,683.3
107.8431,216.9
107.8679,89
107.8998,121.2
107.9102,387.5
107.9135,423.3
107.9581,19.7
107.9655,21.6
107.9941,326.6
107.9951,309
108.0091,95.4
108.049,244.5
108.0544,590.2
108.0568,24
108.0851,563.2
108.1649,390.9
108.1828,119.1
108.1847,627.2
108.2085,446.6
108.2521,106.2
108.3101,120.3
108.3665,119.5
108.381,278.1
108.3942,123.3
108.4006,137.6
108.4087,464
108.4143,232.3
108.4241,20.4
108.4313,403.7
108.526,204.5
108.5387,103.5
108.5652,614.4
108.5742,352.2
108.5763,458.6
108.6159,291.6
108.6311,18
108.636,205.5
108.6443,158.4
108.6505,175.4
108.716,436.5
108.7435,454.2
108.7882,181.2
108.7957,212.6
108.8648,685.3
108.867,266.3
108.8692,462.9
108.8997,99.7
108.9029,419.5
108.9137,27.8
108.9355,116.5
108.9582,159
108.9723,286.4
109.0106,27.9
109.0599,90.1
109.0646,56467.6
109.0756,266.9
109.0848,863.2
109.088,685.1
109.1011,226.9
109.1209,107.1
109.137,103.6
109.1506,152
109.1939,526.5
109.2124,220.3
109.2214,16.1
109.2278,787.1
109.2445,164.8
109.2621,130.1
109.2751,16.7
109.2905,109.6
109.3127,17.9
109.3436,17.6
109.3968,203
109.4181,165.6
109.4642,82.3
109.4676,257.1
109.4757,271.4
109.4877,17.6
109.5128,541.2
109.5321,107.4
109.5382,479.6
109.5411,424.3
109.5907,347.1
109.5917,149
109.6555,231.2
109.6673,104
109.6938,666.5
109.7504,163.4
109.7721,139.3
109.7799,163.3
109.8527,323.9
109.8614,286.9
109.8681,254.5
109.893,250.8
109.9184,743.3
109.9193,18.6
109.9283,222.9
109.9322,618.3
109.943,143
109.9573,193
109.9718,218
109.9812,307.5
110.0413,108.7
110.068,1301.5
110.0712,348.7
110.1086,236.1
110.118,131.4
110.1339,397.9
110.1607,106.2
110.1616,371.4
110.2021,244.7
110.2145,222.3
110.2322,116.9
110.2805,186.4
110.3556,24.1
110.3609,203.7
110.3949,510.3
110.4496,754
110.4635,357.3
110.476,19.9
110.5381,408.4
110.6023,627.6
110.6167,239.1
110.6393,188.6
110.6485,20.7
110.6878,641
110.6903,695.8
110.7057,91.6
110.719,703.9
110.7473,523.6
110.7604,128.8
110.7787,115.7
110.7865,157.1
110.7964,396
110.8412,628.6
110.8493,233.1
110.9166,133.5
110.9367,171.9
110.9764,21.3
110.9911,111.9
110.9962,282.2
111.019,20.5
111.0231,202.6
111.0367,243
111.0385,262.5
111.0439,199.1
111.049,21.3
111.0749,730.3
111.0878,321.6
111.0907,111.5
111.0957,210.1
111.1489,111.1
111.1581,404.6
111.2003,101.8
111.2056,266.1
111.2426,19.3
111.2782,389.4
111.2839,131.3
111.3037,213.7
111.3195,371.3
111.3379,277.7
111.3611,122.8
111.384,626.8
111.3845,652.2
111.3982,409.7
111.4708,220.2
111.5268,487.3
111.6064,105.9
111.6125,134.4
111.6705,339
111.6723,18
111.682,18.5
111.7168,181.9
111.7826,179.1
111.8271,613.4
111.8343,155.7
111.843,162
111.858,199.1
111.8736,514.1
111.8788,192.3
111.8979,562.7
111.9024,499.9
111.9202,111.9
111.9251,128
111.9871,153.9
111.9978,234.2
112.0113,117.3
112.0303,367.2
112.0393,370
112.0653,173.6
112.0698,119.1
112.111,20.5
112.1347,927.9
112.1402,130.5
112.2766,118.4
112.2849,18
112.3165,561.1
112.3413,101.4
112.4108,481.6
112.5234,465.2
112.5354,343.9
112.5626,110.7
112.5798,19.4
112.5858,107.1
112.602,160.7
112.6541,17.5
112.6829,17.4
112.7308,126.4
112.7834,131.5
112.7989,177.9
112.8055,213.7
112.8676,18.5
112.8831,149
112.8956,478916.3
112.9967,321.8
112.9993,546.7
113.0104,336.1
113.0295,139.3
113.0455,480.6
113.0462,258.6
113.0932,160
113.1074,134.8
113.1219,21.1
113.1499,278
113.1787,218.7
113.2228,159.3
113.2317,17.2
113.2385,218
113.2564,102
113.3162,610.2
113.3267,118.6
113.361,588.1
113.3964,116.9
113.4025,105.8
113.4359,113.3
113.5871,311.2
113.6241,157.6
113.6301,199.5
113.6902,166.6
113.7355,20.2
113.7387,17
113.7415,166.6
113.7555,104.6
113.7816,261.5
113.8155,643.4
113.834,372.1
113.8613,195.9
113.8867,426.4
113.9514,407
113.9635,22.3
113.9712,228.8
114.0356,162.1
114.0422,184.2
114.0438,165.8
114.0525,387
114.0548,30243.1
114.066,645.2
114.0807,690
114.0996,125.9
114.1096,645.3
114.2957,603.7
114.296,609.6
114.3117,142.7
114.3164,112.4
114.342,165.4
114.3557,17.3
114.3958,163.1
114.4701,18.8
114.5445,665.3
114.601,277.1
114.638,326.7
114.6549,19.1
114.6749,257.8
114.6971,449.9
114.7053,221.6
114.7134,151.5
114.7173,457.2
114.7396,213.9
114.7704,534.9
114.7718,21.7
114.7883,355.6
114.8075,426.9
114.8296,185.8
114.8875,202.4
114.8927,155847.5
114.9406,787.2
114.948,649.4
114.9501,224.4
114.9676,18
114.9876,177
114.9992,233.4
115.0227,97.3
115.0324,18.2
115.0339,590.3
115.0581,112.3
115.0686,592.3
115.0862,420.4
115.0896,127
115.1319,609.2
115.1539,119.9
115.2284,399.9
115.235,657.2
115.2532,18.5
115.2637,283.3
115.3375,191.2
115.3408,154.7
115.3485,111
115.391,124.5
115.4323,201.1
115.4569,614
115.4825,290.6
115.4971,208.3
115.5722,446.4
115.586,202
115.5871,277.6
115.6233,170.8
115.6262,161.7
115.6559,165.7
115.6609,98.6
115.749,19.3
115.7626,660
115.7769,661.3
115.7955,946.5
115.8507,114.7
115.9172,20.9
115.9389,18.7
115.9435,182.2
115.9576,167.9
115.9792,622.8
115.9937,19.4
116.0149,650.4
116.0239,201.4
116.039,558.1
116.0705,4088.7
116.0846,420.8
116.0977,509.3
116.1124,149.2
116.1167,332.8
116.1543,24.8
116.1584,107.8
116.1602,127.2
116.1942,17.2
116.2243,90.4
116.2472,127.1
116.2502,364.5
116.2548,188.8
116.294,282.7
116.3047,556.5
116.3187,124.2
116.3407,281.4
116.4346,344.6
116.5068,159.6
116.5552,405.3
116.6063,16.9
116.6126,110.5
116.6479,436.1
116.6679,580.9
116.6696,624
116.6845,18.3
116.6902,108.1
116.7088,323.7
116.7101,23.1
116.762,19.1
116.7759,529
116.8018,162.9
116.8349,323.1
116.8692,114.4
116.875,246.9
116.877,536.8
116.883,555.5
116.8908,18239.2
116.9188,1024
116.922,187
116.9463,847.7
116.9595,17.5
116.9633,193.6
116.9825,681.3
116.9858,839.6
116.99,20.2
117.0134,228.9
117.0699,505.4
117.079,350.3
117.1409,204.9
117.195,590.2
117.2244,143
117.2427,18.8
117.2728,164
117.3777,117.1
117.3926,19.5
117.4047,477.7
117.4328,219.5
117.4725,450.5
117.5319,109.5
117.5423,500.1
117.5593,263
117.5704,603.4
117.5881,147.3
117.5891,443.1
117.617,17.1
117.6237,148
117.6499,484.4
117.6775,120.7
117.755,846.6
117.7671,102.2
117.7898,403.9
117.8086,548.6
117.8586,475.3
117.8709,175.1
117.9076,17.6
117.9456,18.4
117.9715,17.3
117.9744,18.9
118.0207,161.8
118.0732,152.4
118.1177,598.1
118.1306,424.4
118.1662,126.2
118.1668,126.9
118.2174,163.6
118.2447,194.6
118.2522,114.4
118.3152,357.2
118.3631,138.9
118.406,695.2
118.4411,665.2
118.4626,16.1
118.507,133.8
118.5234,85.6
118.5321,118
118.5587,165.4
118.596,17.5
118.6065,188.3
118.6436,536.3
118.6624,165.9
118.679,538.8
118.7292,172.3
118.7616,158.8
118.7907,632.3
118.8001,687.1
118.8017,232.8
118.8379,504.3
118.8525,108.1
118.9108,152.7
118.9425,725.6
118.9788,728.8
119.019,21.5
119.0315,224
119.0728,18
119.0855,22
119.1028,319.8
119.1349,158.5
119.1557,471.7
119.2198,277
119.2693,683.8
119.2929,782.7
119.3835,127.1
119.3924,564.7
119.394,18.9
119.4,304.5
119.4897,21.8
119.5109,255.8
119.5192,684.7
119.5337,88.9
119.5363,603.4
119.5909,288.9
119.6285,170.4
119.6302,21.6
119.6854,108.4
119.7044,344.8
119.719,209
119.7518,345.1
119.7885,242.3
119.793,346.5
119.8026,161.7
119.8464,167.1
119.8686,537.9
119.9233,256.7
119.9265,255.5
119.9339,533.3
119.9788,261.7
119.9813,128
119.9879,19
120.0011,89.8
120.0031,4479.7
120.0807,19786.2
120.0886,113.3
120.1099,235.4
120.1799,211.7
120.1816,226.6
120.1841,20.4
120.2444,296.8
120.254,100.7
120.2857,124.5
120.3503,464.2
120.3656,571.1
120.5189,772.5
120.6911,17.2
120.7132,137.3
120.7437,125.5
120.837,683.5
120.8485,127.8
120.8815,139.4
120.9571,18.4
120.9808,86.9
120.9977,198
121.002,18.6
121.0075,175.9
121.0283,313.7
121.0395,322.3
121.06,20.2
121.0716,135.6
121.0742,138.1
121.0932,16.5
121.101,21.3
121.1025,321.8
121.1552,189.9
121.1735,164.4
121.179,326.8
121.1829,96.8
121.2048,405
121.2335,19.5
121.2732,217.4
121.2967,574.9
121.3222,129.9
121.3254,399
121.3611,399.6
121.3722,634.7
121.378,133.8
121.3836,110.7
121.4093,19.6
121.4389,549.6
121.4591,361.7
121.4615,139.5
121.4665,113.3
121.519,667.2
121.5953,742.6
121.6124,177.3
121.6671,20.9
121.6865,756.8
121.6884,492.4
121.6958,131.3
121.7265,17.5
121.8363,189.5
121.9279,618.9
121.9457,106.5
121.9567,19.6
121.9949,294.1
121.9984,719.9
122.0212,17.3
122.029,215.2
122.0798,209.1
122.1059,645.2
122.1223,768.9
122.3205,131
122.328,196.9
122.3428,607.2
122.3961,281.7
122.4239,264.2
122.4274,460.7
122.478,473.1
122.5346,235.4
122.5431,212
122.5854,580.1
122.5885,153.3
122.6083,281
122.6161,357.7
122.6205,163.9
122.6436,529.6
122.6875,132.5
122.7312,19
122.7355,581.4
122.7427,19.2
122.7624,126.5
122.7737,833.2
122.7796,209
122.805,102.2
122.8184,529.6
122.8215,629.7
122.8603,371.1
122.9058,110
122.9081,21.9
122.9244,24855
122.9293,22.9
122.9471,535
122.9738,251.2
123.011,224.1
123.0449,370.4
123.124,550.9
123.1271,186.6
123.1293,153.5
123.1651,17
123.2185,742.3
123.2217,362.2
123.223,19.3
123.2507,254.7
123.2855,510.6
123.3429,219
123.3521,18.2
123.3767,16.6
123.3866,797.1
123.4023,604.7
123.4697,300.6
123.5166,439.9
123.5399,17
123.5794,244.7
123.6077,936.9
123.6722,880.5
123.7078,499.6
123.7221,404.4
123.7259,619.6
123.7304,732.3
123.7487,265
123.7938,378.1
123.8207,380.8
123.8412,145.6
123.8514,282.4
123.8602,17.9
123.9556,674.7
123.9578,19.9
123.971,511.1
123.9997,18.8
124.0027,142.1
124.0348,216.2
124.0929,763.7
124.1101,20.4
124.1256,757.3
124.1381,178.4
124.1462,146.1
124.1661,157.6
124.1797,17
124.2129,659
124.2382,448.2
124.2474,109.6
124.2591,115.3
124.3091,217.2
124.3602,532.7
124.3845,571.4
124.4045,289.2
124.4107,114.1
124.4179,143.8
124.4564,18.5
124.4576,612.2
124.4933,275.4
124.5104,301.1
124.5351,136
124.5428,494.2
124.5461,552.9
124.6853,376.6
124.7255,16.9
124.7699,458.9
124.7795,499.4
124.8546,150.1
124.8872,339.8
124.9226,1467.4
124.9401,277
124.962,530.1
124.9795,381.5
124.9825,207.1
124.9854,142.3
124.9997,7294.1
125.0054,1129
125.0167,795.2
125.0202,23.6
125.0216,487.8
125.0298,84
125.0388,200.8
125.0594,24.9
125.0849,263.5
125.1004,741.8
125.107,296.7
125.195,670.6
125.36,550.7
125.3626,578.1
125.3829,22.3
125.3905,324.6
125.3939,515.1
125.428,204.2
125.4536,407.7
125.4862,130.3
125.5379,114
125.5639,160.2
125.5934,320.4
125.597,99
125.5993,18.1
125.6137,422.5
125.6246,123.6
125.665,18.7
125.7608,122
125.7816,543.1
125.7994,598.7
125.8219,171
125.8781,370
125.884,16.3
125.9999,140.6
126.0887,607.7
126.1951,620.6
126.2162,18.1
126.2587,544.2
126.3617,106.5
126.3778,430
126.3815,305.1
126.3925,481.5
126.4255,232.1
126.4519,762.4
126.4746,272.4
126.4864,147.8
126.5159,100.8
126.5573,717.9
126.5765,204.9
126.6932,173.7
126.6977,202.5
126.7204,18
126.7845,19.1
126.8406,123.9
126.8705,250.5
126.8794,117.8
126.8981,20.8
126.9146,183.9
126.9532,135.6
126.9607,240.8
126.9701,183.6
127.0148,812.8
127.0201,18.1
127.0277,637.8
127.0317,214.2
127.0477,300.7
127.0549,18.8
127.058,430.6
127.0761,403.3
127.1311,598.1
127.1697,129.4
127.1744,570.3
127.1752,232.8
127.1948,160.6
127.2022,95
127.2257,141.1
127.2403,223.2
127.2684,486.6
127.3083,218.9
127.3623,110.7
127.3756,199
127.4109,160.9
127.4245,228.9
127.4547,127.3
127.4857,241.8
127.4978,167.9
127.5626,825.8
127.5814,91.3
127.6056,403.6
127.6157,220.3
127.6314,207.5
127.6336,871
127.6838,209.7
127.7127,19.9
127.7183,428.6
127.7645,159.6
127.8012,185
127.8192,585.2
127.8245,16.7
127.8351,309.9
127.9381,324.4
127.9396,108.7
127.9588,267.6
127.9768,115.1
127.9794,23.4
127.9819,600.4
127.9977,17.2
128.0016,194
128.0155,22
128.1071,24.5
128.1476,17.5
128.1725,105.5
128.1762,302.9
128.1782,429.9
128.1951,388.9
128.2087,147.5
128.3189,124
128.3727,85.1
128.4467,17
128.484,142.8
128.4978,867
128.5201,219.3
128.5447,214.7
128.5796,522.9
128.5832,155
128.5923,174.4
128.9044,19.5
128.9178,122.2
128.9362,20
128.955,171.6
128.9637,491.4
128.9865,215
128.9962,156.3
129.041,179
129.0906,110.2
129.1022,1808.7
129.1167,18.8
129.1312,19.6
129.1879,214.5
129.1976,298.8
129.2187,147.4
129.2532,17.3
129.2606,97.7
129.3013,159.5
129.3117,18
129.3186,207.3
129.3242,18.6
129.3305,202
129.4437,467.9
129.4609,97.8
129.464,323.8
129.5152,521.2
129.524,1730.3
129.5385,178.6
129.5655,176.9
129.6,231.7
129.675,244.8
129.7305,18.6
129.7372,397.5
129.7792,398.2
129.785,175.4
129.8206,254.3
129.838,300
129.8612,503.3
129.879,727.8
129.8836,112.2
129.9585,250.9
129.9869,244.8
129.9949,168.8
130.0498,12054.7
130.0753,164.8
130.1353,18.9
130.1691,592.1
130.2194,383.1
130.2843,258
130.3022,205.6
130.3029,181.3
130.3097,531.2
130.3647,376
130.419,510.4
130.4348,415.4
130.4811,474.5
130.4897,172.9
130.4922,188
130.529,123.4
130.5343,124.2
130.5699,399.9
130.6059,234.8
130.6363,135
130.6695,18.2
130.7105,298.6
130.7511,100.6
130.8261,157.9
130.8374,111.2
130.8484,157.3
130.8634,567.5
130.8839,647.6
130.8952,114.2
130.9579,177.1
130.9788,55.4
131,91.3
131.008,17.1
131.0383,650.6
131.0433,188.4
131.0938,18.5
131.1318,15.6
131.1975,411
131.223,190.9
131.2505,106.7
131.273,503
131.2821,325.5
131.3865,17.6
131.3949,161.3
131.4061,568.6
131.4673,471.6
131.4692,167.8
131.5371,98.3
131.6482,156.7
131.6537,19.2
131.6592,111.6
131.6661,153.9
131.6684,18.4
131.7197,134.8
131.8332,202.8
131.8367,127.1
131.8444,624
131.8844,490.6
131.9067,155.5
131.9434,322.1
131.97,285.8
131.976,475.8
132.0031,34987.7
132.0654,50689.4
132.0767,4021.4
132.1193,232.9
132.1198,207.1
132.1429,200.1
132.1547,177.8
132.1794,175.2
132.2602,288.5
132.2713,171.6
132.318,197.9
132.3227,597
132.3518,257.9
132.3717,249.6
132.3724,245.8
132.3875,364.8
132.3999,984.3
132.4404,530.1
132.4497,707.7
132.4966,129
132.5759,515
132.5838,193.2
132.6542,124.4
132.6562,18.1
132.6637,17.3
132.6767,498.2
132.7089,669
132.7633,123.9
132.775,101.8
132.9024,463
132.9166,640.2
132.9434,103.3
132.9581,656.9
132.9694,17.1
132.97,16.2
132.9874,523
133,108.2
133.0007,170.3
133.0015,207.5
133.0022,155.9
133.0461,118.2
133.0556,347.5
133.0689,506.5
133.084,711.6
133.097,28104.4
133.0995,142.5
133.1007,137.5
133.1022,420.2
133.1196,261.1
133.2382,177.4
133.2447,18.7
133.2514,188.4
133.3017,107.9
133.3284,287.7
133.3386,183.6
133.3444,228.9
133.3683,514
133.3828,369.6
133.4031,233.9
133.4559,119.4
133.4692,166.1
133.5437,233
133.5518,237.5
133.5684,438.5
133.593,127.6
133.621,286
133.6486,236.4
133.6508,101.6
133.6693,23.7
133.6813,279.6
133.7845,552.5
133.8165,836.7
133.8748,548.4
133.8906,101.2
133.9297,227.4
133.942,808.5
133.9439,484.4
133.9813,50.3
133.9843,166.6
134.0107,137.1
134.0188,11357.4
134.0317,414.8
134.0345,20.1
134.0493,192.4
134.0551,174.2
134.0697,129.6
134.1364,134.6
134.1813,242.3
134.1828,281.5
134.1856,135.9
134.2031,202.5
134.2383,19.9
134.3804,754.9
134.3907,251.1
134.421,16.9
134.4255,533.8
134.4714,198.2
134.5866,722.1
134.5917,140.7
134.6063,430.9
134.6356,685.9
134.6651,19.4
134.677,173.4
134.7514,456.3
134.7892,118.1
134.8974,826.1
134.9671,368.4
134.9891,202.5
134.9965,25.9
135.0028,41535.4
135.0238,241.8
135.0414,205
135.0573,720.9
135.1893,406.3
135.3371,129.3
135.3648,224.3
135.3758,18.2
135.4023,227
135.4609,203.7
135.4831,91.3
135.5043,349.8
135.5555,15.8
135.5658,819.4
135.5679,183.6
135.5726,738.3
135.5737,176.5
135.6335,153.7
135.6483,138.8
135.6576,202.9
135.7048,146.2
135.7653,97
135.7979,23.4
135.8873,605.3
135.9139,118.4
135.977,2791
135.9807,388.9
136.0406,428.7
136.048,5265.2
136.0616,98.3
136.0733,223.9
136.0756,14364.9
136.128,389.3
136.1629,159.8
136.1901,571.9
136.2389,178.4
136.2697,139.3
136.2842,198.8
136.2884,140.9
136.3057,665.5
136.3108,1185.9
136.4389,23.1
136.4805,287.1
136.4853,528.3
136.4919,328.6
136.5405,819.4
136.5455,176.7
136.5567,190.6
136.5792,805.4
136.6485,120.7
136.6598,588.7
136.7623,199.3
136.8319,301.8
136.8332,306.4
136.843,186.5
136.8562,402
136.8659,822.8
136.953,143.3
136.999,215.7
137.0096,120.1
137.015,101.9
137.0193,191.5
137.0287,202.2
137.1323,25.6
137.1806,28.6
137.2215,104
137.2351,481.3
137.2733,492
137.3141,329.5
137.3208,21.6
137.3545,375.6
137.4217,109.3
137.4388,127.1
137.5003,332.2
137.6452,611.9
137.6526,22.6
137.6795,155.2
137.7105,16.8
137.7659,277.9
137.775,849.5
137.8166,437.8
137.8328,266.5
137.9057,599
137.9529,229.3
137.9629,777.8
137.9731,155.3
138.0178,118.7
138.0524,3802.8
138.0661,22.2
138.1158,389.2
138.1261,210.8
138.1805,395
138.2096,483.8
138.216,402.5
138.2197,135.8
138.2237,25.3
138.2385,19.8
138.2408,379.7
138.2509,204.5
138.3383,123.4
138.4031,146.6
138.4495,16.3
138.4666,160.1
138.5522,431.4
138.5864,107.2
138.6598,111.8
138.7013,195.5
138.7058,204.6
138.7503,143.2
138.762,809.5
138.7827,157.2
138.8654,17.9
138.8938,386.7
138.9065,3087.8
138.9458,165.8
138.9631,18.6
138.968,23.3
138.9739,99.5
139.0003,182.3
139.0085,22.3
139.0194,386.7
139.0225,275.4
139.0296,873.7
139.1205,459.9
139.1275,362.7
139.2723,660.7
139.3197,133.3
139.3359,319.3
139.3528,957
139.3754,205.6
139.4012,439.8
139.4139,19.2
139.6053,186.5
139.6193,572.3
139.7176,21.2
139.7587,118.3
139.8481,784
139.9547,197.2
140.0164,4496.9
140.051,253.2
140.0652,367.6
140.068,1125.8
140.0884,132.5
140.1591,698.2
140.1765,462.5
140.2157,575.6
140.2228,158
140.3217,390.4
140.3445,181.4
140.3969,204.1
140.4155,650.1
140.4374,118
140.4582,280.6
140.5429,587.7
140.5844,19.2
140.5888,501.8
140.5941,247.8
140.7258,173.7
140.7481,573.4
140.7747,161.1
140.7845,23.2
140.8813,753.2
140.8927,165.9
140.9022,254
140.9034,783.3
140.948,202.1
140.9507,17.7
140.9601,204
141.0004,15049.5
141.0033,19.1
141.0139,198.7
141.0198,150.1
141.0923,176.1
141.1301,298.7
141.1327,250.1
141.1542,152.2
141.1953,186.6
141.2086,243
141.23,251
141.4139,505.1
141.4916,120.7
141.533,558.9
141.5358,18.5
141.5673,108.5
141.5982,313.3
141.666,122.3
141.6768,763.9
141.752,124.2
141.7572,20.4
141.7656,814.9
141.7903,21.4
141.7989,478.4
141.8346,171.7
141.8452,439.5
141.8653,403.7
141.8701,120.1
141.9949,266.2
142.0038,344.9
142.0121,282
142.0152,20.4
142.0461,339.4
142.0631,689.5
142.1127,276.6
142.1261,469.4
142.1619,330.1
142.2578,306.4
142.2656,473.2
142.2712,145
142.3066,356.6
142.313,615.7
142.3254,435.9
142.469,178.9
142.5104,803.1
142.5341,181.3
142.5562,467.4
142.5855,482.6
142.5942,253.9
142.6344,188.5
142.7033,155.4
142.752,108.9
142.795,24.1
142.8706,449.8
142.8828,441.5
142.9293,539.2
142.9479,220.7
142.9712,163
142.9963,210.7
143.0722,99
143.0814,70.1
143.086,757.1
143.0903,155.9
143.098,715.4
143.1506,1276.4
143.1721,417.2
143.1781,151.9
143.1903,436
143.278,19.9
143.2861,191.8
143.288,350.9
143.3197,19.3
143.3253,186.9
143.3378,715.5
143.3469,356.6
143.4604,722.2
143.4792,655.9
143.5179,124.2
143.5435,156.6
143.638,746.2
143.642,537.1
143.7044,781.7
143.7094,381
143.7149,538.1
143.7288,16.9
143.8239,242.9
143.88,17
143.8838,231.9
143.9313,108.9
143.9366,553.8
143.958,20
143.9855,223.3
144.0106,1067.9
144.0812,440.6
144.0957,21.2
144.141,18.9
144.1459,144.1
144.1736,273.7
144.2014,213.8
144.2371,134.9
144.2711,558.9
144.2854,114
144.435,214.6
144.449,18
144.4621,538.2
144.4713,762.1
144.5242,18.9
144.5749,202.5
144.7069,297.5
144.781,18.3
144.7977,17.3
144.8731,147.1
144.8753,17.3
144.9807,905.7
145.0055,176.3
145.0166,520.4
145.047,691.4
145.0523,162.8
145.0668,266.5
145.1223,204.4
145.13,520.7
145.1722,136.8
145.1929,244
145.217,119.5
145.2509,583.8
145.2865,179.7
145.2975,643.4
145.4042,20.3
145.4297,19.7
145.4406,718.1
145.4491,174
145.5073,263.2
145.5518,297.9
145.5568,237.2
145.5846,125.6
145.5981,253.2
145.6158,260.7
145.6626,126
145.6758,164.2
145.6872,206.6
145.6878,202.3
145.6983,19.8
145.7134,214.5
145.7263,154.1
145.7427,22.1
145.7608,17.9
145.7994,260.9
145.83,210.4
145.8531,542.9
145.8652,17.3
145.8869,136.7
145.9167,339.4
145.9492,109.4
145.9813,249.6
145.9891,321.9
145.9938,586.4
146.001,223
146.003,1502.7
146.0068,151.7
146.0084,225.8
146.0123,3135.3
146.0188,23507.7
146.0262,151.8
146.0744,178.5
146.1016,181.5
146.1607,720.8
146.2559,127.9
146.2579,381.8
146.2988,216.3
146.355,536.6
146.3579,238.8
146.4,144.7
146.4109,381.5
146.4886,390.2
146.4892,390
146.4922,122.5
146.5399,101.7
146.5965,126.7
146.6079,19.1
146.6093,113.3
146.6359,486.8
146.6421,104.3
146.6609,512.9
146.6672,19.2
146.7244,515.7
146.7699,394.6
146.7756,526.7
146.791,96
146.8021,207.5
146.816,214.2
146.817,320
146.8177,297.5
146.8393,175.4
146.8901,405.1
146.9053,27.8
146.9745,22.8
146.9817,122087.2
146.9855,17.4
146.995,224.9
147.0764,69407.8
147.1127,39150.9
147.1434,336.1
147.1473,521.7
147.1699,675
147.2051,432.2
147.2335,729.9
147.2735,196.7
147.2785,451.5
147.3912,726.2
147.452,157.7
147.508,428.5
147.5107,353.8
147.5222,210.4
147.589,112.3
147.6017,22.8
147.6037,20.1
147.6752,16.2
147.7524,305.6
147.7594,133.7
147.8054,205.9
147.8425,125.2
147.9769,519.8
147.9812,20.3
147.9976,21.1
148.08,105.4
148.1121,30.6
148.1147,209.9
148.1774,18.5
148.1994,166.6
148.2775,16.2
148.3417,759.1
148.3488,337.3
148.3838,381.6
148.3906,622.1
148.424,24
148.4693,121
148.4745,532
148.5319,963.2
148.5739,185.9
148.6221,163.3
148.6281,273
148.7149,255.4
148.7352,160.5
148.7703,537
148.783,285.3
148.7848,383.6
148.7955,212.8
148.9068,600.8
148.961,1057.4
148.9885,177.6
149.0061,395.3
149.0185,2827.3
149.0233,3940.1
149.0395,297.8
149.0448,174.6
149.0973,138
149.103,168.7
149.1323,219.2
149.1387,537.2
149.176,116.8
149.216,561.4
149.226,431
149.2281,256.4
149.2738,122
149.286,146.9
149.3571,121.6
149.38,393.4
149.4473,532.2
149.5602,299.3
149.5923,135.4
149.6097,282
149.6615,111.5
149.7552,19.4
149.7598,23.9
149.7686,569.5
149.7819,194.5
149.7937,233.8
149.9186,23.8
149.9362,307.8
149.9742,109.7
149.9873,73.2
149.9927,6509.2
150.0137,5452.2
150.0275,279.2
150.0584,802.6
150.0653,324.1
150.0922,170.7
150.1012,196.2
150.1094,20
150.2405,135.7
150.263,130.6
150.342,243.7
150.3486,276.5
150.3635,315.2
150.3866,817.3
150.4228,661.8
150.4288,182.9
150.4988,557.2
150.5229,233.1
150.547,266.7
150.5486,675
150.5809,111.9
150.6853,171
150.715,218.4
150.7205,114.1
150.7972,541.2
150.802,140.7
150.8232,97.9
150.8767,360.3
150.9688,53.3
150.9768,26672.5
150.9841,5599.9
150.9897,109.8
150.9929,113.9
151.0206,514.1
151.0479,1905.1
151.07,135.6
151.0716,450.7
151.0955,597.2
151.2163,338
151.2475,112.6
151.2504,177.5
151.2784,18
151.308,207
151.3335,212.8
151.5177,348.2
151.524,153.9
151.5385,582.7
151.6389,131.5
151.7221,281.2
151.7775,101.3
151.8027,448.9
151.8561,365.7
151.8778,122.3
151.8909,318.5
151.9123,163.8
151.951,589.9
151.9844,69.3
151.9874,143.7
152.0057,566.8
152.0116,18.2
152.0152,87
152.022,6084.7
152.0317,4233.2
152.0509,275
152.0821,444.1
152.1171,124.9
152.1381,525.5
152.192,197.9
152.2741,735.3
152.2823,431.4
152.2982,627.8
152.3289,130
152.432,151.9
152.4892,464.8
152.6345,17.8
152.7289,291.7
152.7522,391.5
152.7957,179.6
152.8628,182.4
152.8905,210.7
152.9295,838.1
152.9998,46.8
153.0333,308.1
153.0928,17.8
153.1799,125.2
153.2747,539.2
153.2992,16.7
153.3224,474.2
153.3304,709.3
153.3571,129.7
153.3951,171.5
153.4806,173.2
153.5219,432.9
153.5242,501.1
153.5291,21.2
153.5339,615.6
153.5505,394.5
153.6039,302.5
153.6287,310.5
153.6963,408.6
153.698,537.4
153.7225,106.1
153.7986,221.2
153.8337,493.7
153.9261,100.4
154.0264,345.8
154.0538,127.4
154.0586,2793.7
154.0913,551.1
154.0971,512.4
154.1028,125.1
154.1083,19.2
154.1161,279.2
154.1299,760.4
154.1399,699.7
154.1466,354.6
154.1744,218.8
154.1946,374.4
154.205,219.1
154.2124,488.4
154.2253,166.8
154.2652,224.6
154.2854,18.7
154.3405,232.3
154.3673,505.9
154.3854,869
154.3925,110
154.425,166
154.4592,160.5
154.4637,526.4
154.5101,240.2
154.5521,156.2
154.5888,249.9
154.7456,198.4
154.7588,123.7
154.8803,680
154.8868,133.7
154.9075,24.2
154.91,102.7
154.9983,426.6
155.0161,242.7
155.0492,146.4
155.0539,3572.3
155.079,796.6
155.0905,777.2
155.1258,344
155.1395,197.1
155.2145,383.8
155.2615,345.5
155.2806,561.5
155.3519,406.9
155.3562,18.3
155.4114,91.3
155.4275,20.9
155.4854,146.4
155.6174,617.5
155.6723,264.9
155.7537,728.6
155.8081,92.3
155.8753,505.2
155.8776,201.8
155.8949,20.8
155.9491,19.2
155.9521,284
155.9825,18.4
156.0269,193.9
156.0337,561.3
156.0421,1637.8
156.0767,65407.1
156.0988,563.5
156.1306,225.5
156.291,18.1
156.332,520.8
156.3344,102
156.3823,134.2
156.3927,559.4
156.4213,106.3
156.473,530.3
156.5327,485.6
156.537,191.7
156.5473,130.5
156.6118,235.3
156.6359,125.3
156.7312,23.3
156.7431,19.8
156.814,653.8
156.8518,108.6
156.8615,136.7
156.9045,149.4
156.9098,209.5
157.0056,30
157.0391,504.5
157.0421,579.8
157.0647,115.2
157.076,154.1
157.0799,459.5
157.0852,95.7
157.0879,571
157.0971,75.1
157.1007,113.8
157.1917,290.2
157.2461,617.4
157.2657,156.6
157.2793,677.1
157.3236,154.3
157.4,17.7
157.5953,283
157.7137,383.2
157.7178,452.9
157.7563,569.8
157.8129,104.3
157.8459,20.3
157.8744,416
157.8815,119.6
157.9866,134.2
158.027,3266.3
158.0433,273.9
158.1849,372.8
158.289,667.7
158.2977,527.4
158.3017,313.5
158.452,490.7
158.4687,568
158.495,114.3
158.5349,195.9
158.5592,20.4
158.5858,92.8
158.6034,257.8
158.6465,125.8
158.6479,113.7
158.7133,525.4
158.7144,672.1
158.8097,162
158.8178,513.1
158.8334,156.1
158.921,274.4
158.9641,11497.2
158.9685,352.6
158.974,21.4
158.9966,2047.7
159.0304,119.1
159.0611,17.4
159.0767,904
159.0916,297.8
159.162,125.8
159.1718,357.7
159.2815,369.6
159.3344,276.2
159.3505,527.4
159.506,103.1
159.5492,450.4
159.5828,18.6
159.5891,160.9
159.6229,17.2
159.657,244.4
159.6877,230.9
159.7008,103.2
159.7032,19.4
159.7125,248
159.7803,601.1
159.7878,739.1
159.8083,116.9
159.8279,16.3
159.8502,499.7
160.0227,253.5
160.0345,8437.1
160.0514,726.5
160.0604,46724.7
160.1056,120.4
160.1964,19.9
160.2363,313.7
160.3434,117.1
160.3491,175.1
160.3681,279.6
160.3745,168.3
160.396,142.1
160.4006,157.7
160.6867,676.2
160.6913,126
160.7036,269.2
160.7799,529.9
160.7836,279
160.8206,132.1
160.8287,17.3
160.8365,559.7
160.8911,258.6
160.9027,305.9
160.9077,19.4
160.9213,179
160.9708,440.8
160.9922,171.3
161.0011,597.9
161.0318,284.8
161.0563,204.8
161.0608,19.2
161.0638,1345.8
161.0972,492.4
161.2422,101.4
161.3074,126.4
161.3224,131.3
161.3395,124.2
161.3514,19.4
161.3633,178.3
161.3853,123
161.4176,803.1
161.424,112.8
161.4313,706.5
161.4767,709.9
161.5813,644.6
161.6378,679.3
161.7081,350.3
161.7181,640.3
161.7505,251
161.7734,254
161.7765,203.3
161.7998,545.1
161.8229,397.1
161.8374,173.9
161.8729,586.9
161.9932,162
161.9958,137
162.0285,375.5
162.0387,119.5
162.0502,9551.2
162.0801,452.7
162.1307,112.5
162.271,469.8
162.2925,204.9
162.3156,307.7
162.3413,178.2
162.3678,124.9
162.4069,516.4
162.4224,373.1
162.4617,92.1
162.6097,20.4
162.6311,198.9
162.662,528.2
162.6766,205.1
162.6966,717.5
162.7111,160.9
162.7215,21.3
162.8695,677.2
162.8775,173.6
162.9557,3099.8
162.9692,19
162.9928,18.9
163.0156,5051.5
163.0555,156.7
163.0605,51.2
163.0813,127.8
163.095,109.7
163.1182,91.1
163.1504,718.7
163.215,688.5
163.2217,269.9
163.228,203
163.3101,116.5
163.3532,140.9
163.3687,18.3
163.438,411.9
163.4793,911.3
163.4922,259.6
163.6691,109
163.6838,180.9
163.6853,535.5
163.691,97.5
163.6945,135
163.7356,308.8
163.8104,159.2
163.8555,461.8
163.8789,602.6
163.9364,213.3
163.9989,278.5
164.0229,243.5
164.0294,16567.1
164.1105,18.1
164.1431,18.2
164.1621,153.3
164.1829,203.1
164.2079,174.1
164.2234,627.1
164.286,143.1
164.4336,134.3
164.4796,708.9
164.5071,317.5
164.5252,115.2
164.5747,100.7
164.5923,136.2
164.6601,634.7
164.6735,420.4
164.6789,514
164.7007,126.8
164.7591,200.1
164.7701,246.5
164.8575,449.5
164.8644,549.4
164.8899,331.4
164.916,19.7
164.9205,3986.4
164.9263,23.7
164.93,8585.8
164.9351,989
164.9846,126.6
164.9925,1140
164.9973,232.4
164.9997,495.5
165.0025,248.6
165.0272,299.4
165.0466,17.4
165.0502,294
165.0914,597.4
165.2345,124.5
165.2526,253.9
165.3088,139.1
165.342,281.1
165.3842,425.3
165.3874,108.2
165.4327,190.8
165.4626,147.5
165.508,107.1
165.5678,358.6
165.5806,166.8
165.6278,253.5
165.6826,198.1
165.6913,634.3
165.6949,179.7
165.7276,488.4
165.7576,230.2
165.7895,173.1
165.8206,92.4
165.8476,552.2
165.8537,855.5
165.8732,219.4
165.8818,90.2
165.8858,159.2
165.9081,645.5
165.9669,1209.8
165.9788,2024.7
165.9877,3820
165.995,2125.4
166.0316,122.7
166.0839,344.8
166.1405,98.9
166.235,548.8
166.2857,117.7
166.311,398.6
166.3276,517.2
166.3461,724.3
166.3726,205.9
166.4675,272.1
166.4803,511.1
166.5044,135.8
166.5491,140.1
166.566,368.1
166.6132,568.9
166.6705,188.5
166.8521,216.4
166.8678,242.5
166.8717,134.2
166.9508,10449.2
166.978,675.5
166.9985,103.6
167.0159,459.3
167.0217,11149.6
167.0855,231.8
167.106,208.8
167.1197,326.6
167.1354,20.1
167.1383,308.4
167.1636,178.2
167.2185,737.8
167.3338,129.1
167.4905,135.4
167.4974,15.4
167.5362,514.5
167.7197,17.1
167.8536,106.5
167.8627,180.1
167.8671,19
167.8706,504.1
167.8985,18
167.9249,287
167.9728,17.1
167.9889,580.3
167.9945,1887.7
168.0058,478.4
168.0156,227.7
168.0303,128.3
168.068,748.2
168.0792,382.5
168.1175,148.5
168.1861,137.6
168.1987,267.1
168.2037,151.9
168.2996,343
168.3318,195.7
168.3566,229.2
168.4538,476.4
168.4635,290.9
168.5067,497.5
168.5434,330.3
168.6551,531.9
168.6787,499.4
168.7033,181.1
168.7265,880.6
168.7307,118.2
168.8299,260.8
168.8544,504.2
168.8742,304.5
168.8994,129.5
168.9089,18.6
168.9249,55.9
168.9374,116.9
168.995,20.8
169.0323,288.2
169.0584,70542.9
169.0947,1506.8
169.0972,1620.6
169.1423,350.8
169.239,110.2
169.2961,539.3
169.344,338.6
169.3472,110.3
169.4263,575.7
169.5284,444.8
169.5749,665.6
169.6143,219.2
169.6177,300
169.6349,147.5
169.6953,409.1
169.7443,18.1
169.7986,198.6
169.851,106.1
169.8668,475.7
169.8903,126.5
169.8935,396.1
169.9679,280.3
169.9859,6449.3
169.9908,38.5
169.9944,131
170.027,23.3
170.0327,6570.9
170.056,109
170.0616,606.4
170.0926,372.3
170.1265,691.1
170.1421,176.3
170.1627,250.4
170.1723,158
170.2031,110.2
170.252,178.2
170.2881,687.5
170.2958,491.7
170.3116,198.5
170.3327,253.3
170.3771,605.7
170.3792,182.1
170.4208,89.9
170.4563,18.2
170.4928,280.6
170.5733,255.7
170.6166,17.4
170.6502,154.2
170.6703,19.6
170.7292,526.5
170.7334,670.3
170.7657,18.3
170.7698,318.6
170.8425,216.8
170.8544,4975.1
170.8915,396.1
170.9109,132.6
170.914,99.1
170.9277,145.4
170.9955,22.8
170.9977,23.6
171.0168,2343.8
171.0282,219
171.0841,19.8
171.1055,657.3
171.1745,115.5
171.2414,183.7
171.2659,587.3
171.3018,141.5
171.3448,363.6
171.4188,294.6
171.556,249.7
171.6026,16.8
171.6095,564.1
171.6506,216.9
171.8307,227.7
171.9024,173.7
171.9108,21.2
171.9582,402.9
171.9646,18.2
172.0282,895.4
172.1963,19
172.2362,119.1
172.2994,121
172.3434,113.5
172.3625,227.8
172.5289,219.3
172.5611,129.3
172.6017,163.6
172.6077,157.2
172.6599,20.6
172.6653,135.3
172.7332,217.8
172.7859,211.9
172.7909,867.5
172.8478,370.7
172.8515,2673.2
172.8709,147.4
172.8992,78.3
172.9044,525.5
172.9275,174.7
172.9673,894.8
172.983,20.7
173.0121,16.8
173.0268,299.7
173.0955,316.2
173.119,683.4
173.2834,715.5
173.2879,101.1
173.3732,16.7
173.4044,110.5
173.4207,110.9
173.424,176.2
173.437,366.4
173.4814,643.4
173.5099,18.1
173.5439,245.1
173.6883,17
173.7323,249.3
173.7492,180.2
173.7544,284.4
173.7569,142.4
173.7646,619.6
173.8705,343.2
173.8995,25.8
173.9392,126.6
173.9502,172.5
174.0004,70.5
174.0459,647.6
174.0501,593.8
174.0658,124
174.103,230.7
174.1328,143.2
174.1748,164.7
174.1834,153.7
174.1903,215.6
174.2246,732.6
174.236,613.4
174.2563,323.5
174.3041,156.4
174.3081,98.9
174.321,21.8
174.3469,746.9
174.3873,123.5
174.4149,279.5
174.4298,114.1
174.4575,241.2
174.4768,200.3
174.4943,179.7
174.5648,21.1
174.5974,162
174.6623,166.6
174.6702,209.8
174.6897,678.5
174.7428,290.6
174.7901,123.9
174.8315,108.6
174.8557,183
174.8861,154.7
174.9002,123.3
174.911,112
174.9381,6170.2
174.969,23.6
175.0032,934.5
175.0342,5082.3
175.0454,3553
175.0841,158.5
175.1103,122.7
175.119,108623.4
175.1238,150.1
175.1386,720.3
175.194,115.3
175.2475,345.6
175.3256,248.9
175.3363,298.5
175.3698,467.5
175.4026,191.7
175.4322,227.9
175.5737,743.3
175.609,19.4
175.6661,626.4
175.6882,130.4
175.6949,19.8
175.7295,500.1
175.841,387.1
175.8482,265.7
175.9364,19.4
175.9491,163.5
175.9617,100.8
175.9644,352.5
175.975,178.1
175.982,18.8
176.0005,84.6
176.0084,4333.4
176.014,359.7
176.0377,124.5
176.0659,14254.7
176.103,1548.2
176.1224,754.9
176.1772,220.3
176.2399,309.1
176.2464,231.6
176.2592,384.5
176.4317,317.7
176.5054,312.9
176.526,91.5
176.577,413.7
176.6129,266.5
176.6188,547.9
176.6456,133
176.7251,217.9
176.7605,117.7
176.8002,661.7
176.8782,22.8
176.8848,178.5
176.8937,154.8
176.9055,434.9
176.929,148.1
176.97,351.3
176.9927,564.5
177.0247,4097.7
177.0611,4337.7
177.0871,187.1
177.3228,180.2
177.362,190.4
177.4038,583.3
177.4462,477.6
177.452,124.8
177.5048,187.7
177.541,299.4
177.5856,106.8
177.6396,356.2
177.7126,194.1
177.7922,124.6
177.9616,166.9
177.9711,248
177.9909,331.1
177.9948,63.2
178.0087,8602.8
178.0162,36.4
178.0207,411.5
178.0242,7547.5
178.0358,268.8
178.0588,5294.1
178.077,324.3
178.0863,17.9
178.1249,179
178.1295,496.7
178.1605,276.5
178.1666,487.3
178.1724,274
178.2988,250.5
178.301,135
178.4065,596.3
178.4103,19
178.4315,323.7
178.4337,19.2
178.4705,18.3
178.5073,506.8
178.5624,427
178.7361,579
178.7855,129
178.8927,64.2
178.9219,61.8
178.9372,181.5
178.9746,21.6
179.0027,190.3
179.0098,320.7
179.0152,20.5
179.0976,227.6
179.116,18.3
179.1201,449.5
179.1386,104.5
179.1834,120.5
179.2158,168.4
179.3328,267.5
179.337,245.4
179.3549,726.7
179.3731,126.4
179.436,19.7
179.4484,457
179.4547,388.8
179.4573,157.4
179.4735,126.9
179.4917,100.2
179.536,154.1
179.6336,162
179.7536,126.8
179.8255,284.7
179.8488,18.6
179.9367,170.6
180.0033,10206.8
180.0065,702.9
180.0106,176.9
180.0253,256.3
180.0773,19.6
180.1881,17.9
180.3571,36.5
180.5263,502.9
180.544,125.6
180.5496,600
180.5582,212
180.5795,134.1
180.674,312.5
180.6824,255.1
180.6976,430.5
180.6983,446.8
180.795,530
180.7967,541.4
180.7978,466.8
180.8132,544.2
180.8829,326.4
180.8882,849.4
180.8945,2595.7
180.904,5748.5
180.9154,137.5
180.9548,399.4
180.9574,2314.1
181.0031,205.4
181.0159,58.5
181.0496,22.8
181.0649,6678.1
181.0883,250.5
181.0955,161.1
181.1189,424.7
181.1438,18.5
181.2438,628
181.2777,811.8
181.3034,472.1
181.3115,182.7
181.4171,279.6
181.4274,105.5
181.4631,854
181.4724,149.9
181.5098,444.7
181.6274,144.8
181.7072,164.7
181.7663,19.4
181.7802,331.7
181.8017,479.8
181.8383,654.4
181.8584,453.8
181.8696,19.6
181.8885,25.7
181.926,291.2
181.9869,288.6
181.9908,21.5
182.0114,21.3
182.0265,471.4
182.0424,30685.5
182.0699,613.3
182.0903,18.3
182.2082,177.8
182.2162,550.4
182.2631,96.5
182.2951,17.2
182.3638,252.1
182.4885,230.9
182.5189,604.8
182.5537,298.9
182.5786,239.1
182.6251,116.5
182.6399,95.6
182.7127,427.2
182.7759,459.5
182.8629,312
182.8942,534.4
182.9023,42.3
182.9346,19.8
182.9536,41.1
182.9671,202.9
182.9938,279.4
183.0039,599.2
183.0446,586.7
183.2984,487.1
183.3317,137.1
183.3645,116
183.4277,478.4
183.4455,18.1
183.5491,133.8
183.5719,206.6
183.6095,415.9
183.6437,19
183.6503,671.3
183.8226,486.8
183.9416,200.7
183.9649,333
184.0372,224.6
184.0397,286.7
184.0484,134.4
184.0583,384.1
184.0641,594.6
184.0682,2451
184.0734,4728067
184.0814,253.2
184.1094,200.4
184.1358,281.5
184.1819,620.7
184.2497,286.3
184.3167,240.5
184.328,458.3
184.3981,805
184.4201,184.9
184.4699,551.2
184.6991,232.1
184.7424,843.3
184.7872,17.2
184.8137,292.6
184.9092,186.3
184.9296,46.4
184.9452,127.5
185.0323,95046.9
185.0436,202
185.0703,9208.6
185.0767,222961.3
185.1168,131
185.1783,553.1
185.1877,243.8
185.3026,293.3
185.3392,137.7
185.4016,502.5
185.4682,217.6
185.4926,341.9
185.5595,16.4
185.5649,281.6
185.5704,20.6
185.6324,556.6
185.7004,173.4
185.7335,655.8
185.7553,240.1
185.7691,163.6
185.8304,424.7
185.8979,687.3
185.9491,601.3
185.9599,2190.2
185.9782,257.7
185.9917,207.1
186.0074,141.3
186.0356,1481.9
186.043,131.5
186.0745,379.6
186.0776,32685.6
186.1491,335.8
186.189,167.3
186.268,894.8
186.3079,288.4
186.436,451.3
186.5112,206.1
186.5249,115.1
186.5278,301.9
186.5784,292.7
186.7443,16.8
186.7745,570.9
186.7772,165.6
186.8673,137.6
186.8695,505.7
186.8783,56.1
186.9013,170.1
186.9121,2641.2
186.9148,30.7
186.9355,21.8
186.9693,21.7
187.0218,114
187.0304,3358.6
187.0578,1196.1
187.0673,428.8
187.0714,906.9
187.1078,5106.2
187.1233,106.1
187.128,17.4
187.146,108.8
187.1555,295.8
187.1705,167.8
187.2525,162.9
187.2689,275.7
187.4832,330.3
187.4901,547.1
187.5387,572.6
187.5555,561.8
187.5628,17.8
187.5715,19.7
187.6327,201.6
187.8791,23
187.8862,26.6
187.9116,287.3
187.9793,303.5
188.1109,22.9
188.1315,360.2
188.3233,333.3
188.3747,166.2
188.5395,330
188.5588,242.2
188.6171,304.1
188.6385,98.4
188.6951,19.3
188.753,131
188.7618,686.6
188.823,626.4
188.8259,121.2
188.877,22.9
188.9156,230.4
188.9249,41.8
188.9448,827.9
188.9582,359.2
189.0084,20.5
189.0211,70.7
189.0611,3804
189.087,7439.5
189.2325,415.6
189.2838,695
189.2936,603
189.3037,145.2
189.3843,123.7
189.4189,545.7
189.4583,257
189.4713,219.7
189.4794,20.3
189.5327,18.8
189.539,525.2
189.5606,629.8
189.6994,245.5
189.7767,490.8
189.8205,17
189.8328,116.5
189.9393,718.3
190.0055,539.7
190.0681,644
190.0934,604.4
190.1105,186.7
190.185,256.4
190.2409,124.3
190.2848,145.7
190.3872,180.7
190.5235,669.7
190.5583,588.1
190.5973,138.9
190.6375,116.1
190.6629,283.2
190.8197,755.4
190.8506,217
190.8725,707
190.8954,21
190.9098,23.6
190.9122,842.8
190.9444,18.3
190.9643,18.4
191.0002,151.7
191.0082,3450.1
191.0239,29
191.0404,115657.5
191.0768,18133.6
191.1121,304
191.1995,183.6
191.2038,242.4
191.2223,489.7
191.3528,17.6
191.4316,341
191.4653,240.4
191.4777,251.9
191.5036,229.9
191.5347,283.7
191.5414,93.1
191.5912,116.6
191.5954,287.1
191.6641,517
191.7752,17.1
191.869,755.5
191.8802,20.5
192.0116,267.4
192.0147,812.4
192.0277,17.2
192.0399,8477.9
192.0439,2365.7
192.0564,640.3
192.08,554.5
192.0947,657.8
192.0997,540.6
192.1364,291.2
192.163,19.5
192.2734,166.7
192.3704,392.9
192.3844,487.8
192.3882,256.5
192.3945,103.2
192.4036,17.1
192.4123,342.9
192.4527,19.3
192.5039,115.8
192.5826,106.4
192.613,543.7
192.6175,23.5
192.7003,17.3
192.7283,185.6
192.8633,107.4
192.8702,210.6
192.9111,51
192.9987,5080.6
193.0158,203.7
193.0352,4127.2
193.0827,127.2
193.0957,358
193.1513,308.9
193.1651,249.8
193.1888,255.3
193.2261,19.4
193.2357,431.9
193.2448,205.5
193.264,21.3
193.3446,656.6
193.4003,300.9
193.4731,395.8
193.6172,317
193.6199,172.6
193.6357,17.7
193.6636,617
193.6766,167.8
193.7054,440.9
193.7878,18.9
193.878,110
193.9981,1682.5
194.0101,671
194.015,17.7
194.0327,2904.6
194.0571,198.7
194.0841,118.6
194.1045,605.5
194.1193,156.7
194.1538,166.1
194.194,609.6
194.2501,209.6
194.2885,150.1
194.3383,613.3
194.3629,140.6
194.4397,450.8
194.4504,168.6
194.5038,136.4
194.5617,313.3
194.5989,184.6
194.6069,141.4
194.6939,20.9
194.7085,114.1
194.9038,281.3
194.9498,19.2
195.0112,27.3
195.0175,365
195.1038,115.8
195.1571,160.5
195.2173,153.9
195.2271,303.5
195.2614,202.2
195.2932,626.8
195.3653,318.1
195.3709,445.5
195.3755,101
195.416,23.3
195.4396,170.2
195.5398,681.9
195.5577,453.1
195.608,136
195.6922,590.6
195.708,545.2
195.729,395.2
195.7673,346.6
195.7696,165.8
195.774,162.5
195.8239,222.5
195.8301,141
195.9303,132.8
195.9773,698.3
195.9813,26.7
196.0223,686.3
196.0709,458.9
196.0792,368.9
196.1219,276.3
196.1698,201.9
196.5043,476.6
196.5264,805.8
196.5996,172.6
196.6892,704.7
196.7413,323.8
196.7541,528.3
196.7591,17
196.8652,6061.1
196.8688,415
196.8782,1952.7
196.9114,323.1
196.9324,193.5
196.9741,267.7
197.0125,26.5
197.0356,578.7
197.0524,202.7
197.0821,22.7
197.1013,456.5
197.1088,145.6
197.1267,131.4
197.1792,111.5
197.2114,207.4
197.3484,18.7
197.4,297.9
197.4368,17.9
197.441,756.8
197.4735,188.3
197.5092,534.3
197.5219,288
197.5559,172.2
197.7226,330.7
197.751,127.4
197.8654,207.6
197.8706,18.9
197.8911,31.9
197.9128,536.6
197.9434,338.8
197.9599,543.8
198.0164,530.1
198.0605,690.4
198.0849,13497.3
198.0887,668.7
198.1853,4784.7
198.262,21.3
198.3972,108.7
198.4211,175.7
198.442,229.5
198.5437,123.1
198.6223,241.1
198.6293,564.2
198.6502,401.3
198.695,17.6
198.847,213.9
198.8543,55
198.8623,4319.8
198.8998,98.3
198.9159,526.9
198.9515,173.2
199.0165,175.8
199.0214,17.1
199.0386,452.2
199.0449,111.5
199.0507,289.6
199.0688,1253.5
199.0756,816.7
199.0801,30.5
199.1521,373.7
199.1886,239
199.198,239.8
199.2098,209.6
199.2416,139.5
199.286,116.5
199.327,118.2
199.3712,952.3
199.4197,183.7
199.7705,340.8
199.7962,621.7
199.8106,138.9
199.8605,386.5
199.8794,125.7
199.906,286
199.9291,146.2
199.9339,122.9
199.9838,573.9
199.9907,37531.1
199.998,641
200.0408,12375.5
200.0624,159.3
200.1428,385.2
200.254,92.7
200.2832,712
200.3259,180.7
200.3335,12779.7
200.3489,536.3
200.3858,152.4
200.4178,19
200.4842,300.8
200.5389,88.7
200.5533,580.8
200.6189,383.1
200.6417,20.8
200.7275,183.6
200.7333,399.4
200.8594,1192.1
200.8941,1994.9
200.9471,18.1
201.01,226.1
201.0349,718
201.0482,468.7
201.0545,436.7
201.059,350
201.0686,123.3
201.0871,155
201.0938,109
201.0974,161.5
201.1236,182.3
201.1642,642.3
201.3131,477
201.3176,191.7
201.4192,346.2
201.4348,21.5
201.4585,19
201.4908,20.5
201.4962,346.4
201.5466,239.2
201.626,486.8
201.712,18.8
201.7948,19
201.8648,206.7
201.8944,187.7
201.9339,2423.3
201.9955,173
202.0084,266.3
202.0119,734.9
202.016,21.8
202.0475,801.1
202.1254,101.5
202.2539,210.1
202.5249,102.3
202.5937,136
202.6607,16570
202.6887,371.4
202.6951,105.1
202.7416,137.9
202.7591,566.4
202.7978,194.2
202.8729,21.8
202.8951,96.2
202.9235,258.5
202.9403,624.7
203.0084,358
203.027,745.1
203.0322,452.4
203.0527,1045374.9
203.0598,308
203.0768,7896.3
203.1026,527.3
203.1256,695.7
203.1711,434.2
203.235,360.9
203.2806,503.2
203.3319,152
203.3991,18.2
203.4121,23.5
203.4574,264.8
203.4661,274.2
203.4991,123.5
203.5786,167.1
203.617,124.7
203.622,192.9
203.6291,99.6
203.6383,584
203.6469,21.7
203.6605,313.5
203.6785,117.4
203.8635,16.5
203.9115,118.7
203.9457,18.6
203.9691,99.5
203.9823,433.7
204.0244,44697.6
204.0319,91.4
204.0357,126.6
204.0424,216.9
204.0561,53179.5
204.0869,1361.7
204.1187,526.1
204.1975,232.4
204.2484,570.8
204.2555,169.8
204.3467,111.2
204.5,105.4
204.5485,298.4
204.7037,151
204.7343,349.8
204.7414,21.9
204.799,204.6
204.8299,540.8
204.8887,400.8
204.9362,17
204.9409,685.9
205.0277,280.9
205.0571,6840.7
205.0836,29.9
205.1186,120.8
205.1704,160.8
205.2767,179.3
205.294,178.3
205.5265,162.7
205.7896,757.9
205.8672,718.4
205.8956,799.1
205.9088,171.3
205.9158,108.1
205.9584,114.5
205.9628,109.6
205.9784,204.4
205.9866,17.4
206.0085,113.9
206.0274,23
206.0477,110.6
206.1694,266.2
206.1853,482.8
206.3026,22.6
206.3785,115.1
206.3891,131.4
206.3999,143.7
206.4228,102.4
206.4977,215.5
206.6466,215.9
206.663,456.1
206.7109,20.1
206.7952,249.5
206.8677,472.4
206.8806,524
206.8878,214.3
206.8941,18240.3
206.9051,184.9
206.9168,249.8
206.9255,175.6
206.9386,19.9
206.9554,18.7
206.979,657.2
206.9823,2057.3
206.9979,157.2
207.0144,87890.1
207.0179,578.8
207.0317,79
207.0417,357.6
207.0442,1186
207.0507,9172.9
207.1222,670.9
207.175,16.2
207.1768,17.6
207.2034,143.9
207.233,123
207.3125,179.6
207.3303,405.4
207.3901,194
207.4013,147.8
207.4147,389.4
207.425,612.3
207.5502,508.8
207.5622,532.6
207.5863,290.6
207.5955,259
207.6215,207.7
207.6594,431.8
207.6613,579.4
207.662,584.4
207.7091,195.8
207.7188,147.2
207.795,142.6
207.8028,507.3
207.8864,125.7
207.9245,18.7
207.984,382.2
207.9905,810.4
207.9975,363.6
208.0047,255.9
208.0136,1569.2
208.0177,2761.6
208.0293,114.4
208.0604,230
208.074,287.5
208.0893,466.7
208.1205,162.1
208.1753,521.7
208.3677,118.2
208.4673,99.8
208.4786,310.7
208.6162,261.6
208.6738,559.5
208.7597,1477.2
208.8579,637.8
208.8832,1890.1
208.8911,11844.4
208.8962,246.6
208.9386,493.9
208.9585,338.3
208.9815,128.8
208.9964,117.3
208.9991,178.6
209.0125,4809.3
209.0322,147.6
209.1618,135.4
209.2704,284
209.3832,181.7
209.4534,653.6
209.4561,133.5
209.4707,155.6
209.4763,216.8
209.6001,17.1
209.6267,264.5
209.6494,18.3
209.978,28.6
210.3681,20
210.6371,132
210.7355,705.5
210.7542,165.8
210.7792,89.3
210.7826,622.5
210.857,724.1
210.8883,830.8
210.9778,591.4
210.9865,313.9
211.0564,225.2
211.0691,1237.2
211.0922,818.6
211.1155,133.7
211.2254,598.8
211.2695,548.4
211.3039,381
211.3368,22385.8
211.3405,17716.2
211.3443,26509.3
211.3472,28551
211.3489,28255.5
211.3565,8165.3
211.3604,9046.6
211.3633,1596.8
211.4701,255.1
211.5536,300.6
211.5557,750.3
211.5606,939.6
211.6258,115.3
211.7254,19.7
211.7345,103.4
211.7494,142.6
211.7865,20.3
211.7964,653.4
211.8002,548.2
211.8484,565.1
211.9459,190.8
211.959,84.3
211.9667,71.6
212.0014,106
212.0258,205.6
212.0443,718.3
212.0741,107.9
212.1364,175.5
212.3387,323.3
212.4432,197.9
212.4864,354.9
212.5812,633.3
212.5996,727.5
212.6592,17.7
212.7394,205.1
212.7753,106.8
212.8392,1160.6
212.8555,383
212.8589,277.7
212.8798,147.7
212.9154,20.4
212.9652,25.4
213.0323,40.5
213.0549,744.4
213.075,1005.7
213.0893,20.7
213.1906,39.4
213.2165,115.8
213.2413,726.8
213.2493,579.2
213.2538,279.2
213.2746,16.7
213.3665,110.2
213.4443,598.7
213.4707,155.7
213.4813,178.9
213.5084,140.5
213.6799,198.7
213.7926,408.2
213.8233,176.7
213.9621,2793.1
213.9847,206.9
214.0062,405.6
214.0093,17.5
214.059,17413.9
214.0898,1113.8
214.2419,109.8
214.2468,204.6
214.2795,28.2
214.3094,382.7
214.3187,309.7
214.4072,369.7
214.4147,148.4
214.5392,21.5
214.7747,577.2
214.7825,429.7
214.8362,1321.8
214.8734,233.2
214.9066,91.9
214.91,412.7
214.9177,27.7
214.9655,83.4
215.0197,783.3
215.059,213.8
215.1078,423.2
215.119,220.1
215.1222,261.8
215.1946,337.2
215.2037,775.5
215.2753,17.7
215.3081,256.3
215.4488,225.5
215.4787,177.4
215.4945,442.5
215.67,19
215.7814,247.6
215.791,350.7
215.8419,525.3
215.8808,24.2
215.8964,741.6
215.9102,28.8
215.9135,892.6
215.924,20.8
215.9341,205.9
215.9399,165.3
215.9518,138.5
215.9576,30
215.988,211.6
216.0082,239.9
216.0148,9723.2
216.0282,424.8
216.051,120.8
216.1266,639.4
216.1376,21.5
216.1532,547.1
216.3886,541.6
216.4682,18.8
216.6088,424.3
216.6284,132.3
216.8891,23.6
216.9151,182.8
216.9229,43878.8
216.9274,380.2
217.0178,18.8
217.0333,459.8
217.0555,184.8
217.1374,258.2
217.1756,391.9
217.1917,806
217.2871,359.4
217.3118,796.9
217.3869,406.7
217.4065,383.6
217.4184,952.1
217.4418,787.4
217.5577,1017
217.6312,266.5
217.6512,504.3
217.7222,105
217.7847,488.5
217.8433,236.4
218.0115,20.9
218.0128,21.8
218.0967,268.9
218.1157,131.4
218.1407,129.7
218.1517,21.5
218.1966,222.4
218.2614,19.8
218.2774,158.5
218.3237,743.6
218.4313,210.2
218.4361,18.6
218.4652,537.2
218.4753,526.9
218.5667,310.9
218.7771,411.5
218.789,560.3
218.8677,202.9
218.9046,330.9
218.9199,12464.4
218.9574,136.2
219.0181,493.3
219.0267,1332443.1
219.0455,106.5
219.083,7991.4
219.1028,111.9
219.127,18.3
219.1319,169.7
219.2528,96.8
219.2657,307.4
219.3097,107.7
219.4286,708.5
219.4916,104.1
219.5866,17.5
219.6259,574.5
219.7139,150.4
219.7654,18.3
219.905,28.6
219.9455,276
219.9859,510.1
219.9984,139.3
220.0063,33.9
220.03,68900.5
220.0372,1205.5
220.067,9527
220.121,734.2
220.1674,485
220.2195,651.6
220.2375,480.1
220.3707,120.3
220.4228,415.2
220.4788,702.7
220.573,125
220.6613,368.3
220.6744,394.4
220.6877,173.8
220.753,252.7
220.7946,184.7
220.8677,599.8
220.8834,37
220.9038,79.9
220.933,45.2
220.9437,779.8
220.9583,121.9
220.9652,166.5
221.0188,881.8
221.0248,76645.9
221.0309,9144.4
221.051,708
221.0848,507.7
221.1709,30.4
221.242,89.3
221.3108,203.7
221.4108,21.2
221.4494,319.8
221.5247,118.4
221.6476,214.9
221.6751,245.5
221.7585,18.2
221.9022,19.5
221.9277,197.7
221.9565,85.2
221.9839,2215.3
222.0281,2055.7
222.0782,252.5
222.2244,165.8
222.3239,19.2
222.3927,263.9
222.4256,626.5
222.4407,123.1
222.4743,280.1
222.4778,126.5
222.5196,445.9
222.6407,19.5
222.7566,16.7
222.7845,222.3
222.8552,17.9
222.868,16627.9
222.877,211.3
222.8988,479.1
222.9223,19.3
222.954,1035.2
222.9883,7712.1
223.0247,1306.6
223.0384,780.5
223.0544,319.8
223.0644,54.8
223.076,399
223.0789,18.9
223.107,468.5
223.1385,181
223.2711,648.8
223.39,392.9
223.4782,236.8
223.5036,876.3
223.56,20.2
223.5926,551.7
223.6323,301.6
223.6724,777
223.7195,836.5
223.7661,174.5
223.8447,173.1
223.8964,407.3
223.9533,27.5
224.0296,4113.7
224.0858,641.1
224.1172,246.3
224.3039,101.3
224.3509,133.4
224.3926,156.7
224.4576,219.8
224.4944,225.9
224.6409,97.7
224.6538,459.3
224.7371,794.8
224.8649,10584.8
224.9275,164.8
224.9566,24.4
224.9668,22.2
224.9709,131.4
224.9882,630.2
225.0025,569.9
225.0096,285.6
225.024,263.9
225.0419,278.5
225.0497,555.2
225.0548,23927.6
225.0848,498.3
225.1217,482.4
225.15,298.1
225.1615,216.1
225.2869,183.9
225.3248,362.9
225.3536,274.2
225.4429,128.2
225.4597,1010.4
225.4809,432.2
225.5436,134.1
225.5848,245.9
225.6351,21
225.6587,182.8
225.718,88.4
225.7982,192.6
225.9227,1001.3
225.9384,51
225.9518,22
225.9619,30.3
226.002,45.1
226.0065,2985.9
226.0243,5984.8
226.0452,4254.7
226.058,243.5
226.0828,265.8
226.1681,469.9
226.1873,155.4
226.2658,251.6
226.2883,413.5
226.3197,185.7
226.374,184.6
226.3991,96.3
226.4033,115.2
226.4321,167.4
226.4392,17.3
226.4791,247.3
226.5224,210.4
226.6704,959
226.7041,399.1
226.7093,134.9
226.7435,114.5
226.8526,168.6
226.8623,371.2
226.8654,296.6
226.8935,48.4
226.9517,38050.8
227.0229,625.5
227.0344,136.7
227.043,148.8
227.0604,214.8
227.0718,819.3
227.079,493.3
227.0865,169
227.2295,124
227.2906,144.5
227.3995,184.7
227.5827,137.7
227.8036,779.6
227.9547,711.3
227.9618,359.1
228.0002,892
228.022,295.6
228.0563,1496.1
228.0697,213.8
228.1107,235.6
228.1178,154.7
228.1609,606.2
228.2434,668.1
228.3296,389.1
228.3313,393.8
228.5796,243.5
228.7069,615.8
228.8126,709.8
228.8557,421.1
228.8896,26.3
228.9109,284
228.9601,154.6
229.1254,550.6
229.151,639.6
229.1842,226.5
229.2512,110.8
229.2855,16.5
229.3897,102.8
229.4876,116.9
229.5198,374.5
229.5207,363.5
229.5222,265.8
229.5451,745.5
229.5807,197.6
229.6005,141.5
229.6482,327.7
229.6776,339.1
229.7404,470.2
229.7742,847.4
229.7771,416.6
229.8825,818.6
229.9028,132.8
229.9123,26.7
229.9571,9916.9
230.0336,114.7
230.0522,18.4
230.2372,590.8
230.2465,298.1
230.2771,291.2
230.3393,22
230.4457,376.1
230.4688,294.9
230.5229,126
230.5263,604.9
230.5938,121
230.8097,510.1
230.8728,150.3
230.8901,479.4
230.9009,680
230.9339,128.2
230.9604,367.5
230.9906,20
231.0163,136.4
231.0203,152.5
231.1299,560.9
231.1545,177.9
231.1764,337.4
231.213,173.9
231.2238,285.5
231.2419,288.9
231.3059,148.3
231.3384,190.1
231.4213,528.3
231.5147,589.1
231.5258,20.7
231.5749,230.5
231.6038,728.6
231.6158,572.8
231.6704,549.9
231.8003,674.2
231.8672,128.9
231.8978,685
231.9528,175.1
231.9575,266.8
231.9624,32.9
231.9727,199
231.9912,370.8
231.9953,156.3
232.0011,107.4
232.0462,169.5
232.1018,18.5
232.1091,131.4
232.1905,251.6
232.1969,144.2
232.2568,691.1
232.2793,600.2
232.3511,16.3
232.3698,710.1
232.6039,654.7
232.6199,156.8
232.6536,227.3
232.8071,497.1
232.8397,175.9
232.8833,99.1
232.8968,42996.3
232.9206,28.4
232.9327,170.3
233.0242,339.2
233.051,8618.5
233.1447,111.5
233.1731,737
233.1804,29.5
233.1958,406.1
233.2389,192.4
233.2475,291.5
233.2816,251.1
233.5257,620.8
233.6508,20.8
233.8034,186.7
233.8489,121.8
233.9529,118
234.1635,211.9
234.1691,19.5
234.1892,179.8
234.2062,762.9
234.6891,671.1
234.719,178
234.8161,158.4
234.863,436.8
234.8938,10722.9
234.8997,90.2
234.9817,1346.9
235.0568,2339.5
235.0666,890.9
235.0926,4520.2
235.1541,322.2
235.1985,456.2
235.2189,223.6
235.2357,245.6
235.2428,732.7
235.3458,179.2
235.3895,187
235.4466,387.2
235.4699,554.3
235.5869,225.1
235.6362,218.4
235.8468,226.4
235.8617,650.1
235.9531,309.4
235.9682,169.8
235.979,103.2
235.9822,20.3
236.0215,272.8
236.041,3693.9
236.0718,55548.1
236.108,552
236.1953,19.4
236.2526,327.4
236.3797,260.8
236.7639,801.3
236.8046,349
236.8245,604
236.8683,130.3
236.8781,377.7
236.8924,343
236.907,25
237.0021,108.9
237.0521,133.4
237.0576,21.4
237.0714,124.3
237.0752,2172.7
237.4246,596
237.5535,20.2
237.564,18.2
237.7369,103.2
237.954,536.4
238.0597,128.9
238.0675,779.6
238.0782,49.7
238.0968,334.4
238.1803,593.4
238.3881,148.4
238.4119,181.4
238.4939,21.9
238.5389,294.3
238.5677,478.1
238.753,135
238.7639,211
238.7872,16.1
238.8008,181.8
238.8214,170.4
238.8419,6804
238.8531,474.7
238.9186,103.2
238.9432,119
239.0091,4483.3
239.0487,416.6
239.0532,149.9
239.0639,1244.7
239.0677,1702.3
239.0958,23.1
239.1612,403.7
239.2004,263
239.2149,460.3
239.2326,385.4
239.2354,19.7
239.3848,260.4
239.4471,128.1
239.5004,115.5
239.5906,197.7
239.6168,207.5
239.63,17.3
239.6401,713.1
239.7278,573.3
239.7405,207.8
239.791,308.1
239.8157,203.6
239.9575,728.8
240.0037,3421
240.0178,20.9
240.0958,632.1
240.1006,22.6
240.1675,142.2
240.3339,23.3
240.4093,437.7
240.4573,196.2
240.5434,23.9
240.6,385.6
240.8389,3185.5
240.9548,2752.7
240.9767,233.8
241.049,151.6
241.1397,222.9
241.1725,782.1
241.2731,564.6
241.2833,690
241.3078,99.1
241.309,98.8
241.3282,199.1
241.3319,157.6
241.3392,17.8
241.3432,174.1
241.3517,487.2
241.3739,802
241.5096,360.1
241.742,101.6
241.8568,86
241.9142,598.8
241.9704,17.7
241.9774,66.8
241.9906,143.3
241.9979,1251.8
242.0192,1700.9
242.0677,249.1
242.1964,398
242.3196,20.6
242.7989,159.9
242.814,24.9
242.874,131.6
242.9257,23224.5
242.9655,41.1
242.9758,26.6
243.0064,64.4
243.0194,524.2
243.0328,280.6
243.0532,9611.7
243.0654,7523.6
243.1039,718.5
243.1243,153.9
243.3456,112.3
243.4818,150.3
243.5272,20.8
243.5473,182.8
243.5775,640
243.6626,684.9
243.7082,432.1
243.8471,205.8
243.8785,122.2
243.9144,418.1
243.9583,19.4
243.9727,3414.5
244.0127,162.9
244.0736,20.6
244.0917,19.9
244.1634,21.5
244.2189,22.1
244.3399,18.3
244.4354,152.5
244.4526,189.1
244.4713,155.6
244.5852,18.9
244.5965,164.8
244.646,19.7
244.6505,450.5
244.6657,20.5
244.6939,288.4
244.702,788.1
244.7183,130.2
244.787,510.1
244.817,633.4
244.8706,4959.2
244.976,167.1
245.0134,19.2
245.0244,316.3
245.1165,401.7
245.3787,628
245.5275,18.3
245.5338,311.9
245.5875,22.1
245.8442,222.6
245.9168,673.6
245.9688,45.6
245.9733,72.9
245.9884,106.6
246.0011,80.1
246.0612,176.4
246.0855,396.1
246.1482,332.5
246.3301,180.2
246.4089,587.7
246.4422,216.2
246.4655,494
246.665,18.5
246.6687,119.9
246.6913,321.9
246.7322,667.8
246.744,18.8
246.7928,139.8
246.8135,574.1
246.83,243.3
246.8625,514.2
246.8677,985.3
246.9516,1982.6
246.9931,126.9
247.0369,258.5
247.0414,472.4
247.0666,1301.1
247.0926,2199.9
247.0977,176
247.1456,17.7
247.4821,19.1
247.7182,470.3
247.7841,280.9
247.8072,783.9
247.8433,297.9
247.9676,712.2
247.9746,223.4
247.9833,952.8
248.0308,607.2
248.0552,515.3
248.0561,514
248.0747,199.1
248.1243,15507.3
248.1428,101.3
248.1458,19.2
248.2395,121.5
248.2413,257.9
248.2425,276.6
248.3842,320.8
248.5545,21.4
248.6076,259.7
248.6337,183.8
248.6518,192
248.7049,783.4
248.7815,728.7
248.8498,19.1
248.8708,13105.2
248.881,522.6
248.8957,335.9
248.9008,264.5
248.9156,147.9
248.9329,179.1
248.9484,129
248.9596,1147
248.988,423.9
248.9981,1006.9
249.0119,275.8
249.016,1261
249.032,167.8
249.0613,11134.8
249.1191,170.4
249.1273,729.3
249.1725,18.4
249.2191,180.5
249.2877,361.5
249.2939,186.2
249.3162,465.3
249.4211,736.5
249.5994,18.1
249.6429,163.9
249.6774,422.7
249.7425,388.3
249.7774,21.6
249.8866,43.7
249.8906,156.5
249.8964,19.4
249.9199,20.4
249.9393,208.1
249.976,314.4
250.038,1490.1
250.0812,152.5
250.1505,145.2
250.3152,104.8
250.3472,18
250.3593,134
250.3742,337.6
250.3778,102.7
250.478,21.3
250.6,256.9
250.7358,197.1
250.7582,130.1
250.8483,679.1
250.8679,1660.9
250.8938,143.4
250.9131,153.2
250.9201,920.8
250.9559,1109
251.0344,222.4
251.0756,403.6
251.1773,127.4
251.2321,175.6
251.28,325.2
251.6621,498.5
251.7172,129.9
251.738,443.8
251.833,21.9
251.9514,19.9
252.0354,165
252.0457,122732.3
252.2147,198.7
252.2329,105.3
252.2979,277.1
252.3073,533.2
252.323,732.5
252.4296,501.4
252.5613,288.4
252.5752,181.5
252.6363,95.5
252.7466,573.3
252.9104,43.3
252.9463,287.6
252.9514,20.5
253.0174,733.4
253.049,8532.5
253.1531,270.8
253.1934,456
253.2563,149
253.3119,125.5
253.3518,816.6
253.3896,137
253.6651,897.6
253.6831,419.9
253.7251,790
253.8147,821.8
253.905,471.9
253.9158,648.3
254.0043,121.5
254.0124,116.3
254.0356,432.8
254.0438,2184.1
254.0749,294.4
254.3434,382.7
254.4346,513.8
254.4632,569
254.4861,582.1
254.6984,174.8
254.816,1259.1
254.8239,7579.7
254.8882,237.9
254.9012,244.6
254.9464,460.9
254.9655,114.5
254.9862,140.9
255.033,33035.1
255.0379,2061.1
255.0966,342.7
255.1262,20.7
255.1762,19.3
255.329,129.4
255.4077,595.4
255.4139,178.8
255.5881,637.6
255.7358,215.7
255.7964,751.6
255.978,806
256.0034,2333.3
256.0554,19.1
256.0584,49.4
256.1097,319.6
256.1227,319.7
256.2922,796.1
256.3461,20.6
256.3964,183.5
256.584,20.9
256.6042,316.3
256.6308,154.7
256.7136,645.9
256.8209,10534.9
256.9,433.9
256.9561,189
256.9814,35.2
257.0222,231
257.0254,112.8
257.0487,6762.6
257.0649,682.4
257.0746,48946.1
257.0897,252.7
257.125,104.2
257.1983,186.2
257.3213,21.8
257.4245,19.2
257.4923,310.1
257.4984,165.7
257.5892,637.4
257.742,807.9
257.8146,105.6
257.8471,139.1
257.86,772.6
257.9183,171.8
257.9308,20.3
257.9458,230.3
257.9521,279
257.9884,105.7
258.0299,502.4
258.0779,1089.5
258.1103,23172.2
258.1542,287.1
258.226,121.8
258.3916,389.9
258.4366,426.3
258.4519,208.7
258.4773,590.8
258.5164,18.1
258.8181,3803.1
258.8762,377.9
258.892,20.2
258.8997,4330.4
259.0281,392.7
259.1098,567.6
259.118,589.6
259.1555,131.8
259.2074,20.6
259.3779,750.7
259.5364,167.3
259.6286,117.1
259.7268,387.3
259.8121,653.4
259.8252,678.8
259.9252,805.1
259.9633,192.3
259.9951,246
260.0736,315.8
260.0946,264.9
260.1013,260.9
260.2443,365.2
260.3977,877.8
260.4343,18.2
260.4742,540.2
260.4811,127.3
260.4935,23.5
260.5073,426.2
260.5612,858.2
260.6859,245.8
260.7798,708.8
260.7928,276.8
260.8447,2236.5
260.8545,23.9
260.9266,292.5
260.9493,4149.7
261.0567,659.1
261.0754,146.4
261.331,181
261.3582,197.8
261.4642,689.7
261.5105,201.3
261.7662,202
261.7725,679.8
261.7929,19.7
261.7994,533.6
261.9833,276.8
262.0818,3681.3
262.1328,162.2
262.2363,182.2
262.3461,413.9
262.4152,702
262.5181,160.7
262.7732,164.4
262.8372,198.5
262.8964,18.1
262.9313,25.4
263.0321,411.8
263.0856,2120.6
263.1241,626.2
263.2586,158
263.323,403.3
263.4925,548
263.5521,649.4
263.7194,145
263.7353,406.8
263.8002,476.4
263.811,20.5
263.8152,385.7
263.8507,244.1
263.8854,126.9
264.0395,671.3
264.1335,402.5
264.1696,200.3
264.5851,188.6
264.6179,683.6
264.6958,120.5
264.8447,1926.8
264.8527,5335.5
264.8731,153.1
264.9336,2052.8
264.9732,1004.7
264.9885,9075.2
265.0159,31.8
265.0352,7172.4
265.0472,2312.2
265.3721,373.3
265.4173,236.6
265.4868,127.9
265.781,298
265.8133,672.3
265.827,202.8
265.834,487.3
265.9042,181.8
265.9401,475.8
265.9576,188
265.9784,376
265.9927,24
266.0131,398.7
266.104,346.2
266.2015,539
266.2366,118.8
266.3301,175.9
266.3587,638.2
266.3708,413.5
266.3845,20.7
266.5111,17.4
266.5374,112
266.5436,19.5
266.5795,772.9
266.7018,17.9
266.7744,293.3
266.8499,5463.4
266.9238,927.2
266.9329,114.9
266.959,83.8
266.999,105.1
267.0906,597.6
267.1974,138.6
267.252,295.1
267.5361,373.3
267.6435,571.8
267.6477,513.9
267.6694,355.7
267.7737,115.8
267.9562,143.2
267.9738,95.4
267.9939,858.8
268.0088,62
268.0295,685.1
268.1703,183.1
268.3214,844.1
268.3536,450.5
268.3933,571
268.4038,149.2
268.4324,305.3
268.6411,191.4
268.7049,159.6
268.811,124
268.8467,876
268.8629,46.8
268.9978,42.1
269.0194,119.9
269.028,391.2
269.0363,381.3
269.0487,46274.2
269.0744,196.9
269.119,17.7
269.2278,189.3
269.5326,310.2
269.5429,177.6
269.8315,128.7
269.9525,25.1
269.956,504.9
269.9895,337.7
269.9935,973.5
270.0097,83.3
270.0248,17950.3
270.0473,23270.2
270.0519,450
270.1453,1930.8
270.301,219.6
270.4097,124.4
270.5048,180.5
270.5349,166.1
270.6837,405.7
270.7697,231.4
270.798,4444.6
270.8133,220.5
270.8612,205.6
270.9034,736.8
270.978,6567.4
271.007,414.9
271.0281,1246
271.0508,210.4
271.0544,107
271.0902,3409.5
271.1693,207.3
271.1874,296.6
271.2394,203.6
271.4667,130.9
271.4955,181.3
271.5343,266.7
271.5794,145.6
271.5942,164.8
271.7909,583.1
271.801,282.6
271.8301,306.5
271.8647,149.5
271.8801,165.4
271.9084,27.6
271.967,199.4
271.9787,343.4
271.9877,807.2
272.005,39.6
272.0206,481.2
272.0288,20.6
272.0306,20
272.0321,19.5
272.0433,54.8
272.0805,159.2
272.231,558.7
272.4405,116.7
272.4872,175.5
272.5172,669.9
272.7394,275.2
272.795,6992.5
272.8203,369.3
272.8244,24
272.8763,714.6
272.9363,176.3
272.9956,208
273.0246,269
273.0487,2790.4
273.1262,855.7
273.186,110.8
273.2211,137
273.3002,303.3
273.3562,126.3
273.3607,397.8
273.3619,435.2
273.3642,240.5
273.4317,109
273.5329,341.5
273.6152,107.9
273.627,122.5
273.6457,118
273.6706,481.7
273.7996,275.3
273.8089,140.5
273.8701,601.1
273.9625,13560.1
274.0128,117.9
274.0684,19.3
274.0925,3033
274.1045,165.6
274.1613,136.5
274.2293,399.5
274.3474,122.7
274.3555,498.9
274.5702,648.4
274.7919,1376.8
274.8504,264.9
274.879,17.3
275.1297,20.8
275.1479,470.5
275.1709,836
275.1763,531.4
275.2522,448.1
275.3625,934.4
275.3708,530.3
275.5013,511.1
275.6826,582.2
275.7052,667.3
275.7126,464.1
275.8997,748.6
275.9553,142.1
275.9637,374.7
276.0031,124.2
276.0171,221
276.0853,31.8
276.0947,132.5
276.2523,108.5
276.274,579
276.3998,201.8
276.4535,689.5
276.6432,557.1
276.6515,816.1
276.6977,567.8
276.7639,21.3
276.9102,70.2
276.9231,2830
276.9691,21.2
277.0074,837.1
277.0622,17.4
277.1562,643.6
277.1594,991
277.1799,278.3
277.206,238.7
277.2944,532.9
277.3488,466.8
277.4512,26.3
277.6509,296.1
277.8279,184.4
278.0083,282.8
278.0191,264.4
278.1111,485
278.1858,504.5
278.4829,749.6
278.639,267.5
278.7032,123.7
278.7717,590.9
278.8167,380.7
278.8889,58.8
278.9879,963.1
279.0043,1116
279.0566,38400.2
279.3298,156.6
279.6978,793
279.7074,144.9
279.7931,320.8
279.811,536.3
279.8156,143.5
279.8878,201.8
279.8984,156.9
279.9035,309.4
279.9142,148.1
279.9246,1503.4
279.9379,334
279.948,474.4
279.9897,497.3
279.9989,35.6
280.012,413.8
280.0157,166.9
280.0532,177.6
280.0608,175.5
280.0922,407
280.1676,325.1
280.2112,117.1
280.4858,154.3
280.612,292.4
280.7275,330.4
280.813,30.7
280.8268,1540.2
280.8434,603.2
280.8688,99.2
280.9293,275.5
281.0086,807.3
281.0516,688.3
281.0788,180.1
281.1158,179.5
281.2379,19.4
281.5245,121.5
281.5527,144
281.5689,143.9
281.5946,129.3
281.6311,385
281.6878,357.3
281.9055,253.4
282.0136,765.3
282.0522,121.9
282.0627,303.8
282.0647,281.7
282.1447,242.5
282.1775,246.7
282.3202,442.9
282.3815,111.4
282.4236,117.3
282.4569,361.1
282.5216,18.5
282.6476,631.9
282.6567,657.4
282.7491,123.6
282.7825,320.2
282.8051,197.8
282.8112,212.2
282.8238,2181.6
282.8445,576.5
282.8791,344.8
282.9998,162.4
283.0283,1416.2
283.0413,204.8
283.0654,24.1
283.085,21.9
283.2635,24.6
283.3025,211.6
283.4587,675.8
283.5755,130.9
283.6661,141.5
283.6764,105.2
283.7838,99.7
283.7884,663.4
283.8572,896.9
283.9889,125.2
284.0042,87.5
284.0155,172.3
284.0246,187.9
284.0532,26.8
284.0636,680.2
284.2937,423.8
284.3642,199.2
284.3654,197.4
284.4328,543
284.5437,174.9
284.6114,258.9
284.8659,17.2
284.9016,20
284.9822,260
285.0229,231.6
285.0325,321.6
285.1052,18.6
285.197,338.4
285.4327,300.3
285.4459,232.6
285.6544,230.4
285.6797,18.5
285.6878,158.4
285.6988,339.3
285.7841,193.4
285.8256,177.2
285.8405,489.4
285.9544,138.4
286.0198,4054.7
286.0253,23.2
286.1541,23.4
286.2676,133.1
286.4708,121
286.6429,509.9
286.7719,1665.4
286.9318,342
286.9518,3446.9
286.9713,988
287.023,375.8
287.0554,30429.5
287.0788,139.8
287.1006,590.1
287.1108,556.9
287.1354,601.3
287.3033,404.6
287.347,386.7
287.3878,206.3
287.6625,123.6
287.6741,103.3
287.7425,189.5
287.7603,408.9
287.7974,156.3
287.811,24.5
287.826,372.2
287.9495,93.9
287.9963,549.7
288.0154,139.1
288.03,21.1
288.0353,224.4
288.0589,624.9
288.0853,25.4
288.1203,240.2
288.1556,39558.3
288.2264,216
288.2459,393.4
288.3171,436.7
288.4388,276.5
288.5901,132.4
288.7033,569.9
288.7044,595.4
288.7556,20.2
288.7687,2384.2
288.795,116.3
288.8433,208.3
288.8678,185
288.8843,2279.4
288.8902,2075.5
288.8991,6587.2
288.9027,6988.9
288.9078,10787.9
288.9112,9981.9
288.915,12663
288.9234,17198.1
288.9314,23258.4
288.9349,22574
288.9399,25070.8
288.945,21260.5
288.9499,23565.4
288.9571,24548
288.9646,16644.4
288.9675,17997.1
288.9836,2910.2
288.9933,1493.8
289.0038,523.6
289.0056,637
289.0078,561.6
289.0172,282.2
289.0398,114.2
289.0507,236.8
289.1194,153.2
289.1591,2257.8
289.243,19.5
289.2566,696
289.3708,230.6
289.4254,174
289.4819,711.6
289.509,707.4
289.5424,626.2
289.5583,100.9
289.6706,17.5
289.829,387.2
289.8981,17.3
289.9025,323.7
289.9367,2822.3
289.9885,213.3
290.1059,652
290.1254,427
290.3755,146.3
290.5072,115
290.6629,113.3
290.7659,415.5
290.781,1011.4
290.798,56.8
290.8107,189.2
290.8351,20.5
290.8421,213.2
290.8897,81.5
291.0144,204.7
291.0268,1711.2
291.0712,119.8
291.3339,103.7
291.4622,191.3
291.525,170.4
291.7833,115
291.8098,168.9
291.9365,17.9
291.9842,642.8
292.0339,203.9
292.0432,260.8
292.0792,192.9
292.1028,1137.8
292.1338,19.5
292.2979,300
292.3322,209
292.5188,205.2
292.5337,139.6
292.6803,123.7
292.6899,309.6
292.7384,135
292.744,169.5
292.8477,164.2
292.8967,445.2
292.9943,558.2
293.0061,686.7
293.0722,1632.8
293.0896,805.5
293.0982,231079.3
293.1789,2905.8
293.4229,156.5
293.572,625.8
293.6356,159.9
293.6787,488.1
293.7064,137.5
293.7823,882.8
293.9292,264.7
293.9373,403
293.9653,124.8
294.1016,19958.6
294.142,985.3
294.227,107.1
294.2648,19.1
294.3375,591
294.3704,221.2
294.5793,992.5
294.6091,175.7
294.7641,106
294.7713,309.9
294.8294,26.5
294.8682,681.2
294.9908,134.8
295.0254,297.5
295.0305,731
295.0557,557.2
295.103,393.6
295.1709,411
295.1946,16129.4
295.2806,122.7
295.312,171.3
295.4671,199.2
295.5163,146
295.7709,203.1
295.83,21.3
295.9855,546.9
296.0667,601.3
296.0929,385.2
296.1042,632.5
296.199,769.7
296.247,248.9
296.4467,109.3
296.504,163.5
296.5107,25.1
296.7345,129.1
296.8002,672.3
296.8105,392.2
296.8123,406.4
296.9876,77
297.0157,22.1
297.1075,37.1
297.2415,425.8
297.3299,103.7
297.461,624.2
297.5023,755
297.6244,20.6
297.7283,269.7
297.7949,286.7
297.8374,547.6
298.0252,2424.6
298.0424,14950
298.1069,650.1
298.179,426.7
298.4018,117.6
298.4111,163.9
298.6406,17.4
298.7157,262.7
298.8978,132.2
298.9044,128.5
298.9361,285.9
298.9864,18.6
299.023,1592.2
299.0398,20.8
299.0458,332.1
299.0603,233.9
299.0948,412.3
299.1106,642.8
299.1389,1214.3
299.1634,828.7
299.1707,124.4
299.1861,220.4
299.1957,909
299.2749,389.4
299.2903,688.5
299.346,349.3
299.4544,579.3
299.5349,116.5
299.5529,317.9
299.6002,121.5
299.7457,934.2
300.0355,1277.6
300.0652,127.2
300.0755,265.5
300.132,556.8
300.1957,23
300.2012,443
300.3069,18.7
300.4785,16.7
301.0118,56.2
301.0273,159.9
301.0386,25530.2
301.1415,239.8
301.2113,360.2
301.3184,440
301.5752,538.4
301.6055,643.9
301.6677,220.1
301.7871,218.7
301.8697,19.2
301.919,785.5
301.9939,8348.9
302.0116,368.6
302.0199,406.9
302.0277,858.4
302.0354,47.4
302.0424,127.5
302.0512,282.4
302.0641,2718.2
302.1443,20
302.3392,176
302.5607,124.4
302.5837,122.5
302.6244,811.8
302.6636,768.1
302.6938,507
302.7351,223.6
302.7472,1855.3
302.7513,1288.7
302.7573,202.3
302.7622,706.8
302.8204,23.9
302.8297,2628.6
302.8403,476.8
302.845,150.2
302.9256,19.9
302.9525,704.9
302.9862,582.8
302.9987,127.3
303.0674,349.2
303.0745,2404.5
303.1107,420.9
303.2175,2323.5
303.2607,534.5
303.2889,225.2
303.3362,21.2
303.4192,657.4
303.9076,205.5
303.9569,283.7
303.9859,479.4
303.9956,18.1
304.0311,22.9
304.0597,90.6
304.135,123.4
304.2903,933.8
304.3162,374.9
304.4202,277.6
304.5764,192.1
304.5923,18.3
304.6645,567.2
304.6989,168.5
304.7626,144.1
304.7775,146.3
304.8139,26.6
304.8264,853.8
304.8957,1030.1
304.9044,27.7
304.9462,192.4
304.9677,150.8
304.9893,23.2
305.0278,193.6
305.1773,640
305.2335,579.2
305.4392,658
305.8196,556.2
305.8354,251.9
305.878,966.4
305.9605,745.6
305.9831,65.3
306.0113,738.1
306.0457,499.3
306.0912,127.9
306.188,23.7
306.3819,17.1
306.6948,116.6
306.7342,134.7
306.8066,568.9
306.8418,47.9
306.8951,36.4
306.9051,644.2
306.9581,677.4
306.9775,426.2
307.0114,166.8
307.0954,253
307.1538,18.5
307.5424,407.8
307.5676,369.5
307.6096,115.8
307.7769,357.7
307.9034,119.6
307.9817,320
308.049,635
308.1952,451.3
308.2417,298.9
308.3837,95.9
308.5602,570.2
308.6843,126.7
308.7973,622.8
308.8082,207
308.8793,1022.4
308.9004,24
309.0063,82.4
309.0374,5252.9
309.0543,208.5
309.0581,540.5
309.0823,1764.4
309.1515,101.7
309.2072,132.8
309.2923,321.4
309.3177,203.4
309.3896,311.7
309.4164,307.5
309.4939,137
309.5679,21.6
309.6439,166.2
309.7393,127.7
310.0195,21
310.1269,107.4
310.2176,125.9
310.2384,372.1
310.3909,1014.6
310.6315,136.7
310.7176,299.3
310.8285,121
310.8553,103.8
310.8756,1198.6
310.993,21.1
311.0029,32.3
311.009,18.7
311.0705,323.4
311.1667,906.5
311.2264,150
311.302,666.7
311.3556,92.7
311.6399,285.3
311.7498,224.1
311.7755,123.9
311.797,641.3
311.9219,19
311.9488,810.8
311.999,90.5
312.0192,283.5
312.0409,872.7
312.1935,259.7
312.375,120.6
312.4004,954.3
312.4551,618.3
312.635,671.9
312.7683,335.2
312.837,261.4
312.8554,624.7
312.9197,726.8
312.9297,850.8
312.9919,138.1
313.0041,18.4
313.0177,205.5
313.0243,513.8
313.0307,19.3
313.062,134.7
313.072,799.3
313.1801,554.2
313.274,41173.9
313.3811,120.3
313.5162,739.8
313.5652,21.6
313.5842,93.2
313.5947,19.7
313.6294,536.6
313.6685,124.6
313.83,19
313.8791,21.5
313.957,18.2
313.9988,694.4
314.0148,4835.7
314.0912,86.7
314.096,525.1
314.1103,177.8
314.2776,3783.1
314.2909,748.7
314.7433,108.5
314.7707,749.6
314.7798,339.3
314.7979,153.8
314.8368,3941.3
314.9171,289
314.9363,530.3
314.9837,249.7
314.9991,3599.8
315.0181,409.1
315.0552,8896.1
315.0591,1519.4
315.0621,1775.2
315.0661,12641.6
315.0701,15870.2
315.0802,7642958.5
315.0899,14204.7
315.0941,5188
315.0963,3584.4
315.0985,3372.6
315.1028,2463
315.1047,2325.7
315.1129,355.8
315.1614,4093.4
315.3051,789.3
315.3236,5160.5
315.4853,251
315.6262,187.1
315.6684,291
315.8065,530.4
315.8564,544.5
315.8619,171.9
315.8885,139.8
315.9446,27.5
315.95,399.4
316.0106,93.6
316.0774,42358.9
316.0835,783191.3
316.1118,725
316.1471,19.4
316.4287,232.7
316.6389,19.5
316.6582,20.1
316.6821,268
316.7972,90.1
316.8115,111.3
316.9887,890.7
317.0564,125.8
317.0648,347.3
317.084,89097.8
317.1601,168.6
317.1712,322
317.1993,19.7
317.3338,19.3
317.4016,540.7
317.4851,280.6
317.7868,300.2
317.8082,518.4
317.8342,1145.8
317.9384,598.1
318.0876,6795.9
318.302,101.5
318.3588,19.6
318.5715,510.2
318.5893,556.5
318.7925,728.4
318.8035,1875.8
318.8301,29.7
318.8873,356.2
318.9897,689.6
319.1132,142.5
319.1208,103.9
319.1947,43386.3
319.3004,95.8
319.3665,771.7
319.4999,220.3
319.6015,253.1
319.6215,132.4
319.6292,143.1
319.7243,390.6
319.7929,21
319.7959,19.7
319.8237,126.3
320.0079,182
320.0745,20.9
320.0993,482.2
320.198,5841.9
320.2587,1843.5
320.2676,19.2
320.3963,172.8
320.4844,108.6
320.6394,258
320.8005,414.4
320.8706,225.2
320.8784,531.5
320.9521,486.5
320.9888,212.3
321.0248,342.3
321.0755,453.8
321.1056,20.9
321.1804,789
321.2104,42853.7
321.2619,132.6
321.3147,208.7
321.4847,479.9
321.5032,140.4
321.5707,212.8
321.6664,127.3
321.9126,92.2
321.9477,415
322.0091,97.5
322.0724,17.2
322.1114,358.3
322.1381,21.2
322.2137,5267.1
322.2817,179.1
322.2859,284.6
322.3713,633.7
322.5153,154.8
322.6678,409.4
322.8765,186.8
322.9317,508.7
323.0206,11582.2
323.0554,263.4
323.2214,401.5
323.2258,2152.6
323.286,101
323.3991,656
323.4308,139.5
323.791,185.6
323.9106,217
323.9281,19.1
324.0018,7035.6
324.0136,866.3
324.3313,503.3
324.4376,574.2
324.5257,153
324.6662,178.5
324.6874,4421.9
324.692,3371
324.6999,6108.5
324.7098,1084.3
324.7183,361.7
324.8181,327.3
324.8269,278.1
324.8358,303
324.9984,138.1
325.0062,139.9
325.0123,188.7
325.0568,398.9
325.2116,3152.6
325.6336,276.9
325.6398,689.7
325.6674,213.7
325.8144,431.3
326.0043,27.7
326.2144,834.1
326.2546,144.4
326.2977,158.4
326.3965,112.9
326.4439,135.5
326.5109,608.2
326.8426,348.4
326.8503,983.2
326.9386,231
326.951,228.6
326.9773,390.7
327.0156,3911
327.0519,2186
327.2274,12115.4
327.2403,17.8
327.3328,779.5
327.5693,110.8
327.7932,211.6
327.9643,184.3
328.0052,174.9
328.1002,152.9
328.4341,224.8
328.5106,557.5
328.5265,27
328.5368,150.4
328.6451,189.3
328.8144,65.9
328.8222,522.2
328.8261,189
328.8478,473.6
328.8599,169.8
328.9333,182.5
329.0959,913.7
329.1308,150.6
329.1937,727.4
329.3178,142.5
329.3602,152.3
329.4196,181.8
329.5231,213
329.6159,152.3
329.6238,334.9
329.8333,173.7
329.9198,119.7
329.9449,368.2
330.059,109.3
330.1008,20.5
330.1446,91.8
330.1986,613.5
330.2278,523.5
330.4389,20.3
330.6044,767.3
330.6808,206.7
330.7038,697.3
330.8113,198.2
330.8859,202.2
331.0195,2030.8
331.0453,72396.9
331.0541,942264.4
331.0781,90.4
331.08,91.7
331.1358,189.3
331.2076,322.2
331.3137,617.9
331.3379,238.4
331.4869,101.7
331.6911,272.3
331.7814,482
331.8385,22.9
331.8851,102.4
331.8972,22.9
332.0254,83.2
332.0481,2880.2
332.0575,87053
332.1634,798.1
332.3461,241.7
332.4804,29.1
332.6705,739.9
332.7215,673.6
332.7367,127.8
332.809,52.1
332.9088,118.2
332.9373,19.9
332.961,642.7
333.0414,187.1
333.0522,56400
333.0578,8559.2
333.0939,207.8
333.1518,886.9
333.1802,109.7
333.2011,140.1
333.539,184.2
333.6208,420.9
333.8044,118.8
333.9547,44.6
333.9603,313.3
334.0556,4002.3
334.0904,22
334.1876,307.6
334.2313,199.3
334.2625,179.2
334.3661,193.7
334.491,570.2
334.6141,20.2
334.6215,343.1
334.6231,350.7
334.8206,249.6
335.0082,107.2
335.0219,652
335.1507,180
335.1672,4419.7
335.211,134.5
335.2222,178.3
335.2311,354.5
335.2387,214
335.3684,112.5
335.3801,372.2
335.5682,849.8
335.6065,156.3
335.736,107
335.7874,259.5
335.7964,95.8
335.8921,318.6
335.9319,137.4
336.0125,45.5
336.0303,509.8
336.7934,20.1
336.8015,22.5
336.9859,465.4
337.0362,13983.7
337.0497,17749.9
337.0621,525668.1
337.1832,2368.3
337.2626,598.6
337.274,9016.1
337.3751,144.2
337.4009,141.4
337.4379,162.8
337.4525,143.4
337.4681,130.1
337.5018,240.2
337.5483,331.9
337.6367,534.4
337.6438,226.9
337.7551,283.4
338.0258,598.8
338.0655,48642.7
338.1897,144.1
338.2654,241.7
338.8568,210.1
338.9983,703.3
339.0386,1018.8
339.047,613
339.066,3922.6
339.1032,187.5
339.1625,185.4
339.1982,182
339.2896,6981.4
339.8318,212.5
339.8934,663.5
339.896,600.6
339.9668,626.9
339.9758,1137.3
340.0222,775.3
340.1365,301.2
340.1745,743.3
340.2925,624.3
340.4885,647.5
340.4978,392.7
340.5619,170.3
340.6899,163.8
340.7445,478.6
340.7831,732.4
340.7908,21.1
340.8871,477.7
340.9872,429.7
340.9988,19.7
341.0182,171.3
341.2408,130.2
341.3053,7053.9
341.4699,137.5
341.5031,292.9
341.6045,286.6
341.7875,19.6
341.8516,112.7
341.9894,233.2
342.0152,7138.7
342.1249,144.1
342.2585,549.5
342.4109,427.3
342.646,292.1
342.9081,404.7
342.9656,263.8
342.9893,1821.3
343.0496,362.8
343.0622,19.6
343.09,199.7
343.1477,18.7
343.1743,132.7
343.1861,428.4
343.1947,10643.8
343.2004,1744.9
343.2321,169.4
343.6073,18.4
343.6752,128.4
343.9325,432.4
343.9889,464.8
344.029,147.4
344.2378,18.9
344.3559,104.6
344.4297,965.1
344.9493,168.1
344.977,150.1
345.0219,700.5
345.0457,337.1
345.1396,651.8
345.1828,420.3
345.1904,324.4
345.2017,222.7
345.2105,1812.9
345.5322,115.8
345.674,252.3
345.678,557.2
345.8488,273.7
345.9241,674.9
345.958,143.5
345.9676,19.8
345.9838,49506
346.0084,252
346.0209,159.4
346.0451,180.3
346.558,18.5
346.6649,564.5
346.693,307.6
346.9875,1536
347.0032,637.7
347.0175,878
347.0244,158
347.0454,245
347.0522,682
347.4073,120.1
347.4601,122.1
347.4905,146.8
347.6489,228
347.6558,190.7
347.6802,397.6
347.708,361.6
347.7912,128.9
347.9449,414.6
347.9939,889
348.0622,107.6
348.0696,258.3
348.0728,235.9
348.1147,552.2
348.1361,105.6
348.1581,114.4
348.2995,369.6
348.4294,508.8
348.4706,228.3
348.7956,215.5
348.8144,691.6
348.9553,262.8
348.9861,18.1
349.0184,693.8
349.123,393.8
349.1683,171.1
349.2523,17.3
349.5052,298.6
349.62,169.6
349.6335,216.1
349.7614,385
349.8404,286.6
350.02,963
350.0672,239.1
350.2688,441.2
350.3305,177.7
350.6751,18.1
350.797,314.5
350.8174,227
350.8687,101.9
350.9535,723.7
351.0938,164.1
351.1789,121.3
351.449,223.4
351.5067,540.7
351.5522,18.7
351.7687,146.5
351.8163,366
351.9399,402.5
351.9547,663.3
352.0098,121.3
352.0499,401.4
352.0555,630.2
352.3088,434.5
352.3919,491.6
352.4002,405.3
352.6011,237.4
352.6225,261.9
352.8067,314.8
352.8538,116.2
352.8611,19.8
352.8976,880.1
353.0158,150.1
353.0272,124143.2
353.0361,222967.6
353.0632,370.4
353.1118,238.3
353.1943,797.1
353.3388,125
353.5256,378.9
353.5654,511.5
353.6189,125.4
353.884,715.9
353.9575,227.5
354.0303,7614
354.0394,19372
354.0995,220.6
354.1223,22.9
354.1391,681.1
354.2311,757
354.5196,131.9
354.6546,190.8
354.7605,355.7
354.7931,697
354.8952,1251.6
355.0119,608.2
355.0344,12717.6
355.0703,1286.9
355.1503,430.4
355.2275,397.6
355.4283,22.6
355.4403,201.2
355.5913,19.1
355.6289,198.6
355.8372,383.7
355.9266,18.6
356.0617,341
356.0699,400.9
356.1047,1163.4
356.2304,125.9
356.4507,242
356.5871,255.8
356.6322,125.7
356.6952,786.9
356.7011,258.6
356.8511,110
356.8968,294.8
356.9525,277.4
357.0088,366
357.0195,819.5
357.0673,36.9
357.0765,194
357.1078,146.8
357.44,182.5
357.5063,394.7
357.6964,918.7
357.7012,694.5
357.7159,783.7
357.7283,482.3
357.7913,123.3
357.8513,19.5
357.9405,20.5
357.9771,665
358.0128,21.5
358.0681,137.3
358.0834,21.4
358.0895,441.1
358.1096,20.4
358.2826,164.6
358.291,534.1
358.4249,282
358.6988,533.1
358.7181,172.4
358.7709,18.3
358.817,422.7
358.9258,594.8
358.9732,259.4
359.0076,163.4
359.0316,16174.1
359.0441,385828.1
359.0575,125.3
359.1007,266.8
359.1073,21.7
359.167,458.9
359.2401,156.9
359.2904,170.7
359.2976,19.4
359.3089,135.6
359.3168,299.9
359.35,606.7
359.3758,596.2
359.386,292.4
359.4028,1746.8
359.4202,281.2
359.428,497
359.4458,168.3
359.4529,318
359.4679,185.8
359.4777,759.5
359.8065,742.9
359.9107,105.9
360.0475,34201
360.324,4022.7
360.3416,255.9
360.52,257.9
360.7474,175.2
360.8651,129.1
360.9818,605.2
361.0036,104.8
361.0203,4823.5
361.0464,242.6
361.1535,111.5
361.2008,449.9
361.2161,143
361.274,776
361.4286,120.7
361.5392,16.8
361.7297,124
361.9288,627.7
361.9578,15727.4
362.0659,278.3
362.1437,143.4
362.2631,17.8
362.2765,181.3
362.383,17.3
362.7485,468
362.8197,37.5
362.847,252.9
362.8616,139.8
362.9271,1476.4
362.9431,220.1
362.962,173.9
363.0324,22.1
363.1026,109.9
363.1207,278.7
363.2872,172.8
363.3015,383.7
363.6303,205.5
363.8463,840.6
363.9563,174.9
363.9659,978.8
363.9971,2196.9
364.0264,20.6
364.2954,144.3
364.4106,312.1
364.5255,155.2
364.5599,200.3
364.5812,19.2
364.655,518
364.7146,284.4
364.8117,636
364.8486,140.1
364.9177,344.4
364.9355,257.7
364.9828,661.4
364.9942,121.1
365.0429,148.8
365.1056,1312.5
365.2539,339.8
365.2674,591.6
365.3602,476.6
365.4082,721.8
365.4349,349
365.59,589.7
365.7248,377.1
365.7461,367
365.8718,21.5
365.9373,287.6
365.9724,166
365.9871,28.8
366.1072,317.5
366.122,380.4
366.1401,294.7
366.1646,183.1
366.2541,610.7
366.3445,306.2
366.4861,326.9
366.5372,133.2
366.8026,153.6
366.9442,99.9
367.0492,211.7
367.1943,746.1
367.3307,22.3
367.4077,122.5
367.4462,20.3
367.9272,175.4
367.9754,583.8
367.992,817.2
368.1195,264.7
368.1269,19.1
368.1642,516.1
368.2229,19.8
368.2913,417
368.3599,315.8
368.3676,135
368.4116,442.8
368.4887,129.2
368.5701,397.8
368.6759,176.8
368.7625,136.1
368.9655,24.1
368.9925,3140.6
369.0009,13455.7
369.0098,7327.1
369.0535,118.5
369.1284,22.3
369.3495,613.7
369.4196,354
369.432,164.9
369.4446,502.5
369.6282,349.1
369.6791,19.5
369.7422,108.3
369.8244,24.3
369.8559,628
369.8885,869
370.4454,804.9
370.4859,19.4
370.616,196.8
370.7844,206.1
370.8682,557.4
371.0002,1616.8
371.0187,578.5
371.0365,227.8
371.0794,181.6
371.102,34.6
371.2921,197.2
371.4099,168.9
371.5084,107.9
371.7289,329
371.7598,452.1
371.9224,351.6
372.1962,107.4
372.5301,19.6
372.5993,24
372.6505,705.5
372.7381,375.8
372.7699,584
372.7816,580.4
372.8279,366.5
372.9004,162.1
372.9691,228.2
372.9937,104.4
373.0401,597.9
373.0917,235.1
373.1073,17.9
373.2122,104
373.2423,154.4
373.2677,121.9
373.3111,604.3
373.3552,640.1
373.6132,262.3
373.6212,299.2
373.7141,112
373.8039,277.7
373.8179,570.2
373.8761,143.9
373.8881,291.4
373.9216,451.1
373.935,257.2
373.9493,95.8
374.1193,479.8
374.3108,19
374.3232,119.6
374.3314,17.2
374.4176,372.6
374.4904,264.8
374.5541,175.7
374.5668,178.2
374.6176,627
374.8035,192.5
374.9005,450.2
374.976,255.9
375.0091,145249.1
375.018,110191.4
375.0792,20.9
375.3142,381.6
375.4822,280.6
375.5569,377.5
375.6269,239.5
375.6971,282.5
375.7222,154
375.9539,196.6
375.9652,95.8
376.0125,7775
376.0213,10112.4
376.0585,502.2
376.0898,21
376.1632,219.4
376.1913,260.8
376.2975,2344.4
376.3921,678.4
376.4132,181.6
376.8341,22.6
376.9942,1016.4
377.0165,3295.5
377.2321,191.4
377.5726,213.9
377.5885,21.4
377.6934,164.5
377.7713,433.4
377.794,227.2
377.8391,316.8
377.9322,1314
377.9376,600.5
377.9527,126.9
378.3348,126.8
378.3637,500.7
378.3971,241.3
378.4809,177
378.5431,17.8
378.5994,271.5
378.7317,328.9
378.8859,292
379.0564,728.3
379.0722,132
379.4591,21.2
379.5925,624.6
379.8067,359.3
379.9289,19
379.9765,130.2
379.999,698.1
380.4596,280.9
380.6206,144.4
380.7296,410.3
380.7703,503.5
380.8274,142
380.9261,19.6
380.998,17.8
381.0136,28557.8
381.026,242659.5
381.0405,18.4
381.0795,1151.7
381.1372,623.6
381.1443,126
381.2256,524.5
381.438,143.3
381.4787,810.1
381.6183,153.2
381.7655,830.1
381.8216,789.2
381.9479,168
382.0293,18944
382.0925,692.4
382.3029,420.8
382.4074,527.2
382.4948,161.7
382.5631,170
382.7676,2082.7
382.8359,22
382.9297,328.8
382.9502,27.4
383.0114,819.2
383.0298,1080.8
383.1164,144374.9
383.2439,223.5
383.3615,233
383.3953,98.8
383.7121,273.6
383.8578,570.1
383.8804,806.8
383.9364,166.5
383.9656,1615.4
384.0336,439.3
384.0987,558.5
384.1085,98.7
384.1196,15004.4
384.5328,506.9
384.6664,21.2
384.7646,513.5
384.7882,419
384.8432,572.3
384.973,147.5
385.0001,23.6
385.0585,138.4
385.1195,508.4
385.159,205.6
385.2195,189.4
385.4411,145.7
385.6548,162.8
385.8204,19.5
385.8275,140.7
385.8654,105.9
385.9349,402.8
385.9792,17160.9
386.0169,18.9
386.1367,574.9
386.2314,130.9
386.3084,237.2
386.5652,633.6
386.9772,345.5
387.0614,192.9
387.4603,180.7
387.5413,234.3
387.6214,94.7
387.8723,238.7
387.8876,175.5
387.8969,18.9
387.9784,1169.7
388.1386,268.6
388.2827,118.8
388.434,155
389.047,281.8
389.107,23
389.3017,128.7
389.5903,853.4
389.678,132.9
389.9609,296.4
389.9737,44398.5
389.9839,287.7
390.1178,17.3
390.1729,925.2
390.182,22
390.473,132.6
390.4918,600.3
390.598,825.6
390.6118,224.9
390.7991,546.7
390.9429,779.5
390.9526,139.8
390.9656,1499.9
390.9743,14089.8
390.9829,24083.1
390.9919,12138.7
391.0016,156.3
391.0246,133.6
391.1622,616.5
391.1867,20.1
391.3229,165
391.9778,123.5
391.9854,342.8
391.9939,288.4
392.1677,20.1
392.2605,24.9
392.647,663.5
392.6613,520.2
392.7963,2257.2
392.84,186.5
392.9331,115.7
392.9817,1848.5
392.9915,166.7
393.0385,632.7
393.1002,20.9
393.1225,163.2
393.1727,20.6
393.2986,22.8
393.3176,144.3
393.374,143.4
393.3811,91.9
393.4103,143.4
393.4416,258.5
393.6858,297.3
393.694,180.9
393.8825,19.2
393.9376,127.9
394.1024,382.1
394.1161,649.3
394.152,207.6
394.1897,417.6
394.2181,564.8
394.276,257.7
394.3094,21.8
394.5002,138.3
394.5082,690.9
394.5228,256.5
394.7925,1543.9
394.9034,1045.7
394.9772,141.6
395.0429,772.1
395.0857,105.2
395.2043,19.5
395.2356,174.8
395.3125,308.6
395.3177,338.8
395.3987,478.6
395.4607,433.4
395.5468,260.1
395.585,295.4
395.6288,375.5
395.8719,665.1
395.9617,615.5
396.2757,410.8
396.3214,209.4
396.4055,514.7
396.426,21.1
396.6146,610.6
396.6964,274.1
396.744,644
396.8808,176.4
396.9911,202668.2
397,77964.4
397.6154,375.6
397.6765,463.9
397.8355,120
397.8793,18.7
397.9673,22.8
397.9846,212.6
397.9944,15832
398.003,3904
398.0132,218.2
398.2414,3237.1
398.249,380.3
398.3529,526.4
398.3829,332.3
398.6144,142.7
398.7406,1476
398.8711,441.9
398.8796,115.3
398.985,1040.3
398.9986,1706.1
399.0265,104.6
399.078,412.4
399.1008,935.2
399.2141,696
399.4567,656.6
399.4889,173.8
399.5568,123.4
399.5865,263.6
399.7271,22.6
399.8051,108.4
399.9316,888.2
400.22,630
400.4399,248.7
400.7379,661.8
400.8274,1140.2
400.9155,108.8
400.9839,868
401.0399,463.3
401.1518,129.4
401.5942,115.1
401.843,117.1
401.9531,3686.2
401.9682,298.5
402.0014,322.7
402.2632,182.1
402.2672,228.9
402.2698,198.3
402.411,100.6
402.5393,113.3
402.736,443.1
402.8252,1343.1
402.8921,19.6
403.008,292456.8
403.1095,145.3
403.1855,409.3
403.9423,2668.9
403.9511,735.3
404.0114,26830.3
404.2807,104.7
404.4612,637
404.5558,141.7
404.637,366.2
404.7547,20.8
404.7777,136.4
404.8186,382
405.0127,992.5
405.1119,164.3
405.185,178.5
405.2044,20.6
405.2922,393.8
405.3347,755.5
405.476,261.7
405.4866,161.2
405.6484,114.7
405.7069,285.3
405.7707,965.1
405.9137,689.6
405.9475,28633.5
406.0208,17.6
406.0456,356.2
406.2257,146.7
406.2305,185.5
406.2787,785.2
406.3293,677.5
406.4428,185.9
406.5499,334.1
406.6366,223.5
406.7729,466.3
406.834,187.2
406.9556,1354.5
407.3327,144.9
407.5868,164.6
407.8172,55.8
407.8462,441.4
407.8712,238.7
407.9445,128.8
407.9548,210.3
408.0156,159.1
408.3598,267.3
408.5069,392
408.77,1740.7
408.959,609.9
408.9848,3654.4
409.0798,179.4
409.2572,184.8
409.5874,596.3
409.6726,221.8
409.7227,156.8
409.8084,144.7
409.8429,425.9
410.1188,524.1
410.4674,111
410.4955,122.4
410.5062,361
410.572,291.9
410.7334,373.4
410.7502,316.6
410.7671,1055.5
410.9685,130.4
411.1302,162.8
411.3262,667.1
411.3671,112.3
411.3984,17.3
411.425,439.4
411.5092,231.6
411.5562,173.6
411.8325,19.1
411.9948,108.1
412.0496,410.8
412.273,284.5
412.3215,2164.9
412.4214,206.7
412.7752,627.7
412.8519,627.9
412.9247,19.7
412.9646,47898.5
412.9739,14256.6
413.2084,244.9
413.2515,522.7
413.2667,3957.4
413.2768,227.8
413.3247,153.6
413.5367,132.2
413.8388,177
413.9394,171.3
413.967,1618.8
413.9783,129.1
414.2271,187.4
414.27,237.2
414.4208,615.6
414.8215,273
414.8733,205.7
414.9413,26.3
414.9552,106.8
414.9636,998.1
414.9726,690.5
414.9969,599
415.0374,125.9
415.1372,772.8
415.2227,912.8
415.2744,461.3
415.2848,683.9
415.4311,420.8
415.489,18.8
415.7565,516.5
415.8621,102.8
415.8774,268
415.9483,180.4
415.9785,22.8
416.0063,19.1
416.0375,221
416.1353,6138.2
416.1762,119.3
416.2143,34371.2
416.3054,576.4
416.5268,686.5
416.6099,183.1
416.6457,185.4
416.8022,689.8
416.9688,167.4
417.2177,2370.6
417.5823,259.8
417.7304,165.6
417.9268,209.5
418.0042,138.6
418.8224,307.6
418.9374,274.3
418.9819,109657.7
419.2571,1262.3
419.378,19.3
419.52,429.7
419.7969,397.9
419.8878,172.2
419.9247,213.5
419.9851,6912.8
419.9959,104.7
420.2081,363.8
420.4047,207.5
420.4338,151.3
420.4539,19.9
420.9805,3758.6
421.1392,127.3
421.3181,102.8
421.4015,96.4
421.5163,509.2
421.6264,574.6
421.8085,791.5
421.8332,59.6
421.9213,10912.4
421.9451,611.4
422.0951,117.7
422.1326,191.3
422.2052,187.2
422.304,149.1
422.4731,109.7
422.7327,604.7
422.7871,729.8
422.8331,30.3
423.1609,133.3
423.2056,487.2
423.2959,398.9
423.5674,147.9
423.5905,383.5
423.6125,515.3
423.6637,265.3
424.0118,495.8
424.0775,19.4
424.1034,197.8
424.2986,21.6
424.3381,18.4
424.6059,119.7
424.6104,173.7
424.6126,164.6
424.6323,344.6
424.7371,314.5
424.7443,443.2
424.7875,172.6
424.9983,467.5
425.4061,124.8
425.4798,548.5
425.6323,130.7
425.722,132.7
425.791,330.7
425.8438,984.7
425.9252,20.7
425.9444,210.1
426.1582,308
426.4143,210.8
426.4674,191
426.6805,245.6
426.7661,510.3
426.9084,172.1
426.9407,275.8
427.4806,530
427.6699,371.7
427.7322,18.2
427.9789,348.6
428.0683,18.7
428.2804,622.1
428.4059,173.2
428.907,375.5
428.9379,9605.5
429.0788,162
429.0902,1266.9
429.1943,443.2
429.241,26.9
429.2987,20.3
429.5624,18.5
429.5748,19.8
430.0093,284.2
430.0884,151.9
430.1458,624.2
430.4788,309.1
430.635,269.7
430.7296,472.8
430.9142,1709.4
431.0863,50.2
431.1525,171.5
431.2173,3454.3
431.407,21.5
431.5864,724.3
431.6222,244.8
431.7431,184.1
431.9087,449.2
431.9505,104.8
432.3783,897.7
432.5053,144.4
432.694,378
432.7217,187
433.0624,295.2
433.145,98.5
433.2503,70.2
433.3135,229
433.4045,420.1
433.5117,631.7
433.6878,22.1
434.1429,17.3
434.1823,125
434.3338,17.8
434.5424,541.7
434.7548,358.8
434.8167,115.7
434.8787,253.4
434.9561,18987.7
435.0619,290.9
435.1715,139.7
435.2912,618.2
435.4015,17.4
435.7933,102.1
435.9053,627.2
435.9796,17.5
436.1293,116.3
436.1624,907.3
436.4644,136.7
436.6679,496.4
436.859,870.3
436.9023,140.2
436.9562,310.2
436.962,339
437.1859,247.9
437.2044,1816.1
437.247,108.7
437.4338,147.6
437.6954,350.2
437.9236,211.1
437.9403,228.3
438.0892,164
438.1083,180.9
438.2605,523.5
438.3253,199.4
438.4299,248.2
438.7273,179.6
438.7846,137.7
438.8731,431.3
438.9528,536
438.9722,3457.6
438.9848,5649.9
439.1819,172.9
439.2165,158.7
439.2337,486.6
439.3197,297.1
439.609,536.7
439.8243,104.5
439.9563,19.2
440.0963,203.2
440.6575,227.9
440.6754,299
440.8577,280.5
440.97,550.1
440.9793,164
441.042,200.5
441.0852,19.3
441.2399,665.9
441.266,335
441.298,385.2
441.4749,529.4
441.7059,114.3
441.7885,124.9
442.1443,247.3
442.348,580
442.7055,503.8
442.9849,618.5
443.024,652.2
443.0662,271.7
443.2547,1145.5
443.2648,424.9
443.3729,148.1
443.4232,20.6
443.9369,283.1
443.9732,83.3
443.9841,353
444.0002,103.9
444.1118,105.4
444.1867,233.3
444.2717,129.1
444.4186,458.6
444.6379,472
444.798,122.2
444.9123,268.5
445.2332,1293.6
445.3444,165.2
445.5483,133.1
445.5714,99.2
445.7723,273.6
445.9358,178
446.0384,368.4
446.4381,200.8
446.5793,139.7
446.5874,438.7
446.6302,580
446.8186,185.2
447.3193,112.8
447.5405,646.3
447.6439,246
447.693,313.5
447.9322,4449.7
447.9436,241
448.122,302.3
448.1609,123.7
448.2707,673
448.4508,714.3
448.5202,661
448.6151,106.2
448.7353,282.7
448.7852,280.7
448.9324,4946.9
449.1543,2747
449.2185,21.9
449.685,381.8
449.7836,121.6
449.8282,19.8
449.93,253.3
450.1577,528.4
450.7535,715.8
450.7978,497.4
450.93,1182.1
450.9946,641.7
451.135,194.4
451.1503,242.7
451.1746,225
451.3155,382.4
451.3857,184.3
451.5032,292.7
451.8425,617.4
452.1029,128.8
452.2745,332.7
452.3783,396.3
452.4082,202.2
452.4688,268.2
452.818,188
452.8771,145.4
452.914,215.1
453.1192,19.6
453.1597,330.8
453.1727,1082.6
453.4218,245.8
453.4671,311.1
453.7034,392.6
454.3552,551.1
454.674,18.3
454.8583,554.3
454.9261,145.2
454.9498,49764.2
455.0532,184.1
455.112,523.2
455.3611,17.3
455.5524,207.6
455.6118,20.1
455.8607,221.8
455.9532,2095.5
456.017,276.8
456.2547,754.4
456.2821,502.6
456.4613,24.5
456.6984,412.6
456.9471,13374.6
456.9629,202.5
457.205,482.5
457.2328,12053
457.3695,226.7
457.5759,317.3
457.5874,18.7
457.7144,18.1
457.7596,639.5
458.2364,921
458.4052,187.1
458.5794,177.7
458.8761,162
458.8877,353.4
458.9292,22.5
458.961,3901.1
459.0068,20.2
459.2486,413551.6
459.7016,19.1
459.8413,294.8
459.8878,117.3
459.9191,484.2
459.9452,34.1
460.1027,182.2
460.1982,279.8
460.2519,85544.2
460.4105,284.6
460.5364,135.6
460.6692,339.1
460.7816,416.5
460.886,162.9
460.9666,89601.2
461.09,21.7
461.1866,389
461.2181,670.6
461.2542,5058.5
461.4204,188.6
461.5622,313.5
461.5909,121.4
461.7218,190.8
461.8225,182
461.9031,387
461.9265,138.6
461.9699,5641.1
462.1418,604
462.4107,216.9
462.4871,797.4
462.5029,120.8
462.6039,178
462.8825,399.8
462.9636,24320.3
463.0552,668.1
463.2252,497.8
463.6044,376.7
463.9059,2061.3
463.9349,647.3
463.9676,357.6
464.5195,133.5
464.5583,593.4
464.6415,369.9
464.6663,145.7
464.8722,167.4
464.9785,12029
465.4627,18.3
465.8496,18.2
465.8753,100.5
465.9041,296.5
466.1579,422.8
466.2131,18.4
466.5325,905.1
466.7856,23.1
466.841,26.4
467.1293,158.1
467.527,293.6
467.673,122.6
467.8262,192
467.8605,180.9
468.0583,224.8
468.3086,1048.1
468.369,296.2
468.3915,645.8
468.4975,358.5
468.5324,334.8
468.8753,18.1
468.9707,114.5
469.0038,23.9
469.0788,111.1
469.2137,22.4
469.3642,199.4
469.4428,168.9
469.454,668.5
470.0062,480.2
470.3418,463.8
470.6335,312.5
470.7993,762.2
470.8493,375.6
470.9238,21317.1
470.9953,2543.3
471.0707,110.8
471.0863,129
471.2701,127.3
471.305,572.3
471.622,143.2
471.874,146.4
471.9256,386.1
472.1447,397.9
472.2311,516.1
472.5008,242.6
472.5171,356.4
472.5561,143.2
472.718,113.1
472.8151,735.7
472.9013,310.1
472.9214,3287.1
472.9399,255.7
472.9803,632.5
473.0517,1711.6
473.0718,20.4
473.2213,707.9
473.2641,9503.4
473.6114,112.3
473.6635,157.2
473.8675,535.6
473.8969,232.9
474.1539,126
474.6903,119.4
474.7767,189.6
474.8226,187.8
475.0236,264.4
475.0404,238.2
475.2226,21721.2
475.6867,422.7
476.0024,646.8
476.0904,112.1
476.2261,3250.4
476.2984,21
476.4791,611.6
476.8105,420.7
476.9406,48225.6
476.97,393
477.4381,308.2
477.6551,432.8
477.7393,358
477.9437,1893.1
478.2934,648.1
478.3294,47095.9
478.8122,20.4
478.8286,584.7
478.9378,13854.4
479.0043,232.8
479.0965,28.3
479.1423,176.7
479.1591,118.8
479.1963,123
479.2122,440.3
479.3326,8611.7
479.74,174.6
479.9406,593
480.0347,369.3
480.0968,19.8
480.1766,1243.9
480.2355,864.3
480.2814,478.4
480.3165,123.6
480.3363,720.3
480.3453,241
480.4248,471.3
480.7305,237.3
480.8037,605.8
480.8736,513.8
480.913,677.7
480.9525,4054.1
481.0916,1731.7
481.2335,1425.3
481.2726,19.8
481.4282,136.7
481.493,264.1
481.7051,598.9
481.7374,684.4
481.9037,272.6
482.0953,331.3
482.2616,797.9
482.3243,2399.1
482.3597,184.6
482.9476,550.7
483.0123,528.6
483.0872,54.2
483.1845,17.9
483.2486,154060.5
483.4439,174.4
483.5094,610.8
483.9175,354.4
484.2518,32592.2
484.3178,442.6
484.7051,285
484.7914,169
484.9117,617.9
485.0436,99.7
485.2641,144471.8
485.3994,203.2
485.6787,855.7
485.7012,510.9
485.7118,392
485.8567,572
485.8834,468.8
485.9049,130.7
485.9455,273.8
485.9842,19.4
486.2676,30828.6
486.3282,186.5
486.3636,797.2
486.6013,137.6
486.7458,130.9
486.8975,1947.1
486.969,1358.3
487.2798,113997.5
487.3348,280.5
487.4114,393.6
487.4317,22.2
487.603,531.3
487.6196,312.8
487.6366,136.5
487.6803,532.1
488.0047,308.2
488.1276,558.1
488.25,419.8
488.2832,19875.8
488.3319,643.7
488.4594,20
488.5743,174.8
488.726,298.5
488.7412,182.2
488.8107,400.7
488.8609,120.4
488.9503,207.7
489.0558,299.3
489.0618,323.7
489.0862,23.7
489.1235,159.5
489.1463,337.2
489.1579,131.5
489.1714,849
489.1847,348.1
489.2332,704.9
489.2727,279.8
489.2853,962.6
489.3175,611.5
489.4727,151.9
489.523,138.8
489.7257,253.8
489.8669,285
489.9064,128.4
490.2906,6165.3
490.343,136.1
490.445,242.3
490.665,350
490.6808,134.2
490.7416,21.6
490.9096,375.4
490.926,431.1
491.0439,145
491.4807,363.8
491.5042,662.1
492.0425,187.8
492.9146,8412.9
492.9772,218.3
492.996,109.6
493.1699,379.4
493.2826,205
493.7119,161.1
493.8171,113
493.9184,484
493.9337,321.6
493.9604,108.5
494.2295,184.7
494.2681,398.8
494.2739,410.2
494.3128,364.2
494.3245,9549.6
494.6298,440.7
494.9118,2718.7
494.9679,147.2
495.0752,357.9
495.7186,598.2
495.7919,199.1
495.8835,444.6
496.0751,19
496.1018,208.2
496.2185,20.8
496.34,505448.2
496.649,239.3
497.3433,118753.1
497.5099,125.1
497.5496,20.4
497.7254,97
497.7514,332.5
497.8433,344.6
497.8793,290.1
498.0795,326.1
498.3467,8025.2
498.7553,154.5
498.7866,20.6
498.8459,338
498.9276,753.1
498.9903,17.6
499.0054,126.5
499.0632,175.6
499.2221,6798
499.2598,460.4
499.3628,387.8
499.495,120.7
499.5895,741.4
499.6633,122.4
499.9699,152.7
500.5449,227.9
500.6801,473.1
500.7081,367.3
500.7206,18.8
501.1036,16.7
501.2379,6577.9
501.4261,154.2
501.6086,515.2
502.2207,20.6
502.279,205.9
502.2913,251.7
502.3038,21.4
502.3292,27129.2
502.7683,18.6
502.793,257.9
502.9742,186
503.1075,264.5
503.1855,289.6
503.2537,6725.5
503.3333,4722.3
503.5266,174.8
503.7126,712.6
503.9021,397.2
503.9199,242.3
504.0868,874.8
504.2064,299.9
504.2572,392.9
504.3059,6364.4
504.3452,15256.5
504.3829,256.6
504.6216,350.5
505.2327,2779.9
505.2876,479
505.3369,589.1
505.349,1714.2
505.399,615.2
505.5669,125.4
505.8912,731.5
505.9632,748.3
506.0457,103.5
506.0672,101.8
506.163,109.5
506.239,513
506.2649,1424.3
506.3604,5316.5
506.8615,519.7
506.8914,3872.3
507.0932,215.6
507.2485,24605.1
507.346,160.6
507.3643,485.1
507.3773,21
507.3986,103.2
507.4568,336.9
507.7877,342.7
507.8858,353.3
507.9086,262.5
508.2519,2223.7
508.2973,341.9
508.5128,322.8
508.5804,183.5
508.67,242.1
508.8884,1728.4
508.9815,243.5
508.9921,439.1
509.0046,1391.3
509.264,9853
509.311,337.4
509.4353,96.6
509.5258,161.9
509.572,600.7
510.1062,683.9
510.1655,107.5
510.267,1739.9
510.3553,8745
510.434,626.5
510.4544,18.8
510.542,135.2
510.5951,592.6
510.6376,485
510.7324,197.1
510.813,21.9
510.8643,17.9
510.8754,125.5
511.1251,24.7
511.1543,147.8
511.1766,444
511.2156,146.5
511.2263,721
511.2528,119.6
511.2807,735.5
511.3584,1638.2
511.4208,111
511.9694,472.4
512.1639,254.2
512.195,19.1
512.2609,681.9
512.6749,237.3
512.7818,259.3
512.8478,783.6
512.9083,21078.5
512.9349,173.3
513.2951,1254
513.3753,21.8
513.4928,225.8
513.5376,22.9
513.9125,916.8
514.1246,608.2
514.2559,474
514.3676,18.7
514.4235,494
514.5281,156.7
514.5724,234
514.6598,421.6
514.9055,10497
514.9263,194.4
514.9557,789.6
515.1516,481.5
516.1158,749.9
516.3062,16995
516.6397,524
516.7233,256
516.8191,1196.7
516.9199,2176.6
516.9561,126.3
517.0781,163.4
517.2614,580.2
517.2871,518.3
517.3488,246.6
517.507,614.7
517.6162,777.3
517.7937,136.2
517.8536,610.9
517.9952,451.5
518.322,706278.3
518.4155,158.6
518.6718,144.4
518.7667,133.4
518.8176,327.2
518.8778,324.2
518.9253,34437.2
519.2898,1052.8
519.3254,172519.8
519.3567,19.8
519.6773,101.9
519.8787,20.6
519.9287,1446.1
520.0283,19.9
520.0471,20.8
520.1444,304.1
520.2811,521.9
520.34,170993
520.4559,697.5
520.6575,143.4
520.8347,256.5
520.9224,20029.7
521.3433,43017.4
521.4298,209.9
521.8637,331.5
521.9239,957.5
521.9775,1427.2
522.0017,333.4
522.1344,192.6
522.2084,328.2
522.256,720.4
522.3141,672.7
522.3556,176112.7
522.5316,455.5
522.8654,647.5
522.9209,638.5
522.9374,7142.6
522.9656,501.8
523.03,18.2
523.1045,873.1
523.1177,20.1
523.359,47738.3
523.4452,191.8
523.5363,380.6
523.5742,18
523.6448,139.3
523.7678,305.4
524.0775,141.6
524.1134,258.1
524.1258,948.9
524.1399,1099.4
524.1526,806.4
524.1656,311.1
524.1909,679.9
524.2497,94
524.3713,173321.1
524.4264,373.9
524.8592,428.1
524.9346,464
524.9567,294.5
525.1809,20
525.2093,211.8
525.2531,19
525.3746,47016.1
525.4876,227.3
525.6783,770.6
525.8538,319
525.8686,417.8
526.1062,286.9
526.1607,20.4
526.2212,562.6
526.2821,152.2
526.3297,6134.8
526.6645,269.6
526.72,147.9
526.9505,654.5
527.1584,2898.1
527.1697,520.1
527.3636,19.2
527.4382,519.6
527.5535,18.8
527.5969,124.3
527.7649,102.8
528.2287,178.9
528.3445,534.2
528.362,268.2
528.5082,295.7
528.7127,227.9
528.8825,8419.3
528.9536,1931.7
529.375,327.3
529.8813,505
529.9427,343.2
530.095,365.6
530.2313,119.6
530.3216,1294.4
530.3585,1420.8
530.4872,275.9
530.5249,311.5
530.6171,141.4
530.6721,109.8
530.88,4475.3
530.9507,560.3
531.2486,2398.3
531.3266,183.4
531.4904,760.7
531.9802,220.2
532.0249,21.5
532.2508,434.1
532.2804,3847.8
532.2945,259.5
532.3376,14853
532.3848,128.6
532.628,791.2
532.6516,123
532.7679,228.6
532.8095,18.2
532.8776,421.8
532.9661,1946.6
533.2204,130.7
533.26,174.7
533.2833,415.6
533.3417,619.2
533.3513,131.7
533.5259,151.1
533.6692,182
533.6973,424.9
533.7434,740.6
533.9956,21.7
534.0611,787.9
534.2287,358.9
534.296,208802.2
534.5732,18.8
534.6139,232.8
534.6431,435
534.8994,20274.5
534.9845,140.2
535.0586,147.5
535.2993,48616.1
535.3589,131.7
536.0914,484.4
536.1367,722.1
536.1808,473.7
536.2944,11728.3
536.3547,25
536.4276,599.1
536.8962,8989.8
536.9862,465
536.9955,124.2
537.4245,1097.5
537.5564,154.6
537.9011,684.4
538.0637,503.8
538.1649,115.7
538.3183,646.8
538.5072,131
538.5378,467.2
538.8936,848.7
538.9118,1821.7
538.9319,502
539.0687,296.4
539.1825,199.1
539.2202,129.9
539.6228,594.1
539.6475,428
539.9053,21.2
540.0464,125.3
540.5544,253.7
540.5754,382.3
540.7752,562.9
540.9074,1215.9
541.1781,596.2
541.3063,527.6
541.5351,381.3
541.8271,151.8
541.8485,213.2
542.322,227089.7
542.3612,200.9
542.3885,409.5
542.4392,655.3
542.4908,731.8
542.5215,362.2
542.5639,126.8
542.6477,22.7
542.8034,106
542.9241,163.2
543.0374,19.7
543.1087,17.9
543.1523,395.8
543.1662,114.6
543.3253,59899.7
543.4968,852.5
543.5275,528.8
543.559,276.7
543.5854,308.2
543.6209,426.4
543.6453,202.4
543.7286,17.8
543.7931,111.8
544.2301,222.6
544.3377,240853.4
544.4077,519.9
544.7047,397.6
544.8393,677.5
544.8565,1149.7
544.9486,741.1
545.0305,137.7
545.1092,424.5
545.3412,66682.8
545.4177,118.6
545.4298,409.3
545.4576,428.6
545.5035,161.6
545.6777,215.3
545.9975,581.4
546.3533,228403.8
546.4694,127.1
546.5209,529.5
546.7218,173.8
546.8064,207.9
547.0644,275.2
547.3567,60207.3
547.541,212
547.6405,22
547.7079,123.2
547.9448,719
548.0927,185.8
548.1104,287.5
548.2842,323.3
548.312,2911.3
548.3594,4903.7
548.4634,462
548.6019,101.6
548.9412,1027.4
549.1036,19.2
549.2845,168.6
549.3261,117
549.3701,666.6
550.1614,554.8
550.2025,301.5
550.4026,348.2
550.4848,456.8
550.6764,23.3
550.8731,3483
551.0559,720.8
551.0674,277.8
551.1608,107.3
551.7506,725.8
551.7626,19.1
551.781,122.1
551.8286,777.7
551.9318,18.9
551.9656,216.8
552.0018,391.7
552.2496,90.3
552.272,98.6
552.3118,106.4
552.3333,285.9
552.6637,655
552.8699,1644.5
553.0027,847.4
553.0222,529.2
553.0861,231.5
553.4888,464.6
554.0347,738.9
554.1438,252.1
554.865,508.1
554.9106,321
555.0464,208.3
555.1308,563.1
555.9386,686
555.9505,752
556.3778,137.8
556.5036,106.3
556.5376,428
556.6981,240.6
556.8639,825.6
556.9489,777.5
557.1564,17.1
557.1713,203.5
557.5029,214.4
557.7776,842
557.8843,352.6
558.296,70514.9
559.0576,433.6
559.2993,14188.7
559.3851,339
559.4275,240.8
559.4853,413.2
559.6805,17.9
559.8205,138.4
560.2975,2518.5
560.3116,71943.6
560.4814,20.1
560.5219,127.9
560.6164,286.3
560.8063,229.9
560.8114,219.7
560.819,192.1
560.9905,102.7
561.0784,680.3
561.1457,205
561.164,756.7
561.315,14999.5
561.3296,168.5
561.6974,225.8
561.7487,247.1
562.1216,181.4
562.1944,804.5
562.3109,3990.4
562.3274,56428.1
562.3638,173.7
562.4597,401.2
562.7503,21.9
563.0279,490.5
563.1423,319.1
563.3306,13467.6
563.3493,686.9
563.3839,549.4
563.4958,281.8
563.8714,133
564.0003,135.8
564.1499,274.6
564.3074,2030.1
564.83,209.3
564.8487,689.9
565.0423,407.8
565.1774,121.9
565.2146,204.1
565.7427,725.3
565.7869,543.3
565.8415,458.1
565.9691,802.4
566.2158,523.8
566.2762,392.9
566.3222,35348.3
566.8356,734.8
566.8742,149.4
566.9627,536.5
566.9993,102.7
567.3253,9368.4
567.4096,181.3
567.614,132.5
567.7934,128.6
567.9236,358.9
567.9799,171.9
568.3381,19031.3
568.4401,295.8
568.6545,18.2
568.6751,127.7
568.862,622.8
569.3419,2347.3
569.3598,113.5
569.5508,791.9
569.5927,433.9
569.6089,510.1
569.9059,385.2
570.0169,118
570.0838,102.5
570.2147,17.2
570.3538,1361.1
570.3818,508.3
570.4391,524
570.8092,179.4
570.8671,7667.5
571.0986,797.1
571.4712,784.9
571.6059,567.2
572.0549,575.8
572.3491,527
572.3674,584.4
572.4428,20.2
572.7047,244.7
572.8638,4351.2
572.9951,133
573.116,546.7
573.253,446.2
573.4633,147.2
573.637,392.5
573.7929,193.2
573.8933,19.9
573.9956,260.8
574.1656,191.3
574.2831,2166.6
574.3555,399
574.461,201.3
574.8613,908.9
574.8774,19.4
574.8995,222.5
575.288,193
575.3707,188.3
575.434,204
575.4491,565.6
575.5036,14445.3
575.6167,414
575.964,181.5
576.0091,151.9
576.2806,8412.2
576.4129,26.6
576.4584,345.3
576.5065,696.2
576.884,10234.1
576.9142,19
577.0647,529.8
577.2845,488.2
577.4622,399.1
577.5184,1454.1
577.7214,532.6
577.8852,421.6
577.9183,635.2
578.2764,1125.2
578.3423,295.6
578.3986,553.7
578.6006,223.6
578.8811,10665.6
579.1029,17
579.5449,173.1
579.8265,18.8
580.4142,157.2
580.4881,19
580.5588,462.8
580.8039,375.8
580.8784,1620.4
580.896,3086.4
580.9505,327.3
581.3273,227.1
581.7156,153.2
581.7848,124.6
581.9776,18.9
581.9985,535.6
582.0256,991.4
582.0412,547.1
582.0798,296.9
582.1047,566
582.1536,463.2
582.1642,378.5
582.1703,239.6
582.1913,154.9
582.2105,251.1
582.2301,19.6
582.2958,7770.9
582.3405,533.6
582.4142,20.8
582.4491,598.4
582.5277,324.9
582.6481,315.1
582.8044,128.3
582.8921,934.2
582.9767,357.5
583.1308,426.3
583.1864,144.1
583.2994,1409.3
583.4696,358.2
584.0458,375
584.0607,126.6
584.3118,2767.7
584.5275,147.2
584.541,601.9
584.5617,191.1
584.6597,321.1
585.1841,105.6
585.2699,985.5
585.8049,259.5
585.9286,195.6
585.9788,662
586.1343,20.1
586.3098,6287
586.4664,527.2
586.6227,201.8
586.8409,2695.9
586.9124,1131.5
586.9527,132
587.3196,296.5
587.5415,125.9
587.5504,302
588.1277,552.9
588.1646,652.2
588.2003,236.5
588.3793,18.9
588.8381,3879
588.9095,441.7
588.9738,625.8
589.0052,599.8
589.2279,432.8
589.395,22.3
589.7714,819.6
590.2366,172.9
590.2666,192.4
590.3225,2911.8
590.4095,670
590.5699,24.1
590.6672,179.9
590.9044,22.6
590.9212,734.6
590.9588,361.3
591.1546,602
591.3565,19.2
591.6057,278
591.6274,143.7
591.8038,111.7
591.9227,131.6
592.0519,18.4
592.101,20.6
592.1553,199.2
592.1698,470.4
592.2562,1393.2
592.3838,520
592.4705,1220.6
592.5061,103.7
592.6156,142.6
592.858,7311.4
592.8962,143
593.0215,147.7
593.4202,206.7
593.5295,151.1
593.8073,359.7
593.9933,253.1
594.7375,579
594.7554,128.3
594.7873,210.7
594.8554,8886.2
594.8995,116.3
595.0682,278.9
595.141,149.2
595.2341,19.5
595.2715,337.2
595.406,20.5
595.6044,224.1
595.7892,745.2
595.9431,553.3
595.9696,131.8
596.157,249.3
596.4534,205.7
596.8519,825.1
596.8704,653.7
596.8932,220.3
597.0072,389.6
597.4486,5287.9
597.486,14781.3
597.6793,193.9
597.8077,315.8
598.2063,475.7
598.3413,222.7
598.4496,1580.6
598.4657,276
598.4893,2212.5
598.8219,134
598.8653,418.7
598.9591,127.6
599.4652,1680.6
599.5028,6781.1
599.6128,263.7
600.0925,377.2
600.2034,22.3
600.4224,328.2
600.5043,496.3
600.8506,250.7
601.3052,793.6
601.5192,914.2
601.609,603.8
601.9371,700.2
602.1506,240.9
602.274,20.3
602.2959,1985.2
602.5235,234.3
602.8145,971.3
602.9292,930.9
603.5348,1054.9
603.7726,18
604.3132,494.4
604.4845,168.7
604.8137,435.1
604.8842,495.7
605.4454,852.7
605.6803,20.3
605.786,22
605.9986,18.8
606.1335,22.1
606.2272,275.5
606.895,238.4
606.9337,422.2
607.0449,245.8
607.1205,336.7
607.3076,138.2
607.4269,323.9
607.5534,313.3
607.6524,99.9
608.028,21.7
608.8159,167.6
608.8313,917.4
609.2554,268
609.5258,190.5
609.7914,438.2
609.8934,264.6
609.9891,338.7
610.0758,194.9
610.2085,154.5
610.3107,968.5
610.4981,322.8
610.5168,838.7
610.5957,170
610.7761,650.6
610.8291,1694.8
611.023,490.2
611.1005,548.1
611.1291,404
611.254,142.3
611.5359,506.9
611.5835,199.5
611.6167,398.8
611.7099,144.3
611.9409,214.4
611.9972,662.2
612.0872,760.7
612.6789,142.5
612.784,353.7
613.3741,21.1
613.4405,447
613.8252,21.7
613.9534,429.8
614.18,462.1
614.3402,939.4
614.3538,1157.2
615.4137,138.5
615.603,270.7
616.6609,133.7
617.0125,19.3
617.0679,192.2
617.1445,414.9
617.3725,263.6
617.4713,482.9
617.4864,216.1
617.5566,892.9
617.581,177.8
617.8455,724.1
617.9665,623.3
618.4133,407
618.5182,612.7
618.7517,351.5
618.9313,142.1
619.1805,178.8
619.2353,465.6
619.4147,145.4
619.4907,995
619.6311,135.9
620.0396,185.4
620.7776,202.4
620.7851,626.3
620.7902,611.3
621.3263,545.3
621.3798,296.4
621.4507,1896.5
621.4855,7158.4
621.5734,17.7
621.7431,136.8
621.8576,277.4
622.0269,117
622.2942,748.3
622.4509,662.8
622.4574,651.6
622.465,910.7
622.4877,1271.5
622.5509,256.9
622.7553,328.8
622.8481,139.3
623.1358,7265.7
623.4709,733.6
623.5006,928.8
623.7058,213.5
623.9789,284.9
624.0254,797.6
624.1217,329.1
624.1398,238.1
624.2805,770.1
624.5483,579.3
625.0801,188.3
625.4821,166.8
625.5167,212.8
625.6468,494.1
626.4902,133.5
627.2114,263.3
627.2358,174.8
627.3108,703.1
627.4664,121.9
627.5357,494.8
627.5457,764.7
627.9241,328.7
628.2036,310.7
628.373,635.2
628.5369,18.5
628.5567,209.5
629.0242,20.8
629.1528,14390.6
629.3316,773.8
629.4563,574.7
630.0807,290.9
630.1039,125
630.1565,1232.5
630.7333,120.6
630.7648,118.7
630.9545,20.7
631.2519,202.1
631.3674,282.9
632.0574,129.5
632.759,320.6
632.9631,139.2
633.0347,132.1
633.191,118.4
633.2554,190.1
633.3469,23.1
633.9427,302.6
633.9683,131.8
633.9966,133.3
634.2164,21.1
634.37,727.6
634.6326,558.8
634.8435,1876.1
634.9957,507.2
635.0184,165.2
635.4777,285.9
635.5122,171.6
635.9877,724.7
636.0784,232.8
636.1721,501.9
636.3833,235.9
636.8394,2868.7
637.6748,1102
637.8425,132
638.1501,233
638.2434,126
638.4522,3147
638.8398,1077.1
638.968,117.7
639.2032,742.1
639.4541,246.4
639.689,300.2
641.0792,123.2
641.2284,887.4
641.2889,743
641.4669,356.5
641.5067,216.8
641.5833,251.5
641.6327,178.4
641.7769,961
642.4324,114
642.6141,130.6
642.7997,1107.6
643.0049,512
643.0314,146.5
643.1514,342
643.9741,153.5
644.3996,659.7
644.4911,21.6
645.0072,187.3
645.0282,282.6
645.1176,6921.9
645.22,408.9
646.1201,111.6
646.1333,124
646.3758,128
646.4562,131.1
646.4881,127.5
646.5122,202.1
646.5421,703.6
646.606,743.8
646.6564,723.1
646.8542,248.7
646.9289,1515.8
647.0687,505
647.0953,123.8
647.165,119.7
647.3366,323.1
647.3632,327.4
647.4733,179.3
647.6054,22.1
647.6668,243.3
647.6946,643.4
647.8961,567
647.9197,176.5
647.9673,380.4
648.2145,381.9
648.3377,656.1
648.7017,402.8
648.908,130.8
649.9518,159.1
650.4382,654.2
650.6571,182.4
650.8168,3851.8
651.1348,26567.9
651.5239,469.3
651.8265,341.4
652.1381,3350.6
652.2357,137.8
652.6527,193.5
652.8136,2798
653.5017,244.4
653.7747,467.3
653.9773,577.8
654.1256,138.3
654.138,304
654.1905,183.3
654.349,17.5
654.3575,18.4
654.7295,857.9
654.7618,614.8
654.8114,1003.2
655.1467,596.4
655.5729,317.7
655.6956,457.9
655.8172,830.8
656.0888,161.8
656.3868,225.1
656.4429,198.9
656.5884,133.5
656.603,312
656.6247,134.2
656.8894,21.3
657.3497,20.6
657.4293,870.2
658.272,656.4
658.303,711.5
658.383,438.8
658.4281,1239.2
658.7693,541.5
658.9091,521.1
659.4879,179.3
659.5856,18.4
659.9378,869.6
660.0297,157
660.0822,860.3
660.1564,638.7
660.3935,270.1
660.4187,133.8
660.5034,133.8
660.6252,273.9
660.897,140.5
660.947,22.9
661.0829,2600.1
661.2473,846.5
661.4764,485.6
661.6738,158.8
662.0165,184.5
662.6502,18.9
662.8361,426.6
662.9707,108.7
663.0187,121.3
663.2792,560.5
663.3434,340.5
663.4418,481.4
663.4562,366
663.5176,139.1
664.0173,458
664.4143,302.8
664.4267,278.2
664.4682,2793.4
664.6237,349.9
664.728,19.9
664.8769,485.4
665.384,129.3
665.518,506
665.5402,456.9
665.8485,670
665.8583,705.2
665.8845,590.3
665.911,165.8
666.085,417.9
666.4832,9209.7
666.7859,332.4
667.0995,16583
667.5601,1163.9
667.8317,105.7
668.1038,1458.2
668.3132,138.6
668.3767,219.9
668.6749,640.2
668.6828,644.4
668.7877,509.3
668.9775,850.7
669.0754,166.4
669.4682,19
669.4961,1374.8
669.6493,19.1
669.7206,296.4
669.9668,115.5
670.0492,537.2
670.3163,653.4
670.7225,143.9
670.7342,294.4
670.9678,117.3
671.382,237.1
671.4382,665
671.4868,240
671.5747,689.2
671.6191,171.5
671.6837,931.1
672.0767,149.1
672.2627,233.5
672.7671,22.5
672.8946,284.9
673.0568,120.6
673.1168,46249.6
673.5089,533.4
673.5308,1017.7
673.6813,497.3
673.7211,258.2
674.1206,7076.6
674.2775,788.5
674.652,18.2
674.791,375.2
675.0779,136
675.1027,173.5
675.1206,603.4
675.2428,265.1
675.332,523.3
675.5441,25242.7
675.5759,485
675.9745,178.7
675.9966,204.3
676.0473,3256.5
676.2476,528.6
676.3829,20.9
676.5472,3913.3
676.6325,17.3
676.7926,197.7
676.8128,202.1
676.9355,598.2
676.9575,451.2
677.0517,155.6
677.2451,299.9
677.2705,369
678.2424,394.4
678.2731,643.8
678.4183,173.8
678.6371,162.7
679.285,444.6
679.6205,187.2
679.6771,460.2
679.7577,1111.2
680.0161,209
680.4145,20.3
680.7087,164.3
680.8391,775.1
681.2181,275.4
681.2567,18.3
682.0643,7154.2
682.2761,250.9
682.4229,651.6
682.6416,20.9
682.7366,383.7
683.0644,2892.2
683.7184,129.7
684.3319,474
684.3562,18.9
684.5991,17.6
684.9948,275.1
685.0889,177.7
685.3424,383.8
685.4357,7452.3
686.0999,20.1
686.1401,18.3
686.3807,166
686.439,720.9
686.5245,910.9
686.6043,181.4
687.5525,177.4
687.5717,19.3
687.6223,175.1
687.6982,161.6
688.9587,529.3
689.0808,16028.7
689.2696,238.9
689.5599,9000.8
689.9281,118.2
690.0917,999.8
690.1153,179.9
690.5616,789.1
690.985,191.5
691.2804,137.4
691.4581,126.7
691.5264,120
691.5953,524.9
691.62,163
692.301,528.8
692.9838,176.9
693.0646,743.7
693.6169,378.8
693.672,387.8
693.8534,117.6
694.0816,284.1
694.1224,212.8
694.2267,223.1
694.4328,144.5
694.6248,101.9
694.7303,22.2
694.7983,1287.6
695.0986,36002.9
695.1555,197
695.1975,137
695.5111,3822
696.0048,682.6
696.1027,4602.3
696.183,188.9
696.203,344.6
696.2308,184.4
696.2875,219.3
696.3081,726.4
696.6861,515.4
696.9812,533.1
697.2353,465.9
697.526,27527.8
697.7704,783.9
698.0288,1522.6
698.0875,436.7
698.2227,163.5
698.5294,8946.2
699.536,1151.6
699.6357,658.6
699.741,116.1
699.8796,124.2
700.0172,163.6
700.0349,114
700.0513,148.2
700.33,583.9
700.4188,279.4
700.4893,1031.1
700.5389,793.8
700.8329,253.7
701.0008,666.6
701.0566,158.4
701.0989,719.8
701.2112,282.7
701.3391,303.8
701.4094,838
701.5119,150.3
701.5599,44374.1
701.6002,183.2
701.6387,18.9
701.7403,867.8
701.7909,186.1
702.0245,150.1
702.2143,490.2
702.3422,4064
702.4683,125
702.5632,18307.9
702.6127,23.6
703.3458,1455.7
703.5755,115549.6
703.9548,185
703.9821,538
704.0459,6413.8
704.0998,551.4
704.1348,437.5
704.298,128.6
704.3486,468.9
704.3733,426.8
704.4474,3190.7
704.5278,321.4
704.5788,45239.9
704.7042,405.4
704.8153,675.1
704.8211,791.4
704.9683,383.8
705.0542,1773.6
705.1163,552.2
705.5647,568.4
705.5819,5817.1
705.9797,592
706.0429,511.7
706.2342,782
706.3935,316.5
706.5397,3174.4
706.6523,383.8
706.9142,562.6
707.1667,596.6
707.2418,169.8
707.3435,226.2
707.5433,737.5
707.5932,414.8
708.7252,183.7
709.0499,143.4
709.2277,20.7
709.2465,156.1
709.7203,436.7
709.8781,249.1
710.046,19.8
710.1308,22.6
710.2553,19.3
710.5122,500.7
710.5315,321.6
710.7708,479.1
711.0286,183.2
711.0629,11105.7
711.0735,11088.9
711.2786,994.7
711.5417,9890.9
711.7015,105.1
711.9685,160.2
712.0782,462
712.5447,1937.8
712.9399,200.4
713.0727,182.6
713.5006,2501.5
713.8121,336.9
713.848,860.8
714.0061,135
714.2776,472.3
714.3854,298.8
714.5456,118
715.2179,470.9
715.5435,515.9
715.5753,784.6
716.36,128.5
716.6977,306
716.758,255.2
716.8246,136.1
717.0148,265.8
717.0806,19939.8
717.1156,435.4
717.4208,302
717.5916,538.7
717.7493,292.2
718.0827,846.3
718.1339,218.8
718.1622,20.2
718.4315,472.9
718.6518,843.6
718.6946,223.4
718.9746,577.6
719.2996,349.4
719.4375,175.8
719.463,2638.6
720.0211,1884.4
720.1707,958
720.4616,835.5
720.5802,525.7
720.5885,617.6
720.5983,549.7
721.2217,549.9
721.3048,167.4
721.4783,71146.3
721.5731,18.5
721.6493,514.9
722.2456,25.7
722.482,27222.7
722.5148,556.3
722.7545,764.5
723.1487,174.7
723.3992,704.6
723.4198,693
723.4947,12929.2
723.5417,42504.1
723.6678,535.4
723.8685,284.5
724.0703,147.4
724.2357,499.5
724.3272,605.4
724.4973,1485.3
724.5452,16032.1
724.6374,301.7
724.838,448.4
725.2021,284.3
725.3204,360.7
725.5575,98082.4
725.6284,662
726.028,3483.4
726.246,742.1
726.2789,588.6
726.5258,482.5
726.5608,39028.9
726.5885,260.2
726.7043,453.7
727.0328,1165.6
727.5638,5128.8
727.8759,20.2
728.0397,540.6
728.1678,841.7
728.1958,106.5
728.52,3723.3
728.5678,469.6
728.8034,22.5
729.4863,348.1
729.5912,10840.9
729.6991,186.8
729.7339,395
729.9159,18.3
730.0506,468.2
730.2888,131.7
730.4725,864.8
730.5389,15970.5
730.5936,2106.4
730.751,395.7
730.8968,26.9
731.0834,197.7
731.1496,224
731.5006,306.9
731.5429,3736
731.5817,639.8
731.6076,5111.2
731.7084,787.8
732.5545,52648.2
732.6107,1510.2
732.6484,231.2
732.7088,18.6
733.0457,5054.5
733.0556,6146.2
733.2132,696.9
733.2787,636.9
733.5579,22591.2
733.8214,167.4
733.9809,90.1
734.4296,129
734.5711,6389.8
734.6155,125
734.9765,108.8
735.0539,139.4
735.2819,257.2
735.3871,153.1
735.5732,2610.7
735.867,370.2
736.1217,127.9
736.3785,479.3
736.5326,592.3
736.5776,489.4
736.646,21
736.7071,134.4
736.8464,397.8
737.2883,171.6
737.3985,19.6
737.4521,14415.5
737.7676,273.3
738.037,133.4
738.4547,3917.8
738.5741,1260.9
738.7361,929.1
738.7989,433
739.0625,12227.2
739.1348,1237.3
739.164,1560.4
739.3943,298.8
739.467,243.6
739.5161,3661.2
739.8095,294.5
740.0284,300.2
740.0671,224.6
740.2874,166
740.331,465.1
740.8625,20.8
741.0774,309.9
741.1312,543.7
741.3085,251.5
741.5317,12137
741.6472,145.9
741.761,262.4
741.8647,123
742.0046,1580
742.0971,273.8
742.3605,293.8
742.5347,4511.3
742.5752,15365.1
743.0898,655.7
743.4638,3150.5
743.5776,2714.7
743.6087,984.9
744.4667,1073.2
744.5555,14002.4
744.5916,11768.7
744.6416,318.7
745.0076,151.8
745.2666,749.3
745.4784,30742.9
745.5572,2182.2
745.5946,3644.8
745.7597,357.1
746.0397,143.6
746.1921,245.6
746.4087,532.6
746.4813,10068.5
746.5423,456
746.5704,9332.5
746.6061,3082.2
746.7489,574.2
746.9457,1224.4
747.0386,342.3
747.3602,630.1
747.4947,14733.1
747.5747,2476.5
747.6109,401.3
747.6989,129.6
747.7328,139
748.0104,2548.5
748.4965,1160.1
748.6899,751.1
748.8363,842.6
749.01,1831.2
749.4892,136.6
749.5101,5074.1
749.5931,164.5
749.7801,704.9
749.9071,205
750.0053,160.5
750.2262,167.5
750.26,270.1
750.4077,515.2
750.514,408.2
750.8083,379.5
750.9558,110.1
751.5729,7487.7
751.5987,731.3
752.5208,14079.2
752.5755,467
752.6026,145.5
752.7739,550.3
753.0617,524.3
753.1268,295.5
753.2891,752.8
753.4203,207.8
753.5247,1983.3
753.5885,1647.1
754.0228,522.4
754.5371,43168.4
754.6526,17.7
755.0389,5196.2
755.1618,713.3
755.2325,202.5
755.4787,726.5
755.5052,531.7
755.5405,16522
755.6082,441.6
756.0369,453.1
756.1166,178.3
756.1462,865.4
756.2059,18.1
756.2453,674.3
756.2927,569.2
756.5544,80278.8
756.6333,635.1
756.9058,437.5
756.9577,178.4
756.9762,528.7
757.1126,28.4
757.1551,219.6
757.4163,111.8
757.4478,172.9
757.5577,34126.9
757.6082,1015.7
757.623,1389.1
757.6895,196.2
757.7669,807.6
758.0953,796.3
758.4713,332.1
758.5316,292.5
758.5702,1350673.9
758.623,299.5
758.8584,136.5
758.9414,130.1
759.5735,610528.7
759.6176,1514.4
759.6393,1771.1
759.9382,205.7
760.0623,146.4
760.3302,21.9
760.5869,419308.7
760.6827,649.7
760.7337,596.1
760.808,182.3
760.8688,113.2
761.0064,130.4
761.0462,3753.7
761.3833,182.3
761.4529,5536.8
761.5896,202804.3
762.4543,753.2
762.4875,222
762.5926,47688.9
762.742,165.8
763.0497,627.8
763.0766,146.3
763.3737,447.5
763.4699,2074.7
763.5698,198.3
763.5955,3110.4
763.9685,176.2
763.992,176.9
764.0963,19.1
764.5572,4223.8
764.9713,752.8
765.219,301.1
765.3084,568.9
765.5609,1104.3
765.9429,155.2
765.9859,123.1
766.2752,610.7
766.4363,452.8
766.5369,11426
766.5748,30584.9
766.7949,254.6
766.8782,204.2
767.1019,240.8
767.1245,17.4
767.2099,283.2
767.2601,202.7
767.5779,10499.5
767.8375,661.3
768.4961,1533.7
768.5534,10630.6
768.591,34804.8
768.6582,898.1
768.7129,723.7
768.7372,894.1
768.9397,263
769.3048,146.9
769.478,4646.1
769.5569,1462.5
769.5947,12638.3
769.7461,129.3
769.9657,128.7
770.4193,242.7
770.4808,306.3
770.5107,3707.5
770.5712,4181
770.6075,10839.4
770.9178,612.4
770.9918,5957.1
771.493,2456.1
771.5115,1547.5
771.6105,1532.8
771.9759,814.4
772.0551,129.5
772.1412,1314.4
772.1974,22.2
772.4787,583.7
772.4991,681.7
772.5861,31961.6
772.6215,515.3
772.8018,190.5
773.1699,127.9
773.2346,174.5
773.5071,159.3
773.5889,11981.4
773.6617,314.4
773.7412,320.8
773.8232,632.2
774.1697,716.4
774.2594,184.1
774.4935,144.4
774.5058,147.6
774.5421,793.1
774.6032,4201.3
774.6377,18.8
774.9541,245.3
775.0023,24.4
775.6041,971.8
775.7151,169.8
775.9931,193.7
776.1578,573.6
776.2131,976.1
776.4375,544.1
776.5196,4265.9
776.6914,177.4
776.9148,314.6
777.0088,5941.3
777.548,1023.6
777.6957,111.1
777.8055,18.4
777.9656,526.8
778.0498,1045.9
778.4216,288.9
778.5365,57876.3
778.5704,365
778.9682,664.6
779.0854,178.3
779.1662,685.2
779.19,1181.7
779.4645,157.4
779.5398,23256.7
779.6023,293.2
780.3537,253.8
780.5523,873902.3
781.2434,572.9
781.5557,391632.1
782.5699,730354.4
782.728,760.2
782.7849,464.3
783.027,7290.1
783.5731,340242.3
784.1021,288.8
784.5865,420508.8
784.6203,134.7
784.9188,18.8
785.3053,465.5
785.4306,158.9
785.4397,170.8
785.4832,765.6
785.5127,761.6
785.5895,203404.9
785.6537,5726.9
785.9906,303.9
786.6022,364137.5
786.6567,338.7
786.9662,321.7
787.0201,452.9
787.2564,20.4
787.3456,227.6
787.6051,174664.9
787.6735,346.9
788.2711,231.9
788.3582,23.3
788.5574,8115.7
788.6051,28982.5
788.621,18999.9
788.6706,277.2
788.8984,172
789.5519,2552.2
789.6216,11669.8
789.692,215.9
789.7664,216.8
790.0446,838.2
790.5448,2266.8
790.5733,15724.5
790.6252,1032.8
790.7846,849.9
791.4843,437
791.5762,4403.8
791.7342,533
791.7789,245.7
792.1091,224.5
792.1939,191.4
792.5519,1420.8
792.591,12344.9
792.7941,297.3
792.8984,408.9
792.9828,1165.4
793.0639,581.6
793.593,4999.1
794.1586,445.9
794.1947,422.6
794.2631,150.3
794.5103,6933.6
794.5689,13976.9
794.6067,37331
794.9545,143.8
795.1591,20.2
795.3722,2353.8
795.5132,2769.1
795.5709,1838.1
795.6099,16558.3
795.9514,507.8
796.0197,568.1
796.3625,143.8
796.5261,163195.3
796.5852,8174.3
796.6243,3532.6
796.7711,423.3
796.9858,153.6
797.3953,146
797.5294,73767.2
797.5888,1466
797.6275,1366
798.1697,122.8
798.5429,41351.7
798.6033,2017.8
798.7902,484.8
798.8442,1888.4
799.0008,1335.5
799.1468,302.6
799.545,20836.9
799.6035,256.2
799.6699,1790.4
799.9022,459.1
800.5218,286.6
800.5512,1123.9
800.6718,363.2
801.5029,479.8
801.5454,880
801.6847,571.5
801.9251,432
802.0426,672.1
802.3514,349.8
802.5365,60096.6
802.8096,812.3
802.9399,185.4
803.217,875
803.4283,135.6
803.5398,26211.7
803.8647,368.2
803.9369,20.7
804.3111,670.2
804.487,101
804.5523,328620.4
804.6085,652.4
805.3083,611.1
805.5556,157614.9
805.8047,18.4
806.5693,354850.1
806.7596,136.8
807.1242,322.7
807.5723,173764.6
807.6314,1344.2
807.8248,1263.5
808.0688,625.2
808.291,1737.1
808.5853,267937.5
808.6139,643.4
808.6363,1052.3
808.8179,166.6
808.9568,438.2
809.0182,518.5
809.1321,253.7
809.3727,230.1
809.5882,133755.1
809.6627,651.8
809.8333,792.8
810.1118,1066.6
810.2347,715.2
810.6023,132032.9
811.1375,101.2
811.605,67462.8
811.6699,11564.7
812.3296,366.4
812.6194,24029.4
812.6708,1793.5
812.7608,494
812.8269,1003.5
812.963,1777.9
813.0205,351.2
813.6215,11695.8
813.6857,6928.1
813.7583,136.8
813.8875,296.2
814.571,581.8
814.6225,609.3
814.6875,1191.6
815.1598,553.6
815.5865,580.1
815.6144,176.5
815.7851,282.1
816.0498,584.1
816.5524,345.6
816.5888,11308.9
816.935,658.3
817.0289,668.4
817.2393,253.7
817.436,127.2
817.5903,3181.9
817.8719,222
818.215,203
818.5107,9163.9
818.5685,694.7
818.6052,2429.1
818.7228,279.3
819.2051,646.2
819.3636,127.8
819.5137,1505.9
819.5683,823.7
819.6087,211
820.109,283.2
820.1928,22.7
820.4203,141.3
820.4581,166.4
820.5261,68245.4
820.6239,198.3
820.9263,163.9
821.144,190.6
821.1781,432
821.3018,496.7
821.3776,22
821.5295,32731.9
821.5875,580.9
821.6186,2191
821.8078,444
821.9098,22
821.9783,1382.7
822.03,479.6
822.1712,317.2
822.4945,855.3
822.5424,45471.8
822.6382,210.2
822.865,410.4
823.051,1313.1
823.4737,21.3
823.4968,115.8
823.5453,20003.1
823.6597,999.5
823.812,17
824.0388,907.3
824.2759,564.4
824.5582,29306.3
824.6366,310.2
824.8841,787.2
824.9395,665.5
825.0213,127.1
825.081,595.6
825.5608,12997.4
825.6369,305.1
825.9546,115.4
826.0972,555.9
826.263,140.9
826.5355,1641.4
826.5772,156
826.8604,576.3
827.103,616.7
827.1582,135.7
827.3631,110.7
827.5407,1761.2
827.5635,775
828.1066,180
828.2132,416
828.4757,345.8
828.5523,93157.4
828.9625,247.9
829.2685,549.9
829.5558,40171
829.6962,115.3
829.821,2043.4
830.0708,620.1
830.0924,134.7
830.2883,1051.7
830.3684,334.2
830.4447,354.9
830.5688,70808.7
830.7822,690.3
830.8269,168.8
831.5392,1195.7
831.5715,33393.6
832.0007,454.1
832.2187,131.2
832.3212,965.9
832.4182,1023.4
832.4838,162.4
832.5846,70964.2
832.9932,417.9
833.2411,408.6
833.3536,903.8
833.4998,181.5
833.5873,30100.9
833.6332,795.8
833.6512,232.7
834.0094,867.5
834.2645,182.7
834.4104,226.1
834.4306,206.4
834.6021,25129.1
834.9663,22
835.6045,14563.8
835.6392,931.4
835.6696,152.5
835.6989,924
835.7273,305.6
835.8248,136.4
835.9917,569.5
836.4732,507.7
836.6191,2314.5
836.9687,238.5
837.227,23.4
837.6208,1239
837.8159,388.3
837.9016,792.7
838.3086,178.2
838.4168,152.3
838.5102,1230.1
838.544,1164.9
838.6353,246.6
838.6799,235.6
838.7341,222.8
838.9902,480.9
839.0662,538.8
839.407,269.2
839.5261,222.4
839.9757,140.6
840.0412,19.8
840.2656,462.1
840.5048,122.1
840.6277,774.8
840.6755,1309.5
840.9544,1557.8
840.9811,418.4
841.019,208.7
841.0473,360.9
841.7492,190.8
842.3247,142.9
842.3669,17.7
842.3763,17.8
842.5232,911.8
842.6063,189.6
843.0512,202.1
843.4267,21.2
843.4764,169.9
843.5546,520.3
843.676,177
843.9939,683.3
844.2253,457.7
844.3237,251.1
844.5264,13906.7
844.6423,1099.7
844.7731,408.7
845.4476,481.9
845.5279,4757.1
846.1477,489.2
846.2209,640.6
846.3381,835.4
846.5417,6221.2
846.799,638.6
846.8551,213.9
846.955,769
847.1283,147.4
847.3889,181.8
847.5432,461.6
848.0363,443.9
848.3,465.7
848.4597,667.9
848.5572,5158.8
848.6226,145.8
848.7894,194.5
849.351,424.7
849.5165,432
849.5576,1827.3
849.7449,1098.2
850.2449,705.8
850.2721,1385.3
850.4278,19.5
850.5746,236.7
850.6423,483.7
850.8119,679
850.8747,322.8
850.9514,987.5
851.0533,384.7
851.4647,230
851.535,1554.7
851.9116,851.3
852.0303,320.3
852.198,183.5
852.2812,549.1
852.3303,23.3
852.5011,385.2
852.5499,1226.4
852.5751,208.3
853.2991,691.9
853.4601,285.2
853.5706,509.8
853.6564,20.6
853.7071,689.3
853.8073,337.9
854.5679,1645.4
854.6121,19.7
855.1001,271.6
855.3027,744.7
855.3878,183.8
855.8082,1103.9
856.1292,498.4
856.5853,3230.3
856.6401,192.7
856.7018,628.5
856.8189,611.7
856.9122,719.1
857.0248,218.9
857.2316,384.4
857.4328,510.8
857.5855,121.6
857.7635,19.7
857.9374,293.1
858.3336,306.9
858.5989,294.3
858.6368,18.1
859.4193,1214.6
859.719,21.3
860.0167,22.6
860.0995,183.5
860.1816,392.2
860.2981,802.2
860.9912,293.2
861.1582,309.8
861.4397,1112.6
862.8288,213.2
862.866,636.3
862.9676,629.2
863.0014,178
863.041,329.7
863.5567,691
863.8259,583.3
863.8676,203.8
864.2797,157.1
864.5261,1820.4
865.1833,314.2
865.5036,143.6
866.1891,1763.8
866.4025,292.3
867.0306,164.2
867.0984,842.4
867.2607,129.6
867.3758,834.9
867.4508,651.6
867.4922,129.2
867.8595,250.2
868.2271,258.5
868.3241,613.5
868.3848,149.2
868.6911,193
868.8145,585.2
868.866,224.4
868.9773,711.9
869.1813,134.6
869.2389,641
869.2741,503.7
869.3114,499.9
869.338,1523.4
869.3721,786.6
869.4299,1306.2
869.4848,2055.8
869.5231,3816
869.6199,6605.5
869.6443,4936
869.702,1924.7
869.7186,2840
869.7654,746.5
869.8014,675.9
869.8826,491.1
869.9591,140.3
870.0284,482.8
870.5572,1038.8
870.9668,702.2
871.0355,822.1
871.3323,111.1
871.5741,220.3
871.8028,677
871.8889,636.9
872.0205,419.2
872.1967,21.8
872.5051,593
872.6984,520.2
872.8647,310.4
873.7363,549.6
873.8112,195.4
874.3547,783.6
874.5665,113.3
875.0466,105
875.7307,23.1
875.7651,118.7
876.1574,189.2
876.2344,703.5
876.427,798.4
876.4632,970.5
876.7231,476.7
876.897,231.2
877.0461,604
877.1699,19.1
877.5738,563.3
877.9229,958.1
878.1347,1690.6
878.1933,230.3
878.2638,192.8
878.4313,1017.3
878.4771,773.4
878.4976,233
878.565,106.4
878.7467,304.8
878.8207,157.1
878.9377,200.4
879.1681,181.4
879.3647,759.2
879.7057,121.9
880.2939,215.8
880.3476,366.7
880.6052,781
880.6693,22.2
881.5711,479.1
882.0952,594.7
882.1208,262.5
882.4431,568.2
882.551,463.9
882.581,508.7
882.666,1357.6
882.7752,524.1
883.1597,22.8
883.5693,1296.6
883.6216,1464.6
883.7171,143.3
883.8205,439.1
884.1931,218.2
885.0601,112.4
885.179,136.3
885.3842,754.1
885.8408,194.5
886.0343,245.4
886.2684,203.6
886.6408,681.6
886.6687,538.4
887.2835,102.8
887.5034,139.7
887.6577,332.8
887.9958,21.8
888.1698,556.5
888.3036,1196
888.9558,20.7
889.4441,817.4
890.2611,209.1
890.6084,566.7
890.7819,211.3
891.4808,588
891.6403,18.5
892.4658,579
892.5269,237.8
892.6877,18.5
892.7259,1145.3
892.968,1445
893.4108,363.9
893.4751,578.1
893.5458,212.1
893.9294,3054
894.0238,20.4
894.2014,607.8
894.3328,799.3
894.4923,538.8
895.1642,503.7
896.1826,223.4
897.0524,118.6
897.4211,834.6
897.7259,20.1
897.8207,328.9
898.2777,232
898.5206,851.9
898.8231,1522.8
898.9772,628.4
899.3001,490.2
899.3251,292.6
899.4766,1085.7
899.6803,504.6
899.8047,144.5
899.8718,150.5
900.0196,343.2
900.1396,896
900.2262,629.6
900.3483,731
900.4379,1037.4
900.8605,307.7
901.0404,957.1
901.218,135
901.5163,109
901.5521,114
901.915,718.7
902.166,288.5
902.1772,285
902.2136,651.1
902.2533,2703
902.4073,174.8
902.646,775.2
902.8269,212.6
902.9552,593.7
903.0784,162.2
903.2814,759.7
903.7239,342.7
903.8633,216.6
904.1994,478.7
904.3864,277.1
904.5436,123.3
904.8627,723.1
905.7988,18.1
905.9571,735.1
906.0003,126
906.0841,806.1
906.3095,1307.4
907.0654,328.6
907.2303,624.5
907.3299,666.8
907.4181,566.2
907.6556,697.6
907.8861,312.1
907.9895,168.4
908.4691,138.7
908.5363,343.3
908.9343,832.4
909.0568,24.7
909.9465,136.6
909.9851,149.5
910.0297,199.1
910.0677,151.4
910.3471,671.5
911.2763,774.8
911.5973,19.2
911.6469,1293.7
911.9882,22.4
912.5914,570.1
912.7322,21.8
913.2454,742.5
913.4127,338.6
913.4769,572.2
914.1406,634.7
914.1947,1596.7
914.3202,658.8
914.5418,1079.1
914.9192,155.6
915.4072,249.4
915.9503,801.4
916.5331,865.3
916.6258,844.7
916.788,287.5
916.822,380.8
917.6102,162.7
917.7255,184.8
918.0442,140.7
918.0972,265.8
918.69,272.3
918.8137,296.6
918.9006,1395.8
919.5041,21.5
919.5858,104.7
919.7566,176
919.8509,447.3
920.2531,552.2
920.628,525.9
921.0294,138.2
921.0563,442.7
921.3465,222.1
921.4631,119.3
921.8729,1370.3
922.1654,963.7
922.2453,1520.6
922.5825,319.2
922.7626,343.7
922.8532,243.2
923.1635,108.9
923.6265,383.1
923.798,145.2
924.9886,234.6
925.0741,167.5
925.7234,324.9
925.8885,226.7
925.9619,658.5
926.3068,981.2
926.8981,576.1
927.1821,311.7
927.3169,186
928.763,170.8
928.9271,327.8
929.4209,173.7
929.6257,257.6
929.7676,248.7
929.8646,548.5
930.0428,118.7
930.2103,366.7
930.3464,2034.1
930.4377,616.1
930.668,848.7
930.9898,499.2
931.5844,220.4
931.8599,123.8
932.1248,152.5
932.1548,1749.8
932.289,206
932.5407,221.8
932.7165,20.2
932.8222,406
933.1832,212.7
933.4305,280
933.7903,560.9
933.8234,557.1
934.0017,99.4
934.1836,148.7
934.3082,138.4
934.4219,428.2
934.8184,374.7
934.975,1256.1
934.9877,1176
935.1739,757.1
935.6487,457
935.7659,1061.3
936.2393,1029.7
936.5666,1558.4
936.7361,740.4
936.7912,403
937.0367,395
937.3803,855.2
937.4814,762.3
937.5235,116.7
937.8779,247.7
937.9821,19.1
938.0396,318.8
938.5206,211.6
938.5472,555.8
938.6157,222.8
939.043,141.7
939.1813,533.2
939.3751,255.1
939.6272,118.5
939.7288,193.8
940.4503,230.5
940.7623,414.5
940.7957,672.1
940.967,704.5
940.9828,749.8
941.2466,136.7
941.538,187.1
941.8626,203.7
942.0284,185.4
942.3695,1217.5
942.8701,449.8
943.2959,1010.8
943.5501,1082.3
943.6812,711
943.7074,112.7
943.9207,415.2
944.0416,104.6
944.1105,127.8
944.4361,724.8
945.0939,267
945.2205,201.7
945.4573,1369.8
945.6005,182.2
945.7808,366.4
946.747,637.3
946.9239,19.7
946.9504,447
947.9382,514.7
947.9708,353.1
948.2243,1489.4
948.5984,125.5
949.1761,261.4
949.4762,116.2
949.808,222.8
949.84,185.9
950.0661,184.9
950.1067,1168.2
950.1558,255.8
950.2618,716
950.3652,178.2
950.4208,826.2
950.4886,848.3
950.5853,1165.6
950.8297,207.7
950.918,701.1
951.2819,448.2
951.4338,135
952.1067,631.8
952.1719,21.4
952.5224,465.6
952.6001,850
952.9445,805.3
953.0648,590.4
953.182,249.6
953.2402,167.2
953.3543,823.9
953.3765,21.3
953.4386,734.9
953.8655,252.1
953.8949,475.4
953.9737,1575.5
954.1343,378
954.5002,496.3
954.9013,284.8
955.0756,690.1
956.0621,19.6
956.1027,1180.2
956.1555,573.8
956.3562,187.3
956.3758,179.9
956.4914,513.7
956.5109,233
956.5601,110.1
956.6433,444.4
956.7659,384
956.97,157
957.052,673.2
957.1515,410.1
957.2128,1578
957.4757,158.6
958.0355,530.4
958.2706,690.5
958.3778,155.5
958.5711,744.8
958.5962,367.1
959.3536,21.4
959.802,152.9
959.9595,141.2
960.1316,22
960.1703,857.5
960.4463,648.9
960.8148,746.1
960.8753,482
961.0109,675.7
961.2735,1062.1
961.3202,429.6
961.4548,174.6
961.7073,185
961.8536,132.8
962.2541,875.1
962.3568,729.9
962.7872,151.4
962.8533,763.7
962.8891,1947.2
963.1902,21.4
963.3424,20.7
963.3752,309
963.6886,1356.3
963.9339,658.1
964.1179,717.7
964.4173,21.5
965.0238,591.8
965.3954,1571.2
965.4441,576.9
965.4971,158.9
967.0923,1349.8
967.3733,288.3
967.5032,207.1
968.5628,300.3
968.6428,1872.7
968.9232,117
969.0214,493.4
969.3814,818.3
969.5777,282.5
969.8656,1488.8
969.9201,848.5
969.9579,224.6
970.2145,173.1
970.5798,1235.4
970.6619,128.9
970.7646,218.4
970.9178,333
971.9902,918.5
972.0758,1713.4
972.1417,1443.4
972.2506,1627.8
972.6078,565.9
972.7575,641
972.8827,21.1
972.938,601.2
973.1895,204.8
973.7013,1510.6
973.7629,2109.1
974.0313,236.5
974.1835,764.1
974.4705,689.2
974.8568,488.7
975.8205,134.2
976.0413,866.1
976.1714,622.3
976.3771,1293.2
976.415,782.6
976.8792,241.8
977.2623,1414.2
977.4607,1893.7
977.6942,434.4
978.0069,249.3
978.5286,1316.8
979.3365,20.8
979.5193,1011.9
979.5691,910.4
979.6437,95.7
979.6819,589.8
979.7304,137.2
980.0266,136.7
980.2329,838.8
980.77,453.1
980.9131,632.8
981.2705,869.9
981.5675,394.2
981.6583,209.5
982.8173,174.1
982.9685,1607.7
983.6095,532.2
983.6624,1284.6
983.8641,541.5
984.6818,21.1
984.7157,987.4
985.0991,344.9
985.2311,121
985.3861,742
985.6424,1199.8
985.6873,1307.7
985.7326,1672.2
985.8526,1181.3
985.956,154.4
986.0996,283.5
986.1818,873.2
986.2275,830.9
986.7603,229.6
987.5123,1312.8
988.3763,642.4
988.7747,2056.1
988.9381,1123.1
989.1667,173.3
989.4367,179.6
989.7464,1356.2
989.8068,328.2
989.8654,115.9
990.2017,593.6
990.4072,232.1
990.531,187.1
990.6551,133.1
990.7096,21.9
990.7417,213.1
991.5386,18.2
991.738,152.9
992.3417,937.6
992.5943,1634.5
992.766,659.1
992.806,962.9
993.5509,360.2
993.7512,998.5
993.8293,744.1
993.892,388.2
994.6982,189.5
994.9817,664.1
995.0087,19.6
995.1508,779.6
995.231,23.4
995.2852,344.3
995.4516,984.2
995.8076,875.4
996.1711,179.9
996.3232,172.5
996.3978,611.3
996.4801,400.7
996.7462,864.9
996.8228,913.5
997.0861,1885
997.3817,122.1
997.4336,1275.4
997.6103,336.3
997.9013,1103.8
998.1094,541.1
998.2383,650
998.5032,722.6
998.621,765.6
998.7213,114.7
999.2035,1822.1
999.3416,1015.1
999.6455,538.9
999.7369,21.8
999.9269,261.2
