SPECTRUM - MS,
223.RAW,
FTMS + p ESI Full ms [50.00-1000.00],
Scan #: 1-40,
RT: 0.01-1.97,
AV: 40,
m/z,Intensity

50.0147,211.1
50.0335,280.4
50.0365,718.7
50.0382,20.6
50.0485,118.4
50.0489,218.3
50.0529,299.1
50.0634,16.3
50.0858,97.7
50.0905,17.9
50.0927,673.3
50.1042,262
50.1314,293.5
50.1334,496.6
50.1429,290.4
50.1443,129.1
50.155,131.1
50.1693,527.2
50.1703,306.1
50.1877,211.5
50.1886,109.2
50.224,603.7
50.2299,248.5
50.2352,304.4
50.256,452.3
50.2593,272.5
50.2656,113.9
50.2669,443.2
50.2746,145.6
50.2765,130.5
50.3141,161
50.3309,327.9
50.3409,164.2
50.3442,279.5
50.3465,414.5
50.3472,535.1
50.3486,315.4
50.3499,447.6
50.3619,602.8
50.3645,240.9
50.3667,289.1
50.3712,398.7
50.3758,176.8
50.3851,554.8
50.3972,456.3
50.4022,235.9
50.4035,542.9
50.4099,537.5
50.4112,534.9
50.4116,18.3
50.429,172.5
50.4295,223.6
50.4414,18.6
50.4445,259.3
50.4621,185.6
50.4649,267.8
50.4664,273
50.471,443.4
50.4803,103.7
50.4815,497.3
50.4908,176.6
50.496,297.5
50.5106,133.2
50.5438,172.1
50.5563,119.5
50.5567,519
50.5579,126.8
50.5588,364.9
50.5636,131.8
50.5701,101.1
50.5838,354
50.5888,17.6
50.6012,332.4
50.6163,323.9
50.6187,125.6
50.6224,225
50.6268,172.4
50.6504,17.1
50.6508,16.9
50.6519,17.3
50.6839,499.6
50.6937,222.1
50.6966,149.3
50.6975,642.4
50.7021,239.3
50.7027,175.7
50.7118,16.8
50.7129,139.6
50.7187,763.8
50.7351,16.5
50.7431,148.4
50.7502,233.4
50.7534,90
50.7558,103.9
50.7574,114.4
50.7606,112
50.7625,18.5
50.7869,584.6
50.7959,561
50.8103,118.2
50.8324,133.8
50.8332,479
50.8347,16.7
50.8368,302.2
50.8381,130.7
50.8396,25.5
50.8489,439.3
50.8495,674.3
50.8512,537.2
50.8584,299.2
50.8841,89.9
50.8844,16.4
50.8895,16.9
50.896,349.8
50.8979,182.3
50.9135,764.6
50.9183,130.2
50.952,378.3
50.9541,789.2
50.9654,247.5
50.9748,391.4
50.9832,535
50.9959,428.5
50.9978,195.2
51.0226,159.7
51.0249,104.8
51.0268,17.8
51.0471,91.5
51.0691,18.7
51.0792,16.9
51.0832,120.4
51.087,132.8
51.1171,223.7
51.1245,106.4
51.1447,305
51.1485,122
51.1519,116.3
51.1626,293.9
51.1863,687.9
51.1926,436.2
51.1961,606.5
51.2206,18.5
51.2348,87.3
51.2405,415.3
51.2502,644.8
51.2577,268
51.2693,255.4
51.2777,127.4
51.2826,17.1
51.2951,496.3
51.299,105.2
51.3155,112.8
51.3488,283.2
51.3585,230.2
51.3646,487.6
51.4035,660.8
51.4049,94.3
51.4067,500.3
51.4194,129.4
51.4288,491.4
51.4295,18.1
51.4383,436.6
51.4435,239.9
51.4522,17.9
51.4888,121.5
51.4894,126.2
51.4919,123.2
51.493,19.7
51.496,579.2
51.5032,15.6
51.5062,121.8
51.5124,111
51.5351,112.4
51.5472,308.5
51.5831,305.1
51.5895,127.6
51.5963,18.9
51.601,121.1
51.604,18.2
51.6099,15.5
51.6201,80.2
51.6213,574.4
51.6256,430.6
51.6262,129
51.6402,137
51.6467,795.2
51.6508,122.2
51.6578,18.1
51.6849,553.5
51.6925,816.5
51.7001,111.3
51.7292,309
51.7386,119.3
51.7478,217.8
51.7662,90.1
51.7738,257.9
51.7818,94
51.784,279.8
51.7861,119.1
51.7929,371.2
51.8054,136.3
51.8137,438.1
51.8157,115.9
51.8253,464
51.8309,143.8
51.9096,158.5
51.916,928.2
51.9285,127.6
51.9345,351.5
51.9664,160.3
51.975,607.5
51.9868,123.4
51.992,16.4
51.9978,196.7
52.016,17.8
52.0188,828.9
52.021,654.9
52.0221,388.8
52.0302,18.7
52.0368,203.1
52.0378,208.8
52.0398,17
52.0694,218.2
52.0967,16.8
52.1081,267.9
52.1257,341.4
52.1277,290.5
52.134,287.9
52.1502,405.7
52.1524,520.4
52.174,503
52.177,18.9
52.1974,101.7
52.215,433
52.221,156.9
52.2413,86.6
52.2422,322.5
52.2585,103.8
52.2593,559.2
52.2606,547.8
52.2759,147.3
52.2763,136.8
52.2823,15.5
52.2834,165.7
52.3333,392.2
52.3457,108.2
52.3569,18.6
52.3598,214.3
52.3792,18.5
52.3984,124.3
52.416,270.1
52.4161,259.1
52.4169,502.9
52.4194,14.8
52.4216,450.6
52.4338,293
52.4344,276.7
52.4356,703.5
52.4442,119.1
52.4486,191.2
52.4614,162.1
52.4824,230.9
52.5314,15.9
52.538,120.8
52.5544,337.9
52.5582,303.5
52.5676,311.2
52.5687,114.4
52.5757,17
52.5897,556.3
52.593,248.6
52.5935,125.4
52.6044,17.4
52.6055,141.3
52.6083,436.4
52.6102,20.2
52.6139,290.9
52.6157,347.8
52.638,16.4
52.6422,879.3
52.6433,144.7
52.6437,297.9
52.6486,118.8
52.6504,276
52.6629,457.3
52.6718,254.5
52.6848,459
52.7285,127.1
52.7328,144
52.734,266
52.7462,87.7
52.7501,484.8
52.7771,467.1
52.7805,220.6
52.7841,129.8
52.8067,602.6
52.8081,272.1
52.824,15.3
52.8268,1236.1
52.8283,3203.6
52.8296,444.7
52.83,387.6
52.8307,841.7
52.8314,3189.5
52.8315,3200.6
52.8324,674.5
52.8334,1091.1
52.8339,106.3
52.8469,420.2
52.8502,15.3
52.8628,285.9
52.8685,16.3
52.8846,468.3
52.9163,277.9
52.9279,630.7
52.9378,540
52.9439,123.4
52.9483,332.7
52.9666,179
52.9781,119
53.0136,191.9
53.0219,102.5
53.0407,786.5
53.0437,86.4
53.0478,96.8
53.0499,138.9
53.098,180
53.0996,242.8
53.1064,121.8
53.1241,414.9
53.1279,134.5
53.1377,734.6
53.1496,164.5
53.1581,134.9
53.1677,706.2
53.1693,127.5
53.1818,500.8
53.1859,446
53.1869,131.5
53.2022,464
53.2151,438
53.2254,16.9
53.2321,237.1
53.2402,512.1
53.2463,100.2
53.2643,17.1
53.2766,442.4
53.293,315.2
53.2958,230.5
53.3047,111.2
53.3078,271
53.3109,81.5
53.3133,496.3
53.3144,504.4
53.3326,265.1
53.3378,297.3
53.3396,299.5
53.3458,291.1
53.3504,111.8
53.355,217
53.3747,19
53.3808,387.5
53.3814,295.9
53.3927,157.5
53.4019,543.2
53.4466,575.7
53.4686,17.4
53.4725,125.8
53.4875,324.7
53.4943,448
53.4986,507.8
53.5029,17.8
53.505,259.7
53.5157,17.4
53.5345,245.3
53.5393,90.5
53.5472,128.3
53.5485,17.4
53.556,294.7
53.5751,298.8
53.58,437.2
53.5982,15.8
53.5998,144
53.6155,17.4
53.6382,81.8
53.6437,313.7
53.6454,119
53.6528,245.4
53.6534,141.6
53.6984,121.2
53.72,197.9
53.7208,266.8
53.7221,226
53.7282,90.2
53.7376,124.7
53.7411,220.9
53.7682,258.2
53.7768,160.8
53.7891,118.6
53.8024,235.6
53.8278,735
53.8492,149.6
53.8558,342.8
53.8683,186.3
53.8723,472.3
53.9048,576.2
53.9157,171.4
53.9524,234.4
53.9565,107.2
53.9625,317
53.9664,19
53.9831,657.3
53.9851,98.3
53.9941,230.5
53.9959,111.3
54.0036,227.1
54.041,593.7
54.0463,573.8
54.0617,219
54.0666,157
54.0749,87.5
54.0783,80.4
54.09,108.1
54.097,463.6
54.1013,442.6
54.1195,150.5
54.1291,759.9
54.1386,80.1
54.1418,144.8
54.1682,424.5
54.1902,459.2
54.1912,347.5
54.1952,397.2
54.1972,282.4
54.1997,84.4
54.2021,322.3
54.2118,16.5
54.2158,128.3
54.2248,16.6
54.2437,96.1
54.2485,121.8
54.2593,149.9
54.262,371.4
54.2756,231.7
54.277,297.1
54.2961,187.9
54.3409,233.1
54.3494,323.8
54.3559,18.7
54.3602,309.2
54.3714,513.9
54.3918,126.6
54.403,16
54.4126,134.2
54.4165,169.4
54.4176,338.6
54.4488,17.1
54.4631,111.8
54.4792,333.9
54.4817,157
54.5044,390.4
54.5387,298.4
54.5437,143.2
54.5558,468.9
54.5583,15.3
54.5975,310.4
54.601,647.6
54.6055,155
54.6128,124.3
54.6187,16.4
54.6197,16.4
54.6293,400.5
54.6498,94
54.6644,559.8
54.6713,109.9
54.6838,17.8
54.6998,166.5
54.7025,226.6
54.7059,465
54.7117,491.6
54.7205,97.2
54.7216,91.5
54.7375,426.2
54.7396,347.1
54.7527,15.5
54.7658,220.4
54.7673,362.9
54.7815,114.7
54.79,119.5
54.7918,172.6
54.803,131.4
54.8169,215.4
54.8234,126.8
54.8275,16.4
54.845,224.6
54.8458,364.5
54.8471,89.5
54.851,552.9
54.8541,172.1
54.8618,22.3
54.8816,194.5
54.8853,333.3
54.897,149.2
54.9022,788.9
54.9051,120.4
54.917,16.4
54.9311,15.4
54.9436,622.6
54.9522,566.1
54.9576,246
54.9597,548.2
54.9681,155.1
54.9748,19
54.9787,449.5
54.9812,435
55.0193,89.2
55.03,17.4
55.0403,120.7
55.0497,596.3
55.0661,228.7
55.0891,181.9
55.1106,487.7
55.112,151.1
55.1317,17.6
55.1511,123.6
55.1564,119.9
55.1594,133.4
55.168,16.3
55.1702,318.1
55.1759,436.4
55.1845,119.3
55.189,82.1
55.1913,19.2
55.2098,84.2
55.2128,797
55.2134,101.5
55.2202,241.9
55.2257,112.6
55.227,122.5
55.2294,284.9
55.2436,113.9
55.2705,239.4
55.2803,131.8
55.282,190.4
55.3153,134.2
55.3216,328.9
55.3421,94.5
55.3532,142.7
55.3544,181.3
55.3596,16.2
55.3618,102.8
55.3643,130.5
55.3771,514.4
55.3866,520.3
55.3972,588.6
55.4332,131
55.4377,335.6
55.4381,122.3
55.4479,16.7
55.4611,204.1
55.4618,163
55.4647,230.4
55.4885,228.1
55.4991,100
55.5109,117
55.5185,203.2
55.5203,275.2
55.5219,316.5
55.5309,378.1
55.5362,151
55.5462,145.9
55.5508,131.4
55.5532,758.6
55.5686,475.8
55.5752,105
55.5884,702.9
55.5923,645.1
55.6098,132.3
55.611,333.8
55.6158,598.5
55.62,279.5
55.6211,16.6
55.6256,111.9
55.6282,167.8
55.6289,286.8
55.6402,195.6
55.6646,321.5
55.6666,293.3
55.6761,119.9
55.7053,217.6
55.7151,158.5
55.7217,258.1
55.7267,176.8
55.7321,159.5
55.7494,124.6
55.7794,463.6
55.7902,639.9
55.7947,143.3
55.8382,557.4
55.8394,209.9
55.8655,318
55.8707,111
55.8717,312.4
55.8946,169.6
55.9073,149.9
55.9199,16.7
55.9214,972.2
55.9324,153
55.9456,587.1
55.9556,503.8
55.9694,156.9
55.9864,451.4
56.0011,17.1
56.016,114.1
56.0202,244.3
56.0215,15.3
56.0488,246.2
56.0518,108.8
56.058,510.4
56.0604,266.2
56.0627,102.5
56.0643,183.8
56.0735,17.2
56.0908,575.1
56.0928,611
56.0971,399.4
56.0975,304.3
56.1044,160.3
56.1135,119.9
56.1192,100.9
56.1194,94
56.1338,345.5
56.1354,196
56.1423,355.6
56.1549,770.7
56.1813,97.6
56.1817,455.1
56.1894,353.3
56.2141,290.2
56.2291,521.9
56.2441,98.6
56.2504,366.5
56.272,116
56.2855,505.6
56.3106,126.6
56.3405,521.5
56.3531,18.2
56.3537,743.9
56.3623,221.8
56.3856,156
56.3868,593
56.3883,464.2
56.3925,87.3
56.394,172.2
56.4411,83.7
56.457,358.7
56.4589,314.3
56.4688,21.8
56.4864,105.3
56.526,299.9
56.5297,152.5
56.5426,287.7
56.5515,367.5
56.5537,246.8
56.5573,228.4
56.5644,107.5
56.5701,688.3
56.5725,119.1
56.5863,468.6
56.6128,273.8
56.6152,635.9
56.6191,103.8
56.6199,126.8
56.6308,80.7
56.6418,122.3
56.6504,248.1
56.6645,176.3
56.684,17.3
56.6986,15.6
56.7044,282.2
56.7067,100.2
56.7438,251.4
56.7565,224.2
56.757,16.8
56.7851,425.5
56.791,497.4
56.7988,571.2
56.8,108
56.8082,325.6
56.8184,195.4
56.8255,122.9
56.8299,99.2
56.8462,301
56.8682,163.8
56.8734,414.1
56.8797,16.4
56.8955,190.1
56.9033,110.4
56.9072,403.7
56.9117,164
56.9199,16.2
56.9334,86.5
56.9336,87.4
56.9408,333.5
56.9469,698.9
56.9619,109.2
56.9808,124.3
56.9819,312.7
56.9974,187.2
57.0166,448.3
57.022,423.1
57.0338,652.8
57.0343,498.1
57.0354,127.3
57.037,21.7
57.0387,156.8
57.0509,414.1
57.0777,108.5
57.1121,19.4
57.1209,121.2
57.13,483.8
57.1461,122.7
57.1559,264.3
57.1597,240.5
57.1756,134.5
57.1797,661.2
57.1814,21
57.1875,493.5
57.2049,21.7
57.2085,639.3
57.222,284.9
57.2458,127.7
57.2678,696.7
57.2736,353.6
57.2852,711.4
57.2914,482.8
57.2937,239.1
57.3026,518.2
57.3281,362.1
57.3528,16.6
57.3729,244.3
57.3812,95.3
57.385,233.5
57.3938,121.9
57.4002,499.1
57.4102,303.1
57.4305,14.9
57.431,268.1
57.4334,357.2
57.4566,236.4
57.4691,380.3
57.4777,463.4
57.4919,86.7
57.4976,694.8
57.5157,287.3
57.5488,168.7
57.5494,130.1
57.5519,105.4
57.5641,414.2
57.5764,110.8
57.581,269.2
57.6082,90.7
57.6093,321
57.6144,189.5
57.6173,84.3
57.6272,89.5
57.6372,17.4
57.6686,237.3
57.6937,124.5
57.6956,408.9
57.7066,416.5
57.7282,457.9
57.7417,267.9
57.7455,292
57.7538,194
57.774,90.3
57.7879,190.7
57.7994,226
57.826,465.8
57.8367,687.6
57.8429,240.5
57.8441,212.6
57.849,235.9
57.8622,16
57.8784,81.4
57.9101,708
57.9306,134
57.9516,513.5
57.9532,550.6
57.9571,16.4
57.9581,291.6
57.9653,321.8
57.976,16.4
57.9775,465.5
57.9817,289.3
57.9915,179.8
57.9979,98.6
58.0062,502.1
58.016,113.9
58.0164,266.4
58.0257,224.9
58.0326,271.7
58.0482,127.3
58.0561,15.3
58.06,128.1
58.0757,151.1
58.0871,447.7
58.0921,342.2
58.1128,122.9
58.1153,253.5
58.1254,19.3
58.1345,105.4
58.14,629.4
58.1489,782
58.161,319.7
58.1626,107.7
58.1655,17.7
58.1662,473
58.1717,346.9
58.1819,127.6
58.19,83.3
58.1919,15.1
58.1977,161.4
58.2151,166.2
58.234,132.2
58.2413,100.4
58.258,308
58.3077,139.8
58.3356,101
58.3429,300.9
58.3497,154.4
58.3578,321.1
58.3683,111.3
58.3727,180.2
58.374,320.2
58.3784,87.3
58.3976,523
58.4004,254.7
58.4252,15.5
58.4393,104.8
58.4558,411.8
58.4602,736.7
58.4783,15.4
58.4874,627.9
58.4978,624.5
58.5147,142.6
58.52,112.6
58.5366,180.2
58.5674,307.6
58.5722,136.1
58.5949,16.1
58.5969,380.7
58.601,475.4
58.6119,619.8
58.6154,321.3
58.6187,362.1
58.6249,310.5
58.6379,239.1
58.6624,339.3
58.6789,487.4
58.6972,256.4
58.6991,477.8
58.7176,121.8
58.7186,101.5
58.7309,816.6
58.7398,131.4
58.743,86.7
58.7584,134.6
58.7682,667.1
58.7696,294.5
58.7764,234.9
58.7841,295
58.8163,237.6
58.8249,90.3
58.8329,107.4
58.8365,247.9
58.8481,670.7
58.8502,225
58.856,315.6
58.8677,82.6
58.8706,420.3
58.8786,557.4
58.8806,15.9
58.881,238.3
58.9046,118.6
58.9242,146
58.927,508.3
58.9358,795.7
58.9398,133.5
58.9742,486.1
58.9818,279.4
58.9835,255.2
58.9913,230.9
58.9982,135.8
59.0021,19.4
59.0213,652.4
59.0671,666.2
59.0817,547.9
59.0828,132.5
59.0946,472.6
59.1052,405.7
59.1114,493.7
59.122,379.4
59.1401,663.3
59.1498,506.1
59.1539,229
59.1868,101.4
59.2041,351.4
59.205,170.5
59.2072,664.5
59.2162,16.1
59.2472,381.7
59.2518,88.5
59.2558,499.9
59.2625,117.1
59.2731,130.5
59.2856,92.6
59.3282,149.7
59.3289,221.1
59.3763,184.2
59.3784,258.5
59.3852,135
59.3901,93.1
59.3913,152.1
59.4146,114.8
59.422,113.5
59.4453,710.4
59.4503,99.7
59.4579,454.1
59.5052,344.9
59.5141,322.5
59.521,272.3
59.548,392.7
59.549,18.1
59.5614,108.7
59.576,466
59.5828,339.6
59.5853,127.2
59.5901,123.3
59.5907,492.7
59.6009,655
59.6068,186.7
59.6229,806.2
59.6274,486.7
59.6377,229.8
59.6393,113.3
59.6449,324.6
59.6536,388.2
59.6588,124.9
59.661,520.4
59.679,126.6
59.6895,301.1
59.7136,368.9
59.7253,104.9
59.7435,715.4
59.7721,231.5
59.775,98.9
59.7801,248.8
59.819,113.7
59.8421,436.1
59.8471,149
59.8574,137.7
59.8987,105
59.9008,306.5
59.9158,188.9
59.9279,462.4
59.9471,20.2
59.9522,241.3
59.9567,265.1
59.9631,75.6
59.9708,327.4
59.9866,159.3
59.993,17.1
60.0027,128.2
60.0248,366.7
60.0294,321.6
60.0308,272.4
60.0585,108.2
60.0932,246.3
60.0961,455.1
60.1044,451.9
60.1051,17.5
60.1156,348.8
60.1194,103
60.1507,224.2
60.182,213.6
60.1914,100.4
60.2122,191.4
60.2269,148.4
60.2443,247.7
60.2625,245.9
60.2732,300.8
60.3243,153.5
60.3298,274.4
60.3396,195.9
60.3428,698.8
60.3459,17
60.3478,725.7
60.3651,19.9
60.3726,124.4
60.378,17.1
60.3917,207.9
60.3934,365.5
60.3986,251.7
60.4161,734.1
60.4231,270.7
60.4382,180.7
60.4482,129.3
60.4542,124.4
60.4596,139.7
60.4615,129.7
60.4619,514.5
60.4675,307.1
60.4728,274.1
60.4884,388
60.4909,668.4
60.492,676.5
60.5127,90.2
60.5184,296
60.5255,496.4
60.5385,15.6
60.5444,92.1
60.5598,111.2
60.5678,168
60.5769,17
60.5845,155.8
60.6067,135.2
60.6227,177.1
60.6282,724.9
60.6375,19.2
60.6517,551.8
60.6753,191.5
60.6937,17.6
60.6991,198.1
60.7205,111.6
60.7228,487.5
60.7252,18.7
60.7496,117.6
60.7512,480.3
60.7672,17.3
60.7858,202.3
60.7885,120.4
60.7947,230.5
60.8075,14.9
60.8077,14.2
60.8223,132.1
60.8273,761.3
60.8351,362.9
60.845,271.1
60.8721,182.8
60.8915,172.6
60.896,265.3
60.8992,230.6
60.9166,99.6
60.9275,134.2
60.9387,296.9
60.9402,18.3
60.943,368.4
60.9504,210.5
60.9562,135.4
60.9589,136.1
60.9697,16.3
60.9728,136.9
60.9906,18.2
61.0315,765.3
61.0404,836.9
61.0591,82.1
61.0632,333.3
61.0859,137.9
61.0866,15.4
61.0914,132.8
61.11,118.3
61.1199,16.1
61.125,20.6
61.1333,116.7
61.1349,319.3
61.1383,148.1
61.1485,305.5
61.1513,90.1
61.1541,17.6
61.1757,230.6
61.2137,427.7
61.2273,116.6
61.2581,101
61.2984,231.6
61.3044,125.1
61.3257,736.4
61.3275,152.2
61.3507,133.7
61.3691,535.8
61.3939,739.3
61.3961,274.7
61.4023,775.6
61.4612,99.3
61.4648,18.2
61.4955,420.5
61.4974,298.3
61.5043,340.3
61.5156,281
61.5171,16.3
61.5456,341.6
61.5514,192.4
61.601,458.3
61.6039,170.5
61.6137,306
61.6228,731.1
61.6248,202.8
61.6441,97.1
61.6521,138
61.6549,189.3
61.6557,389.2
61.6634,731.5
61.6894,143.8
61.6954,513.9
61.7038,116.4
61.7286,117.5
61.7323,15
61.7418,513.5
61.7424,20.3
61.7447,112.9
61.7531,90
61.7575,138.6
61.7584,263.6
61.7983,172.6
61.8073,266.8
61.8097,240.2
61.8247,123.6
61.8326,17.9
61.8335,18.3
61.8579,123.7
61.8599,558.5
61.8826,126.6
61.9073,115.2
61.9232,423.1
61.9314,288.2
61.9393,116.1
61.954,120.6
62.0169,135.2
62.0239,159.8
62.0272,165.4
62.0365,17.4
62.0499,173.6
62.0678,356.9
62.0689,110.4
62.0707,19.3
62.0796,532.1
62.1092,515.1
62.1648,105.8
62.166,276
62.1681,580.4
62.2046,231.7
62.2131,252.6
62.2149,378.4
62.2236,110.3
62.2329,110.8
62.2359,102
62.2571,100.3
62.2639,446.5
62.2809,20
62.2865,459.2
62.2896,645.6
62.2904,143.1
62.3006,444.7
62.3269,329.5
62.3396,314.1
62.3511,249
62.3537,585.2
62.3607,20.3
62.3746,538.2
62.3804,17.2
62.3982,21.5
62.3992,644.5
62.4166,142.7
62.4227,101.5
62.4375,308.6
62.4608,295.7
62.4662,17.3
62.4673,429.4
62.4713,17.3
62.4787,519.9
62.5126,444
62.5143,578.1
62.529,283.3
62.5308,18.7
62.5516,134.5
62.5544,187
62.5595,20.6
62.6011,251.6
62.6024,574.7
62.6263,272.4
62.6328,201.7
62.641,86.5
62.6425,153
62.6497,126.5
62.6499,175.3
62.6501,131
62.6514,115.1
62.657,18.7
62.6624,330.7
62.6671,149
62.6884,103.4
62.704,373.5
62.7163,303.5
62.7378,385.2
62.7482,195.8
62.7672,582.2
62.7682,170.6
62.8291,16.3
62.847,334.9
62.85,99.4
62.8689,362.2
62.8725,126.2
62.8738,17.6
62.876,581.8
62.8838,18.5
62.9003,280.4
62.9062,423.6
62.9351,214.8
62.9386,104.3
62.9531,114.3
62.9555,921.7
62.9735,486.8
62.9796,198.8
62.9984,470.8
63.0033,102.4
63.022,22
63.0257,225.9
63.0446,275.3
63.0511,150.1
63.0688,463.9
63.1066,104.2
63.1166,277.4
63.1292,335.8
63.1563,171.6
63.1572,421.8
63.1707,771.4
63.1841,549.4
63.2008,123.5
63.2103,198.7
63.2146,16.5
63.2156,103
63.2219,115.4
63.223,229
63.2284,314.8
63.2299,187.5
63.2517,195.2
63.2619,153.1
63.2644,236.4
63.2688,585.6
63.2707,102.3
63.276,506.7
63.2797,152.6
63.2853,368.2
63.3049,118.4
63.3099,137
63.3103,344.1
63.3115,447.3
63.3131,449.4
63.3158,148.3
63.3223,278
63.3271,231.9
63.3488,18.1
63.349,20.4
63.3492,17.4
63.3818,566.6
63.3966,288.5
63.3991,116.1
63.4082,837.2
63.4113,101.9
63.418,494.4
63.4259,375.8
63.4261,370.5
63.4511,436.3
63.4711,530.3
63.4719,16.5
63.4852,234.1
63.4884,17.4
63.5038,18.1
63.5118,15.7
63.5234,350.5
63.5279,571.7
63.5312,509
63.5406,621.9
63.5418,313.3
63.5638,18
63.6062,326.2
63.6366,357.5
63.6578,746.5
63.6826,375.1
63.6869,139.1
63.7225,253.8
63.7227,264.3
63.7229,171.5
63.7324,227.6
63.7423,118.5
63.8135,467.1
63.8195,116.3
63.8316,113.4
63.8395,19.4
63.8615,279.1
63.8851,133.7
63.8905,434.6
63.8993,270.7
63.9137,498.2
63.9157,137.5
63.9177,140.6
63.9294,322.2
63.9489,211.5
63.9943,155.3
64.0075,139.9
64.028,251.7
64.0321,17.2
64.0571,196.6
64.0642,17.7
64.0901,122.9
64.1027,221.2
64.119,675.9
64.1319,482.9
64.1381,505
64.1415,127.9
64.1646,237.3
64.1712,135
64.1915,288.6
64.1924,18.8
64.1934,456.6
64.2101,296
64.2298,218.5
64.2315,348.3
64.2318,254
64.2357,17.6
64.2477,160.3
64.2484,102.8
64.2729,634.5
64.2744,279
64.2865,236.7
64.3031,353.9
64.3076,121.1
64.3167,117.6
64.3262,514.8
64.3374,190.5
64.3539,105.7
64.3681,236.6
64.3747,127.5
64.3823,149.9
64.3901,500.8
64.4106,383.2
64.4275,141.7
64.4506,84.3
64.4562,370
64.4601,18.7
64.4644,128.7
64.472,399.8
64.486,111.7
64.503,282.3
64.5059,603.2
64.5125,153.3
64.5215,344.5
64.536,339
64.5494,169.1
64.5623,232.5
64.5823,455.5
64.5869,189.2
64.6157,105
64.6173,255.8
64.6271,313.9
64.6327,213.7
64.6633,155.8
64.6707,353.2
64.6909,244.3
64.6967,245.3
64.7283,97.4
64.7299,352.1
64.7307,307.8
64.7312,290.2
64.7337,474.5
64.7425,274.7
64.758,102.3
64.7646,274.8
64.7666,106.5
64.7763,134.3
64.7801,327.6
64.7945,547.9
64.8005,121.2
64.8224,200.1
64.8384,135.5
64.8432,101.7
64.8449,309.9
64.8516,109.8
64.8603,345.3
64.8854,294.6
64.8972,17.2
64.9054,391
64.9074,511.5
64.9202,121.4
64.9297,376.7
64.9487,411.4
64.952,120.5
64.9612,148.3
64.9669,134.5
64.9728,154.6
64.9759,153.6
64.9779,163.9
64.9806,22.9
64.9968,102.6
65.0071,423.3
65.0089,810.9
65.023,110
65.0294,115.5
65.0313,122.8
65.0349,431.3
65.0509,185.8
65.0966,579.3
65.1384,312.2
65.1493,438.7
65.1612,18.9
65.1668,19.3
65.2356,697.2
65.2385,599.4
65.2523,142.2
65.2891,412.3
65.3327,127.4
65.3374,152.2
65.3625,148.5
65.3695,19
65.3806,98.9
65.3866,302
65.399,127.5
65.4149,365.1
65.4208,111.3
65.423,99.6
65.4277,122.6
65.4336,306.1
65.4495,17.5
65.4757,82.5
65.4891,134.3
65.4937,251.8
65.4988,239.4
65.501,17.9
65.509,456.8
65.5201,146.8
65.5249,260.1
65.5348,718.9
65.5371,735.6
65.5516,643.4
65.5578,284.7
65.5975,473.3
65.6317,275.5
65.6404,165.9
65.6452,552.2
65.6519,171.7
65.6698,18.7
65.6798,158.9
65.6875,396.5
65.6889,143.8
65.69,132.9
65.6999,118.6
65.7076,490.9
65.7151,343.1
65.7308,23.6
65.7316,227.6
65.7326,906.8
65.7731,442.1
65.7912,184.1
65.8006,263.9
65.8397,228.2
65.8514,137.9
65.8622,85.7
65.8701,514.2
65.8923,262.6
65.8991,213.8
65.9006,118.7
65.9117,138.7
65.9252,115
65.9327,159.6
65.9344,122.9
65.94,130
65.9567,97.3
65.9604,18
65.972,16.8
65.9785,323.4
65.9824,388.9
65.9947,456.4
66.0174,194.9
66.0227,241.3
66.0374,192.8
66.0395,16.7
66.0479,80.4
66.0561,344.8
66.0587,128.8
66.0742,95.2
66.0874,99
66.0881,218
66.1053,735.4
66.1316,352.2
66.1461,16.3
66.1642,151.1
66.1668,162.7
66.1704,16.8
66.1791,263.2
66.2007,120.8
66.202,457.2
66.2087,547.5
66.2131,155.1
66.214,152.9
66.2365,146.6
66.2399,297.6
66.246,582.5
66.2509,19.1
66.253,136.7
66.2581,105.5
66.2647,191.6
66.2828,18.6
66.2881,219.3
66.2909,250.4
66.3041,112.6
66.3106,457.8
66.3127,125.1
66.3205,131.3
66.3376,599.6
66.3384,320.3
66.3584,109.9
66.3636,180
66.3648,16.7
66.3655,594.1
66.3706,375.8
66.3713,19.9
66.3721,122.6
66.3813,530.5
66.3827,192.7
66.3877,463.5
66.3978,321.8
66.4269,15.2
66.4353,138.8
66.4656,377.8
66.4739,247.5
66.4941,18
66.5011,145.6
66.5084,143.5
66.5207,206.2
66.5321,120.6
66.537,182.2
66.5467,245.1
66.5729,118.3
66.5805,472.9
66.5892,464
66.6254,18.4
66.6279,763.3
66.6417,555.4
66.6795,96.3
66.693,313.8
66.6954,532.9
66.709,597.6
66.7547,121.3
66.7591,642.1
66.7652,146.8
66.7669,191.9
66.7686,120.4
66.7807,660.1
66.7886,112.6
66.8043,271.7
66.8101,307.8
66.8371,160.9
66.8557,155.5
66.8756,165.3
66.8783,134.4
66.8925,521.2
66.8959,120.5
66.9004,657
66.9136,533.7
66.9282,149.4
66.9329,20.1
66.9507,112.4
66.9582,283
66.9601,543.9
66.9661,18.2
66.9709,18
66.9846,114.6
66.9884,325.8
66.992,16.3
67,595.5
67.0043,113.2
67.0049,17.7
67.0079,279
67.0133,339.1
67.0539,64
67.0699,290.6
67.0708,128.4
67.0711,132.9
67.0926,157.3
67.0942,754.5
67.1734,172.1
67.19,434.8
67.2058,18
67.2183,115.1
67.2204,118.6
67.2225,124.8
67.2261,133.2
67.2381,26
67.244,510.6
67.2946,153
67.3244,130
67.3386,428.9
67.344,148.1
67.3675,99.6
67.3989,408.5
67.4123,20.8
67.4165,123.9
67.4261,335.7
67.453,452.1
67.4824,165.2
67.4866,16.3
67.4951,200
67.5211,476
67.5356,689.9
67.5542,17.4
67.5553,287.6
67.5771,90.4
67.5798,23.8
67.5871,240.7
67.5912,109.6
67.5979,315
67.6137,120.2
67.6161,623.3
67.6174,360
67.6261,104.5
67.6272,131.6
67.6425,413.4
67.6571,221.5
67.6688,330.7
67.6746,92.7
67.6753,17.7
67.7303,257.2
67.7335,116.9
67.7367,16
67.7379,93.7
67.7447,529.6
67.75,294
67.7673,164.4
67.7749,195.3
67.8023,18.1
67.8065,20.9
67.8182,179.5
67.8302,516.9
67.8403,136.1
67.8576,282.3
67.8597,99.1
67.9056,136.9
67.9404,149.1
67.9425,130.5
67.9609,744.6
67.9838,693.1
67.9953,448.3
67.9964,358.8
68.0207,117.9
68.0463,16.5
68.0871,508.7
68.1042,211.4
68.1207,568.9
68.1537,126.4
68.1624,114.2
68.1671,703.2
68.1754,81.9
68.1803,294.6
68.2148,83.6
68.2371,17.4
68.2415,321.3
68.2512,371.3
68.2526,18.2
68.2611,154.8
68.2746,384
68.2765,171.5
68.2847,149
68.2875,158
68.3355,137
68.3591,726.2
68.3768,568.7
68.3773,128
68.3811,467.9
68.3825,277.7
68.4051,539.2
68.4091,142.9
68.4211,17.8
68.4446,204.9
68.4473,93.6
68.4519,497.6
68.4578,318.2
68.4758,99.3
68.4864,715.4
68.4915,281.7
68.5137,367.3
68.5281,539.2
68.5325,102.9
68.5426,126.2
68.5711,315
68.587,497.9
68.5926,18.8
68.6289,620.4
68.6373,327.1
68.6608,88.6
68.691,103.9
68.7047,253
68.7109,492.1
68.7186,816.4
68.738,506.7
68.7512,315.3
68.775,86.5
68.8116,507.3
68.8223,260.5
68.8543,365.1
68.8579,120.9
68.8646,158.8
68.8664,773.6
68.8734,138.9
68.8778,124.9
68.8884,374.7
68.8914,225
68.8983,453.1
68.9101,151.9
68.9422,247.2
68.9448,238
68.9983,18.8
69.0148,17.4
69.0216,545.9
69.0259,365.6
69.0317,135.8
69.0475,101.3
69.0601,134.6
69.0831,130.9
69.0899,151.7
69.1171,120
69.1416,108.6
69.1458,384.5
69.1777,167.5
69.1893,142.5
69.1966,298.2
69.1996,127.9
69.2173,146.2
69.2752,279.1
69.2819,182.9
69.313,574
69.443,276.6
69.4586,321.9
69.4727,111.1
69.4752,113.2
69.5032,513.6
69.5242,147.9
69.5391,323.4
69.5441,503.2
69.5455,384.4
69.5461,357.6
69.5551,562.1
69.564,347.2
69.5664,350.2
69.5829,437.5
69.5995,542.6
69.6394,290
69.6934,328.1
69.6974,131.3
69.7008,106.6
69.7211,122.3
69.7424,564
69.7712,272.3
69.7848,793.8
69.806,16.8
69.8277,381.9
69.8345,192.6
69.8393,254.3
69.8909,121.3
69.8985,508.4
69.9023,290.1
69.9255,128.6
69.9384,345.5
69.9565,737.7
69.9682,152.1
69.9795,554.9
69.9868,87
69.9967,131.8
70.0101,292.2
70.0461,165.4
70.0648,815
70.0838,93.2
70.098,346.8
70.1209,539.1
70.1215,145.5
70.1274,290.4
70.1322,331.9
70.1352,613.9
70.1442,92.9
70.1743,17.1
70.1981,758.2
70.2718,286.7
70.3017,122.9
70.3245,231.2
70.3258,112.8
70.3334,18.5
70.3446,370
70.3847,123.8
70.3999,481.5
70.4169,160
70.4477,94.6
70.4496,133.6
70.4545,97.6
70.4771,126.3
70.4884,222.1
70.5048,296.4
70.522,124.9
70.526,141.8
70.5299,167.9
70.5317,186.7
70.5462,325
70.5618,18.3
70.5786,531.2
70.6004,267.6
70.6406,234.9
70.6441,423.7
70.6475,233.8
70.6569,118.7
70.6809,195.8
70.6983,460.1
70.7161,455.8
70.7213,16.3
70.7373,224.9
70.749,535.6
70.7497,491.3
70.7504,107.8
70.7579,350.8
70.7769,422.7
70.7821,150.4
70.7904,169.9
70.8103,317
70.8637,128.7
70.8771,114.3
70.8792,18.1
70.881,145.6
70.9069,18.4
70.9598,102.5
71.008,375.1
71.0521,302.8
71.0633,17.5
71.068,643.1
71.08,263.7
71.0806,257.5
71.0827,87.2
71.0843,318
71.1086,208.6
71.1205,21.9
71.1313,276
71.1524,279.4
71.1644,417.1
71.1714,91.5
71.1872,442.2
71.1907,237.3
71.2204,589.3
71.2323,130.8
71.2507,229.5
71.2625,231.6
71.2661,362
71.2897,140.8
71.2987,16.6
71.3136,18.3
71.3204,18.2
71.3287,131.9
71.3634,430.6
71.3659,144.3
71.3679,537.4
71.3804,198
71.3882,19.2
71.399,233.6
71.4026,363.6
71.4058,108.9
71.4136,539.7
71.4352,245.9
71.4412,310.2
71.4456,121.6
71.4477,292.6
71.4937,648.7
71.5072,186.8
71.5123,344.6
71.5212,214.6
71.529,318.7
71.5308,271.8
71.539,162.5
71.5763,621
71.5803,536
71.5909,323.2
71.6025,333.3
71.6105,333.9
71.6184,214.6
71.6732,295.2
71.7048,125.8
71.7246,663
71.7339,258.1
71.7365,103
71.7717,533.4
71.8103,477.3
71.8179,493
71.8196,127.3
71.8225,219.6
71.8342,209.8
71.8394,449.9
71.861,101.5
71.8672,15.9
71.8966,92.2
71.8973,695
71.9028,351.8
71.9106,16.9
71.9142,164.2
71.9195,630.1
72.0058,95.9
72.0552,354.9
72.0796,709.9
72.0804,908.7
72.0923,113.6
72.0995,804.4
72.1041,645.6
72.1101,86.7
72.1206,264.5
72.1247,666.9
72.1316,145.1
72.1402,174.4
72.1451,310
72.1457,227.4
72.17,206.6
72.1864,143.2
72.1877,223
72.1928,650.4
72.2073,104.2
72.2107,213.1
72.2116,148.7
72.2147,167.2
72.2157,543.5
72.2168,375.9
72.2174,315.5
72.2188,688.4
72.22,368.7
72.2219,780.9
72.2232,17
72.2239,296.9
72.2249,968
72.2257,1799.5
72.2263,1540.6
72.2271,2438.6
72.2279,1225.1
72.2287,1394.6
72.2293,1577
72.2297,2055.5
72.2311,794.5
72.2315,953.1
72.2326,2933.2
72.2329,2554.5
72.2342,3630.9
72.2354,2916.3
72.2364,3011.9
72.2369,3747.6
72.2378,1428
72.2385,2123.6
72.2395,3598.8
72.2397,3841.8
72.2404,4086
72.2417,2814.2
72.2426,3109.7
72.2445,639.3
72.2456,804
72.2462,323.2
72.2475,447.4
72.2489,341.8
72.26,166.1
72.2655,255.3
72.2667,245.9
72.3145,518.1
72.3219,18.9
72.3248,205.3
72.3259,477.6
72.3327,126.7
72.3341,318.2
72.337,156.5
72.341,86.7
72.3725,92.8
72.3784,133.1
72.4223,141.8
72.432,17.4
72.4387,541.5
72.4472,134.7
72.4481,18.6
72.4508,106.1
72.4782,375.9
72.5072,219.2
72.5175,315
72.5388,290.4
72.5453,310.4
72.5496,102.4
72.554,128.6
72.5633,87.2
72.6015,83
72.6022,430.5
72.613,113.8
72.6147,116
72.6283,501.9
72.6383,331.2
72.6476,480.4
72.6516,241.6
72.6625,587
72.7094,302.4
72.7125,121.1
72.7188,539.6
72.721,186.1
72.7532,105.5
72.7572,127.1
72.7587,266.4
72.76,555.7
72.7809,253.7
72.7951,17.8
72.7958,314.2
72.8133,606
72.8158,286.4
72.8276,17.6
72.8327,107.4
72.8338,17.6
72.8346,594.3
72.8401,310
72.8841,184
72.905,159.6
72.9301,597.9
72.9368,911.1
72.9412,134.7
72.9577,526.7
72.9689,341.1
72.9801,242.8
72.9904,529.6
73.0345,156.8
73.0559,402.6
73.0647,16.1
73.068,118.8
73.0704,178.3
73.0752,180.7
73.0795,113
73.1045,193.3
73.1141,17.6
73.116,447
73.1185,82.4
73.1316,18
73.1532,371.3
73.1949,123.7
73.2052,302
73.2441,188.9
73.2996,123.8
73.3199,590.3
73.3271,16.6
73.3281,308
73.3479,19.9
73.3512,91.9
73.3939,344.1
73.4014,296.7
73.4403,128.6
73.4448,106.7
73.4507,143.9
73.4594,689.7
73.4685,25.6
73.4838,19.7
73.4873,120.3
73.5112,338.2
73.5254,16.3
73.5283,566.8
73.5488,205.1
73.5547,589.6
73.5626,144.4
73.5721,106.9
73.5833,110.9
73.59,440.8
73.6075,22.1
73.6351,250.2
73.6419,219.6
73.6424,126.6
73.6582,114
73.6857,113.1
73.7097,566.7
73.726,566.9
73.7345,102.6
73.7529,573.8
73.7612,122.9
73.7795,332
73.7844,404.8
73.7941,510.4
73.7974,16.3
73.823,302.3
73.8304,107.6
73.8501,192.1
73.8711,793.6
73.8729,17.8
73.9035,342.9
73.9054,236
73.9127,417.1
73.9133,612.6
73.9453,15.3
73.96,370.1
73.9654,21.2
73.9725,376.4
73.978,301.3
73.9901,305.7
73.9986,141.1
74.0148,112.4
74.0229,541.5
74.0562,348.1
74.0598,296.9
74.0936,350.3
74.0955,254
74.1151,285.9
74.1987,104.3
74.2055,127.7
74.2151,422.9
74.2605,18.8
74.2795,314.3
74.2894,318.5
74.2926,125.6
74.299,211.4
74.3028,197.8
74.309,199
74.3112,482.7
74.3258,318.5
74.3308,494.3
74.3531,242.4
74.354,276.7
74.3922,708.4
74.3968,114.1
74.3993,133.7
74.4097,336.4
74.4193,370.7
74.4263,131.3
74.4289,91.4
74.4444,283.6
74.4476,316.3
74.4537,154.9
74.5196,102.7
74.5247,339
74.5403,142.3
74.5537,453.1
74.5685,601.5
74.5745,141.5
74.5831,145.9
74.5875,18.7
74.5899,175.5
74.595,454.6
74.605,702
74.6118,359.4
74.6197,16.5
74.6295,102.5
74.6358,334.9
74.6412,313.1
74.6426,16.9
74.6537,94.3
74.6653,259.2
74.6868,146.4
74.6929,215.9
74.6981,21.7
74.7001,18.4
74.7033,407.8
74.71,231
74.7321,20.4
74.7688,191.6
74.7709,186.3
74.7935,322.9
74.8041,168.5
74.8308,490.9
74.8534,174.9
74.858,234
74.868,133
74.8961,110.3
74.9069,230.1
74.9101,135.9
74.9252,18.2
74.9362,567
74.983,286.8
75.0252,125.3
75.0326,359.4
75.0407,17.2
75.0535,99
75.0542,422.1
75.0549,139.8
75.0901,548.5
75.0911,109.9
75.1031,20.9
75.1135,94.3
75.1138,94.4
75.1177,280.1
75.1216,360.5
75.1275,407.5
75.1372,128.7
75.1583,134.5
75.1596,313.5
75.2114,122.6
75.2203,344.9
75.2247,470.3
75.2288,88.2
75.2733,219
75.2755,132
75.2973,93.4
75.2995,580.7
75.3072,90.8
75.31,17.6
75.3197,128
75.4363,15.5
75.4414,324
75.4441,139.7
75.4542,261.3
75.4787,301.7
75.4957,441.3
75.5214,132.1
75.5232,295
75.5328,427.7
75.5402,507
75.5481,179.9
75.5568,467.7
75.5678,118.7
75.5946,337.3
75.6173,114.7
75.6242,671.9
75.6646,89.1
75.6665,372.4
75.6706,322.7
75.6767,188.3
75.6831,536.4
75.7371,666.2
75.752,206.2
75.7558,17.1
75.7653,273.2
75.7702,17.2
75.7761,448
75.7798,623.8
75.7946,612.3
75.7959,507.2
75.8062,150.5
75.8095,188.4
75.8444,328.1
75.8475,131.5
75.8662,476.6
75.8762,195.1
75.9369,310.8
75.9545,138.4
75.9898,350.1
75.9991,253.4
76.0246,228.6
76.0746,769.9
76.0951,246.2
76.1146,225.6
76.1808,209.2
76.1952,104
76.202,16.5
76.2129,166.5
76.233,621.7
76.2523,151.2
76.263,164.9
76.2993,125.9
76.3008,326.4
76.3033,208.1
76.3254,155.8
76.3471,219.9
76.3893,324.7
76.403,469.8
76.4435,657.3
76.4584,250.4
76.4609,101.7
76.497,124.2
76.5165,496
76.5295,133.6
76.5324,269
76.5484,516.7
76.5553,17.5
76.5617,592
76.5701,117.8
76.5764,557.7
76.5931,491.7
76.595,485.1
76.6386,273.9
76.7103,746.7
76.7136,298.1
76.7285,331.1
76.7293,93
76.7319,467.9
76.7495,20.8
76.7945,81.4
76.8038,109.9
76.8148,651.7
76.8493,463.3
76.8971,553.2
76.9823,818.8
77.03,17.7
77.0326,622.5
77.035,166.7
77.0383,104271
77.0542,319.3
77.0728,159.8
77.0821,152
77.0827,146.2
77.0863,133.7
77.0912,487.6
77.1248,336.2
77.1413,18.4
77.1424,593.3
77.1783,280.5
77.2011,484
77.2054,130.5
77.2105,711.6
77.2202,467.2
77.2263,352.8
77.2389,244.3
77.2439,16.9
77.2825,144.3
77.2847,192
77.2934,374.3
77.2957,125.8
77.3006,269
77.3163,735.8
77.3375,19.7
77.3378,17.8
77.3516,564.8
77.3923,531.4
77.4113,126.4
77.4157,196.6
77.42,155.7
77.4359,423.1
77.445,164.8
77.4684,453.6
77.4707,601.1
77.4924,18.4
77.5196,536.5
77.5356,91.8
77.5643,267.9
77.5799,122.8
77.5991,654.4
77.6088,196
77.6381,187.3
77.6425,366.5
77.6813,650.2
77.7021,267
77.7319,190
77.74,17.9
77.7678,189.7
77.8074,251.1
77.8107,109.5
77.8467,112.4
77.8641,275.8
77.8713,497.7
77.8724,214.8
77.9029,207.1
77.9073,479.9
77.9138,335.7
77.919,532.8
77.9521,16.9
77.9566,641
77.9664,807.8
77.9672,278.4
78.0298,108.5
78.0402,17.7
78.0416,2729.9
78.0521,16.8
78.0627,565.7
78.0742,600.7
78.0799,17.9
78.1126,120.5
78.1143,115.5
78.1236,554.1
78.166,218.8
78.17,161.1
78.1763,154.1
78.1978,109.9
78.2003,18.9
78.2461,18.1
78.2501,16.4
78.2657,352.6
78.273,246.4
78.2772,233.4
78.283,117.3
78.2984,201.6
78.3403,145.5
78.3443,652.8
78.3465,281.7
78.3792,142.9
78.3871,31.5
78.461,22.2
78.4685,106.5
78.4702,107.9
78.4809,127.5
78.4969,286.1
78.5033,117.4
78.5131,293.3
78.5329,236.8
78.5486,481.6
78.5602,292.8
78.5777,130.6
78.5905,176.3
78.5911,141.5
78.5985,389.8
78.5993,533.8
78.6061,302.4
78.6175,15.9
78.6185,120.7
78.6996,126.2
78.7013,88.8
78.7194,17.4
78.7352,397.8
78.7363,545.4
78.7421,381.5
78.7492,133.4
78.7967,258.1
78.8487,701.6
78.867,585.6
78.8775,624.7
78.8906,438.6
78.9124,326.5
78.916,134
78.9634,115.2
78.9766,257.5
78.9793,147.6
78.9968,153.9
79.0237,85.8
79.0361,128.9
79.0406,18.9
79.054,1398.3
79.0845,731.7
79.0902,236
79.0907,109.7
79.1193,525.6
79.1723,178.9
79.1904,143.7
79.1993,96.1
79.2168,370.5
79.2385,21.4
79.2542,117.3
79.2939,616.1
79.2957,130.2
79.317,185.4
79.3265,17.1
79.3397,554.9
79.3634,16.4
79.3668,131.1
79.3744,246.1
79.3836,774.3
79.3862,711.4
79.433,631.1
79.4433,343
79.4631,787.4
79.4812,284.4
79.4836,287.5
79.4986,503
79.5279,125
79.5348,127
79.5494,121.2
79.5736,165.9
79.5842,391.4
79.5904,94.2
79.595,364.9
79.5986,791.3
79.6032,106.9
79.6831,650.2
79.7162,290.8
79.7242,111.9
79.7299,591
79.7702,289.2
79.7793,16.3
79.7927,452.6
79.8076,447.8
79.8109,19.6
79.8245,111.4
79.8257,577.5
79.8498,233.2
79.8628,19.9
79.8655,298
79.868,86.1
79.9015,442.3
79.9141,19.6
79.9342,95.2
79.9798,172.2
79.9848,300.1
80.0296,335.2
80.0348,579.6
80.0448,191.9
80.0893,16.1
80.1145,549.9
80.1189,115.7
80.1208,276.4
80.1272,16.4
80.1419,132.4
80.1452,231.5
80.1851,131
80.1895,127.5
80.1981,254.1
80.2454,336.3
80.3092,290.7
80.3251,474.7
80.3438,316
80.4049,297
80.4131,273.4
80.4166,16
80.4241,540.6
80.4337,154.4
80.4416,22.9
80.4695,191.7
80.4727,181.8
80.497,151
80.5038,88.8
80.5572,475.9
80.6177,265.4
80.6195,132.1
80.6246,815.7
80.6381,322.4
80.6413,99.9
80.6416,104.8
80.6454,379.2
80.6509,328.2
80.6777,233.1
80.7132,189.6
80.7294,271.8
80.7311,24
80.7445,423.9
80.7823,144.2
80.7922,91.5
80.7951,18.6
80.8039,134.4
80.8274,261.4
80.838,17.3
80.8415,596.4
80.8563,352.6
80.8786,282.9
80.8927,761.9
80.9246,538.1
80.9296,587.4
80.9357,600.9
80.9445,118.1
80.9476,43315.8
80.9567,768
80.9817,527.5
80.9855,269.7
80.9889,16.3
80.9934,128.9
81.0286,843.9
81.0696,1372.4
81.075,19.9
81.092,206.9
81.1305,429.3
81.1317,158.1
81.1363,753.7
81.1438,468.8
81.154,17.2
81.1642,494.6
81.1731,891.3
81.174,1670.8
81.1744,1351
81.1762,652.3
81.1778,961.7
81.2042,457.4
81.2591,363.4
81.2663,147.5
81.2727,498.2
81.2912,110.2
81.2975,425.7
81.3166,795.8
81.3463,523.2
81.3471,20.5
81.3548,658.5
81.3584,112.6
81.3635,111.6
81.3909,331.8
81.4349,17.2
81.4665,301.6
81.4772,518.5
81.4792,132.5
81.4906,103.1
81.4948,210.9
81.5185,299
81.5617,592.5
81.5852,137.8
81.5867,688.3
81.6357,249.3
81.6525,289.3
81.6659,18
81.6825,445.4
81.689,18.8
81.7193,166.2
81.723,80.4
81.7299,285
81.7427,205.2
81.7509,533.9
81.7548,123.4
81.7638,247.6
81.7741,119.8
81.8178,365.2
81.8315,505.1
81.8418,848.3
81.8823,314.6
81.8888,285.4
81.8919,279.7
81.9087,173.6
81.9143,158.6
81.9159,195.7
81.9176,339.2
81.9288,184.3
81.9414,18
81.9432,16.8
81.948,104.8
81.9621,126.3
81.9681,917.4
81.9772,153.5
81.9954,338.1
81.9999,105.7
82.0377,648.3
82.0524,235.8
82.0623,333.5
82.0629,868.5
82.0791,129.1
82.0838,573.3
82.0897,286.1
82.1243,264.9
82.1283,513.8
82.1457,335.8
82.1634,301.6
82.1839,132.1
82.2143,788.9
82.234,17.9
82.2488,249.7
82.2685,135.6
82.2694,177.5
82.2847,485.1
82.3234,269.7
82.3493,128.6
82.3672,331.9
82.3691,313.4
82.3873,138.6
82.4492,110.5
82.4684,169.8
82.4998,330.3
82.5005,535.8
82.5311,459.8
82.5526,381.5
82.5822,245.5
82.6011,123.6
82.6138,317
82.6503,307.9
82.6524,540.1
82.6579,408
82.6706,27.5
82.6804,156.2
82.7074,111.6
82.7104,157.7
82.7486,874.6
82.7753,90.1
82.7803,333.4
82.7931,314.4
82.7949,434
82.8201,135.7
82.8255,460.3
82.8265,252.9
82.843,278
82.8468,480.1
82.8746,466.5
82.8753,147
82.8795,133.9
82.8941,129.2
82.9235,119.3
82.9431,493.7
82.9446,10631.1
82.9473,306.1
82.9492,498.3
82.9784,488.1
82.9794,489.8
83.0077,214.2
83.0213,190.3
83.0225,132.9
83.039,606.2
83.0446,16.9
83.063,297.1
83.0705,140.6
83.0838,372.6
83.0918,373
83.1032,17.2
83.1139,16.8
83.1148,116.7
83.1374,330.5
83.174,543.5
83.189,18.7
83.2232,21.6
83.225,250.8
83.2399,309.7
83.2708,544
83.2954,247.9
83.3406,190
83.3504,157.1
83.3558,138.5
83.3722,291.6
83.4261,17.5
83.4359,118.7
83.4445,532
83.4536,293.2
83.4892,622.9
83.5197,289.5
83.5377,17.3
83.5535,23.9
83.565,19.7
83.5748,96.9
83.5814,342.8
83.5898,583
83.5908,160.3
83.5961,327.6
83.599,240.9
83.6212,509.8
83.638,19.8
83.6397,313
83.6619,124.6
83.6811,321.9
83.6914,360.6
83.7128,290.6
83.7145,124.2
83.7187,584.3
83.7321,328.1
83.7612,544.3
83.7621,681.6
83.7635,18.9
83.7771,209.5
83.7802,18.9
83.7828,270.6
83.7957,93.9
83.8212,85.9
83.8397,106.1
83.8445,101
83.8493,169
83.8738,281
83.875,362.1
83.8767,264.9
83.9023,135.3
83.9217,417
83.9995,137.4
84.0006,19.9
84.0133,304.5
84.0282,96.6
84.0291,189.3
84.043,87.4
84.0442,1083
84.0525,270
84.0838,488.1
84.0861,647.2
84.1105,167.7
84.1333,97.9
84.1371,292.6
84.1449,549
84.1556,17
84.1592,17.4
84.1704,561.4
84.1762,33.9
84.1879,185.9
84.2383,234.4
84.2437,16.2
84.2523,164.6
84.281,329.8
84.2898,370.2
84.2923,302.8
84.3177,126.9
84.3565,333.9
84.3584,534.5
84.3631,114.3
84.3644,340.6
84.4069,258.1
84.4091,17.2
84.4115,763.3
84.417,21.6
84.4579,201.3
84.4639,210.1
84.4803,316.7
84.492,520.2
84.5241,317.2
84.528,290.9
84.5328,148.9
84.5419,349.4
84.5433,271.6
84.5512,489.9
84.5848,109.8
84.5964,111.5
84.617,395.9
84.6297,380.3
84.633,285.1
84.6554,371.8
84.682,185.4
84.6938,620.9
84.6951,807.8
84.7102,141.6
84.7188,170.8
84.7275,138.7
84.7473,16.2
84.7508,565.9
84.7598,520.7
84.7694,658.1
84.7803,125.3
84.7935,339.3
84.808,372.7
84.8194,126.7
84.8335,342.9
84.8845,16.9
84.8972,623.8
84.9089,248.7
84.914,582.6
84.9285,111.9
84.9595,16756.3
84.9637,171.9
84.9726,142.3
84.982,214.6
84.9866,280.8
84.9884,133.8
84.9929,731.5
85.0039,587.2
85.0074,287.7
85.0488,108.9
85.0604,99.7
85.0794,133.3
85.093,137.5
85.0937,122.5
85.1107,526.5
85.1208,223.3
85.1241,817.8
85.16,586.7
85.2018,296.3
85.2146,16.8
85.2157,504.8
85.2241,226
85.2287,16.9
85.2417,120.9
85.2637,264.1
85.2809,314.9
85.3052,127.8
85.3104,145.9
85.328,190.8
85.3402,349.7
85.3542,19.3
85.3552,147.2
85.4351,124.8
85.4564,313.4
85.4828,216.3
85.5145,577.8
85.5335,125.3
85.5452,143.8
85.5464,755.8
85.5845,266.4
85.5988,19.4
85.6633,343.5
85.6903,103.4
85.7017,433.8
85.706,132.1
85.7143,142.5
85.7173,561.5
85.7213,82
85.7342,106.7
85.7419,15.8
85.7461,319.1
85.7583,278.5
85.7598,250.2
85.8015,312.7
85.87,391
85.9011,92.1
85.9229,99
85.9337,135.3
85.9368,323.7
85.9452,40.6
85.9532,551.8
85.9576,491.2
85.9805,267.7
85.987,542.6
86.006,199.7
86.0107,98.3
86.0357,343
86.0468,442
86.0598,18867.7
86.0962,127594.2
86.1209,114
86.1275,349.6
86.1305,362
86.1699,159.1
86.1766,918.5
86.1939,122.8
86.2057,834.3
86.2273,296.6
86.2298,162.7
86.2343,294.2
86.2488,173.2
86.2535,595.5
86.2552,126.7
86.2605,367.2
86.3167,317.9
86.3242,18.2
86.3326,430.4
86.3337,105
86.3473,593.6
86.3596,577.6
86.3776,369.2
86.4329,513.9
86.4393,404
86.4553,272.6
86.4622,564.3
86.4643,526.4
86.4691,764.7
86.4794,106.3
86.5665,817.2
86.5724,16
86.5743,435.8
86.6246,127.2
86.6256,216.8
86.6286,397.8
86.6321,557.1
86.6696,525.9
86.6827,728.8
86.6949,620.3
86.7129,17.7
86.7176,186
86.7944,164.7
86.8198,265.2
86.8208,557.4
86.8886,903.7
86.9105,18.4
86.9258,204.7
86.9264,228.5
86.9267,123.8
86.9454,160.1
86.9526,114
86.9613,18.5
86.9794,151.5
86.9797,168.1
86.98,126.5
86.9839,193.1
87.0245,17.8
87.0381,580.2
87.0425,23.8
87.0652,305.8
87.0996,337.1
87.1004,117.3
87.1848,133.8
87.1891,139.9
87.2082,414.4
87.2244,652.1
87.281,158.1
87.3198,16.6
87.3394,297.8
87.3466,256.9
87.3597,824.7
87.3615,295.9
87.3676,183.2
87.3772,389.3
87.3795,252.7
87.3931,223.5
87.4126,266.3
87.4353,457.7
87.4551,98.3
87.4593,246.3
87.4635,410.1
87.4724,161.9
87.4845,305.2
87.4878,246.5
87.5119,534.1
87.5354,460.6
87.5514,187.4
87.5867,19.8
87.6244,22.2
87.673,305.1
87.6863,17
87.6906,1075.2
87.711,19.8
87.7148,125.7
87.7158,130.4
87.7282,324.7
87.7429,18.2
87.7477,642.6
87.7638,219.5
87.8129,446
87.8174,145
87.8311,102.7
87.8356,142.4
87.891,302.6
87.8928,246.3
87.9095,93.5
87.9222,517.4
87.9338,87.4
87.9373,118.8
87.9458,631.1
87.9531,160.5
87.9682,19.6
87.9873,544.6
88.0178,126.5
88.0391,2977.9
88.0468,536
88.0624,265.6
88.1224,127.5
88.1263,299.7
88.15,133.8
88.1549,131.7
88.1799,145.9
88.2349,163.3
88.2377,323.6
88.2404,151.4
88.2521,19.4
88.2788,305.1
88.2947,18.2
88.3033,458.6
88.3165,19.4
88.3621,455.7
88.3768,421.9
88.3782,225.2
88.403,770.2
88.4233,748.7
88.4398,251.1
88.4694,135.7
88.4777,716.9
88.4874,542.9
88.4989,371.1
88.5153,19.1
88.5311,143.6
88.5371,186.7
88.5719,98.9
88.5816,357
88.5948,19.2
88.5973,560.1
88.6229,19
88.6684,126.2
88.6997,138.3
88.755,102.9
88.7936,419
88.8208,312.6
88.8526,19.7
88.8761,106.3
88.8811,149.1
88.9221,405.5
88.9406,127.5
88.9522,57.8
89.0261,186.7
89.0304,298.1
89.098,119.3
89.0997,18.3
89.149,124.3
89.158,137.6
89.1612,18.9
89.1741,126.2
89.1934,154.5
89.1998,580.6
89.2044,607
89.2228,287.9
89.2409,238.7
89.2825,386.3
89.2837,871.8
89.2851,101.6
89.302,351.1
89.3205,513.8
89.3724,247.3
89.4055,167.4
89.4228,744.1
89.4444,17.3
89.4667,97.8
89.4969,155.6
89.5281,513.6
89.5865,20.8
89.6012,16.9
89.6267,85.9
89.6317,435.9
89.6355,556.5
89.6846,17.9
89.7018,1092.5
89.75,237.7
89.8147,115.5
89.82,112
89.8763,411.6
89.8808,535.4
89.9011,139.2
89.9635,397.3
89.9744,19.9
89.9945,174.7
89.995,174.9
90.0064,158.2
90.0443,181
90.0743,297.8
90.0803,563.3
90.0821,538.7
90.0915,228.8
90.0984,138.5
90.103,523.6
90.1466,237.7
90.148,714.9
90.15,210
90.2065,247
90.2164,573
90.2654,595.7
90.2903,441.4
90.3013,161.5
90.3947,115.4
90.3965,529.4
90.419,480.4
90.4258,17.6
90.5045,226.9
90.5102,136.7
90.549,313.9
90.576,626.7
90.5871,193.9
90.5881,408.9
90.6027,144.9
90.6115,217.8
90.6475,503.5
90.6496,98.4
90.6509,175.4
90.6911,247.3
90.7057,149.2
90.7217,134.4
90.7266,716.4
90.7331,133.8
90.746,139.7
90.7464,486.3
90.7467,465.8
90.7963,19.5
90.8393,97
90.843,649.9
90.852,778.6
90.8526,212.7
90.8652,501.8
90.8768,308
90.8856,311.3
90.9031,166.8
90.9151,263.7
90.9204,188.3
90.9369,132.7
90.9476,3705.7
90.9609,140.7
90.9678,379.1
90.9765,6343.6
90.9806,564.5
90.9817,423.4
90.9846,123.6
91.0102,679.2
91.0155,17.6
91.0175,18
91.0193,116.3
91.037,21.2
91.054,2158.6
91.0664,865.8
91.0826,109.3
91.0996,16.1
91.1026,594
91.116,156.4
91.1254,437.1
91.1431,519.2
91.2506,202.5
91.2575,106
91.2783,338.2
91.29,18.5
91.3193,124
91.3488,142.5
91.3516,573.3
91.3822,309.1
91.3833,309
91.3887,152.1
91.3892,159.1
91.4521,160.2
91.4573,102.4
91.482,202.3
91.4851,734.4
91.5005,656.1
91.5074,574.6
91.5185,182.1
91.5239,385.8
91.5433,18.6
91.5699,301.8
91.5936,115.6
91.6231,585.2
91.6716,173.9
91.6856,351.3
91.7075,109.5
91.7443,186.3
91.7612,471.3
91.8104,140.6
91.8618,115.2
91.8754,526.7
91.8773,821.4
91.9037,703.5
91.9296,164
91.9358,149.6
91.948,18.7
91.9788,17.3
91.9909,593.2
92.0133,17.4
92.0379,376.5
92.0493,182.4
92.0883,612.7
92.1154,540.7
92.1182,258.6
92.1271,115.3
92.1539,16.4
92.168,728.2
92.1683,707.4
92.1826,18.4
92.2132,343.3
92.2198,276.7
92.2247,116.2
92.2465,309.2
92.2487,265.7
92.2574,673.3
92.2808,159.9
92.2838,141
92.2878,16.7
92.2974,170.5
92.3042,20.1
92.387,385.3
92.392,21
92.4226,18
92.4525,142.4
92.4582,165.9
92.4923,691
92.5,782
92.5225,18.2
92.5415,614.4
92.5446,23.9
92.6014,24.8
92.6604,529
92.6693,361.9
92.6732,380.4
92.6993,102.5
92.7082,17.9
92.7155,250.8
92.7914,19.2
92.8027,253.6
92.824,382.7
92.8575,308.6
92.8849,21.5
92.9069,179.9
92.9115,335.7
92.9368,539.5
92.9766,122.2
92.9918,337
92.9962,729.3
93.0049,705
93.0125,395.9
93.0335,25.1
93.0966,157.3
93.1012,156.1
93.1211,146
93.1245,19.1
93.1476,497.3
93.1522,18.2
93.1644,89.1
93.1701,133.7
93.1946,102.5
93.2081,806.7
93.2223,18.3
93.2293,85
93.2511,787.9
93.2728,166.4
93.2852,113.8
93.2966,163.1
93.3478,115.9
93.3755,282.8
93.4433,127
93.4466,508.4
93.4614,17.7
93.4765,805.1
93.4861,17.8
93.52,185.3
93.5899,437.5
93.5992,18.1
93.6228,111.3
93.6675,245
93.6786,123.2
93.7886,480.4
93.804,15.8
93.814,196.2
93.8158,91.6
93.8466,504.1
93.8619,23.4
93.8958,18.7
93.9017,113.9
93.9279,113.5
93.9354,18.3
93.9607,382.6
93.9739,183.3
93.9872,148.5
94.0411,54195.5
94.0454,146.5
94.0649,299
94.0669,127.3
94.0682,19.2
94.0732,139.8
94.0843,111.2
94.1233,22.8
94.1326,489.9
94.1526,135.4
94.1536,212.5
94.174,19.4
94.1875,425.8
94.2004,520.1
94.2413,17
94.2564,376.9
94.2603,20.2
94.2679,512.7
94.3432,280.8
94.3461,91.9
94.3519,18.3
94.3576,145.6
94.4133,18.3
94.4221,98.6
94.4414,108.1
94.4555,682.2
94.4758,265.3
94.5094,262.9
94.5316,120.9
94.5395,342.3
94.5472,19.8
94.5949,89.8
94.5982,712.8
94.677,182.1
94.6827,920.3
94.6839,570.2
94.7314,171.8
94.7659,199.5
94.7677,172
94.8148,112.5
94.8192,200
94.8244,337.1
94.858,99
94.8591,130
94.8651,136.4
94.9148,18.2
94.9176,124.4
94.9598,127.3
94.9662,365.4
94.9794,458.5
94.9938,451.4
94.9978,138.4
95.0122,168
95.016,89.9
95.0179,21.1
95.0246,20
95.038,124.3
95.041,20.8
95.0445,1102.5
95.046,52
95.0465,51.6
95.049,375111.5
95.0506,214.3
95.0564,232.1
95.0625,26.4
95.0725,281
95.077,22.5
95.0853,744.5
95.1031,150.8
95.1098,134.5
95.1222,17.9
95.1282,97.5
95.1567,131.3
95.1611,186.6
95.2905,705.4
95.3045,93.9
95.3081,141.3
95.3092,458.3
95.3147,118.2
95.322,589.4
95.3339,375.4
95.3511,357.8
95.3739,594.3
95.4003,300.6
95.4376,534.8
95.4468,563.8
95.4666,86.2
95.5234,19.2
95.5348,558.4
95.5467,311.6
95.5615,18.4
95.5896,131
95.5927,163.4
95.596,547.7
95.6695,108.8
95.6846,238.7
95.7065,20.7
95.7353,18.1
95.7834,540.8
95.8344,155.2
95.8386,20
95.8401,611.8
95.8449,219.3
95.8943,340.4
95.8966,116.9
95.9096,201
95.9141,19.8
95.9144,26.4
95.9465,16.6
95.9759,22.1
95.9788,117.7
95.9831,117.5
95.984,344.1
95.9886,539.2
96.0004,296.5
96.0093,18.9
96.0523,18082.9
96.0694,341.2
96.071,17.3
96.0889,129.5
96.1022,305.3
96.1031,285.5
96.1117,234.8
96.1173,17.9
96.1283,324
96.1304,535.8
96.1463,502.9
96.1804,190.8
96.2587,348.7
96.2725,154.1
96.2891,561.6
96.309,16.2
96.3176,359.3
96.3428,469.4
96.3469,207.4
96.353,102.5
96.3597,168.8
96.3784,15.9
96.389,783.9
96.4381,17.9
96.4693,569.8
96.4967,528.9
96.5518,169.5
96.5675,150.6
96.5688,323.6
96.5778,115
96.6137,745.9
96.6141,691.6
96.6173,426.6
96.6388,499.1
96.6606,120.6
96.6673,224.4
96.6821,539.3
96.7138,650.5
96.7368,338
96.7548,128.9
96.7585,140.1
96.7623,128.8
96.7736,293.6
96.7949,81.3
96.8243,268.1
96.8783,157.9
96.891,21.5
96.8912,21.1
96.8964,311.6
96.8981,130.6
96.9013,192.8
96.9129,149.1
96.9216,149142.8
96.9282,348.9
96.9347,264.6
96.9374,123.6
96.9621,528
96.9799,425
97.0074,104
97.0104,96.5
97.0154,688.3
97.0497,137.4
97.0548,16.6
97.0557,21
97.0747,190.9
97.101,24.2
97.147,17.4
97.1488,572.8
97.1913,452.7
97.1994,532.6
97.2106,175.4
97.2124,673.5
97.2362,156.2
97.2394,147.4
97.2422,18.2
97.2777,569.5
97.2978,19.5
97.3295,137.6
97.3518,17.2
97.3779,125.5
97.3872,202.7
97.4309,111
97.4466,468.5
97.4783,181.1
97.4994,161.1
97.5388,114.5
97.5478,94.1
97.5527,132.5
97.5569,484.7
97.6007,751
97.6421,314.2
97.6612,379.6
97.6625,126.7
97.6807,271.4
97.691,116
97.7234,204.1
97.7589,17.1
97.8193,16.4
97.8215,190.8
97.906,222.3
97.9109,371.6
97.9354,296.2
97.9435,528.8
97.9529,131.5
97.9716,144.2
97.9925,621.1
98.0044,144.2
98.0258,132
98.0354,226.5
98.0484,101.9
98.0837,25.8
98.0863,131
98.0926,195.8
98.1906,260
98.1974,233.6
98.2118,613.1
98.2303,186.4
98.2528,243.7
98.2586,94.3
98.2589,95.9
98.2828,701.6
98.29,337.1
98.3105,255.3
98.3557,329.7
98.3641,709.2
98.3695,200.7
98.3798,282.3
98.3939,626.8
98.4193,753.8
98.4247,108.7
98.4296,291.5
98.434,610.4
98.4553,313.6
98.4693,595.3
98.4864,20.3
98.5018,220.3
98.5393,498.6
98.5418,519.1
98.5522,110.6
98.5585,112.2
98.5588,112.8
98.5676,289
98.5771,525.8
98.5873,18.2
98.5981,219.7
98.6391,209.7
98.6454,132.7
98.658,18.2
98.6678,22.3
98.6804,293.3
98.7052,170.5
98.7161,555.8
98.7845,20.6
98.8156,126.6
98.8395,125.7
98.85,91.7
98.8572,381.5
98.8605,132.4
98.8795,582.6
98.9187,41554.8
98.9197,5082
98.9228,691.7
98.9458,20.9
98.9532,15.8
98.9752,7418.7
98.984,94.1
98.9898,358.5
98.9909,549.4
99.1139,208
99.1228,283.7
99.1407,214.4
99.1625,181.5
99.1851,305.1
99.2002,125.6
99.2065,299.4
99.2138,217
99.2324,20.5
99.2446,153.6
99.2541,100.2
99.2822,196.7
99.2851,128.9
99.314,136.5
99.3892,335.7
99.4164,94.3
99.4369,155.9
99.5163,172.4
99.5422,139.7
99.5477,383.5
99.5854,120.5
99.6335,147.1
99.6732,104.3
99.6817,167.1
99.7023,286.8
99.7059,88.9
99.717,343.9
99.7522,235.7
99.7787,330.9
99.7942,620.3
99.8572,95
99.8627,20.5
99.8727,469.6
99.875,19.7
99.8904,129.5
99.8944,138.8
99.9129,361.4
99.928,18.9
99.9481,15.4
99.9693,132.4
99.9795,345.1
99.9873,825.3
100.0274,128.9
100.0303,276.9
100.0371,345
100.1033,322.7
100.1193,350.4
100.1818,631.8
100.1956,146
100.2123,120
100.3408,18.6
100.3463,89.1
100.3677,130.6
100.4382,100
100.4578,107.5
100.4951,315.6
100.5271,508.6
100.5354,101.1
100.5738,99.5
100.5949,334.4
100.6032,274.1
100.6583,555.4
100.6892,19
100.7218,16.8
100.7277,176.8
100.7642,360.2
100.7979,16.5
100.8034,827
100.8401,269
100.8484,134.2
100.8848,680.5
100.8859,22.7
100.9168,1387
100.9396,168.9
100.9459,475.6
100.9723,152.9
100.9764,559.3
101.0367,383
101.0408,418.7
101.047,177.7
101.0629,190.3
101.0656,209.8
101.0707,686.8
101.0859,162.8
101.1381,188.9
101.1432,346.1
101.1553,106.6
101.1696,19.5
101.1882,305.3
101.2248,21.9
101.2255,282.6
101.2684,550.7
101.3286,186.1
101.3757,181.2
101.4037,133.4
101.4873,775.1
101.5354,163.3
101.5387,229.9
101.5565,131.7
101.5743,97.6
101.589,152.6
101.5948,253.5
101.6047,423.9
101.6145,319.2
101.6807,332.6
101.7168,298.9
101.7553,108.1
101.7613,109
101.7686,166.4
101.7914,647.3
101.8029,21.8
101.8119,574.1
101.8206,108.8
101.834,716.2
101.8874,268.2
101.9071,130
101.9344,534.3
101.9433,106.9
101.9635,229.9
102.0287,714.3
102.0548,1128.2
102.0587,133.7
102.0647,126.9
102.0733,533
102.0905,717.2
102.1752,19.9
102.1895,20.7
102.2339,241
102.2425,386
102.2496,20.8
102.2503,121.2
102.2925,109.9
102.2965,18.8
102.3396,17.2
102.3502,174.4
102.3579,145.3
102.3735,382.7
102.4617,18.9
102.4933,151.3
102.5011,176.1
102.5091,20.3
102.512,143.1
102.5491,313.3
102.5536,360.4
102.5581,126.7
102.5866,120.1
102.59,16.8
102.6374,94.2
102.6384,214
102.6649,590.2
102.746,293.3
102.7596,252.9
102.7626,249.5
102.766,405.6
102.7723,110.4
102.7818,161.8
102.7852,17.3
102.7945,421.9
102.8089,97.2
102.8537,144.2
102.8644,121.1
102.8715,518.6
102.8795,140.9
102.9186,247
102.9477,19.9
102.9679,166
102.9701,467.6
103.043,215.8
103.0473,18.1
103.0541,436
103.0629,150.1
103.1259,90
103.1391,335.4
103.1676,105
103.1923,152.5
103.2197,102.7
103.2237,249.6
103.2248,513.2
103.2527,174.3
103.2705,628
103.3146,330
103.3327,304.7
103.3601,316
103.3925,259.9
103.4225,400
103.4287,107
103.4392,18.7
103.4668,687
103.4681,175.4
103.4759,212.7
103.5124,514.2
103.565,305.4
103.5808,118.8
103.6191,20.2
103.6383,388.6
103.7027,141.6
103.7091,172.3
103.7161,159
103.7202,259.3
103.7323,186.6
103.7472,115.5
103.8112,21.5
103.9664,29.6
103.9748,263.5
103.9792,252.4
103.9981,110.3
104.0291,106
104.0341,286.5
104.0588,18.8
104.0861,128.6
104.0882,137.7
104.1068,631127.9
104.1183,590.7
104.1303,19.8
104.1516,134.5
104.1594,21.6
104.1673,19.3
104.182,123.9
104.185,278.2
104.2044,278.5
104.2134,216.7
104.2237,110.9
104.2436,308.2
104.2503,820.3
104.2533,298
104.2726,226.1
104.2961,191.9
104.3142,440.4
104.3698,16.3
104.3792,119.5
104.4074,98.3
104.4413,100.2
104.4798,148.9
104.5272,335.9
104.5643,332.5
104.6077,327.6
104.6429,338.2
104.7133,471.5
104.7235,573
104.7348,377.2
104.8043,267.9
104.8492,313.9
104.8839,120.9
104.8901,218.7
104.9479,78.4
104.9632,4176.6
104.9922,1452.3
104.9978,180.6
105.0031,27.3
105.019,150.5
105.0201,340.3
105.0446,33558.5
105.0539,120.6
105.0608,172
105.0915,146.8
105.0964,372.4
105.1049,105.6
105.1102,20478.1
105.1295,153.6
105.1311,461.4
105.1378,414
105.1414,527.6
105.1853,658.5
105.232,113.2
105.277,117.8
105.3622,124.5
105.3682,807.2
105.3813,99.2
105.3945,361.5
105.472,255.4
105.4783,550.5
105.5492,18.9
105.5858,20.6
105.6137,463
105.614,477.6
105.634,149.5
105.6434,376.1
105.6631,18.4
105.7056,342.8
105.7159,119.9
105.7568,332.5
105.7608,115.1
105.7901,208.4
105.8,134.5
105.8183,133.1
105.8397,17.6
105.8583,97.3
105.8924,515.9
105.9175,17.6
105.9438,122.1
105.9446,671.9
105.9488,269.3
105.9551,144.6
105.9589,338.9
105.9638,27.5
105.9655,629.6
105.9715,107.9
105.9795,454.4
106.0015,291.9
106.0379,323.2
106.0404,251.5
106.0479,393.5
106.065,52.7
106.0836,85.7
106.0921,16
106.1194,482.7
106.136,17.8
106.1575,500.2
106.167,207.5
106.2085,543.3
106.2302,534.8
106.2444,437.5
106.2626,19
106.2672,106
106.2774,301.9
106.2811,127.3
106.3012,332.6
106.3401,694.3
106.4098,790.5
106.4116,532.9
106.4166,19.9
106.4204,191
106.4273,128
106.4493,18.5
106.5028,586.2
106.5091,113.1
106.5542,119.4
106.5816,192.6
106.6585,499.1
106.6634,17.5
106.6898,174.4
106.7053,534.4
106.7265,474.5
106.7399,259.8
106.7882,502.9
106.8081,16.5
106.8169,289.6
106.8258,328.7
106.8559,18.3
106.8699,111.9
106.883,256.5
106.9218,360.9
106.9434,26.5
106.9505,2637.5
106.9636,89
107.0015,239.8
107.0073,16.8
107.0281,238.6
107.0317,616.2
107.0491,564.4
107.0552,140.8
107.0685,18.3
107.0854,21.1
107.1107,19
107.1236,228
107.1277,572.5
107.1342,119.2
107.1516,946.8
107.1679,126.7
107.1803,17.9
107.1881,666.5
107.2076,123.7
107.2092,21.2
107.2185,332.8
107.2801,125.1
107.2846,106.2
107.2884,306.2
107.308,94.9
107.3272,151.4
107.3479,17.1
107.3494,113.8
107.367,114.7
107.4224,350.1
107.4416,243.5
107.4476,228.8
107.4538,338
107.4714,140.4
107.4812,299.5
107.5812,105.5
107.6293,504.3
107.6418,833.7
107.6622,320.4
107.6686,127.8
107.6871,112.4
107.7251,130.2
107.7349,99.3
107.7753,23.3
107.7941,17.4
107.851,122.7
107.8539,151.7
107.8823,510
107.8958,17.9
107.9574,577.2
107.9755,307.5
107.9861,496.8
108.0178,16.1
108.029,502.9
108.0378,108.8
108.0426,543.8
108.0472,727.9
108.0802,167.2
108.0812,19.4
108.1027,332
108.1561,439
108.1654,663.7
108.1693,351.7
108.1789,19.5
108.18,490.9
108.1932,118.2
108.1966,256.1
108.2101,359.4
108.2175,116.8
108.2247,18
108.2469,318.3
108.2554,138.9
108.2858,185.6
108.2975,497.3
108.3014,183.4
108.3334,304.3
108.3844,108.1
108.4539,17.9
108.4687,353.3
108.4968,205.3
108.5065,149.1
108.5493,105.5
108.569,556.1
108.6145,209.5
108.6189,168.9
108.653,313
108.6988,21.9
108.7116,476.9
108.7516,267.4
108.7842,19.6
108.7852,261.9
108.7893,200.7
108.805,118.5
108.8378,215
108.8403,16.6
108.8826,115.7
108.8989,239.2
108.9128,506.9
108.9497,205.7
108.9511,177.6
108.9581,92.5
108.9951,350.4
109.001,18.7
109.0105,117.6
109.0155,246.4
109.0174,398.9
109.025,215.7
109.054,460.2
109.0647,57392.4
109.101,73.4
109.1122,294
109.1455,209.1
109.1536,300
109.1562,187.5
109.1981,18.6
109.2385,252.4
109.27,199.5
109.2717,676.2
109.2993,534.1
109.3105,717
109.3975,321.5
109.4083,343.5
109.4675,169.1
109.4823,87.7
109.491,296.8
109.4933,163.8
109.5266,117.3
109.5347,513.1
109.5381,122.9
109.5433,355.1
109.5543,505.9
109.5825,138.4
109.6254,634.9
109.6983,145.9
109.7456,364.7
109.7566,156.3
109.7609,168.2
109.7725,293.7
109.8409,95.9
109.9374,110.5
109.9444,164
109.9732,107.9
109.9817,145.7
109.9991,17.8
110.0177,137.9
110.0392,306.1
110.0414,499.6
110.0563,631.5
110.068,1989.4
110.0711,374.2
110.0933,153.3
110.0998,111.3
110.1634,122
110.1665,97.6
110.1688,560.6
110.1954,152.3
110.2008,306.7
110.2043,423.6
110.2169,308.3
110.2293,481.4
110.2305,288.2
110.2428,471.1
110.2545,106.5
110.262,363.1
110.2703,151
110.3559,537
110.3662,540.1
110.4298,266
110.4401,16.2
110.4705,338
110.4855,100.8
110.4888,188.8
110.5124,276.7
110.5533,218.2
110.5592,486.5
110.5753,391.4
110.6114,745.5
110.687,97
110.7124,141.2
110.7666,112
110.7845,702.9
110.798,518.8
110.8501,687.1
110.8745,613.5
110.885,99.1
111.0172,326.7
111.0231,229.9
111.044,182.9
111.1263,455.8
111.1415,515.3
111.1425,119.5
111.1718,127.2
111.2288,152.5
111.2319,308.9
111.2806,144.1
111.2919,263.3
111.3947,422.8
111.4644,83.8
111.4868,578
111.4887,449.2
111.4906,256.1
111.4942,294.2
111.503,98.7
111.5135,97.2
111.5203,486.8
111.5763,239.4
111.581,328.9
111.6211,254.6
111.6622,330.3
111.6627,368.3
111.726,130.4
111.7305,18.8
111.747,314.2
111.749,207.3
111.7557,254.2
111.7665,99.6
111.7756,183.2
111.7904,17.7
111.8016,274.8
111.8235,107.6
111.8306,537.2
111.8552,521.4
111.8789,134.4
111.9034,22.7
111.9369,129.6
111.94,838.9
111.9702,405.1
111.984,219.6
111.9971,530.1
112.0237,307.6
112.0469,205.7
112.0914,19.7
112.0995,20.6
112.1129,393.9
112.1559,18.1
112.1605,166.6
112.1865,238.5
112.1953,152.8
112.242,303.3
112.3228,146.8
112.3265,115.4
112.4083,191.9
112.4193,191.4
112.4732,16.3
112.4848,592.7
112.5344,382.2
112.5376,178
112.5388,299.7
112.5416,772.7
112.5771,611.1
112.582,16.6
112.5952,233.2
112.6011,146
112.6053,16.4
112.6081,255.8
112.6093,83.7
112.6427,197
112.659,138.5
112.674,118.1
112.6818,18.7
112.6884,415.8
112.6906,586.6
112.6981,18.6
112.7136,758.6
112.8207,125.4
112.8848,232.2
112.8956,472727
112.908,489.8
112.9354,330.7
112.9386,164.3
113.0163,122.2
113.0184,417.5
113.0342,259.3
113.0658,17.2
113.0736,486.6
113.1073,321
113.1931,118.5
113.2271,132.2
113.2313,152.9
113.2552,537.4
113.2813,142
113.2889,577.3
113.3337,255.4
113.3619,126.5
113.3818,617.5
113.406,17.9
113.4698,17.6
113.5245,20.2
113.5513,394.3
113.6101,344.3
113.6201,148.1
113.6625,314.5
113.697,105.9
113.7241,107.6
113.7508,17.4
113.7761,96.8
113.7949,262
113.8713,120.8
113.8917,425.6
113.898,418.1
113.9013,755.6
113.9529,17.4
113.9548,478.5
113.9589,18.2
113.9636,66.4
113.9754,361.4
113.9767,21
114.031,172.1
114.0548,28740.2
114.0661,2179.8
114.0922,258.5
114.1032,681.5
114.1292,125
114.2135,841.7
114.2561,531.7
114.292,276.1
114.2924,263.5
114.332,284.9
114.3921,397.8
114.4048,138.8
114.4151,287.4
114.426,529.4
114.4591,18.5
114.492,283.7
114.5211,237.5
114.5693,18.7
114.5864,272.7
114.6727,345.4
114.683,770.9
114.7038,157.2
114.7848,351.1
114.8714,332.1
114.878,708.3
114.8927,144411.1
114.8957,151
114.9184,251.5
114.9274,278.9
114.9329,214.3
114.9481,766.6
114.9634,569.7
114.9706,311.3
114.9969,466.8
115.0234,160.8
115.0301,576.9
115.034,112.1
115.0639,18.9
115.0778,161.1
115.1228,94
115.1386,168.5
115.1542,19.9
115.1818,21.8
115.2078,580.4
115.266,417.5
115.2764,314
115.3243,508.1
115.3334,17.3
115.3767,261
115.3907,16.7
115.4012,127.9
115.4071,256.9
115.4769,326
115.4962,391.1
115.5147,115.4
115.5449,482.2
115.5778,335.4
115.5827,258.2
115.6132,577.6
115.6219,83.8
115.6366,163.8
115.6516,253
115.7424,182.1
115.7838,17.8
115.8037,146.3
115.8069,576.5
115.8818,135.4
115.9482,27.4
115.9571,790
115.9792,708.3
116.0151,197.9
116.0557,139.7
116.0635,273.1
116.0705,8762.9
116.0944,18.1
116.1273,16.1
116.1452,237
116.2259,336.2
116.2358,204.7
116.2388,192.9
116.2448,498.6
116.2517,164.8
116.2555,20.9
116.2982,147
116.3042,639.9
116.3429,272.4
116.3587,152.2
116.3682,468.4
116.3895,452.7
116.4175,16.2
116.4514,633.6
116.4873,248.9
116.5161,111.4
116.5963,634.4
116.6405,139.7
116.6477,446.6
116.6775,649.3
116.7015,149.2
116.711,383.3
116.7293,585.1
116.7706,284.5
116.7956,439.9
116.8836,175.7
116.8908,17613.4
116.9412,538.4
116.9482,17.2
116.9552,104
116.9632,228.5
116.9858,193.9
117.0314,131.7
117.0696,19.2
117.0982,110.6
117.1003,277
117.1028,460.7
117.1159,338.6
117.1252,264.2
117.1748,469.8
117.1873,510.6
117.1906,542.2
117.1951,19.2
117.2056,160.3
117.2217,98.6
117.2464,17.6
117.3347,273.2
117.3666,19
117.3685,132.3
117.3833,262.4
117.3968,298.3
117.4192,17.5
117.4838,18
117.504,271.4
117.5406,139.5
117.5448,318.2
117.5538,365
117.5794,172
117.5911,108.4
117.7572,121.2
117.8353,372.9
117.8398,23
117.865,18.4
117.9458,20.1
117.9519,107.8
117.9543,133.3
117.9558,157.4
117.9737,458.7
118.017,184.7
118.0206,201.1
118.0357,114
118.0867,329.3
118.1862,702.8
118.2645,207.4
118.273,596.2
118.2793,136.3
118.314,21.1
118.3601,687.1
118.3816,93.3
118.399,679.9
118.4284,16.4
118.4952,769.8
118.5142,18.8
118.529,545.1
118.5361,199.2
118.5407,353.9
118.598,125.1
118.6102,17.1
118.6173,247.8
118.6683,143.8
118.6973,17.7
118.7376,339.7
118.7623,187.6
118.7803,449.2
118.7928,320.1
118.8182,186
118.8275,578.8
118.8554,115
118.8967,17.5
118.9063,133.9
118.9133,281.5
118.9425,724.6
118.961,138.6
118.9789,813.4
119.023,238.7
119.0526,120.8
119.0567,127.5
119.1303,664.8
119.136,716.5
119.1554,19.9
119.181,630.4
119.1869,19.4
119.2432,167.6
119.2495,20.1
119.2599,159.8
119.2708,482.1
119.3613,357.5
119.381,107.5
119.4174,549.7
119.5091,108.4
119.579,543
119.6134,137
119.6401,18.7
119.6752,165.5
119.6794,272.5
119.6841,173.4
119.7809,814.8
119.811,121.6
119.8796,297
120.0031,1402.3
120.0379,15.4
120.0407,113.6
120.064,182.4
120.0807,18409.6
120.1005,160.9
120.1192,19.3
120.21,152.7
120.2209,144.8
120.2572,164
120.2606,327.7
120.2801,633.1
120.293,180
120.3264,337.6
120.3459,108.2
120.3643,120.3
120.4151,284.7
120.4687,20.1
120.5102,103.1
120.5242,232.7
120.5488,543
120.5531,528.9
120.5759,727.1
120.5778,324.4
120.5801,109.6
120.6235,111.9
120.6754,196.1
120.6939,455.1
120.7028,18.9
120.7065,596.2
120.7635,470.6
120.7732,152.7
120.8302,104.9
120.8615,17.4
120.8651,113.7
120.9204,126
120.9222,130.2
120.9661,422.7
120.9808,59
120.9872,188.1
120.9977,229.7
121.0075,278.1
121.0284,345.7
121.0395,25.4
121.046,114.2
121.0843,121.1
121.1011,22.5
121.1506,148.6
121.1529,215.2
121.1586,18
121.1694,513.6
121.2166,320
121.2807,18.3
121.3121,141.2
121.3221,273.2
121.4003,423.6
121.4759,102.3
121.491,138.4
121.5249,429.5
121.5503,275.2
121.5581,360.7
121.6226,173.5
121.6239,134.5
121.6264,552.7
121.6892,134.7
121.7341,184.9
121.7551,453.3
121.7661,127.3
121.8572,310
121.8674,153.6
121.8783,371.7
121.9169,351.5
121.935,410.7
122.0101,801.6
122.0232,743.8
122.1073,22.4
122.1267,498.3
122.1554,18.7
122.1658,19.5
122.1949,638.4
122.1983,338.8
122.2529,187.6
122.2614,148.7
122.2863,508.8
122.3342,111.9
122.3511,340.9
122.4054,119.6
122.4407,649.7
122.4829,244.2
122.5071,133.3
122.5093,340.1
122.5416,128.7
122.549,238.7
122.5654,180.8
122.5866,137.1
122.5977,24
122.6033,344.2
122.6124,754.4
122.6242,260.9
122.6432,191
122.7152,806.8
122.7504,19.2
122.7608,17.7
122.7983,243.9
122.811,17.3
122.841,490.6
122.8571,356.4
122.8873,123.6
122.8969,522.2
122.9089,359.6
122.9126,254.7
122.9169,274.1
122.9218,356.3
122.9245,20455.2
122.9292,22.5
122.9375,102.8
122.9524,227
122.9739,185.8
123.0021,366.1
123.0109,231.7
123.0247,106.4
123.0371,777.6
123.0715,125.5
123.0804,36.2
123.0947,157.1
123.121,194.4
123.1507,830.8
123.1559,85
123.1756,952.4
123.2017,17.6
123.2064,122.9
123.2503,421.4
123.2529,106.6
123.3455,615.1
123.3562,330.3
123.3609,234.1
123.4111,361.5
123.413,453.8
123.4493,146.8
123.5644,746
123.5768,584.7
123.6079,191.3
123.6436,625.2
123.7293,19.6
123.7334,149
123.7892,469.2
123.7983,256
123.8089,921.6
123.8365,111.2
123.8477,122.1
123.8509,128.2
123.8787,338.2
123.8832,534.6
123.8946,114.7
123.9154,319.4
123.9852,148.7
123.988,18.3
124.01,129.6
124.0481,492.4
124.0764,17.9
124.0839,23.1
124.091,24.7
124.0985,84.6
124.1026,123.4
124.1432,308
124.1682,338.1
124.1927,142.9
124.1951,234.8
124.2106,336.3
124.2553,87.5
124.317,155.3
124.4131,113
124.4165,416.4
124.4364,497.5
124.45,161.8
124.4951,88
124.5248,308.4
124.5296,626.4
124.544,217.3
124.563,797.1
124.569,596.4
124.5957,358.1
124.6358,574.8
124.6457,748.8
124.6482,132
124.7376,252.4
124.7412,324.1
124.8096,126.7
124.8565,136.6
124.8711,130.4
124.9227,1250.1
124.9264,16.6
124.9436,172.9
124.9515,421.7
124.9855,165.8
124.9928,247.3
124.9997,8706.3
125.0055,1250.4
125.01,359.5
125.0357,252.8
125.0388,133.7
125.0594,20.5
125.0998,289.6
125.1109,190
125.1728,112
125.3258,696.8
125.3692,121.9
125.3769,294.3
125.3793,274.6
125.3903,304
125.5229,316.4
125.5829,234.5
125.5935,128.5
125.6278,22.6
125.6492,20.8
125.6698,422.1
125.6722,125.6
125.7477,129.2
125.7574,97.5
125.7653,398.2
125.798,150.6
125.8009,17.3
125.8075,143.5
125.8162,151.5
125.8439,769.1
125.8457,292
125.8754,163.9
125.8817,279.9
125.9673,732.5
125.9737,20
125.9792,124.5
125.9848,19.1
126,233
126.0089,25
126.0806,365.8
126.0981,17.9
126.1008,144.8
126.1211,139.6
126.1585,151.7
126.1608,130.3
126.1867,160.8
126.2079,411.9
126.2118,120.9
126.2349,594
126.2551,185.9
126.2812,270.6
126.3167,230.8
126.322,266.1
126.4464,723.6
126.476,134.7
126.5169,648.7
126.5392,294
126.5473,97.8
126.6034,283.5
126.6362,226.3
126.6728,17.2
126.676,139
126.7053,183.6
126.7749,395.9
126.7881,340.8
126.8189,261.9
126.8218,743.5
126.8404,341.7
126.9646,201.5
126.9686,18.3
126.9798,249.9
127.0074,20.1
127.0477,257.7
127.065,179.5
127.0661,215.4
127.0715,19.2
127.1593,116.8
127.2798,633.2
127.3398,552.3
127.3434,521.9
127.3938,18.5
127.4023,18.2
127.4126,220.3
127.4664,99.4
127.5079,128.6
127.5429,18.7
127.5503,122.8
127.7516,218.1
127.8828,91.8
127.8968,145.8
127.9503,137.2
127.9563,18.6
127.9687,457.2
127.9793,25.6
128.0156,31.2
128.0682,20.3
128.1391,445.8
128.1768,554.1
128.1895,17.7
128.2655,128.2
128.3068,20.8
128.3269,16.3
128.3587,397.1
128.4127,104.9
128.4979,117.9
128.5447,167.6
128.5682,16.2
128.5934,163.9
128.7136,18
128.7593,90.9
128.8249,364.4
128.8271,394.7
128.9115,521.5
128.9268,499.1
128.9637,523.3
128.9802,576.5
129.0271,282.2
129.0657,160
129.0953,493
129.1021,1601.5
129.12,330
129.1291,663.1
129.1566,521.3
129.1881,216.3
129.1889,215.6
129.2153,102.9
129.253,196.9
129.2979,338.3
129.3059,442.5
129.4162,313.9
129.4838,143.9
129.5217,341.9
129.5362,345.4
129.5868,158.4
129.6408,752.1
129.6818,332.8
129.7039,372.7
129.7409,341.8
129.7583,358.3
129.8806,794
129.9026,20.2
129.9091,20
129.9192,363.2
129.9261,182.1
129.9585,239.3
129.9949,326.4
130.0498,10165.5
130.1494,577.4
130.1609,164.3
130.2089,459
130.2253,17.3
130.2314,256.2
130.2457,546.4
130.2569,511.5
130.3334,365.9
130.3634,93.3
130.4072,158.9
130.4442,490.7
130.476,93.7
130.498,145.1
130.5021,250.8
130.5071,106.2
130.5278,691.8
130.5651,113
130.5702,370.2
130.5845,20.1
130.608,495.4
130.6325,387
130.641,96.5
130.7072,630.8
130.7117,764.5
130.7313,90.7
130.7855,211
130.8021,182.2
130.8125,150
130.829,154.9
130.8473,150.7
130.8823,394.1
130.9016,347
130.9457,243.4
130.9789,92.1
130.9954,166.5
131.0001,165.6
131.0468,377.7
131.0503,144.4
131.175,126.4
131.2392,756.4
131.3913,239.2
131.4036,17.9
131.4217,378.9
131.5585,164.9
131.6124,138.6
131.7078,16.4
131.7136,462.8
131.7427,250.1
131.7552,120.1
131.7783,620.4
131.7821,160.8
131.8087,357.2
131.8232,155.9
131.8998,357.7
132.0031,36609.7
132.0455,632.6
132.0504,93.7
132.0655,43461.9
132.0709,17.8
132.0985,549.6
132.1459,299
132.1867,20.8
132.2412,395.5
132.2438,260.6
132.2498,702
132.2672,17.8
132.2854,266.8
132.2898,372.8
132.2979,226
132.3517,22.4
132.3556,504
132.38,19.6
132.5332,155.3
132.5734,275.7
132.6055,19.5
132.6111,381.8
132.7237,799.5
132.8425,105.6
132.894,663.7
132.8995,377.8
132.9044,86.3
132.9122,131.5
132.9298,349.9
132.956,143.7
132.9582,620
132.9693,22.5
132.9872,2075.1
132.9991,156.2
133.0347,188.2
133.0378,512.5
133.0687,322.5
133.0971,32034.1
133.1463,539.8
133.172,17.7
133.1794,182.3
133.1812,236.3
133.1995,248.2
133.207,338.3
133.2581,92.9
133.2598,336.1
133.274,89.9
133.3089,121
133.3927,175.9
133.5397,615.1
133.5479,372.4
133.5668,127
133.589,127.3
133.5916,111.8
133.6414,706.2
133.6604,213.9
133.7176,337.3
133.758,430.5
133.7985,334.1
133.9144,214.8
133.9357,275
133.9486,96.7
133.9998,110.5
134.0188,12610.7
134.0239,130.8
134.1003,271.1
134.1359,17.9
134.1743,253.1
134.1875,380.6
134.2179,18.6
134.3087,594.9
134.3126,370.4
134.3152,297.6
134.3211,133.6
134.3258,199.6
134.4032,514.2
134.4297,18.3
134.4468,175.4
134.4722,124.2
134.572,154.9
134.5818,540.5
134.6223,210.4
134.6491,336.2
134.7269,323.1
134.7841,134.6
134.7916,1140.1
134.8087,168.1
134.8106,115.9
134.8163,145
134.8186,108.7
134.8726,21.3
134.9065,359.1
134.9733,172.8
134.9891,194.3
134.9953,111.3
135.0028,73251.9
135.0768,321.4
135.0946,738
135.1335,18.2
135.2135,363
135.275,368.4
135.3255,237.1
135.363,114.5
135.3881,114.9
135.4426,333.8
135.4523,376.2
135.4619,165.6
135.4689,18
135.473,298.2
135.4745,160.6
135.4904,283.5
135.4973,138.1
135.5023,352.4
135.5662,143.3
135.62,231.7
135.6257,114.5
135.6298,698.7
135.6366,305.4
135.6508,248.6
135.6568,148.3
135.665,407.4
135.6866,20.2
135.7352,815.7
135.7868,208.4
135.7929,634
135.8458,526.1
135.8575,826.3
135.8675,160.9
135.908,520.9
135.9557,19.1
135.9771,1457.2
136.0061,442.8
136.043,243.5
136.0481,9162.6
136.0618,55.8
136.0756,14304.9
136.1114,132.1
136.1503,135.6
136.1644,133.3
136.2446,147.4
136.2801,250.1
136.3114,108.6
136.415,226.9
136.4372,625.8
136.439,115
136.4416,20.3
136.446,96
136.5455,120.4
136.5678,145.4
136.5702,214.4
136.5752,277.9
136.5826,520.8
136.6018,145.5
136.636,140
136.6807,257
136.7025,291.2
136.7316,162.2
136.7395,385.2
136.8746,123.4
136.8776,117.7
136.8876,218.5
136.9212,487.1
136.9532,168.7
136.9807,344.1
136.9896,218.1
137.0017,86.6
137.0132,576.5
137.0348,127.8
137.0525,195.4
137.0717,479
137.1038,194
137.176,104.7
137.1989,542.1
137.2054,602
137.2419,712
137.269,494.1
137.2958,525.7
137.3533,104.9
137.436,108
137.4473,800.3
137.4693,471.8
137.511,536.5
137.5335,129.9
137.6035,180.2
137.6943,404.2
137.7099,277.3
137.7517,191.1
137.8728,751.5
137.8761,18.5
137.9244,260.7
137.9283,458.7
137.983,18.6
138.0256,116.2
138.037,25.3
138.0525,7932.7
138.0661,23.8
138.0737,21.6
138.1856,152.9
138.1934,126.8
138.2197,128.7
138.2223,214.6
138.2308,364.1
138.2826,516.1
138.2937,140.4
138.3014,495.2
138.3145,133.8
138.3502,376.8
138.3793,294.9
138.3897,321.6
138.4191,127
138.4246,138.8
138.436,254.9
138.4501,565.8
138.4733,133
138.5226,144.3
138.555,386.7
138.575,147.3
138.5876,147.7
138.6604,116.5
138.6876,731.1
138.6891,135.1
138.6965,340.8
138.7437,15.9
138.7604,152.8
138.7817,19.1
138.8527,124.6
138.9064,1925.7
138.9137,371.9
138.9191,215.1
138.9286,290.7
138.945,518.3
138.984,46.4
138.9907,339.8
138.9983,168.7
139.0085,54.2
139.025,335.5
139.0692,128.1
139.1049,343.4
139.1399,773.8
139.1816,270.4
139.2103,127.1
139.2354,307.5
139.3215,192
139.3384,613.8
139.4867,180.3
139.4951,565.3
139.4992,753.5
139.5163,119.9
139.5548,269.9
139.6171,247.9
139.6458,133.3
139.6704,346.5
139.6913,16.4
139.7194,165.6
139.7302,375.5
139.7361,129
139.7577,442.5
139.8193,182.1
139.8332,107.8
139.8477,234
139.9401,162
139.9444,759.9
139.9607,346.4
139.9632,109.7
140.0164,4288.2
140.0682,3638.1
140.0812,272
140.1425,168.9
140.1622,338.9
140.1654,307.8
140.1958,17.3
140.2092,119.5
140.2318,313.5
140.2728,466.6
140.2737,561.8
140.3226,582.4
140.3317,139.5
140.3876,103.6
140.4129,272.7
140.5703,297.1
140.6088,402.4
140.6197,584.4
140.6436,136.6
140.7374,140.3
140.8422,23.1
140.8438,122.4
140.8504,479.7
140.8753,86.5
140.9036,1198.1
140.9167,334.4
140.9448,132
140.949,20.3
140.9524,347.6
140.9539,308.7
140.9706,139.4
141.0005,15527.5
141.0198,153.4
141.0456,341.6
141.0748,132.3
141.0769,105
141.1333,144.2
141.1736,122.3
141.1891,162.7
141.2068,130.5
141.2433,200
141.2556,385.1
141.2746,436.4
141.3014,362.3
141.3071,351.1
141.3227,314.4
141.3376,568.8
141.3509,98.1
141.3567,160.3
141.3999,104.5
141.4765,103.2
141.48,328.4
141.5031,715.5
141.6921,122
141.6948,748.6
141.7229,156.3
141.7289,109.5
141.7538,143.2
141.7753,539.8
141.7922,833
141.845,19.2
141.8784,204.4
141.9046,545.1
141.9601,683.8
141.9949,279
141.9998,26.5
142.0038,422.6
142.0123,88.9
142.0153,19.2
142.0175,499.8
142.0317,521.1
142.0476,563.8
142.0736,22.3
142.1767,326.7
142.2726,112.9
142.276,333.2
142.3126,20.5
142.3221,125.9
142.3295,129.5
142.3489,691.5
142.3517,158.3
142.3748,158.6
142.4314,220.2
142.4337,332.5
142.4595,119.6
142.4726,21
142.5042,710.9
142.5228,163.7
142.5612,134.2
142.6023,343.6
142.6186,113.3
142.6218,136.3
142.7013,18.5
142.7044,119.9
142.7664,390
142.7745,129.2
142.8221,135.5
142.8434,91.8
142.8482,109.6
142.8976,411.1
142.9272,124.4
142.9384,275.3
142.9476,338.2
142.9963,230.3
143.0056,359.3
143.0188,772
143.0346,796.5
143.0586,18.5
143.0815,209.8
143.1144,738.5
143.1223,93.7
143.1259,478
143.139,17.6
143.1465,21.2
143.1818,271.2
143.1909,134.5
143.2199,315.2
143.2527,220.3
143.293,436
143.3143,167
143.3188,129.8
143.3495,168.6
143.4492,117.1
143.468,131
143.4799,459.5
143.5458,144.5
143.569,885.2
143.5739,137.5
143.6052,374.4
143.7385,142.4
143.8684,604.7
143.8813,22.1
143.9321,231.2
143.9591,111.9
143.969,101.6
143.9751,245
144.0106,1003.1
144.0581,146.3
144.0777,159.8
144.1694,362.2
144.1929,298
144.228,153.1
144.24,265.5
144.2485,168.7
144.2735,153.2
144.3159,575
144.326,190.3
144.4237,19
144.4936,349.9
144.5813,116.7
144.6011,490.2
144.6224,376
144.6391,24
144.6822,233.9
144.685,195.2
144.6925,163
144.6957,320.6
144.7219,447.8
144.748,19.8
144.8555,346.7
144.8773,18.6
144.9103,144.3
144.9455,18.4
144.9808,1524.1
145.0032,324.3
145.0247,224.8
145.0394,622.1
145.0518,531.2
145.0551,99.5
145.0592,708.4
145.0669,86.3
145.0836,387.5
145.1128,221.3
145.1659,143.3
145.2079,96.4
145.2144,537.1
145.2689,163.3
145.3411,19.3
145.3757,287.3
145.4163,119.2
145.4707,128.6
145.4897,17.8
145.5006,17.7
145.5275,16.8
145.5598,236.7
145.6177,147.8
145.6274,105.6
145.6822,184.5
145.6925,152.3
145.6951,193.6
145.7652,17.9
145.7684,431.7
145.7968,258.2
145.8028,298
145.8629,166.9
145.8771,314.2
145.8815,126.1
145.9664,19.5
146.0094,174.4
146.0125,2415.1
146.0188,22954.4
146.0263,147.9
146.0424,577.9
146.0527,165.6
146.1296,296.3
146.1704,367.8
146.2042,17.8
146.34,124.1
146.3649,159.1
146.3873,246.7
146.3893,144.1
146.4452,299.9
146.4973,615.8
146.5392,137.6
146.6372,246.5
146.6963,20.9
146.7058,183.7
146.7905,372.1
146.8027,295.1
146.8607,107
146.8807,442.9
146.8891,391.9
146.9522,227.4
146.9604,380.3
146.9696,185
146.9817,128403.7
146.9882,528.9
147.0058,208
147.0109,17.6
147.0293,484.5
147.0317,20
147.0764,79848.9
147.1128,50586.5
147.1389,562.8
147.2118,164.3
147.2546,382.4
147.2767,518
147.3198,19.3
147.3305,20.8
147.4572,306.2
147.4741,94.9
147.6099,186.3
147.6354,276.7
147.6551,755
147.7176,556.3
147.7274,121.3
147.7343,577.8
147.7969,279.6
147.8153,111.4
147.8451,530.6
147.8472,297.8
147.9036,306.5
147.9052,537.7
147.9224,99
147.927,576.5
147.9596,283.2
147.977,640.4
148.0626,104.7
148.0661,286.2
148.0798,927.4
148.1027,319
148.1121,39.6
148.1157,384.5
148.1199,17.2
148.1262,584.5
148.1457,18.4
148.1608,414.9
148.1845,240.9
148.2802,254.3
148.2985,197.5
148.3299,138.1
148.3662,131.7
148.4069,137.8
148.4153,150.4
148.4751,357.8
148.5322,2125.8
148.5482,261.6
148.5622,792.9
148.5774,20.5
148.5845,600
148.6293,313.2
148.6485,106.9
148.67,732.1
148.7105,126.8
148.7613,22.1
148.8179,328.6
148.8543,126
148.8712,133.4
148.8785,637.5
148.9589,157.2
148.9611,1957
148.9716,191.9
148.9819,166.4
148.9887,192.6
149.0024,28.9
149.0185,1414
149.0233,5030.1
149.0448,170
149.0591,18.2
149.1282,619.1
149.2353,93.3
149.3235,174.8
149.4294,372.4
149.4379,146.6
149.4928,632.6
149.4968,242.5
149.511,140.7
149.691,19.2
149.7082,120.1
149.748,125.1
149.8482,578
149.8665,163.6
149.8749,265.6
149.8795,308.9
149.882,622.7
149.8936,274.6
149.8953,257.4
149.9007,924.6
149.9162,323.6
149.9871,50.4
149.9928,9924.2
150.0115,450.5
150.0137,3701
150.0267,81.5
150.0708,17.9
150.0923,153.5
150.1462,21.4
150.1565,137
150.1823,17.6
150.2074,111.6
150.2209,668
150.2917,159.1
150.3281,283.2
150.349,703
150.3589,176.5
150.3611,418.5
150.3728,118.7
150.381,95.4
150.4283,211.6
150.4423,384.4
150.4559,239.3
150.4958,111.4
150.5171,17.3
150.5252,138.5
150.5501,100.7
150.6278,257.9
150.7068,207.5
150.7073,219.7
150.8263,425.1
150.9113,19.3
150.9152,97.9
150.9386,394.8
150.9444,596.6
150.9688,25.3
150.9768,48543.5
150.9841,5486.6
151.0006,106.3
151.0479,3847.5
151.0543,116.4
151.078,537.3
151.1104,249.7
151.1175,267.8
151.1377,249.8
151.19,22.3
151.2399,147.8
151.3691,267.7
151.3731,19.3
151.4442,233.6
151.4714,504.2
151.4835,113.2
151.5292,277.9
151.5533,204.3
151.564,175.6
151.6251,579.2
151.6276,305.9
151.6517,260
151.6693,141.5
151.6986,274.4
151.708,219.9
151.7303,184.2
151.7384,18.4
151.7723,115.1
151.7821,20
151.7853,903.9
151.852,22.2
151.8733,19.6
151.9801,491.9
151.9845,67.8
151.9874,228.5
152.0221,16766.8
152.0318,4334.2
152.042,156.4
152.0858,214.9
152.2244,122.8
152.3054,594.3
152.334,166.1
152.3417,243.6
152.4162,493.3
152.5043,200.8
152.5081,230.9
152.7515,233.5
152.7553,18.9
152.7881,123.6
152.8166,106.4
152.8302,143.4
152.8917,715.2
152.9452,124.3
152.9586,324.2
152.9748,1429.1
152.9843,41.5
152.9883,294.9
153.0252,18
153.0599,142.5
153.0713,692.1
153.107,152.7
153.1515,115.7
153.1533,22.7
153.1863,516.6
153.2204,21
153.2349,343.9
153.2411,210.7
153.2449,17.9
153.2699,115.3
153.2742,19.9
153.2775,17.2
153.2917,443.2
153.2971,133
153.3104,354.9
153.4091,391.9
153.4586,389.7
153.5079,528.1
153.5293,144.5
153.549,600.3
153.5862,526.4
153.6325,133.5
153.6352,129.1
153.6475,549
153.6516,317.5
153.8108,115.8
153.8434,17.6
153.9079,147.1
153.9683,176.6
154.0111,598.2
154.0234,246.1
154.0265,1737.2
154.0343,697.3
154.0595,395.9
154.0934,132.7
154.1679,329.2
154.1885,290.7
154.3593,365.3
154.3682,278.7
154.3941,248.1
154.4244,325.2
154.4723,259
154.4812,321.7
154.4882,320.8
154.5772,92.1
154.5837,208.4
154.6443,543.4
154.694,249.6
154.7126,96.1
154.7557,138.8
154.7685,322.6
154.8114,17.5
154.8616,568.2
154.8952,530.6
154.9075,42.8
154.9418,661.7
154.9692,410
155.0297,1120.5
155.0428,1841.8
155.049,276.1
155.0539,3976.1
155.0791,2412.8
155.1057,319.8
155.1261,18.5
155.1864,513.5
155.1959,351.6
155.2302,330.6
155.2503,267.2
155.3174,134
155.3687,95.1
155.373,158.4
155.4168,100.6
155.4553,517.1
155.4741,128.4
155.475,111.8
155.4862,254.2
155.5209,137.9
155.5762,514.7
155.5942,235.3
155.6264,174.6
155.6311,156.7
155.6354,121.2
155.6847,124.8
155.7635,407.6
155.7825,203.9
155.7975,378.7
155.8169,17.2
155.8632,216.4
155.9588,535.1
156.0107,52.5
156.0338,199.4
156.0421,3749.8
156.0768,76616.9
156.0997,158.9
156.2221,110.3
156.2558,147.2
156.2574,797.9
156.2749,98.6
156.3631,149
156.4221,241.6
156.4246,125.1
156.4301,250.2
156.4849,157.1
156.4979,411.1
156.5244,274.6
156.5771,795.8
156.6178,574.2
156.8027,502.7
156.8243,811.2
156.8457,94.9
156.8984,170.1
157.0029,671.8
157.0276,361.2
157.0538,484.2
157.0692,659.2
157.0801,1217.6
157.0857,555.8
157.0972,58.5
157.1118,309.8
157.1437,293.9
157.1626,559.5
157.169,310.3
157.1928,167.8
157.3011,311.4
157.3791,520.8
157.3926,344.3
157.4403,391.2
157.4543,525.9
157.4941,531.4
157.5101,218.4
157.5862,314.1
157.5918,18.9
157.652,204
157.6642,315.7
157.6883,20.1
157.6953,699.5
157.8118,19
157.8675,251.3
157.9256,335.9
157.9331,294
157.9603,464.7
157.9614,468.5
157.9679,17.2
158.0126,133.1
158.0271,3357.1
158.0294,18.9
158.0972,22.5
158.1018,128.5
158.1356,237.1
158.1435,854.2
158.2419,202
158.2773,111
158.5845,18.2
158.6623,623
158.7295,17.9
158.7705,643.9
158.7925,705.6
158.8049,345.7
158.8912,214.1
158.9277,859.5
158.9409,619.2
158.9641,10659.4
158.9748,138.9
158.9965,5034.5
159.0061,175.4
159.0138,287.3
159.0202,331.3
159.0305,89.3
159.0762,417.1
159.2098,125.4
159.2227,664.5
159.2675,168.5
159.2714,528
159.2754,129.8
159.2923,346.5
159.3057,17.5
159.3279,145.3
159.3454,19.2
159.3862,810.2
159.3912,134
159.3947,642.9
159.4071,330.8
159.4453,397.6
159.5221,464.8
159.5818,144.1
159.6218,619.4
159.6311,139.1
159.6342,17.2
159.6731,132.7
159.6875,354.7
159.7209,17.7
159.7321,108.2
159.7435,265.8
159.7908,271.7
159.8131,128.5
159.873,21.6
159.8751,490.8
159.9205,762.6
159.9625,310.2
159.9673,17.7
159.9928,316.4
160.0345,19262.2
160.0605,41567.3
160.0778,146.3
160.225,369.9
160.3737,431.1
160.4279,464.1
160.4418,119.7
160.4465,16.2
160.4805,488.8
160.5316,101.5
160.6073,140.1
160.6364,580.2
160.6472,426.4
160.6481,439
160.7406,269.3
160.8046,681.1
160.8623,129.5
160.871,937.9
160.8824,18.3
160.9239,169.2
160.9745,91.4
160.9922,147.8
160.9963,479.5
161.0223,126.5
161.0323,17.5
161.0369,18.4
161.0639,588.6
161.1013,20.1
161.1074,98.8
161.1331,165.7
161.2174,248.7
161.2344,305
161.2677,523.3
161.3291,101.5
161.4085,92.1
161.547,19
161.5809,183.1
161.588,390
161.5971,532
161.669,148.5
161.6727,245.8
161.6802,98.2
161.6984,700.1
161.7621,18.8
161.8504,556
161.9928,154.3
162.02,527.9
162.0215,484.1
162.0502,14556.6
162.074,486
162.0991,353.4
162.1358,196.7
162.2142,332.9
162.2714,201.2
162.3193,201.1
162.3496,137.1
162.3996,338.1
162.5626,327.4
162.5725,457.4
162.6896,261.6
162.7444,335.2
162.7993,20.7
162.8374,462.6
162.8463,207.9
162.8775,251.5
162.8909,570.2
162.9288,17.5
162.9504,516.5
162.9556,1724.1
162.989,151.2
162.9928,19.2
163.0155,2681.8
163.0342,2384.6
163.0535,378.4
163.0605,41.8
163.1484,18
163.1528,141.3
163.2883,440.4
163.3035,350.1
163.388,308
163.3955,350
163.6555,19.9
163.6876,474.8
163.6922,321.7
163.6985,583.4
163.7039,114.2
163.7057,145.3
163.7475,105.6
163.8163,226.5
163.8625,184.7
163.8829,104.3
163.8898,718.3
163.9246,17
163.9995,59.2
164.0295,11207.3
164.0747,702.3
164.1112,121.4
164.1172,176.5
164.1475,95.3
164.1555,619.1
164.1997,19.8
164.2226,118.5
164.2271,151.5
164.249,256
164.2536,159.9
164.2739,254.2
164.365,102
164.4067,130.7
164.4098,615.7
164.4679,588.8
164.5719,19.1
164.6979,113.2
164.7056,147.4
164.7766,528.9
164.83,121.5
164.9206,3473.9
164.93,8632.3
164.9351,1971.4
164.9744,22.3
164.981,502.9
164.9844,27.1
164.9874,24.9
164.9959,27.9
164.9997,557
165.0027,21.4
165.0912,182.8
165.1371,128.4
165.1583,248.8
165.3393,246.7
165.3521,17.9
165.3954,137.7
165.4605,133.6
165.5235,369.6
165.6004,145.5
165.6107,134.2
165.6198,19.7
165.6761,113.6
165.7474,305.3
165.8848,600.3
165.9375,517.4
165.9668,2610
165.9788,2627.6
165.9877,4951.2
165.995,2158.6
166.0053,264.2
166.0258,17.9
166.0363,130.6
166.0615,203.6
166.3058,221.8
166.3336,753.8
166.3815,258.1
166.4237,230.3
166.4623,636.6
166.4832,267.8
166.5179,119.8
166.5336,250.9
166.583,116.7
166.6391,168.9
166.6705,294.6
166.7248,129.4
166.7587,253.3
166.8154,518
166.9077,209.8
166.9129,21.2
166.9508,20400.1
166.9713,230
166.9792,30.4
166.9997,82.5
167.0218,10982.5
167.0261,211.6
167.0552,106.3
167.0851,129.2
167.0977,217.2
167.1304,18.5
167.1423,129.1
167.1479,475.9
167.154,18.6
167.1745,519.2
167.2242,93.6
167.2263,22
167.3039,613.5
167.3763,109.5
167.4409,226.3
167.4455,347.7
167.4556,516.3
167.4635,113.2
167.5171,285.9
167.5379,135.6
167.6901,364.2
167.7159,144.3
167.7335,159.7
167.8882,18.3
167.8955,122.5
167.928,138.2
167.9753,645.6
167.9946,3065.4
168.0049,265.7
168.0274,206.8
168.0348,117.4
168.0622,303.2
168.1518,119.4
168.1586,496.4
168.1934,119.1
168.2073,438.8
168.2169,294.6
168.3148,17.4
168.3258,162.2
168.3829,161.3
168.3904,129.5
168.4767,16.5
168.5563,139.5
168.587,512.1
168.602,133.9
168.7106,18.3
168.7485,295.1
168.8007,298.6
168.8439,312.8
168.8774,156.5
168.9035,144.6
168.9251,56
168.9375,125.9
168.9492,1135.9
169.0181,17.9
169.0305,20.7
169.0433,312.3
169.0584,77563.8
169.0649,1048.8
169.0949,2722.3
169.0999,220.9
169.1562,126.6
169.1587,129.9
169.2208,272.2
169.2943,130.9
169.3304,151.3
169.3346,823.1
169.354,164.2
169.425,175.6
169.5275,486.4
169.5954,137.2
169.6088,331.4
169.6287,145.3
169.7065,141.6
169.7841,247.3
169.7874,174.7
169.8769,16.9
169.9371,182
169.983,19.5
169.9859,2255.6
170.004,154.4
170.0202,869.2
170.0328,631.4
170.0383,155.3
170.0925,9051.1
170.1206,160.6
170.131,859.6
170.1763,215
170.2183,99.4
170.2414,327.9
170.2537,459.3
170.2584,95.5
170.2686,289
170.3153,708.6
170.3838,122.8
170.5223,343.7
170.5766,18.8
170.6471,18.2
170.6817,126.5
170.8225,313.3
170.8543,3796.2
170.9071,139.9
170.914,191.2
170.9762,115.9
170.9981,22.3
171.0167,3392.5
171.0279,185
171.0531,903.5
171.0795,119.4
171.2353,267.9
171.3476,122.6
171.3635,85
171.3662,18.5
171.4954,384.5
171.7347,219
171.7531,116.5
171.8195,118.4
171.8334,123.5
171.8767,625.6
171.8875,200.8
171.9003,231.4
171.9636,96.4
171.9712,139
172.0502,500.6
172.0888,178
172.1026,394.1
172.1301,116.1
172.1978,116.7
172.2081,21.7
172.2484,149.7
172.3686,762.6
172.4064,18.8
172.4141,142.3
172.5604,554.2
172.5643,18.1
172.6691,553.7
172.6814,332.8
172.6876,130.4
172.7254,88.9
172.7691,119.4
172.7962,105.3
172.8154,114.9
172.8513,2054.1
172.8774,18.2
172.8833,512.3
172.9232,167.8
172.9579,19.5
172.9671,665.2
173.027,576.9
173.03,734.5
173.0632,227.4
173.0674,152.8
173.0783,106.2
173.0964,110.5
173.0989,492.4
173.1923,162.8
173.3823,563.4
173.421,125.8
173.4477,346.7
173.459,18.2
173.4749,632.1
173.484,116.2
173.5031,111.9
173.5544,181.3
173.6572,133.6
173.6856,354.2
173.7009,258.2
173.7039,18
173.7462,204.1
173.7589,134.5
173.774,571.9
173.8697,102.1
173.8799,623.6
173.9015,144.1
173.955,312.7
173.9764,695.8
174.0006,77
174.0729,293
174.1669,134.9
174.2226,600.7
174.3546,123.6
174.4491,600.4
174.4526,395.6
174.4654,233.2
174.4699,174.8
174.4807,159.6
174.5493,125.3
174.554,18.4
174.6638,136.4
174.6843,540
174.7329,143.3
174.7796,257.2
174.8333,124.6
174.8586,603.3
174.8947,608.4
174.9002,187.4
174.9078,460.5
174.9192,195.3
174.9381,4817.3
174.994,101.9
175.0344,4218.9
175.0455,4452.4
175.0578,707.7
175.1041,310.1
175.119,66587.5
175.1301,277.4
175.2294,18.1
175.2366,23.9
175.2584,283.1
175.2706,264.9
175.3498,745.1
175.3592,179
175.37,148.7
175.4493,354.7
175.4743,140.5
175.5151,873.5
175.5247,190.5
175.5334,128.8
175.5843,257.6
175.6027,142.3
175.6413,260.5
175.6867,527.4
175.7032,587
175.7258,289.2
175.8097,111
175.8232,660.8
175.955,144.5
176.0006,53.4
176.0085,10387.3
176.0162,33.7
176.0616,184
176.0659,22767.8
176.0752,123.1
176.0784,21.7
176.1004,465.4
176.1031,2381.2
176.1226,848.7
176.1925,324.4
176.2814,316.1
176.391,124.7
176.3985,265.1
176.4451,163.3
176.4624,234.3
176.492,324.9
176.4971,780.6
176.5194,160.9
176.5401,17.1
176.5609,127.9
176.5765,312.2
176.5876,18.3
176.6155,118.1
176.6289,361.3
176.6667,524.5
176.6714,268.3
176.687,756.5
176.6904,361.6
176.6954,792.3
176.7028,570
176.7455,766.7
176.8111,143.9
176.8164,18.4
176.8203,280.2
176.8714,282.1
176.88,195.5
176.8889,150
176.8936,140.1
176.9075,625.5
176.9098,121.2
176.9743,23.2
176.9924,1084
177.0248,5414.4
177.0486,337.5
177.0566,22.8
177.0611,8063.8
177.0759,561.3
177.0875,148
177.1147,826.5
177.1692,875.5
177.1837,525.5
177.1905,117.6
177.2961,128
177.3006,167
177.307,232.8
177.3974,146.5
177.425,135.8
177.6084,277.5
177.6428,529.1
177.6688,125
177.777,145.3
177.8186,19.6
177.8245,668.7
177.9712,248.9
177.9943,17.1
178.0088,9365.6
178.0163,73.1
178.0242,7602.7
178.0518,276.4
178.0588,6901.9
178.2746,476.5
178.2842,523.2
178.2937,151.6
178.3572,109.9
178.3689,136.1
178.4025,549.7
178.4584,495.7
178.49,107.8
178.5103,170.9
178.569,156.4
178.6075,130.4
178.6126,21.1
178.6159,122.7
178.6206,134.8
178.6215,113.6
178.6915,595.3
178.7702,203.5
178.8171,21
178.8622,315.2
178.8732,22.5
178.893,89.5
178.9217,55.5
178.925,268.5
178.9549,586.5
178.9619,17.7
178.9642,132
179.0003,49.5
179.0029,196.2
179.0083,1698.8
179.0488,265
179.0655,678.5
179.0867,324.1
179.1205,767.6
179.14,19.1
179.1433,242.3
179.2079,161.9
179.2359,20
179.242,138.9
179.2633,151.6
179.3698,489.7
179.4118,20.9
179.4261,111.6
179.4453,513.7
179.4523,597.5
179.6576,18.7
179.7008,723.9
179.7015,687.6
179.7031,410.2
179.7348,336.9
179.7953,370.1
179.8102,121
179.8347,114.5
179.9157,124.6
179.966,244.6
179.9788,110.4
179.9958,19.5
180.0034,7145.4
180.0107,154.5
180.0835,23.2
180.1024,249.1
180.1159,328.7
180.1287,135.7
180.1535,129.4
180.2148,264.8
180.2677,21
180.2872,355
180.3008,779.7
180.4058,176
180.4113,133.4
180.4245,388.2
180.4818,361.8
180.5056,582.9
180.5779,18
180.5981,635.5
180.6128,128.5
180.6812,96.6
180.7297,122.5
180.8134,21.6
180.8247,144.2
180.8882,1123.1
180.8946,1928.6
180.9041,4060.5
180.9076,476.1
180.9576,1788.6
181.0156,21.8
181.0601,471.1
181.065,5911.3
181.1217,16.8
181.1903,263.8
181.2166,110.6
181.2419,131.2
181.2656,221.3
181.2722,149.8
181.298,146.7
181.3383,153.4
181.3443,511.4
181.3788,342.8
181.4526,119.8
181.4562,279.5
181.4715,237.7
181.6439,133
181.7272,310.4
181.8162,125.8
181.8241,136.6
181.8498,164.6
181.9512,328.5
181.9627,446.3
181.9651,122.2
181.9704,166.5
182.0112,32.7
182.0425,26249
182.0588,435.3
182.063,691
182.0912,266.4
182.171,138.3
182.3535,423.8
182.3977,19.1
182.4422,354.3
182.4947,86
182.5117,668.9
182.5548,110.3
182.6128,266.2
182.683,268.1
182.7504,126.7
182.8082,19.9
182.8379,144.5
182.8442,165.7
182.9257,268.3
182.9315,227.2
182.9595,112.2
183.0443,274.3
183.0651,122.2
183.0981,116.4
183.1744,207.3
183.2189,125.9
183.3006,192.6
183.3034,126
183.3351,279.4
183.3654,112.3
183.5906,17.8
183.6337,605.1
183.7707,639.8
183.7744,331.1
183.8747,549.3
183.9648,777.5
183.9691,17.5
184.0116,20.8
184.0213,112.2
184.0281,172.4
184.0372,520.5
184.0441,334.5
184.0734,4294668.5
184.0775,3336.5
184.0817,223.9
184.0901,341.1
184.1099,189.3
184.1696,19.3
184.1819,1558.2
184.1976,137.5
184.3063,161.5
184.429,182.5
184.5296,315.5
184.6166,394.1
184.6289,19.8
184.6689,18
184.6814,380.7
184.6954,357.3
184.7231,125.6
184.7611,250.9
184.7642,137.1
184.9012,303.5
184.9297,61.9
185.0324,104047.7
185.0702,9772.3
185.0768,198392.3
185.108,135.5
185.12,125.1
185.2544,118.2
185.2725,392.8
185.2994,141.7
185.3168,20.3
185.3271,548.4
185.364,101.6
185.5352,325.9
185.6999,130
185.7697,17.5
185.8031,373.2
185.8347,17.5
185.8501,687.2
185.8605,297.5
185.9263,348.9
185.9596,2003.3
185.9874,96.5
186.0007,567.5
186.0358,1559.2
186.04,20
186.0777,27099.7
186.1252,116.7
186.2123,119.7
186.2475,636.4
186.2553,100.9
186.3702,274.7
186.3912,470
186.4202,564
186.4467,139.9
186.4995,459.8
186.5493,237
186.5834,122.2
186.5874,183.5
186.652,118.1
186.6728,19.8
186.6808,21
186.7286,933.1
186.7446,155.6
186.8124,20.2
186.9082,258.8
186.9121,1346.5
186.9962,383
187.0307,1328.2
187.0376,329.2
187.0579,6322.6
187.0608,396.7
187.0714,723.3
187.1076,458.1
187.1475,802.3
187.1508,455.8
187.1839,478.2
187.2121,706.8
187.2305,106.2
187.2376,164.7
187.3103,112.8
187.3477,19.2
187.3688,169.5
187.3901,121.3
187.4598,322.5
187.4644,129.8
187.5164,541
187.5333,545.6
187.5449,354.2
187.5881,405.5
187.6125,294.8
187.705,20.4
187.7096,342.1
187.7185,804.2
187.7484,328.3
187.78,552.8
187.8533,86.8
187.8859,20.6
187.9959,128.6
188.0233,634.4
188.0362,527.4
188.0709,910.6
188.0872,130.7
188.1263,614.8
188.1967,337.1
188.2123,568
188.2226,22.5
188.2346,450.7
188.3443,585
188.3492,25.3
188.3678,478.6
188.4259,752.1
188.4351,210.4
188.4599,543.8
188.4752,468.5
188.4889,533.8
188.4968,503.1
188.499,286.6
188.6135,150.9
188.6259,161.8
188.6768,104.1
188.7105,174.3
188.7589,560.3
188.8775,20
188.9257,114.4
188.9506,131.6
188.9751,533.7
188.9801,565.8
189.0137,17.4
189.021,89.6
189.0493,636.1
189.0611,3606.2
189.0871,6786.2
189.0919,332.4
189.1576,160.2
189.177,1034.5
189.2803,286.1
189.2866,127.3
189.2993,509.4
189.3994,17.7
189.413,561.4
189.4211,256.7
189.5656,303.2
189.6236,144.4
189.7798,227.2
189.7928,23
189.8206,121.7
189.8295,379.8
189.8401,670.5
189.8639,171.4
189.8787,633.1
189.8842,370.2
189.9256,123.3
189.9491,129.7
189.9871,16.1
190.19,440.2
190.2971,304.8
190.3283,585.6
190.3809,249
190.646,17.2
190.7423,648
190.8283,127
190.8446,224.3
190.8612,316.7
190.8726,522.3
190.9125,657.6
190.962,495.2
191.0003,177.6
191.0082,4769.6
191.0162,21.9
191.0238,27.9
191.0315,763.4
191.0404,115972.9
191.0494,129.9
191.0576,232.9
191.0768,23739
191.115,579.5
191.1271,364.5
191.159,143.3
191.2035,142.5
191.3337,19.1
191.4018,532.4
191.4041,212.2
191.5668,258.5
191.5768,314.6
191.5963,18.7
191.6709,485.6
191.7172,537.6
191.8157,255.5
191.8621,246.7
191.8717,200.3
191.8948,117.4
191.9336,135.8
191.9544,206
191.967,253.6
191.9827,2138.7
191.9875,19.8
192.0112,121.2
192.0399,14924.8
192.0437,3822.3
192.08,625
192.1484,673.4
192.1769,496.6
192.1962,304.1
192.2455,469.1
192.2688,131.8
192.2729,20.6
192.3038,301.2
192.3144,119.7
192.4799,406
192.4976,229.4
192.5338,174.4
192.547,317.5
192.7834,266.3
192.8849,470.3
192.9108,95.3
192.9211,366
192.9663,503
192.9797,204.9
192.9987,5419.1
193.0101,160.9
193.0157,474.4
193.0352,3758.2
193.108,239.7
193.1146,17.6
193.1203,777.2
193.1522,255
193.2302,171.5
193.3197,118.8
193.4098,497.7
193.5588,504.8
193.5918,269.3
193.604,501.5
193.7144,440.4
193.7426,115.6
193.8387,320.1
193.8845,179.6
193.9148,341.5
193.9188,182
193.9618,18.4
193.9982,2089.9
194.0049,254.8
194.0223,891.4
194.0327,2388.4
194.0729,132.8
194.0955,340.9
194.1541,19.9
194.2262,154.3
194.2565,298.2
194.267,555.9
194.3227,16.4
194.3521,214.3
194.4594,188
194.5276,214.9
194.6117,357.5
194.6393,481.8
194.6956,193.8
194.7156,113.9
194.7527,302.6
194.7582,19.7
194.7752,428.3
194.7929,275.4
194.8943,351.6
194.9039,262.9
194.9142,492.7
194.9669,348.9
195.0068,266.8
195.0115,53.4
195.0418,139.9
195.0476,248.4
195.0743,276.1
195.1179,573.5
195.1637,160.1
195.2384,119.7
195.3207,16.4
195.3367,617.6
195.3785,109.8
195.3979,135.6
195.4096,228.2
195.4871,524.7
195.5218,461
195.5233,421.9
195.5242,402.3
195.5595,551.1
195.7106,172.6
195.8407,21.6
195.9036,470.9
195.9178,119.9
195.9234,237.2
195.9651,106.2
195.9775,677.2
195.9817,19.5
195.9933,19.5
195.9971,352.5
196.0014,21.7
196.0382,572.5
196.0603,366
196.0793,316.1
196.099,18.3
196.1697,259.2
196.1758,149.3
196.2624,178.3
196.2755,131.9
196.2936,102.4
196.3771,687.6
196.4164,158
196.664,537.5
196.74,115.4
196.7775,205.6
196.7847,21.9
196.8401,23.2
196.8652,3868.4
196.8689,397.3
196.878,1217.9
196.9297,704.6
196.9324,208.8
196.937,138.4
196.9694,21.1
197.0013,119.1
197.0112,222.8
197.0233,745.5
197.0266,442.1
197.0459,122.7
197.0931,235
197.1296,483.9
197.1736,286.6
197.1889,138.4
197.1961,616
197.2206,438.7
197.2252,18.5
197.4653,131.2
197.4714,274.4
197.5112,563.7
197.5196,425.3
197.5591,153.6
197.657,127.9
197.8272,492.6
197.8702,159.5
197.8909,23.1
197.9433,343.1
197.9529,19
198.0414,133.6
198.0851,11376.9
198.089,1773
198.1726,18.7
198.1854,3526.4
198.2998,780.5
198.3414,17.9
198.439,18.2
198.4925,770.6
198.5705,351.5
198.6127,413.8
198.6535,590.6
198.7033,470.1
198.7899,727
198.809,139.5
198.8542,38.8
198.8623,5004.8
198.8996,33.6
199.0009,117.8
199.0163,173.5
199.0449,91.8
199.0491,137.7
199.0553,20.2
199.0688,1004.6
199.0751,794
199.0803,51.4
199.189,435.1
199.2619,136.8
199.3027,291.9
199.3558,711.9
199.4376,23.4
199.5,89.7
199.541,252.5
199.589,199.3
199.6804,208.1
199.8047,185.3
199.8249,21.1
199.9244,480.9
199.9908,38706.5
200.0408,14412.1
200.0678,288.4
200.0792,181.3
200.0861,647.2
200.1112,123.3
200.1484,876.9
200.1516,284.5
200.1667,601.4
200.1706,144.3
200.2176,348.1
200.27,19.1
200.3109,323.1
200.3178,10316.1
200.3603,146.2
200.367,922.1
200.4018,532.7
200.4726,166
200.5228,498.3
200.6862,389.5
200.6994,376
200.7155,20.5
200.8593,1132.2
200.8638,143.4
200.8942,2067.7
200.9371,121.7
200.9449,300
201.0551,274.6
201.0871,65
201.1045,120.2
201.1841,316.3
201.3376,223.2
201.341,220.9
201.3489,138.5
201.4776,22.3
201.4806,18.7
201.4958,108.8
201.7299,200
201.7549,639.2
201.8274,791
201.8607,177.7
201.8613,187
201.8633,149.9
201.8648,165.2
201.8944,160.2
201.9254,101.9
201.9545,396.4
201.9629,137.7
201.9786,19.2
201.9956,128.8
202.0162,73.7
202.1208,371.4
202.2323,90.8
202.26,21.5
202.3746,127.8
202.4369,432
202.5684,18.3
202.6224,527.8
202.6513,11616.7
202.6572,674
202.6771,505.9
202.681,178.1
202.7359,509.2
202.7714,260.6
202.79,126.7
202.807,452
202.8279,813.2
202.873,27.4
202.8952,103.6
202.9074,18.2
203.0247,137.7
203.0317,2627.8
203.0528,1205446.1
203.0768,9828.4
203.1029,381.9
203.2145,20.8
203.3556,359.3
203.4176,136.5
203.4253,209.6
203.4404,20.4
203.4655,628.8
203.4993,116.2
203.5553,21.2
203.6034,357.2
203.8788,337.2
203.8847,126.6
203.9204,336.5
203.9362,17.5
204.0117,24.1
204.0245,46129.6
204.0319,53.4
204.044,21.7
204.0561,61813.5
204.0868,654.9
204.1588,109.7
204.4061,383.9
204.4971,134.1
204.5543,208.9
204.5816,249.7
204.6188,162.7
204.6293,140.3
204.6416,172.6
204.6654,544.7
204.714,167
204.7252,130.3
204.7785,108.8
204.7911,117.6
204.796,152.9
204.8301,91.6
204.8362,179.6
204.8856,18.8
204.8887,407.1
204.9212,512
204.9409,320.1
204.9922,172
205.0159,32.3
205.0286,460.5
205.0569,7843.2
205.0837,33.4
205.0926,99.9
205.0973,1289.8
205.3181,228.8
205.3412,489.5
205.4866,158.7
205.5113,17.7
205.5789,825.6
205.6654,132.1
205.6929,522.9
205.7092,143.7
205.731,362.2
205.7692,812.7
205.873,772.4
205.8888,49.1
205.9172,552.9
205.9703,366.1
205.9792,133.1
206.0269,288.8
206.0476,121.3
206.0555,1946.9
206.1902,178.2
206.289,370
206.4503,544.5
206.4614,154.8
206.527,196.7
206.5825,19.9
206.6175,18.8
206.6447,144
206.766,125.9
206.8879,169.3
206.8941,14445.5
206.9169,253.4
206.9357,593.1
206.9723,154
206.9823,2053.2
206.998,271.5
207.0144,82852
207.0438,364.3
207.0509,12543.1
207.0566,19.3
207.0732,284.4
207.1432,142.5
207.2081,820.6
207.2606,577.8
207.3263,545.4
207.3375,471.8
207.3777,99.7
207.4766,20.6
207.5838,700
207.722,662.1
207.7788,957
207.8861,50.1
207.955,19.3
207.9909,953.9
208.0138,2615.5
208.0179,947.8
208.0367,582.6
208.0431,24.7
208.055,635.9
208.1609,108.6
208.1887,139.1
208.2229,244.2
208.2345,237.1
208.3147,24
208.3781,111.7
208.4531,133.6
208.5593,440.2
208.5776,331
208.6067,511.4
208.6144,445.6
208.6297,155
208.7045,316.2
208.7159,112.8
208.862,128
208.8832,2004.9
208.8911,7213.1
208.9355,919.2
208.9383,294.9
209.0125,3702
209.0174,489.6
209.0551,466.7
209.0886,557.5
209.111,184.1
209.14,18.5
209.2167,307.6
209.2805,124
209.2909,293
209.4138,134.3
209.477,97.9
209.5005,413.7
209.5145,592.1
209.6018,22.8
209.9776,18.2
210.3038,18.7
210.6419,98.2
210.7293,111.7
210.7714,129.4
210.8008,139.6
210.8566,18.6
210.8836,33.7
210.948,55
210.9516,81.1
210.9552,19
210.963,140.6
210.9706,424
211.0046,126.3
211.0098,138.2
211.0539,150.2
211.0567,153.4
211.069,872
211.074,304.3
211.097,208.4
211.1025,163.6
211.2172,136.8
211.2497,23.4
211.2782,219.2
211.3081,3259.5
211.3135,8821.1
211.316,13082.5
211.3183,13608.9
211.3219,16892
211.3268,29390.1
211.3292,24071.4
211.3328,15364.6
211.4459,130.3
211.4712,651.3
211.5085,296
211.5193,527.1
211.5264,514
211.5493,775.1
211.6258,126.1
211.7157,206.1
211.7363,340.4
211.7557,177.6
211.7677,116.2
211.7882,104.4
211.8067,285.1
211.8237,685.4
211.834,385.1
211.8562,196.5
211.8667,324.9
211.9361,19.5
211.9591,149.7
211.9665,79.8
212.0028,19.7
212.0702,593.7
212.0744,499.6
212.1237,341.5
212.1711,123.1
212.175,374.7
212.1803,225.7
212.3012,319.7
212.4228,121.3
212.6577,121.2
212.6983,343.1
212.7043,347.8
212.8243,317.8
212.8392,1349.8
213.032,77.7
213.055,373
213.1901,403.5
213.2242,554.9
213.2312,566.8
213.3963,108.8
213.4382,18.4
213.4527,98.4
213.4561,366.5
213.549,157.3
213.7087,481.7
213.7365,145.7
213.8648,163.4
213.8935,119.9
213.9621,3566.7
213.9848,166.9
213.9941,629.8
214.0591,17749
214.0781,506.4
214.0898,1016.7
214.1141,248.9
214.2654,494.8
214.3473,111.8
214.352,622.5
214.3766,149.1
214.3968,110.9
214.4527,670.7
214.5699,623.2
214.585,544
214.6552,17.4
214.7535,118
214.8083,375.5
214.8364,2478.3
214.8736,214.6
214.8829,573
214.9099,345.5
214.9177,34.7
214.9374,505.5
214.9655,59.1
215.047,146.3
215.0933,67.6
215.1432,196
215.1954,524.8
215.2852,136.4
215.3875,163.7
215.4346,19.5
215.5136,20
215.5505,468.3
215.5627,101.3
215.6117,215.1
215.6735,758
215.7149,144.7
215.7227,165.4
215.7672,139
215.8816,27
215.9581,69.7
215.9782,17
215.9803,17.1
215.9838,473.2
216.0147,8630.6
216.0503,578
216.0885,442.9
216.1056,764.2
216.1095,582
216.2631,135.5
216.3324,514
216.4118,198.1
216.5572,121.1
216.5826,263.2
216.6283,20.2
216.6543,527.3
216.6816,292.1
216.722,698.1
216.7998,135.7
216.8175,237.4
216.8466,795.4
216.8711,111.6
216.8887,25.8
216.9229,41739.2
217.0271,173.6
217.0326,313.6
217.0561,20.1
217.0829,481.3
217.2382,110.2
217.264,337.8
217.2948,20.2
217.3227,499
217.3635,175.4
217.4644,166.5
217.468,132.6
217.4859,135.9
217.7482,175.2
217.758,380.3
217.7738,158.1
217.7798,360
217.8502,573
217.877,125.7
217.926,565.5
218.0217,463.3
218.1516,28.7
218.1647,453.1
218.2782,111
218.2879,324.2
218.385,231.1
218.3891,232.3
218.4324,309.7
218.4867,121.4
218.6097,210.9
218.6888,284
218.7539,269.2
218.8294,294.3
218.8676,166
218.9047,221.4
218.9088,113.4
218.9199,11240.9
218.9656,121.8
218.9849,299.4
219.0267,1443998.9
219.083,5637.2
219.0913,343.6
219.1327,275.4
219.2349,144
219.2676,220
219.3025,134.8
219.3085,391.6
219.3728,112.1
219.4362,99.7
219.5003,601.5
219.5461,276.5
219.5837,197.1
219.6039,136
219.6499,584.9
219.6671,197
219.7079,211.1
219.8442,406.7
219.8616,454.9
219.9823,141.6
219.9982,293.3
220.0301,77525.9
220.0373,1613.8
220.0426,119.8
220.067,8406.3
220.0755,414.9
220.0888,335.1
220.1674,438.4
220.3172,114.7
220.3818,516.4
220.4883,131.9
220.574,341.7
220.5892,157.2
220.5958,250.2
220.7676,131.1
220.8143,400.2
220.8454,18.6
220.8705,739.5
220.8838,29.8
220.8887,141.6
220.8987,196.4
220.9272,513.2
220.9986,95.7
221.019,600.5
221.0248,85242.6
221.0311,10894.9
221.0426,431.9
221.051,1288.1
221.0676,464.5
221.0846,418.1
221.0956,145.7
221.106,305.1
221.1535,16.9
221.1694,333.9
221.1979,142.2
221.341,151.5
221.3734,554
221.376,299.1
221.4734,504.8
221.5966,17.2
221.606,397.1
221.6876,140.4
221.8424,125.3
221.8691,89.4
221.8945,455.3
221.9563,128
221.9791,18.8
221.9841,917
221.9957,121.6
222.028,2945.3
222.0762,142.8
222.3358,581.5
222.3582,727.5
222.5165,120.6
222.5951,129.4
222.6085,150
222.6622,171.3
222.6758,125.1
222.778,117.6
222.8158,449.3
222.8352,120.7
222.868,13891.5
222.8796,537.7
222.8988,455.9
222.9128,307.2
222.954,506.2
222.9883,11808.1
223.0178,541.2
223.0209,707.9
223.0253,848.4
223.0367,389.7
223.0641,43.2
223.1367,773.3
223.1425,279.9
223.147,237.6
223.2956,172.4
223.3699,119.8
223.6082,394.2
223.756,17.4
223.7866,402.9
223.853,18.7
223.8802,147.1
223.9165,133.5
224.0297,2805.5
224.0357,515.9
224.1023,745.8
224.1649,452.9
224.1721,106.9
224.2517,930.6
224.3523,324.9
224.3838,119.3
224.39,194.4
224.4025,135.7
224.406,219.8
224.4187,262.5
224.4535,130.4
224.5389,595.9
224.727,115.8
224.7852,128.7
224.865,9395.2
224.9272,93.9
225.0152,165.2
225.0235,28.9
225.0434,25.1
225.0549,21134.2
225.0849,306
225.1599,116.2
225.234,586.5
225.2711,471.8
225.3377,158
225.4627,252.4
225.4814,405.5
225.5015,19.9
225.6455,582.2
225.7011,18.4
225.7189,126.9
225.7505,431.2
225.7847,171.6
225.8333,18
225.8399,382.3
225.9202,220.3
225.9395,20.2
225.9623,46.8
225.9835,247
226.0065,2419.9
226.0243,11167.3
226.0452,7476.7
226.0544,121.2
226.1027,185.2
226.1099,331
226.3139,150.5
226.384,291.2
226.7319,359.7
226.7623,152.7
226.8493,20.6
226.8543,165.4
226.8713,144.3
226.8899,213.2
226.9517,31676
227.006,136.8
227.0335,534.7
227.0436,140.7
227.0495,310
227.079,3084.7
227.0866,114
227.1645,457.6
227.2396,616.5
227.2482,19.1
227.3308,153
227.3917,449.5
227.5216,172.4
227.5617,136.6
227.6051,286.4
227.6306,92.7
227.6862,97.1
227.7292,262.5
227.7751,458.2
227.7966,130.7
227.8526,127.1
227.8628,452.1
227.927,276.8
227.9554,779.1
227.9617,365.8
227.9998,568.4
228.0223,403.9
228.0564,1312.3
228.0669,103.7
228.0721,17.8
228.1023,20.4
228.1487,130.1
228.181,20.9
228.2075,252.2
228.2397,368.8
228.3463,210.4
228.4836,719.7
228.5157,362.2
228.5583,321.9
228.5743,322.2
228.5883,489.8
228.5968,628.9
228.6293,146.2
228.6424,512.3
228.6481,252.6
228.704,316.8
228.7055,322.3
228.727,536.4
228.7596,443.2
228.7768,138.3
228.7803,142.3
228.8132,808.2
228.8898,137
228.8946,21.6
228.9601,154.9
229.0636,156.7
229.1188,550.9
229.1449,215.9
229.1653,223.9
229.1755,759
229.1871,524.1
229.221,113.1
229.2599,147.4
229.3341,193.4
229.366,150.6
229.3809,166.3
229.4251,17.9
229.4849,99.7
229.5555,592.2
229.5919,419.9
229.774,825.1
229.8052,138.8
229.8719,127.3
229.8964,127.2
229.913,23.4
229.9571,9798.9
229.9643,356.6
229.9859,233.3
229.9912,545.4
230.0265,357.5
230.033,354.8
230.0486,180.3
230.0578,583.7
230.1136,424.8
230.2177,18.2
230.2587,554.8
230.2763,18.5
230.4623,245.1
230.784,405.6
230.8105,391.3
230.8133,17.2
230.8622,302.2
230.8902,372.5
230.9604,384.5
230.9904,26.9
231.0055,118.7
231.0083,19.7
231.0431,22.9
231.0599,279.8
231.1938,131.7
231.3028,174.9
231.3433,16.7
231.3473,467.8
231.3786,595.9
231.4461,19.7
231.48,260.1
231.5321,170.3
231.5524,495.7
231.6513,166.3
231.6762,175.6
231.6813,117.1
231.7118,94.1
231.8777,276
231.9132,23.6
231.953,251.6
231.9575,326.6
231.9727,202
231.9951,84.1
232.0071,18
232.0123,19.4
232.0277,159.8
232.0423,380.4
232.0458,305.9
232.1147,736.9
232.1412,421.2
232.3706,342.6
232.3861,482.3
232.6495,20.5
232.7108,102.3
232.7448,521.3
232.782,20.7
232.8604,239.2
232.8835,96.3
232.8968,37008.7
232.913,21.1
232.9232,22.5
232.9563,26.3
232.9857,1327.8
232.9905,455.1
233.0172,370.1
233.0413,220.6
233.0511,8664.5
233.0897,366.9
233.1556,380.7
233.1685,111.4
233.2461,351.3
233.309,570.3
233.3163,719.9
233.4807,168
233.6597,365.4
233.6782,477.2
233.7435,170.9
233.9531,114
233.9834,137.7
234.1356,147.1
234.2026,591.7
234.3067,247.7
234.3081,272.4
234.3096,239.8
234.3366,18.4
234.3751,20.6
234.3849,20.5
234.388,123.2
234.4491,218.2
234.4706,342.5
234.4859,461.6
234.561,17.1
234.5903,377.3
234.6308,186.8
234.6427,176.4
234.6468,203
234.6981,266.8
234.7394,186.6
234.7782,488.9
234.7877,317.8
234.7991,174.3
234.8676,746.6
234.8937,7344
234.8998,82
234.9738,136.5
234.9817,7201.8
234.9921,774.5
235.057,1317.5
235.0667,1948.3
235.0759,127.9
235.0927,4841.3
235.143,19.5
235.2521,113.8
235.256,169.3
235.2999,118.8
235.3778,139.7
235.5094,143.7
235.6076,17.3
235.6219,116.4
235.6523,111
235.699,162.5
235.7089,121.1
235.8943,173.4
235.9074,18.5
236.0411,5780.7
236.0668,26
236.0717,56867.8
236.0763,809.3
236.1637,662.5
236.1815,338.2
236.2572,390.4
236.3688,157.3
236.4409,111.2
236.4765,23.9
236.5065,142.3
236.6177,117.7
236.6414,219.3
236.8781,339.4
236.9683,131.2
236.9734,341.2
237.0298,126.6
237.0386,515.3
237.0529,1119.9
237.0752,2955.9
237.1618,129.9
237.2146,444.1
237.2187,344.1
237.2405,324.8
237.2987,17.4
237.3497,148.9
237.3609,387.4
237.8179,510.9
237.9087,98.5
237.9292,223.4
237.9619,501.7
237.9773,104.9
237.9874,17.5
238.0098,634.1
238.0676,822.9
238.0759,18.8
238.1394,19.7
238.2062,18.3
238.2693,594.8
238.2832,772.9
238.3034,268.6
238.3889,17.4
238.4637,148.9
238.4762,712.5
238.6714,367.5
238.6844,715.4
238.7411,20.8
238.8085,145.7
238.8339,21.8
238.842,4737.7
238.9431,126.7
239.0092,3636.9
239.0499,334.8
239.0637,356.8
239.0684,649.3
239.1847,289.9
239.2271,179.6
239.2308,159
239.2328,173.7
239.2615,170.3
239.3006,17.5
239.3496,229.6
239.3651,369.3
239.3999,174.6
239.4452,627.5
239.8214,19.7
239.8678,176.1
239.8866,520.6
239.9287,18.9
239.9447,285.9
239.9777,22.8
239.9974,18.5
240.0036,2092.9
240.0136,196.9
240.023,262.1
240.031,581.1
240.0588,500
240.0997,1731.6
240.1037,607.6
240.1221,169.4
240.1944,449.8
240.271,175.4
240.3158,368.2
240.3726,343.4
240.3867,336.1
240.587,417.2
240.6904,159.5
240.8081,154.2
240.839,3144.2
240.8679,29.8
240.9501,19.5
240.9549,876.4
240.9675,1519.9
240.9784,113.1
240.9847,469.1
241.009,866.9
241.0886,519.1
241.1508,356.7
241.199,334.3
241.2262,794.1
241.2619,305.2
241.3568,19.3
241.3724,98.5
241.4162,102.8
241.548,619.1
241.5649,147.6
241.59,94.3
241.5914,117
241.5929,110.6
241.6495,346.4
241.7179,729.9
241.7347,503
241.8178,148.4
241.9775,166.5
241.9982,2217.4
242.0015,911.3
242.0193,4025.6
242.0363,159.4
242.0543,321
242.109,480.1
242.1499,392.8
242.1596,18
242.2816,92.1
242.3422,19.2
242.3906,579.2
242.5971,155.2
242.7438,479.9
242.7906,199.9
242.8574,165.3
242.9257,17832
242.9491,219.8
242.9544,316.8
242.9612,295.5
242.9645,46.7
242.9757,53.5
243.0059,199
243.0192,123
243.0329,302.1
243.0533,15769.3
243.0655,7263.7
243.1169,718.6
243.1321,886.8
243.1982,18.2
243.3566,875.9
243.7585,306.4
243.8112,18.9
243.9523,666.2
243.9727,3635.6
244.0127,175.6
244.0408,220.6
244.0789,674.4
244.1485,90.1
244.2572,339.1
244.4129,181.1
244.473,227.6
244.5566,336.9
244.6613,553.2
244.8537,170.1
244.871,5005.1
244.8788,23.3
244.9299,20.2
244.9761,149.8
244.9848,18.4
245.0265,613
245.0495,363.2
245.2769,822.5
245.3558,210
245.5563,149.8
245.5792,154.5
245.6913,165.5
245.722,96.3
245.7863,287.2
245.7887,279.3
245.8268,316.5
245.8815,18.7
245.9686,60.4
245.9733,46.3
245.9775,466.8
245.9886,42.6
245.9992,374.4
246.0138,516.6
246.0819,146.7
246.1595,118.2
246.277,320.6
246.3416,131.8
246.4191,618.8
246.4326,627.5
246.4507,644.3
246.4854,161.1
246.5654,159.7
246.6094,186.4
246.6243,540.7
246.7409,183.7
246.7528,93.4
246.7856,659.8
246.8076,71
246.818,135.9
246.8625,441.4
246.8735,18.8
246.8991,21.9
246.9517,1914.7
246.9714,20.3
247.0366,410.2
247.0485,133.6
247.0669,1422
247.0803,347.5
247.0928,2015.1
247.1022,175.1
247.1316,539.8
247.1632,449.8
247.2777,527.6
247.4585,18.9
247.475,408.8
247.5457,20.2
247.5858,549.5
247.5993,281.6
247.7621,143.6
247.8043,257.7
247.8102,229.7
247.8735,252.9
247.9018,207.6
247.9232,83.8
247.9677,746.6
247.9834,1042.8
248.0971,338.5
248.1243,26476.3
248.2395,16.9
248.3734,307.3
248.6906,182.1
248.8481,532.8
248.8622,22.9
248.8709,9032.7
248.8766,117.3
248.9007,125.9
248.9156,24.6
248.9334,357.2
248.9483,128.9
248.9499,114.5
248.9512,88.4
248.9597,395.3
248.9998,688.1
249.0159,970.1
249.0247,128.7
249.0613,18330.2
249.123,665.6
249.1276,1306.9
249.1948,470
249.2431,142.2
249.256,19.3
249.2787,347.4
249.4106,128.5
249.5349,124.2
249.6856,231.1
249.7134,127.2
249.7554,211.1
249.7757,146.6
249.8467,144.6
249.8864,71.6
249.9698,338.6
250.0084,19.8
250.0266,93.9
250.038,1698.2
250.544,472.9
250.6326,435.2
250.8139,268.9
250.8396,155.1
250.8678,1298
250.8938,213.7
250.9206,1680.6
250.9518,223.1
250.9555,3359
251.0003,585.8
251.0223,148.3
251.0347,171.5
251.0484,169.6
251.0983,273.3
251.1411,120.9
251.1503,159.2
251.1789,548.2
251.184,20.4
251.3299,532.7
251.4245,175.2
251.5074,98.4
251.5657,318.3
251.6331,19.6
251.8226,359.6
251.8627,314
251.9168,149.3
251.924,296.7
251.9532,19.3
251.9807,131.3
251.9876,221.8
252.0366,100.8
252.0457,114351.6
252.057,675.9
252.1379,389.8
252.1593,130.8
252.2247,19.4
252.2374,121.6
252.2476,465.7
252.2775,18
252.3816,173.1
252.4578,234.7
252.5493,456.4
252.5846,132.1
252.6,128.9
252.6349,332.4
252.6591,282.2
252.7237,207.7
252.8362,237.2
252.9102,52.3
252.9175,936.7
252.9512,24.2
252.9563,181.9
252.9902,820.9
252.9981,25.8
253.0492,6580
253.1052,604.4
253.1357,273.5
253.1667,17.2
253.2716,244.1
253.3644,634
253.3807,205.3
253.4339,232.9
253.466,101.7
253.4791,132.9
253.4853,139
253.5299,239.8
253.5829,120.9
253.6674,708.9
253.6695,461.8
253.6772,129.7
253.7632,94.6
253.7676,104.1
253.8279,20.8
253.9054,90.7
253.9297,935.4
253.9769,117.7
254.01,232.4
254.0267,147.8
254.0353,138.6
254.0427,3642
254.0586,20.6
254.1205,105.4
254.2647,720.1
254.2835,147.5
254.4217,19.3
254.5263,660.2
254.5653,113.1
254.5678,116.5
254.5855,130.2
254.7985,93.3
254.8163,460.2
254.824,7437.1
254.8565,25
254.8997,560.9
254.923,874.8
254.9863,448.5
255.0079,595.1
255.0205,202.4
255.0331,34923
255.0382,158.3
255.0467,412.8
255.0726,191
255.1207,141.9
255.1464,358.7
255.1574,319.1
255.1598,218.2
255.243,337.3
255.3394,544.5
255.3804,386.7
255.3985,270
255.4037,603.7
255.4308,463
255.4654,379
255.4795,21.7
255.5283,131.9
255.6753,474.8
255.7952,603.8
255.9171,127
255.9514,158.1
255.9713,275.3
256.0034,1190.9
256.0324,145.5
256.0361,147.2
256.0518,405
256.0586,63.7
256.0672,165
256.1192,319.9
256.1244,678.5
256.2383,517.5
256.283,110.5
256.3337,151
256.3661,119.4
256.3784,300.8
256.54,166.3
256.5725,147.1
256.5887,19.8
256.6275,581.2
256.8078,485.1
256.8211,9631.9
256.9328,863.6
256.9619,534.4
256.9812,55.7
256.9999,17.1
257.0221,265.8
257.0487,9269.5
257.0641,1232.9
257.0747,51494.9
257.0947,346
257.1877,641.8
257.2382,730.4
257.3549,143.9
257.3699,661.6
257.4039,18.6
257.4255,155.7
257.5012,413.2
257.6566,154.2
257.824,21.7
257.9029,22.7
257.9521,265.2
257.9886,163.6
258.0301,395.1
258.0781,2178.8
258.0868,782
258.1103,31497.2
258.1753,138
258.229,616
258.2792,186.1
258.3496,202
258.3997,417.7
258.4897,207.7
258.4968,129.9
258.5086,598.5
258.5949,391.5
258.6112,161.3
258.8181,2138.8
258.8572,18.2
258.8997,3645
258.9235,18
258.9507,20.7
258.9573,499.3
258.987,538.7
259.1155,97.7
259.2321,21.8
259.2597,889.8
259.3521,20.7
259.3759,116.5
259.4511,588.6
259.5669,889.1
259.5712,185.2
259.5961,18.8
259.6471,256.7
259.734,266.1
259.7424,212.8
259.7507,21
259.8378,282.1
259.8519,150.6
259.9501,261.3
259.956,375.5
260.0575,16.8
260.1303,140.8
260.1644,318.9
260.1932,505.3
260.2861,24.1
260.4155,125.7
260.6998,318
260.7399,18.7
260.7462,271.6
260.8184,396.7
260.8446,1256.8
260.9493,5344.8
261.0464,143.4
261.0988,170.3
261.3427,124.4
261.4174,284
261.4333,127.9
261.4557,153.3
261.4997,132.5
261.5193,325.2
261.6806,501
261.7924,225.9
261.8947,24.1
261.9833,233.4
262.0816,2909.1
262.118,584.9
262.194,619.5
262.2032,259.2
262.2075,21.6
262.2486,507.9
262.3038,129.6
262.4143,315.6
262.4399,201.7
262.4744,250
262.5854,17.3
262.6891,587.6
262.7817,209.2
262.8251,830.2
262.8486,177.1
262.9156,541.3
262.9303,20.3
262.9463,1100.9
262.9564,273.6
262.9667,135.4
263.0139,534.7
263.0609,344.6
263.0851,2245
263.3364,20.3
263.4373,408.5
263.6162,176.6
263.7033,18.3
263.8043,537.4
263.9031,21.2
263.9877,519.8
264.022,364.4
264.3351,129.2
264.3712,352.3
264.4301,295
264.6149,134.1
264.6307,214.3
264.6514,576.5
264.8445,1311
264.8527,4193.1
264.8729,137.2
264.9339,1898.6
264.9731,577.3
264.9885,8707.4
265.0163,98.5
265.0353,9939
265.0475,1634.9
265.1631,330.5
265.3052,153.7
265.324,662.8
265.3811,20.5
265.5033,516.4
265.5749,180.4
265.6166,294.6
265.7723,93.7
265.8287,682.3
265.8445,365.5
265.9249,260
265.9335,118.3
265.9464,25.6
265.9577,180.2
265.9784,401.3
265.9924,204.8
266.1222,257.8
266.1285,100
266.1651,19.2
266.1755,191.5
266.2173,310.5
266.4646,455.8
266.6994,111
266.8499,3817.3
266.8944,2443.7
266.9297,352.2
266.9592,104.8
266.9684,519.6
266.9828,479.4
266.989,242.5
267.0006,20
267.0115,27.9
267.0624,183.2
267.3431,731.3
267.5101,363.9
267.7016,182.4
267.7354,170.9
267.8346,126.9
267.9737,97.4
267.994,811
268.0094,77.7
268.0295,713.9
268.0774,22.4
268.0977,274.2
268.1248,881.9
268.1452,102.7
268.16,901
268.1648,545.4
268.4722,137.9
268.6776,108.2
268.7376,106.7
268.8469,1676.7
268.8521,588.1
268.8627,30
268.8913,1189.9
268.9587,269.7
268.9969,31.4
269.0146,176.5
269.0283,404.7
269.0488,49448.8
269.0987,278.2
269.1412,624.9
269.1822,186.1
269.2174,944.4
269.2252,18
269.2335,243.8
269.244,669.5
269.4616,110.4
269.4684,240
269.5337,160.8
269.684,420
269.6897,23.1
269.7782,561.3
269.9391,534.6
269.9519,47.2
269.9895,373.2
269.9939,2053
270.0097,121.5
270.0141,24
270.0167,21.6
270.0248,18511.4
270.0475,21646.6
270.0699,411.6
270.1453,1577.9
270.2612,751.6
270.2948,312.8
270.3011,229.7
270.3333,259.1
270.5222,486.7
270.5795,376.6
270.7028,23.8
270.792,237.1
270.7979,4199.4
270.8922,353.3
270.9279,602.2
270.96,44.6
270.9781,12034.8
270.9927,19.1
271.0281,1474.2
271.0508,1160.8
271.065,377.4
271.0781,202.3
271.0903,1196.5
271.2194,301.8
271.3549,603.9
271.5189,97.3
271.6321,350.3
271.6982,312.6
271.7811,348.3
271.8653,519.2
271.8887,195.5
271.922,329
271.9333,309.2
271.968,131.4
272.0051,22.8
272.0206,462.6
272.0432,27.1
272.0806,189.1
272.1324,466
272.1495,335.6
272.1724,404.1
272.2206,160.9
272.2805,86.7
272.2967,141.3
272.3428,153.4
272.5551,158.7
272.6052,598.8
272.7758,22.4
272.795,3653.7
272.9413,725.1
272.9446,1550.2
272.9664,390.3
273.0488,4104.2
273.2296,151
273.3674,174.1
273.4605,484.6
273.6218,225.1
273.6911,137.4
273.7204,357.1
273.8514,838.9
273.8714,552.5
273.8793,515.3
273.9626,15060
273.9773,581.2
274.0522,123.1
274.0585,152.1
274.0691,79.2
274.0736,386.4
274.0923,2405.1
274.5222,330.4
274.7184,143.1
274.7528,110.2
274.7924,1354
274.8029,66.1
274.8115,389.8
274.8184,16.1
274.8566,478.6
274.8817,450.3
274.944,29.1
274.9659,109
274.9823,51.6
275.034,199.9
275.0389,18.9
275.0555,177.4
275.1364,18.9
275.1598,127.5
275.1708,585.9
275.1978,157.7
275.2373,768
275.2503,399.6
275.3949,498.8
275.669,539.3
275.7276,387.5
275.8737,21
275.9329,130.1
275.9394,99.9
275.9605,130.6
276.0035,81.7
276.0842,26
276.4763,222.5
276.6013,350
276.6056,18.4
276.7168,157.8
276.7961,303.9
276.8036,20.7
276.8178,21
276.9103,78
276.9231,5347.8
276.9466,26.5
276.9594,106.3
276.9848,598.7
277.0096,216.1
277.096,107.3
277.2555,17.5
277.3464,360.8
277.4039,157.5
277.5181,103.6
277.6142,128.4
277.7043,96.6
277.776,387.2
277.7901,331.5
277.9113,535.5
277.9596,247.1
277.9833,266.7
278.0002,26
278.0127,280.1
278.0191,330.6
278.0358,203.5
278.0675,196.1
278.4505,129.1
278.5362,403.7
278.6118,742.7
278.6251,205.5
278.6745,144.4
278.692,775.3
278.8883,36.1
278.9203,781.9
278.9873,1518.6
279.004,1589.9
279.0567,39199.8
279.0967,282.2
279.1349,313.2
279.2136,156.4
279.291,548.5
279.31,19
279.3194,100.8
279.381,23.5
279.4463,128
279.4916,159.6
279.727,389
279.756,505.2
279.8341,168.1
279.9109,115.8
279.916,462.3
279.9284,533.8
279.9364,406
279.9762,728.8
280.0121,452.3
280.0156,167.6
280.0521,167
280.0596,337.8
280.065,267
280.0918,1346.2
280.1568,745.7
280.1758,114
280.238,282.3
280.3118,202.5
280.3479,145.5
280.4349,340.7
280.4745,826.3
280.5606,129.3
280.6828,287.1
280.8269,1319.2
280.8385,394.1
280.8724,395
280.8938,269.2
280.9072,728.1
280.9103,601.2
280.9629,525.5
280.9828,598.2
280.9883,382
281.0093,2512.1
281.0205,22.4
281.0514,464.2
281.086,367.9
281.1759,535.3
281.1991,354.9
281.4012,366.5
281.4207,318.2
281.4389,459
281.4612,678.1
281.5145,350.5
281.7088,607.2
281.8495,871.7
281.8842,366.8
281.8886,303.4
281.934,135.8
282.0145,654
282.0254,521
282.0526,119.1
282.0649,305.2
282.1089,445
282.1568,143.7
282.2187,348.9
282.3949,742.6
282.6785,119.4
282.6899,786.8
282.7087,350.4
282.7777,135.3
282.8242,2083.1
283.1447,520.6
283.3392,138.5
283.3502,143.8
283.4913,349.7
283.6435,555.1
283.7374,483.4
283.8442,147.3
283.9293,18.1
283.989,50.7
284.004,69.3
284.0247,262.6
284.051,65.2
284.063,52.1
284.0925,328.7
284.1876,268.6
284.2898,506.6
284.32,759.5
284.385,19.3
284.4356,173
284.4784,218.2
284.5552,350.1
284.71,355.5
284.7731,108.9
284.921,202.1
284.9439,117.6
285.0142,19.8
285.0228,516.2
285.1586,363.6
285.2726,329.6
285.3333,331.9
285.4147,578.8
285.4521,19.6
285.5705,149.1
285.7506,18.6
285.9388,264.8
285.9683,788.6
286.0198,4784.3
286.1096,91
286.1816,149.6
286.4676,451.9
286.5122,113.3
286.522,183.2
286.7006,267
286.757,106.7
286.772,1681.1
286.8229,508.3
286.8548,377.9
286.952,4862.9
286.9908,122.8
287.0232,367.2
287.0554,25962.8
287.2002,330.9
287.281,375.5
287.3121,186.1
287.4062,162.1
287.4648,20.6
287.533,114.5
287.8649,558.4
287.8795,125.4
287.9076,105.3
287.9495,97.9
288.0108,18
288.0192,575
288.0369,823.6
288.0601,738.3
288.0845,56.7
288.0928,123.3
288.1132,186
288.1286,181.6
288.1556,13971.6
288.1916,23
288.2709,139.3
288.2784,19.1
288.3085,175.1
288.478,124.1
288.5537,504.2
288.6173,313.4
288.6817,465.7
288.7556,723.3
288.7687,2958.2
288.8044,142.3
288.8127,189.9
288.8293,323.5
288.8349,201.1
288.8421,629.4
288.8453,615.9
288.8598,1109.9
288.8668,3004.1
288.8854,5191.3
288.895,6433.9
288.9029,12955.2
288.9077,15114.4
288.9141,15610.3
288.9175,16449.5
288.9223,16459.9
288.9276,19717.3
288.9323,19468.7
288.9338,19690.4
288.942,21390.3
288.952,15699
288.9553,16421.7
288.9587,15544.2
288.963,12958.9
288.9672,11514
288.9753,8756.9
288.98,7209.9
288.9854,7034.8
288.9925,3987.5
288.996,3220.5
289.0093,738.2
289.0194,406.8
289.0489,24.6
289.0896,529.4
289.2004,582.3
289.2259,169.8
289.4509,444.5
289.5289,24
289.6018,214.8
289.7248,154.4
289.7521,535.7
289.7573,97.3
289.7629,18.7
289.815,115.8
289.9029,570.8
289.9366,1570.1
289.9742,21.4
290.0424,279.8
290.0505,543.3
290.0723,236.4
290.0899,158.2
290.1417,216.2
290.1513,139.7
290.2358,308.1
290.2545,377.4
290.3477,147.8
290.3714,186.9
290.4587,466.5
290.4664,193.8
290.5993,348.2
290.6188,17.5
290.7662,997.8
290.7809,524.3
290.7978,41.6
290.8344,124.9
290.8482,144.6
290.8899,58.8
290.9755,18.5
291.0268,2461.7
291.0489,308.3
291.1256,19.3
291.2543,621.5
291.2673,614.8
291.2716,879
291.3615,141.6
291.4249,19.7
291.4636,150.9
291.5747,726.7
291.5819,353.4
291.6157,170.9
291.6299,135.9
291.7694,783.6
291.837,520.1
291.8878,25.6
291.9132,421.9
291.9567,513
292.0798,56.9
292.0983,286.8
292.1029,395.2
292.1137,167.5
292.1714,130
292.2885,351.2
292.4268,417.5
292.4443,19.2
292.5561,700.2
292.6184,148.5
292.7304,424.9
292.8966,710.5
292.9334,136.5
292.9397,854.3
292.9869,169.4
292.9994,20
293.0723,2515.6
293.09,200.7
293.0983,188370.2
293.1261,168.4
293.3364,559.9
293.3385,550.3
293.3403,547.3
293.3826,23.3
293.4492,755.5
293.525,256.6
293.8354,206.5
293.8418,118.6
293.9341,21
293.943,585.4
294.04,114.9
294.1016,16175.5
294.1172,135.9
294.1858,355.4
294.2202,22.1
294.3296,19.6
294.4056,23.7
294.4981,606.7
294.6323,721
294.6694,173.6
294.7057,514.4
294.807,149
294.8678,894.4
294.9397,600.7
294.9908,233.7
294.9959,128.1
295.0171,222.4
295.0305,1332.3
295.0701,671.7
295.1028,341.4
295.183,22.4
295.1948,9992.4
295.2507,615.9
295.2815,241.3
295.8204,21.5
295.8268,174.4
296.0097,766.6
296.0896,184.7
296.1043,732.2
296.2303,116.2
296.6059,136.5
296.8216,346.1
296.9411,730.1
296.9876,65.7
297.0291,409.1
297.1071,26
297.289,568.6
297.4016,239.4
297.407,140.6
297.4218,20.3
297.6601,167.7
297.7951,17.8
297.9576,192.8
297.9703,137.4
298.0251,1432.5
298.0425,13038
298.1236,691.9
298.159,273.5
298.1991,455.3
298.3918,159.4
298.6226,107.8
298.6705,127.8
298.6803,398.5
298.6888,394
298.7398,313.8
298.8699,669.5
298.8779,254.9
298.9067,112.5
298.9865,26.4
299.0231,927.7
299.039,20.2
299.0463,765.5
299.0618,24.4
299.1391,2056.3
299.3869,135.7
299.7368,683.6
299.8632,322.5
299.9563,316.9
300.0354,1192.8
300.0494,24.2
300.0754,290
300.1809,430.2
300.1966,47.4
300.2795,779.4
300.3372,113.5
300.7348,174.7
300.8195,47
300.8803,187.1
300.9575,146.1
301.0124,62.1
301.0387,27821.1
301.0787,28.2
301.1009,143.2
301.1413,398.1
301.2187,186.7
301.2879,450.9
301.2976,335.2
301.4376,124.9
301.5652,209.7
301.598,175.8
301.7295,242.8
301.7514,271.1
301.7605,125.4
301.8758,18.7
301.9414,626.8
301.9563,211.4
301.9731,181.8
301.994,8495.3
302.012,680.9
302.0199,321.1
302.0511,256.2
302.0641,2918.1
302.1448,24.1
302.2489,127.8
302.2768,117.7
302.2906,21.5
302.4174,167.9
302.4406,175.5
302.5376,158.7
302.6958,497.4
302.7476,194.9
302.7536,140.5
302.7604,502.3
302.7655,451.6
302.7843,120.3
302.8072,99.2
302.8297,2226.2
302.9267,779.5
302.9977,525.6
303.0275,157
303.0673,282.3
303.0749,254.7
303.1648,547
303.2171,2051.8
303.3623,593.6
303.9666,422.9
303.986,391
304.031,20.9
304.0441,18.7
304.0596,102.2
304.1455,357.2
304.6974,19
304.7436,453.8
304.8138,57.5
304.8263,1128.6
304.8656,21
304.8763,216.7
304.8932,22.8
304.9989,504.5
305.0604,97.3
305.1511,97.7
305.2383,280.3
305.4453,242
305.505,321.3
305.6855,202.4
305.8718,765.3
305.8997,577.6
305.9555,552.7
305.98,157.9
306.154,229.4
306.2075,137.2
306.2231,423.7
306.32,121.8
306.6028,364
306.7486,599
306.8026,543.7
306.8416,51.5
306.8952,69.3
306.9051,140.3
306.9557,368.8
306.9775,2678.5
307.0146,524.5
307.0729,197
307.1064,207.1
307.1152,716.8
307.3471,134.9
307.353,933.7
307.3592,229.5
307.4652,148.9
307.5621,158.7
307.6565,95.5
307.7479,25.3
307.7738,324.6
307.7921,724.5
307.8023,267
307.8751,363.5
307.9511,18.8
308.0261,173.3
308.076,108.7
308.1102,162.4
308.2484,19.2
308.3618,331.9
308.4242,98.9
308.5191,427.2
308.8081,164.2
308.8793,1627.9
308.9149,517.4
308.9331,163.3
309.006,101.8
309.0378,2248.4
309.0729,131.6
309.0826,1547.6
309.1288,190.9
309.1516,116.4
309.1907,98.5
309.2537,278.3
309.391,202.8
309.4421,22.6
309.6111,126.8
309.6685,547.7
309.6829,279.7
309.8034,731.2
309.9692,99.3
309.9874,574.5
310.0784,490.4
310.2291,528
310.375,154.3
310.4047,20.9
310.5046,361.3
310.5494,177.8
310.6355,918.3
310.8164,715.4
310.8761,1549.2
310.8977,132.4
310.9443,118.5
310.9833,149.3
310.9971,327.6
311.0249,480.8
311.0803,371.4
311.1671,273.3
311.175,122.5
311.1856,89.3
311.2686,174.4
311.3177,131.9
311.6806,117.8
311.8282,137.6
311.999,81.3
312.0195,168.7
312.0299,308.5
312.0417,1794.6
312.1561,162.9
312.2721,645.5
312.3027,20
312.4322,342.7
312.4771,555.7
312.5991,639.8
312.6426,447.2
312.6582,124.4
312.6656,157
312.6721,346.6
312.6888,354
312.732,690.9
312.7922,753.6
312.7985,19.3
312.8604,168.8
312.8707,436.4
312.907,251.9
313.0027,21.4
313.0209,379.3
313.0364,1030.1
313.0864,403.5
313.1958,146.1
313.2741,54452
313.4219,276.3
313.6515,225.8
313.6758,17.3
313.7807,531
313.848,326.6
313.9487,557.3
313.9991,855.8
314.0147,4905.6
314.0809,174.9
314.091,87.5
314.1553,20
314.2774,6116.8
314.6746,400.5
314.708,331
314.7983,136.8
314.8372,5393.2
314.8614,20.5
314.8992,331.3
314.9804,826.1
314.9994,3603.9
315.0182,422.8
315.0259,24.2
315.0407,615
315.0448,151.4
315.0553,11538.4
315.0618,1353
315.0642,3147.5
315.0662,8449.2
315.07,14808.7
315.0736,19212.3
315.0803,7106058.5
315.0899,13512.9
315.092,8284
315.0941,5285.2
315.0965,3989.6
315.0985,3835.7
315.1005,2139.3
315.1027,1967.9
315.1069,880.8
315.1088,657.5
315.113,253.5
315.1202,133.4
315.1235,168.2
315.1426,190.5
315.1613,3932.2
315.2022,552
315.2235,224.4
315.3069,123.9
315.3236,7023.6
315.5073,273.6
315.6254,145.8
315.7883,148.2
315.8241,18.2
315.8721,137.8
315.9443,24.8
316.0107,435.5
316.0413,469.4
316.0532,278.3
316.0596,21.6
316.0696,260.7
316.0775,37706
316.0836,728358.6
316.1148,111.5
316.1275,242.8
316.1832,137.1
316.2363,21.2
316.2944,494.8
316.3806,17.7
316.4327,593.1
316.4423,426.6
316.5175,18.9
316.7973,153.6
316.9643,327.9
316.9734,165.3
316.9868,640.5
317.0651,599
317.0841,81633.6
317.2433,143.6
317.3415,143.4
317.4361,17.6
317.5046,19.6
317.6056,154.3
317.8218,28
317.9302,598.6
317.9691,301.4
318.0877,8033.3
318.1616,167
318.2129,210.5
318.2225,142.7
318.2828,360.8
318.4738,493.1
318.5107,212.9
318.5307,106.7
318.5571,232.9
318.5671,119.2
318.7506,20.2
318.7926,652.9
318.8039,496.9
318.8712,164.9
318.9054,354.4
318.9195,124.3
318.985,483.5
319.1949,25905.5
319.2273,396.6
319.3382,150.2
319.4493,548.6
319.4909,237.3
319.7203,275.4
319.7693,18.6
319.867,141.6
320.0066,112.2
320.0345,379.6
320.0748,60.6
320.1229,553.3
320.1836,19
320.1985,2364.9
320.2587,1921.8
320.4827,251.6
320.4913,354.8
320.5126,321
320.696,295.8
320.7124,166.6
320.8006,423.9
320.8095,20.1
320.8217,169.5
320.9296,233
321.0668,123.2
321.1004,636.3
321.1882,199.5
321.1928,364.1
321.1988,145.4
321.2104,18640.1
321.2622,135.4
321.3197,409
321.7207,154.2
321.8062,325.4
321.8162,80.4
321.8257,268.3
321.8343,320.4
321.9957,20.5
322.0088,66
322.1417,158.8
322.1793,100.4
322.2139,1794.4
322.3086,819.3
322.4351,261.3
322.6044,604.7
322.6235,571.3
322.7617,138.6
322.7737,574
322.7766,564.7
322.7856,335.7
322.8108,598.4
322.9172,478.7
322.9307,377.1
322.9358,291.8
322.9514,279.6
323.0206,13625.2
323.2264,685
323.2437,762.6
323.3417,133.4
323.4074,397.2
323.4378,121.2
323.4462,661.6
323.5815,344.4
323.731,160
323.7959,19.2
323.9208,148.5
323.9431,137.9
324.0019,6277.1
324.0258,436.5
324.0598,141.8
324.2945,144.6
324.4214,175.2
324.5171,270.4
324.5872,18.9
324.6899,3115.3
324.6975,7592.7
324.7116,2027.6
324.7337,237.7
324.8198,22
324.853,1665.2
324.9314,576.2
324.9379,909.6
325.003,675.5
325.0338,249.5
325.1154,922
325.1239,185.4
325.1553,386.4
325.1916,614.6
325.2283,523.3
325.4721,352.3
325.513,179.8
325.5755,20
325.5811,20.2
325.7164,302.9
325.7268,156.9
325.8705,435.5
325.9099,501.4
325.9275,306.6
325.9741,531.3
326.0069,334.5
326.1164,338.9
326.1518,337.1
326.1976,740.5
326.3642,400.2
326.632,262.8
326.7317,144.1
326.7925,18.9
326.8503,1261.4
327.0156,4727.7
327.0404,333.9
327.0521,1417.6
327.0648,396.4
327.2071,169.3
327.2271,2256.1
327.2355,105.6
327.2931,855.8
327.4016,115.2
327.5823,18.5
327.7663,537.1
327.8247,113.7
327.834,421.8
327.891,102.3
327.9265,204.3
328.0148,681.9
328.0309,46.8
328.0922,317.4
328.0981,143.9
328.2498,207
328.3514,139.4
328.4977,146.7
328.5098,125.7
328.5175,1338
328.5371,1583.2
328.6275,96.6
328.716,138.6
328.7733,140
328.783,686.3
328.8513,19.7
328.9309,135.9
328.9661,417.8
329.0959,1391.6
329.3473,117.4
329.3726,327.8
329.4416,317.6
329.5368,375.6
329.5408,261.4
330.0589,61.1
330.2972,207.7
330.411,616.7
330.5433,118.9
330.5491,664.6
330.845,348.7
330.8754,317.6
330.9718,141.5
331.0192,3359.1
331.0454,61496.7
331.0542,870468.3
331.1587,162.7
331.2434,206.3
331.7846,1439.7
332.0247,47.5
332.048,2317.5
332.0575,79272.8
332.2065,124.8
332.3343,454
332.5584,237.8
332.5818,19.8
332.6041,141.9
332.6194,537.7
332.7406,347.3
332.7649,135.4
332.8082,29.7
332.8191,25.5
332.898,636.1
332.9551,21.2
332.9607,666
333.0008,189.3
333.0523,52631.8
333.058,6870.1
333.1514,21.4
333.2464,452.6
333.2585,137.6
333.3918,147.2
333.4855,302.2
333.5406,385.9
333.564,772.7
333.6535,750.3
333.6617,810.2
333.7702,315.6
333.8172,22.8
334.0558,3016.8
334.2296,529.1
334.3801,133.1
334.6389,523.4
334.8298,17.1
334.8367,29.5
335.0032,446.2
335.0137,367.5
335.02,364
335.142,691.9
335.1672,2321.5
335.3101,237.4
335.5266,575.9
335.7383,300.3
335.9332,121.5
335.9368,131.7
335.9917,216.7
336.0078,422
336.0616,113.3
336.1473,482.3
336.1701,685.5
336.1956,459.1
336.2712,102.3
336.5311,174.5
336.6673,375.8
336.7002,454.8
336.8017,18.6
336.8759,20.6
336.8939,812.3
337.028,456.8
337.0364,14415.5
337.0498,16663.6
337.0622,527717.7
337.1148,170.7
337.1545,124.8
337.1826,1466.4
337.2742,9880.7
337.4293,864
337.601,627.5
337.7677,157.2
337.9247,481.9
337.9276,489.7
337.961,697.3
337.983,151
338.0519,164.2
338.0656,48733.3
338.1525,389.6
338.1881,137.1
338.3417,28.6
338.4531,385.4
338.5811,585.3
338.6046,188.9
338.7816,133.7
338.9211,1143.3
338.9957,398.6
339.0382,1195.9
339.0469,693.4
339.0661,3111
339.0858,783.4
339.0978,126.8
339.1695,142.1
339.1987,169.8
339.2898,11405.6
339.5082,560
339.606,344
339.6133,21.7
339.9277,359.6
339.9368,17.4
339.9674,331.2
339.9758,761.1
340.1646,192.3
340.1881,683.4
340.2331,301
340.2936,1522.4
340.3908,536.2
340.5855,158
340.6311,347
340.6747,21
340.7822,947.1
340.8217,188.5
340.9788,530.1
340.9979,243.7
341.0183,226
341.1924,401.3
341.3051,6232.9
341.3307,557.7
341.4238,131.6
341.6969,522.8
341.7738,560.3
341.84,149.6
341.8491,552.6
341.9888,313.6
342.0153,6714.5
342.0233,618
342.1491,293.7
342.3067,551.3
342.344,310.8
342.498,115.3
342.6517,734
342.7018,514.6
342.8875,132.9
342.9302,24.2
342.9893,2117.7
343.0158,146.9
343.1467,197.2
343.1947,12800.4
343.2339,184.8
343.3457,419.3
343.3657,255.9
343.495,526.2
343.5383,91.8
343.6235,511.9
343.6923,404.9
343.7277,159.9
343.7975,747.4
343.8212,162
343.9016,21.3
343.9884,1090.7
344.0209,506.6
344.0491,175
344.0829,185.5
344.1426,18.8
344.1534,377.5
344.1863,230
344.1983,791.9
344.2849,90.5
344.3389,165.1
344.3541,121.5
344.4818,122.1
344.5442,117.7
344.5808,21.3
344.7031,556
344.8112,20.1
345.0289,334.4
345.2101,1729.6
345.3854,157
345.4064,144.9
345.5535,570.1
345.6231,110.2
345.6717,350
345.9839,48039.1
346.0097,43.3
346.0249,910.8
346.0411,93.4
346.1403,527.1
346.1499,574.6
346.2234,632.9
346.3944,121.6
346.5972,151.1
346.643,145.1
346.691,128.6
346.7376,418.4
346.9879,1282.1
347.0179,724.3
347.07,276
347.1264,125.4
347.1411,118.7
347.2582,408.9
347.3436,19.4
347.4169,142.5
347.629,310.5
347.7743,586.6
347.8355,163.9
347.947,534.9
347.9831,363.8
348.067,131.2
348.3003,142.7
348.3451,18.8
348.576,101.8
348.6156,677.2
348.7759,521.6
348.9085,137.8
349.0179,464.6
349.192,209.8
349.2027,143.2
349.2922,20.9
349.3018,416.9
349.3408,202.3
349.5541,227.1
349.5964,598.9
349.7261,173.1
349.8864,145.8
349.955,421
350.1477,255.3
350.2246,370.2
350.2453,269
350.5309,165.8
350.6667,384.6
350.7432,409.3
351.0074,177
351.0715,306.5
351.1363,294.9
351.1741,19.8
351.27,143.9
351.2821,162.4
351.3221,107.1
351.4576,240.6
351.6336,795
351.6792,138.2
351.6938,167.5
351.8137,370.2
351.8291,19.9
352.8278,151.5
352.8339,318.5
352.8963,614.6
352.9744,268.8
353.0273,113178.6
353.0362,218873.4
353.0637,226.7
353.2583,201.6
353.2725,95.4
353.4063,119.8
353.4155,17.7
353.5286,542.5
353.861,360.6
354.0304,7015.7
354.0396,20130.4
354.0684,201.7
354.5475,132.5
354.5699,100.9
354.5941,121.5
354.6289,216.7
354.6885,245.3
354.7655,532.5
354.7721,393
354.8888,152.4
354.8951,731.3
354.9752,206.4
355.0118,626.9
355.0343,11651.1
355.0489,187.8
355.0704,950.3
355.0928,23.8
355.1326,88.5
355.1591,498
355.6932,218.7
355.7442,352.8
355.9041,173.6
356.0148,47.5
356.0227,274.8
356.0357,150.6
356.0429,717.6
356.0697,285.4
356.1942,20.9
356.3508,141.6
356.4176,547.7
356.488,329.4
356.6411,757.1
356.694,150.8
356.7955,18.4
356.8511,470.1
356.8935,250.5
356.9851,18.9
357.0087,343.6
357.0202,165
357.0263,252.9
357.0321,239.8
357.0671,117.7
357.1297,292.3
357.1546,338.1
357.3304,144.9
357.3769,298.5
357.3965,483.1
357.49,156.6
357.5967,925.7
357.6854,129.2
357.7131,770.5
357.7252,1210.2
357.7382,679.7
357.7529,278.5
357.8665,203
357.8856,320.6
357.9499,257.2
357.9773,335
358.11,773.2
358.1164,123.9
358.1321,389.2
358.1454,756.9
358.3597,704.7
358.3794,683.6
358.534,541.4
358.733,535.1
358.784,316.3
358.8012,20.6
358.872,382.2
358.882,441.5
358.8995,602
358.9316,21.9
358.9624,546.1
359.0076,233.4
359.0317,14351.7
359.0442,412848.9
359.0581,172.8
359.0687,430.9
359.1671,1087.6
359.1804,832.8
359.2473,772.4
359.2794,449.8
359.2885,508.2
359.3024,167.3
359.3615,585.3
359.373,656.1
359.3904,550.9
359.3996,592.4
359.415,137.6
359.4272,368.6
359.4374,139.3
359.4712,612.2
359.4777,793.7
359.5162,319.6
359.5932,495.8
359.8323,24.1
360.0475,36851.7
360.1004,169.6
360.2963,251.4
360.321,458.3
360.413,161.7
360.5094,515.4
360.5208,196.5
360.5726,25.3
360.6438,116.2
360.7183,530.4
360.7764,265.3
360.78,258.9
360.8413,516
360.9229,252.6
361.0204,4352.4
361.0285,292.5
361.0476,1155.3
361.183,251.4
361.2653,172.3
361.311,138.8
361.3267,177.7
361.6982,136.4
361.7791,585.3
361.8309,212.9
361.8963,164.7
361.9578,13694.3
361.9678,159.5
362.1086,131.1
362.1717,659.3
362.2462,141.8
362.2994,206.2
362.651,123.1
362.8393,1466.3
362.9161,117.7
362.9255,611.6
363.0849,123.5
363.7638,139.3
363.9563,147
363.9974,3559.7
364.1898,576.7
364.2788,154.4
364.3305,336
364.4243,326.8
364.6615,144.6
364.7907,207.6
364.8381,130
364.9205,254.1
364.9966,731.8
365.0895,778.2
365.1061,598.1
365.237,18.8
365.305,776.4
365.5278,568.2
365.6011,224.7
365.7024,21
365.807,358.2
365.9864,75.5
366.1351,523.3
366.4506,100.4
366.4756,563
366.662,87.3
366.7256,127
366.8142,20.2
366.8735,1002.7
366.9351,142.2
366.9514,111.9
366.9889,24.4
367.0995,19.7
367.1225,845.6
367.1946,1359.9
367.4198,179.3
367.4435,133.1
367.6472,559.8
367.6579,340.7
367.7887,223.8
367.9342,134
367.9766,115.1
367.9916,1214
368.0033,588.9
368.3403,212.5
368.6776,372.3
368.7163,419.1
368.7866,21.7
368.8706,429.7
368.9587,25.1
368.9924,538.8
369.0011,11688.9
369.0102,7104
369.1506,266.1
369.3523,53.6
369.4512,231.3
369.7676,285.7
370.0042,92.6
370.0147,724
370.0742,151.9
370.1104,247.9
370.1251,743.2
370.2271,487.8
370.2862,315.1
370.4167,379.8
370.4397,663.9
370.5565,19.8
370.8378,180
371,1769.3
371.042,670.5
371.1012,45
371.1983,148
371.2148,767.9
371.2652,579.3
371.3195,159.2
371.3935,109.7
371.4899,224.3
371.9818,388
372.3809,119.7
372.4063,105.2
372.4143,188.8
372.424,286.6
372.439,132.5
372.6073,680.6
372.8816,254.9
373.1432,192.7
373.256,113.1
373.6058,120.1
373.793,548
373.849,20
373.953,18.4
373.9986,648.8
374.0576,116.6
374.1864,106.7
374.2065,317.1
374.2519,150.8
374.4694,19.2
374.7487,103
374.8583,19.5
374.8736,20.5
375.0092,136010
375.0181,115341.2
375.0281,533.6
375.1874,136.2
375.2504,680.2
375.4991,18
375.6533,395.1
375.6724,20.2
375.734,580.1
375.7617,481.9
375.887,358.9
375.9633,299.6
375.979,168.1
376.0126,8252.2
376.0214,9465.8
376.1867,695.5
376.2896,2599.7
376.3542,347.5
376.3939,139.6
376.4007,822.8
376.5066,619.4
376.695,21
376.7222,153
376.7964,183.8
376.8547,20.2
376.9941,1323.1
377.0044,137.4
377.0166,5104.5
377.2351,632.9
377.3314,324
377.535,318.4
377.8571,249.3
377.8708,189.6
377.9315,865.9
378.0027,357.6
378.1495,370.4
378.2102,1044.8
378.3156,182.9
378.3353,528.2
378.4506,122.9
378.7808,87
378.9016,832
379.0828,24
379.1132,831.3
379.3355,374.6
379.5553,135.8
379.5774,298.8
380.5463,352.6
380.7703,678.1
380.8847,135.8
380.91,177.5
380.9296,114.5
380.9394,395.5
380.9515,281.1
381.0135,33053.5
381.0262,265892.2
381.0613,361.1
381.0804,714.1
381.4781,548
381.4928,513.3
381.676,105.9
381.7987,222.6
382.0294,22247.8
382.2212,209.8
382.3334,362.6
382.3835,324.9
382.3974,296
382.5463,351.9
382.6822,350.5
382.7564,667
382.7676,1330
382.8376,20.1
382.854,21.2
382.8878,368.5
382.9277,137.7
382.9547,836
382.9773,116.2
383.0102,153.1
383.03,671.7
383.1165,161233.3
383.3446,582.7
383.5368,679.1
383.9104,21.5
383.9662,648.6
384.0347,19.2
384.0734,429.2
384.1197,16471.7
384.5649,267.6
384.6354,187.6
384.7336,20.8
384.9575,18.2
384.9733,170.7
385.0366,688
385.3413,286.5
385.7275,260.7
385.7953,531.6
385.9443,24.8
385.9792,17060.1
386.0902,207.3
386.1567,383
386.29,300
386.4295,120
386.4482,126.7
386.9782,282.5
387.0038,720.3
387.0714,868.2
387.1091,320
387.1737,197.3
387.3425,139.3
387.3858,159.5
387.4961,163.5
387.5097,109.2
387.5914,17.1
387.6032,137.7
387.7857,333.6
387.9781,1700.5
388.2362,156.7
388.4777,141
388.5422,544.7
388.7858,522.1
389.4793,22
389.6779,127.7
389.9737,46044.8
390.127,146.9
390.2632,497.2
390.4762,139.8
390.5164,790.1
390.7989,468.9
390.8068,137.1
390.8586,424.4
390.9128,377.5
390.9501,249.9
390.9743,10609.1
390.9829,22024.3
390.992,14752.2
391.0589,123.8
391.143,485.2
391.2357,126.7
391.3155,102.6
391.4861,121.6
391.9775,105.8
391.986,154.8
392.0046,22.1
392.1203,316.3
392.1971,22.2
392.5222,555.7
392.7963,2642.5
392.8399,654
392.9452,123.4
392.969,143.3
392.9819,2401.8
392.9937,192.6
393.0069,146.4
393.2456,18.7
393.2541,121.6
393.2798,356.3
393.2998,20.8
393.3294,453.3
393.5818,358.7
393.6146,630.6
393.6335,20.2
393.8396,216.4
394.0126,18.7
394.2489,257.3
394.4828,585.4
394.7933,477
394.9486,175.8
394.9742,193
394.9775,223.3
395.0027,1765.2
395.1033,128.6
395.1726,261.9
395.3481,319.5
395.527,254.4
395.8111,123.8
395.922,134.2
395.9813,723.5
396.0642,170.9
396.4499,243.4
396.465,121.2
396.6464,415.3
396.7441,392.8
396.7759,140.9
396.7973,18.6
396.8439,246.5
396.8678,120.1
396.9912,185720.3
397,81245
397.0172,866.4
397.0454,134.6
397.2205,955.8
397.2348,267.3
397.2902,22.7
397.5343,18.8
397.5606,245.3
397.6236,179.4
397.9333,120.8
397.9668,82.4
397.9944,15752
398.0034,5575.5
398.0232,22.1
398.2039,599.3
398.2416,3646.5
398.2517,138.9
398.6356,159.7
398.7411,1024.4
398.8036,17.5
398.908,174.5
398.9982,1337.4
399.1298,144.1
399.1785,232.2
399.1944,822.1
399.2416,100.8
399.2554,615.6
399.2853,121.7
399.4577,219.8
399.8294,98.1
400.0199,190.9
400.089,467.6
400.2193,1047.8
400.2632,112.6
400.4829,144.5
400.5987,338.1
400.6748,207.4
400.7389,1506.7
400.7685,409.2
400.8282,1016.3
400.881,106
400.9703,20.9
400.983,720
401.0461,96.5
401.1371,108.6
401.1491,297.1
401.5243,347
401.575,140.2
401.6011,144.5
401.854,19.6
401.8911,547.6
401.9269,209.5
401.9431,187.6
401.9531,2895.3
402.0926,387.6
402.1144,755.1
402.3458,279.4
402.457,182.3
402.6308,513.5
402.6881,112.1
402.7423,433.6
402.7688,126
402.8005,166.6
402.8253,835.4
402.8941,500.4
402.987,1055.4
402.9961,261.9
403.0081,309678.3
403.124,133.1
403.3696,394.1
403.5221,153.7
403.6026,467.4
403.7226,284.4
403.8949,600.8
403.9425,1825.8
403.9526,586.1
404.0113,27909.2
404.1252,167
404.3094,392.9
404.3267,450.2
404.4049,294.8
404.42,140.4
404.4433,18.5
404.4637,590.4
404.8731,160.1
404.9197,215.6
404.9378,311.1
404.9841,264.4
404.9998,141.5
405.0122,470.3
405.0214,295.7
405.1046,741.2
405.1674,700.4
405.3422,162.4
405.5292,25.7
405.6102,188.7
405.7662,321.5
405.9476,27827
405.9725,109.6
406.3296,892.2
406.3601,502.3
406.3981,213.6
406.5489,601.5
406.5812,160.6
406.6376,114.7
406.7727,983.4
406.9528,942.6
407.0546,105.7
407.0826,707.6
407.1278,859.6
407.174,513.2
407.3324,124.2
407.3898,137.7
407.4357,20.2
407.4684,162.5
407.7147,136.6
407.7969,127.8
407.8487,268.3
407.9214,251.1
407.9456,434.7
407.9541,101.1
407.968,228
407.9865,687.9
408.0455,142.2
408.2219,448.8
408.2963,370.1
408.7701,2419.7
408.9838,780.7
409.2403,140
409.3103,414
409.3862,218.1
409.4522,295
409.8332,288.1
410.1689,19.5
410.201,315.5
410.45,331.9
410.479,447.7
410.866,523.5
410.9578,28
410.9663,784
411.3972,19
411.506,172.3
411.5156,881.3
411.7407,130.7
411.9706,356.2
412.2668,665.9
412.3213,3541.9
412.7172,561
412.8362,491.7
412.8742,19.2
412.8945,503.7
412.901,309.4
412.9228,392.6
412.9646,47168.8
412.9739,12378.5
413.0596,167.2
413.1787,444.3
413.2667,3719.4
413.2847,115.4
413.3247,269.6
413.4128,301.2
413.4282,147.3
413.4972,148.6
413.5086,19.8
413.5675,180.8
413.7879,433
413.9394,211.2
413.9682,1220.6
414.1268,697
414.1488,162.3
414.1701,481.2
414.2698,493.1
414.3637,663
414.5136,136
414.577,511.2
414.5932,18.6
414.649,402.8
414.7039,200.6
414.7162,380.3
414.8102,16.5
414.8119,16.4
414.9325,142.3
414.9634,1542.5
414.9979,668.5
415.0369,101.5
415.1532,819.2
415.2227,2029.7
415.2463,746.5
415.6588,256.6
415.7364,757.6
415.9516,272.4
415.9932,103.7
416.0339,111.2
416.042,825.4
416.0509,163.7
416.1353,11034.6
416.2143,46561.6
416.6716,20
416.711,22.3
416.8017,682.9
416.9595,138.8
416.9664,19.6
416.9753,278.5
417.0156,482.6
417.0335,21.2
417.1221,387.9
417.1346,341.3
417.1782,160.8
417.1986,613.2
417.2176,4425.4
417.2884,19.6
417.3376,377
417.469,21.8
417.5648,861.7
417.7013,94.1
417.903,282.2
417.9272,322.3
418.0309,18.6
418.0574,367.1
418.1402,358.2
418.2695,163.9
418.2937,135.8
418.495,323.5
418.5268,154.6
418.6844,320.9
418.8354,103
418.8926,346.3
418.947,23.6
418.982,112551
419.2562,172.8
419.2997,182.5
419.581,596.6
419.688,389.2
419.8946,21.1
419.9167,670.3
419.9758,343.9
419.9855,6697.2
419.9998,113.1
420.2454,825.9
420.6365,753.6
420.8687,18.7
420.9587,501.2
420.98,2533.9
421.0435,258.6
421.0946,320.8
421.3087,591.2
421.3534,356.5
421.5782,250.9
421.7884,241.9
421.8322,31.6
421.9125,140
421.9215,9306.6
422.0882,19.3
422.4218,142.1
422.4566,169.1
422.5247,413.9
422.534,405.8
422.6764,18.5
422.8323,20.9
423.1141,389.6
423.1248,182.1
423.1458,96.9
423.2895,354
423.3414,475.2
423.6025,21
424.0097,507.9
424.091,256.2
424.1935,591.2
424.2214,537.2
424.3569,147.6
424.5264,153.3
424.5875,21.1
424.7768,24.6
425.0288,47.7
425.1169,573.6
425.1505,17.7
425.2326,183.4
425.2694,418.1
425.3085,581
425.4824,606.7
425.5943,298.7
425.9391,491.2
425.9497,486.9
426.0253,140.3
426.0342,294.4
426.1805,621.6
426.2629,687.7
426.3947,532.1
426.7473,17.3
426.7634,489.5
426.8266,720
426.8638,388
426.9409,137.8
427.117,18
427.1615,250.7
427.2016,346.3
427.4303,717.2
427.4372,420.1
427.5853,541.8
427.7637,341
427.8273,19.4
427.9613,177.5
427.9962,519.4
428.3722,600.9
428.4597,343.7
428.681,211.9
428.6925,173
428.8532,155.1
428.8672,132.8
428.9378,10569.1
429.0895,880.1
429.106,599.6
429.1358,765.3
429.2184,338.1
429.2403,23.4
429.3207,150.5
429.3701,527.5
429.564,127.4
429.595,104.3
429.9607,580
430.0384,127
430.0882,29.7
430.4634,204.7
430.5656,20.8
430.7414,382
430.767,631.9
430.9144,1559.4
430.9239,171.1
431.0858,48.8
431.1354,637.8
431.1627,192.9
431.2171,6238.6
431.3349,524.9
431.3877,142.4
431.523,605.6
431.6645,189.8
431.8272,148.2
431.9495,78.1
432.0662,361.5
432.2189,200.7
432.5715,387
432.6332,129.7
432.7834,386
432.9177,121.7
433.061,1048.2
433.1044,804.9
433.1158,364.3
433.2499,44.2
433.2593,123.4
433.2986,96.9
433.4038,459.4
433.6734,143.6
433.6947,244.6
433.7142,114.5
433.7756,127.6
433.8449,575.8
433.9042,522.7
434.0267,885.2
434.1597,719.3
434.2148,326.1
434.2571,317.7
434.4551,19.1
434.4792,348
434.4876,301.7
434.5435,203.2
434.5975,146.3
434.6218,181.6
434.8223,131.5
434.956,17678.8
435.195,362.4
435.6096,350.1
435.6935,273.4
435.7121,131.1
435.7303,239.4
435.7632,136.9
435.8221,231.2
435.8683,198.5
435.9213,364.7
436.2671,614.9
436.3146,284.5
436.8836,637.1
436.9233,127.7
437.1086,579.6
437.8433,401.6
438.034,19.6
438.1969,1203.3
438.3757,163.7
438.5798,294.6
438.8017,152.9
438.9724,3414.4
438.9849,5567.1
439.073,657.7
439.0829,152.2
439.1335,472.3
439.4725,117.9
439.7527,138.2
439.8343,374.9
439.9308,260.2
439.9732,203.5
440.0384,320.8
440.1131,20.1
440.2807,138
440.444,249.6
440.4643,114.3
440.6284,245.3
440.6862,326.9
440.8945,101.4
440.9563,26
440.9706,286.1
440.9821,644.9
441.2212,589
441.238,342.5
441.298,199.3
441.3757,257.6
441.4063,755
441.7029,121.2
441.724,117.9
442.0609,24.2
442.178,108.8
442.1885,137.9
442.2447,158.1
442.3008,611.3
442.714,327.7
442.7213,394.2
442.7707,150.7
442.9843,360.6
443.0141,171.8
443.5122,127.2
443.6055,307.4
443.9252,1044.1
443.9725,76.5
444.0961,17.8
444.4007,19.4
444.4969,138.8
444.6546,278.5
444.6938,168.2
444.8979,19.1
444.9142,123.9
445.0308,585.2
445.2336,2323.2
445.2693,909.1
445.3885,188.6
445.517,22.5
445.7134,16.9
445.8186,149.9
445.8557,105.2
446.3431,24.9
446.3673,156.5
446.4627,599.6
446.4771,502.7
446.6036,384.1
446.6853,132.7
446.7657,316.1
447.0274,264.3
447.1538,182
447.1779,153.9
447.4907,123.4
447.5028,19.3
447.5461,254.6
447.861,206.3
447.9325,5991.8
447.9808,125.1
448.1104,23.9
448.2166,237.7
448.3168,324.8
448.4313,333.8
448.4838,315.4
448.6675,376.4
448.6833,117
448.7261,275.4
448.7561,428.8
448.8952,373.3
448.9333,2497.7
449.086,244
449.1226,24.6
449.1543,2890.9
449.3035,187.1
449.4517,384
449.7209,197.6
449.8052,142.3
449.8865,361.2
449.9292,418.9
449.9619,144
450.1578,563.3
450.2187,154.4
450.304,128.4
450.7123,329.4
450.7543,531.2
450.9294,164.4
451.0238,215.8
451.1502,215.1
451.1608,24.2
451.2479,481.9
451.2586,743.6
451.3044,20.7
451.4283,152.3
451.5685,138.4
451.5789,233.4
451.6412,146.2
451.8664,20.8
452.1319,142.6
452.154,25.1
452.1648,22.8
452.214,23.2
452.5734,309.5
452.6089,229.1
452.6445,136.4
452.8249,92.8
452.893,21.3
452.9276,380.2
453.0789,119.1
453.3087,294.6
453.3788,115.4
453.3953,19.7
453.861,171.5
453.9937,309.9
454.0582,482.6
454.7026,425.1
454.9499,40151.5
454.9792,373.7
455.0307,541.3
455.0645,139.4
455.2621,421.7
455.4379,510.6
455.6142,356.6
455.7064,130.5
455.756,205.3
455.78,121.2
455.9534,1556.8
456.0544,463.7
456.4401,541.1
456.4624,164.5
456.5235,236.5
456.553,343
456.6996,632
456.9063,431.9
456.9473,11378.4
456.9575,554.1
457.0721,603.4
457.233,20199
457.3308,96.3
457.5019,136
457.6037,126.9
457.7231,208.7
457.8824,147.8
457.9664,26.6
458.0389,533.4
458.0578,260.5
458.3169,153.3
458.3781,240.6
458.4234,136.9
458.5463,186.5
458.6636,514.1
458.697,1286.8
458.854,123.5
458.9617,2046.3
459.2165,371.3
459.2486,509537
459.3848,131.8
459.7617,141.9
459.9362,131.8
459.9458,27.6
460.1703,819.1
460.2249,17.4
460.2519,111617.7
460.4539,225.2
460.6084,120.7
460.7268,367.7
460.8725,586.4
460.9325,21.5
460.9668,91159
461.2543,7123.3
461.2898,20.1
461.4707,24.2
461.6289,101.3
461.793,22.5
461.915,281.9
461.9699,5486.3
462.1737,107.1
462.2023,328.2
462.3638,17.9
462.3853,358
462.7871,21
462.9638,24190.3
463.0502,730.1
463.3753,309.4
463.4234,689.6
463.6306,105.6
463.8621,155.7
463.8911,884.7
463.9061,2235.4
464.1823,506.6
464.2531,429.1
464.2803,484.5
464.5579,126.1
464.607,179.2
464.7432,689.9
464.8012,141.7
464.819,346.1
464.8419,100.5
464.9786,9147.5
465.1581,463.4
465.1907,21.2
465.539,121.4
465.5845,167.7
465.7998,348.5
465.9036,164.7
465.9606,165.4
465.9831,970.5
466.3084,211.2
466.6732,159
466.6853,369.8
466.7755,146.9
466.9447,777.5
467.1896,146.6
467.3041,21.2
467.7111,126.3
467.9077,496.5
468.0274,318.4
468.0725,326.4
468.2877,316.2
468.3091,3044.8
468.4092,122.6
468.4967,196.4
469.085,563.8
469.1639,546.9
469.1857,387.7
469.2453,770.8
469.2778,111.8
469.3283,24.4
469.631,144.6
469.8369,639.6
469.8849,554
470.0936,20.4
470.1212,283.9
470.3424,663.4
470.4231,191.6
470.6398,520.4
470.81,700.3
470.9237,19170.3
470.9375,295.8
470.9951,2700.4
471.0038,622.1
471.0761,199.7
471.1097,390.2
471.2848,1405.3
471.3664,144.1
471.5496,21
471.6565,17.4
471.7048,259
471.7189,323.7
471.7801,124.3
471.8524,241.1
472.028,189.2
472.3032,774
472.4495,130.1
472.5308,542.4
472.554,108.5
472.5959,19.6
472.6113,284.7
472.6402,560.7
472.9209,3252.9
472.9461,21
473.0593,250.7
473.0705,228.3
473.0887,938.8
473.0935,885.9
473.1108,129.2
473.1241,600.6
473.2641,4617.4
473.4719,221.7
473.8843,105.1
474.0855,143.8
474.2253,281.4
474.2678,1368.9
474.4445,137.2
474.6709,397.7
474.8328,611.5
474.8543,290.9
474.9406,581.4
475.0652,565.5
475.2004,132.1
475.2226,29088.1
475.2441,379
475.2903,621
475.4144,163.2
475.5406,21.2
475.7176,596
475.7704,156.4
475.953,598.6
476.0891,27.4
476.226,4493.7
476.4119,134.1
476.6003,476.5
476.6953,578.8
476.8405,279.5
476.8843,357.4
476.9406,51578.1
477.0758,590.4
477.2905,556.4
477.6301,557.3
477.8434,20
477.9438,2876.9
478.0431,184
478.1721,406.2
478.2934,712.3
478.3295,46026.8
478.4547,130.2
478.6301,717.9
478.9378,19114.5
479.0292,213.6
479.0961,78.7
479.295,178.1
479.3327,8087.2
479.3789,158.5
479.4166,88.1
479.7575,573.1
479.815,107.8
480.0089,103
480.3136,744
480.345,1369.7
480.6892,283.7
480.8097,177.4
480.9524,3232.3
481.0915,1956.9
481.2331,2544.5
481.6059,569.1
481.7574,19.5
481.9689,141.6
482.0368,132.5
482.0952,340.2
482.1317,192.8
482.3007,209.5
482.324,799.7
482.362,224.8
482.4197,124.6
483.0056,24.1
483.1017,382
483.2485,169026.2
483.5458,619.7
483.6237,232
483.7303,128.1
483.9613,172.2
483.9677,92.5
484.0396,108.5
484.0803,322.7
484.1679,22.1
484.2518,33966.4
484.4968,356.6
484.8478,279.8
485.0387,683.9
485.087,26.3
485.1215,328.8
485.2641,181786.9
485.3152,127.5
485.378,218.8
485.4043,515.7
485.5939,549.4
486.1427,326.7
486.2674,38192.9
486.3771,18
486.5206,173.6
486.5836,255.9
486.8528,22
486.8975,1098
486.9238,712.4
486.9704,538.5
487.2797,115491.9
487.5381,176.2
487.7511,556.7
487.8242,615.5
488.1555,117.2
488.2105,523
488.2832,27126
488.3404,236.1
488.5951,241.8
488.6573,363.7
488.7269,538.3
488.8573,559.1
488.8963,126.3
488.9067,20.8
489.1165,128.2
489.1497,630.5
489.1717,561.3
489.197,201.1
489.2281,161.9
489.2733,311.8
489.2879,1317.5
489.5575,774.8
489.644,709.9
489.8298,602.8
489.8533,269.1
489.8693,496.8
489.8818,783
489.9554,336.1
490.0046,190.4
490.1961,692.9
490.2907,9578.9
490.4761,302.6
490.6744,147.8
490.7018,801.1
490.7282,332.1
490.9229,706
491.2957,1351.7
491.3696,1345
491.6145,172.9
491.7147,545.1
491.7803,316.4
491.8041,365
491.8446,18.3
491.9213,193.5
492.1718,149
492.487,629.8
492.9145,8316.9
493.049,608
493.2897,165.6
493.3783,21.3
493.4274,164.1
493.5611,389.9
493.5893,151.1
493.7122,690.9
493.7604,119.1
493.9128,18.7
493.9591,380.8
494.2011,112.7
494.2337,195.7
494.3245,17525.2
494.5351,302
494.7871,138.5
494.9124,2492
494.9423,153.1
494.9659,650.3
495.1384,17.5
495.2848,25.5
495.4731,143.6
495.9382,25.2
495.9485,139.4
496.2318,606.3
496.239,474.5
496.3401,635450.8
496.3819,304.8
496.4471,544.7
496.5136,20.7
496.5307,19.1
496.6314,207.8
496.664,175
496.7304,348.4
496.8052,492.3
496.8114,701.5
496.9305,2255.3
496.9492,210.5
496.9875,394.1
497.0447,103.6
497.2919,499
497.3433,154359.2
497.5282,391.4
497.8349,223.3
498.1429,148.6
498.2193,659.1
498.3469,14085.2
498.5124,490.6
498.5865,224.1
498.7303,98.1
498.9282,757.7
498.9587,19.6
498.9706,112.4
498.9866,229.7
499.2224,7151.7
499.239,122
499.2904,914.1
499.3917,203
499.4116,391.7
499.7101,24.6
499.7423,464.2
499.749,305.1
500.3108,996.5
500.3423,160.7
500.5513,135.4
500.9479,522.7
500.9852,429.1
501.0973,274
501.1246,17.9
501.1907,473.2
501.2115,156.7
501.238,11283.7
501.4936,330.5
501.5561,392.8
501.5893,146.4
501.7878,17.6
502.0211,234.9
502.0627,265
502.2412,424.8
502.3291,21668.4
502.4152,761.7
502.6784,512.5
502.8507,562
502.9577,425.8
503.1077,276.6
503.1671,18.3
503.2539,5526.8
503.3328,348.9
503.3629,547.9
503.421,179.1
503.4306,237.7
503.6232,96.9
503.8923,94.6
504.0439,331.5
504.3063,8297.6
504.3321,330.5
504.3448,13653.3
504.5637,188.5
504.9335,414.6
504.9706,382.8
505.0333,458.4
505.0798,238.8
505.1053,21.3
505.1369,214.1
505.2024,22.2
505.233,2571
505.3092,635.1
505.3326,711.9
505.3482,3220
505.3664,20.5
505.4343,20.2
505.5723,110
505.6265,261.6
505.6773,131.9
505.85,351.3
505.8756,664.2
505.8912,914.4
506.2649,2792.3
506.3609,6619.8
506.4593,135
506.5989,1007.9
506.6265,398.1
506.8922,1004.6
507.2483,48288.8
507.3462,19.2
507.3637,1243.8
507.5927,134.9
508.1088,177
508.2239,102.1
508.2517,9175
508.3145,554.2
508.3765,1804.9
508.4425,260.7
508.7117,1068.2
508.8428,305.9
508.8884,1762.9
509.0047,2272.4
509.0378,153.2
509.264,10558.6
509.4838,408.1
509.8537,119.3
509.9228,604
509.933,104.3
510.2045,591.4
510.2658,577.4
510.356,8009.9
510.4653,18.9
510.9431,144.1
511.9685,622
512.1281,1066.6
512.2846,820.4
512.376,723.8
512.9083,17944.7
513.2542,209.2
513.555,146.7
513.5726,697.1
513.6735,23.2
513.9201,177.3
513.9599,126.4
514.2103,18.2
514.2632,320.4
514.2871,671.6
514.3491,109.5
514.4305,20.6
514.5196,21.4
514.6573,462.1
514.8644,172.4
514.906,8712.3
515.3549,150.1
516.0625,653.7
516.3063,30480.1
516.4362,523.9
516.459,113.1
516.6552,373.8
516.9042,408
516.9195,2328.7
517.1632,397.4
517.3103,2262.7
517.5573,944.9
518.0741,96.9
518.322,941219.1
518.8409,720.5
518.8989,118.9
518.9252,32594.1
519.0774,312.5
519.2923,577.6
519.3254,227556.6
519.4814,18.7
519.496,176
519.7833,221
519.9288,1450.3
520.1246,297.3
520.2479,399.6
520.2808,386
520.3296,24889.8
520.3401,181256.4
520.8749,657.1
520.9224,18607
521.0735,326.3
521.2659,18.9
521.329,1195.1
521.3435,47506.6
521.5326,117.2
521.5575,21.1
521.8662,190.4
521.925,893.8
521.9772,1335.1
522.2559,903.5
522.2713,815
522.2871,18.3
522.3557,231138.1
522.5926,152.3
522.7771,775.8
522.85,563.7
522.9207,775.3
522.9371,6144.1
523.0766,392.8
523.1295,368.8
523.2211,1058.5
523.2629,536.5
523.359,59540.4
523.6157,162.7
523.6407,314.2
523.6868,797.8
523.7131,548.9
523.8768,201.2
523.9143,264.1
523.956,685.8
524.1644,124.4
524.1894,490.1
524.1979,594.1
524.2493,151.5
524.3714,183179.2
524.3869,581.7
524.3922,515.1
524.4424,142.9
524.7055,129.2
524.9353,455.6
525.3748,49493.8
525.4077,133.5
525.9102,152.6
525.9985,227.8
526.168,258
526.2286,172.1
526.2865,191.6
526.3295,5488.1
526.3774,775.7
526.4102,962.2
526.5715,17.9
526.7326,133
526.9228,245
527.0669,508.3
527.3378,338.9
527.5926,276.9
527.655,256.9
527.8055,585.7
527.9429,185
528.3453,2009.4
528.3944,519.2
528.495,412.4
528.567,600.9
528.6133,535.1
528.7073,394.8
528.7399,110.4
528.7716,590
528.8822,10121.2
528.9536,1525.4
529.2609,513.5
529.4252,19.8
529.5986,19.7
529.683,120.6
529.8081,295.8
529.9365,372.5
530.2099,931.6
530.3211,2769.1
530.3589,1399.3
530.5324,19.6
530.6662,379.5
530.6842,21.1
530.8798,3638.2
531.2171,639.6
531.248,4673.6
531.2932,711.8
531.5923,124.4
531.7821,354.3
531.9139,18.3
531.937,636.9
531.9756,265
532.0829,139.9
532.2805,5542.7
532.3377,14879.9
532.4395,214.9
532.4972,749.1
532.5819,121.8
532.5981,181.7
532.796,233.2
532.8719,89.7
532.9653,527.8
533.2642,1127.8
533.3275,174.9
533.3417,1368.1
533.6528,160.4
533.7669,22
533.9823,18.6
534.0163,184.3
534.296,276535.9
534.3155,3662.9
534.3374,365.2
534.5399,460.5
534.7626,460.6
534.8992,19590.9
535.2992,68675.3
535.3837,263.2
535.7684,536.3
535.9035,1575.3
535.9933,155.1
536.0832,398
536.2325,174
536.2946,15347.9
536.3161,573.1
536.4644,368.3
536.5211,570.1
536.5465,133.4
536.8801,139.6
536.8966,9192
536.9248,151.5
537.1244,741.9
537.2964,1855.9
537.3602,20.1
537.3918,187.3
537.6858,20.7
537.7034,23.1
537.7181,185.8
537.9498,274.2
538.1498,363.2
538.3883,372.6
538.7903,307.9
538.8934,1193.3
538.9107,983.6
538.9311,935.6
538.9842,802.8
539.3945,104.8
539.4303,17.8
539.687,340.4
539.7708,950.3
539.8799,701.9
539.942,152.1
539.9917,752.6
540.0014,156.8
540.2486,570.4
540.3056,1852.8
540.3597,537.1
540.4392,495.9
541.0253,185.7
541.2301,23.8
541.7661,18.8
541.8857,422.3
541.9024,19.6
542.0126,676.4
542.3221,275900.7
542.3884,666.1
542.6139,397.2
542.8273,534.8
542.8606,329.1
543.1094,22.2
543.3003,455.3
543.3253,71603.8
543.3507,345.8
543.3725,171
543.4012,747
543.4473,851.7
543.8986,356.1
544.0384,484.5
544.1204,801.8
544.1772,345
544.2319,124.8
544.2737,2201.4
544.2971,497.7
544.3378,340192
544.4451,832
544.856,404.2
544.8711,360.7
544.9288,975.5
545.1081,275.2
545.3413,86544.6
545.6904,169.3
545.7886,340.1
545.8119,174.4
545.9309,343.5
546.1893,734
546.2567,1354.5
546.3534,253422.9
546.3806,621.8
546.4004,124.2
546.5873,19.8
546.8326,615.8
546.8537,918.6
546.973,872.2
546.9924,186.9
547.3184,172
547.3569,65542.3
547.3801,546.8
547.8287,23.7
548.2659,457.5
548.3111,2196.9
548.3599,4194.7
549.1953,22.8
549.3619,608.3
549.5538,22.9
549.5691,818.3
549.6371,117
549.8051,19.2
549.8802,805.2
549.9761,106.8
550.007,125.2
550.1409,365.7
550.1778,410.2
550.1851,356.2
550.3463,671.8
550.5216,193
550.8733,2590.6
551.3728,315.8
551.5022,590.6
551.6637,808.9
552.2126,158.9
552.3927,256.5
552.4681,207.3
552.8703,1601.3
552.9763,331.4
552.9992,166.7
553.0574,610.3
553.2582,129.3
553.3516,160.6
553.4384,20.9
553.4905,423.7
553.6094,293.4
553.7721,100.2
553.8497,21.3
553.8689,402
554.026,129.1
554.1292,274.4
554.5575,249.3
554.7981,230.9
554.8642,309.7
555.1428,169.4
555.2024,167.4
555.2194,340
555.3075,367.3
555.5707,111.5
556.4112,21.8
556.4823,476.9
556.8477,131.9
557.1276,19.9
557.2789,212
557.3873,106
557.7382,460.3
557.8379,148.6
557.872,523.9
557.9318,117.9
557.9588,90
558.2961,82152.2
558.6374,247.7
558.7584,25
558.792,149.2
559.2196,497.1
559.2994,17955.5
559.4386,20.1
559.5551,682.7
559.5983,544.3
559.6196,22
560.0446,300.8
560.2941,1996.5
560.3117,93904
560.3685,746.1
560.5186,260.6
560.7393,305.7
561.0033,192.4
561.1117,19.1
561.2205,302.6
561.3151,22287.2
561.4137,1306.4
561.4448,459.8
561.545,448.6
561.6644,280.5
561.6786,341.8
561.7451,432.2
561.7767,191.4
562.0604,614.8
562.2171,358.2
562.3112,3348.7
562.3274,70290.5
562.4554,20.1
562.9506,224.7
563.0768,22.2
563.214,274
563.3306,16219.9
563.4764,434.6
563.7122,94
563.7556,274.9
563.7967,163.3
564.0969,121.7
564.2687,123.1
564.3264,961.4
564.451,108.8
564.6568,220.2
564.8838,18.5
564.9878,123.9
565.0237,239.6
565.0453,290.2
565.0495,295.9
565.0767,581.3
565.1612,468.1
565.1774,737.7
565.4724,18.5
566.177,260
566.23,202.7
566.2678,700.7
566.322,66133.1
566.4041,465.5
566.5514,137.6
566.5761,701.3
566.8875,95.9
567.146,171.8
567.2333,590.6
567.3255,16691.8
567.5811,343.8
567.6763,129.4
568.2726,496.3
568.3378,25680.2
568.4516,791.1
568.6449,221.1
569.1939,138
569.3412,4865.9
569.4057,545.9
569.5345,205.4
569.7729,178.6
570.0494,626.9
570.084,92.7
570.3519,2189.9
570.3642,616.3
570.6247,254.1
570.6985,107
570.7222,351.4
570.8675,3107.5
571.0591,1110.6
571.1061,803.9
571.3481,501.4
571.7995,746.5
571.8343,161.7
571.8565,168.1
572.0315,154.8
572.2845,134
572.3106,407.9
572.7396,294.6
572.7834,22.2
572.7977,314.3
572.8416,322.3
572.8644,6174
572.9782,732.6
573.1101,147.2
573.5394,21.1
573.674,715.6
574.0342,260.6
574.3356,18.2
574.3724,552.9
574.5438,144.7
574.6297,239
574.7381,20.8
574.8608,472
575.2174,279.3
575.3998,18.4
575.5037,8436.9
575.664,349
575.7969,373
575.8569,864.6
575.9103,648.5
576.0083,672.3
576.2808,13794.9
576.3526,190.3
576.4389,18.4
576.4676,982.5
576.5089,896.7
576.8839,11499.7
577.2864,545.6
577.5063,18.3
577.5201,759
577.7743,602.7
577.9183,20.2
578.5198,314.9
578.853,497.1
578.8808,8344.7
578.9679,204.3
579.0167,507.9
579.0527,323.6
579.6347,556.4
579.6824,176.4
579.7617,128.4
579.8846,485.6
580.4127,134.3
580.8776,1858.6
580.8968,2482
581.3034,334.7
581.4044,400.9
581.7393,254.3
581.9294,772.5
581.9968,647.6
582.04,120.8
582.0613,138.5
582.123,958.4
582.1452,441.4
582.1571,734.8
582.1733,442.3
582.1936,22
582.2154,599
582.264,136.7
582.2958,16097.6
582.4749,117.8
582.4938,691.9
582.5176,140.7
582.7859,412.9
582.8305,223.1
582.879,385.3
582.8917,485.7
582.9239,137
583.2312,216.8
583.2994,2862
583.3422,847.5
583.5174,132.2
584.034,280.3
584.0519,482.1
584.0782,560.6
584.2148,96.7
584.3116,5240.6
584.3753,566.3
584.5468,129.6
584.8105,23.1
584.8569,155.5
584.9012,360.2
584.9953,566.3
585.0504,412.5
585.2717,1946.6
585.3203,20.2
585.5188,133
585.6538,493.1
586.0301,416.2
586.2736,826
586.31,6994.4
586.392,20.2
586.7398,713.1
586.8082,280.1
586.8415,1458.3
586.9142,369.6
586.9904,210.5
587.0105,26.2
587.3119,1231.6
587.4288,170.9
587.5982,21.4
587.7254,335.7
588.1142,141.6
588.1676,425
588.4169,460.4
588.5094,115.5
588.6317,812.9
588.8374,2731.9
588.9907,19.6
589.033,19.8
589.0928,18.8
589.3031,150.8
589.3925,145.4
589.4443,1078.7
589.6081,561.8
589.6392,553.3
589.9705,331.1
590.0255,548
590.1737,699.4
590.1915,20.2
590.3224,6871.6
590.3747,422.1
590.4417,539.3
590.7802,528.7
590.8033,147.1
590.9264,851.1
590.9661,173.1
591.152,212.3
591.2662,129.3
591.5574,200.3
591.6993,155.1
592.2542,1339.3
592.2974,130.1
592.3355,267.2
592.3683,18.2
592.5377,139.9
592.8581,6590.7
593.6765,217.4
593.8107,273.1
594.0379,130
594.0616,116.6
594.4474,561.8
594.6327,360.9
594.8549,7268.1
594.9915,369.3
595.3869,274.3
595.4013,190.7
595.4346,583.7
595.745,162.6
595.8284,487.5
596.0731,106.9
596.1482,127.6
596.2288,190.9
596.3373,155.3
596.3862,137.5
596.6073,21.4
596.8522,1729.7
596.9603,931
597.0114,733.5
597.1776,568.1
597.3899,533.5
597.4073,167.2
597.4519,3495.9
597.4856,11054.7
597.565,164.7
597.6631,386.8
597.8528,781.6
598.0536,312.3
598.4522,757.1
598.4622,1013.9
598.4689,1254.6
598.4896,1587.6
599.4685,1102.6
599.4878,373.1
599.5033,5145.1
599.7799,283.3
600.0052,361.3
600.2597,623.9
600.2792,527.7
600.4257,292.4
600.4807,645.8
600.5037,544.3
600.5224,284.7
600.6694,485.4
600.9118,26.3
601.3151,178.2
601.5205,177.2
601.6764,87.5
601.8482,299.1
601.9788,378.7
602.1484,589.7
602.2962,2659.1
602.3199,635
602.381,150.3
602.8352,166.2
602.899,444.6
603.0623,183.4
603.374,700.7
603.5354,375.7
603.5624,120.4
603.6787,590.8
604.1827,373.8
604.3113,838.5
604.8571,692.3
605.4742,162.1
605.5769,184.9
605.8297,144.5
606.2955,1299.8
606.5386,344
606.6601,205.8
606.7316,155.8
606.8437,320.3
607.0996,373.8
607.1708,128
607.2326,320.5
607.3211,419.6
607.3336,24.4
607.4743,372.2
607.5166,195.9
607.5661,19.8
607.7809,560.3
608.0625,429.1
608.1903,139.5
608.2187,462.9
608.3919,146.5
608.5173,774
608.7584,276.3
608.8312,900.8
608.9234,640.3
609.0102,20
609.3236,18.3
609.3572,154
609.6199,228.2
609.8031,161.1
610.0027,109.3
610.0428,145.3
610.2588,553.4
610.3105,891.2
610.4591,710.5
610.8278,1659.6
611.0006,19.2
611.331,19.4
611.6228,221
611.752,152.2
611.9154,131.2
611.9485,271
612.0859,243.6
612.1505,162.2
612.2971,156.6
612.3249,703.9
612.3425,19.3
612.4686,307.8
612.5179,123.4
612.7689,539.5
613.2652,310.9
613.2903,370.5
613.9844,169.8
614.3478,214.7
614.4543,673.7
614.4823,149.3
614.6687,20.1
614.6952,187.7
615.0013,168.7
615.0197,180.7
615.2148,137.5
615.3877,340.1
615.4424,762.5
615.459,703
615.6509,250.2
615.8703,108.1
615.941,285
616.0219,19.1
616.1954,551.4
616.5534,20
616.6839,317.8
616.9779,116.2
617.0509,131.8
617.4757,13989.8
617.531,580.6
617.5431,23.8
617.7819,190.4
617.9049,219.5
618.4781,2189.5
618.5141,19.1
618.6574,148.6
618.9602,144.9
618.9866,173.3
619.4917,4867.1
619.7328,23.5
619.7457,130.2
620.5059,418.6
620.6418,613.6
620.8278,106.7
621.3818,327.4
621.4069,293.6
621.4235,312.4
621.4549,2096.8
621.4855,8898
621.9528,19
622.4553,756.1
622.4895,768.2
622.8009,868.8
623.1359,6233.9
623.2319,200.2
623.4728,1271.3
623.4858,180.5
623.5016,986.5
623.7079,746.2
624.1404,199.8
624.4694,375.2
624.5043,320.3
624.6524,171.9
624.7785,23.4
625.2173,135.4
625.2792,103.5
625.4703,478.2
625.4909,473.6
625.5216,197.2
625.8461,854.5
626.3173,169.1
626.4529,110.5
626.4982,306.3
627.1824,19
627.2801,21.8
627.5356,420.2
627.6071,23.3
627.9718,221.5
628.2062,165.1
628.2636,542.9
628.4298,235.8
628.6054,114.4
628.7431,516.4
628.8951,286.6
629.153,14954.3
629.6926,143.2
629.8391,334.5
629.8762,728
630.1568,1701.4
630.3061,401.6
630.5765,353.7
630.8213,340.5
630.8976,113.8
631.0395,251.7
631.2799,19
631.2985,18.5
631.4343,1066.7
631.5405,409.9
631.598,386.9
632.7986,307.5
632.9197,146.2
632.9355,611.2
632.9479,483.4
633.1889,643.8
633.434,579.3
633.448,314.2
633.523,841.2
633.556,20.8
633.6676,273.2
633.7903,131.7
633.9157,261.3
634.4572,418.8
634.4818,196.9
634.8418,1832
634.8541,599.6
634.8587,572.8
634.9374,123.4
635.4821,526.3
635.6241,164.5
635.6425,422.5
635.7656,376.5
636.0496,179
636.1695,347.7
636.7192,199.8
636.7967,18.5
636.8404,3254.2
637.0004,20.7
637.3377,98.6
637.4224,620.3
637.4669,248.5
637.5113,238.5
637.5178,554.8
637.5213,520.5
637.7405,876.8
637.8053,329.4
638.06,491.1
638.3348,720.7
638.8369,1439.2
639.3069,608.6
639.3345,19.3
639.4382,507.9
639.6199,534.5
639.6767,101.5
639.9826,264.6
640.1142,348
640.4849,226.8
640.8414,642.8
640.9336,760
641.4649,628.4
641.6733,151.9
641.8703,577
642.0399,34.9
642.1128,807.3
642.189,560.2
642.7927,166.9
643.5247,154.3
643.574,164
643.7436,279.6
643.8116,114.6
643.9357,119.5
644.5096,127.3
645.1181,6375.3
645.2007,19
645.3205,720
645.4325,432
645.4577,415.1
645.4887,367.1
645.5049,534.1
646.1015,592
646.7023,1282.1
646.7366,333.5
646.7961,353.1
646.8953,153.4
647.0805,300.9
647.094,117.1
647.5946,115.8
647.757,729.3
648.0782,458.2
648.7046,125
649.1872,535.3
649.3102,472.7
649.6023,18.7
649.6195,180.3
650.4392,1169.8
650.4638,683
650.6602,145
650.6752,284.7
650.6818,291.9
650.7285,24
650.8169,1524.9
650.8363,714
650.906,175.5
650.9405,434.4
650.9963,322.5
651.1348,24861.6
651.2826,261.1
651.9412,20.8
652.1392,3139.7
652.2285,405.8
652.8143,2173.3
653.1136,231.4
653.3457,202.3
653.6811,609
653.7424,246.9
654.1131,216.9
654.6755,269.2
654.7281,138.1
654.7795,717.4
654.8113,1595.1
654.8306,207.2
654.8537,900.3
655.748,159.8
655.8755,515.7
656.0959,279.5
656.1631,19.1
656.3156,19.8
656.4507,122.5
656.6886,524.4
656.8039,20.1
656.9532,653.9
657.3885,161.2
657.5167,675
657.9458,349.9
658.0284,624.2
659.2979,512.7
659.4331,156.8
659.6032,139.3
659.6331,151.6
659.6636,17.7
659.8677,760.9
659.9004,19.2
659.909,18.6
660.0311,243.7
660.083,365.1
660.3061,185.4
660.383,783.1
660.5056,282.1
660.7469,351.4
660.7974,384.4
660.9974,21.8
661.0827,1578.6
661.1504,148.3
661.1776,777.8
661.2386,20.1
661.4699,444.4
661.7336,470.1
662.4208,409.4
662.4746,340.1
662.6983,299
662.7901,731.4
662.8466,162.1
662.9812,264.5
663.0001,196.3
663.4545,749.8
664.3521,21.4
664.4681,2216.3
665.3338,18
665.4596,569.3
666.3845,128.9
666.3971,790.5
666.4834,6174.8
666.6374,147.6
666.7909,336.3
666.9925,20
667.0997,14866.5
667.1898,105.3
667.3245,237.2
667.4459,122.8
667.4879,614.4
667.7013,136.4
667.7604,734.6
667.8547,626.2
667.9193,422.7
668.106,163.6
668.1486,478.3
668.1882,284.2
668.361,19.9
668.5105,122.9
668.7859,587
668.9783,258.8
669.2987,474.7
669.4449,178.2
669.4976,555.5
670.1276,351.1
670.3493,154.9
670.4361,22.3
670.5778,376.3
670.6933,320.9
671.1189,135.4
671.3388,148
671.4091,126.3
671.6197,540.2
671.836,163.9
672.3489,476.9
672.3978,547.5
672.4223,966.2
672.4452,758.3
672.5976,18.7
672.6855,20
672.886,18.9
672.998,617.6
673.1168,46170.2
673.2557,145
673.4537,162.5
673.49,205.7
673.5276,1742
673.6418,105.4
673.7036,133.9
674.097,396.9
674.1207,7663.7
674.4319,386.2
674.4703,470.3
674.5643,546.6
674.6694,700.1
675.0766,547.7
675.1226,370
675.2687,272.4
675.3023,577.8
675.5442,17608
675.6262,320.4
675.8515,278.1
675.9766,577
676.021,110.5
676.0473,2412.5
676.3467,220.4
676.4705,393.5
676.5474,4049
676.7398,23.4
677.0482,110.3
677.2226,340.3
677.7457,358.6
677.867,304.8
677.9741,21.4
678.3313,530
678.391,90.8
678.4374,362.2
678.6748,19
678.7716,548.4
678.8013,283.2
678.8332,129.6
679.867,391.1
680.2798,159.7
680.436,143
680.9067,366.8
681.1445,127.4
681.8302,219.5
682.0645,6458.9
682.5399,110.1
682.8943,633.6
683.0637,1672.7
683.2059,180.7
683.2747,18.3
683.3794,548
683.5462,811.7
683.6594,498.6
684.5097,135.9
684.8144,117.5
685.4356,5534.6
685.6782,180.1
686.1765,498.9
686.3474,117.3
686.4401,424.1
687.0667,127
687.2593,17.4
687.3166,236.1
687.3358,340.9
687.603,613.5
688.3683,337.7
688.4136,695.4
688.5159,178.5
688.6548,217.3
688.7404,345.7
689.0809,14465.7
689.232,607.2
689.5596,5423.1
689.9965,595
690.0844,773.3
690.1522,347
690.2652,21.1
690.3472,325.3
690.4721,283
690.5675,516.2
690.5725,533.8
690.6411,145.2
690.6622,127.4
690.7656,133.7
691.0521,562.2
691.2312,645.8
691.5348,484.2
691.6387,284.8
691.8975,629.8
692.1528,150.8
692.8022,343.5
693.1893,526.8
693.3686,675.6
694.1327,363.8
694.2158,836.6
694.4812,169.9
695.0989,37470.1
695.15,763.5
695.5109,1820.7
695.7636,24.4
695.8781,342.5
696.0117,124.5
696.1025,5925.8
696.5146,1033.9
697.2863,536.1
697.3601,359.9
697.3955,132
697.5261,19233.1
698.0007,428.5
698.0301,1660.4
698.5292,6144.5
698.6238,173.6
698.7031,895
698.7429,616.4
698.9202,98.6
699.0339,215.2
699.3134,893.6
699.8116,285.1
700.0512,251
700.0839,597.4
700.2049,705.9
700.4591,206.3
700.7019,304.9
700.7357,682.4
700.7974,411
700.8742,139.9
701.4105,1096.6
701.4378,391.1
701.5599,34032.6
701.6377,231.2
702.2151,139.1
702.3422,5188.3
702.5631,12289.4
702.6332,141.6
703.3452,1411.9
703.5758,94094.5
703.793,21.7
703.9355,363.1
704.0464,7437.1
704.3764,362.3
704.3825,372.6
704.4486,840.7
704.4705,147.9
704.5789,36904.4
704.6288,158.9
705.0548,1471.4
705.1405,169.6
705.2084,120.5
705.4128,173.6
705.5823,3143.2
705.7604,805
706.139,188.8
706.3823,104.1
706.5397,3850.8
706.685,170.5
706.7497,21.1
706.9297,164.3
707.0534,134.9
707.2587,123.9
707.8202,19.4
708.115,416.3
708.1628,483.6
708.2792,164.1
708.3182,567.2
708.5176,328.3
708.7316,200.5
708.7821,19.9
709.037,191.7
709.2208,737.3
709.2424,490.7
709.3556,185.8
709.4063,841.4
709.4427,294.1
709.7363,19.5
709.7875,339.3
710.0363,268.7
710.105,290.8
710.2269,795
710.7741,383.6
710.8104,143.2
710.9282,551.7
711.0739,13041
711.339,613.9
711.4584,346.6
711.5429,4800.4
711.6593,530.9
712.0776,461.6
712.7681,389.5
712.8332,151.4
712.889,562.7
712.9072,832.6
713.498,2067.8
713.5449,144.3
713.6084,21.7
713.6284,349.7
713.7727,573.8
714.3844,142.3
714.4183,20.5
714.8786,1037.8
715.1599,19.2
715.2233,379
715.3683,336.5
715.4786,21.9
716.4972,115.9
716.7402,690.8
717.0807,19520.1
717.3553,173.1
717.7783,96.6
718.0842,1413.7
718.5736,604
718.7666,555.4
719.1332,630.5
719.2282,404.6
719.4598,674.2
719.6417,200.3
719.9873,158.2
720.0216,1867.9
720.0844,941.6
720.4657,800.4
720.587,601.2
720.6155,591.5
720.7214,748.4
720.8852,113.3
721.0167,118.1
721.4233,322.5
721.4786,53224.8
721.9715,611.9
722.0335,307.4
722.2357,642.7
722.482,18767.8
722.7531,482.5
723.0866,102.5
723.4947,18334
723.5419,30779
723.8838,367.8
724.0331,121.7
724.3248,777.6
724.4337,398
724.496,4342.8
724.5454,10612.8
724.6099,431.4
725.5577,72198.4
725.6854,139.7
725.9139,19.5
726.0282,4453.1
726.0597,707.8
726.2003,100.2
726.4507,103.9
726.504,1342.2
726.561,30179.9
727.0322,1260.6
727.225,21.1
727.3654,863.8
727.3783,601.8
727.3879,490.9
727.4757,142.9
727.5634,4493.7
727.5914,101.2
728.0717,610.4
728.5197,1605.2
729.2644,530.2
729.3729,149.5
729.5913,9200.2
729.9644,341.1
730.1534,615.8
730.3788,296.8
730.5386,9374.9
730.5946,1473.1
731.0794,339.3
731.426,315.4
731.5411,1592.6
731.6067,8112.5
731.7241,243
731.8954,141.8
731.9343,635.2
732.4903,137.2
732.5546,68534
732.6106,1795.9
733.047,5380.3
733.0563,7620
733.5577,24666
733.6324,102.9
734.0613,141.9
734.2349,400.4
734.3873,470.3
734.4908,548.6
734.5708,6431.3
735.0179,255.8
735.2698,181.6
735.3416,321.9
735.375,375
735.5738,2130.1
735.6388,285.2
735.7297,298.8
735.9069,623.6
735.9455,148.7
735.9715,215.7
736.7016,154.4
737.1318,313.4
737.4004,192.6
737.4526,9667.4
737.5074,450.5
737.9275,199.3
738.0021,597.8
738.3886,225.4
738.931,531.5
739.063,14116.2
739.1484,396
739.1725,150.5
739.2008,1695.9
739.2356,1239.3
739.4692,1765.9
739.5156,793
739.9416,173.8
740.0049,215.5
740.068,193.4
740.1126,339.2
740.2878,168.1
740.5987,400.2
741.0222,261.4
741.0671,105.1
741.2871,299.6
741.5312,10507.4
741.6671,571.2
741.8003,204.8
741.9306,430.1
742.0034,834.4
742.5351,2349.2
742.5755,7658.2
743.0136,293.5
743.1897,254.8
743.5734,651.3
743.625,332.9
743.8334,215.7
744.0073,721.1
744.4659,1240
744.5548,6849.5
744.5913,6929.9
744.6817,548.2
745.0717,22.8
745.4789,32518.9
745.5552,1118.1
745.5926,983.2
745.892,342.4
746.0702,152.2
746.4606,728.3
746.4827,12580.4
746.5127,19.5
746.5708,7349.5
746.6061,2295.7
747.0499,414.9
747.3166,301.9
747.4949,10126.4
747.5548,17.7
747.574,2654.9
747.6107,263.6
747.656,314.7
747.6605,316.1
747.8533,443.6
747.9646,1772.1
748.0107,2395.3
748.2183,149.8
748.4073,390.6
748.4987,2292
748.6335,527.7
748.7838,552.5
749.014,2157.5
749.4125,225.4
749.4341,558.6
749.5089,2611.3
749.5366,628.4
749.5623,132
750.0243,747
750.4351,20.4
750.6368,338.5
750.8204,161.6
750.995,187.9
751.0538,1308.9
751.0806,247.1
751.1073,23.9
751.1781,139
751.2905,1088.8
751.573,5460.8
751.9825,326.3
752.193,327.4
752.3559,258.3
752.5211,11439
752.5767,719.4
752.806,699.4
753.3859,233.5
753.4167,393.1
753.4981,162.4
753.5884,3184
753.796,680.5
753.8311,99.9
754.2904,129.6
754.3215,1004.2
754.4463,614.6
754.5369,52103.1
754.6569,130.8
754.8241,340.2
755.0382,5168.7
755.5403,20350.1
755.9471,21
756.5545,53519.1
756.6858,26.8
756.7855,303.5
756.9603,154.3
757.0966,99.4
757.1385,784.3
757.2438,522.7
757.3374,331.9
757.4669,600.9
757.5136,248.7
757.5581,18324
757.6228,1424.4
757.7214,170.9
758.0007,420.7
758.0437,180.2
758.0752,289.2
758.1677,293.2
758.2501,762.6
758.5161,356.6
758.5703,990492.6
759.0702,21.8
759.4815,611.4
759.5736,442597.8
759.6388,1685
759.9039,112.5
759.9399,394.1
760.0864,796.1
760.1904,114.2
760.3464,136.6
760.3851,599.4
760.5867,487785.4
760.8403,698.6
761.045,7007.8
761.1503,606.3
761.2777,21
761.4514,4159.1
761.5896,231100.5
761.7238,241.5
762.0945,849.2
762.1496,120.8
762.3512,608.4
762.3763,19
762.5926,56444.3
762.8804,221.3
763.1841,151.1
763.323,473.3
763.3654,244.5
763.4237,534.7
763.4793,148.7
763.5099,163.2
763.5296,1080.5
763.5947,4853.2
763.8526,281.1
763.8889,20
763.9736,660.6
763.9913,274.8
764.0281,218.8
764.0554,154.6
764.3912,138.4
764.4744,617.4
764.5564,1363.1
765.6496,275.4
765.9603,404.4
766.2711,392
766.3186,22.6
766.3701,151.3
766.3915,561
766.5357,2782.1
766.575,26485.3
766.7639,104.4
767.3454,22.5
767.5415,192.3
767.5779,11980.1
768.0573,307.4
768.1734,380.1
768.1953,426.5
768.2117,212.3
768.4967,649.6
768.5538,7025.9
768.5912,39579.6
768.7339,482
768.7608,684.9
768.8855,130.9
769.4784,2482.5
769.5615,583.1
769.5944,12662
770.01,610.4
770.2445,732.7
770.2988,299.3
770.5105,6798.3
770.5689,1731
770.6077,4476.9
770.9906,2215.8
771.0151,150.3
771.0948,618.7
771.1955,771
771.2847,436.5
771.4957,1403.5
771.7121,324
772.1891,266
772.2889,214
772.5279,523.2
772.5858,16857.3
772.6226,190.4
772.9295,150.4
773.4215,256.8
773.5895,2780.1
773.6563,422.7
774.2805,108.3
774.4671,135
774.5146,374.4
774.6026,5025.9
774.7414,395.4
774.8572,18.3
774.9091,191.4
775.3181,124.7
775.4837,101.8
775.6058,651.9
775.6844,181.1
775.7487,140.9
776.3573,592.8
776.5213,1532.2
776.5979,19.9
776.7415,18.8
776.8691,18
777.0087,4098
777.653,237
778.212,216.7
778.2732,944.6
778.3516,574.9
778.5368,35470
778.7188,2157.8
778.9641,238.9
779.5403,17051.4
780.4825,2173.5
780.5524,638401.8
781.1511,103.2
781.2668,130.1
781.4757,602.3
781.5559,285736.2
781.5999,856.6
781.6238,122.6
781.6829,451.5
782.1936,20.6
782.5699,780951.8
783.0266,9165.9
783.3535,170.2
783.5732,364719.6
783.66,156.9
784.0282,675.9
784.0619,298.9
784.5269,858.8
784.5869,308893.4
784.6211,541
785.5897,154208.5
785.6539,5417.7
785.6983,145.5
785.7675,107.9
786.6023,279199.1
786.6565,1119.1
786.7049,321
786.9679,557
787.008,19.4
787.311,818.7
787.39,458.3
787.6053,130321.6
787.6709,718.1
787.8388,444.4
788.3815,281
788.5576,7688.9
788.6049,13843
788.62,22850.4
788.6697,667.7
788.7147,461.5
788.9532,700.1
789.0226,152.4
789.0601,564.6
789.1733,341.2
789.2652,280.7
789.3024,94.9
789.559,2641.9
789.6219,11559.9
789.7214,167
789.7578,647.2
790.1188,546.3
790.4881,139.6
790.5268,647.8
790.5731,18282.5
790.6248,325
791.0212,22.8
791.4992,161
791.5757,4314.8
791.6359,278
791.6668,223.7
791.7744,395.9
791.8999,999.1
792.3168,689.9
792.4282,149
792.5534,2001.6
792.5908,11426.6
792.8953,189.2
792.9839,331.3
793.143,137.3
793.1702,153.9
793.2419,583.9
793.3839,395.4
793.5105,140.3
793.5457,19.9
793.5939,3664.7
793.6631,968.1
794.0809,408.1
794.3348,215.6
794.5115,4865.8
794.5688,7621.8
794.607,38775.2
794.7675,163
794.847,131.3
795.1173,368.3
795.5145,1472.4
795.5693,351.5
795.6108,15128
796.0012,21.3
796.5263,123423.4
796.5854,7905.3
796.6243,4646
797.4403,123
797.5296,53766.9
797.5858,1145.4
797.6226,609.3
797.7265,528.8
797.997,912.2
798.2987,150.1
798.3821,177.6
798.5428,55199.7
798.6023,257.8
798.73,470.1
799.0016,1539
799.36,342.5
799.4003,1163.4
799.5456,23121.3
799.6698,259.5
799.9223,17.5
800.3104,251.1
800.8917,364
801.0281,758.8
801.1717,650
801.5463,1211.7
801.6565,151.5
801.6855,181.5
801.7022,291
801.8543,190.6
802.045,18.7
802.3451,217.6
802.5366,34498.9
802.6247,147.8
802.6963,167.5
803.0273,573.1
803.54,16250.6
803.974,143.7
804.0067,23.5
804.2769,19.7
804.5525,343612.5
804.6646,22.5
804.7329,498.6
804.8013,149.6
805.5557,160156.9
806.0242,668.6
806.0458,180.7
806.5696,298962.6
806.9863,308.2
807.0613,20.9
807.2766,103.2
807.4859,616.2
807.5727,150910.8
807.6428,881.9
807.7192,19.4
807.846,529.1
808.0431,155.7
808.4707,553.7
808.4967,396.6
808.5855,219588.6
808.6437,141.5
808.7129,125.9
808.9045,139.2
809.2802,263.1
809.5885,115601.5
809.6561,607.2
809.8162,847.1
809.8282,822.4
810.5448,167.9
810.6023,143338.4
810.9396,477.4
811.0158,343.1
811.115,160.8
811.3397,630.3
811.3886,21.2
811.6053,71757.2
811.6697,8314.1
811.9759,20.9
812.2291,358.8
812.6197,21445.4
812.6733,1772.8
813.0992,376.8
813.4748,1461.6
813.5437,1130.4
813.5811,748.3
813.6218,10872.6
813.6864,7854.5
813.7551,317.7
814.143,650.1
814.3099,184.1
814.5754,810.3
814.6214,1154.3
814.6456,622.3
814.6892,2442.6
815.3342,255.3
815.4272,917.8
815.5586,342.3
815.638,20.7
815.7503,23.3
816.0262,636.2
816.3666,18.5
816.4356,225.1
816.5889,14262.9
816.8324,20.4
817.0466,457.6
817.3174,384.8
817.3482,654.4
817.4165,371
817.5926,4250.6
817.6411,183.5
818.1036,319.9
818.5108,1666.7
818.5683,3392.5
818.6068,561.3
818.6953,282.3
818.7804,349.4
819.2131,177.4
819.572,719.9
820.1427,607.5
820.3876,243.3
820.5261,73924
821.0237,236.4
821.5298,31625.6
821.5836,148.7
821.6233,437.2
821.6506,117.7
821.9138,781.6
822.32,319.4
822.5428,33395.2
822.6037,146.9
823.3212,142.1
823.5459,14020.9
823.8081,22.3
824.0925,262
824.1932,444.7
824.383,565.9
824.5578,26042.8
824.6284,663.4
824.8857,297.4
824.9153,604.7
825.2139,1459.2
825.5155,149.9
825.5606,10213.6
826.2921,122.8
826.5525,266.3
826.5731,195.1
826.9137,627.1
827.2525,129
827.3583,513.1
827.6286,558.5
827.925,305.7
828.5523,89615.5
829.0238,887.4
829.1917,259.2
829.3374,562.7
829.4463,683.2
829.5558,43015.2
829.9105,19.4
829.9774,533
830.0286,451.2
830.1133,20
830.1729,154
830.1982,285.8
830.3448,976.8
830.4565,285.7
830.5691,58384.1
830.8329,138.8
830.8728,468.7
831.5715,29288.4
831.886,2605.4
832.2661,597.3
832.5338,145.9
832.5845,77872.3
832.9551,509.6
833.093,818.9
833.2979,527.5
833.5348,357.2
833.5877,37639.8
833.6497,557.9
834.5238,368.3
834.6019,28985.1
834.6532,164.1
834.8263,138.5
835.1331,560
835.2194,157.5
835.2413,604.1
835.3369,32.7
835.6046,15486.8
835.7215,604.8
835.7477,165.5
835.818,129
836.4764,137.5
836.5213,195.1
836.6186,3087.5
837.2805,557
837.4957,146.3
837.5225,218.2
837.5544,21.9
837.6217,720
837.8179,412.3
837.9538,208
838.4439,248.7
838.5104,754.5
838.5764,604.1
838.893,286.9
839.2366,91.4
839.3942,525.6
840.1442,1675.8
840.3833,227.1
840.5213,104.9
840.5824,127.3
841.0016,318.6
841.0304,467.6
841.0579,851.7
841.103,279.5
841.3696,17.6
841.9982,573.1
842.1562,161.1
843.2424,20
843.3376,225.7
843.5905,451.5
844.1611,627.4
844.4728,407.4
844.526,14773.1
844.6201,124.5
844.6664,137.3
844.7824,147.1
845.0866,121.7
845.5288,5130.8
845.6412,508.5
845.7538,176
845.785,19.2
846.1798,478.6
846.3095,132.4
846.4566,348.6
846.4818,146.6
846.5421,10573.6
846.5965,453.2
847.3279,131
847.5458,1784.2
848.4959,228.2
848.5587,9924.2
848.6485,116.1
848.8919,362
849.0118,97.4
849.2364,140.7
849.4058,532.2
849.5283,486.1
849.5621,2489.5
850.2068,871.7
850.23,118.4
850.3034,232
850.3802,554.4
850.4685,311.2
850.553,737
850.5738,631.5
850.6647,358.5
850.7577,423.4
851.4071,142.3
851.5075,449.2
851.5716,530.1
851.7324,369.4
852.1045,1346.8
852.2131,121.1
852.4669,340.4
852.9876,806.9
853.1269,550.1
853.3311,330.8
853.5569,890.3
853.6007,406.5
853.9598,1003.4
854.0064,856.8
854.1164,787.2
854.2374,823.6
854.344,607.8
854.5668,1516.9
856.5844,4973.6
856.7646,236.1
857.0638,620.2
857.0932,401.9
857.2244,255.4
857.3294,724.2
857.5869,1650.5
858.0554,469.9
858.367,99.3
858.6647,230.4
858.7067,381
858.9367,126.9
859.0731,609.4
859.5406,125.9
859.752,1277.4
859.8111,232.3
859.9639,131.7
860.1872,255.3
860.4764,475.6
860.5796,705.7
860.8123,113.3
860.9135,923.9
861.101,312.8
861.1356,1021
861.3401,489
861.4009,369.8
861.4739,19.9
861.5012,1265.6
861.7585,632.4
862.1908,712.5
862.9092,248.7
863.419,468
863.7374,613.4
864.1379,244
864.3343,465.1
864.6073,592.5
864.6907,871.8
865.2018,99.8
865.313,129.5
865.3686,831.9
865.5435,324
865.6966,285
865.7255,297.2
866.6884,208.6
866.7368,144.2
866.8222,203
866.8968,1096.5
867.0729,154.3
867.0992,573.9
867.1327,139
867.9577,632.7
868.0623,147.5
868.3069,196.1
868.5269,169.8
869.0082,785
869.0698,195
869.1604,568.3
869.2804,611.8
869.398,1417.9
869.4582,1195.2
869.4742,1425.1
869.5011,3482.1
869.5508,3438.3
869.5824,3842
869.613,2720.5
869.6329,3082.5
869.6484,3294.1
869.6891,2096.6
869.7157,2954.1
869.7434,3121.7
869.7741,1771.9
869.8226,48
869.8521,903.8
869.9787,188.4
870.1401,363.6
870.657,125.8
870.9724,143.3
871.1722,498.1
871.4701,941.1
871.625,689.2
871.8079,748.4
872.0599,498.7
872.4685,235.2
872.5403,994.5
872.6707,356.9
873.1469,141.3
873.5016,344.7
873.6608,609.9
873.8655,21.7
874.3265,220.3
874.7633,863.4
875.2948,23.2
875.323,175.6
875.4604,350
875.5624,601.3
876.0376,278.1
877.074,395.4
877.179,466.7
877.3376,599.4
877.4253,575.2
877.6113,147.9
877.6961,587.8
877.7304,533.3
877.7884,326.1
877.912,1090.3
878.0498,161.9
878.7264,1050.2
879.26,193.4
879.3326,323.5
879.3886,412.7
879.805,592.2
879.8947,432.8
880.214,22.3
880.8624,1014.6
881.702,158.3
881.9131,354.9
882.3374,543.5
882.4267,566.4
882.5772,296
882.6955,152.7
882.7268,28.1
882.9218,19.4
883.0703,296.8
883.7593,382.7
884.0222,178.5
884.638,166.3
884.733,136.8
884.9609,377.7
885.1326,207.8
885.2973,369.6
885.7387,180.3
886.1801,148.3
886.4285,852.2
886.6633,112.4
886.9316,215.9
887.0269,399.7
887.0773,175.3
887.1836,18.5
887.5894,594.8
887.6839,169.6
887.8394,372.5
887.8661,139.7
887.935,18.5
888.147,256.3
888.3264,351.1
888.5214,381.2
888.8253,144.7
888.9628,378.4
889.0596,399.4
889.1621,421.9
889.4331,338.9
889.6543,179.2
890.0448,335.2
890.3169,584
890.5855,331.6
890.6996,1422
890.8124,268.6
891.1177,512
891.3803,310.3
891.8962,721.7
892.9259,161.5
893.0976,129.5
893.1472,1088.7
893.2813,286
893.98,365
894.1675,111.7
894.2229,1426.4
894.3925,138.9
894.8006,148
894.907,237.8
894.9898,1040.4
895.9142,134.5
895.9742,545.8
896.6286,165
897.0963,453
897.1621,585.9
897.239,214.5
897.6185,143.3
897.7377,758.7
897.8837,115.8
898.2864,166.5
898.498,587.7
898.6634,218
898.891,17.9
900.1527,510.3
900.2932,458.1
900.4169,307
900.5589,989.9
900.5903,140
900.6438,417.1
901.5914,20.5
901.6509,1525.5
901.9827,726.5
902.0366,118.2
902.7308,410.3
902.9597,154
903.1681,1722.7
903.5834,779.4
903.6139,298.3
903.9,609
903.9254,1358.3
904.0478,570.3
904.1352,1199.9
904.3762,622.2
904.4601,281.2
904.6285,658.9
904.8811,19.8
905.5384,2589.9
905.5873,160.9
905.7507,846
906.0111,154.8
906.2393,384.8
906.2711,353.5
906.3284,382.2
906.7008,503.8
906.831,1814.6
907.0778,340
907.6333,239.1
907.9262,801.1
908.0664,593.7
908.2226,301.6
908.6792,821
908.8107,21.6
909.1315,22.6
909.443,118.8
909.5338,154.4
909.6654,280.2
909.7765,509.5
910.3567,112
910.5782,726.8
910.823,579.1
910.9213,466.9
911.1667,312.7
911.205,643.3
911.743,410.3
912.0135,1788.6
912.1049,595.8
912.1416,388.2
912.1857,637.3
912.4454,165.2
913.082,395.4
913.1154,605.9
913.1677,722.5
913.1919,740.1
913.476,861.2
914.295,376.3
914.6768,173.8
914.7225,107.3
914.8129,244.6
915.4993,148.4
915.5778,111.2
915.7254,297.1
915.8575,19.8
916.2281,2036
916.455,385.8
916.9928,527.7
917.0948,107.4
917.187,19.6
917.2502,667.5
917.3299,443.3
917.6997,1486.6
917.7515,899.2
918.2418,510.9
918.3664,684.4
918.5263,655
918.935,169.5
919.1071,644.2
919.1488,434.6
919.2903,462.8
919.5987,669.1
921.43,22
921.8971,98.5
923.0972,105.5
923.3415,503.6
923.682,281.9
923.7967,694
923.8274,177.8
924.8393,939.7
925.0482,149.8
925.5333,362.3
925.868,1722.3
926.1548,571.4
926.2501,937.3
926.322,1403.3
926.4785,147
926.6013,360.3
926.6441,644
926.7802,585.6
927.4105,212.2
927.7985,307
927.9575,804.3
928.0052,978.6
928.02,1052.4
928.0838,779.3
928.1049,514.5
928.8118,584.5
929.0326,220.6
929.1751,632.5
929.6261,688.4
930.1179,246.3
930.1549,20.8
930.2388,716.7
930.4261,444.3
931.3071,658.7
931.8702,147.1
932.3096,1073.8
932.3384,825.6
932.4283,559.1
933.1965,901.5
933.4574,534.9
934.0033,701.9
934.1694,147.2
934.3229,1274.2
934.7945,21.2
936.0766,541.1
936.397,887.2
936.4413,894.4
936.9668,503.2
937.0102,174
937.2909,238.1
937.6223,422
937.9757,142.6
938.011,131.3
938.0358,287.5
938.7524,244.6
938.7963,633.6
938.8115,624.2
938.946,196.2
939.1154,655.2
939.6479,478.9
940.4977,19.9
940.8026,212.6
941.0636,804.3
941.1201,350.2
941.8579,312
942.3902,144.5
942.5199,616
942.7848,476
942.9675,787.8
943.1175,495.7
943.5323,606.2
944.0602,1061.7
944.0912,1331.4
944.4799,741.6
944.5751,530.7
945.1433,275.2
945.2608,348.3
945.3693,142.5
945.4059,23.3
945.4939,355.3
945.7636,140.6
946.0645,26.1
946.1063,869.6
946.2275,1036.6
946.2689,149.5
946.9053,353.6
947.1112,531.3
947.2745,146.5
947.9989,2335.7
948.3657,333.7
948.7963,484.9
948.8938,385.8
949.1999,18.1
949.6863,351
949.924,18.6
950.0208,427
950.2751,582.6
950.2949,331
950.4397,759.3
950.6313,147.5
950.9195,100.1
951.0814,198
951.217,622.5
951.2602,23.8
951.4722,310.6
951.996,673.4
952.0957,474.9
952.2125,544.4
953.1381,162.3
953.2378,367.7
953.5267,331.5
953.6128,22.5
953.8959,142
954.0723,233.5
954.2376,200.9
954.4328,587.5
954.9318,785.3
955.186,207.3
955.3215,789.2
955.4373,93.4
955.6259,1154
955.8679,519.9
955.9936,1517.9
956.5202,508.3
956.5668,284.8
956.7099,143.4
957.0926,157
957.3507,579
957.4536,669.1
957.5201,473.7
957.5712,23.4
957.699,170.3
957.8902,556.6
957.9676,347.2
958.2208,17.2
958.4443,131
958.9055,543.3
959.3913,668.6
959.4194,468.7
959.7388,554.4
960.0599,20.7
961.0991,1050.6
961.5595,2105.9
961.6385,162.2
961.9922,868.5
962.2203,831.2
962.4459,186.5
962.7776,731.9
962.8159,382.3
962.9296,1482.4
963.1266,622.5
963.5955,95.6
963.8706,177.7
964.4182,521.8
964.6128,700.4
964.7722,19.2
964.8341,189.7
964.8756,196.4
965.0408,218.9
965.3767,815.2
965.4446,1039.8
965.5249,973.4
965.9007,522.1
966.6787,1014.9
967.5516,94.2
967.9717,631.2
968.0648,1477.9
969.3802,217.9
969.4087,210.7
969.6544,1589.3
969.7182,1139.9
969.9066,1824.7
970.195,159.3
971.1284,1287.9
971.3821,623
971.7436,525.7
971.8945,370.3
972.55,20.8
973.0533,480.4
973.4713,1368.3
973.6747,160.5
974.4251,377.5
974.5574,138.4
974.6593,434.3
975.3704,921.2
975.6913,839.5
975.8942,381.6
975.9481,306.5
976.2015,148.8
976.3966,373.9
976.6162,291.2
976.7085,128.5
976.7215,125.2
977.0031,382.7
978.7678,206.9
978.8949,136.3
979.3646,129.6
979.7176,288.8
980.1661,520.2
980.259,517
980.3515,172.9
980.5001,862
980.6766,710.7
981.3588,589.7
981.4794,121.3
981.6424,358.1
981.7314,468.1
982.1731,114.3
982.2664,652.8
982.3017,157.3
982.9918,180.2
983.4093,201.1
983.5155,182.6
983.6803,21.6
984.0615,426
984.088,131.5
984.2268,162.6
984.3605,381.8
984.6467,353.1
984.8082,808.8
984.8571,171.2
985.0338,381.4
985.1713,571.3
985.6229,493.3
985.7961,1406.2
985.9681,160.6
986.2005,284.9
986.3837,320.4
986.6796,364
986.8297,678.1
987.0189,854.8
987.2501,419.8
987.9112,387.4
987.9472,324.5
987.9718,197.2
988.1668,464.9
989.3906,286.6
989.5067,175.7
989.915,609.6
989.9862,1000.5
990.1539,193.6
990.2757,109.2
990.3929,591.5
990.7646,291.3
991.0303,1371.2
991.6772,864.7
991.7758,501.4
991.8687,2242.5
991.9659,246.2
993.0475,1183
993.0865,153.4
993.307,551.6
993.7245,567.8
994.1794,407
994.3288,784.3
994.4919,1326.4
994.8571,771
995.0972,19.2
995.1348,165.1
995.4462,127.4
995.7587,464.8
996.0515,164.8
996.5798,172.9
996.6275,156
996.7987,612.1
996.9078,136.5
997.3517,157.7
997.4157,168.1
997.5982,155
997.7814,179.3
997.8139,693
998.1341,22.8
998.1845,140.6
999.2057,398.6
999.5909,1363.9
999.7368,795.3
999.7678,948.4
