SPECTRUM - MS,
23.RAW,
FTMS + p ESI Full ms [50.00-1000.00],
Scan #: 1-40,
RT: 0.01-1.97,
AV: 40,
m/z,Intensity

50.0063,188.9
50.0131,133.9
50.0406,589.9
50.0452,701.1
50.0529,130.2
50.0714,237.9
50.1006,157.4
50.1262,227.8
50.1379,16.2
50.158,471.2
50.1731,371.4
50.1795,17.9
50.1878,161.2
50.1887,325
50.1892,782.9
50.1932,449.4
50.2055,143.9
50.2125,125.8
50.231,496.3
50.2366,140.7
50.245,18.2
50.2453,340.5
50.2494,208.1
50.2626,166.4
50.2666,129.7
50.2681,111.7
50.284,329.4
50.3013,495.5
50.3374,318.2
50.3664,114.9
50.3852,375
50.389,87.9
50.393,15.9
50.4461,303.3
50.4542,209.6
50.4695,17.8
50.4822,17.3
50.4842,18.9
50.5018,577.8
50.5236,142.5
50.5666,118
50.5753,617.5
50.6166,117.8
50.6319,304.7
50.6566,20.7
50.668,136.1
50.6702,242.5
50.7058,176.5
50.7081,562.6
50.7088,139.6
50.7459,194.4
50.7506,141.6
50.7608,239.4
50.7706,443.4
50.7893,502.8
50.7951,230.4
50.7956,705.6
50.8117,207.5
50.817,155.6
50.8233,185.5
50.8383,156.8
50.8426,307.9
50.85,374.9
50.8698,17
50.8716,248.9
50.8881,117.7
50.9053,176.5
50.912,311.6
50.9124,465.7
50.9196,409
50.9406,326.2
50.9571,327.7
50.9752,403.3
50.9804,421.7
51.0008,497.8
51.0042,653.1
51.0198,229.7
51.0969,206.4
51.1126,443
51.1661,139.8
51.1705,15.2
51.173,146.2
51.174,299
51.1769,140.3
51.1864,202.2
51.1888,112
51.1959,512.7
51.1992,386.9
51.2062,459.2
51.222,128.6
51.2354,379.2
51.2383,576.8
51.2422,20.3
51.2582,363
51.262,122.9
51.2698,19.2
51.2908,150.8
51.2936,239.4
51.3035,248.8
51.314,18.4
51.3373,862.4
51.3439,340.2
51.3548,687.3
51.3553,412.3
51.3855,137.7
51.4097,301.6
51.4121,15.4
51.4163,268.9
51.4174,331.3
51.4212,20.6
51.4224,119.9
51.4258,17.4
51.4317,18
51.4391,465.1
51.4534,18.3
51.4596,419
51.4623,152.5
51.4651,130.2
51.4717,263.8
51.4746,333.9
51.479,348.4
51.4817,71.8
51.4978,510.1
51.5032,361.6
51.5269,104.7
51.5334,134
51.5799,123
51.5971,176.6
51.6049,290.3
51.6119,501.6
51.616,145.4
51.6321,116.9
51.6422,20.4
51.6427,15.5
51.6702,563.8
51.6899,148.1
51.7082,119.7
51.7433,487.7
51.7493,17.2
51.7676,354.3
51.7799,222.2
51.8028,17.2
51.8117,397.2
51.8127,103.2
51.8423,94.3
51.8515,205.5
51.8526,358.2
51.8692,392.6
51.8788,189
51.8815,521.2
51.9,118.2
51.9125,474.2
51.9155,109.7
51.9192,17.7
51.9242,337
51.9269,235.9
51.9313,121.8
51.952,150.1
51.969,149.6
51.972,139.7
51.9913,15.5
52.0051,147.2
52.0211,489.6
52.0315,384
52.0384,84.6
52.04,17.1
52.0453,15.9
52.0501,339.5
52.0884,404.5
52.0964,15.5
52.1037,235.6
52.1147,16.1
52.1316,242
52.1377,238.9
52.165,346.7
52.1704,153.7
52.1715,102.6
52.1766,242.9
52.1794,99.5
52.1926,160.8
52.2004,313.6
52.202,577.4
52.2071,352.3
52.2232,368.4
52.2244,287.6
52.2279,223.6
52.2347,166.3
52.2455,31.4
52.2512,481.2
52.2554,132.4
52.2663,403.1
52.2762,168.9
52.2848,456.3
52.3174,194.3
52.318,224.6
52.3271,157
52.3299,188.8
52.3538,717.5
52.3957,497.1
52.4046,450.2
52.4164,130.1
52.4185,271
52.4349,409
52.4422,236
52.4477,16.6
52.4503,196.4
52.453,344.4
52.4612,172.6
52.4693,382.6
52.471,134.9
52.4744,439
52.4857,231
52.5066,320.1
52.5096,317.3
52.5181,148.7
52.5535,145.6
52.577,397.7
52.5792,127.4
52.5829,91.9
52.5856,182.6
52.6119,17
52.6283,159.3
52.6305,15.6
52.631,142.9
52.6363,248.7
52.689,167.2
52.7187,446.3
52.7271,134.7
52.7282,227.8
52.75,169.8
52.7522,275.6
52.763,297
52.7634,402.4
52.7671,447.8
52.7884,164.5
52.7961,15.2
52.8143,16.8
52.8182,424.8
52.824,16.4
52.8254,716.7
52.8319,793.9
52.8325,983.8
52.8333,3211.2
52.8342,1104.2
52.8347,436.4
52.8353,482.3
52.8358,1063.5
52.836,1181.9
52.8376,295.1
52.8551,412.5
52.859,127.5
52.8639,699.9
52.8856,272.9
52.9058,17.4
52.9281,111.5
52.9289,269.6
52.9381,157.3
52.9586,236.9
52.9603,295.7
52.9614,15.7
52.9725,351.5
52.9921,592
52.9975,14.9
52.9978,14.5
52.9992,121.8
53.0021,273.3
53.0321,269.4
53.0336,527.8
53.0374,261.3
53.0405,229.4
53.0507,163.1
53.0566,220.6
53.0689,156.2
53.0793,192.2
53.1447,327.9
53.1608,255.4
53.1667,200.7
53.1702,75.7
53.1708,249.8
53.1743,469
53.1909,108.7
53.2121,242.6
53.2145,406.6
53.2223,466.3
53.2414,111.6
53.2431,342.1
53.2699,321.5
53.2755,127.3
53.2918,20.9
53.2997,341.2
53.301,263.9
53.3219,412.8
53.3331,483.9
53.35,414.9
53.3854,448.1
53.3914,346.9
53.406,326.1
53.4231,319.1
53.4245,18.3
53.4488,245.8
53.4642,15.5
53.466,104.9
53.4743,119.1
53.4836,135.3
53.4873,138.2
53.5008,204.1
53.5088,374.4
53.5247,16
53.547,420.6
53.5532,175.7
53.5634,337.1
53.5638,235
53.5699,17.3
53.5813,212.2
53.5874,130.9
53.6198,156.2
53.6261,121.1
53.6295,108.5
53.6324,579.6
53.6608,222.5
53.6616,204.2
53.6644,187.8
53.6987,14.7
53.7119,448.7
53.736,454.8
53.7421,108.8
53.7716,23
53.7882,142.2
53.8002,86.6
53.8025,124.6
53.8061,525.2
53.8391,262.5
53.8459,163.8
53.8599,369.3
53.8614,184.3
53.8669,111.3
53.8686,220.8
53.9182,77.3
53.9208,131.6
53.9797,197.8
53.9806,412.7
53.9858,221.4
54.0198,156.1
54.0203,101
54.0324,101.2
54.0376,154.2
54.0396,17.2
54.0403,157.7
54.0455,174.9
54.0511,15
54.0545,324.2
54.0564,247.5
54.0577,113.3
54.0703,146.8
54.1285,358.5
54.135,198
54.1574,110
54.1579,197.1
54.1616,188.8
54.1661,504.8
54.1731,313.1
54.1734,487.6
54.1739,115.8
54.177,396.9
54.1864,96.4
54.199,393.1
54.2003,492.6
54.2014,173.1
54.2823,269.8
54.2842,135.7
54.3457,112.7
54.3539,213.3
54.3568,207.6
54.3944,100.5
54.427,555.1
54.4296,133.9
54.4395,17.1
54.4526,110.5
54.4547,295.3
54.4556,338.4
54.4662,856.9
54.4714,14.8
54.4783,106.5
54.509,576.8
54.5292,139.1
54.5303,203.2
54.5362,17.9
54.5376,169.6
54.5497,16.3
54.5505,116.1
54.5654,17.1
54.5717,152.7
54.573,615.4
54.5837,337.1
54.6107,97
54.62,152.4
54.6294,620.9
54.6339,318.9
54.6359,114.6
54.6383,304.6
54.6389,346.9
54.6618,119.8
54.7055,516.3
54.7121,315.4
54.7209,201.9
54.7269,151.7
54.7304,157
54.7461,471.2
54.7494,196
54.7514,325
54.7614,79.2
54.8085,17.4
54.8154,514.7
54.8197,446.4
54.8318,320.9
54.8346,162.5
54.8357,402.6
54.849,19.5
54.8607,313.2
54.8744,262.4
54.8762,591
54.9043,16.2
54.9057,475
54.944,115.5
54.9609,509
54.9663,264.3
54.9885,17.4
55.0134,177.6
55.0187,590.3
55.0518,348.6
55.0602,16.3
55.0648,178.1
55.0663,568.8
55.0784,137.9
55.0787,132.2
55.1019,227.4
55.1264,309.8
55.1342,340.8
55.1465,123.4
55.161,165.9
55.1718,124.3
55.1861,310.8
55.1927,162.4
55.199,232.3
55.2009,198.3
55.2094,524.6
55.2493,170.1
55.2653,626.1
55.2909,617.2
55.2985,99.2
55.3018,100.5
55.3036,277.5
55.3201,16.7
55.3289,265.9
55.34,16.2
55.3552,105.3
55.3772,710.4
55.3792,373.2
55.3971,336.5
55.4006,516.2
55.4346,144.3
55.4752,626
55.4845,16.9
55.4849,311.5
55.4881,174.5
55.4919,368.9
55.496,179
55.5107,222
55.5141,335.5
55.5659,160.4
55.5826,693.5
55.6197,142.4
55.6242,173.9
55.6331,124.6
55.6373,540.6
55.6413,98.2
55.6453,490.8
55.6589,122.3
55.6598,112.9
55.6644,162.4
55.667,164.1
55.6766,313.7
55.686,159.4
55.7013,114.9
55.7178,210.9
55.798,553.2
55.8045,301.7
55.8082,316.9
55.8168,579.7
55.828,18.4
55.8384,99.8
55.8737,354.8
55.8811,19.2
55.8927,163.1
55.9107,155.4
55.9492,333.3
55.9496,202
55.9587,307.1
55.9818,183.7
55.9842,235.4
55.9967,126.8
55.9997,121.1
56.0224,349.6
56.0294,411.8
56.0361,329.6
56.0722,274.5
56.0798,14.8
56.0826,421
56.0891,143.1
56.1275,339.3
56.1285,186.8
56.1428,361.6
56.1492,19.3
56.154,492.4
56.1612,393.2
56.164,392.3
56.1645,16.1
56.1799,441
56.1818,342.3
56.1928,524.7
56.2037,179.6
56.2108,214.3
56.2196,108
56.2351,18.5
56.237,162
56.2383,21
56.2534,456
56.2626,563
56.2673,434
56.3061,242.1
56.3302,195.3
56.3767,19.9
56.413,537.6
56.4275,462
56.4281,211.6
56.4387,100.1
56.4605,114.9
56.489,155.5
56.4992,184.7
56.5081,157.2
56.5101,161.9
56.5122,164.5
56.5243,643.3
56.525,342.2
56.5317,18.8
56.5402,18.4
56.5669,492.5
56.5699,579.9
56.5787,460.6
56.5833,400.3
56.5884,546.5
56.6024,331.8
56.6347,133.9
56.6398,679.9
56.6496,326.5
56.6653,131.3
56.672,559.4
56.6866,18.9
56.6913,121.1
56.7036,15.9
56.7148,225.1
56.7312,17.5
56.7855,186.7
56.7904,569.9
56.8165,15.5
56.8569,206.2
56.8645,282.7
56.8673,136.9
56.8797,222.4
56.9384,91.4
56.9714,409.3
56.9774,568.7
56.98,296.2
56.9846,288
56.9869,331.7
56.9875,16.7
56.9937,174.4
56.9949,204.7
56.997,315.6
57.0205,157.2
57.0243,237.7
57.0304,356.7
57.0359,254.3
57.0397,101.7
57.0489,637.3
57.0587,85.1
57.0798,125.8
57.1115,125.7
57.1225,120.7
57.1234,534.1
57.1651,388.4
57.1672,558.9
57.1886,546.4
57.1907,163.4
57.1921,238.1
57.1946,281
57.2105,16.2
57.2261,79.6
57.2492,406.9
57.311,19.2
57.3174,525.1
57.3194,17.4
57.3264,232.7
57.3331,380.2
57.3347,384.5
57.3383,121.1
57.3418,519.9
57.3571,18.3
57.3736,155.5
57.3765,382.4
57.3866,17.9
57.3885,271.9
57.3919,212
57.3926,116.6
57.3968,248.3
57.4241,792.2
57.4256,96.4
57.4276,231.1
57.4488,393.9
57.4509,541.2
57.4517,365.2
57.4623,114.6
57.4682,252.4
57.4791,195.9
57.4866,419.3
57.4905,446.1
57.4909,15.6
57.4984,273
57.5162,148.4
57.5227,146.4
57.5274,94.4
57.5327,166.4
57.5359,328
57.5371,408.1
57.5484,161.2
57.5713,328.7
57.5766,214.1
57.5783,311.9
57.5883,267.8
57.5947,613
57.5981,256.6
57.6022,653.5
57.606,17.3
57.6095,16.8
57.6143,113.6
57.6174,158.6
57.6377,17.6
57.6477,465.2
57.6506,97.9
57.6509,17.1
57.6535,422.3
57.6569,238.2
57.6621,311.6
57.6801,142.7
57.6887,312.1
57.6932,17.6
57.6993,267.9
57.7165,338.6
57.7298,540.2
57.7407,145.9
57.7439,17.9
57.7529,371.2
57.7575,794.9
57.7613,224.1
57.7664,391.9
57.7876,328.1
57.8085,128.1
57.8095,427.5
57.8126,16.4
57.8302,109.6
57.8437,365.1
57.8761,119.7
57.8804,164.5
57.8893,167.6
57.9097,176.8
57.9119,118
57.9138,20.6
57.9187,244.4
57.9425,530.7
57.9453,475.7
57.9489,114.2
57.9634,242.4
57.9725,356.1
57.9829,569.2
57.9895,399.6
57.9951,17.5
57.9957,553.9
58.0114,281.6
58.0207,323.7
58.0246,507.6
58.0263,19.9
58.0798,118.1
58.0877,372.1
58.0989,223.2
58.1083,364
58.1143,374.6
58.1149,310.2
58.1368,122.3
58.1445,17.2
58.1457,104.3
58.1585,303.6
58.2035,525.1
58.2266,380.5
58.2273,16.4
58.2291,438.7
58.2302,20.2
58.2309,340.8
58.2312,16.6
58.2383,342.4
58.2403,156.1
58.2461,490
58.2659,302.2
58.2708,102.5
58.2717,236.8
58.2742,440.3
58.2774,147.6
58.2976,460
58.331,18.4
58.3394,667
58.346,188
58.3537,16.7
58.3601,585.7
58.3754,211.5
58.377,217.5
58.3776,335.3
58.3872,134.6
58.4306,82.4
58.4325,133.1
58.4472,113.2
58.4749,598
58.4754,270.3
58.4847,218.9
58.4901,247
58.4906,214.2
58.5018,496.9
58.5079,174.1
58.5213,156.6
58.5417,334.7
58.5472,243.9
58.5491,241.5
58.6297,17.9
58.6314,615.7
58.6391,16.5
58.656,280.3
58.668,185.5
58.6754,17.8
58.6956,16.1
58.6997,564.8
58.7096,158.2
58.7215,334.2
58.7318,314.7
58.7327,349.5
58.7739,298.2
58.7753,349.1
58.7781,181.2
58.7823,602.6
58.8364,147
58.8467,368.9
58.8536,539.6
58.8616,415.5
58.8804,144.5
58.894,228.4
58.9191,216.2
58.9436,253.2
58.9491,137.9
58.9617,141.6
58.9655,542.2
58.9671,335
58.9984,295.1
59.0257,239.8
59.0268,191.7
59.0415,114.7
59.0539,117.9
59.0625,15.8
59.0826,330.5
59.1013,128.7
59.1371,88.6
59.1421,263.1
59.1547,132.1
59.162,335.1
59.1773,621.4
59.1824,419.2
59.184,743.8
59.1892,459.1
59.1902,632.8
59.1943,691.1
59.2059,118.3
59.238,144.9
59.2451,238.1
59.2507,738.7
59.2574,168
59.264,199.5
59.2714,348
59.3005,187.9
59.3035,111
59.3198,605.1
59.3241,459.6
59.3326,490.4
59.3371,375.4
59.3554,16.5
59.3642,16.3
59.3874,114.6
59.3908,186.3
59.4026,251.6
59.4117,157.3
59.4334,245
59.437,355.3
59.4371,356.6
59.4373,286.1
59.4577,15.4
59.4708,657.6
59.5065,103.3
59.5097,99.1
59.5184,239.3
59.521,113.3
59.5233,471.4
59.5262,468.8
59.5272,193.1
59.5475,18.2
59.5521,580.7
59.5552,650.1
59.5684,181.2
59.5997,119.7
59.6121,17.1
59.639,435.3
59.6443,408.3
59.6448,218.9
59.6591,258.2
59.6739,381.4
59.6969,392.1
59.7138,273.4
59.7276,595.8
59.7305,87.6
59.7317,148.8
59.7442,16.1
59.7515,502.4
59.7961,199.9
59.8067,435
59.8073,370.7
59.8208,115.6
59.8216,137.4
59.8252,414.4
59.846,175.7
59.8494,447.5
59.8519,118
59.862,339.9
59.8685,342.3
59.8804,266.6
59.8875,447.7
59.8892,299
59.9261,443.7
59.9267,277.5
59.9271,126.4
59.9281,612.8
59.939,321.2
59.9402,434.8
59.9407,211.5
59.9478,371.2
59.9581,146.4
59.9688,656.4
59.9721,82.3
59.9833,16.7
60.005,793.3
60.0192,138.4
60.0258,101.5
60.0327,169.4
60.0724,17.1
60.0769,82.5
60.0934,296.6
60.1204,17.3
60.1328,16.9
60.1437,137.9
60.1459,351.9
60.1749,519
60.1851,114.5
60.1998,118.4
60.2043,178.7
60.2193,18.3
60.2213,716.9
60.2235,550.2
60.237,520
60.239,193.1
60.2518,111.6
60.2782,151.1
60.2801,464.2
60.2814,237.6
60.2878,300.5
60.292,115.4
60.2928,275.8
60.3107,128.7
60.3185,103.4
60.3316,280.3
60.3328,20.2
60.3332,22.5
60.3339,322.6
60.3346,18.9
60.3407,170.6
60.348,402.4
60.3752,444.2
60.3781,167.4
60.4105,175
60.4212,74.1
60.4336,18.8
60.4434,181.5
60.4618,119
60.4692,124.1
60.4863,675
60.4947,156.8
60.5066,75.2
60.5196,287.6
60.5257,139.9
60.5283,455.4
60.537,153.6
60.5388,16.6
60.5611,181.1
60.5622,16.8
60.5678,347.2
60.5716,583.1
60.5834,19.2
60.5913,170.6
60.6128,16.2
60.6151,328.5
60.6178,578.4
60.6238,348.4
60.6339,16.5
60.6578,657
60.6656,504.1
60.6692,224.4
60.6724,257.5
60.6756,148.7
60.6812,453
60.6828,248.8
60.7366,708
60.7397,248.2
60.7435,357.6
60.7583,188.6
60.7725,231.7
60.773,357.3
60.776,333.7
60.7971,208.9
60.8176,18.1
60.8401,312
60.8443,17.7
60.8472,357.5
60.8484,196.8
60.8502,312.3
60.8597,537.1
60.8663,327
60.8687,124.5
60.8701,318.6
60.8812,521.2
60.8888,143.9
60.8983,442.3
60.9141,188.1
60.9193,232.8
60.9263,381.6
60.9476,17.5
60.9506,338.2
60.9654,537.4
61.0085,108.6
61.0127,374.5
61.0248,462.6
61.059,18.3
61.0955,327.5
61.1121,294.1
61.1279,137.3
61.1333,257.4
61.142,147.6
61.152,185
61.1582,437.2
61.1683,220.5
61.1715,255.4
61.1778,527
61.183,496.7
61.1917,349.9
61.2127,162.8
61.2266,196.3
61.23,121.2
61.2421,109.1
61.249,367.7
61.2506,238.5
61.2676,470.9
61.2693,15.5
61.2702,97.7
61.282,579.4
61.2866,19
61.2877,233
61.326,15.9
61.3303,18.8
61.3367,116.9
61.3369,113.5
61.3445,673.9
61.3792,316.7
61.382,355.1
61.3828,419.1
61.4139,304.8
61.4222,510.5
61.4345,263.4
61.4356,150.5
61.4395,517.6
61.4628,420.9
61.5111,18.7
61.5154,373.5
61.552,331
61.5604,18.2
61.5631,172.6
61.5732,273.2
61.5742,89.5
61.5959,615.4
61.598,162.1
61.6027,690.8
61.6171,382.4
61.6338,200.5
61.6609,121.7
61.6627,280.7
61.6684,488.6
61.6767,217.7
61.6872,17.3
61.7231,164
61.7285,178.4
61.7295,523.7
61.7365,15.9
61.7493,182.4
61.7523,18.6
61.7586,340.6
61.7745,111.2
61.7754,363.8
61.7935,111.9
61.7953,371.1
61.8025,130.8
61.8032,142.9
61.8085,168.6
61.8152,18.8
61.8207,129.6
61.8313,393
61.8361,163.3
61.8386,382.8
61.8436,498.5
61.85,216.5
61.8515,401.7
61.8552,247.3
61.8695,287.6
61.8951,17.2
61.8968,352.5
61.9123,101.7
61.924,240.9
61.9366,152.4
61.9403,329.8
61.9437,17.3
61.9588,113.6
61.9633,344.1
61.9702,173.9
61.9848,358.5
61.9855,147.3
61.9973,150.5
61.9988,245.4
62.0079,311.5
62.0219,322.4
62.0372,177.3
62.0402,207.2
62.0412,242.6
62.0526,83.2
62.1164,660.4
62.1194,319.7
62.1319,249.3
62.1356,224.3
62.1494,378.1
62.1629,235.6
62.1707,200
62.1923,16.6
62.2166,19
62.2181,15.6
62.2526,159.4
62.254,152.9
62.2731,218.3
62.293,165.2
62.3324,18.2
62.348,106.6
62.3854,262.4
62.4015,315
62.4041,464.6
62.4154,424.8
62.4189,355.3
62.4341,18
62.4486,15.7
62.4539,231.9
62.4544,491.1
62.475,475.2
62.4847,192.9
62.4908,442.4
62.5053,524.2
62.5305,465.6
62.5406,488.7
62.5424,449.7
62.5433,412.3
62.5618,389.7
62.5637,119.4
62.5769,745.1
62.5802,699.9
62.5965,361.9
62.6003,377.2
62.6101,199
62.6143,18.6
62.6206,599.6
62.6272,147.8
62.6278,187.9
62.6363,437.5
62.6518,200.8
62.6552,279.7
62.6932,371.1
62.7048,225.6
62.7098,383.3
62.7136,200.1
62.7162,165.9
62.74,234.9
62.7522,350.5
62.7551,209.1
62.7668,242.1
62.7696,335.3
62.7718,15.7
62.7744,377.2
62.7843,396.7
62.7868,373
62.7901,687
62.8042,792
62.8286,674.4
62.8296,134.9
62.8305,169.4
62.8425,312.1
62.8602,386.2
62.876,18.3
62.9015,20
62.9038,323.9
62.9111,279.2
62.915,154.5
62.9174,715.2
62.9463,614.2
62.9556,136.5
62.9598,325.8
62.9741,462.7
62.9774,708.9
62.9866,172.7
62.9883,372.6
62.9925,986.6
63.0281,227.5
63.0384,169.4
63.0532,295.3
63.0562,142.7
63.0577,344.6
63.0608,131.1
63.0759,20.3
63.0947,478.7
63.1037,345.5
63.105,133.2
63.1422,194.3
63.1453,113.2
63.1634,392.3
63.1693,624.3
63.1816,149.9
63.1921,233
63.2134,364.7
63.2349,202.2
63.2361,597.3
63.2617,160.1
63.2827,15.9
63.3069,109.1
63.3252,18.2
63.3339,428.7
63.3374,420.1
63.3442,214.6
63.349,137.3
63.3867,24.1
63.3876,16.9
63.4036,425.5
63.4265,346
63.4394,138.1
63.4401,179.3
63.4423,375.6
63.4656,343.1
63.4725,322.7
63.4759,181.2
63.5258,19
63.53,513.9
63.5532,227
63.556,143.9
63.5763,132.5
63.5995,116.4
63.6127,593.9
63.6203,426.5
63.6209,224.1
63.6353,226.5
63.6499,523.8
63.6554,348.1
63.6579,108.7
63.6634,141.9
63.6706,16.8
63.673,217.6
63.6755,96.6
63.6766,19.6
63.7301,319.7
63.7454,19.5
63.758,413.2
63.7604,111.6
63.7655,102.4
63.7868,17.2
63.787,24.4
63.7872,16
63.7877,17.2
63.7946,152.9
63.8122,20.7
63.8276,184.3
63.8398,327.1
63.8666,18.6
63.8733,15.9
63.8812,375
63.8837,358.5
63.9033,683
63.9275,262.2
63.9389,152.6
63.9588,356.5
63.9657,16.2
63.9679,363.4
63.9706,18.6
63.9744,116.3
63.9871,282
63.9927,589
64.0266,429.8
64.0397,73.2
64.0429,345.2
64.0669,15.4
64.1155,229.3
64.1165,401
64.1383,14.6
64.1388,235.2
64.1427,21.5
64.1687,247.4
64.1688,228.3
64.169,170.9
64.1816,138.5
64.204,390.7
64.2211,348.2
64.2341,226.4
64.2446,262.9
64.2528,363.5
64.2744,155.9
64.2801,397.1
64.2829,592.3
64.2939,360.1
64.2951,152.9
64.309,535
64.3351,140.2
64.3421,157.3
64.3483,195.8
64.3642,18
64.3797,17.2
64.3819,169.5
64.3899,177
64.3947,102.8
64.3973,422.1
64.4104,155.6
64.4263,17.8
64.4377,173.2
64.45,201.7
64.4507,18.4
64.4669,450.7
64.4673,201.4
64.469,131.5
64.4741,146.6
64.4816,17.8
64.4925,219.6
64.4964,348.2
64.5202,616.8
64.5298,90.4
64.5642,16.5
64.576,399.8
64.6458,209.6
64.6867,136.8
64.6942,324.6
64.711,514.9
64.714,328.5
64.7216,142.8
64.7444,235.5
64.7577,311.5
64.7772,135.6
64.7939,129.7
64.7988,531.5
64.8118,18.5
64.8274,463.9
64.8749,112.7
64.878,306.4
64.8816,16
64.8836,18.8
64.889,18.2
64.8937,118.2
64.9058,237.8
64.9214,340.7
64.9278,193.1
64.9395,156.3
64.9449,216.8
64.9583,489.3
64.9628,320.1
64.9672,168
64.9845,183.4
64.9871,173.2
64.9887,181.3
64.9912,196.6
65.0025,134.1
65.0291,138.1
65.0317,19.2
65.037,75.9
65.0444,16.5
65.0454,463.3
65.0569,660.9
65.0587,509.4
65.084,330
65.1348,394.7
65.138,217.6
65.1499,161.5
65.1596,359.9
65.176,476.6
65.18,391
65.1947,146.7
65.203,139.3
65.2118,19.5
65.2266,397.1
65.234,129.2
65.2377,252.8
65.2431,367
65.2566,19.2
65.2576,317.9
65.2657,350.9
65.2928,152.6
65.3011,845.5
65.3123,340.3
65.3154,278.1
65.3206,193.6
65.3262,171
65.3391,174.7
65.3565,170.6
65.3656,192.9
65.4032,641.6
65.407,20.2
65.4075,489.6
65.4131,268.8
65.4498,225.3
65.457,246.1
65.4608,19.8
65.4832,745.9
65.4939,290.5
65.5243,385.8
65.5268,124.2
65.535,344
65.5627,18.5
65.5739,161.6
65.5762,110.4
65.581,141.4
65.5819,17.4
65.5865,115.4
65.6242,16.9
65.6285,118.2
65.639,266.7
65.6578,291.1
65.6705,177.7
65.6752,610.9
65.6796,233.8
65.715,299.1
65.8255,737.7
65.8491,157.4
65.8558,127.2
65.8594,347.8
65.8631,226.2
65.902,191.3
65.9146,374.9
65.9165,403.3
65.9182,16.8
65.9205,16.4
65.9305,683.1
65.9747,573.9
66.0143,260
66.0152,294.7
66.0383,160.9
66.0736,583
66.0917,707.3
66.0968,201.5
66.1228,16.1
66.1389,16.7
66.141,17.3
66.1631,339
66.1847,467.3
66.1867,212.3
66.1906,16.6
66.1975,139
66.206,166
66.2077,667.6
66.2181,20.6
66.2212,15.5
66.2347,219.3
66.2421,345.7
66.2449,220.7
66.2511,452
66.2531,188.6
66.2626,318.8
66.2682,226.6
66.2865,134.4
66.2957,162.8
66.3174,17.1
66.3241,275.5
66.3607,105.7
66.3695,206.9
66.3708,271.8
66.3722,18.1
66.3839,313.3
66.3866,752
66.3913,391.6
66.3924,20.6
66.3944,489.8
66.3954,155.3
66.3962,325.9
66.3999,386.9
66.4049,300.4
66.4145,459.6
66.4497,339.2
66.472,497.7
66.4757,246
66.4762,18.4
66.5069,630.6
66.5098,19.3
66.5138,15.3
66.5178,106.7
66.5238,24.2
66.5315,472.3
66.5464,186.5
66.5526,351.3
66.5646,321.7
66.5676,404.9
66.5921,18.1
66.5981,316.5
66.6085,20.9
66.61,17.8
66.611,161
66.6287,546.1
66.6312,191
66.6503,134.1
66.6738,143.5
66.6747,638.4
66.6766,370.7
66.68,367.2
66.6844,88.5
66.6877,257
66.6927,19.2
66.6961,395.1
66.7235,148.5
66.7769,17.6
66.7818,18
66.8113,170.7
66.8203,407.6
66.826,293.9
66.8462,263.9
66.8821,143.1
66.8933,359.1
66.8959,321.4
66.8995,373.9
66.9005,539.9
66.9086,164.9
66.9132,20.2
66.9311,104.2
66.9327,17.7
66.9363,318.9
66.9426,16.3
66.9456,248.7
66.9614,400.6
66.9755,19.6
66.976,437.5
66.9791,471.9
66.9858,437.7
66.9916,405.2
67.025,727.8
67.0457,17.9
67.0476,18.9
67.0514,20.1
67.0538,35.7
67.0853,139.9
67.092,204
67.1046,144.3
67.1111,301.5
67.1173,125.4
67.1479,326.5
67.165,18.3
67.1852,17.7
67.1887,17.8
67.2144,370.9
67.2151,650.4
67.2226,367.9
67.2244,399.3
67.2449,348.9
67.2536,631.4
67.257,139.3
67.2585,15.6
67.2692,452.4
67.2826,117.4
67.2958,539.1
67.2976,167.3
67.306,219.4
67.3103,392.7
67.3169,321.9
67.3224,133.3
67.3379,210.5
67.3556,397.7
67.3603,175.6
67.3745,17.5
67.3851,167.9
67.387,495.3
67.3982,20.1
67.4149,596.5
67.4245,327.4
67.4405,173.2
67.4712,204
67.5073,140.8
67.5091,207.4
67.5361,574.8
67.5562,18.2
67.5864,310.5
67.588,202.5
67.5995,18.4
67.605,17.5
67.6648,175.9
67.6666,19
67.6739,19.4
67.6807,435.5
67.6939,18.9
67.7222,242.3
67.7367,356.5
67.7403,426
67.7433,152.9
67.7511,16.8
67.7657,16.6
67.7718,398.5
67.7817,210.3
67.798,239.1
67.8105,389
67.8194,119.2
67.8292,270.7
67.8406,168.4
67.8427,310.7
67.8652,596.9
67.8701,370.1
67.8943,643.9
67.8958,16.4
67.9078,19.7
67.9411,16.7
67.9458,276.5
67.9662,186
67.985,161.6
67.9891,333.1
67.9924,468.7
68.0004,119.9
68.0041,172
68.0108,184.1
68.015,455.9
68.0373,144.8
68.107,215.3
68.1264,379.9
68.1294,159.6
68.1383,130.2
68.1571,521.9
68.1652,165.6
68.1753,325.8
68.1813,439.1
68.1894,327
68.2184,83.5
68.2294,128.8
68.2326,277.7
68.2359,166.6
68.2673,104.4
68.2748,401.7
68.2793,142.9
68.3713,435.1
68.3728,189
68.3781,303.1
68.3885,17.6
68.3922,774.8
68.4093,208.9
68.4203,105
68.4246,649
68.4365,353.8
68.4489,16.1
68.4524,1170.2
68.4647,153.9
68.4917,343.7
68.4935,385.1
68.503,218.2
68.5491,497.5
68.5569,185.6
68.5602,594.3
68.5682,376.8
68.5713,371.5
68.581,379.5
68.5926,105.8
68.5932,100.1
68.5977,443.4
68.6196,227.5
68.6453,15.4
68.6529,497.7
68.6625,149.8
68.6716,239.4
68.6777,353
68.6796,19.7
68.6852,23.8
68.6936,158.4
68.7111,480.2
68.7144,131
68.7308,527.6
68.7334,117.7
68.7451,398.5
68.7495,255.6
68.7711,16.4
68.7853,100.1
68.7974,671.2
68.8131,140.1
68.8168,267.2
68.8215,269
68.8383,128.5
68.876,172.7
68.8778,20.2
68.887,330
68.9066,332.2
68.9396,354
68.9505,683
68.9654,146.3
68.9709,18.1
68.9966,478.1
69.0081,143
69.0268,18.1
69.0514,406.9
69.0529,208.3
69.0581,125.7
69.0662,322.8
69.0748,18.7
69.093,391.3
69.1026,158.6
69.1208,260.5
69.1471,17.9
69.1831,197.6
69.1842,173.8
69.1857,17.1
69.1969,683.9
69.2072,299.8
69.2141,449.4
69.2165,16.4
69.232,110.4
69.2413,583
69.2441,391.5
69.249,21.1
69.2543,118.9
69.2678,325.3
69.2862,247.9
69.2922,493.3
69.3019,144.9
69.3038,221.1
69.3342,149.8
69.352,131.3
69.4263,562.3
69.4324,612.1
69.4652,392.8
69.4961,679.9
69.5114,449.8
69.5221,102
69.5331,339
69.5821,135.2
69.5907,629.2
69.5924,159
69.5991,713.3
69.6269,420.7
69.6471,16.9
69.6628,208.3
69.6674,543.5
69.6879,751.7
69.6973,707
69.7004,276.3
69.7041,635.4
69.7063,142
69.7285,17.1
69.7656,441.8
69.7866,347.2
69.789,16.6
69.8112,130.5
69.8182,347.7
69.929,226.2
69.9467,151.4
69.9658,225.1
69.9735,368.9
69.9933,244.2
70.0224,131.1
70.0338,421.2
70.0375,449.3
70.0513,18.5
70.0589,152.3
70.0648,200.6
70.0709,17.5
70.0737,150.3
70.0828,101.3
70.0862,560.3
70.1049,124.2
70.1263,448.3
70.1501,176.5
70.1627,514.6
70.1782,247.9
70.2009,320.3
70.2296,136.6
70.2693,705.5
70.2752,315.3
70.2787,335.2
70.2836,17.4
70.2935,715.9
70.3149,132.6
70.3372,17
70.3497,172.7
70.3623,152
70.3667,98.5
70.4015,277.7
70.4467,170.3
70.4523,390.8
70.4659,736.4
70.4686,354.1
70.4714,160
70.4891,403.8
70.4965,346.9
70.5035,16.1
70.5113,361.8
70.5492,249.2
70.5812,222.8
70.5909,31.5
70.625,350.1
70.6713,382.6
70.6768,213.3
70.7112,344.9
70.722,232
70.7402,359.2
70.7542,16
70.7873,236
70.8029,169
70.8152,334.9
70.8176,709.8
70.8243,183.4
70.8404,81.1
70.8478,604.2
70.854,526.3
70.8626,18.3
70.897,116.4
70.9018,161.3
70.9033,664.8
70.9142,321.7
70.9287,17.1
70.9415,19.1
70.946,20
70.965,143.5
70.9661,182.1
70.9781,213.7
70.9861,232.1
71.0227,131.6
71.0275,18.1
71.0307,257.2
71.0358,189.9
71.0417,491.5
71.0481,400.3
71.0619,17.6
71.0829,215.8
71.088,182.4
71.0993,230.3
71.104,390.9
71.1073,137.1
71.1259,17.7
71.1418,18.7
71.1455,227.8
71.1693,565.3
71.1797,353.9
71.2034,141.9
71.2082,162.5
71.2106,348.6
71.2445,498.6
71.2812,331.5
71.3016,144.3
71.322,237.9
71.3237,232.7
71.3739,303.1
71.3785,158.5
71.3813,283.3
71.3999,17
71.4175,437.2
71.4413,16.1
71.444,153.6
71.4535,161.6
71.4618,120.5
71.4816,17.3
71.4823,454.7
71.501,119.6
71.5119,359.2
71.5301,17.3
71.5346,134.2
71.5399,415.7
71.5458,18.5
71.5728,16.4
71.5739,146.3
71.5853,246.9
71.6011,334.8
71.6197,85
71.6279,19.7
71.6354,384.6
71.6668,133.9
71.673,234.7
71.684,303.1
71.7142,518.4
71.7149,16.9
71.7249,308.3
71.7475,359.4
71.7562,203.6
71.7627,253.2
71.7786,332.9
71.8031,122.7
71.8128,17.2
71.8203,123.3
71.8255,155.8
71.8314,18.5
71.8377,363.3
71.8467,129.5
71.8553,244.5
71.8644,352.6
71.8718,17
71.8781,104.6
71.8788,531.6
71.9271,131.6
71.9385,572
71.9597,526.8
71.9777,82.8
71.9963,203
72.0035,99.6
72.0225,436.5
72.0483,721.7
72.0533,294
72.0623,237.1
72.0805,309.6
72.0823,255.9
72.0977,407.4
72.1006,84.9
72.1076,389.8
72.1085,119.8
72.1119,380.9
72.1229,79.4
72.1306,18.1
72.1403,208.3
72.1543,194.8
72.1592,485.7
72.1702,131.2
72.1717,574.7
72.1837,400.4
72.1867,421.9
72.197,391.4
72.2211,190.6
72.2219,285.1
72.2238,1095
72.2248,761.8
72.2254,164.8
72.2272,670.7
72.2282,590.7
72.2295,1521.7
72.2306,2247.4
72.2318,2278
72.2332,2011.1
72.2342,3996.9
72.2346,3803.3
72.2356,3970.7
72.2364,3601.5
72.2373,5510.6
72.2387,3002.1
72.2394,3396.6
72.2402,2552.2
72.2407,3771.8
72.2418,1644.5
72.2425,2584.7
72.2432,3031.7
72.2438,1498
72.2447,1636.9
72.2452,882.8
72.2459,310.6
72.247,1613.1
72.2479,298.1
72.2489,21.1
72.2494,327.5
72.2505,647.5
72.2517,327.6
72.2527,20.6
72.2536,347.1
72.2543,589.9
72.255,310.5
72.2613,271
72.2868,317.6
72.3006,85.6
72.309,169
72.3237,584.5
72.3293,840.1
72.3354,176
72.3377,325.3
72.3645,229.5
72.3666,137.3
72.3793,151.5
72.3822,527.2
72.4138,602.2
72.4573,22.2
72.4603,20.9
72.4884,18.2
72.4923,16.1
72.5334,150
72.5462,166.5
72.5557,126.3
72.5715,19
72.5812,20.2
72.6086,366
72.6201,347.9
72.6307,17
72.6438,139.7
72.6793,88.3
72.6934,18.7
72.7079,206.5
72.713,264
72.726,138.2
72.7389,391.5
72.7459,240.5
72.7527,18.2
72.7544,229.8
72.8112,490.6
72.8203,653.5
72.8357,397.2
72.8448,322.2
72.8867,16.9
72.911,172
72.9156,234.4
72.9171,152.8
72.9242,393.8
72.9307,16.6
72.9339,631.5
72.9368,958
72.9442,17.9
72.9867,311.1
72.9942,209.8
73.0083,113.8
73.0361,130.4
73.0507,347.3
73.0632,612.3
73.0697,419.4
73.0842,596.1
73.091,99.7
73.1137,447.2
73.1185,172
73.1358,245.7
73.1561,114.6
73.2029,18.2
73.2144,374.4
73.2327,136.3
73.2526,133.2
73.3039,355.4
73.3135,270.6
73.3191,256.5
73.3315,180.3
73.3358,151.3
73.3415,376.4
73.3432,158.2
73.3465,287.9
73.3474,17.7
73.375,18
73.3893,155.8
73.4025,99.4
73.4072,491
73.4399,218.2
73.4499,111.4
73.4988,372.4
73.503,16.7
73.5059,493.7
73.5069,567.5
73.5247,15.7
73.5615,122.1
73.5719,19.7
73.592,145.6
73.5962,19.2
73.6446,229
73.6467,347.8
73.6479,17.1
73.6648,153.2
73.675,108.8
73.72,555
73.7551,303.7
73.7653,817.7
73.7762,347.1
73.7794,626.5
73.7807,709.2
73.8018,583.4
73.8047,341.4
73.8052,322.2
73.8114,301.9
73.8346,387.7
73.8441,120.8
73.8458,133.7
73.8633,231.8
73.8718,261
73.8794,374.8
73.8898,117.2
73.898,689.3
73.9179,368.5
73.9192,642.2
73.933,16.4
73.9651,113.3
73.9696,348.7
73.9814,662.7
74.0102,615.8
74.0515,557.2
74.0525,671.1
74.0597,551.8
74.1828,482.5
74.2051,120.9
74.214,293.9
74.2247,482.8
74.2431,175.4
74.3091,141.1
74.3234,324.8
74.3291,140.4
74.3417,314.8
74.3516,809.2
74.3723,151.2
74.3771,250.9
74.3848,142.6
74.3983,204.1
74.4165,18.2
74.4188,382.4
74.4293,488.7
74.4654,144.8
74.4671,286.9
74.4727,342.6
74.4772,410.6
74.4852,222.3
74.5141,176.5
74.5156,372.6
74.5212,192.1
74.5237,396.1
74.5313,194.2
74.5319,16.6
74.5356,329.8
74.5414,168.2
74.5579,251.2
74.5704,110.3
74.5752,535.2
74.5854,266.8
74.5904,192.4
74.617,154.9
74.6205,185.2
74.6526,283.6
74.6742,195.9
74.6988,104.2
74.7185,584.6
74.7309,80.9
74.7506,233.4
74.7665,503.8
74.7769,17.4
74.7776,136
74.7839,642.3
74.8224,180.8
74.8337,17.8
74.8345,17.6
74.8481,305.2
74.8715,696
74.8798,223.4
74.8832,211.2
74.8899,219.3
74.9065,20.7
74.9091,269.1
74.9207,763.9
74.9258,553.2
74.9315,180.2
74.9344,241.1
74.9372,18.3
74.939,16.2
74.9462,230.6
74.974,17
74.9841,373.5
75.0388,20.5
75.0434,162.6
75.0473,160.7
75.0583,767.9
75.0891,416.3
75.1066,421.4
75.1076,17.5
75.1307,19.4
75.1498,15.5
75.162,509.2
75.1626,166.8
75.1649,603.3
75.1884,97.5
75.2346,17
75.2518,294.9
75.3107,147.9
75.3243,292.8
75.3442,17.9
75.3946,475.8
75.4037,382.7
75.4374,427.4
75.4627,136.6
75.4884,374.7
75.4953,240.8
75.5013,323.5
75.5159,610.2
75.5457,323.5
75.5523,18.5
75.5534,666.4
75.5819,157.3
75.6203,127.1
75.6301,552.4
75.634,359.5
75.6613,17.7
75.6765,229.3
75.7083,146.6
75.7106,16.3
75.7162,618.6
75.7174,195
75.7199,474.1
75.7352,17.3
75.7576,656.6
75.7708,18.9
75.7767,17.5
75.7841,346.9
75.8098,153
75.8174,134.4
75.8374,171.3
75.8424,146.5
75.863,119.5
75.8706,668.2
75.9206,18.5
75.9226,383.9
75.9331,19.7
75.976,274
76.0088,277.2
76.0175,178.8
76.0218,175.7
76.0415,16.8
76.0452,155.2
76.0618,272.8
76.0641,179.6
76.0836,281.9
76.0899,210.1
76.108,468.4
76.1466,157
76.2165,168.9
76.2261,125.9
76.2327,247
76.249,154
76.2519,219.3
76.2774,111.4
76.2883,269.8
76.3213,239.6
76.3414,389.6
76.3557,211.4
76.3565,124.6
76.3665,259.8
76.3684,219.6
76.4266,169.7
76.5322,167.5
76.5644,342.8
76.565,19.3
76.5705,282.3
76.5728,226.8
76.5943,261.6
76.5993,175
76.6116,23.4
76.6188,324.5
76.6197,334.6
76.6342,244.2
76.6724,108.9
76.6776,141.7
76.6797,524.7
76.7165,124.1
76.735,266.9
76.7572,181.6
76.7682,133.2
76.7708,126.9
76.781,123.3
76.7828,596.2
76.7832,300.7
76.7876,191
76.7922,17.8
76.7997,293.1
76.8231,19.2
76.8451,253.9
76.8484,650.9
76.8563,233.1
76.8687,107.1
76.8704,342.9
76.8717,16.4
76.8738,124.2
76.8746,19.6
76.8797,18.2
76.8898,200.7
76.9327,15.8
76.9403,393.5
76.9592,411
76.9738,175.1
76.9872,300.2
76.9913,18.5
76.9956,470.8
77.0024,268.7
77.0247,600.1
77.031,381.6
77.0347,33.5
77.0353,244
77.0383,99484.1
77.0392,228.6
77.0459,325.6
77.0477,19.4
77.0559,181.6
77.0845,264.9
77.0856,17.4
77.0896,159
77.0913,17.9
77.0963,159.7
77.098,20.7
77.1475,350.6
77.1829,127.5
77.2047,130.1
77.2316,506.4
77.2562,527.3
77.2603,18.8
77.2961,18.6
77.3092,18.4
77.3319,226.9
77.34,285.3
77.3557,123.3
77.3685,393.3
77.383,20
77.3873,129
77.3942,395.9
77.4001,248.6
77.4347,221.7
77.4445,153.4
77.4549,20.3
77.4569,133.9
77.4632,245.1
77.5196,324.9
77.5271,283.4
77.5422,18.5
77.5451,275.3
77.557,19
77.5621,521.4
77.5631,337
77.5648,265.5
77.575,148
77.5817,20.4
77.5904,229.7
77.601,287.1
77.6195,17.6
77.6349,236.1
77.6625,158.2
77.6763,232.4
77.6874,397.4
77.7038,126.2
77.7161,429.4
77.7264,22.2
77.7349,219.6
77.7357,521.4
77.7485,173.5
77.7682,196.2
77.8054,362.5
77.8211,367.2
77.8634,19.2
77.8677,222.4
77.9088,18.3
77.9576,385.4
77.9738,421.4
77.9888,19.2
78.0047,144.2
78.0141,325.5
78.0249,108.3
78.0342,159.3
78.0381,157.4
78.0417,2544.4
78.0431,18
78.0461,17.8
78.0844,23.4
78.097,328
78.1,109.4
78.1063,667.5
78.108,19.4
78.1642,106.8
78.1678,491.4
78.193,146.4
78.1982,377.9
78.232,534.8
78.2327,129.6
78.2676,318.2
78.2702,341.4
78.2948,17.9
78.3054,286.3
78.3166,440.6
78.3173,518.2
78.3489,204.4
78.3559,471.3
78.3589,385.8
78.3984,98.4
78.419,109
78.423,214.8
78.4941,398.7
78.5034,134.2
78.5085,369.5
78.5104,130.2
78.5457,309.7
78.5495,21.6
78.5616,300.3
78.5701,331.8
78.5918,85.3
78.5965,635.5
78.6051,331.2
78.6134,302.6
78.6312,268.2
78.6435,304.5
78.6677,433.6
78.6678,433.9
78.6781,512
78.6818,172.2
78.6928,19.2
78.7085,170.2
78.7292,545.8
78.7634,94.9
78.7656,646.2
78.7683,333.2
78.8047,565.7
78.8166,106.6
78.8421,137.9
78.8482,18.2
78.8489,229.3
78.862,194.9
78.8719,125.6
78.8924,1136.4
78.8964,19.2
78.9144,517.6
78.9243,190.7
78.9517,296.7
78.9614,513
78.9968,140.2
79.0001,146.9
79.013,133
79.026,173
79.0302,234.6
79.0539,1235.8
79.0633,342.8
79.0973,490.6
79.1553,121.8
79.1737,426.9
79.1752,181.6
79.1856,37.8
79.1969,794.8
79.2164,122.6
79.231,22.3
79.2501,227.3
79.2546,122.8
79.2728,262.4
79.3018,471.2
79.3146,138.8
79.3654,402.5
79.3991,186.2
79.4511,124.1
79.455,216.7
79.4729,96.6
79.4823,355
79.4857,393.8
79.4863,133.4
79.4918,17
79.5001,610.2
79.5088,227.8
79.5278,172.1
79.5377,94.7
79.5686,357.5
79.6184,515.6
79.6445,21.9
79.7011,107.4
79.7122,132.3
79.7158,16.6
79.7426,322.7
79.7436,20.7
79.7549,423.7
79.783,163.1
79.8294,350.3
79.8388,16
79.8395,17.7
79.8573,363.9
79.8651,18.7
79.886,16.5
79.9029,199.2
79.9324,254.2
79.9616,508.6
79.9741,414.3
79.9763,246.2
79.9798,206.2
79.9823,214
80.016,121.4
80.0556,213.6
80.0571,140.8
80.0704,205.5
80.0728,336.8
80.0764,19
80.0806,329.3
80.095,557.3
80.1685,288.9
80.1783,17
80.1947,121.5
80.2011,364.3
80.2168,444.2
80.2186,755.2
80.2552,121.5
80.2621,379.5
80.2628,276.1
80.274,17.7
80.2959,330.3
80.3068,123.9
80.3431,124.3
80.3648,131.9
80.3663,231.2
80.3682,392.1
80.375,279.4
80.3959,451.7
80.4086,671.1
80.4287,115.9
80.449,625.6
80.4542,191.4
80.4922,162.3
80.5021,526.9
80.5413,146.7
80.542,17.1
80.5629,167.3
80.5852,314.6
80.6007,362.6
80.6385,135.6
80.6402,597.7
80.6445,308.7
80.666,112.2
80.6717,665.4
80.6843,228.3
80.7266,19.1
80.7563,334.5
80.7647,156.7
80.785,178.8
80.7854,171.4
80.8502,147.6
80.8613,431.9
80.8866,276.3
80.8942,125
80.9206,669.8
80.9476,33232
80.9807,280.8
80.9826,200.2
80.9836,505.3
80.9847,600.8
81.0669,328.5
81.0678,439.2
81.0682,452.5
81.0696,635.7
81.0779,377.3
81.0996,146.1
81.1613,620.5
81.178,142.9
81.1794,753.3
81.1796,802.9
81.1809,621
81.182,220.5
81.1834,1566
81.1926,137.1
81.2004,18.1
81.2035,21.7
81.2129,242.9
81.2435,257.1
81.2562,127.6
81.2606,104.8
81.2623,259
81.2646,122.6
81.2738,629.8
81.2934,272.1
81.2996,147.7
81.3333,18.2
81.3677,146.1
81.3749,550.7
81.3867,120.4
81.388,23.2
81.4221,212.1
81.4243,453.2
81.45,17.3
81.4635,140.1
81.4719,97.2
81.5105,227.9
81.5187,654.4
81.5223,492.3
81.5236,490.6
81.537,133
81.5542,18.8
81.5562,145.8
81.5614,410.8
81.5652,171.7
81.5735,753.3
81.5748,322.7
81.5848,19.2
81.5903,493.7
81.6095,144.7
81.6331,315.1
81.6404,21.1
81.6416,17.1
81.6459,17.9
81.6469,344.9
81.7312,155.3
81.7458,132.5
81.7613,261.4
81.7724,423.2
81.7741,77.2
81.7872,129.2
81.8062,123.8
81.8184,475.8
81.8391,160
81.8662,254.5
81.8703,124
81.8888,232.3
81.8945,152.5
81.9002,319.4
81.9121,19.6
81.925,284.5
81.9346,170.2
81.9449,18.9
81.9494,220.3
81.9573,21.1
81.9594,141
81.9666,20
81.9833,143.8
81.9839,134.7
81.9873,682.2
81.9877,627.5
81.996,17
82.0227,193.2
82.0324,241.6
82.0641,458
82.0654,415.3
82.0794,83.6
82.11,19.8
82.1164,20.2
82.129,112.1
82.1305,262.5
82.1877,335.9
82.1924,380.2
82.2111,136.3
82.262,209.1
82.269,20.2
82.285,326
82.2998,200.3
82.3215,316.7
82.3368,313.9
82.3442,17.8
82.3604,379.3
82.373,258.5
82.4183,100.5
82.4246,143.9
82.4275,366.5
82.441,546.3
82.4482,18.6
82.462,19.9
82.4936,215.4
82.4959,233
82.4991,550.8
82.5024,759.9
82.5129,230.6
82.5196,640
82.5434,16.6
82.5457,332.3
82.5486,391.8
82.5502,17.1
82.5588,18.6
82.5637,293.6
82.581,162.9
82.5844,245.9
82.603,231.4
82.6288,784.3
82.6317,306.3
82.6517,694.3
82.6578,17.1
82.7013,186.5
82.7607,432.7
82.8555,163.9
82.8782,293.5
82.8852,130.5
82.8862,649.4
82.8902,230.5
82.8909,176.8
82.8947,136
82.9012,134.2
82.9054,18.7
82.9447,8152.8
82.9586,215.4
83.0187,111.8
83.0213,158.4
83.0355,19.9
83.0552,418.1
83.0568,195.5
83.0684,18.2
83.0826,18.5
83.0857,747.3
83.0888,285.7
83.1158,119.4
83.1291,483
83.1576,18.5
83.1648,208.5
83.2051,236.8
83.2123,403.9
83.2178,177
83.2425,238.7
83.2447,444.6
83.2496,179.4
83.2724,314.9
83.3019,17.7
83.3175,460.8
83.3292,259.5
83.3434,157.5
83.3488,171.2
83.3558,18.7
83.3592,19.1
83.3611,284.1
83.3822,453.9
83.3979,256.6
83.4123,18.5
83.4342,123.2
83.4471,386.6
83.4812,322.8
83.4822,354.3
83.4851,249.2
83.5326,117.1
83.559,126
83.6228,16.1
83.6396,163.7
83.6432,288.3
83.6438,135.7
83.6519,561.5
83.7431,15.9
83.7472,236.1
83.7522,111.1
83.8142,324.7
83.8286,211.2
83.8458,129.7
83.8469,427
83.8544,498.4
83.8659,243.4
83.8815,516
83.8826,75.2
83.8926,170.2
83.9334,111.4
83.9393,181.1
83.9581,468.7
83.9737,399.6
83.9756,142
83.9824,368.8
83.9979,273.4
84.0061,19.2
84.0119,333.8
84.0375,373.5
84.0465,609.1
84.0764,348.5
84.0783,155
84.1387,715.9
84.1466,407
84.177,207.5
84.1951,196
84.2193,184
84.233,245.4
84.2514,16.6
84.2931,209.9
84.303,18.9
84.3169,174
84.3315,293.1
84.3398,156.3
84.3699,102.2
84.3899,162.1
84.3977,118.1
84.4057,235.2
84.448,287.5
84.4599,263.3
84.4612,17.8
84.4773,17.5
84.4912,472.3
84.5516,213.9
84.5591,649.1
84.5858,236.2
84.6067,237.8
84.637,186.7
84.6381,189.6
84.6483,218.9
84.6493,353.2
84.6524,248.1
84.663,115.6
84.6792,124.5
84.6896,134.8
84.7092,303.6
84.7498,16.6
84.7581,424.4
84.7637,186.7
84.7736,259.5
84.7744,19.8
84.7995,18.3
84.8129,501.5
84.8353,243.6
84.8622,17.8
84.8736,389.7
84.9315,345
84.9525,17.3
84.9595,10473.3
85.0281,975.7
85.031,367.8
85.0633,709.5
85.1151,494.8
85.2448,227.8
85.2641,143
85.2756,84.8
85.2767,347
85.2906,20.3
85.3237,130.2
85.3353,20.7
85.385,328.9
85.3973,261.8
85.4096,433.2
85.4119,643.8
85.4166,761.6
85.4355,375.4
85.4404,209.7
85.4499,195.6
85.478,104.1
85.4938,131.9
85.5267,152.4
85.5498,177.5
85.5719,236.7
85.6087,538.5
85.64,313.2
85.6412,339
85.654,267
85.6679,112.2
85.7012,96.8
85.7113,246.6
85.7298,396.1
85.7319,227.2
85.7498,382.8
85.7553,223.8
85.7912,759.4
85.8014,181
85.8218,352.1
85.8539,17.3
85.8779,693.4
85.8956,447.1
85.9128,223.8
85.9197,417.2
85.9338,17.2
85.9408,461.8
85.9509,328.1
85.959,206
85.9703,18.9
85.9803,559.9
85.9963,140.4
85.9994,100.5
86.0099,19.8
86.0362,18.3
86.044,463.6
86.0476,124.4
86.0497,204.4
86.0539,353.2
86.0598,17550.1
86.0647,102.8
86.0661,216.7
86.0755,427.3
86.0787,494.3
86.0962,93608.2
86.0999,462.4
86.1012,607.3
86.1047,100.3
86.1131,218
86.1686,260.7
86.1719,116.2
86.1948,18.5
86.2048,334.3
86.216,508.3
86.2554,163
86.2678,333
86.2904,161.8
86.313,364.6
86.3194,679.5
86.3474,238.1
86.3505,18.1
86.3766,322.1
86.3925,585
86.3947,400.1
86.4043,424.9
86.4061,20.8
86.4485,408.6
86.4675,449.2
86.4778,121.8
86.4791,300.1
86.4849,630
86.4868,137.9
86.542,368.7
86.5436,326.9
86.5547,117.2
86.6039,139.1
86.6066,237.8
86.6285,315.4
86.6306,381.3
86.6428,317.2
86.6699,192.8
86.6757,441.9
86.7597,16.1
86.7658,225.8
86.7939,224.5
86.8018,169.6
86.809,141.9
86.8208,212.2
86.8519,282.8
86.8659,230.7
86.8812,180.1
86.8838,143.7
86.9125,187.2
86.9176,19.5
86.9185,500.8
86.9212,307.8
86.9229,411.8
86.9282,18.1
86.9525,87.3
86.9608,169.1
86.9631,413.3
86.9681,657.2
86.9712,449.8
87.0098,411.4
87.0824,364.4
87.1181,190.7
87.136,16.6
87.1392,521.2
87.1588,406.1
87.166,252.9
87.2802,113.2
87.3231,442.9
87.3251,17.6
87.3421,17.8
87.3594,127.3
87.3683,444.2
87.408,301.4
87.431,115.2
87.4625,173.3
87.4665,308
87.4815,187
87.5025,153.3
87.5287,470.5
87.5588,442.9
87.5631,165.6
87.5658,194.1
87.581,225.5
87.5837,464
87.591,204.3
87.6254,284.3
87.6321,145.3
87.6419,23.9
87.6567,129.2
87.661,513.8
87.6671,525.6
87.6707,19.9
87.6816,533.8
87.7561,192.5
87.8144,291.2
87.8166,180.4
87.8197,18.2
87.8296,122.2
87.8485,290.9
87.8642,656.1
87.8669,295.1
87.8725,659.9
87.8799,462.7
87.9384,422.8
87.939,148.3
87.9492,165.4
87.9686,157.9
87.9736,225
88.0103,161.4
88.0211,17.3
88.0314,149.9
88.0391,1923.2
88.0422,188.9
88.0477,428.3
88.0543,110.4
88.0551,17.5
88.1131,17.5
88.1166,139.7
88.1185,567.7
88.1345,21
88.1494,245.6
88.1758,134
88.1809,624
88.2188,194.8
88.2337,18.9
88.2765,150.3
88.2968,680.7
88.3096,394.6
88.319,124
88.3253,20.7
88.3658,142.3
88.3923,19.5
88.3927,151.4
88.4156,134.2
88.4229,140.8
88.4337,273.3
88.4355,454.8
88.4493,347.8
88.5217,185.1
88.5463,19.5
88.5502,434.6
88.5536,18.3
88.5917,753
88.6039,417.7
88.6417,714.1
88.6427,20.2
88.6563,185.7
88.7189,19.3
88.7357,503.1
88.7444,342.1
88.7545,649.4
88.7637,155.8
88.8345,452.8
88.8541,175.6
88.8857,132.1
88.892,85.8
88.8926,643.9
88.903,280.3
88.9168,277.8
88.9181,20.3
88.9522,114.6
88.9547,678.3
89.0416,18.6
89.043,427.7
89.0438,663.4
89.0605,15.3
89.0784,212.7
89.1011,462
89.1023,346.8
89.1131,78.9
89.177,17.6
89.1852,485
89.1928,208.8
89.2072,146.6
89.2104,371.6
89.2461,312.4
89.2483,411.5
89.2769,181.6
89.3217,222
89.3399,360.2
89.3857,168.8
89.4202,485.8
89.4506,137.1
89.4838,21.9
89.5375,110.6
89.5551,156
89.5685,139.1
89.5726,355.1
89.5897,506.4
89.5959,16.9
89.6029,414.8
89.6079,360.8
89.6455,241.1
89.658,144.7
89.6669,215.8
89.6731,370
89.6789,309.5
89.6806,716.2
89.695,16.3
89.7045,17.6
89.7191,345.3
89.8115,167.1
89.8236,18.8
89.8474,466.6
89.9024,105.8
89.9195,327.6
89.9507,26.6
89.9608,21.1
89.9635,432.6
89.9814,156.4
89.9931,186.9
90.0169,164.2
90.0282,148.9
90.0461,738.1
90.0706,329.8
90.103,289.3
90.1563,208.5
90.1742,232.1
90.1912,194
90.2317,129.2
90.2377,384.4
90.2517,147.2
90.2558,19.9
90.2578,334.2
90.2847,258.6
90.3205,515.7
90.3256,163.7
90.3335,142
90.3834,332.1
90.3936,559.3
90.3952,458.4
90.4036,581
90.4085,438.1
90.4448,114
90.4521,394.5
90.5117,136.2
90.5514,406.8
90.5619,16.3
90.5632,18.2
90.5739,247.5
90.5807,183.1
90.6378,265.3
90.6418,199.7
90.6443,18.5
90.6658,163.7
90.7057,137.4
90.7374,93.9
90.7629,350.1
90.7649,538.3
90.7939,404.5
90.7993,148.4
90.8706,348.2
90.9031,209.3
90.91,360.5
90.9415,191.3
90.9475,3866.9
90.9493,286.1
90.9764,7264
91.0074,18.6
91.0175,159.6
91.0222,458.8
91.054,2027.1
91.0667,320.1
91.067,379.2
91.0673,283.6
91.0886,245.4
91.0997,158.4
91.1104,402.9
91.1395,216.7
91.1799,407.9
91.2098,17.1
91.2152,17.9
91.2219,472.5
91.26,239.1
91.2627,205
91.2701,15.4
91.3061,176.3
91.3112,150.7
91.3194,625
91.327,465.5
91.3281,417.1
91.351,123.5
91.3641,430.8
91.3733,288
91.3749,231
91.3885,442.6
91.4063,131
91.4362,120.6
91.4473,337.4
91.4768,18.2
91.5082,239
91.5503,259.9
91.5703,462.9
91.5743,384.9
91.5813,138.1
91.6021,142.2
91.6144,374.7
91.6305,182.5
91.6427,207.4
91.6445,20.9
91.6463,249.6
91.6578,257.8
91.7037,464.2
91.7048,173.4
91.7078,440.6
91.7118,614.2
91.7384,478.9
91.7636,201.7
91.7788,267.9
91.7983,112.7
91.808,17.5
91.8471,184.3
91.8691,620.2
91.8819,163.1
91.9229,264.8
91.939,342.1
91.951,239.9
92.0047,198.5
92.0069,666.9
92.0476,325.1
92.0493,250.8
92.0541,141.3
92.0788,18.7
92.087,281.8
92.1273,180.2
92.1389,365.6
92.1532,170.1
92.1671,346.2
92.1706,94.8
92.2134,308.3
92.2447,197.2
92.2463,160.6
92.2729,461
92.2756,358.2
92.2943,418
92.3088,666.4
92.3188,445.8
92.3299,325.1
92.3452,155.9
92.3577,20.2
92.4211,158.7
92.4361,146.4
92.4709,433.5
92.4897,178.9
92.5172,487.8
92.5468,547
92.5498,470.7
92.5897,20.2
92.6417,150.7
92.6813,125.8
92.7023,485.6
92.7201,324.5
92.7438,331.1
92.7508,701
92.8244,78.2
92.8405,129.6
92.8438,185.4
92.863,360.9
92.9,44.2
92.9063,362.3
92.9268,18.6
92.9296,222.8
92.9459,296.1
92.9618,385.1
92.9623,649.5
92.9886,108.1
93.0015,118.2
93.0126,550
93.0141,135.8
93.0467,456.3
93.057,19.3
93.1425,169.7
93.1433,263.4
93.151,16.7
93.1617,480.1
93.1777,262.3
93.1863,147.9
93.2049,19.2
93.2216,740.8
93.2466,260.2
93.2663,18
93.3142,208.7
93.3211,215.2
93.3215,217.5
93.3601,656.9
93.3932,209.5
93.4368,379.5
93.4395,155.9
93.4607,308.9
93.4622,338.1
93.4748,438.6
93.4905,445.9
93.5303,146.9
93.5351,141.8
93.5395,454.4
93.5498,343.3
93.5618,590.4
93.5817,122.3
93.6242,257.1
93.6304,658.1
93.6572,147.2
93.6608,169
93.706,134.4
93.7154,487.6
93.7385,19.3
93.7469,151.1
93.7685,232.2
93.7708,206.5
93.8016,446
93.8247,218.9
93.8286,318.4
93.8722,20.5
93.8753,515
93.8984,499
93.9005,414.5
93.9104,265.7
93.9122,192.9
93.9167,18
93.9239,113
93.9665,20
93.9714,93.5
93.9901,439.8
94.0235,372.9
94.0386,292.4
94.0397,714.9
94.0411,44669.4
94.0425,34.1
94.0442,26.7
94.0644,20.9
94.0863,131
94.0956,705.4
94.0972,320.7
94.0982,152.2
94.1122,609.6
94.1538,111.2
94.1568,22.9
94.1733,693.2
94.1828,142.5
94.1851,587.6
94.1988,385.1
94.2391,241.5
94.2653,199.5
94.2836,141.4
94.2881,129.9
94.2919,16.7
94.3066,147.8
94.311,190.3
94.3482,21.5
94.3879,93.4
94.4013,140.7
94.422,109.3
94.4365,242.2
94.4902,148.9
94.5049,260.3
94.5122,193.3
94.5323,578
94.5365,294.7
94.5581,119.9
94.5831,19.9
94.5881,187.7
94.6191,152.8
94.6196,188.2
94.6201,213.1
94.6256,426.6
94.6323,114.6
94.645,423.5
94.6592,16.9
94.6989,159.4
94.7647,22.5
94.7719,117
94.7755,18
94.8768,18
94.9019,179.2
94.9075,434.3
94.9213,411.6
94.9719,174.2
94.9821,172
94.9937,22
94.9985,115.3
95.0086,38.3
95.0155,350.2
95.0223,367.2
95.028,287.8
95.0356,19
95.0445,1052.4
95.0462,44.4
95.047,59.6
95.049,348704
95.0625,28.4
95.0699,480.1
95.0763,18.5
95.0853,793.4
95.1116,496.8
95.1225,334.1
95.1266,134.9
95.17,336.7
95.1729,353.8
95.1999,344
95.2775,306.3
95.2878,267.6
95.2942,21.8
95.3339,392.5
95.3455,509.7
95.3481,379.5
95.3674,192.1
95.4189,201.4
95.4319,390.2
95.4394,134.6
95.4436,139.6
95.5058,596.1
95.5457,150
95.6166,193.1
95.6545,199.7
95.6673,330.8
95.6924,117.6
95.7017,217.4
95.7098,726.9
95.7293,305.1
95.7505,159.3
95.754,21.5
95.7691,17.8
95.8038,260.8
95.8252,136.6
95.8341,597.4
95.8396,181.7
95.8507,149.8
95.9081,354.6
95.9192,328.7
95.9348,526.4
95.9576,532.9
96.0076,279.7
96.0168,88.1
96.0242,390
96.0368,378.2
96.0523,16331.9
96.0551,51.8
96.0607,439
96.105,116.7
96.1162,19.4
96.133,115.1
96.1671,586.4
96.1712,698.9
96.1773,107.7
96.1921,347.4
96.2184,527
96.2304,193.6
96.2962,388.1
96.3131,16.7
96.3186,854.7
96.3204,125.4
96.3304,133.3
96.3485,498.7
96.3635,200
96.392,756.4
96.409,327.1
96.4486,132.7
96.461,318
96.5079,220.9
96.5159,137.7
96.5249,144.4
96.5381,139.5
96.5839,316.5
96.5943,213
96.6316,16.9
96.6522,18.6
96.6896,384.1
96.7126,337.7
96.741,578.6
96.755,342.2
96.7708,332
96.7946,406.5
96.8,178.9
96.8095,416.7
96.8146,143.2
96.8351,203.8
96.8731,219
96.9135,795.4
96.9216,127651.1
96.9374,63.3
96.9412,173
96.9533,123.9
96.9703,429.2
96.9735,228.7
96.9917,126
97.0075,49.2
97.0104,34
97.0531,23
97.0582,521.5
97.0602,16.2
97.0759,22.1
97.1059,371.5
97.1742,273.2
97.2142,378.1
97.2275,17.9
97.2369,16.2
97.2972,408.2
97.3206,133.6
97.341,239.7
97.3498,18
97.3511,136.6
97.3744,321.8
97.4131,122.2
97.4409,131.5
97.446,357.8
97.4522,16.8
97.469,401.9
97.4994,17.1
97.5263,360.3
97.5602,458.5
97.5716,18.2
97.588,479.2
97.6016,214.6
97.6792,21.1
97.7285,174.4
97.7325,174.3
97.7336,162.9
97.7427,169.3
97.79,19.9
97.7969,19.2
97.8309,425.2
97.837,621
97.8582,517.9
97.9373,93.7
97.954,385.1
97.962,683.3
98.0036,467.9
98.0393,144.4
98.0479,252.5
98.0523,229.1
98.0556,20.6
98.0951,406.8
98.1702,194
98.1797,20.2
98.2063,149.6
98.2359,453.8
98.2492,145.3
98.2557,429.8
98.2628,260.9
98.2873,662
98.3121,18
98.3145,17.5
98.3316,124.7
98.333,124
98.3353,17.2
98.3799,197
98.3888,637.4
98.4037,176.6
98.4231,215.9
98.4588,466.2
98.4818,206.4
98.5173,188.8
98.5246,166.9
98.5321,127.6
98.5507,364.6
98.5636,20.6
98.5866,402.3
98.6323,520.9
98.6325,520.3
98.6652,144.7
98.7016,150.2
98.793,17.4
98.8002,177.4
98.8171,339.3
98.8511,149.4
98.88,16.9
98.8941,458.3
98.9122,213
98.9187,32121.9
98.9197,4825.7
98.9738,20.9
98.9752,13690.7
98.9796,169.9
98.9824,221.1
98.984,232.3
98.9986,17.7
99.0469,223.9
99.0572,332.3
99.0682,147.2
99.0974,391.9
99.1494,223
99.1525,106.8
99.1849,295.3
99.1954,549
99.2449,259.4
99.267,21.2
99.2929,172.8
99.3118,333.9
99.3436,513.3
99.3722,19.3
99.4036,471
99.4095,535
99.4195,271.7
99.4307,287.5
99.4524,335.8
99.5232,18.5
99.5712,212.7
99.5805,141.5
99.5817,17.5
99.6041,419.5
99.7016,303
99.7189,141.8
99.7288,293.2
99.7454,194.3
99.7577,703.3
99.7688,118.9
99.7823,193.1
99.789,180.5
99.7987,354.7
99.8153,132
99.8184,287.3
99.8291,531.3
99.8756,21.6
99.9254,218
99.9277,276
99.9282,298.6
99.9562,144.4
99.9706,329.7
99.9944,554
99.9976,165.7
100.036,690.4
100.0765,288.8
100.0913,157.9
100.1075,708.1
100.1147,142
100.1173,394.6
100.1508,227.2
100.1883,21.3
100.2107,17.2
100.2141,20.6
100.2457,20.7
100.2877,313.4
100.3305,500
100.4144,206.3
100.4356,194
100.444,605.1
100.4721,271.7
100.4799,169.9
100.4912,368.2
100.5129,438.9
100.5183,332.8
100.5239,352.1
100.5541,611.3
100.5962,502.4
100.6195,126
100.6568,328.8
100.7453,133.7
100.7791,320.2
100.7796,281.2
100.783,190.6
100.7896,16
100.8669,247.7
100.8966,271.9
100.9007,336.4
100.9021,140.2
100.907,277.3
100.9168,1070.8
100.9312,250
100.9367,425.5
100.9388,19
100.947,142.7
100.9554,240
100.9646,226.7
100.9775,171.3
101.0157,473.3
101.0211,609.1
101.0271,215.5
101.0544,388.7
101.0638,250.8
101.0707,676.5
101.0926,208.4
101.0952,122.8
101.0962,123.4
101.1343,117.1
101.1423,390.2
101.1439,315.1
101.1492,287.7
101.1988,505.5
101.2348,186
101.2559,237.6
101.2652,386
101.3,261.1
101.3035,148.7
101.3214,321.4
101.3256,263.6
101.3279,265.3
101.346,183.7
101.3683,260.5
101.3822,156.9
101.404,17
101.4071,300.5
101.4391,19.2
101.4468,596.7
101.4589,342.2
101.4941,19.6
101.5067,295.6
101.5077,450.6
101.5167,19.5
101.5782,107.4
101.626,150.8
101.6297,18.1
101.64,17.2
101.6451,154.7
101.6511,509.3
101.7388,137.9
101.7562,204.6
101.8081,393.1
101.8115,145.5
101.8488,468.8
101.8507,379.6
101.8758,311.7
101.9316,365.8
101.9404,284.4
101.9635,420.1
101.9707,18.6
102.0267,228.5
102.0547,129.4
102.0601,408.1
102.0625,601.3
102.0659,124.2
102.0978,610.7
102.1432,287.2
102.1522,136.8
102.1627,426.2
102.1796,466.8
102.189,150.1
102.1913,22.8
102.1996,343.6
102.2031,597.3
102.2414,345.1
102.2455,352.2
102.2978,204.3
102.306,218.5
102.3222,17.2
102.3285,212.8
102.3626,18.7
102.3926,158.7
102.3943,205.4
102.4535,724.6
102.4853,118.9
102.4898,233.3
102.492,200.8
102.5048,542.2
102.5145,172.8
102.5185,17.4
102.6023,17.6
102.6085,226.2
102.6132,340.3
102.6228,149.8
102.6281,168.2
102.6636,202
102.6758,385.7
102.7468,284.4
102.7473,247
102.7503,144.1
102.7675,316.1
102.7739,21.9
102.7845,607.2
102.8212,438.4
102.8349,471.3
102.8756,170
102.8872,375.9
102.8944,19.4
102.9495,100.1
102.9646,328.5
102.9678,77.5
102.9701,394.2
102.9722,139.1
102.9809,151.1
103.0158,132
103.037,324.7
103.054,590.6
103.0768,726.8
103.1453,271.9
103.1476,130.3
103.1534,133
103.1804,563
103.2159,255.5
103.2549,151.3
103.3041,500.6
103.3124,17.6
103.3725,19.1
103.3959,25.2
103.4275,18.1
103.5551,263.5
103.5668,284.8
103.5769,657.9
103.5812,125.2
103.5843,17.8
103.6139,187.8
103.6411,21.3
103.69,98
103.7279,234.4
103.7658,20.3
103.7957,567
103.8094,473.4
103.8151,181.4
103.8229,195
103.8364,592.6
103.8477,18.2
103.871,398.5
103.8879,206.7
103.9022,18.3
103.9189,210.6
103.9471,404.6
103.9753,184.7
103.9792,199.5
103.9832,197.6
103.9843,121.6
104.001,396.3
104.0303,20.3
104.035,113.5
104.0427,17.5
104.0591,251.6
104.0607,352
104.0843,206
104.1068,357735.2
104.1457,141.7
104.1629,88.8
104.1643,134.2
104.2718,706
104.2949,251.3
104.3021,250.5
104.3176,159.8
104.3592,608.7
104.4017,282.4
104.4717,367
104.4895,173
104.5168,414
104.5551,469
104.5665,369.8
104.6018,19.3
104.6087,807.9
104.6134,332.8
104.7056,149.6
104.763,423.4
104.7894,16.9
104.8257,126.5
104.8308,83.7
104.8628,168.8
104.8771,367.3
104.9043,179.7
104.9054,86.3
104.9332,254.5
104.9481,26
104.9557,300.7
104.9632,4373
104.9921,2302.4
105.0292,140
105.0446,30630.5
105.0568,287.2
105.0578,141.2
105.0705,16.6
105.08,17.4
105.1081,327.2
105.1102,14118.2
105.1559,230.5
105.1593,271.2
105.1633,503.5
105.1774,247.1
105.1803,398.2
105.2201,471.5
105.2568,19.4
105.2607,172.8
105.27,17.4
105.2837,123.6
105.3021,16.1
105.3329,253.4
105.356,20.5
105.3966,132.2
105.4123,21.3
105.4364,226.3
105.4552,131.1
105.46,139.6
105.4681,382.7
105.4723,112
105.5093,18.1
105.5127,503.5
105.5678,378.2
105.607,144.8
105.6113,133.7
105.6344,352.3
105.6549,314.5
105.6995,195.7
105.7213,267.1
105.7225,351.3
105.7475,386.3
105.7591,17.1
105.7701,361.2
105.8208,241.5
105.8264,18.4
105.8833,395
105.9303,19.2
105.9453,303.3
105.9469,356.1
105.9517,271.8
105.9797,119.2
105.9801,106.3
106.0039,346.3
106.0109,16.5
106.0231,16.7
106.0479,359.6
106.065,141.4
106.0696,156.5
106.0951,87.1
106.1229,770
106.1615,395.8
106.2322,150
106.2623,351.3
106.2908,133.7
106.3169,273.7
106.3613,232.1
106.4068,273.9
106.45,343.5
106.53,18.7
106.5317,577.5
106.5946,132.3
106.6096,624.9
106.6106,652
106.6366,268.4
106.6478,318.2
106.6837,709.2
106.7013,22.4
106.719,381.4
106.7505,628.4
106.7609,128.8
106.8204,787.9
106.8312,404.1
106.8506,18.8
106.9383,450.6
106.9504,2294.4
106.9531,167.3
106.9563,135
106.9637,24.7
107.0026,177
107.0353,655.1
107.049,399.9
107.0508,361
107.0623,422.2
107.0689,123.7
107.1422,227.6
107.145,21.8
107.1978,405.6
107.229,756.6
107.2603,526.4
107.3154,162.9
107.3328,16.4
107.3607,18.3
107.3616,229.7
107.4151,566.1
107.4196,559.2
107.4463,359.2
107.4959,279.1
107.5079,461.5
107.5433,279.1
107.5641,17.3
107.5736,222.9
107.5839,677.9
107.6029,16.4
107.6369,19.9
107.6529,136.8
107.6703,22.6
107.685,336.3
107.7012,346.6
107.7409,21.8
107.7518,275.7
107.7821,328.5
107.8106,319.1
107.8885,126
107.9003,231.6
107.9252,18.4
107.944,193.8
107.9482,136.4
108.0245,397.6
108.0479,578.7
108.0663,142.9
108.1223,414.1
108.1292,257.5
108.1626,431.8
108.1889,162.3
108.2229,132.6
108.2782,16.5
108.3044,16.4
108.3293,786.5
108.3482,290.8
108.3623,420
108.3736,352.2
108.3815,441.4
108.4445,238.6
108.4614,173.9
108.4708,279.2
108.4752,210.8
108.632,306.5
108.671,404.3
108.7414,114.7
108.7632,17.8
108.7812,118
108.8854,596
108.9136,46.1
108.9249,208
108.9582,147.1
108.9718,604.3
108.9908,16.1
109.0086,210.8
109.0163,362.7
109.0441,798
109.0647,50968.8
109.101,123.9
109.1432,369.5
109.1461,654.9
109.1545,148.1
109.1613,179.5
109.167,109.4
109.1922,18.3
109.1941,157.1
109.2024,505.2
109.2061,20
109.2121,320.5
109.2383,22.8
109.2413,598.7
109.2872,318.4
109.3559,166.4
109.3645,416.3
109.3748,167.1
109.3769,613
109.3835,19.6
109.3856,132.9
109.4084,413.8
109.4203,206.4
109.4228,618.3
109.4245,84.8
109.445,445
109.4506,18.7
109.4535,282.8
109.4731,129.9
109.4848,19.4
109.4892,81.2
109.5246,16.6
109.5613,464.8
109.5974,634.8
109.6088,123
109.6159,20.7
109.6252,284.8
109.6427,326.5
109.6545,667.7
109.6734,163.9
109.6756,627.5
109.6881,606.5
109.6915,138.3
109.7061,147.2
109.7112,392
109.7343,157.7
109.748,205.8
109.7803,162.1
109.7912,316.7
109.7936,155
109.7956,307.9
109.8041,20
109.8112,113.1
109.8718,445.5
109.8953,347.4
109.9164,123.1
109.9201,117.8
109.9266,123.8
109.9281,203.2
109.9535,637
109.9593,77.7
109.9697,246.4
109.9833,156.6
109.9881,147.1
109.9941,163.3
110.0159,193.3
110.068,1371.7
110.0711,696.9
110.0744,646.6
110.12,573.4
110.1509,17.2
110.1815,306.1
110.2228,585.5
110.2759,16.8
110.3478,174.6
110.3748,323.9
110.4009,125.1
110.4326,398.8
110.4339,455.1
110.4412,20
110.4433,17.8
110.4499,21.9
110.5486,292.1
110.5717,191.8
110.5791,186
110.6068,217.5
110.6512,380.7
110.6862,18.7
110.7189,152.7
110.7244,334.5
110.7473,377.7
110.7726,184.3
110.8056,241.5
110.8194,410.8
110.857,330.9
110.8577,188.2
110.8816,268.4
110.9048,361.3
110.9545,109.1
110.9713,158.3
110.9749,110.8
111.0151,410.1
111.0231,154.1
111.0313,123.6
111.0439,276.2
111.0773,241.3
111.1651,173.8
111.1724,113.1
111.1809,103
111.1997,354.7
111.2114,145.8
111.2344,168.1
111.2417,351.6
111.2566,480.3
111.2623,139.5
111.2665,18.8
111.2706,19.1
111.2768,110.6
111.2926,145
111.2965,387.2
111.3576,183.1
111.3628,240.2
111.3747,477.5
111.3974,17
111.4376,107.2
111.4409,742.8
111.4539,18.9
111.4671,167.7
111.4693,629.1
111.5669,102.5
111.6149,221.1
111.6506,159.4
111.7564,180.9
111.769,221.1
111.7725,295.7
111.7851,434.9
111.7929,150.6
111.8163,92.7
111.8231,94.8
111.8264,146.9
111.8302,628.1
111.852,17.9
111.8962,247.3
111.9359,150.5
111.9556,143.4
111.9654,20.2
111.9706,368.6
112.0061,151.7
112.033,17.5
112.0597,122.6
112.0763,200.7
112.0843,399
112.0899,18.2
112.1026,154.1
112.1706,410.4
112.1947,20.9
112.2089,467.2
112.2153,403.1
112.2811,312.9
112.3169,116.7
112.3341,345.5
112.3466,178.2
112.4131,131.2
112.4684,20.2
112.4773,192
112.4802,422.5
112.5433,21.1
112.5679,95.8
112.6339,245.6
112.6559,355.9
112.6724,235.8
112.709,363.3
112.7188,443.7
112.7207,741.6
112.7308,18.2
112.7337,363.6
112.8351,164.5
112.8415,149
112.8532,403
112.8747,456.6
112.8956,482779.6
112.9194,17.5
112.9338,681.4
112.9476,261
112.9495,117
113.0583,142
113.0665,141.4
113.0879,410.5
113.0901,639
113.0958,159.6
113.1019,261
113.1505,278
113.1566,421.4
113.2285,99
113.2299,123.1
113.3355,259.8
113.4609,139.3
113.5482,129.2
113.5955,265.2
113.6045,131.8
113.7074,100.9
113.7153,16.5
113.7291,381.8
113.7829,565.7
113.8107,138
113.821,236.9
113.8697,204.2
113.8701,177.5
113.899,135.3
113.9006,326.7
113.9125,393
113.9329,374
113.9532,271
113.9627,118.5
113.9636,33.3
114.0214,16.5
114.0549,22200.1
114.0563,401.4
114.0585,22.8
114.066,945.7
114.0751,16.6
114.0916,578.3
114.1008,17.9
114.1177,22.4
114.127,390.7
114.2042,229.9
114.2266,491.7
114.2397,476
114.254,337.8
114.285,288.8
114.3068,281.7
114.3211,18.8
114.3437,363
114.3528,579.2
114.423,356
114.4249,363.5
114.4283,160.5
114.4723,19.7
114.4867,151.9
114.5062,104.1
114.516,124.3
114.5343,605.3
114.5938,165.3
114.6178,133.7
114.6199,346.5
114.6324,247
114.7441,160.4
114.7964,551.2
114.8204,311
114.8333,436.1
114.8514,395.9
114.8572,530.5
114.8612,466.6
114.8719,214.4
114.8749,147.3
114.8777,20.5
114.8927,151605.2
114.8963,1038.3
114.9027,348.7
114.9431,218.1
114.9481,511.6
114.9667,265.6
114.977,382.1
115.0019,138
115.0263,425
115.0364,53.2
115.0439,316.1
115.0502,649.6
115.0693,155.9
115.0924,498.7
115.0973,16.9
115.1472,245.2
115.1554,226.6
115.16,357.5
115.2469,206.7
115.2604,19.4
115.2806,146.8
115.2884,269.3
115.2975,196.5
115.3114,145.5
115.3686,215.4
115.3755,123
115.4568,528.3
115.4854,110.1
115.5355,17.4
115.5668,182.3
115.5958,235.7
115.6176,144.6
115.6274,20.9
115.6293,332.6
115.6391,172.3
115.6413,18.6
115.6449,20.1
115.6475,192.3
115.6674,101.9
115.6832,229.3
115.7009,19.8
115.7183,138.9
115.7273,144.4
115.7324,21.5
115.7335,611.3
115.7363,16.9
115.7558,509
115.7632,20.8
115.7677,143.8
115.8393,744.3
115.8406,941.2
115.8441,414.6
115.8616,371.2
115.8993,16.7
115.9062,327.7
115.916,383.7
115.9418,366
115.9792,797.4
115.9828,129
116.0649,142.1
116.0705,2812
116.1537,282.4
116.1589,348.7
116.1807,454.9
116.2179,355.4
116.2211,163.9
116.2848,370.4
116.3,16.6
116.3143,151
116.3275,387.5
116.384,602
116.4626,19.9
116.4859,144.2
116.5084,358.6
116.5201,227.8
116.5445,18.7
116.5553,381.6
116.5617,225.1
116.5676,19.5
116.6103,150
116.6151,98.3
116.6443,324.8
116.648,159.9
116.6517,246.5
116.7057,241.7
116.716,394.5
116.7222,100
116.7628,349.1
116.8407,774.9
116.8437,345.7
116.8699,326.2
116.8886,187.9
116.8908,14934.3
116.9003,327.2
116.9265,108.4
116.9367,408.7
116.9558,349.2
116.9632,617.5
116.9858,234.8
117.0696,70.5
117.0771,367.9
117.1111,254.4
117.1275,128.2
117.15,17.9
117.1892,581.7
117.2358,296.6
117.2557,17.6
117.2975,376.4
117.3105,286.4
117.3286,573.8
117.3373,18.4
117.3754,430.1
117.4111,16.7
117.4362,177.7
117.4559,505.6
117.4884,682.4
117.5038,359.1
117.5066,255.5
117.5198,452
117.5215,20.5
117.5243,17.6
117.5586,250.1
117.5672,157.7
117.5731,125.2
117.5793,492.6
117.5846,357
117.5897,19.5
117.6045,451.6
117.659,337.8
117.673,17.7
117.6886,18
117.7393,82.1
117.7989,197.4
117.8238,381.3
117.8482,361.4
117.8995,235.5
117.9329,250.2
117.9773,83.2
118.0269,155
118.0582,106.5
118.0651,303.7
118.068,154.4
118.0969,586.1
118.1095,203.8
118.1654,17.4
118.2667,616.2
118.2966,334
118.3702,425.3
118.3795,461
118.409,268
118.4097,142.3
118.433,378.7
118.4365,170.6
118.4525,745
118.4568,193
118.4967,402.6
118.5052,446.4
118.5235,184.7
118.5317,283.3
118.5794,219.2
118.5985,158.4
118.6074,425.7
118.6782,273.1
118.6833,110.6
118.6893,20
118.6966,488
118.7073,131.5
118.7906,18.4
118.817,131.5
118.8804,237.6
118.8906,670.8
118.9425,980.2
118.9458,18.5
118.9514,468.7
118.9789,596.9
119.1335,16.4
119.1786,302.5
119.2036,133.5
119.3054,268.3
119.3612,19.2
119.3771,128.2
119.4217,230.5
119.5065,367.9
119.5235,17.4
119.5257,203.8
119.5314,403.6
119.5379,217.2
119.5395,215.6
119.544,179
119.5593,125
119.6156,135.2
119.621,540.9
119.6234,476.1
119.6327,575.8
119.6338,290.9
119.6596,133.1
119.6704,268.7
119.9165,764.3
119.9432,26.8
119.955,355.6
119.9642,195.2
119.9674,331.7
119.9798,15.8
119.986,183.8
120.0031,3446.5
120.0084,422.7
120.0697,298.5
120.0807,7024.6
120.1105,394.3
120.1129,537.5
120.1244,425.8
120.1401,17.4
120.1491,16.9
120.1515,371.8
120.1602,307
120.1982,171.2
120.2404,345.8
120.2458,185.5
120.3013,127.2
120.3287,235.4
120.3359,18.3
120.3514,105.7
120.3671,424.2
120.3754,369.1
120.3948,16.9
120.4108,128.9
120.4484,370.2
120.4824,242.7
120.4871,173.4
120.4957,128.6
120.5034,20
120.519,1050.3
120.5346,127.3
120.5896,129.6
120.6004,18.2
120.6765,462.5
120.6872,16.6
120.6912,378
120.7082,391
120.7182,180.1
120.7231,155.1
120.729,589
120.7573,154.7
120.874,307.1
120.8997,209.3
120.9015,172.8
120.9157,155.6
120.9246,20.6
120.9794,19
120.9807,85.1
120.9979,17.6
121.0076,154
121.0173,492.4
121.0283,280.7
121.0395,47.9
121.0939,413.9
121.0942,384.4
121.0963,166
121.1194,131.8
121.169,194.5
121.2513,436.1
121.2743,542.3
121.2755,197.4
121.2996,514.1
121.3373,389.1
121.3816,252.1
121.4315,196.4
121.4569,561.2
121.5069,164.5
121.5543,125
121.5637,146
121.5708,16.6
121.6087,17.5
121.6714,190.8
121.7253,391.7
121.7595,758.5
121.7818,151.3
121.7858,386.7
121.7893,658.3
121.8041,18.1
121.8895,402
121.9045,151.6
121.9691,172.6
122.0082,194.2
122.0518,294.4
122.0936,453.8
122.1426,186.5
122.2141,92.2
122.219,90.1
122.2759,337.9
122.2787,253
122.3469,18.7
122.3757,249.4
122.3786,755.8
122.3916,681.8
122.4131,714
122.4346,291.5
122.4975,152.6
122.5438,516.7
122.5882,343.5
122.59,320.4
122.593,187.7
122.6509,551.8
122.7103,503.9
122.7437,546.8
122.7598,17.2
122.7649,239.7
122.7907,183.9
122.8142,154.8
122.8817,515.1
122.8956,120.6
122.9173,322.5
122.9244,23937.9
122.9292,55.9
122.9724,226.7
122.9738,128
123.0163,558.3
123.0717,343.5
123.0758,406.4
123.0803,27.2
123.1168,23.5
123.171,423.5
123.2008,201.2
123.3067,152
123.3115,192.2
123.326,18.6
123.3279,174.1
123.3362,191.7
123.3488,18.1
123.3769,630
123.3829,18
123.4003,181.9
123.4172,235.8
123.5085,354.5
123.5578,457.4
123.5747,614.3
123.5893,185.4
123.6001,299.1
123.6555,673.1
123.6882,645.7
123.8163,18.6
123.8176,19.1
123.8249,127
123.8313,167.9
123.8545,391
123.8597,18
123.8695,407.2
123.8874,149.6
123.9227,378.7
123.9861,343.3
123.9947,346
124.0182,148.4
124.0341,143
124.0631,154.7
124.0658,118.3
124.3084,153.2
124.3179,282.3
124.3457,133.5
124.3876,537.8
124.3942,192.7
124.397,723.6
124.3997,193.2
124.4416,199.8
124.461,630.7
124.4867,664.4
124.4959,285.2
124.5722,229
124.6042,154
124.6449,477.8
124.6625,370.3
124.7197,19.7
124.7424,158.4
124.7687,19.6
124.775,144.8
124.7839,360.8
124.8323,121.2
124.843,419.2
124.8879,128.2
124.8968,17.8
124.9157,206.5
124.9226,2311.4
124.9443,177.2
124.9755,657.6
124.9885,626.8
124.9998,2728.9
125.0055,1258.2
125.0111,360.8
125.0309,466.6
125.0366,105.8
125.0388,91
125.0595,31.6
125.0844,484.9
125.0897,389
125.1107,357.5
125.1158,20.1
125.1574,238
125.1754,134.3
125.21,18.2
125.2299,123.5
125.2331,278.5
125.2747,767.6
125.2813,116.6
125.3082,281.5
125.3125,269
125.3525,379.3
125.368,644.9
125.3914,204
125.4377,280.2
125.5149,169.3
125.5215,147
125.5435,429.2
125.552,87.3
125.5735,369.9
125.5753,253.5
125.5778,121.4
125.5955,594.6
125.607,368.4
125.6768,337.1
125.7113,17.6
125.7252,355.7
125.7695,502.3
125.7702,569.5
125.7709,521.6
125.7747,193.6
125.7854,371.2
125.8081,18.1
125.8112,139.9
125.8419,244.4
125.845,377.4
125.8901,89.1
125.9308,157.5
125.9848,24
126,191.7
126.0131,295.1
126.0372,674.8
126.0428,18.2
126.0594,133.1
126.0626,547.1
126.0743,16.3
126.1643,526.5
126.2062,409.9
126.2326,362.7
126.2552,147.3
126.2712,495.4
126.3445,125.7
126.3493,151
126.365,128.2
126.5017,554
126.5286,267.7
126.5394,160.3
126.5491,192.6
126.5653,156.7
126.5827,452.4
126.5931,489.5
126.7651,20
126.8488,92.3
126.862,19
126.9164,308.1
126.9359,362.2
126.9495,588.9
126.9592,364
126.9872,17
126.9902,114
126.9921,313.2
127.0006,22.1
127.0062,572.8
127.0286,309.5
127.0477,227.8
127.1071,236.9
127.1217,19.4
127.143,106.7
127.2292,209.5
127.2672,380.9
127.3278,136.6
127.3651,163.6
127.3657,328.7
127.3661,318.3
127.4165,468.7
127.4513,369.1
127.5743,88.2
127.5917,452.2
127.6535,176.8
127.6739,713.9
127.6892,316.2
127.7246,352.2
127.7409,1045.9
127.7938,249.6
127.8028,265.6
127.8118,139.2
127.8735,648.9
127.8826,514.9
127.8871,423.3
127.9536,258.1
127.9555,18.2
127.9572,449.3
127.9792,16.8
127.9935,21.9
128.0156,36.7
128.0441,111.7
128.1207,252.7
128.1374,232.5
128.1656,89
128.2224,222.3
128.2813,192.7
128.3061,191.4
128.3727,137.1
128.4096,364.7
128.4475,259.3
128.4492,553.5
128.4871,346.4
128.55,708.7
128.5564,247.7
128.5669,324.2
128.5726,340.2
128.605,127.7
128.6856,639
128.7484,391.8
128.7803,21.8
128.7973,155
128.8043,419.3
128.8149,610
128.8198,703.4
128.9353,18.8
128.9493,351.2
128.9554,169
128.9586,455.7
128.9638,264.3
128.9835,337.1
128.9897,313.7
129.0032,1336.2
129.0095,355.4
129.0209,197.3
129.0587,445.5
129.1023,1227.8
129.1083,254.9
129.1184,211.9
129.1455,229
129.1529,122.7
129.1635,479.8
129.2186,86.5
129.23,128.4
129.279,259.1
129.2907,91.5
129.3159,18.2
129.4081,112.1
129.4503,232.2
129.4542,350
129.4871,341.1
129.6041,19.8
129.6236,430.9
129.6842,543.8
129.7022,89
129.737,195.2
129.753,330.1
129.7601,16.8
129.8441,154.9
129.8475,242.7
129.8542,323.4
129.8662,149.7
129.8714,440.6
129.913,137
129.9585,221.6
129.9948,56.4
130.0232,217.4
130.0498,7321.7
130.1017,332.9
130.1273,134.1
130.1524,142.4
130.2077,417.2
130.2417,397.2
130.287,185.8
130.2893,440.1
130.3337,92.1
130.3887,330.8
130.3913,123.5
130.4286,289.3
130.4784,630.8
130.5258,112.9
130.5791,570.2
130.6055,146.9
130.6677,462.4
130.681,331.2
130.7197,443.8
130.7371,116.4
130.7646,471.7
130.7885,19.4
130.8187,566.2
130.8202,125
130.8472,919.4
130.8637,16.7
130.8661,426
130.889,286.8
130.906,156.2
130.9192,296.8
130.9629,21.7
130.9734,377.3
130.9789,153.1
131.0001,55.2
131.0244,82.4
131.0268,233.4
131.0297,88.7
131.0398,454.7
131.0635,260.8
131.0686,131.6
131.1253,559.2
131.2959,19.6
131.318,365.1
131.3611,18.2
131.3687,336.7
131.3851,320.3
131.4263,132.7
131.5147,180.4
131.5233,407.9
131.5747,16
131.6237,650.2
131.6693,238.9
131.718,532.4
131.7419,118.6
131.7707,437.7
131.7732,186.3
131.8101,18.2
131.8153,258.9
131.817,284.5
131.8365,21.1
131.8539,106
131.8836,408
131.8969,91
131.9612,20.8
131.9628,20.3
131.9674,175.7
132.0031,32770.9
132.0356,248.9
132.0654,37937
132.1154,143.5
132.1195,159
132.1282,277.8
132.1526,367.9
132.1653,160.2
132.1984,121.9
132.2283,502.9
132.2348,133.4
132.3225,115.4
132.4136,346.7
132.4206,118.1
132.4516,19.3
132.4541,237
132.4631,186.2
132.4725,18.9
132.5098,300.8
132.5561,242.2
132.6008,331.2
132.6158,614.5
132.6389,437.5
132.6597,357.6
132.701,256.1
132.7467,241.8
132.7799,209.4
132.7951,626.2
132.8492,240.8
132.8761,412.9
132.9027,20.9
132.9374,19.5
132.9524,115.9
132.9581,1462.8
132.9602,143.9
132.9872,861.9
132.99,168.5
133.0101,237.2
133.0509,20.9
133.0604,149.4
133.0689,151.8
133.0831,139.4
133.0853,175.9
133.0971,12093
133.1159,228
133.1461,384.2
133.1791,265.2
133.1809,585.4
133.1957,213.8
133.2456,350.3
133.2594,871.3
133.3007,476.9
133.3041,830.5
133.4428,379.1
133.4552,480.9
133.4663,246.7
133.468,18.8
133.4841,242.5
133.4847,360
133.4851,301
133.4918,288.2
133.5012,269.1
133.5404,18.4
133.5558,134.5
133.575,18.5
133.5911,396.3
133.654,150.5
133.6699,555.3
133.7725,144
133.7848,429.8
133.7968,280.6
133.8935,17
133.9102,282.5
133.9254,513.8
133.9427,174.6
133.959,21.6
133.9812,26.9
134.0187,10109.1
134.0359,198.3
134.0426,128.5
134.0578,263.1
134.0695,1040.1
134.1459,165.5
134.1521,565.4
134.2675,460
134.2881,381.2
134.3047,227
134.3991,18.5
134.4592,453.1
134.5113,356.4
134.5146,116.9
134.5947,394.4
134.6453,253.4
134.7014,589.4
134.7304,174.4
134.7728,416
134.7773,422.7
134.8662,371.1
134.8876,384.2
134.8935,148.9
134.8957,266.8
134.9331,397.8
134.9738,155.6
134.9891,244.8
134.9953,451.2
134.9965,20
135.0028,71895
135.0376,18.9
135.0448,17.5
135.0546,18.3
135.0804,25.7
135.1168,48.3
135.1364,176.8
135.1583,22.2
135.1678,292.4
135.1854,136.7
135.1989,361.4
135.2144,232
135.2156,128.1
135.2444,125.2
135.3045,134.4
135.3241,18.7
135.3459,18.1
135.4981,278.6
135.5234,126
135.5404,475.6
135.55,21.2
135.5579,131.3
135.5626,230.5
135.5876,447.1
135.5923,160.3
135.6072,671.9
135.6401,250.5
135.6707,860.4
135.6928,739
135.7319,417.5
135.8296,247.2
135.8532,524.9
135.8712,411.9
135.9294,361.3
135.9771,2008.5
135.9816,29
136.0181,16.5
136.0231,440.8
136.0256,215.9
136.0284,700.3
136.0481,4250.7
136.0616,102.7
136.0756,6897.3
136.0796,179.9
136.2383,460.8
136.2794,333.6
136.3776,323.7
136.3884,115.7
136.3949,455.6
136.4912,417.2
136.4938,177.7
136.5219,187.4
136.5584,455.2
136.6035,18.4
136.6192,18.2
136.6206,451
136.661,298.6
136.6973,18.7
136.7236,170.7
136.7361,380.2
136.7957,352.9
136.8221,400.2
136.8385,90.7
136.8644,182.7
136.8943,237.6
136.903,433.8
136.9081,349.9
136.94,490.2
136.9532,148.4
136.9896,48.5
137.0183,346.5
137.0559,505.5
137.0728,121.7
137.0789,406.5
137.0965,147
137.103,216.8
137.1037,347.3
137.1141,161
137.2217,167.4
137.302,128.1
137.3371,344.3
137.3444,209.5
137.3715,298.2
137.3807,230.9
137.3992,385.4
137.4095,385.4
137.4929,202.2
137.5166,345.1
137.5267,161.5
137.5424,369.1
137.57,18
137.6148,160.4
137.6709,198.1
137.7112,190.1
137.741,16.3
137.7476,220.3
137.8143,240.9
137.8458,534.6
137.8735,197
137.9018,216.2
137.9547,146.7
137.9963,19.4
138.0211,194.4
138.0526,2423.7
138.0662,61.1
138.0937,426.4
138.1263,666
138.1754,128.3
138.1903,16.9
138.2122,166.6
138.2136,601.6
138.2434,447.2
138.2888,294.5
138.3131,265.6
138.3213,241.1
138.3437,368
138.3708,170.4
138.4358,177.3
138.5032,359.7
138.5159,132
138.6201,21.5
138.6497,18.4
138.7483,212.7
138.7619,370.8
138.7886,438.3
138.8788,252.5
138.8816,150.2
138.9018,20.4
138.9065,1677.2
138.9242,147.1
138.9507,21.2
138.9842,23.2
139.0385,17.9
139.0559,148.7
139.0647,261.1
139.0671,369.5
139.0879,22.6
139.1023,211.1
139.1059,402
139.1104,132.7
139.1269,138.3
139.1784,132.8
139.1895,620.1
139.2178,333.8
139.2668,314.9
139.3112,437.8
139.3499,402.1
139.4509,234
139.4567,282.2
139.458,109.6
139.4611,19.3
139.463,343
139.4968,368.4
139.4993,424.3
139.5176,176.9
139.5405,254.6
139.577,108.9
139.5845,495.8
139.5892,454.5
139.6383,405.5
139.68,246.6
139.7589,143.4
139.771,318.7
139.8061,163.5
139.8088,243.6
139.8136,477.1
139.8711,186.9
139.8845,204.6
140.0164,5034.3
140.0292,121.2
140.0681,1241.3
140.0797,234.8
140.1173,95.7
140.1187,529.4
140.1199,485.2
140.1736,124.2
140.1862,546.4
140.1894,168.9
140.2167,359
140.2699,406.5
140.2915,17.8
140.3342,145
140.3435,137
140.346,220.4
140.3617,18.7
140.3656,141.1
140.3764,155
140.3948,135.2
140.4516,124.1
140.4991,18.7
140.517,472.2
140.5683,328.1
140.711,18.6
140.7439,360.3
140.7695,84.2
140.8125,189.1
140.8463,31.2
140.8989,204.6
140.9034,335.1
140.9248,178.2
140.9325,343
141.0004,15796.8
141.0096,119
141.0197,171.1
141.0345,18.4
141.0678,106
141.0726,155.1
141.0858,202.3
141.11,300
141.1191,19.8
141.1494,273.4
141.1666,246.5
141.1811,20.7
141.1865,189.4
141.3456,172.2
141.3605,422.8
141.4082,639.8
141.4508,120
141.4809,17.7
141.5578,296.1
141.5639,426.9
141.5718,425
141.5823,17.7
141.6208,349.7
141.6255,17.9
141.731,295.4
141.7657,217.2
141.7975,18.3
141.8349,382.6
141.8752,128.2
141.9133,196
141.9335,330.1
141.9861,278.1
141.9948,303.6
142.0036,640
142.0122,97.8
142.0154,43.7
142.0217,154.2
142.1372,226.6
142.1499,198.6
142.1822,141.2
142.1973,220.6
142.2004,173.9
142.2067,236
142.2281,19.5
142.2655,510.5
142.2712,231.2
142.3694,285.1
142.3843,497.8
142.4154,23
142.4189,225.4
142.4224,140
142.4352,236.8
142.4429,19.4
142.4555,124.8
142.5241,18.9
142.537,370.1
142.5549,20.4
142.5599,615.3
142.5916,16.1
142.6027,160.1
142.6283,336.8
142.6842,157.4
142.7004,183.8
142.7036,88.3
142.7343,21.7
142.7987,299.4
142.9022,461.1
142.9215,505.7
142.9385,356.3
142.9962,281.3
143.0092,250
143.0189,1694.9
143.07,472.4
143.0723,197.3
143.0815,67
143.0929,114.8
143.1394,196.5
143.1508,168.3
143.1582,119.1
143.2122,345.8
143.2387,135.7
143.2406,331.4
143.2544,273.6
143.3173,812.8
143.3434,305.7
143.3466,537.3
143.3929,518.7
143.4828,230.2
143.6085,238.7
143.6124,232.6
143.6532,94.8
143.6797,139.2
143.7239,16.7
143.8146,151.4
143.8536,526.8
143.8708,169
143.9141,126.8
143.9319,418.3
143.9432,18.4
143.95,132.9
143.9513,143.3
143.9817,163.3
144.0106,1144.7
144.0342,135.4
144.0602,375.7
144.0647,359.4
144.0811,20.6
144.0828,161.8
144.1294,20.2
144.1729,123.1
144.1739,296.9
144.2151,80.5
144.2847,235.2
144.2907,192
144.3195,268.2
144.328,625.6
144.3515,541.2
144.3661,139.4
144.4693,349.8
144.4735,19.3
144.4965,381.6
144.5182,439.6
144.5309,222.6
144.5437,23.3
144.6155,20.2
144.6317,232
144.6655,19.2
144.7158,615.8
144.7427,118.5
144.7657,121.5
144.7906,356.7
144.8349,361.6
144.8734,896.3
144.9041,358.9
144.9575,361.6
144.9807,2089.3
144.9897,251.5
144.994,17
145.0031,21.1
145.0411,112
145.153,657.2
145.1682,182.2
145.1732,487.2
145.206,695.9
145.2211,98.7
145.2349,140.1
145.2749,728.9
145.2992,206.7
145.2996,215.3
145.3772,144.7
145.4213,348.8
145.4262,18.7
145.4738,382
145.5012,746.2
145.7323,17.1
145.77,257.9
145.8484,694.2
145.9092,149.1
145.955,689.8
145.9615,162.4
145.9662,26.5
145.9867,211
145.9953,239.5
145.999,127.8
146.0125,3007.4
146.0188,18226.9
146.0263,154.8
146.0342,108.2
146.06,191.5
146.1051,422.6
146.1215,165.3
146.1258,166.3
146.1446,564.2
146.1851,20.8
146.2545,491
146.2685,19.2
146.2849,21.1
146.301,305.9
146.3702,185.8
146.3749,16.7
146.3837,505.7
146.4488,399.5
146.4892,20.1
146.5014,198.6
146.5262,18.5
146.528,499.9
146.58,573.5
146.6055,166.6
146.6281,496.5
146.6599,188.2
146.6783,384.3
146.7313,677
146.7356,362.8
146.7365,315.4
146.7661,105.6
146.7763,356.1
146.823,17.4
146.833,20
146.9053,24.9
146.9218,212.2
146.9501,254.9
146.9696,266.2
146.9736,497.5
146.9817,102788.1
147.004,392.9
147.0555,190.8
147.0596,209.3
147.0658,488.8
147.0764,49069.2
147.0938,418.9
147.1128,37100.2
147.1166,372
147.1359,17.6
147.1614,314.8
147.2244,839
147.2917,20
147.3292,296.5
147.3422,631.9
147.3579,181.7
147.4146,222.1
147.4607,634.1
147.4902,226.1
147.533,415.2
147.5623,651
147.5797,607.4
147.6343,268.1
147.6396,213.5
147.645,144.9
147.6552,174.8
147.7065,273.7
147.7698,257.4
147.7801,283
147.7808,288
147.7834,159
147.8031,117.1
147.8323,534.7
147.8617,135.8
147.9253,457.5
147.9771,524.1
148.0793,369
148.0831,326.5
148.0888,344.5
148.112,22.9
148.1609,245.8
148.1705,594.3
148.1787,470.7
148.2333,245.6
148.2609,255
148.2673,242.4
148.2703,289.8
148.2987,189.8
148.3262,500.5
148.4061,522.1
148.4607,218.5
148.4777,20.2
148.491,249.1
148.5322,1087.2
148.5595,676.1
148.6241,184.3
148.6882,21.1
148.6919,184
148.7055,379.3
148.7282,300.2
148.7694,149
148.8087,136.3
148.8132,137.1
148.9178,137.7
148.961,1636.2
148.9799,293
148.9886,211.7
149.0087,318.6
149.0185,5601.1
149.0233,3601.1
149.0283,260.3
149.0448,417.6
149.0802,192.5
149.1518,19.5
149.192,513.3
149.2603,216.3
149.2639,606.7
149.2881,188.3
149.418,17.7
149.4532,151.7
149.479,468.3
149.5105,603.6
149.5156,558.8
149.5282,401.4
149.5648,541.7
149.5942,153.9
149.7022,214.1
149.7031,219.3
149.72,310
149.7521,589.7
149.7704,364.5
149.8112,220.5
149.8275,17.9
149.9239,359.5
149.9765,25.6
149.987,28.8
149.9928,10409.8
150.0138,4048.2
150.0192,228.4
150.0267,77.1
150.0764,362.1
150.1092,272.7
150.2081,326.5
150.2703,271.9
150.2999,285.9
150.3399,113.6
150.3915,445.9
150.407,412.9
150.4909,359.9
150.5003,19.9
150.5486,21.9
150.5923,253.8
150.6267,282.8
150.6657,684.1
150.8435,370.1
150.8882,397.6
150.9688,78.9
150.9768,57010.8
150.984,7839.5
151.0042,233.1
151.0206,24.4
151.0478,703.6
151.1213,585.5
151.1427,407
151.2922,187.7
151.4794,387.1
151.4858,124.4
151.4883,454.7
151.5095,135.9
151.5425,30.6
151.5438,17.3
151.5742,188.2
151.638,93.8
151.7303,225.6
151.8043,19.5
151.8903,211.6
151.9306,684.2
151.9405,241.5
151.9843,19.9
151.9873,360.5
151.9922,24
152.006,23.8
152.0221,8367.4
152.0318,2554.7
152.0424,20.5
152.0646,193.2
152.0929,19.9
152.2022,113
152.3202,424.1
152.36,339.8
152.4724,183.8
152.4846,420.5
152.4891,80.1
152.5146,532.2
152.5428,181.2
152.5581,182.7
152.578,306.9
152.5841,333.7
152.6053,482.2
152.628,100.4
152.8526,351.4
152.8712,21.5
152.9459,21.2
152.9682,168.8
152.9749,1746.4
152.9845,33.2
152.9998,21.5
153.0075,249.4
153.0566,662.4
153.1531,640.9
153.1817,178.9
153.2091,176.9
153.3061,229.7
153.3382,350.8
153.3954,196.2
153.4838,282.4
153.5004,82.6
153.561,597.4
153.6414,109.5
153.7659,18.6
153.7815,239.9
153.846,608.2
153.876,23.8
153.8904,761.2
153.9599,19.8
153.9799,19.7
153.9837,222
154.0111,170.2
154.0296,339.4
154.0338,798.1
154.0876,138.8
154.1878,138.7
154.2211,334.4
154.2333,18.6
154.251,124.7
154.2725,128.6
154.2749,17.6
154.3052,180.6
154.316,379.3
154.327,327.8
154.3419,122.1
154.3788,360.8
154.4047,412.4
154.423,20.2
154.4381,18.2
154.4567,377.4
154.4585,461.3
154.4607,154.7
154.4687,183.5
154.5188,387
154.5217,19.3
154.6897,298.6
154.6918,17.7
154.7024,157.9
154.7227,127.2
154.7737,356.5
154.7852,437.7
154.8096,144
154.9675,381.5
154.9689,1119.5
155.0022,164.6
155.0152,792.1
155.0398,370.6
155.0427,1119.5
155.0449,365.8
155.0539,4243.5
155.093,555.4
155.117,210.8
155.1393,497
155.151,120.8
155.1535,16.6
155.1697,343.5
155.2211,382.3
155.238,358.3
155.3263,336.3
155.38,163.8
155.4013,17.8
155.458,17.9
155.4673,238.5
155.4916,19.6
155.5153,19
155.5256,350.3
155.5363,17.2
155.5439,541.7
155.5709,19.2
155.5848,19.1
155.6135,131.3
155.695,256.3
155.7168,525.3
155.7322,326.4
155.7599,163.2
155.8313,297.2
155.8779,220.3
155.8823,415.4
155.9083,229.8
155.9381,288.4
155.9719,345.2
156.0421,2096.1
156.0573,33.1
156.0629,100.4
156.0768,57861.2
156.2817,184.4
156.3277,203.6
156.4915,296.6
156.5049,188.8
156.5467,125.1
156.5562,232.7
156.5744,105.4
156.5919,19.7
156.6058,141.5
156.6224,244.9
156.6288,251.7
156.7357,407.4
156.7472,528.9
156.7827,16.7
156.8033,125.3
156.8684,385.9
156.8772,707.6
156.9312,290.6
156.9599,491.1
156.9669,129.3
157.0016,221.2
157.0059,58.2
157.0546,134.6
157.0802,282.1
157.0968,315.2
157.1394,176.9
157.2055,216.9
157.2185,411.7
157.2395,131.4
157.3656,17.5
157.3692,124.9
157.6151,662.5
157.668,17.8
157.7158,296.7
157.7386,19.5
157.7592,149.1
157.848,16.7
157.8832,17.2
157.9489,349.2
158.0104,399
158.0126,632.4
158.027,2724.1
158.0474,336.1
158.1136,235.7
158.151,365.3
158.1728,454.4
158.2566,22.3
158.2784,378.7
158.3481,446.8
158.4078,148.2
158.49,18.7
158.5663,21
158.6579,442.8
158.8194,456.9
158.8379,367.4
158.8973,255.6
158.9219,636.4
158.9605,479.4
158.9641,10870.8
158.9737,22.6
158.9965,9290.4
159.007,254
159.0304,30.6
159.0769,431.8
159.1291,181.4
159.2313,17.8
159.261,176
159.2761,143.6
159.288,21.8
159.2925,606.6
159.3262,360.8
159.4072,210.8
159.4533,123.1
159.4995,206.7
159.5188,176.5
159.5626,728.7
159.568,405.1
159.7435,384.6
159.7691,102
159.7757,255.8
159.7795,196.6
159.782,103.1
159.9153,107
159.9349,129.6
159.9443,392.3
159.9791,225.3
159.9994,675.4
160.0229,29.7
160.0345,7829.9
160.0604,34249.3
160.0881,372
160.1183,19.8
160.1653,138.1
160.2085,316.6
160.2742,293
160.3884,390.3
160.3941,416.7
160.4241,160.7
160.4585,826
160.4843,103.1
160.5413,432
160.5645,19.9
160.594,21.6
160.6244,359.4
160.6387,335
160.7533,315.5
160.7783,18.6
160.914,177.3
160.9922,249.8
161.0639,157.9
161.0825,18.6
161.0962,23.3
161.1285,3675.7
161.1323,21.9
161.25,159.9
161.2618,160.9
161.2865,504.2
161.3055,393.4
161.3133,616.9
161.3217,791.9
161.3346,19.2
161.3518,196.2
161.4584,190.7
161.4711,19.1
161.4758,122.5
161.4973,363.5
161.5146,133.4
161.5399,120.1
161.5898,388.9
161.6126,166.2
161.6247,22.9
161.6417,261.2
161.6709,125.6
161.7009,180.1
161.7074,475.4
161.7096,251.9
161.7344,317.5
161.7724,218.6
161.827,240.7
161.8784,527.3
161.8833,464.3
161.8873,481.9
161.8923,145.2
161.9513,279.8
161.962,340.1
162.0502,11536.1
162.1395,354.8
162.1462,226.7
162.2237,740.8
162.3021,276.8
162.3293,700.1
162.3428,132.5
162.348,130.6
162.3747,537.4
162.3804,346.5
162.4202,243.4
162.4261,16.5
162.4459,343.3
162.5302,23
162.5994,383.2
162.6304,19.1
162.6363,23.4
162.6605,178
162.7647,21.3
162.8776,387.2
162.9558,4959.9
162.98,21.2
163.0026,153.2
163.0078,250.2
163.0105,89.3
163.0155,3834.7
163.0321,103.1
163.0338,617.4
163.039,22.9
163.0414,19.4
163.0481,391
163.0605,104.9
163.0804,18.4
163.1153,17.3
163.1778,256.7
163.1942,128.8
163.239,184.5
163.2871,238
163.2979,196.4
163.3646,135.8
163.3842,150.2
163.392,589.1
163.3954,134.2
163.412,764.8
163.4607,95.8
163.5289,430.5
163.5386,237.7
163.6642,1334.8
163.6708,127.9
163.6741,450.7
163.6933,258.5
163.7218,228.3
163.8049,218.5
163.8327,17.1
163.8515,416.3
163.8805,462.6
163.8855,57.9
163.9474,18.3
163.9572,165.1
163.9996,32
164.0294,8015.6
164.0792,848.2
164.1949,103.2
164.2208,19.1
164.2257,388.9
164.2297,385.7
164.2405,406.2
164.2939,654.8
164.3006,142.9
164.3371,280.6
164.4197,17.6
164.4247,632.3
164.4957,168.8
164.5165,554.8
164.5529,395.5
164.7666,19.9
164.7837,292.7
164.8415,572.6
164.8653,16.2
164.9149,289.3
164.9172,323.5
164.9205,3553
164.93,7119.7
164.9351,1443.5
164.9458,149.8
164.9798,248.6
164.9821,319.9
164.9845,46.3
164.9926,2034.5
164.9957,20.5
164.9997,564.6
165.1018,150.7
165.1886,731
165.207,17.8
165.3651,161.4
165.3762,109.4
165.3799,423.1
165.3831,286
165.4456,17.3
165.4843,371.8
165.5021,19
165.5353,329.5
165.5676,549.3
165.5986,328.9
165.6315,313.5
165.6601,363.6
165.7203,491.9
165.7298,195.9
165.778,711.1
165.7801,191.6
165.8458,140.4
165.8674,224
165.8927,148.1
165.897,108.2
165.9391,215.4
165.9668,3476.1
165.9713,29.8
165.9789,1909.5
165.9877,3822.1
165.995,2590
166.0262,155.2
166.0589,845.2
166.0837,294.2
166.0965,368.5
166.1242,133.7
166.1336,22.5
166.1548,178.1
166.1672,99
166.1918,20.1
166.2154,16.6
166.2211,118.6
166.3208,20.8
166.4071,399.8
166.4196,194.9
166.4609,240.7
166.527,158.5
166.6588,122.5
166.687,444
166.7658,245
166.9508,29378.5
166.9629,754
166.979,67.2
166.9913,22.1
166.9986,90.4
167.0134,143.6
167.0171,278.9
167.0217,4882.2
167.0501,301.9
167.0965,706.3
167.1316,646.7
167.2676,192.6
167.2851,21.8
167.2893,367.5
167.35,693.7
167.3748,717.3
167.4198,428.2
167.4425,113.1
167.4602,297
167.5031,104.3
167.5151,343.8
167.5294,292.4
167.6684,291.9
167.6735,20.2
167.6794,403.7
167.6888,709.6
167.7556,139.6
167.7603,385.4
167.7964,144.7
167.8168,17.7
167.828,214.7
167.9465,181.9
167.9787,18.9
167.9945,3678.7
168.0749,266.1
168.2256,233.1
168.262,102.5
168.3273,193.1
168.3326,580
168.3598,146.4
168.4193,380.4
168.5034,17.5
168.5685,188.6
168.8489,526.8
168.925,80.1
168.9297,284.4
168.9325,390.9
168.9374,284.7
168.949,1419.6
168.9882,184.9
168.9915,258.3
169.0081,671.5
169.0584,61360.7
169.0647,275.3
169.0948,3684.8
169.1495,353.9
169.2428,377.1
169.26,163.6
169.3515,267.8
169.3567,783
169.3895,384.8
169.4061,748.2
169.5048,206.9
169.6583,155.2
169.6825,122
169.7948,339.7
169.8551,293.7
169.9188,336.8
169.9336,252.6
169.9645,277.1
169.9857,390.5
170.0022,19
170.0151,383.7
170.0271,19.7
170.0925,3889.3
170.1702,325
170.1859,408.2
170.1963,129.4
170.1989,735
170.2019,374.6
170.462,343.3
170.4919,284.1
170.5147,190.7
170.5188,619.1
170.5768,546.5
170.5847,270.4
170.5902,693.5
170.5965,19.4
170.6838,167.9
170.7443,18
170.7553,301.1
170.8079,291.1
170.8232,20.1
170.8365,183.1
170.8545,5368.7
170.8826,221.9
170.9141,238.2
170.926,590.2
170.9392,98.8
170.9432,425.9
170.9756,184.9
171.0169,1568.7
171.0216,22.9
171.028,322.3
171.0983,124.3
171.1548,166.2
171.1837,288.2
171.2931,246.2
171.302,185.4
171.382,20.2
171.3872,17.9
171.4712,156.1
171.506,633.4
171.5505,463.5
171.6075,125.2
171.6354,17
171.6556,413.1
171.7348,405.5
171.7835,308.9
171.8865,18.7
171.8883,635.6
171.9066,108.8
171.9599,119.4
172.0169,207.4
172.0218,112.5
172.0282,999.3
172.0403,21.6
172.0626,143.7
172.0826,280.1
172.1069,161.8
172.246,123.6
172.3115,443.9
172.3439,278.2
172.3574,440.9
172.3737,376.1
172.4138,140.7
172.4867,243.1
172.4923,927.8
172.5169,325.3
172.5302,474.8
172.5652,258.7
172.6486,417.9
172.6876,16.8
172.7103,324
172.8514,2640.2
172.8622,19.2
172.8994,41.5
172.9675,570.8
173.016,341.5
173.0268,247.5
173.1222,219.5
173.1495,227
173.1619,182
173.1997,378.8
173.2267,129.9
173.2431,21.8
173.3378,170.8
173.3431,352.4
173.3576,18.3
173.371,151.3
173.4567,17.8
173.4725,18.5
173.5317,266.5
173.5769,669
173.6307,308.3
173.6352,196.6
173.7323,20
173.7365,111.8
173.7393,418.7
173.7448,740.3
173.7648,460.4
173.8699,139.8
173.9584,228.1
174.0005,24.4
174.0814,18.6
174.0914,537.1
174.1061,366.5
174.2227,157.1
174.4436,403.1
174.448,144.8
174.4954,168.6
174.5674,177.4
174.5773,20.5
174.5952,680
174.6235,366.7
174.6532,262.5
174.7563,283.1
174.8231,650.9
174.8705,20.3
174.9017,392.4
174.9382,7362.6
174.9604,310.9
174.9689,2680.4
174.9836,315
175.009,624.3
175.0342,4291
175.0455,2804.9
175.0605,130
175.0705,355.7
175.0969,18.9
175.119,86515
175.1282,253
175.1478,101
175.1657,584
175.2083,552.5
175.233,307.1
175.2926,471.9
175.3213,167.4
175.3257,147.7
175.3635,427.4
175.403,17.8
175.439,126.8
175.5288,492.8
175.5321,395.2
175.5436,81.8
175.558,186.1
175.5619,244.3
175.6015,168.2
175.6264,109.8
175.6594,126.8
175.6625,228.8
175.6854,139.2
175.7311,347.8
175.7734,413.2
175.8028,410.5
175.8433,606.6
175.8822,506.7
176.0007,53
176.0084,4052.4
176.0301,137.2
176.0659,20473.1
176.1073,618.2
176.1146,145.5
176.1221,698.1
176.1399,139.5
176.1657,173.9
176.2058,20.5
176.231,237.2
176.2609,154.3
176.2934,20.6
176.4113,177.4
176.4414,439.1
176.4734,241.7
176.5241,222
176.53,150
176.6527,509.5
176.6765,17.3
176.6866,493.7
176.7135,535.6
176.7613,139.7
176.8517,169.7
176.8937,218.5
176.9151,162.6
176.9332,26.2
176.9363,718.6
176.9884,156.9
176.9925,939.6
176.9954,129.3
177.0248,1143.7
177.0532,273.8
177.0611,2382.9
177.0873,178.3
177.1197,142
177.1458,232.6
177.185,591.3
177.2638,137.2
177.269,462.3
177.3027,20.2
177.3797,298.6
177.4822,727.3
177.6011,19.7
177.7578,726.3
177.8229,184.3
177.8372,430.4
177.8603,18.1
177.906,156.6
177.9712,196.4
177.9946,159.1
178.0088,8895.3
178.0241,8965.1
178.0588,5598.9
178.0645,151.1
178.0676,252
178.1739,156.2
178.2381,296.5
178.2785,17.6
178.2969,163.8
178.3159,119.2
178.3828,289.2
178.4076,653.4
178.4711,19.3
178.5031,104.1
178.5896,135.4
178.6189,134.9
178.6834,475.6
178.7286,21.9
178.8154,285
178.8431,250.7
178.8929,156.5
178.8976,141.9
178.9219,66.7
178.964,281.8
178.979,20.9
179.0003,54
179.0029,180.7
179.0543,294.9
179.0813,136.6
179.1723,102
179.2397,144.3
179.4252,233.1
179.4499,397.2
179.4645,412.5
179.4934,168.1
179.5057,133.5
179.5573,147.1
179.5633,171.6
179.59,20.9
179.5961,120.8
179.601,451.6
179.697,21.6
179.7155,18.3
179.7234,18.1
179.7443,21.7
179.7546,112.7
179.7578,135.5
179.7869,234.4
179.8912,52.4
180.0034,7471.1
180.0106,117.8
180.0223,316.3
180.0295,511.9
180.0413,262.6
180.1256,584.3
180.1918,161.2
180.4526,363.3
180.4813,279.6
180.6772,202.5
180.7367,17.8
180.828,239
180.8513,306.6
180.8882,1507.5
180.8911,247.9
180.8945,3658.5
180.904,5234.9
180.9563,567.3
180.96,134.4
180.9664,432.6
181.0161,29.7
181.0191,88.8
181.026,609.1
181.0648,6526.9
181.0893,122.3
181.1668,191
181.2797,17.4
181.3152,622.8
181.433,257.2
181.5212,18.9
181.731,16.9
181.7373,224.3
181.7396,281.5
181.7604,18.9
181.7889,396.6
181.8311,300.4
181.8371,181.9
181.8675,723
181.8858,248.5
181.9281,457
181.9508,126.7
182.0112,27.1
182.0425,23746.5
182.0825,197.8
182.1191,131.6
182.1458,23.6
182.1511,270
182.2328,204.1
182.246,19.2
182.2637,256.5
182.2755,230.5
182.2782,659.3
182.2839,270.1
182.3322,551.1
182.362,302.2
182.3748,101.7
182.4271,241.4
182.4788,124.9
182.5147,265.2
182.5175,490.1
182.6145,415.5
182.6214,279.9
182.6246,143
182.6715,478.5
182.77,367
182.7784,305.3
182.7943,16.8
182.8719,146.6
182.8832,61.2
182.8976,151.5
182.9338,490.8
183.0312,704.6
183.0445,815.2
183.1416,145.9
183.1763,18.5
183.2623,16.7
183.373,318.1
183.3768,388.5
183.3915,458.3
183.3979,300
183.4754,273.2
183.5677,231.3
183.6999,156.7
183.7387,778.3
183.7666,347
183.8204,181.1
183.9161,357.4
183.9327,276.6
183.9485,350.3
183.9561,149.6
183.9613,17.7
183.9647,694.6
183.9953,227.5
184.0371,107.7
184.0651,395.8
184.0734,4231477
184.0808,837.5
184.1096,711.3
184.133,18
184.1499,188.3
184.1822,954.3
184.2002,305.1
184.2363,161.9
184.3563,177.9
184.4672,99.6
184.4767,851.5
184.5148,325.6
184.5214,189.9
184.5788,118.5
184.5997,129.6
184.7371,173.1
184.7417,187.6
184.7759,500.8
184.7881,116.9
184.93,67
184.9609,166
185.0232,725.6
185.0324,73302.1
185.0369,43.6
185.0703,9867
185.0767,198547.5
185.0797,1726
185.0916,17.9
185.1216,624.7
185.2107,17.8
185.3042,18.6
185.3214,366.6
185.326,158.3
185.3472,257.6
185.4155,18.7
185.5168,353.3
185.6864,19.9
185.6893,262.6
185.7572,182.9
185.8673,298.8
185.8772,433.2
185.8996,408
185.9029,320.2
185.9083,17.5
185.96,1064.8
186.0357,825.1
186.0689,236.8
186.0777,25649.7
186.0942,130.2
186.1732,301.6
186.2118,273.2
186.3207,156.8
186.3752,242.3
186.4106,119.2
186.4292,602.8
186.4826,131.2
186.5509,103.1
186.6038,483.1
186.6356,108.8
186.7022,362.5
186.7613,443.9
186.7803,618.2
186.7993,198.3
186.8263,21.7
186.852,142.8
186.8783,88.8
186.912,795.3
186.969,559.9
187.0305,2789.8
187.0579,654.1
187.0649,22
187.1079,1042.8
187.1287,482
187.2219,453.4
187.2875,353.3
187.2963,119.9
187.3209,91.8
187.3279,382.5
187.3773,103.4
187.3808,113.6
187.4608,243.9
187.4708,24.6
187.474,432.5
187.4906,96.2
187.577,531
187.5798,163.5
187.615,19.7
187.6632,370.6
187.7273,685.6
187.7571,486.3
187.831,428.3
187.8611,149.2
188.0327,144.2
188.0728,158.5
188.2268,260.6
188.3204,285.9
188.4041,410.2
188.4957,369.2
188.5117,222.2
188.5754,19
188.5971,367.7
188.6075,758.8
188.6114,380
188.6243,399.2
188.7169,118.9
188.7374,256.5
188.7791,19.8
188.8248,405.9
188.8269,150
188.855,474.8
188.8772,62.9
188.9013,367.9
188.9034,182
188.9254,427.9
188.9705,197.3
188.9828,372.5
188.9862,17.4
189.0085,170.9
189.021,76.4
189.0612,3500.6
189.0697,121.8
189.0739,236.2
189.0871,5564.4
189.1405,432.7
189.1601,378.4
189.2165,143.8
189.2767,17.2
189.291,203.4
189.416,19.6
189.4887,149.2
189.543,370
189.5567,270.1
189.5877,101.3
189.6547,344.8
189.6969,160.8
189.7006,125.1
189.7547,19.1
189.8462,620.7
189.878,175.5
189.9236,494.6
189.9512,482.8
190.0089,164.6
190.0716,116.3
190.0756,483.7
190.3032,641.5
190.3481,359.4
190.5334,360.3
190.5613,323.1
190.722,197.9
190.7511,509.2
190.8061,17.4
190.837,177.9
190.8416,508.7
190.8602,284.5
190.8726,1319.2
190.9121,2061.8
190.9355,192.2
190.9483,546.1
191.0004,127.3
191.0048,139.5
191.0081,7748.3
191.0183,388.4
191.0245,26
191.0404,71448.7
191.0768,16872.6
191.1415,352.3
191.1499,102.1
191.1935,141.8
191.2335,288.6
191.3369,441.4
191.3922,464.3
191.4791,365.7
191.5229,105.3
191.541,758.5
191.5642,368.3
191.5759,20.9
191.5841,396.6
191.5943,653.6
191.673,425.3
191.7048,664.5
191.731,284.3
191.7378,372.7
191.8807,49.5
191.8846,259.6
191.9132,324
191.9208,186.5
191.9302,312.7
191.9826,523.6
191.9856,169
192.0047,18.4
192.0398,11800.6
192.0437,1003.3
192.0563,225
192.1263,297.3
192.173,16.5
192.474,791
192.5036,272.2
192.6567,380.9
192.6973,366.8
192.729,17.7
192.7821,208.9
192.9086,40.4
192.9665,592.6
192.9797,269.9
192.9987,3126.7
193.0159,183.2
193.0347,1403.6
193.0529,116.3
193.0993,534.5
193.1205,187.3
193.1279,365.8
193.1946,172.5
193.2379,126.4
193.2628,358.3
193.4075,89.9
193.4244,21.2
193.4322,231.9
193.4482,18.3
193.5532,547.9
193.6001,212.1
193.6635,17.2
193.6767,204.3
193.7137,433.5
193.7234,154.8
193.7714,358.8
193.8226,245.5
193.8862,128.2
193.895,285.6
193.9982,751.4
194.0049,1419.2
194.0134,20
194.0327,2026.9
194.055,18
194.0586,467
194.1542,97.6
194.1697,23
194.3466,504.4
194.4073,241.7
194.4585,824
194.6386,412.9
194.7696,166.8
194.8221,286.3
194.9039,423.5
194.9179,226.4
194.9406,135.3
194.9551,590.1
194.9761,86.3
194.9806,257.3
195.0112,56.3
195.04,327.7
195.1859,140.2
195.1924,572.4
195.2052,436.1
195.2113,17.8
195.2548,132.5
195.2632,22.6
195.5041,723.7
195.5535,274.4
195.5801,184.1
195.5913,136.9
195.6254,372
195.7015,738.6
195.7105,146.7
195.7401,358.3
195.761,702
195.8089,130.1
195.8389,277
195.9244,361.7
195.9449,206.7
195.9504,726.1
195.9773,575.1
195.9819,28.8
196.0792,281.8
196.1696,716.6
196.332,246.1
196.3378,131.7
196.3699,320.4
196.3845,179.7
196.4208,145.1
196.5279,236.4
196.5347,16.8
196.5406,223
196.5524,485.1
196.8425,476.3
196.8652,5271.5
196.8684,648.4
196.8815,142
196.9325,256.7
196.9676,466.9
197.0187,806.2
197.0643,20.9
197.1009,438.9
197.1754,414.5
197.3229,463.2
197.3488,383.1
197.4127,306.1
197.4792,20.1
197.4851,19.4
197.5195,289.1
197.5919,391.9
197.6001,274.7
197.6933,343.3
197.7011,18.8
197.7541,18.7
197.8703,30.7
197.8911,131
197.9434,446.1
197.9705,301.1
198.0851,6981.6
198.092,180.1
198.1677,983.4
198.1854,4935
198.2473,348.3
198.2835,252.8
198.353,631.8
198.3995,243.1
198.4046,202
198.5468,250.4
198.5905,475.3
198.6055,138.6
198.623,168.8
198.6347,339.9
198.6952,758.8
198.7281,447.4
198.7398,147.8
198.8543,105.3
198.8622,3084.3
198.8858,452.4
198.8998,67.8
198.9081,19.3
198.9683,737
198.9741,22.3
198.9865,678.3
198.9983,21.8
199.0143,135.5
199.0166,59
199.0826,352
199.1208,98.2
199.1781,708.6
199.1881,435
199.2253,23.2
199.2476,15.9
199.2644,373.8
199.3271,250.2
199.4313,131.5
199.4602,477.9
199.5366,21.9
199.58,497.4
199.5962,19.3
199.6291,325.2
199.6838,20.7
199.7759,18.2
199.8239,203.4
199.894,245.1
199.8999,153.3
199.9244,332
199.9372,335.6
199.9908,35056.7
200.0156,352
200.0407,12468.7
200.0628,20.8
200.0863,340.2
200.1092,147.2
200.1308,18.3
200.1471,557.8
200.1541,565
200.1864,231.5
200.1985,18.7
200.2288,228.6
200.2962,477.3
200.339,19.5
200.3421,402
200.3472,13506.7
200.3561,132.8
200.3616,230.2
200.3797,18.9
200.5405,447.8
200.546,183.5
200.5604,186.9
200.57,265
200.5983,667
200.6469,336.8
200.6714,336.8
200.7257,366
200.7347,649.4
200.8518,177
200.8594,657.1
200.8837,111.6
200.8943,2988.7
201.0551,167.6
201.0629,461
201.0872,166.2
201.137,17.4
201.1808,290.7
201.1904,355
201.1986,215.8
201.2195,192.9
201.2373,536.6
201.2919,20.6
201.3164,269.7
201.3199,317.2
201.3225,16.5
201.3328,182.1
201.3567,260.8
201.3783,418.4
201.5902,139.6
201.5991,543.7
201.6021,485.9
201.6694,18.4
201.8042,332.3
201.8648,271.6
201.8736,676.9
201.8944,260
201.9957,85.3
202.0177,137.9
202.0319,17
202.2892,420.6
202.3019,335
202.3412,18.7
202.3438,678.7
202.3512,399
202.4334,264.7
202.4377,373.8
202.481,229.9
202.4817,214
202.4938,372.4
202.5308,170.2
202.5891,147.8
202.5929,129.1
202.6079,122.9
202.663,465.4
202.6724,13128.7
202.7556,223
202.7941,178
202.8059,387.6
202.8733,26.7
202.8952,139
202.9035,17.1
203.0527,1669347.1
203.0769,7122.1
203.1027,816.5
203.2494,132
203.2525,666.2
203.2901,20.5
203.3209,441.6
203.5119,230.9
203.5155,161.8
203.5224,401.8
203.5566,300.8
203.5918,256.1
203.6541,256.6
203.7275,346.5
203.7462,214
203.7544,113
203.8239,451.5
203.8658,27.4
203.9461,105.6
203.9978,155.9
204.0245,46705.6
204.0316,60.3
204.0477,17.7
204.0561,90256.4
204.0633,2074.8
204.0781,174.6
204.0891,17.6
204.1536,203.2
204.4054,18.1
204.5158,249.4
204.5541,221.1
204.5669,193.8
204.7651,162
204.8327,747.3
204.8428,24.3
204.8729,21.4
204.8787,138.3
204.8887,873.4
204.9603,236.5
205.0023,542
205.0112,143.6
205.0513,139.8
205.057,13538.1
205.0682,505.6
205.0837,47.5
205.0924,897.6
205.1008,185.1
205.1367,525.9
205.1842,246.5
205.1955,24.9
205.2397,16.7
205.2451,152.8
205.2833,144.3
205.3313,118.8
205.4114,18.8
205.5082,19.6
205.5265,19.9
205.607,155.6
205.6771,543
205.8122,348.7
205.8594,18.3
205.878,401.7
205.8891,77.2
205.9508,333.3
206.0275,27.7
206.0475,85.5
206.0586,349
206.1566,264.7
206.1777,150.4
206.1967,18
206.2342,153
206.2733,564
206.2913,214
206.3288,813.4
206.4284,390.7
206.4815,179
206.4992,367.4
206.5062,123.6
206.6745,683
206.6936,368.8
206.7027,510
206.7166,18.3
206.7198,19.4
206.7758,496.7
206.8755,422
206.8879,263.7
206.894,11710.7
206.9124,561.2
206.9168,303.1
206.9311,105.4
206.9342,237.6
206.9822,4961.4
206.9979,143
207.0144,66272.5
207.0317,48
207.0415,673.2
207.0441,536.6
207.0507,9251.3
207.1649,372.4
207.2444,222.7
207.254,122.7
207.3299,369.6
207.4751,19.9
207.548,311.1
207.6692,612.3
207.7321,166.1
207.8321,264.7
207.8833,452.2
207.8864,120.5
207.9015,21.9
207.9134,22.1
207.9906,965.4
207.996,649.4
208.0138,3884.3
208.018,1094.4
208.043,21.4
208.0464,488.9
208.1793,130.5
208.2032,352.3
208.4264,553.9
208.4332,670.5
208.4675,18.1
208.4844,146.5
208.7996,158.3
208.8092,163.3
208.8426,456.7
208.8831,3064.8
208.8911,6967.5
208.9172,458.4
208.9356,392
208.9851,280.5
209.0125,2165.8
209.0956,227.5
209.1088,17.6
209.1304,472.8
209.2625,340.1
209.2956,343.5
209.4048,229.1
209.4261,502.6
209.4564,534.7
209.5198,432.1
209.6242,18.5
210.7768,597.3
210.8322,165.5
210.8393,363.1
210.8494,188.7
210.8747,392.4
210.9428,128.2
210.9482,57.3
211.0692,790.1
211.2788,277.5
211.3013,530.1
211.3145,23.4
211.3209,793.7
211.3285,13724.9
211.3336,37279.3
211.3373,26685.5
211.3409,19617.2
211.3494,2051.5
211.3594,172.2
211.3874,163.3
211.4116,17.8
211.4975,350.1
211.6159,386.1
211.638,467.6
211.7253,404.5
211.7432,515.6
211.7631,528.4
211.7667,93.8
211.9451,20.5
211.9504,354.4
211.9594,22.9
211.9667,90.8
212.0243,23.4
212.0743,117.6
212.0817,198.7
212.1259,172
212.1862,89.6
212.397,83.3
212.4426,266.1
212.5801,325.9
212.647,22.1
212.7331,263.9
212.7863,18.2
212.8172,18.8
212.8392,2821.6
212.8763,19.8
212.9157,21.7
212.9468,294.1
212.965,25.7
212.9722,21.7
212.9764,663
213.0285,132.7
213.0322,57.7
213.0549,182.9
213.1125,418.4
213.1218,133.7
213.1644,513.4
213.2272,236.3
213.2287,253
213.4454,494.7
213.5043,18.7
213.5974,156.7
213.6184,182.7
213.6363,366.5
213.6879,264
213.8077,463.1
213.8558,532.7
213.9621,3686.6
213.9806,605.1
213.9846,149.5
213.9959,611
214.059,13739.4
214.0898,1292
214.1081,380.4
214.2204,475
214.2767,243.8
214.3223,126.3
214.3299,188.6
214.4187,358.6
214.5278,257
214.6053,273.1
214.632,330.1
214.6515,362.6
214.6884,19.9
214.7252,203.1
214.8363,1475.7
214.8387,407.1
214.8736,379.6
214.9099,536.4
214.9175,82.7
214.9458,578.1
214.9654,59.7
215.0931,41.9
215.1448,17
215.1824,317.6
215.1888,231.2
215.2217,639
215.2538,126.1
215.3975,472.5
215.4151,342.6
215.4376,352.1
215.5002,131.8
215.5523,20.5
215.8741,533
215.8806,28.4
215.91,54
215.9507,182
215.9577,25.7
216.0148,8881.7
216.0478,138.3
216.2266,18.7
216.2647,830.6
216.3103,96.4
216.3326,204.4
216.3906,200.1
216.4028,417.1
216.4497,18
216.4725,348.5
216.5161,19.9
216.6739,20.1
216.7758,706.2
216.8336,21.9
216.8724,21.6
216.8892,31.2
216.911,18.9
216.9229,38968.1
217.0288,676.3
217.0316,404.8
217.0415,234.9
217.0559,137.6
217.0816,109
217.3549,19.6
217.3875,398.4
217.4464,207.3
217.5137,351.9
217.5386,175.3
217.5688,207.9
217.7511,364.3
217.7541,134.2
217.7619,21.2
217.8777,239.6
218.0539,187.4
218.0921,528.4
218.0982,408.8
218.1018,125.5
218.1257,472.8
218.1328,177.2
218.1519,28.3
218.2657,523.4
218.2771,346.5
218.2832,359.1
218.4277,174.8
218.495,882.4
218.515,432.5
218.7345,150.5
218.8676,391.1
218.883,471.5
218.8884,22.1
218.9047,430.3
218.92,9530.9
218.9693,19.1
219.0179,1376.6
219.0267,1931807.5
219.083,6885
219.0897,362.4
219.1677,439.1
219.2294,135.3
219.2702,134
219.4256,429.7
219.4393,141.6
219.4514,621.7
219.5145,17.6
219.5159,19.3
219.5421,554.2
219.6805,169.8
219.7939,173.6
219.8307,397.1
219.867,17.1
219.9051,36.3
219.9477,373.8
219.9952,353.5
219.9984,165.3
220.03,101447.4
220.0372,1733
220.0481,192.6
220.067,6153.2
220.0734,732.3
220.0764,148
220.1202,326.6
220.1253,195.8
220.1297,401
220.1673,466.4
220.1871,279.7
220.1918,448.1
220.2189,264.2
220.2473,20
220.2676,477.3
220.4256,537.3
220.4581,183.2
220.5272,394.7
220.5471,483.5
220.634,98.7
220.7179,174.3
220.7965,272.6
220.8013,671.3
220.8207,132.4
220.8841,24.1
220.905,54.2
220.9329,27
220.9528,21.6
220.9595,465.3
221.0248,116450.5
221.0309,13802.1
221.0511,1208.9
221.0664,395.4
221.0845,1421.9
221.1894,23.9
221.197,18.7
221.2213,378.1
221.2404,242.3
221.2992,174
221.4757,18.8
221.488,427.4
221.5753,753.7
221.583,253.8
221.6194,546.1
221.6331,236.3
221.7119,17.4
221.7563,837.7
221.8132,216.9
221.8353,203.1
221.9423,135.6
221.9563,116.7
221.9697,20.9
221.9838,2560.1
222.0068,21.7
222.0282,4253.8
222.0345,396.3
222.0842,170.5
222.0881,53.2
222.1248,20.5
222.1275,17.9
222.6855,252.6
222.7352,143.4
222.7985,175.1
222.868,14850.5
222.8884,275.7
222.8988,743.3
222.9193,97.5
222.9542,1581.1
222.9883,8079.1
223.0274,19.5
223.037,1186.9
223.0638,182
223.0817,26.7
223.1332,294.8
223.1651,367.3
223.1992,19.3
223.2197,1152.5
223.7412,279.7
223.8003,268.3
223.8895,127.7
223.9337,118.6
224.0296,1234.3
224.1188,298.5
224.1289,325.1
224.1594,21.1
224.2602,324.1
224.3387,174.7
224.3773,271.7
224.4346,285.8
224.4711,145.3
224.5075,671.9
224.6349,160.3
224.6687,527.2
224.7415,165.7
224.7956,316.9
224.8333,289.7
224.8651,7585.5
224.8912,526.8
224.9276,172.6
224.953,219.9
224.9821,361
224.987,849
224.9902,161.1
225.0235,42.5
225.0432,222
225.0548,23994.8
225.0594,349.8
225.0846,360
225.0886,668.5
225.1255,286.8
225.1843,625.9
225.2163,233.4
225.2193,365
225.3353,682.2
225.3505,511.9
225.4679,510.5
225.5891,164.4
225.6574,503.4
225.6894,188.3
225.7647,20.6
225.7967,18.1
225.8283,349.5
225.8378,18.6
225.9376,22.2
225.9493,227
225.9542,25.1
225.9627,48.6
225.9925,506.5
226.0066,1970.6
226.0242,10699
226.0452,8373.3
226.1141,476.6
226.21,641.7
226.2467,376.2
226.2576,19.9
226.3677,502.8
226.4622,252
226.4683,507
226.6074,662.5
226.6295,16.5
226.6945,341.5
226.7039,287.2
226.7195,166.3
226.8417,385.3
226.8491,20.1
226.8941,28
226.9517,37357.8
227.0222,44.8
227.034,191.6
227.0432,383.9
227.0609,203.4
227.0793,693
227.0866,247.2
227.1185,204.2
227.1656,724.9
227.1974,18.4
227.3176,144.8
227.3618,17.9
227.418,18.4
227.4706,208.9
227.4862,231.1
227.5892,152.8
227.6922,20.2
227.7307,18.5
227.9108,340.6
227.9617,369.5
227.9842,134.4
227.9953,325.4
228.0003,210.1
228.0219,1010.6
228.0642,365.1
228.0689,235.7
228.0768,328.7
228.0805,626.3
228.1442,21.4
228.2206,141.1
228.3958,20.2
228.4232,231.6
228.4712,99.6
228.7104,22.5
228.8392,547.2
228.8893,80
228.9305,180.1
228.9602,205
229.0574,343
229.066,622.2
229.2423,315.1
229.2645,170.4
229.2842,521.6
229.3031,119
229.3088,600.8
229.3543,260.9
229.3784,521.8
229.4629,644.4
229.5453,649.5
229.7189,378
229.7448,167.4
229.7588,136.6
229.7783,601.4
229.7816,19.1
229.8359,20.8
229.8508,891.9
229.9128,52.3
229.957,12086.2
230.0076,654.9
230.0334,48.4
230.0478,552.3
230.1574,690
230.179,354.6
230.2971,514.9
230.4366,174.5
230.4429,20.2
230.4723,536.2
230.6175,177.9
230.631,412.2
230.7949,387.7
230.8101,478.9
230.844,20.5
230.8483,19
230.89,722.5
230.8977,19.9
230.904,232.7
230.9267,20
230.9435,291.4
230.9604,462.2
230.9685,643.5
230.9938,153.8
231.0107,404.1
231.0551,103.7
231.0734,607.8
231.1549,151.2
231.1579,686.3
231.1633,146.2
231.2711,253.3
231.3803,198.3
231.5715,585.6
231.6064,17.5
231.622,118
231.6798,21.1
231.7142,242
231.7931,628.4
231.797,483.9
231.9131,26.9
231.9528,350.6
231.9576,471.4
231.9613,27.4
231.9674,23.5
231.9726,85.6
231.9878,361.9
231.9959,30.5
232.0095,21
232.0298,131.3
232.0631,18.5
232.367,136.5
232.3858,349.6
232.4197,268
232.4965,181.3
232.6007,191
232.6055,469.5
232.6696,690.6
232.6785,143.2
232.7214,123.3
232.754,631.3
232.8835,207.7
232.8968,42053.6
232.9203,23.2
233.0349,100.5
233.051,7571.5
233.0824,345.7
233.1107,21.6
233.19,25.5
233.2789,211.4
233.3528,419.1
233.3864,235.9
233.4841,24.6
233.6911,19
233.7033,239
233.7374,147.2
233.7595,167.6
233.8213,263.3
233.8272,341.7
233.9302,233.3
233.9529,72
233.9686,324.4
234.0874,395
234.1044,18.7
234.1998,281
234.2684,512.2
234.3559,21.2
234.3617,20.6
234.3675,403.5
234.3725,391.1
234.4464,16.9
234.4511,108.3
234.4867,140.9
234.626,138.4
234.7113,247.8
234.7734,158.8
234.8428,128.3
234.8937,8672.4
234.8997,549.8
234.9108,20.6
234.9706,238.3
234.9817,1556.4
235.057,1573.7
235.0667,1201.4
235.0927,5733.9
235.1706,148.7
235.1843,136.6
235.2272,275.4
235.3648,403
235.3851,299.7
235.4346,601.7
235.4498,123
235.4843,160.8
235.5905,661.1
235.6563,353.5
235.6941,180.6
235.715,19.8
235.9001,25
235.9403,432.2
235.9495,167.5
236.0221,332.4
236.0409,4758.9
236.0718,47039.6
236.1326,18.5
236.214,392.3
236.2438,329.7
236.4453,22
236.5646,293.5
236.5904,292.9
236.6218,305.4
236.6948,400.6
236.8202,320.4
236.8781,438.6
236.9071,215.5
236.9794,21.5
237.0425,254.8
237.0751,2357.8
237.0826,205.3
237.1022,239.9
237.1439,188.1
237.1671,137.8
237.2014,821.4
237.2662,312.1
237.3008,540.7
237.3173,659.8
237.4379,292.7
237.6186,530.1
237.8718,222.8
238.0548,421.3
238.0675,759.4
238.0763,31.6
238.1152,240.1
238.2182,178.9
238.3689,189.4
238.4264,18.7
238.4354,206.6
238.452,329.3
238.6003,202.6
238.741,17.7
238.8133,232.4
238.8419,6627.5
238.8532,849.4
238.8567,92.5
238.9074,19.6
238.9548,561.4
239.0091,4452.1
239.0495,310.2
239.054,184.3
239.0641,1582.8
239.0707,21.3
239.0777,163.3
239.09,169.6
239.1617,17.5
239.2761,505.6
239.327,18.8
239.3901,124.6
239.5481,267.9
239.5817,160.4
239.6267,537.7
239.6728,338.4
239.7615,145.7
239.7883,21.5
239.8199,273
239.8725,135.6
239.8781,568.7
239.9784,23.5
239.9988,20.5
240.0035,1006.4
240.0634,147.6
240.0999,97.1
240.1159,298.9
240.1502,213.2
240.1517,205.8
240.1921,194.8
240.2685,216.5
240.3487,202.2
240.5353,95.7
240.5621,104
240.7141,116.4
240.8388,2904.7
240.8683,175.6
240.8758,700.8
240.9547,2015.6
240.9673,3133.8
241.0086,809.5
241.0313,143.2
241.143,18
241.1903,628.2
241.2308,23
241.2931,18.2
241.3238,166
241.3296,431.8
241.3492,186.8
241.357,306.8
241.4694,277
241.5908,131.4
241.6287,94.1
241.6641,945.3
241.6703,140.9
241.6729,177.7
241.6743,135.2
241.7501,1219
241.7679,193.7
241.7915,781.2
241.8723,342.4
241.9776,90.9
241.998,2056.9
242.0192,5955.7
242.0219,760.6
242.0761,129.3
242.0843,233.2
242.1551,204
242.3483,183.9
242.4554,414.3
242.4804,308.4
242.5101,570.2
242.6539,559.7
242.6684,141.6
242.7006,392.1
242.7115,683.6
242.7339,19
242.8133,92.6
242.8432,468.1
242.867,168.9
242.9256,27571.3
242.9756,61.5
243.0065,670.2
243.0532,10197.1
243.0654,5849.2
243.2714,154.4
243.3295,426.1
243.5746,360.6
243.5932,267.9
243.6189,248.4
243.6816,108.7
243.8949,381.4
243.9123,378.1
243.9281,413.5
243.9446,21.9
243.9546,395.4
243.9727,3864.1
243.9978,186.9
244.0125,135.3
244.0172,413.2
244.1741,20.3
244.1973,391.9
244.3212,19.4
244.3452,115.8
244.3675,374.4
244.5262,255.9
244.6483,337
244.6854,444
244.7754,305.9
244.7874,313.9
244.8131,22.1
244.8575,322.3
244.8709,4682.9
244.9037,19.3
244.9238,1114.9
244.9533,915.9
244.9759,360.6
245.1042,424.8
245.2868,211.2
245.3214,269.4
245.3327,639.9
245.5467,85.4
245.62,148.1
245.6667,417.5
245.7059,196.5
245.8023,153.6
245.8225,542.6
245.831,723.8
245.8659,283.2
245.8846,276
245.8897,773
245.8906,921.8
245.8923,414.8
245.9346,235.7
245.9684,78.5
245.9732,113.7
245.9838,499.1
245.9878,186.8
246.0007,20.9
246.0095,453.1
246.1283,524.9
246.2326,388
246.2712,312.4
246.5196,325.1
246.5668,524.3
246.628,313.6
246.7841,481.4
246.8078,136.9
246.8443,19.4
246.8624,916.9
246.8994,26.9
246.9122,510.5
246.9471,21.4
246.9517,1918.5
247.0275,149.3
247.0373,811.6
247.0496,565.7
247.0667,846.7
247.0926,1405.7
247.182,603.2
247.2234,701.8
247.2912,385.3
247.3169,234.4
247.3185,384.9
247.3196,408.1
247.4253,17.3
247.4936,519.6
247.5492,413.2
247.5776,144.1
247.6917,173.1
247.7563,351.8
247.8704,21.6
247.9119,814
247.923,47
247.9546,177.9
247.9677,453.5
247.9834,1029.4
248.0286,281.3
248.0438,228
248.1243,9683
248.249,356
248.2997,19.6
248.3318,19.4
248.4794,368.7
248.6201,189.3
248.6328,418.6
248.8645,188
248.8708,14162
248.9008,165.6
248.9161,27.6
248.9483,112.6
248.9594,1215.3
249.0612,12479.6
249.0822,218.7
249.0911,513.7
249.1132,19.9
249.1316,282
249.1983,253.5
249.319,262
249.4834,636.2
249.5235,19.6
249.5912,570.9
249.6571,375.4
249.7462,18.7
249.7708,228.6
249.7902,158
249.8264,213
249.8709,511.4
249.8864,106.4
249.9335,196.1
250.0383,169.4
250.0511,26.9
250.0556,405.6
250.0647,429.8
250.1811,21.4
250.1858,132.1
250.1947,362.5
250.2903,130.5
250.3092,369.1
250.3687,142.7
250.4307,245.5
250.4583,188.8
250.5323,142.9
250.5905,20.4
250.8596,314.9
250.8677,1890.3
250.8779,438.2
250.8874,19.8
250.894,205
250.9204,2465.6
250.9554,1496.7
251.0007,19.6
251.106,449.7
251.1689,282
251.1891,373
251.2287,242.2
251.269,426.8
251.3111,295.1
251.3351,134
251.382,245.3
251.447,160
251.5271,18.4
251.7035,357.5
251.7186,255.8
251.7729,562
251.9108,137.7
251.9321,697.2
251.9804,188.1
251.9835,345.3
252.0367,135.3
252.0408,155
252.0458,116257.1
252.1845,371.8
252.6283,286.2
252.7085,272.6
252.9105,130.4
252.9178,1586.6
252.9241,20.9
252.9515,138.3
253.0045,339.7
253.018,166.4
253.0248,257.9
253.045,19.2
253.0491,5390.1
253.1879,443.4
253.2204,20
253.2288,221.1
253.2468,110.7
253.3972,119.8
253.4087,150.9
253.4237,753.5
253.519,112.8
253.5724,737.6
253.6294,20.7
253.6517,221.5
253.6786,20.7
253.7602,456.2
253.789,463
253.8584,20.7
253.8672,635.1
253.9875,91.9
254.0435,2817.9
254.0527,32.6
254.1206,112.7
254.1544,120.1
254.3941,367.4
254.4253,329.6
254.4659,395.7
254.4999,17.9
254.5904,400.4
254.6428,150.6
254.7438,366.6
254.78,1292.7
254.8158,2981.7
254.8239,5466.5
254.8568,27.6
254.9255,424.7
254.9458,270.6
254.9861,163
255.0331,31086.6
255.0381,2612.3
255.0469,488.4
255.066,89.9
255.1802,130.6
255.4807,140.6
255.6166,304.7
255.7682,393.1
255.7951,339.7
255.836,20.8
255.9665,100.1
256.0032,2158.2
256.0378,237.6
256.0598,157.2
256.1678,18.6
256.1863,721
256.2134,244.9
256.2416,244
256.3419,644.6
256.3699,637.7
256.5328,398.2
256.5661,358
256.6159,23
256.813,1077.4
256.8209,6913.6
256.8425,19.2
256.9002,180
256.9325,700.5
256.9413,1617
257.0139,127.7
257.0221,245.8
257.0488,7930.2
257.059,256
257.0654,675.2
257.0746,48174.4
257.1054,341.1
257.1735,138.1
257.1801,24
257.4344,23.4
257.5061,521
257.6403,194.1
257.8043,564.3
257.9034,202.7
257.9444,141.3
257.9519,274.7
257.9885,31.4
257.9931,1497.2
258.03,408.5
258.0662,343.3
258.074,93.5
258.0779,904.4
258.1103,16077.2
258.2503,227.7
258.3661,18.4
258.8182,1260.8
258.8253,149.5
258.844,21.6
258.8649,267.9
258.8996,5671.9
258.9895,390.6
259.0343,280.4
259.0377,181.4
259.0621,412.1
259.0762,555.4
259.1212,432.5
259.3036,584.3
259.3195,446.3
259.332,20.5
259.4798,511.5
259.5261,822.6
259.547,379
259.5524,150.4
259.9076,21.4
259.9873,640.6
260.0172,22.1
260.0441,479.5
260.0535,417.5
260.0924,120.1
260.224,21.7
260.2309,156.8
260.2692,140
260.2828,159.6
260.3025,22.9
260.3745,889.3
260.4271,458.8
260.7715,175
260.8092,159.3
260.816,347.7
260.8448,1164.8
260.8784,81.2
260.8891,23.4
260.8973,552.3
260.9491,7199.3
261.0129,547.3
261.0475,400.3
261.1184,22.6
261.2591,127.5
261.3646,526.7
261.4647,20.9
261.4783,22
261.4966,302.2
261.5383,383.8
261.6287,176.8
261.6599,186.1
261.6698,219.8
261.7327,144.5
261.8493,202.8
261.8561,471
261.879,19.3
261.901,125.9
261.9087,499.5
261.9827,37.1
261.9861,382.1
262.0432,414.9
262.0469,164.2
262.059,22.6
262.0815,1562.4
262.1194,703.6
262.1488,175.6
262.2386,17
262.2595,689.5
262.2863,370.9
262.3815,620.8
262.4039,757.2
262.5246,350
262.6384,341.4
262.6842,677.7
262.7311,467
262.8107,655.6
262.858,111.8
262.8651,236.4
262.8772,114.7
262.8821,19
262.9165,25.7
262.9304,37.5
262.9464,1530.2
262.9702,112.5
263.0136,561.6
263.0404,154.3
263.0757,495.6
263.1049,195.2
263.2658,186.3
263.2963,313.7
263.6606,296.8
263.9323,727.8
264.037,171.1
264.3117,165.6
264.4933,388.6
264.6104,696.4
264.6632,172.8
264.7593,20
264.8283,101.4
264.8448,2624
264.8528,4015.9
264.8731,243.8
264.9226,298.5
264.9337,2464.3
264.9547,258
264.9885,8759.4
265.0167,22.3
265.0231,644.1
265.0352,8596.2
265.0478,1064.3
265.1068,20.1
265.121,25.3
265.4619,127.9
265.5404,183.3
265.6081,422.5
265.6548,531.1
265.71,789.4
265.8485,216.9
265.9101,324.7
265.9362,446.3
265.9576,53.6
265.9639,103.3
265.9784,352.8
265.9876,189.4
265.9926,85.7
266.1134,264
266.1589,523
266.2191,211.4
266.3008,611.5
266.3394,378.9
266.4098,21.8
266.4446,377.2
266.4721,163.1
266.4767,181
266.6081,224.6
266.7823,18.5
266.7881,436
266.8498,2337
266.8943,2263.9
266.9248,364.4
266.959,127.6
267.0244,204.8
267.0721,165.6
267.1368,374.9
267.2414,218.1
267.2772,164.2
267.2877,450.6
267.3494,141.6
267.3805,541.8
267.4056,176.8
267.5575,740.4
267.5708,140.3
267.6511,280.9
267.7356,150.3
267.7708,425.9
267.8947,159.1
267.9737,75.6
267.9939,1045.2
268.0097,80.9
268.0177,595.1
268.0305,942.6
268.0895,360.1
268.1096,114.9
268.3128,19.2
268.3438,263.2
268.3543,428.1
268.3751,537.2
268.4924,20.2
268.5977,308.8
268.6251,266.7
268.6641,550.2
268.7076,401.9
268.8101,251.4
268.8189,283.1
268.8665,747.1
268.8911,997.8
268.9969,19.7
269.0279,468.5
269.0297,494
269.0487,43705.3
269.1248,420.7
269.1856,657.1
269.2639,155.3
269.335,20.4
269.3842,251.1
269.495,333.9
269.5752,677.4
269.73,164.3
269.8495,777.7
269.8631,221.5
269.8906,18.9
269.9527,28.2
269.9894,306.5
269.9941,2972.9
270.0097,93.3
270.0194,25.5
270.0248,19216.9
270.0474,18508.5
270.0522,651.6
270.0656,20
270.0699,151.4
270.1152,20.7
270.1365,516.3
270.1452,292.6
270.1706,570.1
270.2224,507.2
270.3593,484.6
270.4212,197.4
270.5912,163.7
270.6566,353.4
270.6986,150.6
270.7979,3053.5
270.8394,122.8
270.8655,401
270.9009,150.7
270.9593,53.8
270.978,15675.6
271.0281,1528.6
271.051,193.4
271.0743,347
271.0904,1408
271.1361,274.1
271.1602,186.5
271.3342,284.2
271.3381,802.2
271.4486,21.9
271.5036,717
271.5941,19.5
271.6074,18.4
271.6423,21.7
271.9653,466.9
272.0045,31
272.0207,466.8
272.0302,18
272.0433,31.2
272.0803,129
272.0848,147.9
272.0954,130.8
272.135,447.4
272.1927,291.4
272.2581,109
272.3881,307.1
272.3925,556.6
272.4926,363.4
272.5747,290.6
272.5804,154.8
272.6612,378.7
272.7394,367
272.7949,3949.3
272.8071,18.6
272.8242,63.6
272.9239,631
272.9714,272.2
273.012,614.3
273.0486,3949.7
273.068,19.2
273.157,167.9
273.1816,252.2
273.2213,19.4
273.2646,20.8
273.2749,427.6
273.5934,441.3
273.7144,21.4
273.7279,424.5
273.8449,617.8
273.9254,23.4
273.9296,191.5
273.952,604.9
273.9627,15054.8
273.9679,164.2
273.9743,20.5
274.0693,52.4
274.0925,2284
274.1126,585.2
274.1175,23.1
274.1265,153.5
274.182,28.4
274.3177,245.9
274.3267,530.7
274.4597,129.4
274.5564,101.2
274.5679,151.8
274.6725,395.7
274.7023,332
274.792,1382.9
274.8026,52.1
274.8933,444.6
274.9422,25.5
274.9492,381.8
274.9649,169.8
274.979,878.3
275.0694,200.9
275.0901,203.8
275.2186,258.2
275.2313,1084
275.2477,146.3
275.2568,139.5
275.2732,561.7
275.3609,183.3
275.389,438
275.4454,465.8
275.4961,409.7
275.8004,358.3
275.8464,358.5
276.0034,78.5
276.026,497.9
276.2411,423.4
276.2873,758.3
276.805,580.9
276.8186,106.9
276.8738,59
276.9106,111.5
276.9229,6681.5
276.9394,417.2
276.9857,835
277.0289,153.9
277.038,122.5
277.1258,147.8
277.2226,545.4
277.3727,21.9
277.3846,344.5
277.3903,18
277.47,635.5
277.4923,563.1
277.5939,22
277.8141,534.3
277.964,20.6
278.0192,306.2
278.0302,318.6
278.0701,148.8
278.1854,453.3
278.4022,427.6
278.535,427.9
278.7295,19
278.8469,31.9
278.8621,21.1
278.8889,83.2
278.9205,1845.2
278.987,773.7
279.0042,1729.4
279.024,21.5
279.0567,37159.3
279.3482,287.6
279.4328,353.8
279.4894,613.4
279.5659,21.6
279.6604,358.7
279.7218,405.9
279.7451,709.4
279.777,165.4
279.783,217.5
279.8204,415
279.8868,347.1
279.8976,399.8
279.9005,302.3
279.912,202.9
279.969,375
279.9771,363.8
280.0124,623.1
280.0927,667
280.1275,186.3
280.3284,352.8
280.5919,20.9
280.7288,17.1
280.7658,535.9
280.8131,72.3
280.8268,2275.1
280.8426,732.9
280.8609,138.9
280.8918,225.5
280.8973,19.9
280.9105,449.7
280.9338,300.1
280.9518,191.3
280.9624,989.6
281.0091,1466
281.0198,25.3
281.0514,1346.7
281.1116,200.5
281.2811,278.1
281.3191,19.9
281.3279,812.1
281.3767,304.7
281.5357,21.2
281.6955,153.6
281.7038,363.8
281.7222,141.3
281.7321,179.1
281.7946,112.3
281.9536,441.4
281.9904,111.8
282.0147,52.5
282.0511,188.7
282.0648,359.4
282.076,457.9
282.2097,221
282.3,129.6
282.3959,251.5
282.6227,261.3
282.8237,1653.8
282.9451,442.4
283.0154,167
283.0277,550.1
283.0483,62.1
283.1357,40.9
283.2005,582.8
283.2628,399.7
283.4144,426.8
283.4805,19.8
283.6968,221.7
283.9021,635.4
283.9806,252.9
283.9986,114.7
284.0042,75.8
284.0244,201.9
284.0346,21.5
284.0624,33.8
284.2527,21.1
284.2727,261
284.3694,79.9
284.4047,239.9
284.4288,676.2
284.8205,466.3
284.9424,320.3
285.0231,334.5
285.0473,476
285.1244,153.7
285.1487,401.1
285.1843,671.3
285.4201,18.8
285.426,224.3
285.5191,293.6
285.6866,431.6
285.791,157.5
285.7992,235.6
285.8548,350
285.934,23.9
285.948,666.7
285.9542,17.2
285.9678,634.9
285.9872,18
286.0198,4614.7
286.1307,230.1
286.1771,399
286.5099,343.8
286.5295,825
286.534,114.8
286.7716,2440.2
286.7889,508.9
286.7997,228.8
286.92,199.8
286.9519,7763.4
287.0135,387
287.023,407.9
287.0295,176.3
287.0553,22912.1
287.0649,306.5
287.0789,470.2
287.1009,560.6
287.1102,746.5
287.2075,241
287.2628,388
287.3647,19.8
287.4961,287.8
287.5236,22.1
287.677,18.8
287.8101,187.2
287.9493,219.3
287.9987,161.1
288.0157,105.9
288.0347,23
288.0584,196.1
288.0852,48.2
288.1557,15340.5
288.2219,470.5
288.333,145.2
288.4441,700.7
288.5559,629.7
288.7469,21.7
288.7504,235
288.7689,2035.8
288.8034,22.7
288.8785,368.9
288.8866,434
288.9003,4082.8
288.9069,3654.1
288.9119,4023.4
288.9225,17944.8
288.9339,15239.1
288.9406,17509.4
288.9449,19566.6
288.9475,21258.6
288.9538,22619.2
288.9593,17686.3
288.9626,17612.4
288.9659,17608.5
288.9702,18304.3
288.9813,10735.2
288.9855,8652.6
288.9919,7465.7
289.0023,3319.8
289.0111,2449.9
289.0233,1137.3
289.03,793.9
289.0378,304.6
289.1027,109.8
289.1589,848.6
289.2943,147
289.4247,150.5
289.5414,107
289.6344,135
289.7406,674.4
289.7854,345.4
289.8391,339.6
289.9295,491.2
289.9366,3258.7
290.0339,145.8
290.3179,245.7
290.3404,300.3
290.3575,150.4
290.5409,607.2
290.5674,123.1
290.6783,21.5
290.687,409.4
290.7078,255.2
290.7382,553.3
290.7657,318.5
290.7973,141.8
290.8347,21.8
290.8898,224.2
290.9222,24.4
290.925,27.8
290.9403,110.7
291.0266,5275.3
291.042,375.9
291.0454,349.9
291.0774,21.1
291.1015,21.1
291.109,647.2
291.1506,114.6
291.2352,121.9
291.508,349.1
291.6054,143.2
291.7907,417.4
291.8059,23.3
291.8882,301.8
291.9573,151.2
291.9727,199.5
291.9814,168.2
292.1027,392.2
292.1723,212.7
292.379,266.7
292.4602,24.7
292.464,266.4
292.4712,545.1
292.4846,340.6
292.5256,485.3
292.6255,19.1
292.7107,160
292.7702,141.5
292.7735,145.1
292.7776,364.1
292.8359,24
292.8545,503
292.897,2047.6
292.932,544.5
293.0053,647.1
293.0724,2380.4
293.0983,180743.5
293.1317,359.5
293.2471,315.6
293.2639,183.8
293.2722,19.3
293.298,390.1
293.5067,168.5
293.6493,166.2
293.9363,128.5
293.9831,417.2
294.1017,15740.4
294.1076,455
294.155,361
294.3286,525.7
294.4057,19.2
294.4084,17.4
294.4556,225.8
294.5551,167
294.6961,458.5
294.7932,274.9
294.8515,90.6
294.8946,559.5
294.9859,212.4
294.9906,185.3
295.0306,1969.4
295.0986,623
295.1031,298
295.1187,413
295.1856,18
295.1947,17846.2
295.2177,140.7
295.2693,22.2
295.4268,139.7
295.4764,195.6
295.5886,118.4
295.6093,247.7
295.6757,325.8
295.7353,410.3
295.7534,346.6
295.8719,402.6
295.9765,131.1
295.9921,23.5
296.1043,523.9
296.1427,153.9
296.1879,617.5
296.2076,206.1
296.3161,741
296.3678,216.1
296.3921,87.9
296.7624,283.1
296.8004,794.1
296.8121,361.9
296.9053,18.8
296.9201,497.1
296.9363,423.7
296.9399,237.5
296.9874,70.7
297.0088,234.9
297.0468,30
297.0821,19
297.1482,347.7
297.2448,16.7
297.2555,20.1
297.2789,19.9
297.3368,321.5
297.4636,129.8
297.5345,565.6
297.6937,20.3
297.7086,230.9
297.9186,386.1
298.025,1918.7
298.0423,8423.7
298.0825,134.2
298.111,25.2
298.1332,658.5
298.175,244.3
298.3043,295.1
298.336,213.8
298.5365,245.8
298.5888,242.5
298.8248,181.4
298.8673,23.3
299.0117,152.3
299.0233,1534.1
299.0343,18.4
299.0458,392.2
299.062,50.4
299.1394,3908.6
299.1567,265.6
299.2075,199.2
299.4561,120.3
299.55,437.6
299.8225,20.2
299.9739,109.6
300.0354,972.8
300.0754,186.3
300.1962,262.7
300.2951,228.6
300.6137,438.3
300.6586,423.3
300.819,65.1
300.8538,133.2
300.9573,454.5
300.9675,745.3
301.0118,218.9
301.0152,256.4
301.0386,24021
301.0766,89.6
301.1415,379
301.1497,695
301.1832,170.5
301.199,21
301.2117,1055.6
301.3832,314.3
301.4038,85.8
301.4847,158.8
301.5713,257
301.6979,190.2
301.7071,222.7
301.8269,60.3
301.8855,176.9
301.994,8084.5
302.0199,264.2
302.0334,40.7
302.0407,217.6
302.051,125
302.064,2507.1
302.0736,390.5
302.3072,184.6
302.6946,394.5
302.7096,21.4
302.7199,18.6
302.7357,423.9
302.7466,511.4
302.821,173.1
302.8295,471.9
302.9258,1920.7
302.9603,584.7
303.0674,263.7
303.0746,1175.8
303.0913,471.1
303.1262,22.2
303.2169,1655.9
303.2765,627.2
303.483,370.8
303.9789,132.9
303.9859,461.1
304.0589,217.3
304.0689,19.7
304.0961,429.2
304.101,730.6
304.1196,324.8
304.2112,586.3
304.5871,17.7
304.6286,283.8
304.7427,490.8
304.7486,115.1
304.8137,155.4
304.8262,467.5
304.8342,19.2
304.8925,260.9
304.9055,96.8
304.9552,561.2
304.9761,471.9
304.9834,318.5
304.9895,26.3
304.9983,134.8
305.3699,21
305.7015,129.8
305.7182,165.7
305.7744,21.8
305.7899,193.8
305.8236,354.6
305.8443,22.6
305.9101,165.1
305.983,76
306.0951,21.5
306.1685,696.4
306.2411,428.7
306.2721,433.8
306.2774,139.9
306.2996,347.4
306.3413,136.7
306.6173,461.5
306.6322,131.1
306.7977,520.5
306.8127,60.3
306.842,72.4
306.8957,24
306.915,390.3
306.9683,798.9
306.9773,779.6
307.1,239.9
307.1052,438.9
307.1239,816.5
307.1646,391.4
307.1944,798.3
307.3856,867.3
307.4102,373.7
307.5101,21.2
307.5407,295.5
307.7665,426.5
307.8664,153.7
307.9345,163.2
307.9472,143.4
308.2477,198
308.282,180.5
308.3903,193.9
308.3956,348.3
308.4592,97.2
308.5219,20
308.5664,115.1
308.8083,375.6
308.8182,366.4
308.8789,2330.3
308.9166,22.8
308.9424,543.6
308.9647,20.2
309.0061,123.4
309.0376,3468.7
309.0828,941.7
309.1515,218.2
309.1715,720.9
309.2282,427.2
309.3005,194.4
309.5723,296.5
309.601,87.4
309.6648,109.2
309.7003,195.2
309.7221,18.8
309.8402,563.3
309.8987,296.8
310.0207,24.4
310.0672,612.4
310.1108,370.6
310.3981,21.6
310.4232,18.6
310.4382,18.4
310.5611,663.6
310.6085,579.2
310.6215,18.8
310.6927,553.1
310.8041,115.5
310.8121,19.6
310.8386,209.9
310.8758,2223.7
310.9423,221.9
310.9743,441.3
311.0026,22.8
311.1672,1056.1
311.2445,230.9
311.27,271.2
311.2962,705.4
311.335,92.8
311.3548,145.1
311.4281,666.6
311.4398,273.7
311.513,152.2
311.6214,239.5
311.6433,169.6
311.6661,388.6
311.9306,152.7
311.9992,42.3
312.0194,231
312.0296,657.3
312.0411,1546.4
312.0521,20.4
312.2621,140.2
312.2916,19.3
312.3352,204.9
312.3581,320.2
312.3942,234.8
312.4601,149.9
312.5085,22.3
312.6284,228.1
312.65,193.1
312.8029,25.7
313.0024,34.3
313.018,236.3
313.0433,525.7
313.0517,419.7
313.1658,20.1
313.193,655.8
313.274,33038.6
313.5192,17.8
313.5867,19.2
313.7102,658.5
313.7231,17.7
313.7331,297
313.8275,44
313.8688,370.7
313.8793,514.1
313.9959,198.5
314.0148,4730.4
314.0247,342.5
314.0911,53.7
314.0963,690.2
314.1639,244.2
314.2773,2371.2
314.4566,693.8
314.5003,278.6
314.7037,776.5
314.7801,182.7
314.798,416.4
314.8226,21.8
314.8371,4795
314.8971,21.9
314.9991,3884.6
315.0044,1529.9
315.0181,449.5
315.0291,401.7
315.0426,156
315.0445,156.1
315.0553,10022.9
315.0639,5186.4
315.0661,9119.3
315.0704,14329
315.0803,7590243
315.0864,23403.1
315.0899,13588.1
315.0918,8795.2
315.094,4943.2
315.0966,5095.3
315.0982,4459
315.1024,1597.5
315.1044,1104.8
315.1095,275.1
315.1108,285.6
315.1149,126.4
315.118,210.2
315.1613,4755.5
315.1811,216.5
315.1929,436.1
315.2711,127
315.2806,196.7
315.3237,6255.3
315.3446,19
315.4866,175.6
315.5353,185.3
315.5736,127.1
315.5819,151.3
315.6144,173
315.6488,552.9
315.6794,245.3
315.7553,522.7
315.7826,185.5
315.9285,115.1
315.9442,82.5
316.0111,74.5
316.0532,20
316.0677,141.6
316.0775,44507
316.0836,776759.6
316.0939,242.5
316.1051,371.7
316.2358,202.4
316.2444,157.8
316.404,191.5
316.4208,150.8
316.5666,18.8
316.5796,133
316.6312,495.5
316.7401,17.9
316.7561,339
316.7981,284.3
316.8788,493.8
316.986,623.5
317.0557,465.3
317.0841,85668
317.2825,323.6
317.3552,292.3
317.4609,274.4
317.5031,111.3
317.5273,199.2
317.5971,314.1
317.7956,28.7
317.8219,107.8
317.8414,17.7
317.86,261.9
317.8986,363.5
318.0877,8722.3
318.1079,19.8
318.12,329.8
318.1424,358.9
318.2403,276.2
318.3119,22.5
318.3804,20
318.3857,16.7
318.4361,22.1
318.5154,350.3
318.6691,233
318.6897,18.3
318.7059,97
318.7924,1356.6
318.8035,597
318.9024,145.2
318.9055,351
318.921,28
319.0634,283
319.1675,391.2
319.1948,31439.5
319.2958,264.2
319.3899,323.1
319.3974,18.7
319.4492,236.1
319.5335,427.4
319.7923,29
319.8001,21.6
319.8064,621.2
319.9446,412.8
320.0752,22.6
320.1983,3134.4
320.229,496.3
320.2586,6539.2
320.3105,806.8
320.3532,447.3
320.419,213.7
320.6533,22
320.7181,396.3
320.7514,710.1
320.7929,36.9
320.7992,18.8
320.8307,90.4
320.989,147
321.0399,489.3
321.1621,288.9
321.1825,281.9
321.2104,29547.2
321.262,532.9
321.4063,366.9
321.5796,91.6
321.8115,155.2
321.8162,85.3
321.8291,19.2
321.8658,172.6
321.9182,154.4
322.0019,484
322.0093,46.3
322.1086,20.1
322.121,18.4
322.214,2279.9
322.3378,731.5
322.3656,458.9
322.3869,92.1
322.4086,228.7
322.5709,454.4
322.5883,132.8
322.6581,384.1
322.7649,299.7
322.9308,381.7
322.9591,430
323.0207,11528.6
323.0865,18.6
323.108,450.1
323.2256,1654.8
323.5303,622
323.8254,22.3
323.929,169.7
324.0018,7668.4
324.1323,426
324.2893,352.6
324.5033,107.2
324.6216,373.5
324.6859,21.1
324.6976,453.6
324.7069,1844.2
324.7133,3455.6
324.7196,5093.4
324.7327,10330.3
324.7553,19.5
324.8533,2239
324.9507,570.5
324.9931,111.8
324.9995,355.7
325.0059,175.8
325.056,627.4
325.2117,844.5
325.3968,400.6
325.4281,191.1
325.789,146
325.7962,219.6
325.8367,191.9
325.8444,131.9
325.9564,134.7
325.9907,18.6
326.0263,147.8
326.0759,98.2
326.1685,540.6
326.3169,359.1
326.4442,481.7
326.4496,771.9
326.5324,276.4
326.5781,758
326.6022,483.4
326.7044,402.5
326.7699,309.2
326.7866,27.5
326.7957,377.2
326.8502,2214.9
327.0156,3217.9
327.052,2063.4
327.1271,430.7
327.2151,241.1
327.2274,4978.2
327.3599,382.8
327.4398,354.1
327.7531,434.4
327.7926,405.1
327.8041,145.2
328.0306,537.3
328.0539,139.3
328.2518,623.7
328.348,153.3
328.4082,1217.3
328.4674,146.8
328.476,563.9
328.4841,402.8
328.4995,192.9
328.5913,193.8
328.643,165.7
328.658,307.4
328.8142,141.5
328.8267,150
328.9496,18.3
329.0312,308.3
329.0963,813.9
329.2062,362.9
329.3804,22.2
329.3934,508.9
329.4004,134.5
329.4054,297
329.5514,146.1
329.8144,28.8
329.8215,61.9
329.8759,322.8
329.9613,355.9
330.0591,58.6
330.1123,96.7
330.1375,264.2
330.1422,275.7
330.4705,148
330.5003,342.6
330.5182,189.5
330.53,113.3
330.5792,26.4
330.8603,137.5
330.9376,542
331.0195,552.8
331.0455,65462.6
331.0542,1134008.3
331.0943,4803.3
331.1819,152.1
331.3846,378.3
331.5353,20.8
331.6401,338
331.697,367.6
331.719,19.8
331.8168,19.2
331.8282,374
331.8373,21.7
332.0476,1436.4
332.0575,102476.9
332.1385,121.9
332.5899,289.9
332.6126,336.7
332.8086,111.5
332.8415,393.9
332.8499,162.9
332.9604,1010.7
333.0523,66141.6
333.058,11092.5
333.1513,1040.8
333.6402,187.4
333.6449,492.4
333.809,18.9
333.9535,37.5
334.0286,151.9
334.0487,140.7
334.0556,4399.8
334.1679,246.8
334.1872,344.1
334.4936,381.1
334.511,506.5
334.6223,19.4
334.6662,288
334.6707,625.5
334.8366,117.5
334.8811,426.5
335.0221,389.5
335.0913,271.3
335.1669,5026.8
335.2896,279.1
335.432,285.3
335.4613,349.2
335.6391,551.2
335.67,661.3
335.6761,207.6
335.8326,155.9
335.9091,875.6
336.0012,242
336.0095,431.6
336.0214,257.3
336.0386,229.5
336.0543,210.4
336.0609,213.7
336.1513,135.2
336.1728,326.4
336.2528,145.5
336.6707,325.4
336.6776,370.2
336.837,20.3
336.9324,235.9
336.994,335.2
337.0222,678.6
337.0363,14141.9
337.0498,13542
337.0622,515790.7
337.0884,316.4
337.0964,256
337.1401,18.8
337.1827,2143.4
337.2373,384.1
337.274,8816.6
337.3342,18.4
337.3553,243.3
337.4709,630.6
337.5123,680.2
337.9963,20.3
338.0655,46768.9
338.1099,460.3
338.1713,111.6
338.2514,111.4
338.2782,494.6
338.3413,27.8
338.3756,802.8
338.7607,389.3
338.7779,217
338.7848,531.9
338.903,204.3
338.9213,1615.2
339.0268,198.1
339.0377,344
339.0476,308.4
339.0661,2484.5
339.1984,272.1
339.2794,438.9
339.2898,6016.4
339.4175,593.2
339.43,132.5
339.4469,19
339.5589,171.8
339.6116,382.4
339.7038,274.2
339.9383,128.1
339.9669,857.2
339.9754,683.9
340.0367,393.1
340.2016,27.8
340.213,21
340.2932,463.8
340.4644,559.1
340.6437,18.1
340.7122,109.3
340.7459,170.9
340.8266,426
340.9837,232.3
340.9984,374.3
341.0183,579.5
341.0557,18.5
341.1178,176.7
341.3052,3285.1
341.6083,188.8
341.6237,207.5
341.7207,542.5
341.7634,1295.8
342.0151,2317.5
342.0402,297.9
342.3142,522.2
342.5416,399.9
342.6731,685.4
342.7603,315.1
342.7939,19.7
342.7992,335
342.8888,18.8
342.9424,18.9
342.9892,1232
343.0194,156.8
343.1947,12482.5
343.2948,173.6
343.3216,368.4
343.3316,294.8
343.3413,146.3
343.4211,815.2
343.6227,497
343.7608,19.7
343.8064,114.7
343.9486,309.6
343.9767,22.4
343.9883,670.6
344.0524,502.2
344.0622,134
344.1935,500.8
344.1968,534.6
344.3936,346.1
344.4952,355.3
344.5498,24.5
344.5868,153.3
344.6243,254.8
344.8792,703.5
344.9055,133.5
345.2106,814.3
345.2205,117.4
345.3222,638.5
345.691,185.9
345.6962,596.2
345.7134,180.4
345.8178,27
345.8768,282.2
345.964,109.3
345.9839,53931.5
346.0099,57.6
346.026,703.6
346.0408,58.8
346.0569,22.8
346.2149,105.4
346.4299,158.2
346.5877,181.1
346.6123,222.8
346.7856,22.9
346.8052,21.5
346.8238,29.1
346.9875,2101.2
347.068,1592.7
347.1475,153
347.4062,529.1
347.4455,467.5
347.7546,223
347.8357,193.6
347.8782,399.1
347.9135,291.2
347.9788,20.7
348.0427,271.2
348.1359,88.6
348.2461,215.4
348.2535,260.5
348.5117,512.7
348.9528,595.2
349.0186,205.3
349.0527,145.6
349.1238,206.2
349.2062,271.9
349.3522,365
349.3791,17.9
349.4009,21.5
349.5012,207.6
349.738,488.4
349.773,17.7
349.8033,658.7
349.8728,580.6
350.0182,573.7
350.0637,641.8
350.192,649.4
350.2659,23.1
350.3212,177.8
350.3519,22.4
350.391,127.9
350.5881,141.1
350.7427,660.1
350.8135,375
350.8302,18.5
351.1312,158.4
351.2063,153.6
351.2937,769.5
351.6958,321.4
351.9705,576.9
352.0556,561.3
352.2653,19.1
352.4104,18.4
352.4884,275
352.5425,20.3
352.6593,181.9
352.7022,218
352.7213,400.1
352.8578,250.5
352.8981,615.8
353.0273,124857.2
353.0362,253247.1
353.1037,719.3
353.1987,383.4
353.2804,193.2
353.2859,358.9
353.5987,148.1
353.6604,19.2
353.7406,591
353.7585,711.6
354.0304,7343.9
354.0395,23599
354.0535,366.7
354.2486,393
354.3117,189.1
354.8462,150.8
354.8588,193.1
354.8947,1735.6
354.9909,381.8
355.0119,673.8
355.0203,111.4
355.0344,15101
355.0505,22.2
355.0584,134.3
355.0703,3539.8
355.2661,277.5
355.8011,23.2
355.8553,121.8
355.9976,164.1
356.0141,25.7
356.07,355.8
356.3009,26.3
356.4268,157.4
356.5194,136.1
356.6807,142.3
356.7261,806.5
356.8702,152.1
356.9062,240.6
356.9359,253.3
356.9499,223
357.0088,319.1
357.0673,251.7
357.1582,331.6
357.2188,335
357.3479,17.1
357.5689,502.9
357.5989,440.1
357.6276,499
357.6387,437.2
357.661,732.1
357.6709,295.2
357.6934,379.1
357.7156,423.6
357.7579,574.2
357.8905,489.3
357.9771,503.9
357.9844,19.4
357.9926,19.9
358.0138,105.4
358.051,132.7
358.1406,135.4
358.2847,421.7
358.5718,176.3
358.6459,692.6
359.0076,164.9
359.0179,208.9
359.0317,14791.7
359.0442,394852.8
359.1673,1718.7
359.2124,569.6
359.2237,491.2
359.3298,443.9
359.4003,19.1
359.4305,722.9
359.444,164.4
359.4635,134.4
359.4672,173.6
359.4689,176
359.4773,777.9
359.4823,434.3
359.4974,652.3
359.5065,665.8
359.5224,973.7
359.5323,125
359.5383,355
359.5479,292.2
359.5542,877.3
359.568,181.4
359.6009,1181.2
359.6222,124.2
359.6435,151.8
359.6678,20.1
359.7124,18.4
359.7249,497
359.8076,814
359.8341,19
359.8692,124.6
359.8886,119.3
359.9297,342.7
359.9429,273.6
359.9698,18.3
359.9801,345.8
360.0475,37384.7
360.3243,1020.7
360.3735,193.5
360.4614,583.2
360.5095,387.8
360.6334,129.3
360.7853,449.6
360.7949,234.2
360.8029,130.1
360.9727,381.4
361.0201,2397.5
361.0294,162
361.0479,679.1
361.0591,19.6
361.1833,136.7
361.2004,259.9
361.2742,505
361.3272,1170.1
361.5089,453.1
361.7964,315.8
361.8287,387.2
361.9578,17400.2
362.0614,440.6
362.1605,502.1
362.2873,671.7
362.6088,193
362.6393,430.6
362.8206,542.7
362.8837,127.5
362.9264,2077.9
363.2996,20
363.3604,370.8
363.4912,20.6
363.5587,199
363.6611,530.9
363.7871,19.9
363.9586,337.1
363.9974,857.2
364.0391,378.4
364.316,349.7
364.4015,21.4
364.602,167.1
364.7045,17.9
364.7654,164
364.9356,432.2
365.0683,410.4
365.1314,269.7
365.2141,20.3
365.2329,577.2
365.3556,179.9
365.9861,87
366.0595,148.4
366.1162,253
366.2114,212.1
366.2914,481.2
366.4133,20.8
366.4681,217.6
366.539,168.5
366.8089,665.1
366.8382,177.3
366.8497,22.9
367.0836,758.6
367.1725,21.6
367.1948,3282.4
367.214,129.9
367.2628,19.6
367.3001,387.9
367.3252,254.4
367.3945,17.5
367.9918,1048.6
368.1165,238.7
368.2101,274.1
368.3263,391.3
368.7132,555.1
368.7484,22.7
368.7739,21.1
368.8086,526.3
368.8718,964.6
368.9398,374.6
368.9509,22.2
368.992,4080.3
369.0013,14312.4
369.0101,10396.5
369.0526,213.5
369.1978,408.9
369.2957,20
369.3519,61.9
369.4558,96.5
369.5311,351.1
369.6745,395.8
369.6965,275.6
369.7224,299.9
369.8129,150.1
369.9051,138.1
370.1895,187.1
370.2079,126.8
370.2373,455.6
370.2859,23.7
370.5299,141.3
370.5571,207.9
370.5751,199.4
370.6361,145.9
370.6678,558.9
370.9157,490
370.9803,18.5
371,741
371.0568,398.5
371.0783,529.8
371.0882,130.4
371.1021,61.8
371.2557,172.1
371.3603,171
371.4366,97.9
371.5175,345.7
371.6311,594.3
371.8062,140
371.8382,226.8
372.0665,192
372.1022,231.8
372.3073,140.1
372.3138,18.6
372.3561,213.4
372.3656,492.2
372.4485,157
372.5204,543.7
372.5798,262.6
372.6589,299.3
372.6998,19.9
372.7383,543.8
372.9938,758
373.1188,370.9
373.2422,20.6
373.7244,170.1
373.7634,19
373.8119,66.1
373.9501,105.6
374.0215,368.8
374.0321,565.3
374.1301,392
374.149,211.2
374.337,345.5
374.3932,361.9
374.5556,631.7
374.9337,226.3
374.962,543.3
375.0092,133070.4
375.0181,132426
375.0423,441.6
375.0715,187.7
375.1526,262.2
375.2367,911.3
375.2573,387.5
375.3146,119.1
375.434,278.7
375.6057,411.6
375.9653,96.1
376.0127,9782.2
376.0215,11140.4
376.0659,334.3
376.2755,809.8
376.2875,1208.4
376.2981,1343.2
376.3729,145.2
376.4707,123
376.498,838
376.6702,191.2
376.7283,186.2
376.8152,396.8
376.8355,47.8
376.9408,288.7
376.9941,629.3
377.0165,5792.5
377.0237,1092.8
377.231,139.8
377.2524,387.9
377.3059,318.7
377.5105,245.7
377.6313,211.6
377.9318,2130.7
378.0008,112.4
378.335,226.9
378.3449,425.9
378.4855,408.1
378.5649,417.5
378.7223,354.5
378.8625,160.8
378.901,1168.6
379.1031,140.6
379.2296,811.3
379.4523,139.4
379.4918,272.5
379.5612,164
379.6823,271
379.8227,188.2
380.045,247.2
380.2274,217
380.2707,142.4
380.3254,195
380.3586,142.4
380.5747,741.5
380.7703,577.6
380.8301,41.5
380.8873,158.8
380.9653,802.9
381.0137,24622.2
381.0261,239032.6
381.2409,279.8
381.4807,351.5
381.5019,703.6
381.5707,457.4
381.6788,136.5
381.753,790.8
381.9708,254.1
382.0141,483.7
382.0294,21224.6
382.1056,425.1
382.1439,387.4
382.74,18.4
382.7596,496.9
382.7662,383.9
382.8315,415.6
382.919,165.4
382.9651,557.3
383.0016,122.2
383.0106,1506.9
383.0299,397.5
383.0776,172.3
383.1164,249476.2
383.1902,129.3
383.289,305.5
383.5207,358.9
383.5836,18.9
383.6307,147.2
383.6677,18.3
383.9657,1342.4
384.1197,26515.3
384.204,213.5
384.2996,21.1
384.3447,634.3
384.3572,413.6
384.5461,22.1
384.6627,20.2
385.0023,203.7
385.0234,357.9
385.0502,18.3
385.1201,567
385.3623,189.3
385.4845,471
385.6429,426.8
385.6677,136
385.7316,99.8
385.8136,237.4
385.8944,123.9
385.9351,124.9
385.9445,67.2
385.9793,9965.6
386.0442,127.2
386.0628,231.4
386.3494,354.1
386.4046,99.2
386.4637,473.2
386.5508,280.4
386.8906,137.1
386.9786,182.5
387.0661,141.9
387.1931,403.4
387.676,135
387.6821,779.6
387.7589,247.9
387.8118,19.8
387.845,19.6
387.8526,738.8
387.9785,1305.6
388.0113,986.7
388.0657,349.4
388.2663,23.4
388.2819,421.8
388.4677,152.9
388.5737,19.3
388.7124,499.4
388.7701,404.4
388.8205,689.4
388.8394,20.2
389.1905,263.1
389.3343,233.1
389.3734,866.4
389.4903,408.3
389.5529,141.9
389.8066,27.8
389.8813,19.9
389.9737,48440.4
389.9861,507.9
389.9941,63.1
390.137,508.6
390.2503,124.9
390.3029,704.5
390.6609,157.6
390.7101,499.3
390.7989,706.4
390.8678,420.4
390.8826,18.6
390.905,647.6
390.9252,1238.5
390.9509,463.4
390.9745,10611.1
390.9831,27257.8
390.9921,16927.5
391.0933,565.7
391.102,253.2
391.1269,284.2
391.3174,841.6
391.3388,141.4
391.4622,17.4
391.9781,1029
391.9876,231.4
392.0154,598.7
392.0974,163.6
392.2609,29.2
392.5649,222.9
392.6692,425.7
392.7647,231.4
392.7956,1772.4
392.8978,543.8
392.9819,2643.9
392.9909,502.2
393.0372,19.6
393.1039,141.8
393.1809,216
393.299,25
393.8438,669.7
393.8702,147.3
394.1776,127.4
394.2513,620.3
394.3743,262.4
394.3841,305.6
394.464,276.8
394.6003,119.8
394.6045,156
394.6071,142.3
394.7924,408.1
394.8837,128.4
394.9776,204.6
395.0038,817.1
395.0169,717.6
395.0584,284.2
395.3121,97.1
395.47,190.5
395.6332,238.4
395.6903,388.7
395.7042,227
395.8072,643.1
395.8197,161
395.8947,609
395.9337,141.8
396.386,440.1
396.5052,19.4
396.5693,125.1
396.7552,515.1
396.7987,149.7
396.8515,165.9
396.885,407.5
396.9912,168606
397,87340.1
397.0242,21.2
397.2905,19.3
397.6308,486.9
397.7982,119.3
397.8373,256.4
397.9673,30.6
397.9946,14585.4
398.0035,5051.1
398.2418,2686.2
398.2994,418.4
398.5229,273.3
398.6006,149.8
398.6445,437.1
398.689,113.6
398.741,1333
398.8032,577.6
398.8807,22
398.9863,1088.8
398.9982,1424.9
399.0993,162.2
399.1136,19.7
399.1266,645.9
399.1886,150.7
399.2465,406.4
399.2643,396
399.3486,350.2
399.5521,401.9
399.6098,141.9
399.6669,225.6
399.8147,248.3
399.8771,147.2
399.9632,229.4
400.0303,128.9
400.0885,187.9
400.2512,563.4
400.3809,142
400.4881,792.7
400.5626,350.7
400.6624,263.8
400.6815,456.7
400.7988,23.2
400.8065,201.7
400.8275,662.8
400.9842,1201.3
401.245,19.2
401.319,265.7
401.6465,22.6
401.7712,258.9
401.9291,138.4
401.9531,1789.8
402.1738,121.3
402.5165,17.4
402.5972,281.6
402.6357,333.3
402.6888,452.4
402.7031,22.9
402.7263,183.3
402.9939,634.9
403.008,286514.8
403.0294,225.1
403.0661,22.2
403.2694,483.5
403.3156,123.4
403.3256,402.2
403.3999,355.4
403.4696,381.3
403.6462,155.7
403.7098,353.9
403.8072,191.3
403.8278,335.6
403.844,255.1
403.9423,1071.8
403.9518,192.4
404.0114,24480.1
404.1382,360.7
404.1944,285.7
404.4124,20
404.6158,214.9
404.6512,125.8
404.686,293.8
404.7006,184
404.828,103.3
404.8581,148.3
404.9386,378.1
404.9736,272.7
405.0136,355.9
405.1342,235.1
405.2665,761.3
405.3106,20.2
405.4127,255.5
405.4202,20.5
405.4718,528.5
405.6232,89.2
405.6919,503.8
405.851,159.5
405.9476,34376.1
406.0728,144.4
406.0943,456.7
406.3294,1199.4
406.4462,191.9
406.773,570.5
406.8101,200
406.8481,223.8
406.8897,26.8
406.9183,147.3
406.9515,1057.3
406.9797,173.7
407.2128,652.9
407.333,167.8
407.3481,290.5
407.5887,363.3
407.7857,247.9
407.8174,260.2
407.8287,156.5
407.8406,253.7
407.9338,445.9
407.9449,271.9
408.0339,356.3
408.2228,166
408.7694,1098.6
408.7891,120.8
408.8178,41.7
408.8315,361.5
408.9851,1614.1
409.068,667.9
409.5408,358.2
409.5518,351.3
409.5753,20.7
409.8332,254.4
409.9549,128
410.4353,243
410.4452,21.8
410.7232,509.8
410.7677,812
410.8365,439.1
410.8566,722.9
410.9492,114.4
410.9673,465.5
410.9827,302.6
411.0225,250.1
411.1356,162.7
411.3956,18.9
411.4868,16.6
411.7264,161.8
411.9442,19.3
411.9641,186.4
412.3214,6621.1
412.3432,271.2
412.3899,481.3
412.6787,187.9
412.8216,191.1
412.8316,604.5
412.8616,639
412.8864,112.6
412.9366,20.8
412.9646,45341.6
412.974,17825.5
412.9881,18.2
413.0301,19.1
413.1658,745.1
413.267,2740.6
413.3248,547.2
413.3367,117.9
413.4431,194.2
413.4765,125.7
413.58,486
413.6239,395.6
413.6829,539.5
413.7592,505.9
413.7786,764.6
413.8466,176.4
413.9394,325.4
413.9547,105.7
413.9677,694.2
414.1043,270.2
414.131,197.2
414.156,231.5
414.2699,230.5
414.294,487.1
414.3285,25
414.3537,323.1
414.527,386.4
414.574,886.1
414.7147,1397.4
414.9273,315.4
414.9626,1136
414.9731,756.9
414.9986,1138.3
415.037,446.6
415.144,141.9
415.1531,290.2
415.1712,699.7
415.6303,207.4
416.1354,10945.9
416.2144,17940.3
416.3632,155
416.3885,320.8
416.6077,22.6
416.6614,170.2
416.7128,450
416.9187,427.9
416.9589,171.9
416.9921,261.2
417.1739,374.9
417.2178,1451.9
417.3214,19
417.5239,174.2
417.5739,543
417.7179,519.5
417.8465,20.8
418.0673,632.9
418.0862,134.2
418.2689,160.8
418.3045,361.7
418.3995,281.9
418.4778,31.3
418.6188,328.8
418.7009,89
418.7217,156.4
418.749,207.5
418.7986,1139.2
418.8096,106.8
418.8188,197.6
418.8741,390.3
418.982,119180.9
419.1364,244.7
419.1444,140.9
419.2451,153.5
419.2554,1191.3
419.4418,409.7
419.6342,85.4
419.7188,20.2
419.7353,326.1
419.8714,195.9
419.9175,379
419.9853,5965.2
420.2153,21.5
420.344,132.3
420.3783,336.2
420.6423,26.4
420.8658,623.1
420.8851,1302.2
420.9329,20.9
420.9476,20.7
420.9587,489.3
420.9703,649.2
420.9802,5452.7
421.018,440.8
421.0833,177.7
421.1867,162
421.2899,229.3
421.5125,357.3
421.6932,346.6
421.8332,194.5
421.9215,12970.7
422.0241,20.2
422.1609,176.9
422.2091,197.8
422.3027,152.9
422.4992,218.9
422.6372,464.2
422.6573,548.5
422.6775,363.6
422.8337,24.7
422.9123,706.7
423.0046,168.4
423.1825,349.2
423.3062,299.7
423.3278,852
423.4325,658.5
423.5925,285
423.635,374
423.9187,225.4
423.9934,458.5
424.391,22
424.4973,564.8
424.7779,19.6
424.9723,207.4
425.0062,668.2
425.0279,27.5
425.2036,441.6
425.2344,669.6
425.5024,174.2
425.8281,69.8
426.0698,18.8
426.1352,402.1
426.2613,687.2
426.3847,20.4
426.4289,614.9
426.7819,569.2
426.8267,20.9
426.8824,652.6
426.9417,152.5
427.156,408.1
427.2425,707.2
427.2752,361.8
427.5222,24.1
427.6383,899.8
427.6761,720
427.7051,393.9
427.778,257.8
427.8833,366.6
427.9862,135.8
428.1369,19.5
428.3697,911.7
428.4442,21
428.5487,266
428.6387,627.7
428.8135,134.9
428.9375,12657.4
428.9614,619.1
429.0129,610.4
429.0281,196.8
429.036,596.3
429.0479,438.6
429.0891,2151.5
429.1345,147.3
429.4294,204.4
429.4546,353.5
429.5284,506.3
429.6205,149
429.6816,172.5
429.9734,19.3
430.0879,322.5
430.2619,368.9
430.3029,154.1
430.9142,2281.9
431.0543,455.9
431.0862,241.1
431.1111,352.4
431.1691,563.7
431.188,219.2
431.217,2261.2
431.3655,141.9
431.4387,115.9
431.7085,390.6
431.7878,137.7
431.8103,248.6
431.8216,20.1
431.8983,357.5
431.925,291.4
431.9506,33.4
432.0423,194.5
432.3173,92.1
432.3598,114.3
432.4096,127.9
432.7757,403.8
432.8237,27.2
432.837,588.2
432.8923,20.8
433.0331,306.4
433.0657,100.9
433.1281,198.6
433.1859,517
433.2495,55.4
433.3755,97.3
433.3987,410.2
433.4788,117.2
433.5843,198.2
434.2361,138.6
434.3793,156.8
434.4076,87.7
434.4635,513.9
434.8055,300.6
434.8883,380.5
434.956,29621.6
434.9916,303.5
435.1595,198.3
435.3785,18.6
435.4919,876.3
435.771,337.7
435.8846,18.3
435.9601,1064.3
436.0831,122.2
436.1537,241.9
436.3792,350.5
436.3892,164.8
436.4285,18
436.4612,199.9
436.4732,306.5
436.5459,23.4
436.5839,440.4
436.7259,23.2
436.8213,388.7
436.8596,1162.2
436.9536,2112.4
437.0518,517.2
437.1494,19
437.5324,910.8
438.1969,788.9
438.7834,226.2
438.8608,18.6
438.8989,160.8
438.9717,2623.3
438.9847,4123.8
439.1946,20.1
439.3919,352.8
439.5873,656
439.697,187
439.8022,262.1
439.908,18.8
439.9564,24.3
440.0507,19.9
440.0804,449.5
440.0928,177.4
440.1069,127.2
440.3264,18.9
440.5955,180.8
440.6295,189.2
440.7752,397
440.9691,1373.3
440.9818,412.1
441.0321,510.5
441.2358,1090.7
441.2976,301.1
441.4476,205.7
441.6721,320.8
441.7481,130
441.7682,469.3
441.9221,174.9
441.9907,332.4
442.0302,594.4
442.3062,254.4
442.4519,206.1
442.5731,340.4
442.689,167.1
442.7328,20.9
442.743,20.4
442.93,18.7
442.9849,376.3
443.2035,126.1
443.5031,400.4
443.5314,208.4
443.6915,488.2
443.8222,613.5
443.9457,118.3
443.979,174.2
444.0655,782.7
444.186,410.4
444.1986,202.7
444.5014,234.9
444.9106,574.5
445.1425,243.7
445.1714,330.2
445.1941,259.7
445.2328,528.1
445.5381,144.1
445.9418,128.2
446.0555,141.5
446.186,113.5
446.3187,27.1
446.5664,18.9
446.9529,278.9
447.2712,561
447.4105,603
447.541,238
447.6783,243.9
447.85,430
447.9051,22.9
447.9324,5683.1
448.2692,123.3
448.3322,150.8
448.8248,22.2
448.8927,177
448.933,3689.3
449.1543,2017.8
449.3612,26.7
449.4608,243.5
449.5805,727.5
449.7375,21.1
449.8068,354.9
449.9294,483.7
449.9912,307.9
450.1576,413.4
450.3973,342.8
450.4335,162
450.6673,305.9
450.7479,822.8
450.8335,22.2
450.9299,1115.4
450.9859,478
451.0577,18.1
451.1447,475.2
451.1665,622.1
451.384,341.2
451.6773,169.3
451.6934,269.5
451.7022,395.9
451.7084,435.3
451.7175,97.3
451.9265,19.9
451.9514,179
452.2054,418.7
452.4036,21.4
452.4846,483.2
452.6378,113.3
452.7705,25.3
452.8726,346.1
452.9642,203.8
453.2821,18.7
453.7954,200
453.9224,400.9
454.0153,687.8
454.6812,18.8
454.7041,763.8
454.7933,360.2
454.8151,123.3
454.8485,276.5
454.9114,382.2
454.9358,23.8
454.9499,38375.2
455.0379,98.2
455.194,173.7
455.225,439.9
455.2944,18.7
455.3465,194.9
455.6584,561.4
455.8512,18.9
456.1848,460
456.2432,140
456.255,157.7
456.3039,18.3
456.3828,532.8
456.7513,120.8
456.947,8404.2
457.0813,413.1
457.2331,8398.1
457.4918,285.6
457.5991,146.9
457.6417,138.1
457.7111,229.3
457.734,639.8
457.9999,93.1
458.2733,626.5
458.3697,492.3
458.3977,181.8
458.4003,181.8
458.7299,331.6
458.7765,248.8
458.8754,22.4
458.9616,2409.7
459.0372,403.7
459.128,465.5
459.2344,652.1
459.2485,344786.5
459.4451,21.2
459.5028,19.2
459.7035,303.4
459.9658,23
460.0382,691
460.2519,74948.2
460.3502,222.9
460.4025,361.5
460.4213,292.1
460.6854,361
460.7846,165.8
460.94,302.2
460.9667,84627.8
460.9854,309.1
461.201,637
461.2554,5007.4
461.5637,22.7
461.6017,20.1
461.6297,225.4
461.7831,158.1
461.9697,4174.8
462.0633,19.1
462.2576,436.8
462.3516,154.7
462.8781,728.8
462.9134,383.7
462.9637,22730.3
463.1744,220.4
463.2191,841.8
463.2492,20
463.4309,542.2
463.5048,351.8
463.7789,214.4
463.8068,20.8
463.9058,2665.8
463.931,18.9
463.9692,436.9
464.0345,174.1
464.158,138.1
464.6026,448.2
464.6431,300.1
464.7208,25.3
464.7366,285.6
464.9788,7069.4
465.0684,708.5
465.1154,20.6
465.156,298.1
465.1977,21.3
465.3759,189
465.6757,621.4
465.8074,22
465.8457,24.6
465.9032,243.2
466.1432,138.3
466.3336,259.5
466.3443,168.8
466.5987,373
466.7285,459.4
466.9107,199.5
467.0285,437.5
467.3158,363.7
467.3631,393.6
467.4794,203.6
467.6448,387
467.7673,239.5
467.8668,124
467.938,362.9
467.976,220.5
468.0074,755.1
468.3623,771.7
468.5063,197.1
468.8236,522.4
468.8413,210.6
469.1182,180.7
469.1491,142.7
469.3283,32.7
469.3869,405.7
469.5441,105
469.5732,411.5
469.6918,379.9
469.7766,94.8
469.8118,289.7
469.9895,18.5
470.1476,279.9
470.3196,17.6
470.7076,585.4
470.722,142.7
470.7626,345.8
470.9235,20165.7
470.9399,248.8
470.9947,3597.5
471.2152,239.9
471.4391,375.1
471.66,190.1
471.8972,150.3
472.3478,304.1
472.7385,472
472.8137,23.3
472.8621,402.6
472.921,3475.5
472.9777,580.7
472.9991,603.9
473.0103,577.3
473.0231,317.5
473.0291,214.5
473.0338,184.3
473.0675,139.8
473.2643,4402.6
473.2781,397.3
473.3409,310.1
473.3845,20
473.4235,487.9
473.4802,466.6
473.4916,159.3
473.5272,385.9
473.6254,496.7
473.7137,355.5
473.7348,523.1
473.9967,449
474.1721,700.4
474.3997,392.6
474.4679,208.4
474.5714,153.5
475.0047,47.2
475.0895,393
475.2223,19781.5
475.244,514.8
475.4889,401.1
475.5921,613.9
475.7104,419
475.773,230.4
476.2263,2853.2
476.2426,401.3
476.308,180.9
476.3136,185.8
476.6064,279.2
476.9406,59649.3
477.1663,266.9
477.2198,502.9
477.4886,477.8
477.8658,801.3
477.8829,324.5
477.9439,3640.8
478.1941,158.1
478.3295,49031.5
478.9377,16686.4
479.0964,61.6
479.3326,8866.6
479.512,181.4
479.7269,294.2
479.9239,700.4
480.1806,249
480.3234,138.1
480.3352,121
480.3947,151.4
480.4319,195
480.4411,748.9
480.5812,722.4
480.7712,517.3
480.9517,1816.6
481.0916,1963
481.2629,421.2
481.3261,169.9
481.7342,555.5
482.095,317.1
482.1257,123.7
482.2596,160.1
482.3606,640.7
482.4859,420.2
482.5218,485.7
482.7285,25.3
482.7514,669.2
482.8431,583.1
482.924,126.5
483.085,27.1
483.1229,985.6
483.2485,127830.1
483.4818,342.2
483.5546,141.5
483.6054,282.2
483.626,120.9
483.7646,658
483.8414,179.1
484.1492,263
484.2518,29745.5
484.3659,328.9
484.3877,137.5
484.4063,191.7
484.4275,471.5
484.642,143.7
484.7462,19.4
484.9157,146
485.0043,18.9
485.205,353.6
485.2641,106838.1
485.3034,19.7
485.5912,492.6
485.6062,180.4
485.8205,408.8
485.8299,178.3
485.984,20.9
485.9981,442
486.132,681.3
486.2674,22865.8
486.3806,131.7
486.5994,247.1
486.7272,264.6
486.7759,440.9
486.7849,271.3
486.8977,2006
486.969,1485.8
487.2798,93697.8
487.5723,20.8
487.6905,337.2
487.8584,167.5
487.9427,509.3
488.0157,115
488.168,401.8
488.2829,19148.7
488.5372,285.8
488.5678,370.1
488.7122,19.1
488.7288,378.9
488.75,263.3
489.0602,192
489.1162,192.6
489.1467,111.6
489.2309,674.6
489.3017,1050.6
489.3556,2228.3
489.3796,316.2
489.386,567.1
489.3971,365.6
489.4075,203.8
489.4277,132
489.5275,595.3
489.5847,602.9
490.0501,139.7
490.1707,623.1
490.2908,3576.4
490.6974,254.4
490.7842,102.1
490.9607,23.3
491.1431,754.8
491.1817,585.7
491.3709,1353.8
491.4054,358.2
491.4468,530.5
491.5309,167.1
491.5487,291.9
491.633,473.9
491.9976,186.1
492.2707,266.3
492.3725,186.5
492.4429,335.8
492.7681,425.4
492.7874,342.9
492.8372,196.1
492.8484,254.9
492.9145,13015.8
492.9682,21.2
493.3316,432.2
493.3495,551.4
493.4625,167.6
493.4804,122.9
493.5443,143.2
493.6179,375.1
493.6526,443.2
493.9174,432.8
493.9584,368.8
494.0082,86.1
494.0584,143.1
494.1225,371.5
494.141,372.9
494.2304,558.5
494.2596,383.1
494.3249,3448.1
494.5738,249.6
494.6962,119.2
494.9118,3922.1
494.9684,532.7
495.6025,250.7
495.6246,782.3
495.6894,317.9
496.0136,160.8
496.0173,157.8
496.1295,371.6
496.2447,126
496.34,336071.6
496.717,190.9
496.9323,490.4
497.0005,508.8
497.0608,89.5
497.2392,274.4
497.3189,279.1
497.3433,84835.7
497.3782,23.7
497.5001,33.9
497.6203,117.1
498.0698,328.5
498.1662,285.3
498.3108,190.2
498.3462,4857.3
498.5344,666.4
498.9182,126.2
498.9276,433.5
499.2227,7475
499.7106,350.2
499.7639,20.8
499.8805,505.3
499.9904,265.6
500.1181,137.8
500.1599,281.8
500.2254,508.3
500.6845,391.8
500.847,268.2
501.0509,392.2
501.0923,19.9
501.1271,148
501.2377,6511.7
501.258,674.6
501.3397,18
501.6623,574.6
501.6862,144
501.8734,18.9
501.9134,330.2
501.9904,756.9
502.2254,209.6
502.2431,569
502.2575,183.8
502.3136,349
502.3294,23636.8
502.448,586.5
502.6061,19.8
502.7168,18.8
502.7308,262.1
503.1078,567.9
503.2539,4841
503.332,2995.8
503.5496,244.2
503.826,254.9
504.1068,60.1
504.2277,100.6
504.3057,1123.8
504.3449,8966.6
504.6009,159.1
504.6303,446.8
504.6907,429.5
504.8009,18.8
504.9051,541.5
504.9282,98.9
505.1034,217.5
505.1591,21.3
505.1796,419.7
505.2316,724.1
505.2874,197.3
505.3481,348.2
505.51,262.8
505.6101,18.2
505.6533,275.3
505.7227,352.8
505.8075,733.2
505.8912,1066.1
506.0102,508.4
506.1106,413.7
506.2644,1459
506.3606,8597
506.3948,671.3
506.4603,229.1
506.8917,2682.7
507.216,164.1
507.2484,24994.9
507.3464,690.7
507.3641,340.2
507.6851,150.3
507.7934,714.1
507.9099,394.6
508.1583,154.9
508.2354,240.7
508.252,5873.2
508.3777,153.6
508.5392,423.1
508.7912,163.9
508.8086,150.7
508.8877,594.5
508.9011,432.6
508.971,19.7
509.0048,3252.7
509.1248,710.2
509.2217,164
509.264,5704.5
509.3221,155.9
509.8979,835.2
509.935,259.3
510.12,402
510.3158,660.4
510.3563,1855.1
510.5249,411
510.6728,340.4
510.7526,541.1
510.8985,384.9
511.3213,132.5
511.3939,419.9
511.8725,147.9
511.9466,166.1
511.9698,577.8
512.0246,262.8
512.1162,228.5
512.1878,613
512.5475,20.6
512.5903,344.4
512.7659,146.5
512.7837,21.3
512.9083,14615.7
513.0073,288.9
513.4998,305.3
513.6179,18.1
513.952,310.6
514.0376,261.5
514.2072,378.9
514.2318,428.3
514.2881,396.3
514.6045,354.2
514.6909,210.2
514.9054,4825.8
514.9463,18.4
515.0211,861.7
515.295,273.7
515.4947,310.7
515.7082,365.8
515.8919,127.6
516.0586,416
516.0689,306.6
516.3063,11489.7
516.4615,196.2
516.8928,20.8
516.9024,426.1
516.9195,1914.3
516.9513,153.4
517.0642,21.3
517.1734,695.6
517.253,18.7
517.378,683.1
517.5604,19.9
518.1592,204.9
518.1897,620.9
518.2335,100.3
518.322,587655.9
518.3593,19.2
518.7556,20.1
518.7767,437.5
518.8712,565.6
518.8737,589.7
518.9252,27218.8
519.0202,170.3
519.06,518.5
519.1598,20
519.1718,400.5
519.3254,140071.2
519.4633,363.2
519.728,271.1
519.8545,168.6
519.9288,1905.7
520.2181,461.3
520.3401,112447.3
520.6567,139.6
520.8253,155.9
520.9223,15290.6
521.1379,215.6
521.3434,29422.6
521.7984,296.3
521.803,163.4
521.8225,704.8
521.9255,936.2
521.9772,1202.3
522.0601,509.7
522.1691,257.7
522.3557,113272.9
522.4331,115
522.4499,22.3
522.5081,22.9
522.5435,203.1
522.7487,167.8
522.8554,129.9
522.9198,1919.2
522.9371,3476.9
522.9847,283.8
523.021,293.7
523.0939,369.6
523.2235,666.3
523.3591,24904.7
523.5403,298
523.5918,21.6
523.8637,143.9
524.0119,98.9
524.0539,196.7
524.1326,374.1
524.2496,271.7
524.3714,113332.9
524.4068,604
524.487,20.8
524.7746,159.4
524.933,551.6
524.9649,174.9
524.9778,408.7
525.0323,19.6
525.2388,507.6
525.254,22
525.3074,284.8
525.3375,204.1
525.3748,27043.9
525.4986,254.7
525.5117,477.5
525.8346,222.3
525.9262,146.3
525.9799,314.8
526.0494,423.1
526.1239,130.2
526.1447,141
526.3293,4401.2
526.4826,116.3
526.622,823.6
526.731,438.4
526.8372,21.2
527.0085,391.6
527.0907,486.4
527.1192,373.5
527.1603,714.1
527.3324,781.7
527.4509,167.3
527.5006,569.2
527.5467,256.2
527.9433,593.5
528.2076,240.4
528.3466,169
528.3646,231.4
528.8821,6611.4
528.9547,3103.3
529.0712,21.5
529.5827,475.8
529.6352,149.1
529.679,126.1
529.9739,199.1
530.2701,19.4
530.3183,821.9
530.7206,206.5
530.7391,149.6
530.8386,216.2
530.8798,4569.9
530.9078,22.7
530.9508,937.8
530.9622,294.7
531.0036,21.7
531.0443,421
531.1414,289.3
531.2034,212.4
531.2482,2774.2
531.2802,165
531.4147,234.2
531.5922,95.8
532.1672,19.6
532.2514,1436
532.2809,2716.3
532.3103,480.4
532.3374,7065.3
532.3748,507.3
532.6825,219.1
532.8765,349.4
533.1171,205.8
533.2639,1661.4
533.3414,1370
533.5277,146.9
533.6931,165.2
533.7485,319.7
533.9137,261.9
534.1272,449.8
534.296,188756.5
534.3384,116.9
534.5459,152.8
534.7113,312.2
534.8992,20310.6
534.9336,294.4
534.9887,153.3
535.0993,351.6
535.2804,776
535.2992,42141.9
535.3503,381.8
535.4736,238.5
535.6623,262.1
535.9018,751.3
535.914,252
535.9919,141.4
536.2939,8314.4
536.3653,168.4
536.5396,136.1
536.6902,504.8
536.7207,18.2
536.8101,433.3
536.8353,511.4
536.8963,13273.5
537.1009,432
537.1326,189.8
537.1975,20.4
537.2968,560.8
537.3409,348
537.7773,488.4
537.8096,89.5
537.8996,475.9
537.951,1391
538.1898,260.1
538.229,199.2
538.2676,20.2
538.3668,154.8
538.8937,1548.4
538.9112,2164.5
538.939,263.1
538.9821,757.2
539.2586,372.7
539.5316,138.5
539.9753,657.8
540.1505,359.1
540.3074,902.6
540.3138,645.9
540.3291,401.2
540.3876,336.5
540.6131,431.9
540.6555,19.5
540.7707,236.4
541.065,19.2
541.2459,92.3
541.6153,375.9
541.6977,85.6
542.1426,798.9
542.2854,150
542.322,184934.6
542.3481,669.6
542.4595,384
542.4914,425.7
542.6766,234.7
543.0199,19
543.1236,194
543.3255,45296.1
543.4023,2023.7
543.446,248.6
543.5149,430.7
543.5874,465.1
543.6546,153
543.7613,186.5
543.9851,216.4
544.1554,107.2
544.2011,370.5
544.3378,186996.8
544.5318,192.7
544.739,404.4
544.7884,658.7
544.927,332.2
544.9492,306.3
545.0891,154.4
545.3412,49641.8
545.8032,19.1
545.9156,18.1
546.0186,405.9
546.3533,185846.5
546.7537,107.5
546.7601,113.1
546.7772,709.8
546.8524,352.9
546.8707,654.5
546.9921,148.4
547.3568,41577
547.3708,19.5
547.4632,112.3
547.5256,18.3
547.6398,169.2
547.6805,298.5
547.8665,303.8
548.312,1485.2
548.36,3653.5
548.4756,360.7
548.527,437.4
548.7825,22.6
548.9737,329.3
549.005,132
549.0291,22.2
549.1734,98.8
549.4293,439.2
549.9508,85.8
550.1548,343.4
550.2327,392.1
550.3295,630.7
550.7972,735.8
550.8734,4796.2
551.2927,249.6
551.6719,18.4
551.6852,151.4
551.7752,144.3
551.7993,178.4
551.8455,20.8
551.8849,591.7
551.9607,170.5
551.9869,355.5
552.2247,243.6
552.2817,22.1
552.3892,153
552.816,330.7
552.8705,3617.4
553.3079,190
553.3891,25.7
553.545,442.7
553.8915,631.7
554.1174,227.9
554.4171,20
554.6385,175.9
554.776,482
554.8681,376.4
555.1045,144.8
555.3147,539.3
555.5618,273.1
555.6782,750.6
555.7096,100.8
555.8619,137.3
555.9706,661
556.1209,309
556.2737,135.7
556.3073,19.4
556.4192,378.3
556.9204,304.6
557.3744,277.2
557.7161,406.3
557.7629,19.9
557.8779,20.8
558.2704,23.1
558.296,67685.7
558.3819,349.1
558.4669,135.7
558.9001,404.8
558.9661,241.6
559.0016,390.3
559.2992,14809.5
559.3591,139.3
559.5209,142.7
559.9875,412.8
560.1636,150.7
560.2949,1493.6
560.3115,55881.9
560.4783,503.5
560.5402,409
560.5904,255.8
560.6813,140.8
560.7589,566.7
560.9182,785.3
560.9469,203.8
561.2993,306.5
561.3149,12431.9
561.4129,5189.8
561.5153,412.5
561.6758,866.6
561.7378,94.2
561.8003,176
561.8677,132.6
562.3092,929.8
562.3272,51031
562.4162,1068.4
562.5223,310
563.0296,839.8
563.0842,21
563.1223,395.5
563.3307,10227
563.4286,3095.7
563.6626,140
563.9387,19
564.0641,153.7
564.2351,287.1
564.3255,1891.6
564.3739,23
564.4286,100
564.8821,19.9
565.0419,391.2
565.0797,550.1
565.2192,20.2
565.3752,1123.5
565.4349,20.7
565.4533,247.2
565.6245,148.4
565.9054,384.8
566.322,38482.1
566.635,263.5
566.8464,337.3
566.8564,88
566.878,23.5
566.9632,772.7
567.3255,7325.3
567.4397,392.3
567.4683,254.4
567.5039,217.4
567.6736,225.7
567.7681,319.3
567.8899,409.3
568.0512,417.7
568.2123,181.6
568.3378,11715.6
568.3853,139.9
568.4451,124.2
568.5193,258.8
568.6162,192.6
568.7488,209.5
568.8561,23.1
569.0219,68.8
569.3181,623.6
569.3407,1583.4
569.4578,23
569.4857,480.7
569.627,777.9
569.7347,18.3
569.8405,205.7
569.974,200.7
570.1187,180.8
570.1509,214.4
570.3412,541.1
570.3552,879.1
570.3689,120
570.3958,170.2
570.7264,19.2
570.8672,2427.8
571.0578,804.6
571.8814,1093.4
571.9215,261.9
572.0165,622.8
572.3672,1371.5
572.4792,446.2
572.8415,307.2
572.8648,2389
572.9811,494.7
573.3436,448.2
573.7586,151.9
573.9716,544.9
574.1945,161.2
574.2834,887.5
574.671,962.5
574.8051,126
574.8792,398.2
574.9178,1134.2
575.0632,161.7
575.1415,183.2
575.2026,158.1
575.504,14648.2
575.9615,19.1
576.2632,545.3
576.2807,6373.5
576.3103,20.6
576.3645,548.6
576.5073,801.5
576.554,397.4
576.6536,249.5
576.6736,235.1
576.6877,186.7
576.7412,327.9
576.8837,8430
577.2805,237.3
577.2889,296.6
577.2942,214.2
577.5207,1169.8
577.5483,374.4
577.6355,306.3
577.789,146.6
577.8866,595.7
578.2778,1425.2
578.5041,730.8
578.558,202.9
578.8809,9642.4
578.9469,317.2
579.0169,463.4
579.1791,491.4
579.4452,89.6
579.8246,169.4
579.8991,21.8
580.2008,151.1
580.2779,769.1
580.3906,36.9
580.7061,689.8
580.8387,345.8
580.8788,2157.6
580.8957,1208
581.1395,361.9
581.3013,158.8
581.3864,23
581.6316,509.2
582.0213,441.1
582.1129,216.3
582.1487,434
582.169,241.2
582.2269,895
582.2411,219.2
582.2606,372.1
582.2815,681.9
582.2961,10684.8
582.3297,986.3
582.3529,1021
582.3954,623.6
582.409,292.1
582.445,186.4
582.4596,271.7
582.4677,202.3
582.644,105.2
582.7187,144.2
582.7396,265.9
582.8944,417.9
583.152,442.8
583.213,449.9
583.2563,725.8
583.2983,779.1
583.3213,24.8
583.4929,175.1
583.5116,254.8
583.5364,377.7
583.8452,146.5
583.9352,547.4
583.9495,371.5
583.9813,217.1
584.0183,417
584.3121,478.3
584.5167,116.4
584.6897,222.9
584.7435,18.6
584.8526,21.7
584.8745,537.1
585.0029,151.9
585.0534,551.8
585.1601,126.6
585.2711,5206
585.3333,505.8
585.4373,637.6
585.5578,55.5
585.6439,782.2
586.244,259.9
586.2732,849.3
586.3092,4405.5
586.6248,125.1
586.6531,179.9
586.6735,797.8
586.7071,275.1
586.8405,1717.2
586.8838,154.8
586.9126,534.8
587.0866,462.8
587.3113,938.3
587.6947,330.9
587.9309,142.9
588.106,214.1
588.4299,288.2
588.462,468.1
588.5068,213
588.7054,289.4
588.8384,2204.1
589.1384,255.5
589.2868,573.3
589.442,848.4
589.774,564.5
589.9309,449.9
589.9483,772.2
590.172,459.7
590.3221,6918.3
590.834,454.2
591.0092,149.1
591.112,386.8
591.3233,1567.4
591.6618,138.4
591.7487,385.6
592.0457,615.6
592.0828,238.2
592.109,258.7
592.2565,456.3
592.4666,722.8
592.7184,188.2
592.8578,9186.3
593.0158,752.5
593.1759,459.8
593.6666,695.1
593.8492,289.2
593.9659,404.9
594.0938,210.5
594.2535,627.5
594.3028,232.3
594.3916,201.8
594.4636,166.3
594.6366,148.3
594.6976,713.2
594.8547,7785.5
594.8923,187.3
595.4425,375.2
595.7923,262.4
595.9885,565.5
596.4233,347.2
596.4413,481.1
596.6157,21.1
596.6344,403.8
596.8523,2013.1
597.1342,466.2
597.2178,688.7
597.2798,203.9
597.391,162.5
597.4513,5145
597.4684,176.1
597.4856,14136.4
597.7469,196.3
597.8724,353.9
597.9276,139.7
598.1547,171.7
598.4622,1829.8
598.4896,854.5
598.5718,160.1
598.9378,606
599.1081,230.4
599.4644,1684.2
599.4794,645.3
599.5027,3523.4
600.4697,671.2
600.9375,275.9
600.9706,256.3
601.3307,24.7
601.5191,529.7
601.8953,18.7
601.9418,123.1
602.0009,256.6
602.0239,643.9
602.0732,18.5
602.1545,258.7
602.2966,720.7
602.5337,626.5
602.7843,311.7
602.8137,376.1
603.1771,95.3
603.391,411.5
603.4966,158.3
603.5356,1560.9
604.0196,239.2
604.3119,733.4
604.5403,718.6
604.8835,372.8
604.9522,23.3
604.9802,411.8
604.9838,430.3
604.9963,174.8
605.2294,316.2
605.3309,18.7
606.1161,217.7
606.14,291.5
606.2452,127.1
606.2946,640.4
606.4074,23.5
606.4757,770
606.6023,360.9
607.2557,398.3
607.2845,23
607.4806,218.9
607.613,365.2
607.6701,21.6
608.0021,202.1
608.2201,20.3
608.2947,908.4
608.5317,376
608.8323,2922
609.6972,20.4
610.054,143.8
610.1062,180.8
610.2476,1295.4
610.3112,676.9
610.502,492.4
610.5273,292.9
610.8292,2908
611.2507,359.5
611.3625,144.8
611.4878,241.5
611.6256,153.9
611.7996,369.5
611.9377,433.5
612.8249,444.7
612.8523,256.4
613.1247,211.1
613.2671,466.7
613.3462,844.5
613.4234,1227.7
613.5666,389.8
613.8559,247.5
613.9642,443.8
614.3191,282.8
614.9149,755.2
615.2972,22.9
615.4597,3537.2
615.5011,506.5
616.013,193
616.2301,123.3
616.2604,132.5
616.4574,624.3
616.7897,324
616.883,351.2
617.0937,310.9
617.2555,22.6
617.4756,16993.1
617.6071,156.3
617.7138,638.6
618.4795,6730.5
618.6457,233.5
618.7026,127.8
618.7787,448.2
619.2654,102.2
619.4914,17709
619.6261,141.2
619.7835,532
619.9934,267.1
620.0088,360
620.2785,450.8
620.4424,19.6
620.4947,4346.1
620.528,584.5
620.8775,351.8
621.1923,21.2
621.3955,371.2
621.4337,1401.9
621.4474,2810.3
621.4859,9379
621.663,609.7
622.108,268.8
622.1797,287
622.2674,20.1
622.3129,646.7
622.4537,662.1
622.4908,1343.1
622.9152,204.5
623.1361,5121.6
623.4662,378.7
623.5013,2049.3
623.9378,93.5
623.9785,21.6
624.1397,203.2
624.4756,919.2
624.5056,121.7
624.5417,333.5
624.8021,355.7
625.5236,367.6
625.5717,227.8
625.7849,371
625.9235,407.2
626.0869,573
626.648,20.1
626.9407,24.9
627.1192,207.4
627.5004,20.4
627.5345,622.5
627.6077,21.9
627.6393,666.4
627.8231,237.1
627.9274,144.2
628.1772,112.8
628.5386,198.6
628.9003,342.9
629.1025,301.8
629.1531,12250.1
629.3349,277.7
629.5511,350.5
629.5958,230.1
629.6427,20.9
630.1571,1073.6
630.5063,24.3
630.575,21.8
630.6681,21.5
630.879,394.6
630.9273,797
631.5418,692.8
631.7194,150.1
631.7617,20.4
631.9095,234.8
632.3827,140.4
632.7765,361.9
632.938,961.4
632.9667,187.9
633.0048,209.7
633.033,148.2
633.0555,297.2
633.1772,465.7
633.4114,124
633.4491,2980.5
633.7713,461.9
633.8055,627
633.8302,302.4
634.0169,387.2
634.2879,483.4
634.4844,137.8
634.7001,241.9
634.8427,2633.1
635.0558,177.7
635.082,674.7
635.1299,274.7
635.3155,333
635.3746,303.2
635.4632,681.1
636.118,187.1
636.8408,3929.5
637.0574,173.2
637.0707,422.9
637.1512,146.7
637.2096,811.8
637.6381,646.4
637.8108,21.3
637.8638,338.2
638.0532,273.2
638.3318,21.7
638.4606,654.9
638.6456,257.4
638.7219,453.8
638.8053,468.5
638.9631,205.7
639.0487,246.1
639.1028,19.5
639.1606,21.8
639.3744,205.1
639.6562,18.7
639.8063,703.9
640.18,596.4
640.3283,304.3
640.6896,276.8
640.9913,352.1
641.2324,203.9
641.438,395.3
641.4589,117.4
641.6243,112.2
642.1065,210.6
642.7824,278.8
642.9319,236.2
643.0185,438.1
643.1458,217
643.1554,406.2
643.1865,300.2
643.5736,414.5
643.9106,153.2
644.2463,20.6
644.3115,352.7
644.5137,328.4
644.7435,157.8
644.8809,476.8
645.1184,4522.2
645.2359,442.9
645.2959,165.9
645.357,446.6
645.4872,821.3
645.6982,182.6
645.8604,26
645.8799,159.7
645.989,193.2
646.0416,340.2
646.1225,254.5
646.2588,160.7
646.4316,1119.1
647.2273,208.3
647.2593,131.8
647.4394,205.6
647.7356,22.9
648.1298,126.4
648.3418,376.1
648.4623,272.9
648.6577,692.3
649.1504,452.6
649.3029,340.3
649.3924,307.9
649.5177,648.8
649.9356,354.8
649.9504,713.8
649.9801,184.2
650.3824,345.7
650.3996,218.2
650.4402,737
650.5461,23.6
650.6017,266.2
650.8174,2062.6
650.8631,23.2
651.1348,22724.6
651.1799,20.4
651.3742,161.3
651.5356,396.5
651.5583,154.9
651.6338,215.8
651.9796,238.3
652.1182,134.5
652.1389,3017.7
652.462,174.5
652.5459,659.9
652.8135,2985.8
653.1935,93.6
653.3434,645.4
653.405,387.4
653.7922,22.7
653.8128,353.5
653.848,17.4
653.8555,17.6
654.0604,695.5
654.0651,762.6
654.233,21.4
654.4742,231.4
654.6535,993.8
654.7386,219
654.811,1675.2
654.8374,697.2
654.9066,20.4
654.9388,360.4
655.2105,181.4
655.2264,19.6
655.3761,745.5
655.8114,25.2
655.8334,20.7
656.1042,452.2
656.2557,789.7
656.6837,309.1
656.8436,650.3
657.3301,673.4
657.6957,164.6
657.7732,323.2
658.2404,396
658.3373,379.2
658.4285,755.7
658.5186,664.5
658.6157,262.1
658.7297,160
658.7862,401.7
658.909,383.1
658.9539,363.3
659.1621,172.5
659.2159,19
659.2952,206.2
659.6154,635.7
659.7797,161.3
660.0309,228.2
660.0826,937.1
660.2047,133.8
660.4238,257.7
660.4964,512
660.525,152.5
660.5921,20.8
660.6179,142.1
660.6863,121
660.845,1039.5
661.0832,3015.1
661.1382,220.1
661.2277,298.1
661.4001,415
661.4703,303.4
661.5189,19.7
662.0808,495
662.2193,448.8
662.2574,480
662.505,177.1
662.5863,161.6
662.9902,172.7
663.3826,290.4
663.4005,121.1
663.4545,641.3
663.5213,593.3
663.9681,136.8
664.4684,2375.2
664.6153,215.3
664.922,172.6
664.9568,225.3
665.1159,337
665.2168,23
665.4335,18.6
665.5017,20.1
665.5279,330.8
665.5707,271.1
665.6521,248.6
666.2484,471
666.423,654.9
666.4837,8213.4
666.7925,438.7
666.8104,24
666.9894,263.6
667.0995,16146.6
667.3212,290.9
667.7343,20.3
667.7927,244.7
667.9288,166.2
668.1031,628.8
668.1509,528.9
668.228,538.4
668.2417,20
668.3097,183.3
668.4072,373.3
668.7494,192.1
668.7878,1193.1
668.9795,423.1
669.4658,111
669.5149,219.4
669.7085,22.7
669.8646,937.6
670.0539,625.8
670.1225,18.4
670.2074,19.6
670.2907,833.7
670.349,144.2
670.4973,699.7
670.7851,753.6
670.9164,190.1
671.2257,650.5
671.4121,471.9
671.4486,21.1
671.4569,19.2
671.7874,212.8
672.3321,22.4
672.346,252.5
672.4039,22.3
672.4201,624.5
672.7083,20.6
672.7226,811.2
672.8883,414.5
673.0835,406.6
673.1169,42586.2
673.4081,183.9
674.1205,7744.6
674.2221,148.7
674.5285,321
674.8537,199.7
674.9969,163.7
675.1223,249.6
675.1462,135.6
675.1799,775.6
675.216,172.3
675.3159,828.5
675.3886,152.5
675.3965,157
675.5445,8742.7
675.6335,602.5
675.6491,166.5
675.8906,21.4
675.9918,360.5
676.0469,2135.5
676.1023,706
676.4698,296.8
676.5476,1997.3
677.221,242.4
677.2409,273.9
677.511,271.5
678.0734,155
678.0814,206.8
678.0869,197.8
678.3061,125.3
678.6043,447.7
678.7918,383.3
679.2529,357.3
679.3759,385.5
679.4799,364.7
679.6214,244.1
679.6702,334.9
679.8686,453.8
680.7249,338.2
681.2695,771.6
681.3599,95.7
681.6183,229.4
681.7063,170.5
681.9887,256
682.0645,8252.4
682.112,457.3
682.1781,163.9
682.2069,149
682.7016,362.4
682.8259,374
683.0655,3334.7
683.2175,159
683.2949,238.8
683.4498,142.3
683.5275,373.7
683.775,26
683.9705,18.2
684.4492,118.7
684.5763,803.1
684.6398,95.7
684.7665,425.4
684.8385,246.7
684.9499,157.7
685.002,657.9
685.2521,21.9
685.3289,98.4
685.4366,3578.4
685.8956,205.2
686.4406,186.5
686.626,571.1
687.072,276.5
687.1228,465.6
687.2002,303.9
687.31,181.8
687.4385,444.1
687.8095,120.3
688.1403,349.8
688.2035,475.4
688.6303,151.3
689.0812,14802.5
689.3276,199
689.3808,448.2
689.4522,286.3
689.5044,565.1
689.5588,2453.1
690.0858,632
690.5869,18.9
690.7759,20.7
691.0907,225.6
691.3339,379.7
691.5135,636.7
691.8157,19.7
692.544,837.1
692.5752,345.6
692.6682,153.9
693.2459,375.4
693.5145,196.8
693.6631,394
693.6919,189
693.9119,472.8
693.9892,342.8
694.0944,116.1
694.1748,695.2
694.5176,519.8
695.099,33282
695.2802,247
695.4594,623.8
695.5102,1162.5
695.6663,20.2
695.8666,285.1
696.1025,4217.4
696.1951,730.5
696.4905,372
696.5154,1861
696.6262,490.3
696.7969,423.1
697.4072,381
697.4775,212.7
697.526,17528.2
697.6736,240.8
698.03,1738
698.0538,331.5
698.3831,154.5
698.5295,7309.2
698.562,464.9
698.8675,329.7
698.9348,363.9
699.0301,163.6
699.0944,272.6
699.1026,279.2
699.6886,407.2
700.1222,663.6
700.4748,396.8
700.9057,99.3
701.2203,183
701.2992,243.9
701.409,447.1
701.5599,27682.2
701.768,270.5
701.9497,124.1
702.0498,301.6
702.1312,175.8
702.3428,2156.3
702.4161,311.5
702.5137,238.1
702.5633,8638.3
702.6858,524.3
702.8862,510.8
702.9284,140.6
703.06,110.9
703.1823,469.4
703.3341,119.2
703.4315,192.7
703.5756,78419.7
703.8188,21.4
703.9281,165.2
703.9431,349.4
704.0462,6203.7
704.4474,518.2
704.4846,387.5
704.5356,461.4
704.579,27515.2
704.6021,22.2
704.7202,20.9
704.7555,132.3
705.0487,1716.5
705.4522,811.5
705.5821,2368.3
705.8128,276.1
705.9651,493.6
706.0151,191.4
706.1531,461.1
706.3738,305.5
706.3968,340.5
706.5386,2257.9
706.5729,258.8
707.0535,19.5
707.2772,143.9
707.5418,474.3
707.7316,19.4
707.9841,456
708.2395,584.4
708.3728,540.5
708.9025,21.6
709.2836,19.3
710.0975,194
710.7645,20.3
711.0106,589.5
711.0646,8784.8
711.0738,12553.8
711.104,278.5
711.3832,135
711.4334,595.9
711.4811,406
711.5421,1740.9
711.5661,328.6
712.0765,580.6
712.2253,215
712.3979,346.1
712.8674,627.9
712.8739,639.8
712.9949,150
713.0245,273
713.0603,717.1
713.0797,278.8
713.1311,496.8
713.4488,310.5
713.5006,2167.2
714.0501,113.7
714.066,418.2
714.3475,152.4
714.4058,18.6
715.3637,303.2
715.5532,212.7
715.589,19.6
715.9727,561.4
716.1217,348.4
716.46,424.9
717.0806,16138.1
717.5925,523.8
717.6897,593.7
717.7314,17.7
717.8757,308.2
718.0848,1155
718.1151,19.8
718.3047,140.1
718.5743,542
718.6202,492.2
718.7887,19.2
719.4624,773.2
720.0212,2157.5
720.7396,706.5
720.7901,87.7
721.0003,552.5
721.0201,176.9
721.1843,284.2
721.4785,60405.8
721.5504,321.7
721.8321,392.4
721.9578,340.3
722.4819,27818.7
722.5363,126.1
723.0316,409.6
723.128,584.6
723.2934,20.4
723.495,9339.5
723.5417,37288
723.7493,146.6
723.8291,96.6
723.9044,268.5
723.9579,94.1
724.0266,159.9
724.3895,176.7
724.4969,1939.3
724.5453,12917.8
724.6926,19.8
724.7165,276.5
724.8191,368.7
725.03,775.2
725.0629,380.6
725.1953,447.1
725.5576,85222.9
725.6367,562.8
725.7794,182.2
725.8477,1080.1
725.8925,170.4
726.0287,4560.4
726.1207,133
726.5037,879.7
726.5609,36800.5
726.8603,290.8
727.0275,2538.8
727.3565,612.7
727.564,3648.5
727.6726,159
727.7611,128.6
727.7809,432.4
727.8475,562.7
728.158,125.6
728.4414,138.9
728.5196,4165.2
728.8566,123.3
728.8791,305.6
729.2132,376.1
729.4155,192.6
729.5337,259.2
729.5917,7029.4
729.6177,407.6
730.0057,495.4
730.4268,314.3
730.5389,6720.6
730.5939,734.9
730.7342,145.9
730.8406,379.4
731.0481,246.1
731.1688,380.1
731.4969,173.8
731.5432,1020.4
731.6068,1977.1
731.7302,658.8
731.8523,184.8
731.9682,155.6
732.1121,167.8
732.1659,238
732.3437,17.4
732.5122,354.4
732.5548,37290.5
732.6112,923.1
732.7127,843.7
733.0562,8687.3
733.1101,253.2
733.2265,656.5
733.5151,363.7
733.5582,12751.7
733.5951,564.2
733.6051,569.7
733.6143,662
733.7229,144.3
734.0369,18.9
734.0612,177.4
734.1485,102.9
734.4434,555.7
734.4955,406.4
734.5465,505.2
734.5704,7467.3
734.5909,485.4
734.8059,151.8
735.2924,296.5
735.4324,108.5
735.5736,2622.3
735.7585,20.2
736.0427,250.5
736.0723,473.7
736.1892,618.8
736.3823,371.8
736.5522,155.3
736.8298,502.5
737.3362,192.8
737.4525,16870.8
737.5609,795
737.7006,236.3
737.729,117.9
737.9352,122.3
737.954,447.6
738.1056,483.6
738.1242,411.5
738.2093,519.3
738.3654,134
738.4544,2326.7
738.5252,498.3
738.8235,770.5
739.017,405.6
739.0632,11494.9
739.1005,566.1
739.1788,712
739.2213,243.2
739.2611,384.2
739.4507,165.7
739.5163,4167.4
739.8005,235.4
739.8732,192.1
740.0916,135.4
740.4114,189.7
740.4697,168.6
740.5198,987.7
740.858,384.5
741.5318,12475.3
742.0037,782.9
742.3685,398.3
742.3827,244
742.4299,125.7
742.4641,261.8
742.535,6127.7
742.5756,6009.8
742.9263,270.1
742.9886,156.9
743.0229,18.7
743.3432,90.8
743.463,775
743.5782,1100
744.1945,576.6
744.5539,4759.5
744.5915,9716.3
744.7531,160.7
744.7857,435.3
744.8079,548.1
745.1516,99.3
745.4784,34350.8
745.5586,1528.3
745.5957,2655.9
745.9298,131
745.9918,331.3
746.1834,139.6
746.4822,11526.8
746.5707,4918.2
746.6075,3101.4
746.6512,19.4
746.8311,324.5
746.9784,366.9
747.1763,231.3
747.2529,610.8
747.3837,26.7
747.4676,366.3
747.4945,9270.9
747.5724,413.9
747.6143,205.9
747.7554,199.6
748.0103,1875.7
748.1913,722.3
748.4817,549.5
748.5216,166
748.5795,242.6
748.8262,780.4
749.0189,1064
749.2806,192
749.5096,5457
749.8575,132
749.9573,203.5
750.1338,152.6
750.2365,208.9
750.6565,211
750.6919,963
750.963,549.9
751.2843,21
751.4527,17.5
751.5163,258.3
751.5722,4876.3
751.637,19.2
752.0215,180.4
752.0723,111.9
752.3084,334.8
752.3684,676.7
752.443,654.6
752.5216,8028.8
752.5754,1385.6
752.6373,117.3
752.6718,127.9
752.6983,712.3
753.0845,24.2
753.1324,598.3
753.1462,600.7
753.2355,413.7
753.5237,2798
753.5883,1717
753.7797,662.9
754.4486,563.3
754.5046,19.2
754.5369,36796.6
755.0377,6242.9
755.0984,762.2
755.1943,150.4
755.3036,242.8
755.3266,131.7
755.5398,13847
755.9974,159.2
756.2109,257.1
756.4693,607.4
756.5545,39562.3
756.6163,115.6
756.6739,337.9
756.7454,133.1
757.5575,14228.2
757.6238,625
757.9787,164.7
758.0265,19.1
758.1846,20.1
758.3211,21
758.4678,154.8
758.5209,722.1
758.5703,1082540.9
758.6295,453.7
758.753,263.4
758.8406,19.4
759.1964,166.5
759.4324,359.2
759.5736,472928
759.6381,536.3
759.9735,161.9
760.0413,450.8
760.587,345043.7
760.6655,148.5
760.8975,760
761.045,3462.8
761.453,6266.8
761.5896,167126.2
761.6142,1156.3
761.7174,651.3
761.7965,140.9
761.8328,449.6
761.8616,383.4
761.9208,164.4
762.4318,145.6
762.4547,2100.9
762.486,446.4
762.5924,35796.3
762.8696,318
762.8983,100.9
763.1261,386.5
763.3899,407.3
763.4673,695.9
763.5646,670.2
763.5959,1916
763.9705,316.4
763.9884,191.2
764.0689,225.7
764.2553,19.8
764.3885,614.2
764.4458,385.7
764.4789,816.3
764.5617,714.2
764.6342,968
765.1742,485.6
765.3785,152.9
765.4836,485.2
765.5013,393.9
765.5621,411.6
766.082,691.1
766.1784,135.5
766.5377,3723.7
766.5749,30707.8
766.7395,540.7
766.8935,204.7
767.3177,205.1
767.5427,524.3
767.5786,9600.5
767.8112,608.5
768.1632,445
768.4228,22.6
768.4947,2409.4
768.5156,143.3
768.5312,18.4
768.5527,2655.1
768.5913,37522.8
768.7269,543.9
769.0022,295.4
769.1181,351.2
769.1664,20.1
769.4782,6080
769.5606,181.1
769.5948,16105.4
769.7793,144.3
769.834,408.9
769.9927,133.8
770.2261,865.3
770.486,429.2
770.5098,2091.6
770.5702,1057
770.6076,2177.3
770.9145,21.6
770.9914,5098.7
771.147,147.9
771.4924,1567.6
771.5124,1537.2
771.6132,436.5
772.2566,563
772.3119,19.8
772.3993,104
772.4442,158.9
772.4948,216.7
772.5171,203.3
772.5862,15003
772.7396,581.4
773.5106,989.1
773.5583,20.7
773.5891,1808.8
773.6237,161.9
773.7241,370.5
773.8008,777.2
774.0181,118.6
774.0426,355.9
774.3153,315.9
774.4895,257.3
774.6026,2003.8
775.2459,320
775.3132,19
775.5768,142.5
775.6055,127.8
776.5212,1217.5
776.6383,24.7
776.7797,166.6
777.008,4754.2
777.2231,417.3
777.291,23
777.4372,391.4
777.5259,1292.4
777.7499,542.5
778.0894,316.6
778.2744,342.5
778.5367,23995.3
778.5723,403.9
778.9917,22.3
779.0462,913.1
779.1587,162.9
779.5401,8620.5
779.8863,143.5
779.9565,194.2
779.9865,308.2
780.2045,448.6
780.5523,735585.8
780.5908,173.1
780.7928,19.4
780.9811,220.3
781.0047,594.1
781.1062,283.8
781.5557,333726.1
781.5913,135.1
781.9018,95
782.0589,17.6
782.1858,147.5
782.2062,217.4
782.57,705424.3
782.6107,128.5
782.9214,220.5
783.0261,6925.6
783.5733,332162.6
784.4513,25
784.5869,274433.5
785.4556,228.4
785.5049,206.9
785.5569,182.2
785.5898,135586.8
785.6546,1475.9
785.7316,498
786.0593,121.5
786.6021,268959.3
786.6544,546.2
786.9675,1348
787.0466,246.7
787.1169,360.4
787.2207,392.1
787.3422,167.8
787.6052,135530.3
787.6705,502.7
787.7466,319.7
787.7847,619
788.5572,14706.3
788.6054,21135.9
788.6207,12189.2
788.6896,608.4
788.9674,317.9
789.0469,236.6
789.5593,2309.8
789.622,6130.9
789.6721,214.1
789.9375,495.2
790.002,143.1
790.0292,124.8
790.5142,575.9
790.5738,24732.4
790.6249,341.9
790.9434,619.4
791.0813,388.3
791.5762,4175.8
792.0519,549.2
792.5559,792.9
792.5905,14341.7
792.8744,18.5
792.9837,855.1
793.4071,281.6
793.48,165.5
793.594,3857.8
794.1618,414.8
794.2965,393.6
794.5101,2306.9
794.5684,6183.7
794.6069,38580.7
794.7606,18.6
795.3085,761.5
795.4219,358.6
795.4722,709.9
795.5144,675.4
795.5531,626.6
795.5667,709.9
795.6104,15752.5
795.6635,406.2
796.1181,486.1
796.5262,177656
796.5865,4771
796.6234,2619.9
796.6947,385.1
796.7215,571.4
796.7759,144.3
796.9352,429
797.1809,19.7
797.2931,475.2
797.3894,22.2
797.5296,78272.5
797.5884,662.5
797.7239,218.1
797.9226,339.6
798.0595,878.3
798.1022,175.3
798.3269,140.1
798.5433,43973.4
798.5898,162.1
798.6794,805.1
799.0009,1521
799.5451,21989.7
799.6675,144.1
799.8162,139
800.3127,1107.9
800.5531,1314.6
800.615,97.9
800.6829,664.4
800.9611,355.4
801.3085,20.2
801.3936,617.5
801.8392,570.2
802.1146,224.2
802.537,23014
802.6418,323.3
802.7477,938
802.7953,213.6
802.8981,188.6
803.1423,21.4
803.365,20.9
803.3903,263.6
803.54,9769.7
803.7151,317.5
803.7548,565.7
804.4533,818.5
804.5524,355453.2
805.4101,350
805.4863,631.4
805.5557,171691
805.9243,497.4
806.2393,179.9
806.5697,322063.3
806.966,505.4
807.2686,917.6
807.5728,158391.6
808.3228,1882.8
808.5854,214175.1
808.9603,148
809.2929,21.8
809.5442,227.4
809.5884,106459.6
809.8474,1233.2
810.2385,416.2
810.4182,682.4
810.6023,143580.6
810.663,196.5
811.1866,565.7
811.541,23.6
811.6051,70370.2
811.6689,5460.4
811.975,22.7
812.054,434.9
812.1691,154
812.299,115.9
812.6034,5321.8
812.62,16481.9
812.6729,1445.9
812.7888,19.3
812.9509,531.2
813.0438,380.3
813.1813,125.3
813.2274,161.8
813.3365,141.9
813.3835,18.4
813.6219,9050.3
813.6852,4264.6
813.8773,156.8
813.911,19.4
814.1783,132.1
814.5741,1584.7
814.6896,1790.1
814.9795,364
815.1068,714.7
815.1261,851.4
815.3985,138.8
815.5751,368
815.6412,19.2
815.7987,379.4
815.8873,590.2
815.9307,195.2
816.4723,134
816.5892,17408.2
816.7194,308.8
816.734,120.7
816.9265,191.5
817.191,813.2
817.5608,640.2
817.5921,6733.9
817.731,607.5
818.3244,20.3
818.4231,18.8
818.4804,155.3
818.5121,586.7
818.5704,1586.9
818.6065,2942.7
818.7027,219.4
818.918,19.7
819.1962,537.1
819.5161,141.4
819.5818,418.5
819.6087,552.4
820.194,149.4
820.3911,481.6
820.5262,88344.3
820.5867,995.8
820.6218,548.8
820.72,310.3
820.9264,188.2
821.3411,161.3
821.5296,40867
821.5877,332.3
821.6292,311.4
821.8904,214.1
822.1464,155.9
822.2599,19.8
822.3286,172
822.5429,37534.6
822.7044,232
823.1367,165.4
823.3075,104.3
823.3262,91
823.5454,16583.8
823.683,369.9
823.8606,508.9
824.4366,810.3
824.558,29955.8
825.4759,232
825.5611,13100.9
825.8334,19
826.0098,1155.8
826.4755,405.7
826.572,189.4
826.7794,280.6
826.9069,20.6
827.6393,118.2
827.69,418
828.5525,113144.7
828.7227,21.6
829.0582,191.7
829.4465,601.7
829.5559,52076.5
829.8235,885.7
830.0428,151
830.3466,256.8
830.5694,53549.5
830.6502,257.2
830.8356,424.6
830.9824,194.9
831.3909,906.3
831.4334,287.9
831.5719,27661.4
831.9178,158.3
831.9899,157.2
832.0982,200.2
832.4427,19.3
832.4898,781.3
832.5845,72746.5
832.6209,752.6
832.9084,151.6
833.3454,198.1
833.4086,460
833.5417,169.5
833.5873,35599
833.6155,165.3
833.6502,201
833.8134,317.5
834.0002,117.9
834.1262,165.3
834.4364,762.2
834.4681,136.2
834.6023,35096.6
834.659,564.4
835.2045,898.7
835.2436,151.2
835.6045,12742.6
835.7772,579.4
835.8017,114.4
836.6201,2931.4
836.6673,167
836.7375,618.8
836.8992,23
836.9477,638.3
837.4847,177.7
837.6208,925.3
838.0812,407.3
838.2196,595.5
838.5486,861.2
838.6341,200.4
838.6794,84.2
838.9195,19.7
839.0182,483.3
839.3735,679.8
839.5637,628
839.9688,567.6
840.0036,184
840.5275,236.8
840.8689,305.7
840.9463,511.9
840.9848,173.7
841.0433,160.1
841.5376,152.1
841.7949,131.6
841.8638,157.9
842.6024,374.3
842.6525,125
842.775,426.8
843.1728,762.8
843.2081,484.1
843.2271,129.8
843.6675,816.1
843.8279,767.6
843.9942,22.8
844.0744,311.2
844.1492,676.7
844.334,255.7
844.5262,24453.2
844.7186,219.1
845.0338,554.1
845.0581,742.7
845.53,9284.9
845.6872,160.4
845.766,333.1
845.9982,492.8
846.0689,271.3
846.1128,487.1
846.2376,149
846.3809,297.3
846.4353,24.8
846.5435,9319.5
846.5795,705.9
846.6298,17.9
847.0309,364.6
847.0947,362.5
847.1177,357.1
847.5451,828.6
847.8838,22.3
848.2025,362.7
848.558,12033.1
848.7247,233.6
848.8899,158.8
849.4495,160.9
849.5049,358.8
849.5608,5639.6
849.7947,146.2
849.8571,193.2
849.9315,791.1
850.556,196.5
850.608,98.5
850.6965,590.6
851.1708,142.5
851.4333,206.8
851.4647,348.3
852.0754,588.4
852.129,384.2
852.1525,245.7
852.2681,342.2
852.5416,953.8
853.0412,910.4
854.2386,212.2
854.5676,2156
854.6928,19.9
854.782,294
854.9944,414.5
855.1006,301.9
855.3927,254.8
855.5732,171.1
855.6838,365.7
855.8689,766
856.0083,656.3
856.3951,171.3
856.584,9004.2
856.7965,95.1
856.8887,146.8
856.9231,608.8
857.1053,199.8
857.394,22.4
857.587,1245.9
857.9406,492.9
858.088,344.9
858.1068,149.7
858.5191,456
858.5645,245.6
859.2113,151.2
859.4974,106.1
860.0267,588.4
860.7101,753.3
860.9783,562.5
861.0885,607
861.1213,257
861.9393,623.2
862.2922,434.7
862.4491,215.5
862.6484,192.8
862.8633,276.8
862.9029,822.8
864.2416,853.4
864.64,457.8
865.1022,448.8
865.3481,96.4
866.159,135.7
867.1673,400.9
867.2355,300.8
867.6184,380.4
868.3123,163.8
868.4552,1250.2
868.9422,327.9
869.2091,22
869.3803,202.2
869.4071,342.3
869.442,372.6
869.4614,22.7
869.4884,27.9
869.5155,962.5
869.5411,443.8
869.5848,1161.3
869.6185,862.3
869.6325,661.4
869.6631,1230.6
869.6686,1213.7
869.6965,36.5
869.7243,762.5
869.7444,1400.7
869.7889,1462.2
869.8336,3791.4
869.901,5315.8
869.9486,2873.5
870.0011,3070.8
870.0347,2713
870.0586,3270.7
870.1035,1057.2
870.165,461.3
870.1921,613.4
870.2318,210
870.2501,20.4
870.4401,2406.9
870.6584,354.3
871.1973,149.4
871.2763,387.5
871.3257,119.9
871.4344,528.5
871.4816,508.6
871.8294,550.1
871.9981,20.4
872.1673,431.8
872.1913,291.8
872.4066,595
872.6602,19.9
872.6986,21.5
872.8046,22.1
872.8449,18.5
873.9407,693.4
874.1195,1143.8
874.1747,112.8
874.7324,175.1
874.7701,167.6
874.8678,262.8
874.9213,531
875.2524,164
875.3136,374.2
875.5964,19
875.6261,546.7
876.2444,205.9
876.3133,351.7
876.4757,556.7
876.6523,228.1
876.7509,275.5
876.8282,838.5
877.1406,616.9
877.6744,373.7
878.2978,20.8
878.7402,392
879.1147,19.1
879.2405,1137.3
879.9382,426.6
880.1591,428.3
880.2334,18.6
880.517,200
880.7387,207.6
880.9496,655.1
881.2112,19.9
881.2701,19.4
881.5314,20.8
881.6929,21
881.7655,18.4
881.8601,1026.2
882.2285,142.9
882.5132,244.8
883.0012,152.6
883.271,358.2
883.516,772.2
884.1819,524.3
885.1792,162.9
885.7116,375.5
886.2486,358.5
886.4169,330.1
886.7048,259.5
886.9331,2216.8
887.1083,253.1
887.1829,649.3
887.2192,155.7
887.2634,22.8
887.479,191.2
888.1433,302.3
889.7974,207.4
889.865,327
890.2875,414.3
890.3781,1668.8
890.899,578.3
891.0095,272.4
891.2328,610.5
891.298,119.8
891.3727,120.8
891.8072,19.1
891.9588,921.3
892.0265,20.6
892.1886,355.2
892.2889,417.7
892.3789,773
893.4888,226.1
893.5798,415.9
894.2139,198.7
894.5084,394.8
894.9678,18.9
895.0669,151.9
895.2287,173
895.818,477.6
896.2058,187.9
897.2311,527.8
897.537,1062.7
897.9345,861.9
898.2263,672.4
898.6006,308.9
898.7502,290
898.7924,97.2
898.8295,384.7
899.0042,175.6
899.078,458.1
899.4118,19.9
899.4498,151.4
899.5509,260
900.4182,578.8
900.5027,542.4
900.5838,184.1
900.7552,588.9
901.2357,358.4
902.0434,1230.9
902.3208,374.9
902.4026,497.3
902.6462,376.7
902.6762,331.5
902.8843,173.2
903.0542,1191.8
903.7802,225.2
903.8089,361.3
903.9881,186.3
904.1545,351
904.5806,161.1
905.1751,455.4
905.3918,295.5
905.9101,19.1
906.2951,261.7
906.3429,484.5
906.5914,597.5
907.4718,190
907.959,109.6
907.9885,255.8
908.3415,318.1
908.4238,20.3
908.6033,1804.7
909.0156,20.5
909.0871,290
909.3992,349.7
909.4191,540.7
911.4045,455.5
911.5671,702.7
911.965,22.7
912.0171,312.5
913.0779,629.7
913.1885,969.2
913.3186,19.7
913.4828,777.9
914.183,234.5
914.2757,396
915.4548,175.7
916.5953,153.7
916.685,19
916.7373,393.8
917.5215,134.4
917.8179,19.8
917.9716,397.8
918.6216,569.6
918.7648,212.5
918.8954,161.7
919.1823,347.2
919.2257,523
919.8,237.4
920.0118,681.2
920.0662,963.9
920.9076,20.9
921.0452,597.4
921.1633,1894.2
921.2518,261.9
921.3198,131
921.3971,528.8
921.9395,754.5
922.0694,485.9
922.4835,460.3
922.7078,139.6
922.8888,652.2
923.0692,482
923.6318,625.2
923.8412,825.9
924.0004,301.4
924.5587,338.9
924.606,166.7
925.0006,18.5
925.2566,691.5
925.459,673.2
925.79,500.8
926.5695,558.8
926.8915,306.6
926.9733,97.1
927.0061,126
927.0909,458.8
927.4057,158.6
927.4975,215.8
927.5871,463.2
927.7027,623.7
928.4054,212.9
928.5262,251.4
929.1054,206.9
929.7677,501.9
930.1423,578
930.236,388.9
930.4046,17.9
931.1551,361.4
931.7739,642.5
932.0893,19.6
932.8587,545.5
933.238,283.1
933.4872,906.9
934.0478,616.1
934.756,370.8
935.6687,19.8
935.9554,21.6
936.2303,267.6
936.2939,99.4
936.4151,244.7
936.5669,149.5
936.9558,210.4
937.015,156
937.0837,181.2
937.9376,716.6
938.9668,243.3
939.0939,299.4
939.2401,781.8
939.4167,1087.7
939.7988,1468.4
940.2083,92.7
940.706,146.4
941.4783,300.7
941.5192,728.5
942.4413,1813.5
942.6751,551.3
942.8043,334.8
943.2247,874.8
943.5034,478
943.5504,336.9
943.8068,762.1
943.8835,282.1
943.9314,502.1
944.1189,224.3
944.4235,999.6
944.6264,444.4
945.0062,488.4
945.0606,1252.5
945.1554,299.7
945.3397,346.3
945.6058,486.3
945.6627,92.1
945.918,128.2
946.2584,447.3
947.0759,156.5
947.2166,555.4
947.3464,93.4
947.6002,145.3
947.8791,181.4
947.9408,1068.2
948.0638,437.5
948.224,1059.2
948.8634,134.2
949.0739,278.3
949.1188,725.7
949.6563,22.8
949.7031,1552.9
950.0277,434.2
950.1337,827.3
950.1777,755
950.2208,731.1
950.6359,21.5
950.7088,710
951.0511,202.7
951.6027,519
951.9388,773.2
952.3731,216.7
952.5041,476.7
952.7506,755
952.9827,134.5
953.505,1000.6
953.6132,849.6
953.7123,152.6
953.7452,841.4
953.8795,444.8
954.4288,431.7
954.4528,1087.2
954.5976,175.3
954.7109,154.2
954.8128,622.5
955.2327,333.2
955.4569,404.5
955.5608,173.7
955.696,222.8
956.679,464.1
956.7224,521.5
956.8816,166.8
956.9951,23.5
957.4372,986
957.6325,622.7
957.972,1504
958.0427,149.3
958.3814,729.6
959.2058,457.5
959.327,398.3
959.3516,814.1
959.386,126.3
959.8166,163.9
959.8752,153.1
959.918,275.8
960.4757,238.9
960.5255,936
960.6952,996.3
960.9846,375
961.2724,173.4
962.0521,19.2
962.3611,143.2
962.505,1041.3
962.892,179.1
963.1878,238.9
963.3204,99
963.5121,137.6
963.704,404.9
963.9242,264
964.1511,1012.2
964.3784,338
964.9555,241
965.1408,366.4
965.2467,727
965.2897,25.2
965.3305,672.6
965.3878,22.7
965.4297,497
965.5522,505.6
966.3477,301.9
966.5111,479.8
966.5298,446.4
966.884,406.2
967.1949,494.5
967.4398,1752.4
967.8236,230.2
968.0332,313.6
968.3761,21.3
968.702,87.1
969.1359,1911.4
969.2193,308
969.3316,334.4
969.7596,110.3
970.4876,595.4
970.7704,172.6
971.211,379.5
971.4197,588.3
971.6381,551.9
971.966,308
972.4129,548.9
972.695,23
972.7264,19.2
972.9045,511.6
973.0028,198.5
973.2196,268.1
974.1043,629.8
974.7798,468.9
975.2536,250.1
975.3809,478.5
976.0683,277.8
976.1217,161.9
976.9215,1018.8
977.3169,765.1
977.3604,874.6
977.4195,19.7
977.9269,329.8
978.5203,542.7
978.5494,204
978.6712,20.4
979.2268,419
979.306,199.3
979.3548,692.6
979.514,707.5
979.5771,672.3
979.8267,298.3
980.1625,565
980.4159,369.4
980.6003,1627.9
980.6432,716.5
980.8551,19.5
981.2596,374.4
981.6626,156.8
982.2999,455.8
982.3894,583.5
982.7084,184.5
982.8874,146.1
983.3074,98.4
983.5306,175.7
983.8771,219.1
983.9391,537.4
984.0528,434.3
984.42,157.4
984.6125,17.9
984.6739,185
984.7102,378.9
984.9157,19.4
985.1208,449.1
985.3373,178.6
985.3574,254.6
985.7325,488.3
985.7981,671.4
986.2593,380.6
986.3575,19.7
986.5647,508.2
986.7172,604.1
987.3909,605.6
988.105,629.9
988.2484,682.1
988.452,153.1
988.7868,190.1
989.1222,293.2
989.396,352.3
989.4089,337.5
989.4259,443.1
989.4449,280.2
989.5183,177.2
989.8322,430
990.3591,296.9
990.4175,337.9
990.7705,527.1
991.4968,146.7
991.7669,523.4
991.9956,23.3
992.2298,236.5
992.7485,727.8
992.8962,359.3
992.9425,130.1
993.4295,381.2
994.1116,110.5
995.2424,275.1
995.3149,801.4
995.4149,169.9
995.4811,22
995.5215,1338.5
995.5706,362.9
995.7906,575.6
996.1695,407.4
996.2245,835.6
996.2372,889.3
996.392,1722.1
996.4599,941.2
996.909,145.6
997.4378,410.3
997.8542,269.9
997.9348,20.5
997.9901,325.6
998.6276,254.5
999.5445,431.5
999.5768,440.2
999.7316,508.8
999.9046,241.2
