SPECTRUM - MS,
241.RAW,
FTMS + p ESI Full ms [50.00-1000.00],
Scan #: 1-40,
RT: 0.01-1.97,
AV: 40,
m/z,Intensity

50.0042,99.2
50.0197,221.7
50.0206,581.9
50.0218,16.2
50.0284,125.8
50.0449,196.7
50.0456,97.3
50.0524,147.4
50.0856,68.2
50.0879,214.8
50.09,455.6
50.0908,423.8
50.096,106.3
50.1027,137.9
50.1072,80.4
50.1162,491.4
50.1199,481.5
50.1356,151.4
50.151,420.9
50.1614,270.8
50.1648,99.7
50.1751,141.3
50.1854,142.3
50.1902,97.4
50.1934,99.4
50.2104,114.5
50.2112,125.7
50.2164,107.2
50.245,285.4
50.2568,84.4
50.2615,509.1
50.2766,302.2
50.2991,120.2
50.3199,549.5
50.3218,73.7
50.3232,96.9
50.3381,381
50.359,502.8
50.3595,173.5
50.3636,412
50.3665,210.2
50.3766,397.8
50.3854,711.1
50.4092,19.8
50.4108,105.1
50.4256,72.2
50.4591,159.1
50.4635,236.3
50.4732,127.6
50.474,93.8
50.4781,16.2
50.4999,56.8
50.509,69.1
50.5111,775
50.5118,15.6
50.5121,93
50.5202,128.8
50.5422,16.8
50.554,194
50.5604,359.1
50.5629,18.4
50.5796,246.7
50.5824,122.1
50.5884,126.2
50.5968,466.4
50.5973,187.3
50.6171,249.7
50.6187,154.7
50.6222,144.6
50.6233,156.3
50.6275,245
50.6346,18.6
50.6615,137.6
50.6676,250.4
50.6702,18.2
50.6761,85.9
50.6923,434
50.6951,530.4
50.6957,79.5
50.704,390.6
50.709,320.2
50.7193,84.9
50.7316,149.3
50.7451,155
50.7594,408.5
50.7672,16.9
50.8003,436.3
50.81,367.3
50.8374,386.7
50.8617,421.5
50.8654,377.8
50.8724,85.5
50.8858,19.9
50.891,138.8
50.9067,85.6
50.9072,294.5
50.9389,15.7
50.94,216.8
50.9453,160.3
50.9554,21.5
50.956,329.2
50.9674,252.6
50.9804,123.6
50.9818,107
50.9968,467.4
51.0006,383.8
51.0085,16.5
51.0118,139
51.0305,73.2
51.0373,480.2
51.0378,18.9
51.0401,467.1
51.0485,16.5
51.0615,770.9
51.0815,131.2
51.0824,78.4
51.0883,422.8
51.0906,600.3
51.0947,116.9
51.1026,350.3
51.1182,425.7
51.1372,253.6
51.157,20
51.1717,227.3
51.1793,376.3
51.1859,190.7
51.1929,112.6
51.1958,18.4
51.1966,550.9
51.1984,417.5
51.2036,438.4
51.2245,495.7
51.2248,873.8
51.272,107.1
51.2796,16.4
51.2855,182.5
51.3069,21.3
51.3282,101.5
51.3363,220.3
51.3418,486.7
51.3551,254.6
51.3664,366.9
51.3678,692
51.3947,191.3
51.4063,17.3
51.4087,247.8
51.4153,75.2
51.4231,338.1
51.4305,261
51.4321,178.6
51.4478,97.5
51.4509,116.2
51.4648,245.9
51.4709,102.2
51.4766,106.1
51.4949,15.5
51.4952,328
51.5015,595.4
51.5066,216.6
51.508,92.5
51.5176,307.2
51.5249,110.9
51.5361,63.1
51.5422,75.8
51.5618,118.4
51.5718,667.1
51.5727,326.7
51.5759,362.3
51.5798,127.1
51.5858,110.7
51.5907,171.9
51.5913,157.4
51.5919,379.5
51.598,84.2
51.6104,136.5
51.6146,59.3
51.6248,209.7
51.6316,318
51.6371,241.8
51.6505,91.2
51.6839,130.4
51.6855,81.8
51.7011,393.2
51.7265,352.7
51.7479,366.9
51.7493,144.6
51.7535,61.5
51.7552,325.8
51.7949,62.7
51.7995,15.2
51.8524,61.2
51.8527,304.1
51.8657,123.2
51.8684,426.2
51.8692,93.1
51.8841,144.3
51.8868,125.9
51.9225,372.2
51.9532,124.9
51.9711,215.9
51.9778,610.9
51.9836,250.6
51.9925,58.7
52.0024,280.7
52.0044,362.8
52.0335,346.1
52.0366,18
52.0385,125.2
52.047,177.7
52.0599,432.1
52.0669,412
52.072,550.5
52.0888,16.8
52.1122,88.2
52.127,136.8
52.1348,394.6
52.1432,88
52.1564,128.6
52.1623,602.2
52.1676,307.3
52.1763,512
52.1848,100.2
52.2109,718.8
52.2238,153.9
52.2248,136.8
52.2645,428
52.2708,125.8
52.2797,15.9
52.2871,316.6
52.2974,209
52.3267,158.9
52.3424,398.3
52.3585,172.1
52.45,284.3
52.4595,516.3
52.4599,68.2
52.4786,429.3
52.4814,521.4
52.535,756.8
52.5525,237.1
52.5531,122.3
52.5569,375.6
52.5601,285.4
52.5637,274.6
52.5663,247.5
52.5704,16.5
52.5714,105.7
52.5733,18.7
52.5827,193
52.5876,193.8
52.5991,195
52.6068,207.2
52.618,444.1
52.633,182.4
52.6366,423.9
52.6517,233.9
52.6529,288.9
52.6694,537.5
52.683,139.3
52.6858,198.4
52.7357,104.3
52.7416,16.1
52.7445,108.7
52.7534,93.7
52.7613,188.6
52.8093,219.4
52.8325,32.6
52.833,36.3
52.8338,897.6
52.8343,15.3
52.8356,1446.5
52.8359,937.6
52.8366,2154
52.8369,2072
52.8374,2327
52.8381,3730.9
52.8386,2730.7
52.8391,1712.9
52.8413,101.7
52.8426,278.5
52.8608,71
52.8851,97.1
52.8894,16.5
52.8916,128.8
52.8926,113.2
52.9166,865.6
52.9505,20.4
52.9511,75.4
52.9537,315.6
52.9605,805.3
52.9682,134.9
52.9724,18.3
52.9822,246.1
52.9937,61.1
52.9938,61.9
52.9949,588.9
52.9987,83.2
53.0003,295.6
53.0415,197.8
53.0489,353.9
53.0717,83.5
53.0744,222.9
53.0827,157.4
53.0832,58.5
53.0839,289.5
53.0946,108.7
53.1031,506.8
53.1077,221.5
53.1101,66.9
53.1184,116.9
53.1319,15.9
53.1452,55.1
53.1503,325.1
53.16,337.3
53.178,119.9
53.1802,821.6
53.1874,223.7
53.1955,470.2
53.1991,300.9
53.2029,98.7
53.2069,17.2
53.2185,650.3
53.2242,73.4
53.2309,211.3
53.2352,468.1
53.2382,393.6
53.2464,122.8
53.2529,802.3
53.2565,590
53.2798,156.8
53.2841,126.1
53.3022,426.1
53.31,296.7
53.3211,286.4
53.3225,104.6
53.3428,334.2
53.3712,80.9
53.3759,401.8
53.4025,303.4
53.4061,155
53.4653,750.6
53.4726,118
53.4847,794.5
53.4873,208.6
53.4882,319.6
53.492,696.5
53.5096,392.7
53.5268,303.3
53.5273,373
53.5306,326.2
53.533,100.1
53.5367,95.4
53.5383,371.6
53.554,81.4
53.5549,156.6
53.5623,142.9
53.5892,157.6
53.59,172
53.5924,117.4
53.6257,94
53.654,454.3
53.6616,140
53.6726,469.6
53.6812,102.8
53.6973,401.5
53.6986,454
53.7353,116.1
53.7548,287.8
53.7565,316.7
53.7732,144.4
53.7968,180.7
53.8204,232.8
53.8216,298.5
53.8238,397.1
53.8404,370.1
53.8655,60.3
53.8761,151.4
53.89,58.3
53.9172,122.3
53.922,119.2
53.9234,544.9
53.9242,105.5
53.9405,221.9
53.9447,113.3
53.9475,149.1
53.9607,175.4
53.964,104
53.9697,170.2
53.9778,79.7
53.9825,198.9
54.005,362.3
54.0207,215.6
54.0224,325.3
54.0229,408.1
54.0303,15.8
54.0463,589.7
54.0489,198.8
54.0558,1018.1
54.0601,74.5
54.0843,237.3
54.0901,137.3
54.1015,17.3
54.1056,53.8
54.1102,241.7
54.1106,91.3
54.1113,18.8
54.1359,358.8
54.1425,289
54.1493,56.1
54.1814,483.2
54.1883,271.8
54.2158,125.7
54.2217,86.3
54.2257,91.5
54.2284,261.3
54.2313,19.8
54.2337,82.3
54.236,79.6
54.2428,295.3
54.2678,106.3
54.2718,121.7
54.2724,18.4
54.2945,510.5
54.2956,359
54.3075,108.4
54.3312,120.5
54.3495,244.8
54.3543,91.4
54.3586,674.1
54.3596,152.8
54.3624,318.6
54.363,15.8
54.367,296.6
54.3681,404.8
54.3704,72.1
54.3837,418
54.3908,101.4
54.3928,160.2
54.3958,763.7
54.4002,281.7
54.415,78.2
54.4437,472.7
54.4445,400.5
54.4595,87.3
54.4636,530.4
54.4653,316.2
54.4694,122.4
54.4792,60.9
54.499,72.8
54.5163,759.7
54.5234,430.9
54.5282,118.1
54.5302,221.6
54.538,333.8
54.5485,272.3
54.5579,807.5
54.5647,487.6
54.6121,417.4
54.6474,294.7
54.6524,183.6
54.6587,76.8
54.6824,94.4
54.6854,17.4
54.6927,86.4
54.6975,243.1
54.7078,746.5
54.7186,338.2
54.7305,87.9
54.7474,131
54.7539,675.4
54.76,79.6
54.7877,81.9
54.7912,131.3
54.7979,200
54.8178,119.2
54.8206,442.4
54.8339,79.2
54.8388,105.7
54.8407,81.4
54.8502,652.4
54.8542,496.1
54.856,789.4
54.8774,323.2
54.8886,116
54.8991,588.7
54.9018,121.4
54.9054,356.4
54.939,446
54.9396,156.6
54.9551,315.7
54.9599,86.1
54.968,97.8
54.9691,557.8
54.9733,381.6
54.9827,375.8
54.9833,212
55.0045,15.6
55.0214,803.9
55.0319,452.2
55.0396,356.3
55.0413,335.3
55.0958,147.7
55.098,124.6
55.0985,73.8
55.1003,86.7
55.1131,187.6
55.1168,86.1
55.1231,71.3
55.1251,97.9
55.1323,171.9
55.1411,16.7
55.1573,378.3
55.1602,297.4
55.1681,367.5
55.171,73.2
55.184,128.5
55.1876,108.3
55.1998,591.8
55.2052,259
55.2284,76
55.2347,181.7
55.248,233.1
55.2487,128.1
55.2494,156
55.2516,20.8
55.2535,119.3
55.2866,173.7
55.3353,194.5
55.3379,463.3
55.3491,171.9
55.3874,233
55.429,164.4
55.462,233.9
55.4812,83.7
55.4897,410.8
55.5072,274.1
55.5218,60.9
55.5969,314.6
55.6055,101.8
55.6102,262.7
55.6373,380
55.6401,313.5
55.6533,360.4
55.6742,304
55.6891,184.9
55.6939,95.2
55.7144,277.6
55.7312,15.4
55.7696,57.3
55.7801,215.5
55.7856,206.1
55.8003,141.3
55.8079,87.4
55.8141,81.1
55.8478,16.4
55.8524,708.4
55.8544,233
55.8637,357.2
55.8662,403.9
55.8824,352.6
55.8968,17.7
55.9316,232.7
55.9541,104.9
55.9564,154.2
55.9619,18.2
55.9687,470.5
55.9832,190.8
55.9985,164.4
56.0173,96.8
56.0223,139.9
56.0312,121.1
56.0338,97
56.048,112.3
56.049,459.6
56.0503,542
56.0525,186.7
56.0732,107.1
56.0964,436.9
56.1268,16.3
56.1316,107.5
56.1367,232.3
56.1617,122.1
56.1787,205.3
56.1961,74.8
56.2123,296
56.2238,16.8
56.23,14.5
56.2341,168.1
56.2452,540.5
56.2462,150.3
56.2508,127.7
56.2578,131.2
56.2708,81
56.272,115.6
56.2766,124.9
56.2852,183.2
56.3016,90.7
56.33,137.6
56.3313,413.3
56.3356,466.5
56.3374,143.6
56.3567,16
56.3898,72.9
56.4087,81.6
56.4188,658.6
56.4379,283.6
56.449,326.9
56.4503,133.7
56.4508,688.7
56.4543,383.3
56.4771,516.2
56.4785,62
56.4854,80.7
56.4886,115.8
56.5218,146.8
56.5339,373.1
56.5388,96.5
56.5432,167.5
56.5555,125.2
56.5759,229.6
56.5839,274.9
56.5978,263.2
56.6259,15
56.6264,61
56.6481,175.3
56.6524,91
56.659,986.1
56.7009,80.7
56.7179,127.5
56.7457,79.5
56.7493,231.1
56.755,212.7
56.7583,675.5
56.7657,96.1
56.7722,209.2
56.7828,406
56.7861,15.3
56.7901,189.1
56.801,459.8
56.8042,452.3
56.821,15
56.8223,779.1
56.8274,111.3
56.8275,112.4
56.8431,219.2
56.8443,176.7
56.8457,451.4
56.8599,419.3
56.8676,71.2
56.8936,124.2
56.8968,89
56.8982,295.2
56.9033,464.4
56.9267,341.9
56.9278,439.4
56.9497,358.1
56.9749,112.7
56.9761,494.3
56.979,122.7
56.9818,215.4
56.9857,274.7
57.015,112.8
57.0213,418.7
57.0516,116.8
57.0605,16.9
57.0952,16.5
57.1016,76.7
57.1126,149.8
57.1193,162.5
57.1349,16.7
57.1491,15.4
57.1604,73.8
57.1783,17.2
57.2081,24.3
57.2213,304.3
57.2314,15.7
57.263,108.3
57.2666,601.3
57.2697,295.4
57.2923,138.4
57.2954,59
57.2973,14.5
57.3069,82.2
57.3081,525.5
57.3101,318.1
57.3163,281.8
57.3345,270.1
57.3375,152.5
57.3385,19.4
57.3526,168.1
57.3581,81.6
57.361,171.8
57.3782,695.9
57.3938,219.7
57.3958,141
57.3962,384.7
57.4213,293.6
57.4269,585.1
57.4326,19.2
57.4346,606.5
57.4375,336.7
57.4387,471.3
57.4397,148.9
57.4412,89
57.4651,392.9
57.4686,105.1
57.4862,80.8
57.4989,188.7
57.5027,281.7
57.5067,180.5
57.525,133.2
57.5337,99.1
57.5382,724.1
57.5691,761.3
57.5711,563.9
57.5985,584.4
57.6064,139.6
57.6218,82.2
57.6316,116.6
57.6412,22.7
57.6491,112.5
57.6633,258.8
57.7124,126.6
57.7158,18
57.7243,15.3
57.732,201.1
57.7344,78.5
57.7399,432.2
57.7492,412.3
57.7883,187.3
57.7902,99.7
57.7931,132.4
57.8204,152.8
57.8252,512.8
57.8353,218.4
57.8414,535.7
57.8466,533
57.8635,253.9
57.8705,306.3
57.8799,70.5
57.8825,77.2
57.8832,272.7
57.9227,84.5
57.9418,333
57.9696,173.1
57.9742,75
58.0023,283.7
58.0064,85.5
58.0113,393.1
58.0664,450.8
58.0808,317.7
58.0931,229.7
58.0993,293.7
58.1039,515.2
58.115,273.7
58.1176,387.2
58.1189,416.2
58.1296,628.9
58.1312,89.6
58.1564,507
58.1572,400
58.1612,122.9
58.1666,597.1
58.1683,116.2
58.178,304.9
58.1868,107.1
58.195,80.7
58.1994,89.4
58.2332,57.5
58.2396,153.1
58.2527,487.1
58.2673,17.6
58.2698,160.2
58.273,371.3
58.2754,376.2
58.2885,406.4
58.2967,157.7
58.3041,103.1
58.3112,333.4
58.3266,101.5
58.338,134.6
58.3561,693.1
58.3673,17.8
58.3744,167
58.3796,177.9
58.3887,19.6
58.3891,760.4
58.3915,16.2
58.3924,79.4
58.3975,356.6
58.4191,177.6
58.4197,743.7
58.4208,155.5
58.4345,691.8
58.44,208.2
58.4407,471.7
58.507,115.4
58.514,833.5
58.5225,312.6
58.5399,15.1
58.5548,18.3
58.5643,149.6
58.5851,178.5
58.5891,131
58.5961,260.9
58.5984,18.8
58.6071,127
58.6154,86.9
58.632,17.9
58.6635,107.3
58.6676,123.2
58.6684,262.7
58.6915,428.1
58.7018,114.5
58.7023,60
58.7122,115.1
58.7252,561.4
58.7559,15.6
58.7807,152.9
58.8014,54.9
58.805,684.5
58.8131,440.3
58.8247,114.8
58.8708,200.6
58.8734,371.9
58.8989,352.9
58.9048,98.1
58.913,130.3
58.9216,377.2
58.9336,498.4
58.9375,208.4
58.94,300.3
58.9438,68.2
58.9474,17.4
58.9555,107.3
58.9704,176.7
58.9723,326.3
59.0077,111.6
59.0133,338.4
59.0327,319.6
59.0392,80.5
59.0404,205.3
59.0565,826.1
59.0892,148.7
59.0926,363.3
59.0986,535
59.1203,214
59.153,409.1
59.1565,621.3
59.1634,541.6
59.1679,113.1
59.169,95.1
59.1894,201.7
59.1933,483.7
59.2112,329.9
59.2241,67
59.2336,87
59.2383,398
59.2448,16.3
59.2467,624.7
59.2491,344.1
59.266,325.8
59.2777,15.3
59.2886,144.8
59.2937,287.9
59.2973,168.3
59.3162,115.5
59.3194,101.8
59.3288,264.3
59.3598,526.2
59.3694,374.5
59.3697,188.5
59.3741,128.3
59.3904,84.8
59.4026,147.9
59.4148,88.4
59.4162,96.7
59.4289,187.3
59.4356,551.8
59.4558,385.1
59.4605,75.9
59.4642,94.6
59.4663,171.6
59.4711,599.3
59.4892,154.4
59.4903,109.4
59.5325,510.8
59.5331,947.5
59.5405,362.2
59.545,85.2
59.5683,124
59.58,64.1
59.5974,352.2
59.6256,171.7
59.6358,108.7
59.6579,188.1
59.7107,189
59.7135,424.9
59.7214,80.1
59.7256,407.8
59.7489,532.4
59.7876,197.4
59.7888,140.8
59.8128,82.6
59.8204,355
59.8235,143.9
59.843,17.9
59.8567,334.2
59.8685,17.9
59.8728,123.8
59.8854,215.5
59.8939,102.4
59.8993,166.5
59.9067,363.5
59.9121,728.9
59.9155,118.7
59.9184,346.2
59.9272,331.2
59.9841,377.8
60.0023,262.9
60.0394,76.3
60.0548,284.8
60.056,124
60.0569,192.3
60.0672,348.9
60.0839,439
60.1004,101.9
60.1069,159.2
60.1079,429.4
60.1334,543.6
60.2027,384.9
60.205,406.6
60.2072,326.9
60.2175,304.7
60.2267,130.4
60.2284,303.8
60.2358,785.7
60.2399,17
60.2552,105.8
60.2686,96.2
60.2835,75.5
60.289,331.9
60.2904,17.6
60.294,645.5
60.2974,168.7
60.3006,268.1
60.3093,96.1
60.3195,162.1
60.3222,108
60.3281,504.7
60.336,180.8
60.3393,318.9
60.3609,271.1
60.3841,253
60.3969,421.1
60.4137,158.7
60.416,73.7
60.4349,199.2
60.4405,516.8
60.4479,521
60.45,90.4
60.453,123.2
60.4588,529.3
60.4671,185.8
60.4734,82.6
60.4859,178.2
60.4905,179.4
60.4913,472.7
60.4966,17
60.4999,390.6
60.5172,203.9
60.5197,478.9
60.5268,98.1
60.5436,136.4
60.5476,677.9
60.5536,148.6
60.5547,104
60.564,457.4
60.5649,95.6
60.6762,88.7
60.6834,588
60.6927,219.2
60.7036,17.3
60.7299,17.5
60.7627,448.9
60.7677,64.1
60.7737,187.2
60.7897,123.6
60.7981,414.2
60.8031,303.6
60.824,88.6
60.832,516.9
60.8331,569.1
60.8416,200.9
60.8673,271.6
60.8989,21.4
60.9221,200.1
60.9239,14.9
60.941,846.3
60.9649,17.7
60.9701,277.2
60.9741,86.1
60.9863,593.2
60.9899,114.9
60.9932,496.4
61.0057,78.3
61.0175,471.3
61.0217,122.6
61.031,17.9
61.0489,93
61.0848,180
61.0876,102.2
61.0928,277.1
61.0957,62.6
61.1174,161.7
61.133,164.7
61.1632,15.9
61.1709,20.4
61.1764,17.4
61.1789,322.7
61.1831,83.3
61.2021,462
61.2035,85.4
61.2181,610.5
61.2222,98.3
61.2503,139.9
61.284,330.8
61.3153,75.9
61.3272,91.9
61.3316,89.5
61.3367,95.3
61.3472,91.4
61.3757,67.3
61.3931,16.6
61.3995,128.2
61.4314,178
61.4421,17
61.4649,245.6
61.5282,850.8
61.543,285
61.566,164.3
61.5707,904
61.5893,75.1
61.6106,855.8
61.6165,532.8
61.6266,386.5
61.6299,104.3
61.6603,73.3
61.682,345.2
61.6832,171
61.7059,104
61.7135,328.5
61.7749,75.8
61.7826,138.2
61.787,269.1
61.7953,186.4
61.8062,179.9
61.84,159
61.8463,21
61.8576,152.9
61.8938,241.7
61.8953,22.5
61.9173,177.6
61.9647,95.5
61.9664,410.2
61.9768,307
61.9818,151.8
61.9941,427.9
61.9996,213.3
62.0028,523.8
62.0209,184.2
62.0247,717.1
62.0394,240.6
62.0418,105
62.045,20.2
62.0653,183.7
62.0841,416.8
62.0843,647.5
62.0845,686.8
62.0908,70.7
62.0981,141.7
62.1143,87.4
62.1145,79.2
62.1169,116
62.1478,141.3
62.1847,466.1
62.1861,97.3
62.1918,205.5
62.1979,58.3
62.1989,93.4
62.2015,366.5
62.2018,375.8
62.2118,251.2
62.2221,104.1
62.2474,87.5
62.2563,370.6
62.2633,56.8
62.269,59.6
62.2971,221.6
62.3078,326.1
62.3168,410.4
62.3238,481.2
62.327,227.8
62.3342,88.2
62.3453,358.9
62.3552,136.4
62.368,163
62.3698,481.9
62.4058,359.6
62.4102,339.1
62.4105,294.9
62.4119,170
62.4275,101.9
62.4334,391.8
62.4438,18.3
62.4472,608.1
62.4656,177.1
62.4801,124.2
62.5073,135.6
62.5096,99.6
62.5429,67.1
62.5485,696.3
62.5537,66.4
62.5578,358
62.5608,143.5
62.5643,218.1
62.5919,257.4
62.5963,14.8
62.5964,14.7
62.6037,133.7
62.6186,90.6
62.6232,76.7
62.625,19
62.628,17.7
62.6672,404.5
62.6729,882.8
62.6959,348.2
62.6998,16.7
62.7089,271.7
62.7378,207.3
62.7412,401.6
62.7582,174.1
62.7617,72
62.7688,304.2
62.8379,16
62.8528,112.3
62.8655,115
62.8801,500
62.8839,66.9
62.8913,388.5
62.9024,185.5
62.9088,144
62.9165,135.8
62.9249,122.8
62.9312,483.4
62.9495,106.4
62.9588,359.5
62.9726,448.8
62.9812,76.5
62.9977,289.7
63.0311,415.6
63.0376,130.9
63.0835,398.6
63.0846,437.3
63.0973,158.3
63.1267,123.7
63.1284,334.9
63.1366,58.1
63.1447,429.8
63.1476,87.7
63.1495,411.5
63.1554,592
63.1825,348.5
63.1903,414.9
63.205,200.4
63.2176,403.5
63.2184,81.9
63.2319,136.8
63.2393,16
63.2424,89.2
63.2433,224
63.2459,124.2
63.2518,80.8
63.2551,102.9
63.2557,267.6
63.2591,56.2
63.2612,136.6
63.2619,81.1
63.2623,281.8
63.2869,82.4
63.2978,277.5
63.3239,690
63.325,601.9
63.3795,230.8
63.3901,432.4
63.391,132.6
63.4079,119.2
63.451,373.9
63.5029,413.6
63.5203,140.1
63.6191,76.2
63.6198,108.6
63.6263,131.2
63.627,17.8
63.6286,15
63.657,118.6
63.666,110.7
63.7072,97.1
63.7248,80
63.7813,233.4
63.7828,196
63.7837,138.2
63.7906,543.4
63.8282,120.5
63.8393,167.7
63.8434,82.8
63.8477,650.8
63.8938,97
63.9018,100.9
63.9106,23.6
63.9121,60.2
63.9203,132.5
63.9513,285.7
63.9537,93.6
63.9671,84.9
64.0033,19.1
64.0294,577.5
64.0337,180.2
64.0441,18.4
64.0483,281.3
64.0788,15.6
64.0823,62
64.1653,130
64.173,142.4
64.1932,181.6
64.2041,83.3
64.224,117
64.2463,376.6
64.2721,96.8
64.2764,254.5
64.2903,291.2
64.3064,889.3
64.3123,315.8
64.3195,539.3
64.3208,373.5
64.3396,84.8
64.3409,523
64.3414,16
64.3593,75.7
64.3625,190.3
64.3753,139.5
64.3949,456.3
64.4185,223.6
64.4294,180.3
64.4453,58.2
64.4496,595.6
64.45,135.9
64.4534,18
64.4566,120.1
64.464,21.5
64.4678,18.4
64.4747,15.1
64.4882,422.6
64.4942,253
64.5005,20.2
64.5036,549.8
64.5105,391.2
64.5183,522.4
64.5484,308.4
64.5911,305
64.5988,287.1
64.6233,149.2
64.6449,394.8
64.6541,134
64.6598,895.3
64.7132,273.9
64.7194,85.1
64.7581,22.7
64.7875,476.6
64.7887,262.2
64.7901,256.6
64.8067,18
64.8406,63.1
64.8414,212.2
64.8462,276
64.8554,151.6
64.8869,147
64.8979,148.9
64.9054,743.5
64.9381,19
64.9418,60.8
64.9509,175.6
64.977,282
64.9868,220.4
64.99,99.5
65.0077,88.2
65.0135,196.9
65.014,104.3
65.038,93.2
65.0395,505.9
65.0428,199.8
65.0487,297.8
65.0849,143.7
65.0879,100.4
65.1099,258.8
65.1229,54.4
65.1238,444.6
65.1318,103.6
65.1387,94.7
65.143,131
65.1631,429.4
65.1664,353.5
65.1772,525.5
65.1887,395.5
65.1913,584.3
65.1937,19.8
65.2237,350.1
65.239,157.5
65.2466,169.5
65.2541,85.1
65.2764,127.9
65.2785,96
65.2896,120.9
65.2912,603.2
65.3225,348.7
65.3259,826.9
65.335,354.8
65.346,306
65.3525,113.7
65.3652,140.5
65.3686,796.1
65.3721,87.2
65.3934,952.3
65.3962,91.6
65.4007,520.9
65.4023,212.8
65.4489,95
65.4587,103.6
65.4608,159
65.4718,180.8
65.4723,334.4
65.4746,504.7
65.4761,172.1
65.4971,92.4
65.5024,269.8
65.5086,128.2
65.5197,568.5
65.5367,72.5
65.5536,600.5
65.5591,93.2
65.5688,108.3
65.5834,627.6
65.5913,98.2
65.5941,676.8
65.5974,113.9
65.619,803.8
65.6208,101.4
65.6435,398.4
65.6808,79.9
65.7071,99.6
65.7604,91.3
65.7651,382.8
65.7819,226.7
65.7934,725.2
65.7935,834
65.7938,433.9
65.827,66.8
65.8374,345.6
65.8404,782.5
65.8473,17.4
65.8489,134
65.8512,347.3
65.863,223.2
65.8651,391.2
65.8834,91.4
65.9009,323.6
65.9403,422.6
65.9446,526.8
65.9567,224.4
65.9702,114.4
66.0218,186.6
66.0228,832.4
66.0271,103.3
66.0394,483.7
66.0404,185.2
66.0438,88.1
66.0532,171.5
66.0694,300.5
66.0706,97.5
66.0774,436.7
66.0796,80.9
66.0883,230.9
66.1086,95.3
66.1251,82.3
66.1299,527.5
66.144,210.1
66.1457,252.9
66.1465,219.2
66.1519,98.2
66.2496,98.2
66.2576,21.1
66.2601,73.9
66.325,743.3
66.329,409.9
66.3297,17.4
66.3325,79.9
66.3378,135.8
66.3645,412.3
66.3659,129.1
66.3957,375.3
66.4179,113
66.4317,229.1
66.4358,524.4
66.4537,681.3
66.4734,560.5
66.474,213.1
66.4766,466
66.4824,166.8
66.5555,564.6
66.5602,81.1
66.5656,287.4
66.5757,73
66.5936,138.1
66.5996,118.5
66.6177,317
66.6369,223.9
66.6427,71.4
66.6478,158.6
66.6631,125.5
66.6801,449.3
66.6871,372.7
66.6959,94.1
66.7038,206.6
66.7082,16.9
66.7252,63.9
66.7353,99.4
66.7773,188.9
66.8209,346.6
66.8537,168.2
66.8551,121.8
66.8836,19.4
66.9382,567
66.9684,163.7
66.984,136.7
67.004,19.6
67.0198,154.3
67.0313,93.3
67.0632,326.4
67.0711,380.7
67.0775,159.4
67.0849,519.3
67.0866,344.1
67.1027,229.3
67.1284,494.9
67.1402,70.7
67.1533,67.4
67.1585,239
67.1707,93
67.2102,195.1
67.2158,834.2
67.224,175.6
67.2369,179.6
67.2715,352.3
67.3026,318.8
67.3038,77.9
67.3053,116.7
67.3154,17.2
67.3415,16.8
67.3581,19
67.3629,148
67.3644,381.2
67.3821,114
67.3949,248.7
67.3981,68
67.4202,117
67.4721,244.9
67.4736,206.5
67.4812,119.7
67.5001,133.2
67.5282,280
67.5534,217.7
67.5569,180.8
67.5783,249.5
67.5965,128.5
67.6041,547.8
67.6069,487.5
67.6093,184.2
67.6209,505.6
67.6519,512.1
67.6568,64.5
67.6693,97.6
67.6723,112.6
67.674,117.6
67.6754,458.5
67.6831,224.6
67.723,489.9
67.7255,897.6
67.7286,16.4
67.798,93.2
67.8018,564.9
67.8096,173.6
67.8348,181.7
67.844,156
67.8496,83.8
67.8581,18.1
67.8601,120.8
67.869,63.6
67.9196,88.4
67.9339,267.9
67.957,85.5
67.9577,753.3
67.9609,148.2
67.9676,90.8
67.9792,391.6
67.9989,107.3
68.0141,388
68.017,380.4
68.0203,496.2
68.0277,151.3
68.0406,194
68.0585,77.3
68.0592,77
68.0686,331.7
68.1155,318.8
68.1267,72
68.1357,425.4
68.1415,22.6
68.1472,18.2
68.1532,89.6
68.1614,75.1
68.1766,93.3
68.1788,222.9
68.179,229.5
68.2097,79.7
68.2228,148.9
68.2307,69.7
68.2893,754.2
68.3063,332.6
68.3101,99
68.3123,146
68.3351,90.7
68.3453,85.6
68.3574,20.3
68.359,183.8
68.3773,718.1
68.3791,367.3
68.3823,74.9
68.3895,534.4
68.3914,454
68.4265,107.9
68.4287,68.9
68.4391,473.8
68.4537,248.8
68.4779,16.7
68.4918,344.1
68.5055,545.9
68.5265,197.5
68.569,196.6
68.5765,398.4
68.5811,205.8
68.6095,252
68.6222,787.3
68.6227,292.3
68.6282,484.6
68.6355,19
68.647,324
68.6603,121.2
68.6692,18.2
68.6991,189.1
68.716,365.1
68.7177,225.3
68.768,452.4
68.7723,340.7
68.7814,778.8
68.7928,179.3
68.7953,83.3
68.8107,446.6
68.8149,107.5
68.8213,257.3
68.8273,88.4
68.8436,420.5
68.8566,121.8
68.8733,123.6
68.8857,20.7
68.9059,66
68.9215,223.4
68.9223,97.4
68.9381,119.7
68.9426,355.1
68.959,200
68.9765,152
69.0139,139.9
69.0671,309.8
69.1119,570.6
69.1127,149.6
69.118,132
69.123,97.9
69.1388,270.9
69.1516,540.6
69.153,1185.9
69.154,430.4
69.163,668.9
69.2048,143.8
69.2074,590.9
69.2105,579.3
69.2127,284.6
69.2548,325.6
69.2621,573.6
69.2632,101.2
69.2967,20.1
69.3676,338
69.3748,434.2
69.3886,172.1
69.3898,138.5
69.408,204
69.4176,314.8
69.4377,204.5
69.4405,121.9
69.4667,303.3
69.4706,392.5
69.4771,117
69.4819,434.3
69.488,88.9
69.5145,628.6
69.5474,254.8
69.5764,18.9
69.5914,377.8
69.603,418.7
69.6242,95.5
69.6324,459.8
69.6348,133.6
69.6369,93.9
69.6397,384.7
69.6536,178.4
69.6547,779.2
69.6728,724.4
69.7231,79.3
69.725,88.4
69.747,82
69.7557,232.6
69.7981,569.5
69.8218,73.3
69.8277,120.3
69.837,229.2
69.8404,187.9
69.8529,492.3
69.8615,81
69.8674,17.7
69.8904,217.9
69.8993,398.1
69.9071,17.2
69.9171,219.8
69.9361,253.8
69.9458,17.3
69.962,17.6
69.9637,18.3
69.9742,198.2
69.9878,429
69.9925,100
69.9936,357
70.0058,99.7
70.045,15.8
70.0647,725.9
70.0758,503.2
70.1109,155.5
70.13,466.3
70.132,84.2
70.1358,330.1
70.1635,343.2
70.1797,279.1
70.1919,86.5
70.1982,194.6
70.2009,505.2
70.2204,94.6
70.232,96.1
70.2389,112.9
70.2405,150.9
70.2434,20.5
70.2533,19
70.2613,17.6
70.2692,864.2
70.2954,508
70.3084,276.8
70.3179,400.2
70.3319,123.2
70.3547,16
70.3573,146.1
70.3837,102.6
70.4024,229.1
70.4042,259.3
70.4236,121.5
70.4259,294.5
70.4692,264
70.5045,80.6
70.5217,408.6
70.5461,715.6
70.5657,98.6
70.6064,129.6
70.6183,16.6
70.6233,88.5
70.6263,350.8
70.6581,91.3
70.6599,288.8
70.6606,274.5
70.6873,187
70.6948,77.5
70.7122,83
70.7129,805.7
70.7279,182.1
70.729,82.7
70.7401,72.8
70.7496,78.2
70.7542,795.9
70.7563,137.3
70.809,391.8
70.8671,432.5
70.8929,787
70.9075,488.1
70.9088,81.7
71.0047,127.9
71.0086,152.3
71.0325,554.7
71.0427,98
71.0703,474.5
71.0876,125.9
71.1138,175.8
71.1159,97.5
71.133,218.5
71.1429,198.1
71.153,117.2
71.1607,86.2
71.1704,119.3
71.1736,180.3
71.1755,352.7
71.1789,115.7
71.1811,16
71.1864,74.4
71.2008,97.1
71.2043,146.4
71.212,80.6
71.2252,315.4
71.2543,99.8
71.2686,280.6
71.2695,418
71.2852,176
71.2882,83.5
71.2962,817.1
71.2974,373.5
71.3303,20.8
71.3415,138.6
71.3451,286
71.3631,425.8
71.3706,114.1
71.3778,243.4
71.3944,188.8
71.3955,801.4
71.403,88.2
71.4091,249.1
71.4144,99.7
71.4667,788.8
71.4753,723
71.476,20.3
71.4762,19.4
71.503,181.1
71.5091,327.8
71.5639,503.6
71.6112,151.8
71.6131,94.9
71.6191,80.3
71.6382,360.8
71.6479,804.4
71.6953,658.7
71.702,145.5
71.7093,817.6
71.718,514.7
71.7389,18
71.7569,102.7
71.7702,518
71.806,234.6
71.8264,450.8
71.8373,390.7
71.8805,207.3
71.9181,576.9
71.9359,234.6
71.939,384.2
71.9501,92.8
71.956,293.6
71.9593,126.8
71.9631,351.4
72.0136,320.8
72.0171,132.1
72.0205,243.2
72.0538,146.4
72.0668,277.1
72.0713,109
72.078,58.9
72.0804,209.6
72.0832,115
72.0926,126.1
72.1038,501.8
72.1083,302.3
72.1114,83.7
72.1337,362.2
72.1356,261.8
72.1381,243.6
72.1396,586.1
72.1449,192.9
72.1505,341.5
72.1631,774.6
72.1742,290.1
72.1768,372.8
72.1785,559
72.2105,387.6
72.2172,215.4
72.2206,116
72.2211,256.9
72.2215,281.1
72.2229,98.1
72.2231,127.5
72.2234,135.3
72.2248,266.8
72.226,346.6
72.2264,273.1
72.2275,290.8
72.2285,858.5
72.2294,840.9
72.2304,204.5
72.231,897
72.2313,996.3
72.2326,940.5
72.2332,444.8
72.2346,1880.4
72.2351,1646.6
72.2356,1424.8
72.2359,1220.7
72.2372,2854.6
72.2385,2814.4
72.2391,3673.2
72.2396,2768
72.2398,2719.6
72.2401,2737.5
72.2407,3840.9
72.2418,4458.7
72.2431,2878.3
72.2439,1451.9
72.2442,1633.8
72.2455,3126.2
72.2465,2506.3
72.2478,1514
72.2482,2075.7
72.2489,1947.9
72.2496,1892
72.2508,638.1
72.2518,3567.4
72.2528,602.3
72.2538,728.6
72.2549,851.6
72.2568,902
72.2575,581.8
72.2593,117.1
72.2598,531.9
72.297,88.3
72.3181,306.2
72.335,331.4
72.3758,86.7
72.4099,275.2
72.4159,522.4
72.4358,103.1
72.4549,18.3
72.4593,90.5
72.467,527.8
72.5092,376.3
72.5144,526.7
72.5263,320.7
72.5281,140.2
72.5453,73.9
72.567,221.6
72.5712,67
72.6187,91.8
72.6373,322.5
72.6462,367.6
72.6501,99.7
72.6621,94.4
72.698,582.1
72.705,262.8
72.7361,136.1
72.7529,109.7
72.7571,170.6
72.7619,204.4
72.808,155
72.8097,404.4
72.8274,287.3
72.8296,76.7
72.8393,18.7
72.8712,603.9
72.8729,145.4
72.8778,116.4
72.8922,136
72.9331,94.1
72.9344,385.2
72.9368,784.8
72.9621,234.8
72.9923,259
72.9935,90.8
73.0019,208.5
73.0124,111.8
73.0184,313.9
73.0616,243.2
73.0829,124.1
73.0877,208.1
73.1128,596
73.1141,16.8
73.132,121.1
73.1349,129.5
73.1484,180.8
73.1599,120.2
73.1772,190.6
73.2018,529.2
73.2094,562.4
73.2232,156.7
73.2311,114.2
73.2569,17.9
73.2719,324.1
73.3037,72
73.3057,224.4
73.3209,148.9
73.3656,143.3
73.3731,164.8
73.3743,267.2
73.4146,205.3
73.4169,79.7
73.4652,122.5
73.4909,400.9
73.494,18.7
73.5064,17.5
73.5156,126.2
73.5281,140.9
73.5313,521
73.537,468.3
73.5635,406.3
73.5679,17.4
73.593,81
73.6258,156
73.6369,245.2
73.6386,93.4
73.6486,265.9
73.6771,123.7
73.7005,290.7
73.7027,112.9
73.7054,379.3
73.7089,153.2
73.7216,256
73.7235,129.2
73.739,103.7
73.7395,130.8
73.7482,72.3
73.753,185.6
73.756,463.7
73.7671,217.2
73.7791,148.1
73.7808,65.7
73.7823,168.3
73.7845,643.8
73.7965,144.7
73.8067,117.5
73.8103,278.1
73.8164,172.5
73.82,17.1
73.8348,472
73.8519,774.8
73.8551,79.8
73.8714,93.8
73.8843,193.3
73.9101,84.2
73.911,419.1
73.9128,95.8
73.9203,612.6
73.9217,705
73.9395,288.9
73.9428,547.7
73.9719,344.8
73.991,426.3
73.9913,439.1
74.0123,176.1
74.0145,137.9
74.0266,447.8
74.0449,145.1
74.0523,467.2
74.0563,93.8
74.0598,2000.8
74.0798,75.9
74.0956,177.6
74.0959,396
74.0961,388.5
74.1269,356
74.138,186.5
74.1415,85.4
74.1439,18.6
74.1508,156
74.1544,87.3
74.1645,56.6
74.1755,600.1
74.1978,130.4
74.2105,82.4
74.221,563.3
74.2497,266
74.2941,119
74.2981,107.5
74.3011,208.1
74.3081,424
74.3438,74.3
74.3507,286.1
74.3716,793.3
74.389,112.1
74.4161,511.7
74.4208,19.2
74.4406,20
74.4519,67.6
74.4587,130.4
74.4959,100.4
74.5116,94.8
74.5236,93.7
74.536,424
74.5416,485.3
74.547,19.1
74.5545,403.1
74.5613,474.6
74.5849,229.6
74.6285,188.1
74.6402,103
74.6478,257.2
74.6645,452.4
74.6744,155
74.6816,402.6
74.7782,58.9
74.7805,79
74.7826,78.9
74.7855,76.3
74.7976,243.4
74.8068,415.7
74.8081,484.1
74.8197,352.8
74.8205,175.2
74.8222,132.1
74.8259,82.2
74.8275,88.6
74.8293,20.1
74.8476,259.6
74.85,93.6
74.8644,18.2
74.8962,239.6
74.8978,121.4
74.9031,760.4
74.9503,551.2
74.9621,399
75.0056,217.1
75.0225,445.1
75.0316,69.6
75.0435,450.1
75.0445,273.9
75.0521,231.7
75.0647,16.3
75.0793,306.6
75.0846,332.7
75.0933,134.1
75.0962,530.4
75.1056,342.9
75.1157,238.2
75.1222,93.5
75.1808,18.3
75.1851,92.4
75.1962,188.1
75.2123,19.8
75.2139,65.4
75.2205,167.8
75.2415,503.1
75.2471,176.8
75.2514,123.9
75.2572,293.7
75.2637,108.7
75.266,292.8
75.28,594.9
75.3083,22.5
75.3274,80.6
75.3344,278.3
75.3464,84.7
75.3807,379.1
75.3891,395.6
75.3967,809.4
75.3972,118
75.4215,283.4
75.4294,18.9
75.4339,355.9
75.4507,154.8
75.5086,65
75.5147,396.3
75.5187,81.9
75.5445,173.4
75.5896,320.3
75.628,213.4
75.6684,470.1
75.6894,204.1
75.7023,504.2
75.7078,272.7
75.7496,84.7
75.7578,214.3
75.781,140.2
75.7994,206.1
75.8004,90.3
75.8179,268.1
75.8325,121.2
75.8397,358.7
75.8906,543.2
75.898,87.6
75.9308,126.1
75.941,262.1
75.9553,83
75.98,70.9
75.9844,180.6
76.0113,561.2
76.0291,193.7
76.0302,492.1
76.0455,102.8
76.048,357.9
76.052,201.1
76.0531,840.4
76.0619,222.9
76.0678,768.4
76.0715,308.4
76.0843,251.4
76.0965,339.2
76.159,83.4
76.1688,457.3
76.1827,232.9
76.2079,164.6
76.2203,268.5
76.2361,252.6
76.2594,177.9
76.2788,930.7
76.2823,511.6
76.2875,499.6
76.3264,96.5
76.3415,160.4
76.3635,21.3
76.3692,71.6
76.3732,132
76.4009,70.4
76.4096,310.8
76.4154,353.5
76.4233,116.6
76.4436,283
76.4466,608.5
76.4526,827.2
76.4687,164.2
76.4856,130.1
76.4877,18.2
76.4957,113.3
76.5077,217.3
76.5355,289.5
76.5639,64.5
76.5759,129.9
76.6057,67.9
76.6439,606.8
76.6746,296.2
76.7117,300.5
76.7309,810.4
76.7336,113.9
76.744,442.2
76.7478,291.9
76.7857,175.3
76.7893,150.8
76.7922,283.4
76.81,567
76.8417,116.6
76.8671,304.6
76.872,161.4
76.8764,99.7
76.912,474
76.9525,103.4
76.957,414.3
76.9579,112.4
76.9794,162.9
76.991,316.2
76.9918,163.7
76.996,122.9
77.0349,30.4
77.0357,68.7
77.0366,27.5
77.0383,110121.2
77.0395,19.9
77.0481,20.3
77.069,207.1
77.0884,254.6
77.1006,466.5
77.1035,118
77.134,179.7
77.1802,147.9
77.1874,15.6
77.21,17.5
77.2224,489.9
77.252,273.2
77.2608,382.7
77.2674,78.6
77.283,429.8
77.2906,311.7
77.3544,17.2
77.368,19
77.3733,857
77.3796,673.2
77.382,466.9
77.3882,441.2
77.4262,100.1
77.4559,85.3
77.4868,414.9
77.5086,264.6
77.5175,76.7
77.5324,571.8
77.5468,152.9
77.5731,271.6
77.5921,85.6
77.5944,455.3
77.6007,140
77.6381,97.7
77.6717,16.5
77.6885,309
77.708,158.9
77.7089,176.3
77.7409,597.8
77.7695,136.3
77.7829,230.1
77.8152,401.5
77.8429,17.2
77.8627,243.4
77.8752,759.4
77.8798,438.5
77.9125,543.2
77.9187,626.5
77.9283,88.1
77.9429,460.5
77.9501,16.9
77.9589,154.1
77.9755,191.4
77.9978,79.3
78.0023,81.8
78.0069,133
78.0416,2878.6
78.1014,449.1
78.1113,449.2
78.1358,431.2
78.1366,68.7
78.1379,100.1
78.149,120.1
78.1503,165.8
78.1834,160.7
78.1868,109.4
78.2135,173.3
78.2152,323.1
78.2318,118.3
78.2418,16.4
78.2491,178.9
78.253,367.5
78.2643,842.9
78.2691,188.9
78.2722,508.7
78.2913,177.8
78.3155,703.8
78.326,425.9
78.3335,287.7
78.3353,92.6
78.3691,624.4
78.3718,89.1
78.3762,785.2
78.3904,66.2
78.3989,121.2
78.4029,713.8
78.4234,19.2
78.4483,751
78.4706,17.7
78.494,406.2
78.4975,542.4
78.5343,580.9
78.5483,18.6
78.6023,18
78.6052,565.4
78.6317,115.3
78.6433,20.1
78.6505,553.9
78.6546,791.2
78.6623,79.2
78.6885,217.9
78.712,480.2
78.7364,113.4
78.7751,73.7
78.8291,562.5
78.8311,18.9
78.8317,85.8
78.8434,210.5
78.8556,393.3
78.8636,433.3
78.874,18
78.914,130.2
78.9174,836.1
78.9409,730.4
78.9468,394.6
78.9563,207.8
78.9762,99.3
78.996,173.9
78.9967,31.9
79.0006,81.3
79.005,102.6
79.0105,71.7
79.0247,581.4
79.054,2612.3
79.079,278.5
79.0948,19.3
79.0972,91
79.1136,78.9
79.1391,89.9
79.1405,131.4
79.1646,59.9
79.1698,483.5
79.1814,18.4
79.2076,23.7
79.2591,68.1
79.2754,503.1
79.3078,62.3
79.3137,108.8
79.3149,182.4
79.3309,20.2
79.3503,123.9
79.3577,168.5
79.3714,192.9
79.3777,214.1
79.4047,166.8
79.4203,123.2
79.4537,413.4
79.4602,79.5
79.4838,89.2
79.495,691.8
79.4965,82.3
79.5541,744.3
79.5615,225.4
79.5754,161
79.5849,201.1
79.6001,156.2
79.607,66.9
79.6105,972.5
79.6145,416.2
79.6843,19.3
79.6893,464.6
79.707,115.8
79.7235,184.4
79.7321,145.8
79.7589,165
79.8077,232.9
79.8185,95
79.8297,317.2
79.8586,382.1
79.8692,128.5
79.8838,635.8
79.8909,109.2
79.9228,691.8
79.9284,319.6
79.9306,311.5
79.9329,118.9
79.9428,214.4
79.9548,67.5
79.9798,327.9
79.9812,305.3
79.9932,82.5
80.0092,137.6
80.0129,125.6
80.0573,18.4
80.0589,212.8
80.0757,558.2
80.0845,349.2
80.0859,536.9
80.0893,84
80.1008,200
80.1563,395.3
80.1805,333.2
80.2105,135.8
80.2195,137.4
80.3027,217.2
80.3283,482.6
80.3293,611.8
80.3528,799.2
80.3585,19.1
80.3651,181.9
80.3653,179.5
80.4224,158.7
80.4269,332.1
80.4485,548.4
80.45,686.7
80.4512,86.5
80.4576,103.3
80.459,90.3
80.4677,17.2
80.4877,136.5
80.4935,103.7
80.506,82
80.5574,172.4
80.564,291.8
80.5786,578.2
80.5824,390.4
80.5938,189.7
80.6172,63.4
80.6416,176.5
80.6455,855.3
80.6539,123.6
80.666,86.3
80.7406,144.3
80.7683,221.9
80.7713,660.5
80.7896,448.8
80.8257,75.5
80.8348,468.2
80.8426,144.5
80.8605,414.5
80.8808,176.7
80.9206,596.7
80.9229,401.2
80.9309,156.2
80.9476,36584.6
80.9562,87.6
80.9635,18
81.0204,115.1
81.0675,166.5
81.0696,1804.7
81.0957,875.2
81.0965,103
81.1145,246.4
81.1307,343.2
81.1553,223.1
81.1696,18.4
81.1715,2376.9
81.1731,632.8
81.1744,442.9
81.1754,342.5
81.1759,212.6
81.178,224.1
81.1956,689.9
81.2197,133.3
81.2291,191.6
81.2472,74.7
81.2681,412.2
81.2909,503.5
81.301,498.8
81.3034,80
81.3184,316
81.3198,377.5
81.3237,438.5
81.3281,92.3
81.3293,885.6
81.3452,229
81.3545,780
81.4203,154.3
81.435,113.5
81.4367,391.3
81.4483,110.3
81.4657,239.2
81.4924,26.4
81.5231,177.2
81.527,281.7
81.5623,173.2
81.5644,804
81.5826,322.1
81.5884,689.1
81.6386,321
81.6733,697.8
81.6784,430.5
81.6968,19.5
81.7082,267.5
81.7211,21.6
81.7251,18.8
81.7407,110.2
81.7768,113.9
81.789,483.4
81.7922,231.8
81.8036,209.7
81.8343,413.3
81.8515,112.8
81.8814,180.1
81.8925,464.6
81.8932,292.9
81.9022,165.3
81.9159,197.7
81.9187,219.7
81.9189,190
81.961,763.7
81.9642,548.4
81.9708,296.8
81.9869,726.5
82.0056,382.4
82.0304,518.5
82.0312,59.7
82.0666,486.6
82.0739,503.7
82.083,137.7
82.0948,569.1
82.1185,93.1
82.1195,59
82.1228,320.4
82.1298,80.6
82.1305,353.4
82.1341,440
82.1531,716.5
82.1538,90.3
82.1592,158.7
82.2152,441.1
82.2202,540.1
82.3125,563.8
82.3278,443.2
82.3317,102.6
82.3407,286.8
82.3585,118.3
82.3838,162.5
82.3841,148.7
82.3843,142.2
82.3895,177.3
82.4122,101.5
82.4145,703.6
82.4224,541
82.4352,769.7
82.4401,180.5
82.449,17
82.4509,85.4
82.4603,405.8
82.4646,104.9
82.4857,17.4
82.4943,150
82.4949,165.9
82.4962,220.1
82.5676,88
82.5921,113.1
82.6018,801.6
82.6051,471.3
82.615,501.1
82.6303,734.6
82.6595,121.8
82.661,185.5
82.6682,211.4
82.6735,242.6
82.6802,164.9
82.7025,734.3
82.7146,533
82.7648,432.2
82.7695,448.3
82.7712,171.3
82.7745,17.1
82.7804,443.8
82.789,366.6
82.7905,436.8
82.7946,552.8
82.8087,89.1
82.8254,453.4
82.8293,67.8
82.8453,86.3
82.8501,189.9
82.8727,265.3
82.8862,547.2
82.8878,404.5
82.9296,84.4
82.9446,11057.9
82.9489,258.5
82.9767,166.5
82.9878,72.5
83.0043,733.8
83.0213,122.7
83.0475,85.3
83.0636,261.1
83.0648,102
83.0683,94.2
83.0807,91.6
83.0814,451.5
83.0926,199.5
83.098,188.9
83.1102,629.1
83.1176,427.9
83.1389,868
83.1543,112.4
83.159,113.8
83.1622,116.2
83.1752,371.7
83.1878,255.7
83.2178,513
83.2689,420.1
83.2802,217.2
83.3032,184.5
83.309,121.6
83.3342,294.6
83.3583,423.8
83.3774,688
83.3799,436.4
83.3818,746.1
83.3952,404.6
83.3964,334.2
83.3969,61.1
83.4038,463.5
83.4071,119.3
83.4167,114.3
83.4355,601.1
83.4427,533.6
83.4958,164.2
83.5025,85
83.5491,215.7
83.55,434
83.5625,81.9
83.5743,20.4
83.5761,153.1
83.68,444.3
83.7119,80.7
83.7172,167
83.7706,16.7
83.773,64.4
83.7878,641.9
83.8105,882.9
83.876,108
83.8913,199.1
83.9146,86.2
83.9269,93.3
83.9272,128.2
83.9275,100.5
83.934,85.3
83.9427,134.4
83.9486,576.3
83.9683,477.8
83.9969,162.6
84.0385,131.7
84.0419,515.7
84.0503,55.6
84.0545,134.1
84.07,76.8
84.0805,613.2
84.0933,394.1
84.0947,706
84.0979,140.5
84.1321,126.5
84.1334,163.6
84.1536,294.9
84.1879,248.9
84.1939,80
84.2018,333.1
84.2176,18.9
84.22,327
84.2259,152.5
84.2293,108.9
84.2299,122.1
84.2499,108.1
84.314,104.5
84.3472,231.4
84.3564,214.7
84.4013,215.5
84.4243,185.7
84.4519,151.7
84.4683,90.1
84.5196,85.3
84.5659,407.1
84.5765,710.7
84.6171,192
84.6418,123.5
84.6468,121.4
84.679,305.9
84.6851,141.1
84.6982,440.4
84.7003,19.7
84.7095,242.4
84.7217,110.1
84.7422,343.2
84.749,60.2
84.7539,16.4
84.764,203.8
84.7654,135.9
84.787,324.1
84.8176,293.3
84.86,270
84.8671,401.9
84.8721,161.2
84.8901,110.5
84.9074,139.9
84.9437,431
84.9441,375.1
84.9465,296.4
84.953,488.5
84.955,121.9
84.9594,14313.8
84.9666,213.1
84.9745,603.1
84.9793,165.5
84.9966,87.7
85.0044,325.3
85.0125,255.8
85.0282,1645.2
85.1152,283.5
85.1361,294.4
85.1644,416.7
85.1795,301.7
85.2015,130.9
85.213,21.4
85.2427,132.4
85.2572,547
85.262,124.6
85.2633,414.4
85.265,206.6
85.2938,126.2
85.2974,92.6
85.3155,258.7
85.331,412.6
85.3352,215.9
85.39,402.8
85.4092,422
85.4363,141.1
85.4385,105.9
85.4489,90.8
85.512,188.6
85.5364,345.4
85.5377,104.6
85.5455,18.7
85.5486,712.4
85.5628,117.3
85.5811,456.7
85.5872,302.7
85.6307,19.6
85.6391,66.4
85.6484,438
85.6575,20.4
85.6605,98.6
85.6856,317.7
85.6875,462.9
85.7046,365.5
85.7117,232.9
85.7302,391.6
85.7449,609.9
85.7488,17.8
85.7511,310.3
85.8047,134
85.8385,799.1
85.8431,99.4
85.8593,716.6
85.8659,124.3
85.8756,84.9
85.8969,130.2
85.9094,672.9
85.9519,263.3
85.9661,449
85.9748,404.4
86.0548,120
86.0598,23626.4
86.0962,105240.4
86.1129,450.2
86.1399,724
86.1405,140.9
86.1636,155.1
86.1959,435.9
86.225,175.6
86.2407,15.1
86.2748,193.6
86.2974,299.9
86.3364,18.8
86.3942,651.6
86.4039,98
86.4106,21.1
86.4532,779.7
86.4592,695
86.474,76.3
86.4786,335.7
86.4821,563.6
86.5035,127.6
86.5316,90.7
86.5363,74.3
86.5417,512.7
86.565,17.5
86.5706,778.7
86.5808,181.6
86.5882,385.7
86.5933,76.8
86.6168,101.1
86.638,1199.9
86.6463,219.3
86.649,545.4
86.663,162.5
86.6647,20.3
86.6711,19.6
86.6724,324.3
86.6829,113.7
86.708,351.2
86.7193,341.8
86.7322,668.2
86.745,181.3
86.7462,95.7
86.8243,287.9
86.8474,482.2
86.8648,271.4
86.8949,82.9
86.9525,127.5
86.9589,383.4
86.9924,18.4
87.0142,436.9
87.0275,125.7
87.0326,399.3
87.048,111.3
87.0768,126.8
87.0912,180.1
87.0981,659.1
87.0996,655.7
87.1163,605.7
87.1187,241.9
87.1294,179.6
87.1334,192.9
87.1496,260.5
87.1549,292.6
87.1724,136.2
87.3424,480.1
87.3761,75.6
87.3806,215.2
87.3825,255
87.3918,317.8
87.4455,357.5
87.4911,430.4
87.4973,234.9
87.5004,360.1
87.5347,183.7
87.5392,18.9
87.5636,366.4
87.5945,407.9
87.6159,407.1
87.6228,535.3
87.6494,361.9
87.6652,69.6
87.6671,136.9
87.6767,297.8
87.7032,158.4
87.7152,164.5
87.7482,20.8
87.7521,274.3
87.7695,108.1
87.7714,273.7
87.779,84.8
87.7931,127.6
87.8071,145.4
87.81,19.1
87.8495,439.3
87.8513,138.6
87.9011,415.3
87.9064,281.5
87.9146,436.5
87.9214,283.4
87.9692,191.2
87.9835,118.6
87.9856,101.7
87.9949,330.7
88.0001,198.3
88.0065,366.4
88.034,105.4
88.0391,4465.4
88.0402,514.3
88.0414,127.7
88.0462,191.1
88.0638,381
88.0904,465.8
88.0974,635.4
88.1055,693.2
88.1288,393.4
88.1321,22.2
88.1364,85.3
88.1853,371.1
88.2163,171
88.2325,19.3
88.2641,18.6
88.2863,197.3
88.299,106.5
88.3028,1041.6
88.3115,282.6
88.3296,19
88.3383,353.5
88.3604,332.8
88.3633,253.8
88.4035,79.7
88.4094,92.2
88.425,110.2
88.4296,106.2
88.4392,169
88.4463,315.9
88.4596,657.2
88.4606,574.7
88.4955,126.6
88.5144,197.9
88.5178,210.1
88.5495,228.1
88.5516,111.4
88.5561,59.7
88.5694,128.2
88.5862,516.4
88.6195,251.8
88.6289,395.1
88.6755,209.6
88.7091,18.8
88.7164,132.1
88.718,544.2
88.7407,242.7
88.7445,100.8
88.7554,198.5
88.8017,575.7
88.8025,676.5
88.8318,198.7
88.8347,22.5
88.851,17.4
88.9092,461
88.915,147.6
88.9367,19.1
88.9521,92
88.9681,21.8
89.0368,142.7
89.0449,235.4
89.057,505.4
89.0594,22.2
89.0682,876.2
89.0717,147.1
89.0768,69.6
89.0801,516.4
89.085,18.3
89.1075,116.5
89.1092,545.5
89.1447,158.5
89.1611,86.7
89.1643,19.5
89.1735,84.2
89.2208,64.6
89.2338,88
89.2529,594.1
89.2869,193.5
89.3208,828.8
89.3283,19.7
89.3294,183.4
89.3383,129.4
89.3859,218.5
89.3992,19.1
89.4085,658.3
89.4397,547.1
89.4594,505
89.4758,863.6
89.5171,110.1
89.5285,21.3
89.6145,108.5
89.6622,21.4
89.6658,200.7
89.6822,873.8
89.7168,19
89.7185,96
89.7447,192.1
89.7546,18.1
89.7552,95
89.8021,18.7
89.8255,444.5
89.8403,18.4
89.8621,20.2
89.8683,106.4
89.87,455.8
89.9605,596.8
89.9635,436.4
89.966,321.3
89.9731,303.1
90.0206,78.7
90.0477,113.2
90.1743,162.9
90.2078,117.6
90.2129,430.9
90.2144,415.5
90.2323,183.5
90.2376,508.6
90.2686,808.2
90.2729,123.6
90.2984,206.4
90.3107,254.9
90.3129,76
90.3311,305.4
90.3395,125
90.35,144.7
90.3516,664.5
90.3591,64.5
90.4633,226.7
90.4867,99
90.5227,19.3
90.541,110.5
90.5498,875.7
90.5635,362
90.5918,658.5
90.5928,520.8
90.6782,213.7
90.7441,143.2
90.7597,76.8
90.79,286.2
90.8192,85.3
90.903,124.7
90.9475,3035.3
90.953,358.8
90.9764,6896.5
90.9778,126.4
91.0132,296.1
91.054,2797.7
91.0758,167.9
91.1008,521.1
91.1166,378.5
91.1354,345.2
91.2353,551.5
91.2385,77.1
91.2712,142.2
91.3338,223.8
91.3403,379.1
91.3617,96.7
91.3698,252
91.3792,118.2
91.383,87.6
91.3992,120.8
91.4033,262.7
91.4218,392
91.4733,397.1
91.4896,449.6
91.4921,145.3
91.495,75
91.4967,391.6
91.5185,257.6
91.6052,19.7
91.6281,445.4
91.6881,157.6
91.706,112.2
91.707,525.6
91.7125,118.1
91.7491,170.7
91.7502,78.6
91.7543,474.4
91.7669,80.3
91.7907,203.7
91.8091,132.8
91.8134,89.4
91.8594,393.1
91.8668,175.4
91.8776,79.1
91.8874,122.1
91.9033,178.5
91.9218,373.8
91.9251,351.8
91.9281,732
91.9301,81.6
91.948,17.3
91.9686,429.5
91.9894,699.6
92.002,936.9
92.0302,80.9
92.0414,446.6
92.0464,136
92.0493,80.2
92.0521,297.1
92.0544,83.3
92.0593,142.6
92.0733,687.9
92.104,109
92.1256,212.6
92.1345,593
92.1507,136.3
92.1668,92.1
92.1674,185.2
92.1755,415.4
92.1786,314.8
92.2064,76.1
92.2379,285.8
92.2468,20.9
92.3054,77.7
92.3352,87.8
92.3376,228.6
92.341,396.5
92.4056,425.2
92.4295,376
92.4474,17.3
92.4587,859
92.4731,87.9
92.541,361
92.544,458.7
92.587,60.4
92.589,87.9
92.5985,162.1
92.6104,87.5
92.6126,410.3
92.6259,270.3
92.6385,148.4
92.6406,391.5
92.6655,191.1
92.6825,278.9
92.7029,422.2
92.717,300.9
92.7239,123.8
92.7288,850.1
92.7315,20
92.7376,430.7
92.7526,432.7
92.7558,460.8
92.7762,595.2
92.8233,19.1
92.835,139.2
92.8453,576.3
92.8509,21
92.8631,236.7
92.8683,125.2
92.9078,414.4
92.9178,596.7
92.9253,164.3
92.9429,66.9
92.9501,147
92.9552,300.6
92.9781,19.4
92.9823,173.4
92.9886,19.3
92.9989,858.5
93.0114,375.3
93.0125,757.3
93.017,350.5
93.0233,450.7
93.0246,91.5
93.0301,1032.3
93.0481,127.8
93.0697,32.7
93.0771,349.3
93.1038,161.1
93.109,832.3
93.1368,79.9
93.1505,89.1
93.1977,290.6
93.2318,98.6
93.25,761
93.2529,119.7
93.299,205.2
93.3038,316.3
93.322,188.4
93.3466,145.8
93.3506,17.2
93.3644,212.5
93.4009,391.3
93.4228,282.7
93.4391,277.9
93.4465,133.7
93.4486,504.4
93.4494,468.4
93.4528,18.1
93.4544,695.1
93.4651,228.8
93.4885,133.9
93.5322,430.6
93.5538,228.6
93.559,864
93.5785,292.8
93.649,120.5
93.6714,120.4
93.6869,759.3
93.6907,19.6
93.6949,138.9
93.697,136.5
93.7614,123.7
93.7867,197.5
93.8078,279.3
93.8337,231.5
93.8912,21.1
93.9081,153.3
93.9138,126.6
93.918,269.3
93.9196,19
93.9385,65.2
93.9452,695.8
93.9951,274.7
94.0013,253.8
94.0411,63086.7
94.0425,27.8
94.0651,29.6
94.1449,599.5
94.1522,534.4
94.1604,19.9
94.17,138.7
94.1824,181.3
94.1981,209.2
94.2206,182.7
94.2235,774.1
94.2675,106.2
94.2689,124.7
94.2729,16.2
94.3172,67.2
94.3606,107.6
94.371,80.8
94.396,77.1
94.3979,317.9
94.5121,138
94.5395,217.8
94.5523,479
94.5543,302.8
94.5784,126.5
94.6073,140.3
94.6147,407.4
94.6178,212.5
94.6439,87.7
94.691,231.8
94.7098,92.9
94.711,736.7
94.7119,168.5
94.7324,445.9
94.7479,23.6
94.765,91.5
94.7744,160
94.7792,93.9
94.7968,315.1
94.7989,178.5
94.8224,119
94.8532,266.4
94.861,595.3
94.8736,16.3
94.951,397.6
94.9655,116.8
95.0254,338.2
95.0323,734.4
95.0355,44.1
95.0445,1108.9
95.0462,21.1
95.0489,394216.2
95.0505,350.3
95.0509,333.2
95.0519,24.7
95.0601,663.7
95.0624,27.9
95.0753,119.5
95.0855,619.4
95.0875,140.8
95.149,21.4
95.1678,119.3
95.1948,174.8
95.2268,345.7
95.2401,448.6
95.2413,280.6
95.2661,18.9
95.2966,444.8
95.3109,443.3
95.35,483
95.3678,111.3
95.3746,377.8
95.3978,102.5
95.4046,514.3
95.4114,122.9
95.4479,357.8
95.4519,579
95.4561,456.6
95.4888,109.2
95.4976,152.4
95.5209,380.7
95.5344,233.9
95.5384,18.8
95.5459,171.5
95.5616,572.9
95.5703,102.4
95.5714,580.9
95.6146,101.9
95.6444,240.2
95.6886,563.9
95.6948,323.1
95.7004,17.7
95.7327,129
95.7458,146.8
95.7511,146.2
95.7651,388.6
95.833,280.1
95.8373,149.2
95.8555,378.1
95.8688,139.7
95.8925,86.7
95.9301,520.2
95.9457,576.9
95.9697,645.9
95.9777,293.7
96.0023,80.4
96.006,490.9
96.0133,105.9
96.0523,19067.3
96.0799,229
96.0905,128.9
96.092,92.5
96.0959,560.2
96.1419,124.1
96.1762,143.2
96.1884,381.2
96.2049,290.8
96.2209,17.6
96.2267,202.3
96.2524,449.1
96.3062,18.7
96.3361,445.6
96.3485,667.2
96.366,325.4
96.3767,528.5
96.4052,132.4
96.4219,156.6
96.4498,287.3
96.4694,352.5
96.4761,407.6
96.4797,82.1
96.4938,265.4
96.4968,698.8
96.5438,102
96.5518,560
96.6512,93.1
96.6647,173.9
96.6675,210.1
96.6886,467.7
96.6926,67.3
96.7048,243.9
96.7086,90.4
96.7105,187.6
96.7442,103.3
96.7533,271
96.7732,104.3
96.7761,208.3
96.7857,415
96.7918,197.2
96.865,201.1
96.9059,208.4
96.9216,127709.1
96.9352,18.2
96.9374,76.3
96.9491,100.5
96.9652,239.8
96.9918,163.3
97.0074,100.1
97.0104,32.2
97.0183,273.9
97.0352,586.8
97.0532,40.9
97.0546,18.6
97.0556,26.4
97.0744,517.8
97.0841,122.2
97.101,64.1
97.1221,771.5
97.1328,69.3
97.1725,139.8
97.2171,89.9
97.2362,281
97.2626,269.6
97.2758,453.3
97.2968,228.5
97.3762,339.6
97.3904,175.9
97.4192,107.8
97.4445,410.6
97.456,339.2
97.458,79.2
97.4901,76.5
97.5045,188.1
97.514,304.7
97.5241,175
97.5344,375
97.5506,275.9
97.5683,17
97.57,60.7
97.6482,100.6
97.6552,115.9
97.6651,536.2
97.7148,411
97.7528,596.7
97.7677,336.8
97.7963,430.4
97.8172,326.5
97.8348,586.6
97.8523,608.5
97.8936,19.3
97.9267,111
97.9274,102
97.9452,242.3
97.9609,295.9
97.9701,155.5
97.9749,296.1
97.9787,505.1
98.0179,233.4
98.0215,565.5
98.0564,19.3
98.0637,667.2
98.0735,103.8
98.0886,697.9
98.1336,158.7
98.1547,97.8
98.1571,156.9
98.1931,19
98.2083,152.4
98.2324,190.8
98.2947,569.4
98.3002,159.6
98.302,16.2
98.3354,142.5
98.3427,633.6
98.3476,318.8
98.4081,546.1
98.4608,563.8
98.4652,399.7
98.4803,295.5
98.4841,739
98.5305,19.6
98.5636,25.8
98.57,177.6
98.6085,98
98.6184,147.7
98.6749,90
98.6824,16.3
98.6979,85.4
98.701,196.1
98.7222,539.3
98.7336,389.8
98.7486,443.7
98.7704,159.9
98.7947,186.2
98.8113,440.9
98.8215,475.6
98.8251,188.7
98.8345,761
98.8446,113.2
98.8467,339.8
98.8935,191.1
98.8951,546.4
98.9186,37857.2
98.9197,5237.5
98.9751,8496.1
98.9839,30.5
99.0147,123.5
99.033,431.2
99.0445,110.6
99.0917,584.9
99.1307,134
99.1524,72
99.1847,173
99.2087,93
99.2542,497.9
99.2607,592.2
99.2749,303.7
99.28,204.4
99.3052,208.3
99.3454,18
99.3591,83.9
99.3899,728.5
99.4075,122.7
99.4303,133
99.434,634.2
99.4585,298.7
99.4689,244.1
99.4742,316.8
99.4825,569.7
99.5021,524.7
99.5514,85.1
99.5874,205.3
99.6015,362.8
99.6274,18.2
99.7059,90.1
99.7695,300
99.8049,165.9
99.8145,80
99.8576,848.9
99.8844,302.2
99.9042,143
99.9183,393.1
99.931,224.9
99.964,17.7
99.9884,93.2
100.0032,89.8
100.0184,64.8
100.0216,447.7
100.0314,588.6
100.0382,169.1
100.0662,314.7
100.073,19.9
100.1046,358.6
100.1125,518.3
100.1227,513.1
100.1232,473.3
100.2137,185.1
100.2145,569.4
100.2219,19.4
100.2573,316.8
100.2655,205.2
100.2805,142
100.2861,558.6
100.3402,147.9
100.375,443.8
100.4109,79.8
100.4546,389.5
100.4677,18.6
100.4802,466
100.508,323.2
100.5303,17
100.6474,207.3
100.658,16
100.6592,282.1
100.7207,108
100.7653,16.4
100.7968,150.7
100.8163,19.1
100.8757,181.2
100.891,827.4
100.8921,214.4
100.9167,1871.7
100.9473,500
100.9609,190.3
100.9692,136.8
100.9703,767
101.0137,108.8
101.0334,280.8
101.047,1108.5
101.0636,254.4
101.0707,1547.4
101.0888,129.6
101.0933,94.2
101.1008,178.6
101.1071,115.4
101.1637,376.9
101.1992,189.2
101.2489,106.6
101.2559,406.2
101.2672,310.7
101.2906,509.9
101.2971,451.6
101.3322,21.3
101.3556,131.5
101.3676,74.9
101.4227,501.8
101.4593,68.5
101.5509,591.2
101.5626,59.4
101.5787,132.9
101.5992,18.4
101.6025,208.5
101.6096,301.1
101.639,202.3
101.6474,92.4
101.6574,768.6
101.6604,80.7
101.6695,86.3
101.7181,469.8
101.7253,17.5
101.7425,121.5
101.7474,422.5
101.7643,121.7
101.7954,160.3
101.8176,143.4
101.8235,21.4
101.8554,796.3
101.8881,220.1
101.8885,285.5
101.9201,71.9
101.9374,502.6
101.9635,190.6
101.9702,85.5
102.0005,90.6
102.0041,242.6
102.0282,614.8
102.0362,137.6
102.0548,1838.4
102.0665,161.8
102.1567,415.4
102.1594,112.5
102.1627,19.4
102.1655,19.9
102.2279,125.4
102.2297,321.6
102.2655,95.7
102.2689,380.5
102.2956,154.7
102.2976,63.6
102.3515,554.9
102.3619,16.3
102.3731,782.5
102.3852,82.5
102.4215,574.6
102.4314,21.2
102.4331,735.8
102.4366,738.8
102.4457,91.2
102.4571,168.2
102.4976,461.9
102.5357,770.9
102.5426,17.9
102.5653,116.3
102.6015,532.1
102.6041,137.1
102.6199,145.8
102.6209,134.9
102.6655,348.5
102.7232,824.5
102.7749,192.6
102.7793,224.5
102.8104,152.2
102.8915,140.3
102.9248,340.1
102.9401,680
102.9474,24.2
102.9678,167.2
102.9701,397.5
103.0072,170.6
103.0103,81.2
103.0411,77.8
103.0529,259.4
103.0703,294.3
103.0934,132.6
103.114,133
103.148,280.5
103.1493,108.5
103.1682,87.6
103.2048,288.6
103.2815,437
103.2834,174.3
103.3006,729.5
103.3257,137.7
103.3507,177.4
103.4295,421
103.4362,282.5
103.4481,375.1
103.4901,667.8
103.5005,692.5
103.5381,90.3
103.5586,148.1
103.5633,16.9
103.5651,104.7
103.5824,17.2
103.5928,92.4
103.5961,18.8
103.6126,176.6
103.6365,323.6
103.6465,132.3
103.6827,20.8
103.6876,473.1
103.691,318.1
103.7124,87.6
103.7307,126
103.7443,102.8
103.7525,412.9
103.7847,131.7
103.7907,87.9
103.8275,471.1
103.8523,19.6
103.8719,142.7
103.8906,316.4
103.9178,233
103.9294,299.3
103.9501,505.6
103.956,20.4
103.9791,398.9
103.984,167
104.0033,173.3
104.0302,765.3
104.0362,19
104.1045,149
104.1068,477285.1
104.1495,251.6
104.1701,19.9
104.1741,183.1
104.2092,115.5
104.224,631.9
104.2963,96.2
104.3106,84.4
104.3305,477.1
104.3464,118.4
104.4056,89.2
104.4269,152
104.4846,635.7
104.486,420.9
104.5083,103.3
104.537,85.8
104.556,594.3
104.5587,301
104.5748,187.7
104.5893,98.3
104.6098,131.1
104.6217,121.8
104.6482,103.8
104.654,455.8
104.6563,115
104.6609,459.2
104.667,156.9
104.6833,204.7
104.6916,318.1
104.6951,300.7
104.7205,557.3
104.7399,184.1
104.8016,398.7
104.8258,171.1
104.8271,145
104.8781,204.7
104.88,532.6
104.9479,107.2
104.9563,281.9
104.9632,4075.3
104.9683,129.9
104.9922,1910.5
105.0025,94.9
105.0197,18.1
105.0268,19.9
105.0308,407
105.0371,403.6
105.0445,36714.4
105.0568,82.7
105.086,446.5
105.1036,837.3
105.1102,18504
105.1132,793
105.1175,84.5
105.1415,602
105.1441,364.4
105.19,178.6
105.2201,295.9
105.2229,152.1
105.305,244
105.3131,390.6
105.3395,81.6
105.3711,123.7
105.443,353.3
105.4757,162.4
105.4871,156.2
105.4937,87.6
105.497,168
105.5007,79.1
105.5142,333.4
105.5183,78.4
105.5502,71
105.6146,603.1
105.617,445.8
105.6363,193.1
105.6519,145.8
105.6561,22.4
105.6762,210.1
105.6812,356.1
105.7266,159.4
105.7445,180
105.7715,136.3
105.7737,91
105.8165,467.9
105.8291,397.8
105.9027,345.8
105.9403,503.9
105.9797,21.3
106.0417,19.1
106.0479,397.3
106.0651,106.3
106.0852,459.2
106.0887,16.5
106.0961,387.9
106.1075,83.1
106.1113,191.3
106.2066,94.4
106.2128,744.1
106.2344,18.2
106.2442,289.2
106.2475,610.6
106.2679,79.1
106.291,170.7
106.3414,461.9
106.3721,219.5
106.4092,77.2
106.5055,526.9
106.5207,132.6
106.5428,209.2
106.5489,562.1
106.5535,131.6
106.5596,18
106.5632,678.7
106.5657,187.6
106.572,22.1
106.5821,501.7
106.5861,116.7
106.6046,384.9
106.6061,18.7
106.6673,19.9
106.6846,94.8
106.6922,615.6
106.699,584.7
106.7368,565
106.758,297.2
106.7928,20.3
106.8131,159.2
106.8371,292.3
106.8568,607.2
106.8753,726.2
106.882,150.7
106.8846,854.6
106.9137,403.2
106.9505,2652.7
106.9635,50.2
106.9653,91.5
106.9939,164.6
107.0093,413
107.0281,23.2
107.0323,389.1
107.049,631.6
107.0819,544.1
107.0989,21.1
107.1875,557
107.1975,314.8
107.2102,339.8
107.2251,208.6
107.2378,238
107.2676,18.6
107.2696,267.3
107.2996,116.6
107.3108,320.3
107.312,19.4
107.3197,90.2
107.3509,614.3
107.4003,176.8
107.4278,153.1
107.4331,18.6
107.4502,80.8
107.499,311.6
107.5019,95
107.5509,96.5
107.5584,956.8
107.6554,643.7
107.6591,427.4
107.6665,493.5
107.6913,214.9
107.6975,593.4
107.7009,20.4
107.7126,214.3
107.7331,92.4
107.7516,160.5
107.7658,91.7
107.7749,587.6
107.7949,595.9
107.8638,412.4
107.8776,19.1
107.9332,19.8
107.9432,378.9
107.9496,732.7
107.9932,874.9
107.9973,91
108.0002,443.1
108.0985,260.1
108.1075,272.3
108.1282,223.1
108.1971,85.7
108.2211,62.7
108.2279,425.7
108.2473,315.3
108.2613,609
108.2633,90.9
108.337,17.1
108.3542,225.2
108.3965,411.5
108.4145,432.6
108.4161,277.2
108.4232,522.9
108.4359,178.5
108.4496,183.7
108.4573,521.1
108.4702,700
108.4785,272.9
108.5705,115.6
108.585,116.1
108.5931,135.4
108.6103,465.4
108.622,18
108.6263,768.3
108.641,134.6
108.6804,19
108.6821,112.1
108.687,153.4
108.6996,275.9
108.7165,119.3
108.7253,97.2
108.8037,20.6
108.8233,102.6
108.8523,81.8
108.889,736.7
108.9545,119.4
108.9581,83
108.994,158.2
109.0099,784.9
109.0135,444.4
109.0454,451.4
109.0646,67493.4
109.0909,261.9
109.0931,129.7
109.101,212
109.1127,379.5
109.1194,168.8
109.1273,458.3
109.21,122
109.2351,125.8
109.2382,80.7
109.2484,595.8
109.2888,159.1
109.3122,116.8
109.3231,117.7
109.3465,132.5
109.3685,203.8
109.408,211.3
109.4479,370.9
109.4756,461.7
109.522,649.6
109.5548,152.7
109.582,341.4
109.6133,152.2
109.6166,78.2
109.6259,567.3
109.6716,62.7
109.7318,206.9
109.7536,87.6
109.8436,585.3
109.8708,100.2
109.8818,129.2
109.893,124.1
109.8973,148.1
110.0418,17.9
110.0462,82.1
110.0521,240.8
110.068,2402.1
110.071,783.7
110.0722,449.7
110.1108,555.2
110.112,206.2
110.1221,265.9
110.1317,88.5
110.1371,221.7
110.1818,186.6
110.2176,24.2
110.2269,402.2
110.2413,209.5
110.2491,117
110.2512,164.8
110.2989,225.5
110.3607,297.7
110.3629,554.8
110.3655,340.6
110.4071,344.5
110.4155,102.8
110.4269,95.7
110.4683,17.1
110.4881,124
110.5994,505.2
110.6369,142.8
110.6855,481.2
110.7253,301.9
110.7271,402.3
110.7495,765.5
110.7729,454.2
110.8305,103.5
110.8418,75.1
110.8791,19.4
110.8832,174.1
110.8887,775
110.8985,652.6
110.9502,193
110.9516,737.5
111.0116,108
111.023,222.8
111.0438,235.9
111.0708,459.5
111.0802,23.2
111.0895,444.7
111.1407,723.4
111.1516,894
111.1689,126.2
111.2951,565.3
111.3071,127.4
111.3411,103.9
111.3548,293.2
111.3719,191.8
111.3868,136.3
111.5017,16.6
111.5181,539.4
111.5221,17.6
111.5249,130.7
111.5362,588.9
111.5392,89
111.5454,104.5
111.5538,553.1
111.5678,134.1
111.6024,103
111.6838,454.5
111.6907,161.7
111.7107,87.9
111.747,129.3
111.7705,186.5
111.8079,253
111.811,395.4
111.8487,287
111.8709,229.1
111.8779,930.9
111.8882,141
111.9511,504.2
111.9576,427
112.0496,402.3
112.0689,593
112.0773,533.7
112.0957,215.6
112.0993,116.5
112.1468,60.1
112.1554,152.3
112.1814,19.4
112.2413,450.6
112.2461,127.4
112.2678,92.6
112.2898,87.7
112.2995,259.5
112.3373,171.9
112.3743,494.2
112.4139,347.2
112.4219,364.6
112.4306,68
112.4779,204.2
112.4833,179.2
112.5619,354.9
112.5664,92.4
112.5973,17
112.626,175.8
112.6347,147.4
112.6394,283.8
112.6836,614.9
112.7043,142.7
112.759,289.4
112.7612,152.6
112.8765,301.7
112.8956,410885.8
112.9311,333.2
112.9599,19.1
112.9869,84.6
113.0397,16.7
113.0547,404.2
113.057,449.1
113.0805,153.8
113.1073,370.7
113.139,733
113.1579,539.5
113.1591,534.4
113.2053,113.7
113.2057,117.2
113.2063,80.8
113.2236,573.7
113.2254,413.7
113.2456,326.3
113.2524,118.1
113.2545,188.7
113.3051,207.7
113.3167,118.4
113.377,370.5
113.3881,119.8
113.4667,130.7
113.4889,157.1
113.5674,136.2
113.5688,259.9
113.6556,173.6
113.7249,94.9
113.7409,117.7
113.8592,746.1
113.9515,765.3
113.9638,106.3
113.9766,22
114.0101,18
114.0315,231.1
114.0393,587.9
114.0498,63.4
114.0548,34704.3
114.066,671.4
114.0693,119.8
114.0883,254.5
114.0977,147.2
114.1211,84
114.1307,219.4
114.1719,198.2
114.2034,315.7
114.259,469.5
114.2771,283.3
114.2836,316.8
114.2876,150.3
114.296,89.1
114.3135,82.7
114.3349,495.7
114.3776,140.1
114.4994,373.4
114.5215,121.9
114.5332,251.4
114.5544,504.4
114.5763,95.3
114.5772,528.2
114.5881,456.8
114.6016,530.5
114.635,409.3
114.6454,176.8
114.6584,428.4
114.6623,128.3
114.6711,519.4
114.6983,460.3
114.7103,17.7
114.7532,292.9
114.793,408.3
114.8438,139.3
114.8926,124366.9
114.9191,120.9
114.948,690.9
114.9735,132.5
114.9798,454
114.9962,315.1
115.0583,231.5
115.0671,182.8
115.0867,245.8
115.1076,489.4
115.1314,163.9
115.1581,72.6
115.1912,116.6
115.2014,677.1
115.2403,18.4
115.249,882.3
115.3532,113.8
115.3868,154
115.404,184.4
115.4109,326.3
115.4123,461.6
115.4206,670.9
115.4448,406.6
115.4584,60.9
115.4698,211.3
115.4895,83.3
115.4989,323.4
115.5297,481.1
115.5346,758.1
115.593,271.5
115.6293,17.8
115.6419,130.9
115.662,196.8
115.6632,255.1
115.7048,683.4
115.7184,863.3
115.7339,120.5
115.7805,314.2
115.8304,706.1
115.8327,408.3
115.9482,49.6
115.9792,473.3
116.0704,4988.8
116.0812,459.5
116.0822,110.9
116.0894,16.5
116.0929,368.4
116.1082,228.2
116.1715,18.4
116.1804,364.6
116.1892,96.5
116.1924,263.2
116.2811,109.3
116.2984,121.9
116.3742,645.9
116.3921,437.4
116.4087,19.4
116.4519,120.5
116.4553,135.1
116.4596,326.9
116.4633,404.6
116.4665,118.4
116.488,423.6
116.503,494.1
116.5037,471.4
116.5329,136.8
116.5407,19.6
116.6295,190.6
116.6462,609.1
116.6575,374.6
116.6704,642.8
116.687,87.8
116.6875,73.3
116.7156,356.6
116.748,98.2
116.8179,570.2
116.8452,363.1
116.8697,311.6
116.8813,481
116.8908,13921.6
116.9395,103.2
116.9475,27.6
116.9632,150.6
116.9858,869.5
116.9873,437
117.0405,277.7
117.051,163.2
117.0697,24.4
117.0945,110.5
117.0978,587.7
117.0988,202.2
117.1414,96.5
117.1589,108.2
117.1652,256.3
117.1975,199.4
117.2004,562.7
117.2196,134.6
117.2226,366.5
117.3025,86.5
117.3521,309.9
117.4127,402.1
117.433,834.5
117.4348,599.6
117.4477,431.3
117.4555,132.4
117.464,98.7
117.472,703.3
117.4731,126
117.4795,433.2
117.5088,132.2
117.5114,184.2
117.5652,137.4
117.5926,153.4
117.6129,482.5
117.6447,546.9
117.6608,410.7
117.6752,82.6
117.8589,179.3
117.9156,16.2
117.9209,21.4
117.9456,30.3
117.99,323.3
118.022,68.4
118.036,18
118.0526,712.4
118.1381,186
118.25,157.6
118.2682,20.8
118.2844,84.8
118.2964,181.4
118.3243,309.9
118.3672,103.3
118.3732,108
118.3968,176.7
118.483,157.8
118.5532,483.6
118.5967,88.6
118.6196,338.8
118.6324,402.8
118.8491,235
118.87,479.8
118.9092,117.4
118.9425,699.5
118.9561,17.2
118.9632,22.3
118.9788,832.8
119.0068,374.2
119.0484,66.9
119.0732,19.9
119.0832,126.9
119.1082,201.1
119.1659,677.1
119.1836,84.4
119.2457,82.7
119.2636,226.5
119.2735,393
119.2799,121.4
119.3163,77.8
119.3359,282.4
119.3392,453.1
119.4022,236.4
119.4099,409.1
119.4254,584.8
119.4427,124.2
119.4751,81
119.5338,204.2
119.5466,496.9
119.627,18
119.6294,21.3
119.6541,63.9
119.6658,368.8
119.6766,665
119.6872,678.2
119.7093,85.3
119.7373,648.3
119.7882,745.4
119.8122,305.6
119.863,527.8
119.8796,350.7
120.0015,752.6
120.0031,2658.3
120.0644,333.8
120.0746,119.8
120.0806,9684.2
120.0891,138.6
120.102,95.5
120.1115,187.2
120.1384,143.6
120.1552,301.9
120.1783,75.9
120.2052,63.3
120.2174,143
120.2448,705.1
120.2699,821.2
120.3088,153.3
120.3818,163.4
120.3953,18.4
120.4297,588
120.4343,645.5
120.5015,170.4
120.5041,773.9
120.5189,1126.5
120.53,115.1
120.5539,239.4
120.5903,391.5
120.6458,104.7
120.6504,386.1
120.6642,122.9
120.7885,235.3
120.8107,17.7
120.8501,168.1
120.8643,880.6
120.8788,75.6
120.8848,132.5
120.9044,91.1
120.9492,65.3
120.9569,139.5
120.9738,60.7
120.9811,608.2
120.9941,158.4
120.9977,168.2
121.0075,278.2
121.017,63.2
121.0241,260.4
121.0282,306.7
121.04,137.5
121.0422,134.5
121.0701,90.6
121.0836,462.7
121.1011,159.4
121.2169,78.1
121.22,147.9
121.2236,136.6
121.2308,214.6
121.3042,98.6
121.3291,20.2
121.4081,293.7
121.4163,237.3
121.421,622.1
121.4511,17.1
121.4888,92.3
121.5075,85
121.5165,204.8
121.5479,202.2
121.5685,592.7
121.5996,301.3
121.6246,422.7
121.6277,61.8
121.6702,626.5
121.7214,94.3
121.7265,117.4
121.7308,486.3
121.7346,81.5
121.7496,223
121.7539,261.7
121.7566,20.3
121.7768,383.7
121.7802,542.9
121.8039,587.2
121.8397,391.8
121.8588,367.3
121.8642,395.5
121.8755,281.5
121.9398,55.4
121.9431,558.2
122.0209,530.6
122.0234,197.9
122.0367,179.6
122.081,1393.8
122.1304,204.7
122.1658,1119.2
122.1718,492.2
122.1927,177.7
122.1956,590.5
122.2001,102
122.2187,18.6
122.2212,17.9
122.2517,230.2
122.2564,180.6
122.2744,142.6
122.358,192.6
122.3877,190.2
122.4481,74.9
122.4809,93.3
122.5053,116.9
122.5935,15.9
122.6281,689.6
122.6485,270.8
122.6659,236.5
122.7244,624.6
122.7705,716.5
122.8647,101.9
122.8672,91.2
122.8711,143.4
122.884,393.2
122.9125,135.2
122.9131,119.6
122.9244,18262.6
122.9293,30.8
122.9447,759.3
122.9547,135.6
122.9738,167.3
122.9901,434.3
122.9976,409.1
123.002,167.7
123.0251,167.6
123.0257,235.7
123.026,227.2
123.058,100
123.0751,255.7
123.0802,23.9
123.1168,49
123.1854,399.7
123.2358,1085.8
123.2439,147.4
123.2569,905.6
123.2844,815.8
123.2953,104.2
123.3099,789.8
123.3855,334.6
123.5028,323.7
123.5198,671.8
123.5221,145.3
123.5908,185.7
123.6291,308.5
123.6398,207.3
123.6881,285.5
123.692,17.9
123.7726,97.6
123.7961,17.3
123.8084,17.5
123.8191,197.8
123.8324,428.7
123.837,576.3
123.8399,84.2
123.9503,761.6
123.9576,174.9
123.9899,386.9
124.0145,104.2
124.0214,22.9
124.0363,99.5
124.0388,130.3
124.0606,18.3
124.1066,561.4
124.1121,20.9
124.1191,218.4
124.1244,19.7
124.14,576
124.148,577.1
124.163,864.9
124.1661,128.7
124.2262,206.9
124.301,232.3
124.3149,132.6
124.3786,465.5
124.4123,169.4
124.4132,213
124.4462,200.1
124.4691,19.8
124.4813,93.6
124.5396,80.3
124.544,804.2
124.5774,154.7
124.5807,850.7
124.6013,19.9
124.6156,571.1
124.6218,621.7
124.6444,21.8
124.7032,122.6
124.7632,461.9
124.7932,355.1
124.8485,71.1
124.8773,447.1
124.9225,1182.7
124.9264,18.7
124.9997,3839.7
125.0054,1106.3
125.0263,120.9
125.0388,216
125.0492,442.7
125.0595,34.5
125.0622,101.1
125.0976,206.1
125.1188,125.2
125.1323,84.8
125.1705,64.2
125.341,604.6
125.3477,357.2
125.367,164.3
125.3876,468
125.3992,168.5
125.4494,336.6
125.5013,254.3
125.5392,85.1
125.5609,841
125.5683,160.9
125.577,339
125.635,617.3
125.6398,926.4
125.6582,389.5
125.6685,602.9
125.678,101.7
125.7334,103.4
125.7441,425.6
125.7601,90.2
125.764,408.9
125.7723,20.2
125.7752,76
125.7853,124.6
125.7925,172.2
125.8316,460.5
125.9442,335.2
125.9646,261.2
125.9999,124.1
126.0554,466.9
126.0714,233
126.082,173.7
126.0936,93.5
126.1112,18.2
126.1125,575.1
126.1215,271.5
126.1348,558.5
126.1585,1396.4
126.1799,358.8
126.187,310.3
126.2378,96.1
126.2571,181.3
126.2673,474.5
126.2838,275.3
126.2855,67
126.3126,356.2
126.3205,590.8
126.3324,78.7
126.3536,90.8
126.4171,920.7
126.4226,430.7
126.4709,96.2
126.5039,183.9
126.5453,175
126.6221,132.3
126.6335,454.5
126.6602,306.9
126.6752,19.4
126.6959,430.9
126.7071,164.7
126.7621,677.8
126.7746,307.5
126.7842,351.5
126.8172,488.4
126.8762,305.1
126.9203,635.4
126.9497,530.2
126.9912,556.5
127.0177,94.3
127.0219,94.3
127.0477,169.4
127.0498,195.1
127.0634,84.6
127.1155,284.3
127.1262,383.3
127.1418,681.7
127.1549,20
127.1642,129.8
127.1707,693
127.1783,386.8
127.1924,236.2
127.1964,770
127.2425,220.6
127.2682,362.1
127.2986,323
127.3906,21.8
127.4087,535
127.4481,20.1
127.4533,297.9
127.4705,20.5
127.4814,637.4
127.5354,249
127.5408,129.5
127.583,18.4
127.6211,346.7
127.6252,21.7
127.6298,762.8
127.6633,248.9
127.6681,238.8
127.6878,144.7
127.723,299.6
127.7578,689
127.7598,193.5
127.7729,726.3
127.8244,531.4
127.9281,431.6
127.9786,1010.6
127.991,262.7
128.0155,67.7
128.0312,94.6
128.0918,171.4
128.107,19
128.1101,229.4
128.1349,17.2
128.1589,388.8
128.172,74.7
128.2036,461
128.2413,106.2
128.2643,18.9
128.2913,656.7
128.2994,147.4
128.3025,88.4
128.3125,567.1
128.3297,567.6
128.3428,122.3
128.4573,222.8
128.4659,144.4
128.4775,67.1
128.5945,126.8
128.6061,355
128.6241,256.2
128.6498,1063.1
128.651,605.3
128.7341,169.4
128.7519,455.2
128.7686,168.7
128.868,18.1
128.885,286.4
128.9637,500.9
128.9741,170.8
128.9802,148.7
129.0032,1179.3
129.0715,238.5
129.094,113.6
129.102,1657.8
129.1069,650.3
129.1648,204
129.1849,173.7
129.2686,242.9
129.2804,482.2
129.3072,552.7
129.3809,890.6
129.3896,111.6
129.4142,389.2
129.4159,136.2
129.4267,320.7
129.4728,172.2
129.4956,123.1
129.499,228.7
129.5025,632.5
129.5436,19
129.5698,87.6
129.5903,413
129.6064,273.9
129.6353,110.4
129.7279,590.7
129.8025,515.9
129.8201,543.8
129.8523,211.6
129.8782,81.8
129.9585,202
129.9853,177.8
129.9948,131
130.0225,110
130.0472,295.7
130.0498,9046.1
130.0523,17.7
130.1196,777.3
130.1263,463.6
130.1511,67.6
130.2101,410
130.2228,777.7
130.2241,153.3
130.2344,474.9
130.319,97.9
130.3236,20.7
130.3344,398.8
130.3705,483.7
130.3784,316.5
130.4356,202
130.4429,57.4
130.4814,86.7
130.495,17.8
130.6042,87
130.6139,364.8
130.6766,372.2
130.6883,194.5
130.7056,170
130.7465,706.6
130.7693,158.6
130.7843,108.2
130.9035,296.7
130.9237,226
130.9469,296.8
130.9553,411.4
130.9606,139
131.0012,221.9
131.0211,500
131.0235,128.6
131.0332,253
131.0516,260.1
131.1154,755.6
131.1593,195.4
131.1607,97.3
131.1849,366.3
131.2084,81.3
131.2292,454.6
131.2311,17.6
131.2864,94.2
131.3453,174.4
131.4217,19
131.4505,347.1
131.5054,556.3
131.5851,530.1
131.6153,764.6
131.644,19.8
131.646,81.2
131.6482,181.2
131.6727,599.6
131.7066,100.1
131.76,463.9
131.8377,183.7
131.8906,728.5
131.901,293.4
131.9347,135.1
132.0031,33847.8
132.0463,120.5
132.0484,451.4
132.0523,463
132.0654,63187.6
132.0766,2553
132.0809,133.8
132.0915,140.4
132.1018,449.5
132.1973,418.6
132.2668,450
132.2902,73.6
132.2905,74.9
132.3127,86.6
132.3265,113.8
132.3307,154.4
132.3533,87.8
132.3685,134.8
132.4175,22.2
132.4266,229.8
132.4836,812
132.4907,751.5
132.4954,150.3
132.5056,458
132.5759,175.6
132.6869,495.5
132.6961,221.3
132.7728,498.6
132.7753,155.2
132.7894,144.1
132.8547,140.1
132.8858,75.2
132.9013,284.2
132.9053,296.4
132.9212,562.6
132.9581,653.4
132.9693,20.4
132.9872,457.5
132.9954,22.5
133.0183,200.8
133.0263,18.4
133.0688,1622
133.0859,25.5
133.097,26610.9
133.1012,22.4
133.1475,334.4
133.1498,378.4
133.1752,23
133.2604,237
133.3118,435
133.3183,306.8
133.344,112.2
133.3475,704.1
133.3745,218.4
133.4008,17.7
133.4218,417.6
133.4955,799.8
133.4985,137.6
133.5053,537.5
133.5204,274.3
133.6254,116.6
133.7397,622.8
133.7758,144.9
133.7795,148.6
133.8501,101.5
133.8576,123.6
133.9324,298.9
133.9451,518.4
133.9553,620.1
133.9943,235.3
134.0033,598.3
134.0108,609.5
134.013,473
134.0187,7612.1
134.0773,513
134.1009,813.5
134.1164,452
134.1658,19.5
134.1948,118.6
134.2118,308.7
134.2558,263.4
134.3017,123.6
134.3118,181.5
134.3187,102.3
134.3247,196.6
134.3441,228.5
134.4305,19.5
134.472,435
134.5744,88.5
134.6182,785.3
134.6689,17.7
134.674,708.5
134.6908,635.9
134.6925,18.4
134.7448,61.3
134.7744,83.5
134.8021,102
134.8119,86.3
134.84,686
134.8452,122.5
134.8517,285.9
134.8909,90
134.982,494.3
134.9854,228.5
134.9891,198
134.9963,46.9
135.0028,30393.1
135.1167,40.5
135.1198,187.2
135.1491,417
135.1764,229.2
135.2189,20.3
135.3015,184.4
135.3223,314
135.3642,576.3
135.3907,92.6
135.4121,174.7
135.4466,130.4
135.4918,126.9
135.4996,97.9
135.5085,18.4
135.5102,91.5
135.5818,91.4
135.614,125.4
135.679,592.3
135.6995,443.9
135.7083,81.6
135.7265,390.4
135.7464,18.3
135.8323,377.7
135.8512,119.7
135.8637,87.2
135.8765,559.9
135.9156,133.9
135.9285,273.3
135.9349,524.7
135.9388,92.1
135.977,1072.9
135.9814,25.8
136.0174,672.9
136.0225,157.9
136.0373,363.6
136.0403,191.6
136.048,4554.3
136.0567,167
136.0616,64.6
136.0636,216.3
136.0717,195.4
136.0756,10272.5
136.094,233.6
136.1254,332
136.1585,149.9
136.2045,202
136.246,190.7
136.248,167.9
136.2733,305.9
136.3037,320.7
136.3184,189.4
136.3299,335.6
136.3914,695.9
136.4927,61
136.499,358.5
136.5281,793.9
136.5736,145.6
136.5839,21.4
136.6619,394.2
136.6952,81.2
136.7424,168.8
136.7506,18.7
136.753,410.7
136.7743,175.9
136.7979,234.3
136.8327,106.4
136.8624,187.1
136.8653,331.4
136.8676,381.9
136.8773,100.4
136.9309,693.6
136.9531,151.3
136.9681,156.2
136.9893,117.1
137.0074,264.1
137.0529,19.5
137.0577,415.1
137.0596,28.9
137.0779,884.3
137.091,485.5
137.1535,448.2
137.1626,17.5
137.3107,713
137.3842,461.3
137.4432,427.9
137.4549,412.8
137.4758,437.9
137.5174,110.2
137.6136,595.3
137.6413,164.3
137.6807,180.9
137.7905,75.4
137.8001,298
137.8412,666.4
137.8587,103.5
137.8861,80.3
137.8984,147
137.9086,75
137.9188,499.3
137.9733,616.3
138.008,390.9
138.0265,115.6
138.0525,6594.2
138.0612,412.6
138.066,89.5
138.0707,19.1
138.0852,118.2
138.0867,67.4
138.1035,791.3
138.1111,587.5
138.1559,154.7
138.1618,342.5
138.1689,92.2
138.2031,607.5
138.2102,75.6
138.2227,64.3
138.2297,392.4
138.2372,371.2
138.2674,208.3
138.278,131.5
138.3508,21.3
138.3545,354.7
138.3985,619.5
138.4609,87.7
138.4806,171.9
138.4863,744.7
138.4947,403.8
138.5249,507.5
138.5953,18.3
138.6159,676
138.6913,220
138.8018,18.7
138.8111,88
138.8268,297.3
138.9064,1720.8
138.9281,368.3
138.934,478
139.0083,26.2
139.0147,112.8
139.0178,96.6
139.1117,159.3
139.1658,138.2
139.3014,338.2
139.3376,164
139.3658,118.8
139.3856,565.2
139.4173,709.5
139.4465,705.7
139.4543,551.4
139.4797,259.9
139.52,514.5
139.6355,487
139.6442,179.1
139.6518,618
139.7726,1213.8
139.8455,328.6
139.8685,555
139.9061,97.9
139.9508,301
139.9592,18.3
139.9995,483.1
140.0006,113.5
140.0164,4037.8
140.0277,239.5
140.0498,74.3
140.0648,20.4
140.068,2615.1
140.0785,223.4
140.0968,114.3
140.181,76
140.1972,224.5
140.2282,21.9
140.2304,451.8
140.2337,203.1
140.2997,302.6
140.3414,193.1
140.3469,283
140.3933,78.9
140.394,80.3
140.401,85.4
140.4104,466.3
140.4504,613.7
140.5006,550.9
140.5876,140
140.6168,112.2
140.6319,94.6
140.6524,165.6
140.6659,147
140.8047,98.6
140.8169,559.9
140.8557,526.3
140.8995,17.7
140.9036,1742.7
140.9394,18.6
141.0004,18233.2
141.0197,162.1
141.0329,81.8
141.0507,71
141.0642,175.6
141.0798,235.4
141.0955,278.2
141.1,142
141.1174,123.8
141.1538,121.8
141.2337,184.3
141.247,17.1
141.3002,234.1
141.3367,387.6
141.3446,321.3
141.3776,426.5
141.3799,311.8
141.4124,109.6
141.4731,91
141.5712,93.1
141.5797,89
141.7411,89.7
141.814,21.7
141.8247,335.6
141.8943,341.5
141.9656,217.9
141.9948,248
142.0013,240.7
142.0037,308.3
142.0119,205
142.0154,24.2
142.0415,351.7
142.047,517
142.0517,591
142.0629,1114.3
142.0668,92.8
142.1167,224
142.1451,407.8
142.1675,403.6
142.1756,98.6
142.1953,113
142.2241,227.2
142.2729,85.3
142.2954,219.3
142.3004,112.7
142.3483,170.4
142.3659,832.2
142.3941,721.2
142.4061,163
142.4079,548.5
142.4299,371.5
142.4725,82.8
142.4872,561.4
142.5293,134.1
142.5361,18
142.6362,190.8
142.657,171.5
142.6988,456.2
142.7362,18.7
142.7666,18.2
142.8411,679
142.8749,155.4
142.8902,280.1
142.8915,757.7
142.9122,790.5
142.9269,219.7
142.9321,129.6
142.9386,87.9
142.9962,238.2
143.019,1365.1
143.0217,580.9
143.0312,575.8
143.0814,110
143.1067,129.4
143.1689,310.9
143.2324,252.8
143.2525,192
143.2791,216
143.4134,169.4
143.5628,844.7
143.5764,185.8
143.6491,119.8
143.6953,177.6
143.714,67.6
143.7343,367.5
143.8105,94.9
143.9123,157.3
143.9682,94.3
144.0106,937.3
144.0196,90.9
144.0631,1229.5
144.1608,451
144.1984,154.3
144.222,687.7
144.2579,359.6
144.2887,86.6
144.3013,24.6
144.3206,840.2
144.3225,90.8
144.3456,141
144.3939,193.6
144.4103,18.2
144.4778,142
144.499,20.7
144.5319,541.7
144.5404,135.8
144.5632,92.3
144.5823,222
144.674,75.4
144.7816,83.3
144.7874,370.6
144.8349,152.6
144.836,543
144.8449,132.4
144.885,626.6
144.9028,87.7
144.9291,795.4
144.9484,287.2
144.9594,138.4
144.9666,68.1
144.9808,1685.2
144.9923,19.8
145.0078,18.2
145.014,23.7
145.0527,465.2
145.0723,1005.5
145.0889,219
145.1288,394.9
145.1507,82.3
145.1588,437
145.1689,133.5
145.2043,251.9
145.3076,107
145.4019,338
145.458,457.5
145.4738,20.6
145.4792,478.7
145.4864,528.1
145.4934,92.9
145.5557,134.6
145.5792,258.1
145.6181,181
145.7054,89.4
145.7313,174.5
145.7563,96.2
145.8323,207.4
145.9547,205.3
145.9663,19.9
145.998,369.7
146.0057,93.3
146.0063,91.9
146.0123,1809.1
146.0151,305.3
146.0188,20558.1
146.0261,128.7
146.0601,475.4
146.0969,183.7
146.1077,387.1
146.1381,94.1
146.1836,181.4
146.2589,94.8
146.283,264.9
146.3105,148.5
146.3804,1031.8
146.4003,186.9
146.4201,1004.6
146.4421,253.3
146.4576,403.5
146.4726,225.6
146.5696,488.2
146.6272,20.7
146.631,100.5
146.6447,203.4
146.6944,534.1
146.7366,409.6
146.7437,213.5
146.8153,18.9
146.8353,134
146.9051,52.9
146.909,216.7
146.9246,550.9
146.9334,85.2
146.9494,106.7
146.9604,437.9
146.9714,18.3
146.9737,56.7
146.9744,59.7
146.9758,225.8
146.9817,117845.2
146.993,450.5
146.9956,281.4
147.0002,472.1
147.0763,58408.6
147.0921,294.9
147.0937,538.6
147.1127,40973.2
147.1167,226
147.1307,302.2
147.1353,179.5
147.1865,336.7
147.2041,378.9
147.2914,78.3
147.3825,168.6
147.3908,329
147.4114,196.9
147.4157,200.7
147.4728,19.2
147.5226,539.2
147.5462,175.2
147.5537,86.8
147.6037,175.4
147.6683,90.7
147.6873,424.3
147.7512,570.6
147.758,110.8
147.7673,194.7
147.7925,78.2
147.7973,421.7
147.8025,172.1
147.8588,549.5
147.88,495.5
147.9093,801.2
147.9741,167.8
147.9771,299.1
147.9785,155
147.9856,559.8
148.0345,347.5
148.049,582
148.0647,69.7
148.0669,192.6
148.0796,425.4
148.1163,471.7
148.1361,442.6
148.1992,340.8
148.2014,83.5
148.2839,17
148.2893,129.6
148.3106,180.5
148.3304,195.1
148.3444,80.6
148.359,181
148.3691,306
148.3959,81.7
148.4,207.6
148.4544,134.3
148.4678,552.5
148.4751,18.7
148.5133,139.5
148.5199,78.9
148.5322,1085.6
148.5703,84.1
148.8206,564.6
148.843,116.2
148.8765,20.3
148.9151,693.3
148.961,515.6
148.9886,137.9
148.995,241.5
149.0024,34.2
149.0185,3135.7
149.0233,4271.9
149.0449,127.9
149.0795,231.1
149.1391,196.6
149.3495,232.8
149.4621,21.3
149.5294,17.9
149.5356,204
149.5726,104.2
149.5827,21
149.6061,396.6
149.6344,402.2
149.679,21.4
149.6943,286.8
149.7038,141.8
149.8807,78.6
149.9043,140.9
149.9061,79.8
149.9684,801.5
149.9869,24.3
149.9928,6264.1
150.0137,4200.9
150.043,795.3
150.0945,186.2
150.1764,433.9
150.2101,20.1
150.2592,230.3
150.2744,443.8
150.3245,19.1
150.3791,733.1
150.4643,677.7
150.4756,20.5
150.5982,17.2
150.6014,180.9
150.6673,19.8
150.708,150.7
150.7362,65.8
150.7686,145.1
150.7738,475.1
150.8058,87
150.8746,365
150.8966,126.4
150.9168,18.4
150.9304,89
150.9687,101.6
150.9768,20776.8
150.9824,576.2
150.984,4707.1
150.9885,18.3
151.0479,2059.1
151.0799,433.3
151.1016,120.9
151.114,220
151.1363,59.8
151.1606,245.9
151.1756,178
151.2302,94
151.3098,21.3
151.3173,17.9
151.3352,172.3
151.3401,135.1
151.3688,505.2
151.3802,179.1
151.3954,108.7
151.4583,515.1
151.4631,346.3
151.4663,98.4
151.5508,19.6
151.5595,495.4
151.5766,72.8
151.5972,590.7
151.622,201.1
151.6418,20.2
151.6456,125.6
151.6495,306.8
151.672,408.5
151.6787,19.1
151.7746,88.4
151.7773,21.9
151.8405,456.7
151.9327,441.9
151.9595,498.7
151.9726,528.9
151.9844,22.7
151.9874,151.4
152.0038,215.3
152.022,9715.4
152.0317,2683.8
152.0378,19.9
152.0671,225.9
152.0732,532.8
152.0919,692.4
152.1219,282
152.1444,772.2
152.1512,167.5
152.208,180.5
152.2448,363.9
152.2738,460.6
152.2826,223
152.2873,100.8
152.4383,609.6
152.4584,775.6
152.4646,770.8
152.5087,497.1
152.5755,458.6
152.5953,166.1
152.6044,323.4
152.6376,303.4
152.6395,446.5
152.6516,205.8
152.6896,687.7
152.7531,360.3
152.8412,521.6
152.8757,101.6
152.886,442.8
152.9301,110.6
152.9403,271.3
152.9506,710.3
152.9996,21.2
153.0702,292
153.1117,476.5
153.1264,702.1
153.1296,405.9
153.1569,132.5
153.2389,291.3
153.2502,473.7
153.317,116.4
153.3317,539.8
153.3958,106.4
153.4301,226.1
153.5053,17.9
153.515,179.3
153.5519,88.5
153.5674,606.8
153.6119,172.1
153.6368,500.8
153.6541,949
153.7691,20.2
153.8746,180.8
153.99,484.5
154.0111,610.5
154.0202,323.1
154.0267,533.5
154.0587,2767.3
154.0761,164.5
154.153,286.4
154.1867,309.5
154.2196,425
154.2365,619.3
154.2499,19.1
154.2989,128.8
154.3378,18.7
154.3898,391
154.459,173.8
154.4612,16.8
154.4681,65
154.4725,198.2
154.5561,93.4
154.5626,96.1
154.5725,122.6
154.6565,479
154.6598,102.2
154.6718,133
154.6985,203
154.7413,316.5
154.7747,157.8
154.8102,524.5
154.8487,127.8
154.8631,334.3
154.8861,18.4
154.9075,86.5
154.9457,238.2
155,17
155.0425,1129.8
155.0493,100.7
155.0517,399.8
155.0539,3745.7
155.076,204.3
155.342,316.4
155.3673,89.8
155.3704,169.4
155.4327,128.3
155.4464,617.1
155.4494,264.6
155.5175,357.3
155.5725,99.9
155.5991,91.1
155.6082,78.6
155.663,100.7
155.7559,649.2
155.8155,65.9
155.868,77.8
155.8874,461.9
155.9129,107.6
155.9804,164.4
156.0105,22.7
156.0421,3462.2
156.0493,505.1
156.0573,34.6
156.0767,64451.6
156.1407,234.2
156.2106,17
156.2906,306.2
156.2939,91.9
156.3988,134.1
156.5184,84.8
156.5701,108
156.6976,17.4
156.7265,131.6
156.7361,361.9
156.7511,441
156.7799,186.6
156.8476,20.8
156.871,106.4
156.9,384.9
156.9337,850.1
156.9743,26.3
156.9757,89.2
156.9796,89.7
156.9945,19
156.998,20.3
157.0058,168.1
157.0215,233.4
157.0695,600.5
157.0799,1462.7
157.0934,17
157.0972,39.5
157.1115,337.6
157.1217,594.8
157.2113,97.2
157.2219,83.7
157.2763,99
157.3487,532.6
157.3841,73.7
157.4324,119.4
157.5336,179.4
157.6953,404.7
157.7062,98.7
157.7671,125.3
157.9248,120
157.9777,112
158.027,3878.8
158.1319,407.7
158.1654,382.8
158.215,185
158.2387,678.9
158.2881,424.9
158.2983,418.7
158.3078,579.1
158.54,295.1
158.5629,182
158.5665,232.5
158.5935,417.7
158.6262,234.3
158.6689,110.8
158.7295,228.4
158.8379,82.6
158.9112,337.7
158.9186,217.4
158.9641,8443
158.9964,5515.1
159.011,33.3
159.0189,120.8
159.028,99.9
159.0304,133.5
159.0565,185.6
159.2454,19.8
159.2917,182.5
159.3207,580.9
159.3392,402.4
159.3419,362.3
159.3585,81.5
159.3808,177.6
159.4207,100.3
159.4283,89.4
159.4509,125.1
159.4885,521.2
159.5723,92.2
159.6313,130.9
159.6913,87.7
159.7024,411.4
159.7277,437
159.7432,383.7
159.7456,124.1
159.7492,21.5
159.7544,500.2
159.7932,117.9
159.8513,17.2
159.9207,105.5
159.9617,276
159.9821,19.8
159.9902,84.7
160.0228,63.1
160.0265,17.6
160.0288,569.4
160.0345,12523.1
160.0604,61012.9
160.1201,387.4
160.166,122.4
160.2289,210.9
160.2603,625.2
160.3044,122.7
160.3155,18.8
160.4377,426.7
160.4596,19.9
160.4819,258.6
160.5524,108.1
160.5551,448.3
160.5708,131.8
160.5826,88.6
160.6862,426.6
160.6902,935.9
160.779,20.2
160.8001,20.2
160.926,515.7
160.9932,670.8
161.014,73.5
161.0262,131.3
161.0638,1987.4
161.0995,791.7
161.1451,194.6
161.2534,478.7
161.256,201
161.2576,951.9
161.3354,175.2
161.3424,222.6
161.3517,18.9
161.3769,179.1
161.3817,23.3
161.4494,282.1
161.4692,220.8
161.4802,107.5
161.5095,16.7
161.5466,23.8
161.6113,17.6
161.6278,298.4
161.693,112.6
161.7276,207
161.777,136.1
161.7899,542.7
161.8779,310.8
161.8962,520.9
161.8972,496.8
161.9602,194.6
162.0501,12133.2
162.0546,228.4
162.0976,103.6
162.1283,457.1
162.1667,684.5
162.3028,335.5
162.3144,175.2
162.3574,304.1
162.3654,253.2
162.4011,19.2
162.4093,93.8
162.4167,136.6
162.4745,114.5
162.601,122.3
162.6081,795.2
162.6237,131.3
162.6359,18.5
162.6723,431.7
162.6923,755.7
162.7368,169.5
162.7739,291
162.8274,465.3
162.8775,89.4
162.9558,6156.6
162.9882,179
163.0153,2151.9
163.0602,35.5
163.0792,143.5
163.0939,178.2
163.2397,202.5
163.3037,19
163.3284,303.2
163.3529,18.7
163.4728,230.3
163.4954,143.7
163.5053,90.6
163.5589,89.9
163.6933,190.5
163.775,84.7
163.7859,832.8
163.79,382.1
163.805,279.4
163.8708,213.5
163.9014,245.5
163.9753,350
163.9771,18.3
163.9994,419.3
164.0294,14495.9
164.0804,84.4
164.087,19.2
164.1065,195.4
164.1227,245
164.1713,525.3
164.2552,1229.3
164.2668,613.7
164.3566,93.2
164.3865,122.6
164.3924,162.1
164.5002,358.9
164.5624,200.4
164.6961,22.9
164.7032,284
164.7395,221.7
164.7595,241.5
164.7999,774.8
164.8111,875.7
164.8803,324.2
164.8949,1113
164.9011,157.3
164.9205,4039.8
164.93,15414.8
164.9351,1066.7
164.9793,520.9
164.9845,78.4
164.9889,172.4
164.9925,1711.3
165.0002,1015.9
165.015,553.4
165.0909,103.6
165.1962,212.3
165.2248,789.8
165.252,567.8
165.2584,165.3
165.2996,508.9
165.3196,164.5
165.342,190.6
165.4333,137.1
165.4377,182.4
165.4533,441.9
165.515,70.1
165.5433,188.7
165.5549,184.6
165.5569,208.4
165.6751,696
165.6919,357.1
165.7012,125.4
165.7095,538.7
165.749,338.6
165.7571,17.3
165.8228,227.7
165.8259,115.1
165.8293,18.2
165.8317,17.9
165.8761,235.3
165.9495,187.7
165.9569,419.6
165.9668,2273.3
165.9788,292.9
165.9877,3409.4
165.995,1512.6
166.0048,471.5
166.0277,875.3
166.0396,478.1
166.0463,15.9
166.0743,16.8
166.1356,627.3
166.1713,95.6
166.2049,192.8
166.2156,93.3
166.2348,501.6
166.2503,136.1
166.3704,19.3
166.394,93.2
166.4726,198
166.4795,205.4
166.5855,16.7
166.594,139.1
166.7438,600.7
166.7508,672.9
166.7602,19.1
166.8985,85.8
166.9075,66.5
166.9212,20.5
166.9417,1014.7
166.9508,7044.9
166.9792,31.6
166.9952,27.9
166.9984,75.5
166.9997,73.2
167.0034,431.7
167.0217,6779.9
167.1699,409.4
167.2054,426.8
167.2179,76.4
167.23,187.1
167.2984,88.4
167.3162,406.9
167.3259,431.1
167.3544,553.4
167.3664,175.8
167.389,126
167.4975,268.6
167.5153,659.5
167.5484,18.4
167.5704,464.2
167.6302,92.3
167.6491,132.7
167.6679,128.4
167.6871,19.4
167.6944,205.2
167.7944,20.3
167.8482,103.9
167.854,662.5
167.9524,558.2
167.9944,1404.5
168.0055,851.2
168.0251,371.4
168.0272,229.4
168.0285,213.6
168.0842,368.4
168.1212,417.1
168.1246,705.5
168.1609,536.9
168.1831,163.7
168.2137,84.9
168.3051,183.7
168.3394,95.3
168.3713,208.7
168.4119,105.4
168.4767,182.1
168.4976,192.1
168.5364,200.3
168.5776,169.4
168.6384,483.4
168.6414,88.3
168.6482,197.3
168.6823,21.2
168.7115,157.1
168.8205,394.4
168.9184,18.8
168.9248,28.1
168.9376,71
168.9576,247.4
168.9906,426.1
169.0583,67291.1
169.0648,408.6
169.0947,3520.6
169.0973,88.2
169.1245,1068
169.1296,202.1
169.1547,190.7
169.186,211.2
169.2718,24.7
169.2892,100.1
169.3437,301.1
169.4002,727.2
169.6921,378.1
169.7532,105.1
169.818,396.3
169.8785,313.5
169.9785,427
169.9858,2151
169.9909,22.8
170.0057,127
170.0327,4325.7
170.0598,702.9
170.0617,467.2
170.0741,466.3
170.0879,157.3
170.0923,2776.3
170.1483,239.7
170.2442,205
170.4594,19.8
170.4767,160
170.4789,95.1
170.5435,474.6
170.5597,474.3
170.5615,408
170.6424,117
170.7621,644.1
170.8375,117
170.8419,144.9
170.8544,4288.2
170.8726,17.9
170.9137,228.8
170.9332,245.8
170.9522,17.5
170.9924,738.9
171.0167,1900.9
171.0218,91.5
171.0278,135.9
171.0427,64.5
171.2701,77.6
171.2858,305.5
171.3059,152.1
171.3319,409.4
171.359,187.8
171.3673,94
171.4466,126.8
171.4783,184.7
171.5141,77.2
171.5498,96.9
171.5759,286.1
171.608,656.3
171.6401,84.3
171.6427,818.9
171.6495,548.6
171.6962,581.8
171.7095,377.9
171.7135,338.7
171.8042,508.9
171.8148,17
171.8276,149.6
171.848,125.1
171.8797,316.5
171.9663,253.1
172.0284,393.3
172.1915,458
172.2113,387.6
172.3528,579.1
172.3667,444
172.4488,129.1
172.5277,133
172.5471,794.2
172.6218,244.2
172.644,165.6
172.8514,2133.8
172.8612,376.5
172.8712,377.1
172.8768,316.3
172.9545,16.9
172.9592,385.1
173.0183,278.7
173.0267,259.2
173.0382,403.3
173.0603,99.7
173.0754,91
173.0866,140.5
173.121,173.5
173.135,237.9
173.2322,19.2
173.2417,156.8
173.2448,766.9
173.2489,299.3
173.2705,219.1
173.2869,546.1
173.3153,430.5
173.3439,189.3
173.3916,103.6
173.4008,507.1
173.4109,105.5
173.4404,330.9
173.4763,21
173.6081,198.4
173.6265,480.8
173.6482,70.4
173.652,174.8
173.6943,205.8
173.7045,359.4
173.7477,469.8
173.7541,354.6
173.7563,209.5
173.7626,434.5
173.7662,478.4
173.8047,185.7
173.8132,424.9
173.8349,108
173.8558,90.7
173.8698,45.4
173.8947,339.9
173.9147,408.7
173.9433,136
173.9774,790.6
174.0006,90
174.0142,17.2
174.0422,137.7
174.0654,174.5
174.0937,791.2
174.2376,76.8
174.2398,202
174.2434,326.3
174.3542,561.7
174.364,18.1
174.4886,458.9
174.56,171.8
174.5799,164.9
174.6272,419.9
174.6341,316
174.6374,96.3
174.6752,845.3
174.6894,130.5
174.7223,303
174.7744,337.4
174.837,301.5
174.9001,135.3
174.938,3247.5
174.9617,59.7
174.9684,24.8
175.0342,3363.1
175.0455,4080.9
175.1098,111
175.119,140189.3
175.1366,96.1
175.1878,564
175.2069,155.3
175.2097,235.8
175.242,203.3
175.2478,19
175.2801,150.4
175.2829,194.7
175.2919,135.6
175.321,64.2
175.3288,587
175.4021,16.8
175.4057,201
175.4648,617.3
175.5434,285.8
175.5606,223.3
175.5727,98.3
175.6268,97.4
175.6812,137.3
175.7175,394.7
175.7263,563.8
175.9035,473.1
175.962,83.9
175.9813,492.6
176.0004,45
176.0085,7048.8
176.0163,62.1
176.0188,163.2
176.0659,15641.3
176.1032,2206.1
176.1224,3835.6
176.1466,17.8
176.2224,197.9
176.2552,174.6
176.2776,175.7
176.3768,399.4
176.4292,181.8
176.4773,376.8
176.5013,627.2
176.5398,691
176.5593,127.7
176.6084,316.1
176.6134,130.1
176.6162,63.3
176.6244,414.2
176.6288,856.8
176.6434,189.7
176.7059,107.1
176.8019,114.1
176.808,83.8
176.8454,619.4
176.8937,55.4
176.9283,226.5
176.9328,29.3
176.9749,485.4
176.9925,1858.7
177.0035,88
177.0248,3469.9
177.0611,5055.7
177.0636,212.9
177.0689,431
177.0756,23.2
177.0822,136.2
177.1268,205.3
177.1635,20.3
177.2548,401.5
177.4345,506.5
177.439,166.5
177.4432,426.7
177.491,146.1
177.5836,18.5
177.5986,477.5
177.6576,218.2
177.6928,465.5
177.7056,451.3
177.7227,297.9
177.8069,17.9
177.8617,227.3
177.9296,453.4
177.9532,126.7
177.9712,172.2
178.0087,10120.5
178.0162,31.1
178.0241,7266.9
178.0587,4707.2
178.0689,138.9
178.0792,648
178.2921,231.4
178.7196,274.2
178.7278,490.6
178.7389,249.2
178.7549,92.6
178.8176,192.2
178.9098,582.6
178.9646,123.7
179.0028,185
179.0117,138.1
179.0155,46.3
179.0302,86.5
179.0488,597.8
179.061,417.7
179.1933,22.1
179.2637,343.3
179.3208,17.7
179.3269,472.3
179.3364,351.2
179.3658,864.7
179.5892,153.1
179.6006,209.9
179.6331,153.3
179.6676,222.5
179.8685,78
180.0034,11151.7
180.0106,96.1
180.0842,20.3
180.173,19.3
180.2393,820.1
180.2462,111.5
180.3221,88.5
180.3356,118.7
180.3546,250.7
180.5083,193.9
180.577,641.1
180.6775,771.3
180.6858,739.7
180.8577,578.2
180.886,282.2
180.8882,665.6
180.8945,1157.8
180.904,10404.2
180.9244,90
180.9377,122.4
180.9709,217.5
181.0157,30.9
181.0257,598.3
181.0562,133.5
181.0649,7684.3
181.1258,97.7
181.1409,86.9
181.1728,496.7
181.2985,20.9
181.3189,206.9
181.3535,183.9
181.4185,104.9
181.4342,141.5
181.457,76
181.5312,20.4
181.5564,488.2
181.5676,138.1
181.6175,82.4
181.7952,148.2
181.9266,111.2
181.9512,117.4
181.9776,236.3
182.0157,18.8
182.0249,227.7
182.0424,28787.9
182.0794,583.3
182.1145,982.7
182.1395,421
182.1597,404
182.1668,373.8
182.1674,378
182.1688,199.3
182.2114,483.3
182.2561,191.9
182.2863,156.6
182.3073,19.6
182.4742,19.2
182.5919,132.1
182.6523,192
182.7002,18.4
182.7156,122.6
182.76,79.3
182.7963,380.5
182.8007,861.4
182.8835,20.9
182.8898,200.3
182.8932,18.9
182.8987,222.3
182.9024,20.3
182.906,108.6
182.9158,1029
182.9255,619.9
182.941,156.3
182.9532,23.6
182.9619,172
183.0444,1677.6
183.0523,575.8
183.0931,134.2
183.0979,99.3
183.1182,114.2
183.1333,159.8
183.1656,443.8
183.1693,64
183.2708,455.5
183.2956,76.2
183.402,809.3
183.4146,483.4
183.5207,89.8
183.7631,543.9
183.7817,244.6
183.7937,82.4
183.8534,173.2
183.881,630.2
183.9284,713.5
183.9648,1753
183.9694,94.2
184.0365,709.7
184.0653,118.6
184.0733,4389862.5
184.0808,88.5
184.1095,353
184.14,71.4
184.1726,129.1
184.1821,1325.5
184.3417,445.2
184.3975,167
184.4519,170
184.5492,194.5
184.6886,447.5
184.7726,671.9
184.7801,17.7
184.7857,340.1
184.8299,21.8
184.8598,300.4
184.9298,60.3
184.9831,21.1
184.9888,18.6
184.9929,393.8
185.0323,85126.2
185.0413,236.8
185.0702,8043.8
185.0767,202050.5
185.0823,421.9
185.221,506.3
185.2402,172.3
185.3253,302.4
185.506,122.3
185.5484,148
185.5508,314.6
185.6214,108.8
185.6287,481.3
185.7257,170.6
185.7457,181.1
185.823,173.6
185.859,150.7
185.9172,553.9
185.9544,126.7
185.9598,3189.7
185.984,121.4
186.009,87.8
186.021,120.4
186.0356,1976.7
186.0776,28124.3
186.0902,368.1
186.2041,604
186.2592,18.2
186.2616,188.4
186.2785,373.8
186.3004,306.6
186.3336,20.3
186.3827,94.2
186.4053,352.6
186.447,259
186.5148,747.8
186.6901,244.6
186.717,87.7
186.7396,111.8
186.7686,85
186.8343,102.5
186.9046,19.3
186.912,3747.6
186.9359,21
187,20.8
187.0305,2417.1
187.0527,355.6
187.0578,2906.8
187.0713,397.4
187.1077,3046.4
187.1743,127
187.2374,128.4
187.4255,133.9
187.4466,84.5
187.4612,76.2
187.6433,140
187.7153,196.7
187.7464,457
187.7615,624.9
187.8399,626.7
187.8453,208.3
187.8474,632.7
187.9492,489.9
188.0167,22
188.0797,102.4
188.345,523.5
188.3819,777
188.4365,538.3
188.5012,125.7
188.5079,277.1
188.5145,952.4
188.563,310.5
188.5721,673.7
188.6274,21.7
188.6549,113.6
188.73,146.5
188.7643,320.8
188.8603,208.4
188.9637,466.4
188.9669,412.4
188.9967,86.5
189.0087,109
189.021,62.8
189.061,4800.2
189.087,5423.5
189.2003,473.9
189.2299,137.7
189.2722,444.9
189.3116,458.8
189.323,646.4
189.3945,207.1
189.4049,139.8
189.4594,355.1
189.4822,106.1
189.5941,329.1
189.6176,191.6
189.6813,22.5
189.6937,232.3
189.7311,362.3
189.7771,17.9
189.8853,21.5
189.931,255
189.9394,618.7
189.9758,18.3
190.0334,185.1
190.1956,236
190.2025,92.1
190.2179,345.8
190.2503,115.7
190.3469,393.2
190.3532,700.4
190.3789,636.1
190.4975,310.2
190.5086,110.1
190.5569,391.7
190.5995,99.6
190.6728,284
190.6778,17.7
190.6895,688.9
190.7284,169.8
190.7465,749.1
190.82,94.8
190.8246,464.1
190.8725,591.5
190.9096,25
190.912,2116
190.9148,93.6
190.9495,692.7
191,61.2
191.0081,2902.6
191.0147,18.2
191.0241,29
191.0371,434.3
191.0404,88280.9
191.0582,179.9
191.0768,18469.9
191.0948,110.4
191.1971,18.9
191.3222,226.8
191.3462,20.6
191.4552,341.8
191.4753,78.4
191.658,86.5
191.7071,106.6
191.7246,162
191.7405,18.1
191.7532,87.6
191.7642,101.6
191.9665,256
191.9761,568.7
191.9823,1373.9
192.011,47.2
192.0398,7916.2
192.0437,1489.6
192.0522,124.4
192.1569,172.5
192.1799,465.4
192.2022,64.1
192.2349,466.9
192.2794,329.2
192.2888,146.1
192.3251,424.4
192.3471,135.1
192.3823,598.7
192.4025,430.3
192.441,91.3
192.5203,100.3
192.5287,641.1
192.6812,123.8
192.8927,136.7
192.9105,106.7
192.9217,88.4
192.9798,467.3
192.9921,516.2
192.9988,2994.5
193.0023,308.2
193.0159,133.9
193.0352,1824.4
193.043,434.9
193.1041,162.1
193.1131,133.8
193.1475,403
193.1625,84.6
193.2033,100.4
193.2495,90.8
193.3781,100
193.4415,182.7
193.4574,133.6
193.4877,540.8
193.5858,114.7
193.6357,36.9
193.692,135.9
193.7216,86.5
193.7633,78.9
193.7813,390.8
193.8909,168.3
193.9024,18.7
193.9372,130.4
193.9805,73.3
193.9911,466.8
193.9981,785.7
194.005,711.3
194.009,350.2
194.0211,370.5
194.0221,446.4
194.0327,4279.3
194.093,100.9
194.0963,18.8
194.1517,271.8
194.1542,47.6
194.2443,448.2
194.3468,135.4
194.4645,565.3
194.5297,104.5
194.5489,121.7
194.6042,76.1
194.6542,522.5
194.6581,99.4
194.7359,153
194.7563,301.9
194.8074,16.9
194.8353,268.2
194.8697,163.6
194.9007,187.1
194.9039,205.6
194.9663,17.8
195.011,25.4
195.0282,499.9
195.0399,94.9
195.0432,375
195.0541,454.6
195.0769,168.8
195.0936,1054.6
195.1099,102.4
195.1225,84.5
195.1779,215.2
195.296,27.8
195.3133,249.8
195.3208,372
195.3525,373.8
195.519,178.1
195.5212,93.1
195.8207,213.8
195.8466,659.5
195.9191,19.5
195.925,178
195.9445,246.5
195.974,86.1
195.9773,1052.9
195.9828,21.1
195.9938,367.3
196.0792,364.5
196.1115,83
196.1696,404.4
196.1789,110.3
196.221,108.4
196.2675,129.1
196.2823,792.7
196.3995,22.8
196.4288,145.7
196.5046,170.5
196.5529,166.5
196.5658,132.3
196.6029,88.3
196.6312,307.2
196.7753,460.4
196.8329,80
196.8652,3813.7
196.8684,669
196.878,2498.5
196.9296,86.2
196.9325,175.5
196.9592,92.7
196.9904,177.3
196.9924,116.5
197.0822,21.7
197.1011,984.5
197.1522,20.6
197.2193,355.4
197.2522,123.3
197.3097,266.5
197.3754,375.8
197.3878,141.8
197.3997,17.4
197.4576,598.8
197.5176,568.6
197.5248,125.3
197.5301,91.2
197.6245,455.6
197.6287,774.5
197.7493,507.6
197.7923,1082.3
197.8008,68.5
197.9433,257.3
198.0075,18.7
198.0254,586
198.0407,328.6
198.0716,86.9
198.085,14799.6
198.1029,113.2
198.1736,85.8
198.1853,6054.3
198.2134,85.5
198.6118,129.5
198.7063,87.9
198.7573,17.3
198.8543,27.3
198.8623,5716.7
198.8754,188.4
199.0093,128.9
199.0167,283.3
199.025,17.4
199.0395,410.5
199.0449,76.7
199.069,110.1
199.0753,1766.1
199.1716,364.4
199.1898,635
199.2207,139.6
199.2413,351.2
199.4311,164.2
199.4626,461.1
199.5617,403.9
199.5831,180.5
199.607,195.3
199.6829,152.2
199.7035,117
199.7825,737.4
199.8132,131.8
199.8765,20.7
199.8917,448.2
199.9593,17.8
199.9631,485.8
199.9907,35104.6
200.0408,11206.1
200.0449,139.3
200.0559,197.5
200.1229,294.9
200.1525,588.8
200.1791,111.6
200.1915,461.5
200.2357,535.4
200.2561,17.6
200.2923,262.2
200.302,138
200.3162,842.3
200.328,341.9
200.3417,11330
200.3641,17.5
200.3838,156.4
200.407,18.5
200.4248,163.1
200.4609,507.6
200.5287,193
200.5639,87.4
200.6173,747.7
200.8184,127.9
200.8277,422.5
200.8596,1750.6
200.8942,1308.4
200.9196,89
200.9391,109.2
200.9451,239.8
200.9971,61.4
201.0352,416.7
201.0548,141.9
201.0871,116.2
201.1395,449.1
201.2438,539.3
201.706,85.9
201.7536,527.1
201.7877,314.1
201.8647,70.7
201.8944,101.8
201.9339,374.5
201.9387,408.8
201.9951,440
202.0162,84.8
202.0214,835.7
202.0308,17.2
202.0893,204.8
202.0938,430.8
202.1572,385.9
202.1748,384.1
202.1955,86.4
202.3508,295.4
202.5204,91.5
202.5594,532.3
202.5863,152.1
202.6689,18428.5
202.7517,1094.6
202.7563,202.3
202.8715,468.4
202.8952,36.1
202.9287,650.6
202.9722,251.3
202.9851,110.3
203.0116,22
203.032,926
203.0527,1017250.1
203.0642,97.1
203.0768,8939.1
203.1036,109.5
203.2252,123.5
203.2329,122.6
203.2753,808.6
203.3135,570.7
203.3556,82.6
203.417,601.3
203.533,629.3
203.5436,129.1
203.5672,126.5
203.6077,18.8
203.6499,339
203.668,94.7
203.6824,156.8
203.8722,473.5
203.9394,213.4
203.9449,407.5
203.9846,267.8
204.0244,46084.4
204.0314,143.5
204.0561,49174.4
204.0863,324.1
204.1041,199.7
204.1754,784.2
204.2208,96.4
204.2224,84.6
204.259,19.3
204.2846,66.8
204.3355,90.9
204.4121,366.5
204.4766,239.2
204.5246,110.6
204.6107,184.3
204.7912,65.3
204.8017,377.1
204.8129,338.8
204.8393,93
204.8887,330.5
204.9154,20.3
204.9214,18.1
205.0159,20.2
205.0278,157
205.0569,6349.3
205.0683,12006.7
205.0833,22.5
205.097,199.7
205.1145,563.8
205.3161,168.3
205.392,514.1
205.4904,91.3
205.5073,482.7
205.602,95.2
205.8505,572
205.8689,590.2
205.99,17.7
205.997,1064.2
206.0268,19.3
206.0336,127.3
206.0475,164.9
206.0555,3239.6
206.1446,674.1
206.1672,194.5
206.2876,237.5
206.3212,202.6
206.3612,18.9
206.3752,280.8
206.5848,153.7
206.6975,406.8
206.7277,133.4
206.8514,242.9
206.8879,155.9
206.894,13330.9
206.9168,270.1
206.9821,1325.5
206.9977,119.3
207.0054,646.4
207.0144,63322.1
207.0318,21
207.0442,1614.4
207.0507,8479.9
207.0599,81.3
207.0796,227.6
207.1871,914.1
207.2068,100.7
207.2426,103.3
207.4653,158.3
207.5155,499.9
207.5436,336.3
207.7028,597.7
207.7087,658.2
207.7748,345.9
207.7829,465.8
207.821,96.3
207.8347,138.4
207.8863,100.8
207.9043,264.9
207.9081,19.5
207.9377,105.7
207.9636,178.9
207.9664,662.8
207.9906,1481.9
208.0137,1611.3
208.0179,382.9
208.0431,24.7
208.0508,155.6
208.0555,105.5
208.2759,19.7
208.2975,170.5
208.3302,539.4
208.3396,253.9
208.6082,133.2
208.6197,18
208.6781,152
208.7916,85.8
208.8601,82.3
208.8831,1437.4
208.8911,7107.1
209.0126,2451.1
209.0233,89.5
209.0345,105.1
209.1071,115.8
209.1143,776
209.1856,100.1
209.2803,594.6
209.3582,115.1
209.383,19.3
209.4497,210.9
209.5792,90.6
209.5876,205.3
209.8876,20.1
210.3608,16.9
210.651,432.1
210.6774,86.8
210.6903,494.3
210.7242,128.5
210.7351,79.7
210.7552,144.3
210.826,92.5
210.8878,482.1
210.9296,482.2
210.9406,703.6
210.9477,35.7
210.977,83.4
211.0499,456.9
211.0527,647.5
211.0561,199.5
211.069,852.1
211.1283,162
211.1621,452.1
211.2096,416.6
211.2426,380.7
211.3063,200.2
211.3158,137.9
211.3351,6108.1
211.338,6208.7
211.3419,15417.4
211.3469,35235.5
211.3508,32043.1
211.358,2859.7
211.3618,306.7
211.3698,20.7
211.4401,98.4
211.4556,705.4
211.5135,97.7
211.6449,18.3
211.6978,83.8
211.7448,115
211.8044,405.7
211.8185,355.6
211.8283,93.3
211.8561,323.9
211.9321,393.2
211.9592,91.3
211.9666,34.6
211.9913,108.8
212.0245,409.4
212.0742,117.4
212.1556,408.9
212.1745,108.7
212.1926,135.9
212.2344,94.4
212.3458,431.8
212.5389,131.4
212.5467,17.4
212.6738,602.5
212.7233,281.8
212.8112,95.4
212.8267,761.3
212.8392,1839.6
212.8534,109.3
212.88,134.5
212.9043,92.8
212.9175,687.4
212.9287,491.6
212.9603,733.9
212.9649,54.9
213.0325,86.1
213.0521,676.3
213.0546,1031.2
213.0749,2946.7
213.1707,357.1
213.1741,838
213.2372,251.4
213.251,126.9
213.592,141.5
213.6075,422.5
213.6754,373.3
213.8965,138.7
213.9621,2052.7
213.9846,192.8
214.0056,583.5
214.0335,133.3
214.0393,174.4
214.0545,145.4
214.059,22246.7
214.0639,274
214.0819,76.2
214.0898,1082
214.1507,616.5
214.2994,141.4
214.3306,163.4
214.3552,359.1
214.3829,114.4
214.4927,501.4
214.5213,427.6
214.547,199.9
214.6155,437
214.6824,416.9
214.754,477.7
214.777,147.4
214.8362,2251.7
214.8734,112.1
214.9099,242.6
214.9176,40.1
214.9442,94.9
214.9655,76.4
215.0351,440.5
215.0481,169.7
215.0815,289.2
215.093,68.7
215.1158,434.6
215.1263,197
215.164,147.8
215.3051,488.2
215.3123,397.2
215.4018,474.9
215.5092,337.3
215.5245,431.2
215.5707,653.4
215.5909,246.3
215.7045,372.2
215.7716,542.9
215.8389,293.6
215.8598,146.7
215.9103,38
215.9574,18.6
216.0148,8574.7
216.1335,570.3
216.1445,80.8
216.1547,775
216.4718,169.1
216.5318,253.3
216.6389,624.3
216.8094,624.5
216.8368,600.5
216.8666,384.9
216.8706,18.8
216.8892,25.8
216.9073,564.3
216.9229,34433.3
216.9618,17.2
216.9844,474.5
217.0266,1255.3
217.0373,143.2
217.0557,810
217.0635,20.5
217.1405,195.3
217.3139,142.3
217.4181,442.4
217.4384,197.4
217.5881,190.3
217.6019,129.6
217.6551,906.1
217.7381,187
217.7666,96.4
217.7964,206.8
217.8144,19.5
217.8206,100.4
217.9304,105.6
218.1317,329.2
218.1488,105.1
218.1519,34
218.1584,719.6
218.2673,405.8
218.2787,265.1
218.3148,615.7
218.3679,203.1
218.3857,552.2
218.4178,97.8
218.552,82.7
218.5578,239
218.648,448.7
218.6593,302.9
218.6856,437
218.7893,264.5
218.7973,417.9
218.8523,549.7
218.8675,188.2
218.9044,209.6
218.9199,8294.5
218.9317,154
219.0267,1228367.3
219.0831,8190
219.1227,116.4
219.1467,425.5
219.1667,316.6
219.2221,18.3
219.3288,143.4
219.341,20.1
219.3982,406.7
219.4019,576.1
219.4448,19.6
219.5009,163
219.5934,121.8
219.6411,174.7
219.6457,717.8
219.7661,359.3
219.8068,491.4
219.9888,474.8
219.9986,465.7
220.0021,560.4
220.0053,23
220.03,62536.8
220.0372,418.3
220.067,8451.8
220.0914,177.7
220.1673,551.4
220.1846,23.1
220.2707,141.8
220.463,64.3
220.467,252.1
220.5742,311.7
220.5838,99.6
220.6554,582.1
220.6745,448.3
220.7211,465.6
220.8045,570.9
220.831,226.1
220.8496,407.1
220.8864,90.7
220.9042,29.5
220.9311,110.8
221.0072,104.2
221.0248,76046.5
221.031,11204.3
221.0424,8627.3
221.0508,1181.5
221.0751,128
221.0845,656.9
221.1551,178.7
221.2598,461
221.3028,292.9
221.4188,240.6
221.4649,97.4
221.4851,361.1
221.6539,771
221.675,701.7
221.7657,91.4
221.7769,231.9
221.7923,450.5
221.912,426.8
221.9364,132.2
221.9562,168.4
221.968,21.8
221.9838,1201
222.014,148.5
222.0283,554.8
222.0843,25.7
222.0889,313.2
222.1595,23.3
222.1944,17.5
222.2794,253.1
222.2832,266.4
222.3543,813.3
222.3922,579.4
222.4171,89.7
222.4348,85.5
222.4393,432
222.4476,118.1
222.5459,511.4
222.5868,20.1
222.6417,142.7
222.697,726.3
222.7445,20.1
222.7749,212.4
222.868,11740.6
222.8988,486.7
222.9082,515.4
222.954,1517.9
222.9884,7337.6
223.0155,443.5
223.0253,499.4
223.0634,31.3
223.0767,118
223.0813,30
223.1138,283.1
223.1561,119.2
223.1834,577
223.2331,324
223.2684,203.3
223.2809,19.2
223.3709,685.6
223.3743,259.3
223.5546,574.3
223.5811,529.8
223.609,253.2
223.6274,132.7
223.6412,103.9
223.7388,419.2
223.9022,21.7
223.924,230.3
223.9531,60.7
224.0065,98.2
224.0128,361.1
224.0558,94.3
224.078,18.4
224.1049,724.9
224.1568,474.3
224.203,140.7
224.2075,323.8
224.6444,19.1
224.6695,493.6
224.6795,484.1
224.809,98.2
224.8426,142.6
224.865,7079.5
224.9103,121.9
224.9274,81.5
224.9582,168.7
224.9784,80.2
225.0232,47.9
225.0312,439.5
225.0548,22517.6
225.0846,886.7
225.0988,701.1
225.1924,133.1
225.2527,21.7
225.4001,149.7
225.4911,417
225.5087,20.8
225.6685,544.1
225.6887,220.3
225.7649,281.7
225.7868,246.2
225.8042,128.9
225.825,317.6
225.8375,96.4
225.9384,27.7
225.9622,75.8
226.0018,45.7
226.0064,1770.6
226.0242,7081
226.0454,3138.4
226.1056,412.3
226.1387,100.2
226.1452,794.7
226.1495,17.9
226.197,164.2
226.3017,633.2
226.469,520.9
226.4829,558.8
226.6258,474.8
226.7052,442.6
226.7757,18.6
226.7888,181.9
226.8158,441.2
226.8507,416.5
226.8619,589.8
226.886,75.6
226.9516,30604.9
226.9905,304.1
227.0282,248.6
227.0338,203.8
227.0431,171.3
227.079,680.6
227.0874,281.5
227.1135,301.4
227.1664,190.3
227.217,893.7
227.3084,205.3
227.3294,87.9
227.6312,93.5
227.7604,99.7
227.9257,185.1
227.9343,168.3
227.9617,247.7
228.0006,140.5
228.022,105.3
228.0563,1376.4
228.0701,98.7
228.238,150.9
228.3156,609
228.344,315.5
228.3644,165.6
228.3977,145.2
228.4349,243.3
228.4387,174.7
228.4505,19.9
228.4713,173.1
228.5051,396.1
228.5106,363.9
228.739,81.6
228.7731,95.1
228.8294,284.6
228.8892,23.3
228.8952,22.8
228.9394,162.9
228.9601,83.3
228.9657,21.9
229.0298,203.7
229.0755,245.9
229.0875,484.8
229.1176,485.2
229.2194,361
229.2238,544.1
229.3456,190.3
229.3504,151
229.3778,16.7
229.4064,176.8
229.4561,127.6
229.4947,81.7
229.5223,478.3
229.6227,418.8
229.6456,19.7
229.7154,342.8
229.7955,111.8
229.9134,414.7
229.957,7117.6
229.9642,118.1
229.9732,389.1
230.0011,485.2
230.0333,89.3
230.0781,127.7
230.154,278.8
230.2879,19
230.3531,126.8
230.4795,147.4
230.4913,136.6
230.5051,98
230.5519,369.5
230.5591,19.7
230.6754,154.8
230.7185,173.8
230.7463,128.3
230.7894,87.8
230.8165,233.4
230.8901,409
230.9603,225.7
231.0559,146.3
231.196,132.4
231.2183,736.7
231.2857,19.1
231.403,683.5
231.4099,108.5
231.4291,129.6
231.5854,87.6
231.629,627.5
231.6342,254.7
231.7526,138.4
231.8206,340.8
231.8994,479.5
231.9268,88.9
231.9384,296.5
231.953,171
231.9574,215
231.9727,156.1
231.9951,58.5
232.0474,271.6
232.1332,692.2
232.1397,359.5
232.1847,560.1
232.2675,510
232.3137,141.5
232.4675,196.6
232.5325,319.1
232.7951,453
232.8835,106.6
232.8872,19.8
232.8968,33210.2
232.9538,21.2
232.9738,131.7
232.9857,5815
233.0511,9430.5
233.0556,266
233.1804,794.5
233.397,22.5
233.4205,356.5
233.505,137.7
233.7881,913.9
233.8618,222.6
233.9532,65.7
233.965,290
234.0084,341.6
234.0334,570.7
234.0395,386
234.0536,295.4
234.1605,129.3
234.1904,179.6
234.205,424.2
234.2465,128.6
234.2993,85.8
234.3718,19.6
234.5839,508
234.7209,421.9
234.7712,414.4
234.8025,390.3
234.8937,8588.7
234.8997,26.2
234.9816,4830.1
235.0521,126.8
235.0569,3874.1
235.0669,122.5
235.0835,86.3
235.0926,6496.3
235.1335,737.7
235.2005,145
235.266,182.5
235.2694,435.6
235.2829,189
235.3787,716.9
235.4341,241.7
235.4927,106.4
235.5251,516.8
235.5666,93.7
235.5884,150.8
235.6083,267.6
235.6282,564.5
235.6488,234.6
235.6965,343.4
235.8713,240.2
235.9132,393.6
235.9249,608.8
235.9542,460.2
235.9913,102.8
236.0054,422.8
236.0137,121
236.0222,391.6
236.0409,5122.8
236.0717,45863.4
236.1337,108.6
236.1454,555.8
236.1917,65.3
236.2386,791.6
236.2516,75
236.3133,79.2
236.4305,142.5
236.4811,118.3
236.4876,16.8
236.7052,193.4
236.7181,332.2
236.7679,161
236.8044,171.7
236.878,231.1
236.9072,21.4
236.9144,23.8
236.9492,912.6
237.0587,19.5
237.0714,57.1
237.0751,1833.8
237.129,420.1
237.1599,674.6
237.1826,683.9
237.2174,225.5
237.4168,105.9
237.5505,18
237.5947,214
237.6157,249.9
237.6552,158
237.6739,26.9
237.7622,234.3
237.8248,114.3
237.8351,447.7
237.9782,19.3
238.0015,102.3
238.0673,593.1
238.0777,39.4
238.1145,407.6
238.3449,197
238.4432,245.2
238.4814,635.5
238.6219,232
238.7311,255.5
238.8419,4130
238.8536,685.6
238.8628,451
238.9432,85
239.0092,4418.9
239.0358,354.2
239.0423,304.9
239.0645,622.6
239.0685,1103.5
239.1195,202.1
239.1865,376.2
239.2213,250.2
239.2281,349.6
239.2614,140.5
239.3208,346.1
239.4675,18.5
239.6622,435.9
239.8943,545.2
239.9362,230.1
239.9574,767.1
239.966,514.1
239.9778,24
240.0185,169.3
240.0443,520.7
240.0578,502.8
240.0674,91.8
240.1487,157.3
240.1897,300.4
240.226,292
240.5688,193.2
240.5701,290
240.5717,255.6
240.5782,20.3
240.6018,951.3
240.667,182.8
240.682,90.3
240.6906,136.8
240.771,226.5
240.8391,2039.6
240.9213,19.6
240.9546,1208.8
240.9671,984.9
241.0088,508.1
241.1715,93.6
241.2061,365.6
241.3446,268.9
241.3502,99.3
241.3562,118.4
241.3645,349.3
241.3674,194.1
241.3715,650.1
241.4367,263.2
241.4486,118.7
241.5495,220.9
241.6279,133.1
241.6374,476.1
241.7729,270.8
241.8346,364.8
241.9543,449.3
241.9669,128.5
241.9796,801.2
241.9832,420.2
241.9981,959.7
242.0193,1426.4
242.0984,224
242.124,181.7
242.1614,974.4
242.3406,559.8
242.3422,565
242.3483,891.3
242.361,372.4
242.4592,88.4
242.5272,112.6
242.5387,640.6
242.6414,125.5
242.797,21.5
242.8789,423.8
242.9256,19150.3
242.9759,50.8
242.9905,114.8
243.0064,521.7
243.0328,508.1
243.0531,9953.9
243.0653,7662.6
243.1629,636.6
243.3883,220.8
243.4337,539.1
243.5864,323.4
243.6083,350.4
243.7378,89.4
243.7472,424.6
243.8595,23.5
243.8714,106.1
243.8948,91.4
243.9727,2976.1
244.0127,225.1
244.0915,445.1
244.0965,437.5
244.1231,139.8
244.1637,405.3
244.1706,483.9
244.2343,812.9
244.3014,198.4
244.3691,462.2
244.4281,940.4
244.7151,717
244.7256,83.1
244.7319,177.7
244.7515,450.8
244.7867,767.6
244.8543,383.9
244.8707,4934.2
244.9239,1096.5
244.9661,92.8
244.9758,164.4
245.0056,20.4
245.0519,486.3
245.0547,402.2
245.0748,108.5
245.0933,17.9
245.4135,176.8
245.5018,110.5
245.56,228
245.6797,471.3
245.7254,145
245.8588,147.5
245.9685,92.4
245.9729,88.3
245.9884,119.2
246.0014,98.2
246.0103,22.3
246.0142,136.2
246.1987,626
246.3412,88.3
246.3665,504.7
246.3774,108.8
246.4239,193.6
246.4707,344.5
246.5218,448.7
246.5725,137.3
246.6176,402.3
246.6601,690.8
246.6659,187.1
246.7377,354.4
246.7924,129
246.796,19.5
246.8078,29.5
246.8623,371.9
246.8676,1225.3
246.9067,20.6
246.9516,2126.4
246.9654,21.3
246.9701,23.9
247.0113,96.6
247.0367,736.8
247.0456,232.6
247.0551,354.7
247.0588,137.6
247.0667,1783.4
247.0927,3494
247.1164,92.9
247.1388,111.8
247.1476,312.6
247.2187,307.5
247.2655,457.2
247.2767,961
247.2929,89.4
247.2958,86.1
247.3807,249
247.4075,306.8
247.4393,458.9
247.6073,293.7
247.6288,537.6
247.6771,274.6
247.8421,669.2
247.8824,80.8
247.9043,318.4
247.9236,19.8
247.9675,636.5
247.9748,275.8
247.9835,363.2
248.096,114.6
248.1039,507.5
248.1242,12647.1
248.1612,466.4
248.1847,122.1
248.3117,140.5
248.3722,456.6
248.4265,516.6
248.4509,104.8
248.5366,143.9
248.7274,806.6
248.8193,77.1
248.8565,17.1
248.8629,24.8
248.8709,9030.3
248.9006,127.1
248.916,31.3
248.9485,52.9
248.9596,4675.7
248.9708,39.5
249.016,1667.2
249.0243,142.7
249.0612,11553.2
249.0701,94.4
249.1082,119.5
249.3467,173.7
249.3518,101.4
249.3547,130.6
249.4336,204.5
249.4507,86.6
249.5409,261.7
249.7166,501.9
249.7485,17.7
249.7542,20.4
249.7705,509.2
249.8364,19.7
249.8857,34.8
249.942,174.8
249.9574,88.6
249.9632,29.5
250.0382,2055.6
250.0505,21.6
250.0642,647.6
250.1125,385.6
250.2148,18.3
250.2988,18.7
250.3068,652.8
250.351,134.8
250.4028,17.3
250.4962,570.9
250.5151,161.8
250.5654,23.3
250.6106,455.3
250.631,581.5
250.6564,758.1
250.6763,176.1
250.7557,154.7
250.8242,22.5
250.8671,498.3
250.873,169.9
250.8937,122
250.9001,113.4
250.9208,426.6
250.9553,1438.5
251.0003,25
251.0345,110.5
251.1624,873.2
251.2908,87
251.3353,731.2
251.4489,19.2
251.4719,513.1
251.4818,135.7
251.5452,137.2
251.6829,95.5
251.7889,196.3
251.81,403.1
251.8823,82.1
251.9336,298.6
251.9803,297.6
252.0287,63.6
252.0372,717.8
252.0457,102680.6
252.0606,117.8
252.0719,239.1
252.3001,20.6
252.3399,194
252.3621,350.4
252.4859,489.4
252.5757,127.2
252.6424,108.3
252.6969,713.8
252.7723,92.3
252.7914,153.8
252.8142,174.1
252.9105,19.6
252.9274,99
252.9514,27.5
252.9607,433.9
252.9815,311.8
252.9887,19.4
252.9972,20.5
253.025,84.9
253.042,377.3
253.0491,4291.5
253.155,237.5
253.3373,835.1
253.3577,152.2
253.4552,150.7
253.4626,707.2
253.4785,179.9
253.4913,110.3
253.5184,148.1
253.5451,521.9
253.5885,165.5
253.7247,528.8
253.7548,143.4
253.8282,137.6
253.8869,212.4
253.9522,20.7
253.9887,735.6
254.0352,496.9
254.0436,1864.7
254.0693,28.8
254.1209,799.1
254.1833,143.1
254.2648,66.3
254.3535,133.2
254.385,752.6
254.4,104.3
254.4134,815.4
254.5067,411.8
254.5134,181.6
254.6489,581.9
254.661,894.1
254.704,558.4
254.7447,22.9
254.7691,475
254.8159,402.5
254.824,6357.2
254.986,51.9
255.0253,355.3
255.033,28687.5
255.0376,489.7
255.0463,428.1
255.0644,438.5
255.0881,246.9
255.1775,480.9
255.3185,400.1
255.3352,122.7
255.3376,119
255.4164,21.1
255.4779,271.2
255.5372,731.5
255.5449,196.1
255.617,110.4
255.6183,165.5
255.6202,156.1
255.6457,263.8
255.7727,246.7
255.913,67.1
255.9489,26.2
255.9727,19.7
255.9782,925.9
256.0033,1083
256.0356,214.5
256.0577,16.6
256.0634,444.5
256.0881,115.5
256.1333,268.5
256.1484,317.3
256.1785,313.6
256.1878,94.8
256.2326,216.2
256.4241,112.1
256.6757,643
256.6811,905.9
256.7035,16.9
256.7495,648.3
256.7626,168.5
256.8089,247.4
256.8132,381.8
256.821,8786.8
256.854,20.6
256.8995,21.3
256.9378,132.6
257.0222,269.4
257.0385,144.6
257.0487,8982.8
257.0634,873.7
257.0746,43984.7
257.1788,186.3
257.1977,153.1
257.2362,527.2
257.4499,460.9
257.5116,250.5
257.8392,317.6
257.888,136.6
257.941,227.9
257.9493,542.5
257.9521,307
257.9883,170.3
258.0217,477.6
258.0299,638.6
258.0743,69
258.0781,983.7
258.0946,131.8
258.1103,23405.8
258.2175,268.7
258.4022,208.1
258.5735,91.7
258.6767,23
258.7335,232.3
258.7574,1263.2
258.8181,4138.6
258.8408,19.4
258.8424,20.4
258.8443,18.5
258.8881,97.9
258.8997,3978.1
258.9261,143.6
258.9279,142.2
258.9463,195.6
259.0107,267.4
259.0146,684.1
259.0429,174.8
259.27,108.4
259.4494,126.1
259.4671,18.1
259.5489,422.2
259.5559,785.5
259.5893,103.4
259.6913,428.4
259.7372,249.7
259.7976,22.6
259.8828,885.3
259.9099,151.9
259.9134,267.9
259.9899,19.8
260.0028,329
260.0168,28.9
260.0853,284.9
260.1004,378.8
260.1845,111.1
260.2329,148.6
260.4087,97.8
260.4562,20.6
260.4883,176.3
260.6587,152.4
260.7258,143.7
260.7796,480.7
260.7877,406.5
260.8448,4480.1
260.8935,104.3
260.9068,105.2
260.9492,3096.7
261.046,293.8
261.0614,491.4
261.0879,223.7
261.1001,18.5
261.1132,695.6
261.2652,713.9
261.3412,553.7
261.3548,505.6
261.3854,478
261.3973,151
261.4251,651.1
261.5408,141.9
261.6598,88.3
261.7017,153.8
261.7519,598.1
261.9831,245.9
262.0425,95.7
262.0818,3593.8
262.2119,600.2
262.293,550.2
262.2996,552.5
262.3633,895.7
262.621,480.1
262.9314,40
262.9481,426.9
262.9572,158.9
263.0133,510.1
263.0855,1144.6
263.1959,18.3
263.2056,639.4
263.2983,511
263.4287,148
263.5119,202.7
263.8444,21.5
263.9727,100.2
264.2016,20.5
264.2625,527.4
264.2695,426.6
264.3564,939.6
264.4689,157.7
264.5586,418.5
264.6306,22
264.6574,19.6
264.839,139.7
264.8449,1022.2
264.8528,4134.2
264.8733,136.9
264.8985,519.9
264.9336,13026.9
264.9699,272.5
264.9885,11704.2
265.0167,214
265.0352,7981.9
265.0471,1192.4
265.0998,129.4
265.1075,17.8
265.1149,326.6
265.2294,71.3
265.2382,22.3
265.2595,416.4
265.2797,88
265.4237,912.6
265.5069,841.4
265.6122,227.2
265.8282,490.1
265.9248,175.1
265.9575,159.7
265.9782,347.2
265.9923,235.3
266.0833,142.5
266.1023,101.5
266.1521,22.2
266.1894,478.2
266.3073,93.9
266.3556,455.9
266.3848,444.9
266.4545,94.5
266.4848,878
266.5087,22.6
266.7494,259.9
266.8105,365.7
266.8499,3457.8
266.9586,74.7
266.9782,368.4
267.0046,98.9
267.0107,480.4
267.1637,906.5
267.2685,242.4
267.4551,584.7
267.4659,458.6
267.6111,130
267.7103,20.3
267.7226,162.5
267.7766,199.8
267.7828,241.6
267.866,112.5
267.8754,896.6
267.9579,18.7
267.9736,99.1
267.9872,294.1
267.994,812.8
268.0092,67.3
268.0295,685
268.0619,133.8
268.0758,231.1
268.0908,467.4
268.1104,150.4
268.1341,234.4
268.23,178.1
268.2341,94.4
268.296,19.7
268.3197,20.1
268.3544,95.7
268.3977,188
268.5106,65
268.7157,209.4
268.8244,20.2
268.8907,550.9
268.9365,178.3
268.9786,23.3
269.0278,286.1
269.0335,160.1
269.0448,16043.3
269.0486,43555.2
269.075,163.6
269.1227,181.3
269.1366,19.3
269.3191,189.5
269.3893,146.3
269.4121,259.2
269.5251,301.1
269.609,471.8
269.6756,156.4
269.73,264.5
269.8363,104.8
269.8636,95.3
269.9524,20.4
269.9894,321.5
269.9933,998.7
270.0097,143.6
270.0248,16673
270.0366,112.5
270.0474,20677.5
270.1159,43.6
270.1379,267.9
270.1447,1129.7
270.163,97.7
270.1708,626.7
270.3505,526.1
270.4405,890
270.4769,19.3
270.5387,926.1
270.5525,236.1
270.5794,156.9
270.6417,903.1
270.6892,688.8
270.7978,2403.1
270.8646,21.3
270.87,143.4
270.9235,20.5
270.9589,18.8
270.978,4311.1
271.0281,1336.5
271.0506,896.1
271.0647,238.1
271.0667,287.5
271.068,262.6
271.0779,929.1
271.0902,3048.7
271.0987,20.3
271.1139,168.9
271.2959,146.2
271.5184,425.2
271.65,181.4
271.8173,82.1
271.9076,21.9
271.9248,809.6
271.9524,861
272.0206,414.1
272.0263,140
272.0317,27.9
272.0433,75
272.0803,280.8
272.0936,382.6
272.1107,839.8
272.1519,307.7
272.2512,174.8
272.2888,774.1
272.3444,153.9
272.5211,117.8
272.5404,522.5
272.5786,190.7
272.7358,187.9
272.795,4271
272.8493,466.7
272.9029,640.3
272.9442,572.3
272.9973,568.3
273.0485,2325.8
273.1614,19.6
273.4031,589.5
273.5076,19.7
273.6911,18.3
273.7037,478.6
273.7218,721.3
273.7918,106.3
273.7981,19.2
273.9548,487.5
273.9626,13231.5
274.0147,366.8
274.0351,559.9
274.0689,138.1
274.0924,1799.9
274.1209,471
274.3822,280.8
274.4599,486.2
274.5462,491.3
274.6269,209.8
274.638,200.8
274.7216,117.7
274.762,274.9
274.7837,311.6
274.792,1637.2
274.854,84.2
274.9157,258.3
274.9646,653.7
274.9823,47.2
275.0771,816.4
275.0994,527.8
275.1079,644.7
275.1479,995.9
275.1645,27.5
275.2192,348.5
275.253,581.9
275.2872,146.6
275.4604,169.8
275.6077,522.5
275.6631,156.6
275.8429,382.7
275.9273,466.3
275.9332,147.3
276.0003,157.7
276.0036,709.8
276.0843,38.8
276.196,232.5
276.215,491.3
276.2872,346.8
276.3201,880.3
276.3693,172.9
276.4767,319.8
276.4878,183.4
276.6116,117.3
276.6283,18.4
276.6926,203.5
276.7905,584.2
276.8193,562.9
276.876,474.1
276.9099,22.3
276.9229,1807.6
276.969,18.4
276.9882,161.8
277.0289,551.8
277.0452,188
277.1841,92.2
277.2426,82.1
277.4634,87.4
277.4737,158.4
277.5189,85.3
277.5472,436.1
277.5997,85.2
277.6228,23.6
277.7103,16.8
277.8884,269.9
278.0001,28
278.0189,321.1
278.0244,155.8
278.048,85.2
278.0553,23.3
278.1076,431.9
278.2464,98.4
278.2793,659.2
278.64,524.6
278.6956,426.2
278.7555,143.8
278.8352,551.3
278.8468,57.1
278.8716,94.4
278.8923,796.3
278.9185,456.5
278.9287,663.6
278.9869,1391.4
279.0041,1134.4
279.0566,41517.1
279.0885,288.1
279.3254,489.6
279.3635,385.8
279.3786,274.1
279.499,84.1
279.6472,798.5
279.6849,530.3
279.7073,786.8
279.8132,162.7
279.863,464.8
279.8661,436.8
279.8709,359.4
279.8834,77.9
279.9105,598.5
279.9157,1015.1
279.9206,342.7
279.9263,785.8
279.9773,412.6
280.0122,636.5
280.0597,695.9
280.0922,1193.1
280.198,860.2
280.239,633.1
280.3752,408.2
280.6091,256.8
280.8218,93.8
280.8269,2031.8
280.8776,110
280.9479,439.6
280.9625,1049.5
281.011,356.5
281.0172,23.3
281.0514,400.8
281.0592,571.6
281.1303,263.2
281.1545,450.9
281.4118,17.6
281.4207,70.7
281.4854,732.1
281.5706,435.7
281.6125,439
281.6628,797.6
281.7393,23.5
281.8124,415.7
281.8481,484.7
281.8598,570.1
281.9059,359.2
281.9286,21.7
282.0147,80.3
282.0509,27
282.0646,287.8
282.137,19.4
282.15,136.2
282.2581,99.7
282.2991,926.2
282.3036,484.1
282.411,197.9
282.5338,592.5
282.552,808.1
282.6999,159.8
282.8238,2723.2
282.8408,462.6
282.868,466.2
283.0179,182.8
283.0233,525.9
283.0277,1033.4
283.0372,185.3
283.2594,416.1
283.5542,381.2
283.7471,153.2
283.874,21.2
283.9526,277.5
283.9887,108.6
284.0039,93.3
284.0244,174.3
284.0503,442.3
284.063,115.8
284.0911,83.9
284.2923,97.2
284.3389,342.6
284.3528,101.4
284.4068,480.8
284.4308,638.2
284.6382,128.7
284.6568,133.8
284.6912,266.6
284.872,86.6
284.976,660.5
285.0228,425.1
285.0268,23.4
285.3054,462.9
285.4571,116.4
285.598,95.6
285.6254,783.9
285.8149,101.4
285.8701,498
285.9837,148.2
285.9881,597.6
286.0102,199.9
286.0198,3932.1
286.0444,19.2
286.0849,388.6
286.0959,40
286.1158,503.9
286.1271,226.8
286.2183,299.8
286.3254,322.2
286.3895,19.4
286.4333,86.2
286.4528,198.7
286.4949,434.5
286.5567,447.1
286.6979,330
286.7722,2204.5
286.9533,521.9
286.9755,159.8
286.9832,73.4
287.0232,587.4
287.0553,29787.5
287.1005,2252.4
287.2167,109.1
287.2251,409.9
287.3953,903.9
287.6457,139.3
287.6539,120.7
287.7297,477.7
287.7463,148.2
287.8391,141.9
287.9495,67.5
287.9951,17.8
288.0036,214.8
288.0155,121.4
288.0353,153.1
288.0584,670.8
288.076,136.8
288.0848,31.7
288.0915,116
288.1556,26437.4
288.1632,487.8
288.1753,495.5
288.2204,102.3
288.3721,484.5
288.493,228.5
288.5108,184.2
288.5211,699.2
288.5284,20.8
288.6106,486.3
288.6304,108.9
288.6982,251
288.7411,213.7
288.7688,2852.8
288.8281,353.9
288.8369,569.6
288.8759,683.9
288.882,797.4
288.8907,1001.8
288.8953,835.8
288.9026,2208.3
288.9094,2816.8
288.9183,5758.5
288.9228,7063.6
288.9261,6569.3
288.9329,8208.9
288.9406,12249.9
288.9446,13526
288.9491,14368.8
288.9528,14396
288.9618,19418.5
288.9704,20707.9
288.9778,18991.2
288.9833,15869.3
288.9901,13547.3
288.994,13758.7
288.9965,11626
289.001,8400.7
289.0072,9376.8
289.014,3636
289.02,2772.9
289.0312,520.1
289.0328,518.9
289.0457,707.6
289.0616,138.9
289.0872,737.1
289.1592,2286.8
289.1751,409.5
289.2279,864.9
289.4586,100.4
289.5067,60
289.6346,126.5
289.9365,1427.8
289.9709,23.5
290.075,136.1
290.1004,47.9
290.1279,691.2
290.2186,85.9
290.2371,504.9
290.4088,238.9
290.4126,103.3
290.6217,270.8
290.6554,539.4
290.7658,1740.1
290.7972,23.6
290.8347,23.6
290.8887,22.6
290.9404,202.6
290.9521,694.5
290.9774,24.1
291.0132,95.4
291.0266,2510.6
291.0515,197
291.3695,869.7
291.4005,454.6
291.4496,21
291.5636,19.3
291.5943,86.6
291.624,158.8
291.6657,317.6
291.8831,589
291.9051,497.7
291.9684,82.8
291.974,426.5
292.0572,134
292.0798,28
292.1451,191.7
292.1724,276
292.1923,594.5
292.4498,18.6
292.5333,338.2
292.5905,66.7
292.7987,168.5
292.8644,19.5
293.0724,2777.8
293.0823,18.8
293.0982,261042.8
293.1567,108.9
293.1789,2125.5
293.4447,901.7
293.6081,409.3
293.6669,619
293.694,691.8
294.055,168
294.1016,25364.1
294.2657,737
294.3152,347.7
294.3686,492.5
294.4812,395.8
294.4977,116.7
294.5402,18.6
294.7608,20.8
294.9181,77.8
294.9536,20.3
294.991,253
294.9979,272.7
295.0144,150.2
295.0305,1417.7
295.1023,353.4
295.1428,141.1
295.1646,453.1
295.1946,13748.1
295.5655,490.2
295.5842,243.7
295.6377,69.5
295.6767,18
295.768,237.7
295.7752,206.3
295.8572,167.1
295.9393,365.4
295.9769,91.6
296.0177,102.4
296.0258,22.5
296.0459,21.1
296.0679,407.7
296.104,450.9
296.1982,1118.7
296.4542,258.6
296.5069,24.3
296.5407,70.8
296.6848,20.8
296.7715,676.4
296.7742,732.1
296.8251,19.1
296.8838,64.3
296.9875,88.3
297.1452,789.5
297.298,16.6
297.3037,843.7
297.3152,91.8
297.323,244.1
297.387,437.1
297.3939,162.4
297.4072,372.5
297.5428,611
297.7428,21.4
297.7529,212.9
297.7624,1011
297.7886,850.3
297.8379,422
297.9581,481.6
297.9963,19.4
298.0254,1546.3
298.0423,14669.6
298.1004,20.9
298.1103,55
298.1506,162
298.2009,140.9
298.4143,312.8
298.6732,152.4
298.7263,993
298.9698,438.2
298.9867,31.1
299.0075,379.5
299.0226,2208.8
299.0456,325.8
299.1399,867.1
299.1941,160.4
299.1969,139.8
299.2786,413.4
299.3028,209
299.3053,185.5
299.4591,496.5
299.5371,274.7
299.5844,317.2
299.626,600.5
299.639,431.2
299.6727,593.7
299.8153,17.6
299.8943,793.6
299.9443,616.6
300.018,525.2
300.0354,1154.9
300.0752,250.1
300.1309,315
300.197,110.1
300.2483,441.4
300.2867,809.3
300.3047,72.2
300.3657,106.6
300.3706,127.5
300.5329,418.6
300.5853,20.2
300.6472,173.3
300.7142,78.5
300.7293,200.1
300.8125,1207.9
300.8818,149.4
301.0122,57.4
301.0385,24202.8
301.0667,99.3
301.0775,20.8
301.1147,615.6
301.1408,409.3
301.2112,2013.9
301.2437,78.1
301.2546,633.6
301.3731,79.5
301.4819,112
301.5981,19.5
301.6458,250.7
301.6894,91.6
301.8126,25
301.8286,591.2
301.994,7163.5
302.0199,1166.8
302.0362,207.5
302.0421,104.9
302.0511,259.9
302.064,2853.6
302.0731,24.9
302.1846,172.9
302.1991,20.1
302.4578,130.2
302.4645,20.8
302.5115,134.9
302.7527,542.6
302.7993,158.1
302.8295,3545.1
302.889,82.8
303.0272,622.8
303.0673,265.7
303.0741,5192.7
303.1081,285.6
303.1769,123.3
303.217,1184.9
303.2733,131.6
303.2987,532.9
303.3179,614
303.5946,666.1
303.7095,191.7
303.8771,20.4
303.8821,160.3
303.9238,223.3
303.9375,101.5
303.9859,399
304.0598,86.8
304.0918,1151.7
304.2382,726.9
304.2794,87
304.3451,442.7
304.401,318.4
304.6112,86.1
304.742,403.5
304.757,817
304.8129,29.3
304.8263,1328.5
304.8857,108.7
304.8967,543
304.9178,246.1
304.9767,635.3
305.0285,132.2
305.0401,758.1
305.1383,362
305.2327,1664.4
305.4783,111
305.5445,549
305.5907,91
305.8945,184.8
305.9097,242.5
305.9829,82.8
306.0578,485.3
306.0976,103.8
306.1936,366
306.2017,340.3
306.2844,371.6
306.4527,20.8
306.7029,203.1
306.842,29.4
306.9578,432.3
306.9772,710.1
307.3163,233.3
307.388,128.1
307.4265,984.6
307.5273,487.3
307.6635,19
307.7718,76.4
307.8919,205
307.9095,241.2
307.9217,152.3
307.9381,517.6
307.9571,529
307.9975,197.8
308.1428,100
308.1645,19.6
308.241,23.6
308.3298,204.1
308.4324,229.8
308.4477,69.8
308.456,254.3
308.4774,384.4
308.6813,351.3
308.8082,104.7
308.8535,23.4
308.8779,885.5
308.9098,714.1
309.0061,95.3
309.0374,3883.1
309.049,19
309.0825,4515.9
309.1513,107
309.3773,91.5
309.4132,19.4
309.7253,99.6
309.7847,17
309.8632,195.1
309.8849,310.2
309.9569,129.4
309.9713,501.3
310.0201,76.8
310.0633,374.5
310.1744,220.4
310.2784,120.5
310.2841,152
310.4511,459.8
310.5411,71.7
310.5995,209.2
310.7841,103.7
310.7944,751
310.8033,513.4
310.8116,295.6
310.8758,750.6
310.9079,245.2
311.0031,79.3
311.167,356
311.2281,95.4
311.2593,536.2
311.6007,206.1
311.6331,143.6
311.6876,19.8
311.7421,320.7
311.8924,632
311.999,56.8
312.0143,606.8
312.0192,267.3
312.0409,833.9
312.1213,263.1
312.1509,151.8
312.1656,722.3
312.1709,42
312.3206,440.7
312.4238,93.2
312.6253,355.5
312.7522,95.3
312.7931,564.6
312.8029,23.5
313.0106,673.7
313.0177,187.5
313.1805,95.3
313.2119,134.2
313.2389,919
313.274,40648.2
313.3362,235.8
313.361,142.1
313.3843,131.8
313.3926,400.8
313.5832,131.2
313.604,275.1
313.6641,334.6
313.6815,728.9
313.7064,136.9
313.9045,183.6
313.9994,483.6
314.0146,5430.1
314.0273,426
314.051,377.2
314.0761,297.6
314.0885,211.8
314.1207,420.9
314.2775,4428
314.6245,156.7
314.6869,510.5
314.7797,292.7
314.7983,32.3
314.8368,5273.9
314.8632,204.6
314.9183,21.3
314.9741,178.4
314.999,4867.5
315.0181,424.5
315.0347,156.5
315.0552,10423.4
315.0595,1768.8
315.0621,3199.4
315.0662,14023.7
315.0697,17639.7
315.0801,7805275
315.0898,13197.3
315.092,9470.5
315.0939,4890.2
315.0966,6042.3
315.0983,4998.8
315.1005,2733.1
315.1026,2442.1
315.1069,585.1
315.1093,578.7
315.1108,583.3
315.1237,134
315.1278,129.6
315.1612,3627.6
315.2097,94.7
315.2614,94.9
315.3237,6657.5
315.4443,172.4
315.5352,430.3
315.562,483
315.6263,564.6
315.6417,297
315.8881,19.9
315.904,20.4
315.9447,42.4
315.9783,619.7
315.9994,140.8
316.0103,130.3
316.0184,29
316.0529,51.4
316.0585,20.2
316.0686,144.9
316.0774,45602.9
316.0835,802318.4
316.1292,184.6
316.1883,466.6
316.2494,770.3
316.6464,74.9
316.7974,33.6
316.8722,63.8
316.9612,94.2
316.9873,1183.8
317.0564,725.1
317.0649,1063.5
317.084,88851.9
317.1387,632.1
317.1814,333.4
317.5654,491.4
317.6342,210.9
317.6627,723.4
317.7956,223.3
317.8005,248.3
317.9001,454.7
318.0224,95.3
318.0469,18.9
318.0876,8769.2
318.3042,80.2
318.4008,92.9
318.5427,1159.1
318.6291,131.7
318.7924,574.6
318.8035,1568
318.827,573.5
318.8527,17.8
318.8612,82.8
318.9391,456.1
319.1193,111
319.1342,19
319.1491,472.4
319.1946,30299.8
319.2138,74.3
319.3953,393.3
319.4373,124.4
319.6133,221.4
319.6237,735.6
319.7711,566.3
319.8163,104.7
319.9038,249.5
319.9432,326.5
319.9505,105.8
320.0075,145.3
320.0354,881.6
320.0745,84.9
320.1889,166.3
320.1978,3479.6
320.2587,2903.8
320.2673,138.2
320.3685,18.2
320.3802,488.2
320.4357,127.1
320.4453,592
320.4524,848
320.4692,637.1
320.5769,404
320.6343,798.2
320.6602,476.9
320.763,119.4
320.8006,1432.1
320.809,376.5
320.8307,25.8
320.9759,288.2
320.9907,736.6
321.0591,449.6
321.0695,269
321.1407,430.2
321.1744,221.1
321.2103,30865.6
321.2632,239.1
321.3064,423.9
321.3226,722.7
321.3757,217.5
321.3987,98.3
321.4348,725
321.538,104.5
321.6302,374.7
321.6943,549.4
321.8156,19.9
321.9967,48
322.0091,111.6
322.0608,637.1
322.1101,844.6
322.214,2130.6
322.2467,433
322.3689,202.3
322.3866,192
322.4365,125.3
322.455,90.7
322.5904,285.1
322.7404,189.6
322.751,114.1
322.983,139.4
323.0204,9593.7
323.226,1347
323.2537,181.8
323.2652,461
323.2722,745.1
323.3296,212.1
323.4154,20.1
323.4906,184.3
323.6004,322.5
323.6661,143.9
323.7243,567.1
323.7376,831.2
323.9847,137.4
324.0018,9550.5
324.4558,127.4
324.6734,814.2
324.6825,4070.2
324.6892,5021.2
324.6951,3417.1
324.7087,503.4
324.7459,119.8
324.8541,795.7
324.8799,119.8
325.001,233.3
325.0566,1172.3
325.1841,19.9
325.2117,2377.6
325.2528,114.9
325.4046,71.8
325.5277,101.7
325.661,111.8
325.8332,62.4
325.842,21.5
325.9901,198
326.0041,68.5
326.184,184.4
326.3735,244.8
326.4653,539.3
326.5694,91.6
326.6828,422.8
326.7331,147.5
326.7604,137.9
326.8177,154.8
326.8496,425.4
326.8785,867.3
326.9108,544.7
326.9121,570.2
326.9345,224.8
327.0153,2826.1
327.0519,1262.6
327.2189,19
327.2271,7040.8
327.3786,176.5
327.5292,19.8
327.559,18.7
327.5852,880.4
327.8644,20.8
327.8793,141.9
327.953,416.5
328.0305,21.7
328.1238,247.9
328.1822,210.1
328.3507,514.9
328.4576,18.7
328.5063,781.9
328.6272,126.9
328.6768,492.6
328.7038,288.2
328.8391,126.9
328.951,20.7
329.0957,318
329.415,145.9
329.7321,623.2
329.7498,401.7
329.7941,96.4
329.8225,22.1
329.8413,559.5
329.9781,20.8
330.0198,263.6
330.0587,75.2
330.1232,895.7
330.1628,501.7
330.3725,569
330.7558,545.5
330.8661,96
331.0453,81634.3
331.0541,1019036.9
331.0862,128.4
331.1805,510.3
331.3317,721.2
331.4327,161.6
331.5341,135.3
331.7531,447.2
331.7998,110.5
331.8166,187.2
331.8808,125.2
332.0255,34.4
332.041,97.9
332.048,4499.1
332.0574,93118.4
332.1218,804
332.1916,17.3
332.3883,80.7
332.4628,634.8
332.5477,868.8
332.6592,215.8
332.7396,336.7
332.7812,453.5
332.7925,18.5
332.8396,257.9
332.8553,20
332.9605,694
333.0522,61465.1
333.0578,9873.3
333.0747,172
333.1517,132.8
333.1585,89
333.172,72.3
333.3104,271.4
333.5421,126.3
333.5563,938.2
333.6728,21.6
333.7379,454.3
333.9084,147.7
333.9668,478.4
334.0556,4279
334.0901,29.5
334.1179,443.3
334.17,770.5
334.2175,96.7
334.2438,60.4
334.5461,21.2
334.5568,252.8
334.6342,626.1
334.7015,95.8
334.8373,23.2
334.9046,379.7
334.9431,188.3
335.0543,113.7
335.0977,98.4
335.1672,2193.1
335.1884,495.6
335.3066,21.7
335.3196,127.6
335.714,438.2
335.761,158.1
335.8289,333.8
336.0099,349
336.0268,220.9
336.0429,19.4
336.0967,738.5
336.1408,185.7
336.1704,125.7
336.1935,389.1
336.3265,507.2
336.386,267
336.6547,257.5
336.721,139.3
336.7227,142.5
336.7261,92.3
336.7724,423.6
336.8329,180.3
336.8672,367.6
336.9737,207.2
336.9836,17.6
337.0362,15374.4
337.0497,22267.6
337.0621,576915.7
337.1213,682
337.1822,1660.2
337.2741,11857.1
337.2852,223
337.3155,311.3
337.3789,338.3
337.4104,133.7
337.5999,84.5
337.6858,64.9
337.781,142.6
337.8289,102.5
337.998,114.8
338.0499,504.9
338.0654,52280.5
338.1325,19.3
338.1863,28.7
338.2774,1222
338.3015,85.4
338.3418,26.2
338.5803,543.1
338.8107,223.5
338.9218,456.1
339.0381,2131.3
339.0472,876.5
339.0662,3868.2
339.0966,67
339.1986,102.9
339.2897,8768.8
339.4784,300.1
339.498,464.5
339.6767,655.6
339.7395,422.7
339.8114,462.9
339.9407,64.6
339.9668,651.4
339.9758,1234.5
340.2963,134.8
340.327,614.3
340.3576,18.9
340.3694,92.1
340.4467,17.4
340.5624,153.2
340.6413,203.9
340.6743,129.1
340.6806,541.6
340.753,23.5
340.7836,632.5
340.8303,367.8
340.9511,185.2
340.9863,600.8
341.0184,171.8
341.031,324.9
341.0982,19.5
341.1402,538.7
341.1667,216.6
341.1963,106.8
341.2414,137
341.3055,6689.8
341.3468,606.1
341.417,105.3
341.6133,132.2
341.6631,244.6
341.9031,717.2
341.9741,215.1
341.9889,322.8
341.9985,107.8
342.0153,9485.3
342.1016,609.7
342.2962,715.4
342.309,1042.8
342.3772,136.2
342.4919,145
342.7225,448.1
342.7332,888.9
342.7899,135.4
342.8215,407.2
342.8937,100.5
342.9894,1633.2
343.0196,104.6
343.0805,343.1
343.0875,117
343.1092,23.8
343.1949,13011.7
343.2367,311.5
343.2598,528.1
343.2654,192.6
343.338,703.5
343.4519,459.1
343.4752,111.8
343.6827,19
343.7648,206.8
343.8436,128.6
343.9126,467.5
343.9884,612.6
344.1788,85.8
344.198,937.7
344.4114,285.8
344.624,735.5
344.7792,392
344.973,117.9
345.21,1227.8
345.2979,468.5
345.3526,138.3
345.361,447.4
345.3996,1000.9
345.6596,114.5
345.8908,352.1
345.9286,86.2
345.9838,42739.8
345.9957,449.8
346.0102,32.8
346.0209,482.5
346.0409,170.3
346.0563,41.8
346.1697,417.2
346.2139,1025.3
346.2471,456.5
346.3866,202.1
346.4064,71.6
346.4513,670.2
346.5909,390.3
346.7186,106.6
346.798,125.1
346.8838,173
346.8997,211.9
346.9873,1872.6
347.0176,3525
347.0347,112.9
347.0858,23.4
347.2724,218.1
347.3796,460.2
347.4573,20.3
347.5149,143.7
347.5319,18.5
347.7401,97.8
347.8774,20.5
348.6455,84.3
348.8016,61.2
348.8139,616
348.8886,595.7
349.0181,1126.5
349.1017,435.1
349.2904,424.3
349.479,64.2
349.8495,145.1
349.9052,486.9
349.9126,216.8
350.1205,560.3
350.2552,319.3
350.3915,194.4
350.5361,257.8
350.6865,307.4
350.7273,187.7
350.8101,905
350.9968,141.7
351.0135,363.3
351.2337,18.5
351.5273,187.3
351.5956,26.9
351.6236,761.6
351.6344,18.3
351.7724,148.2
352.0112,102.1
352.1228,191.4
352.294,22.8
352.4286,142.4
352.4628,561.7
352.5026,82.7
352.6484,372.3
352.818,22.3
352.8353,22.3
352.8976,1063.4
353.0272,127257.1
353.0361,230537.8
353.1897,259.2
353.3706,192
353.5359,18
353.5469,20.9
353.6677,246.4
353.761,213.5
353.9136,129.2
353.9819,94.8
354.0303,9294.9
354.0394,22012.4
354.0886,671.1
354.1441,20.2
354.1664,21.6
354.3103,254.8
354.3539,297.8
354.4059,388.6
354.4906,901.7
354.6556,24.2
354.723,99.2
354.7365,157.6
354.7785,226.8
354.845,21.9
354.8634,457.4
354.9764,426.1
355.0119,886.4
355.0343,13030
355.0704,1192.2
355.1239,550.6
355.2897,201.7
355.3996,86.9
355.7691,244.4
355.8747,193.3
355.9039,129.9
355.9384,118.6
355.9804,902.6
356.0147,61.1
356.0701,267.3
356.61,289.6
356.6168,70.7
356.7776,569.1
356.8593,17.9
356.8808,423.2
356.909,99.6
356.9427,92.3
356.9607,949
357.0088,305.1
357.0664,54.6
357.1158,359.1
357.1516,453.7
357.2704,459.9
357.2764,514.8
357.3567,966.9
357.5932,113.2
357.693,1197.8
357.707,852.5
357.7199,107.5
357.8505,237.7
357.9775,1489.2
358.0087,23.3
358.1572,349.8
358.2364,132.8
358.5287,18.7
358.6636,486.2
358.7797,113.2
358.867,503.4
359.0073,185
359.0316,19409.8
359.0441,420726.6
359.0958,200.5
359.1546,231.7
359.1659,1458.8
359.2521,201.3
359.276,283.6
359.314,226.4
359.3247,966
359.3332,851.1
359.3403,713
359.3486,739.3
359.368,630.1
359.3701,590.6
359.3874,1002
359.4003,1341.1
359.4108,777
359.4206,2270.7
359.4356,312.8
359.4554,21
359.4766,150
359.4825,168.4
359.6193,705.5
359.8587,717.4
359.8632,581.6
359.9619,112.3
360.0349,202.8
360.0474,40026.6
360.1241,101
360.3239,118.7
360.343,650.6
360.3622,110.1
360.4248,87.7
360.4378,554.7
360.5379,378
360.7188,187
360.7316,80.4
360.8294,463.5
360.8756,292.2
360.9712,217.6
361.0002,518.2
361.0203,6107.4
361.0475,1398.7
361.1834,84.2
361.2146,148.9
361.274,1617.2
361.3108,548.8
361.9578,12328.5
361.9932,545.5
362.1973,112.6
362.2779,19.5
362.3418,72.9
362.5996,157.6
362.7261,252.3
362.7611,610.6
362.8999,227.7
362.927,1133.7
362.9618,271
362.9944,138.2
363.4381,154.7
363.5437,344.4
363.5688,368
363.5802,159.6
363.6658,19.6
363.8267,92.9
363.9564,236.5
363.9973,2847.7
364.0832,508.2
364.3211,607.6
364.3437,188.3
364.3645,144
364.3723,349.3
364.5484,18.1
364.5662,66.2
364.6836,409
364.994,809.7
365.1058,24202.4
365.2923,152.1
365.415,638.9
365.5223,246.5
365.5565,849.4
365.7399,633.4
365.9696,91.3
365.9862,93.9
365.9944,18.4
366.1105,885.8
366.2238,20.4
366.2925,934.7
366.8435,93.1
366.8727,224.5
366.8987,20.6
367.1159,85.6
367.1647,273.4
367.1949,1636.8
367.6412,106.5
367.7184,333.5
367.8002,99.4
367.9131,420.5
367.9918,1579.1
368.0027,890.9
368.0465,841.2
368.1229,509.2
368.2056,348.3
368.2168,18.6
368.3127,465
368.383,481.3
368.5948,432.2
368.7105,107.9
368.8743,21.2
368.9028,242.9
368.9917,1082.6
369.0007,15915.4
369.0099,8420.7
369.1894,183.5
369.7695,459.5
369.9805,175.9
370.004,128.3
370.2731,333.1
370.302,21.2
370.4332,113.4
370.5149,221.3
370.7683,64.2
370.8268,95.6
370.9999,2694.3
371.0853,132.6
371.1009,29.6
371.1744,141.1
371.291,173.3
371.3566,122.5
371.6312,1072.4
371.9171,323.2
371.9266,95.1
372.2818,89.5
372.3772,406.4
372.4181,20.7
372.429,416.7
372.4958,371.7
372.6764,373
372.7282,86.8
372.9755,480
373.0448,21.8
373.204,85.8
373.2649,138.4
373.5149,68.3
373.7128,310.6
373.8134,549.7
373.9282,791.5
374.0234,323.3
374.225,148.6
374.4718,617.8
374.5243,19.8
374.5374,160.3
374.5678,128
374.6432,146.4
374.6515,278.6
374.6878,445.1
374.8788,340
375.0091,133947.4
375.018,126804.1
375.0773,88.2
375.116,500.3
375.4619,386.6
375.5757,178.3
375.8228,18.3
375.9644,53.3
375.998,212.3
376.0125,7660.1
376.0212,12196.9
376.2759,107.2
376.2849,456.5
376.4282,69.3
376.4986,278
376.5883,86.9
376.9368,291.5
376.9507,706.9
376.9942,2229.9
377.0164,5974.5
377.1835,130.2
377.2576,163.9
377.7651,19.5
377.7739,18.7
377.9318,979.2
378.0922,868.1
378.3348,169.9
378.3589,465.3
378.4796,511.1
378.6568,829.5
378.6753,423.7
378.7341,446.6
378.763,607.5
378.856,592.7
378.901,991.5
379.0483,297.9
379.0773,598
379.0894,86.7
379.1565,638.5
379.1773,499.1
379.2119,18.3
379.2386,18.9
379.3876,932.1
379.6431,121.2
379.6548,91.6
379.7413,120.5
379.7752,816.2
379.9417,210.7
380.3614,355.5
380.5628,947.1
380.7699,816.5
380.8002,127.4
380.848,18.7
381.0135,28635.8
381.026,250456.3
381.0798,6680
381.3181,406.6
381.4111,98.3
381.4783,720.5
381.6453,144.1
381.7267,107.6
382.0166,376.7
382.0293,22310.5
382.3514,18.6
382.3911,928.3
382.4152,23.8
382.4869,544.3
382.5532,232.5
382.7675,1271.8
382.8644,247.7
382.8933,432.2
382.9511,25.2
382.9717,232.4
383.0005,547.2
383.0194,526.8
383.0305,583.5
383.1163,142575.2
383.1683,72
383.2254,159
383.2296,403.6
383.635,138.2
383.6827,106.5
383.7252,465.2
383.8547,21.6
383.9657,1552
383.9785,18.1
383.9859,132.6
384.1197,13742.4
384.9739,283.7
385.1107,617.9
385.4637,24.3
385.6248,324.1
385.7926,574.4
385.8518,330.4
385.8728,96.4
385.9452,24.6
385.9792,15133.3
386.6756,489.2
386.6882,490.9
386.7076,388.9
386.8547,19.2
386.9208,312
386.9773,110.7
387.2025,108.1
387.3363,185.7
387.4066,423.5
387.5381,287.3
387.5673,185.3
387.627,232.5
387.6861,617.3
387.7077,191.8
387.8495,182.8
387.977,1931.2
387.9915,751.3
388.1433,680.7
388.1858,2703.4
388.2192,103.2
388.2923,178
388.3508,90.4
388.4843,90.1
388.6451,88.6
388.6823,122.6
388.7121,1143.1
388.9356,196.9
388.9642,242.7
389.0197,716.3
389.0665,306.7
389.2163,176.3
389.2409,652.7
389.359,56.5
389.4412,183.9
389.4496,95.7
389.6631,239.2
389.6755,553.5
389.9258,109.9
389.9736,44417.1
389.9839,215.5
389.9979,821.4
390.0601,414.5
390.3944,213.6
390.5,546.4
390.7991,1024.6
390.8577,551.7
390.8783,529.2
390.9285,18.2
390.9551,1185.8
390.9742,7782.1
390.9828,27564.4
390.9918,14176
391.0707,19
391.3227,921.6
391.3368,1274.5
391.368,21.6
391.4086,18.6
391.4371,97.2
391.5933,121.7
391.9757,128.4
391.9863,690.2
391.9951,114.3
392.2672,277.6
392.27,256.8
392.2746,195.3
392.3229,19.5
392.3916,271
392.4755,201.9
392.5236,84.6
392.6826,148.9
392.7959,2283
392.9818,3186.6
393.1083,251
393.4027,218.2
393.4102,434
393.7351,98.8
393.8491,145.8
394.2173,86.4
394.2502,672.1
394.4923,226.2
394.5023,304
394.5278,129.4
394.7932,419.7
394.8078,89.5
394.8537,18.4
394.9764,558.5
395.149,364.8
395.254,113.9
395.293,482.3
395.3982,632
395.4932,69.2
395.6988,639.3
395.7608,83.5
396.143,642.8
396.2995,17.2
396.3349,307.2
396.4336,19
396.4462,87.1
396.5953,164.7
396.617,82.2
396.6649,214
396.744,1909.9
396.7647,161.3
396.9911,166132.6
396.9999,83892.8
397.1232,96.9
397.1546,110.7
397.4923,86.7
397.5357,187.1
397.5436,93
397.5834,256.5
397.9259,118.2
397.9673,25.3
397.9943,10582
398.003,5538.8
398.1137,423.2
398.1827,19
398.242,3849.1
398.287,20.3
398.4068,473.6
398.4399,96.1
398.4666,153.9
398.568,72.4
398.5785,361.8
398.6871,196.9
398.7407,1561.1
398.8214,512
398.9048,509.8
398.9856,136.4
398.9983,971.1
399.1508,367.2
399.2144,21.3
399.3051,663.7
399.3576,302.6
399.4476,378.6
399.6304,24.4
399.7795,21
399.9078,127.6
399.9255,282.7
400.0078,20.6
400.0172,479.5
400.0979,761.6
400.49,137.3
400.6366,473.3
400.6522,20.9
400.7992,515.7
400.8269,534.6
400.9356,19.7
400.9708,944.2
400.9822,464.3
401.0951,214.6
401.1147,396.1
401.394,226.8
401.5084,73.9
401.6337,137.1
401.6611,182.8
401.6964,77.2
401.8205,106.5
401.9532,3835.2
402.0542,458.2
402.1087,498.3
402.1555,362.2
402.2807,124.4
402.5101,22.8
402.5194,122.1
402.6681,22
402.6906,488.2
402.8111,437.2
402.9213,89.6
402.9345,268
402.9456,169.5
402.9912,626.2
403.0079,262336.6
403.0768,161.4
403.1265,619.3
403.1993,522.1
403.4788,443.7
403.6064,133.1
403.6701,209
403.6841,418.2
403.9427,1494
403.953,390.4
404.0111,22908.4
404.0423,88.5
404.0588,203.3
404.0762,404.6
404.1543,248.3
404.1953,147.2
404.3608,267.6
404.521,110.7
404.6507,18.4
404.8968,110.4
405.0133,497.9
405.029,275.3
405.1415,169.4
405.165,466.3
405.1923,389.1
405.2422,120.9
405.4896,519.7
405.5117,462.4
405.7101,205.3
405.9475,26413.6
406.0814,317.6
406.163,112.1
406.2137,602.1
406.2245,346.1
406.3108,92.3
406.3295,892.6
406.3388,193.7
406.3483,83.4
406.4273,158.6
406.4667,134.7
406.6827,568.2
406.8108,331.6
406.9546,1353.3
407.2489,167.5
407.3324,126.3
407.8276,20.3
407.9451,264.2
408.0205,21.7
408.139,219.7
408.178,59.2
408.3545,61.3
408.4956,106.6
408.5321,171.3
408.7082,93.7
408.7694,1165
408.9449,649.8
408.955,158.3
408.9846,2428.5
409.1032,146
409.1645,327.7
409.3851,499.5
409.5153,412.3
409.7015,286.3
409.7741,81.8
409.934,169.5
409.9714,17.6
409.9997,81.3
410.1205,255.5
410.2744,169.5
410.5021,325.9
410.5404,927.9
410.5857,185.8
410.6069,439.9
410.6268,601.8
410.8226,571.9
410.84,447.2
410.9209,24
410.9795,410.9
411.0782,264.9
411.1969,17.3
411.2459,334.9
411.4128,112.8
411.7221,489.3
411.9662,188.9
412.0816,94.2
412.3215,2773.8
412.3463,519.2
412.6095,310.6
412.6715,201.3
412.7786,925.8
412.8915,192
412.9232,366.7
412.9389,94.2
412.9644,43370.1
412.9737,15099.1
413.0023,89.9
413.0632,82.8
413.0905,792.1
413.1233,322.8
413.2666,4308.2
413.3025,170.5
413.3247,168.1
413.648,105.3
413.7482,168.1
413.7809,126.6
413.8736,17.6
413.939,225.9
413.9674,294.5
413.9777,102.9
414.0326,114
414.1089,150.8
414.2699,240.3
414.3031,410.2
414.4321,352.9
414.7149,1126.3
414.7265,441.4
414.7861,61.2
414.8545,190.1
414.9015,684.6
414.9279,450.1
414.9635,2116.8
414.9744,302.1
414.9976,1951.9
415.037,77.7
415.1042,474.5
415.1357,115.8
415.2715,22.1
415.4905,78.6
415.5702,478.9
415.9785,32.2
416.037,27.9
416.1351,7505.5
416.2142,18357.2
416.6044,558.6
416.7103,22.1
416.7748,835.1
416.9593,98.9
417.0809,377.4
417.2176,2519.2
417.2549,22.8
417.2988,371.1
417.7709,243.2
417.9178,260.7
418.0192,204
418.2953,83
418.5183,391.9
418.5711,411.4
418.7158,113.1
418.7301,91.5
418.751,90.4
418.9275,89.6
418.9819,100733.5
419.2574,1076.3
419.2971,289.2
419.5036,129.4
419.5864,98.1
419.9184,151.9
419.9548,23.5
419.9853,7690
419.9988,24.8
420.3566,90.2
420.5551,484.4
420.8849,726.9
420.8921,314.9
420.9572,894.2
420.9798,3443.8
421.0065,648.1
421.1732,522.5
421.516,114.1
421.7148,178.9
421.9216,9682.5
421.9385,292.4
422.0782,526.7
422.3022,370.3
422.4417,784.2
422.6461,108.3
422.6761,836.8
422.6973,635.8
423.0313,19.4
423.2961,339.1
423.9203,153.6
423.9508,18.7
424.1597,839.3
424.221,184.1
424.349,334.8
424.4711,443.2
424.578,21.9
424.6395,491.2
424.6885,105.8
424.6984,167.8
424.7217,476.6
424.7438,957.6
424.815,370
424.9172,133.8
424.9533,589.1
425.0291,59.9
425.4237,133
425.4414,291.9
425.586,673
425.6807,295.1
425.7687,183.8
425.7756,98.7
426.1588,102.6
426.2984,679.8
426.4528,25.8
426.4741,174.4
426.6958,490.6
426.7409,498
426.7689,201
426.7769,248.9
426.8284,439.5
426.9419,114
427.0152,193.9
427.1363,17.6
427.188,908.9
427.2747,21.7
427.3006,618.3
427.3134,130
427.3257,402
427.3676,471.3
427.6238,772
427.7832,137.6
427.809,111.3
427.9701,412.6
428.0672,169.8
428.2439,128.1
428.318,469.2
428.8746,177.7
428.9076,19.7
428.9375,6645.9
428.9929,541.2
429.0587,856.4
429.0738,808.7
429.0873,1877.5
429.3147,251.8
429.3209,119.7
429.4801,18.4
429.6478,439.9
429.709,229.5
429.9408,106.7
429.9974,96.3
430.0304,92
430.0881,28.1
430.1651,459.8
430.2609,19.7
430.2803,286.3
430.4207,171.6
430.5555,92
430.5684,910.7
430.6303,409.4
430.6968,510.1
430.9144,857.6
431.0858,58.6
431.2172,5810.5
431.3066,212.8
431.3569,244.3
431.3848,109.4
431.3936,135.3
431.4854,262.1
431.5093,241.2
431.6415,224.6
431.7626,566.7
431.7763,572.6
431.7882,19.5
431.9546,900.2
432.1359,396.1
432.2579,566.5
432.3389,1005.8
432.5438,765.4
432.7315,279.5
432.7704,21.5
432.9663,206.5
433.171,196.6
433.2493,21.7
433.2952,99.1
433.363,561.4
433.4785,136.7
433.9477,126.2
434.0043,849
434.0145,18.3
434.0556,18.1
434.1139,19.7
434.1539,604.2
434.5333,158.7
434.6325,160.2
434.6638,697.9
434.7379,537.6
434.8456,330.6
434.9559,20016.3
434.9773,64.8
435.2379,77.4
435.2701,278.4
435.5843,388.9
435.6585,110.8
435.692,579.6
435.7301,440.9
436.5064,88.8
436.5815,144.6
436.6668,584.9
436.8156,885.9
436.8583,693.2
436.9536,1288.2
437.0516,801.6
437.1692,335.5
437.2056,1341.4
437.5997,128.3
437.9151,822.2
437.9904,362.1
437.9929,366.2
438.1797,23.4
438.2701,20.2
438.2946,22
438.5471,183.9
438.6977,275.7
438.8248,393.9
438.9097,525
438.9719,2767.2
438.9845,6701.8
439.0121,275.5
439.1015,23.4
439.2219,860.3
439.3665,399.4
439.4362,494.5
439.5909,353
439.7302,18.6
439.7488,78.7
440.3222,139
440.5596,542.6
440.7244,337.7
440.8454,20.4
440.9434,131.6
440.9809,602.2
441.0676,417.2
441.1385,20.3
441.2972,268.4
441.3654,21.4
441.4226,104
441.4464,189.6
441.4653,100.4
441.5826,415.8
441.7534,418.5
441.7992,115
442.0953,23.1
442.1793,106.5
442.276,450.9
442.3009,31.6
442.358,186
442.5185,374.6
442.6487,527.4
442.716,70.4
442.7957,604.6
442.9653,90.1
442.9841,476.2
443.0077,91.1
443.0793,144.7
443.1121,436.1
443.2107,272.6
443.2556,91.3
443.3327,168.6
443.3479,104
443.3917,127.5
443.5963,18.6
443.7707,311.9
443.9374,371
443.9723,77.4
444.1282,709.4
444.1901,416.9
444.1957,483.6
444.1985,444.5
444.6007,560.3
444.7713,334.1
444.912,555.9
444.9345,889.3
445.1392,18.9
445.2321,1383.3
445.27,1288.5
445.3854,186.5
445.8908,560.6
446.2032,20.9
446.2598,18.8
446.3257,405.1
446.4181,180
446.4982,198.4
446.6037,134.4
446.6703,452.9
446.9584,740.4
447.091,99.9
447.1553,24.3
447.2373,506.4
447.5319,640.2
447.6249,222.5
447.814,130.8
447.835,436.8
447.9323,5065.1
448.0751,96.7
448.1201,19.6
448.2553,594.9
448.5753,125.4
448.5813,139.1
448.7375,152.2
448.9322,3020.7
449.0013,661.9
449.1086,172.4
449.1542,2526.7
449.3316,191.4
449.3539,283.5
449.3655,64.6
449.5307,124.2
449.6466,280.6
449.7535,107.7
449.8078,720.1
449.8972,189.9
449.929,212
450.0499,365.1
450.1574,470.5
450.2651,520.6
450.2779,21.1
450.5363,540.1
450.6007,98
450.754,545.2
450.8518,408.1
450.9298,1066.3
451.1501,137.6
451.4449,334
451.5006,107.3
451.5379,502
452.0452,342.1
452.1376,130.9
452.2927,934.6
452.5274,357.9
452.7145,631.7
452.9393,125.6
453.0734,709.7
453.1431,318.9
453.2244,370.2
453.3558,116.8
453.3982,415.8
453.5509,147.4
453.6323,122.3
453.6735,98.3
453.9031,796.9
453.9279,88.7
453.9726,24.6
454.0629,65
454.114,115
454.2353,527.1
454.3704,212.5
454.5125,97.4
454.5856,600.9
454.7433,297.7
454.936,29.4
454.9498,37044.2
455.2212,188.2
455.5323,20.2
455.6115,20.7
455.7594,358.6
455.7884,118.9
455.8037,84.7
455.8343,392.2
455.8847,271.4
455.9306,887.7
455.9531,405.1
456.0978,88.7
456.2327,115.2
456.5325,598.8
456.6189,605.4
456.6997,470.2
456.7421,236.5
456.8413,115.9
456.947,5785.4
456.9853,356.7
457.0701,355.2
457.1059,225.4
457.2329,11263.4
457.4623,687.7
457.5471,406.5
457.8419,24.8
457.8877,138.4
457.958,86.3
457.9647,23.5
458.1427,19.5
458.2363,649.4
458.2718,202.8
458.4884,214.2
458.697,505.2
458.9324,19.1
458.9608,404.2
459.0217,301.2
459.0463,137.9
459.1647,129.2
459.2485,386037.8
459.3017,189.6
459.503,594.5
459.6285,817.9
459.6558,309.9
459.8736,462.9
459.9286,380.6
459.9848,423.9
460.0611,105.4
460.0848,236.7
460.1509,429
460.227,672.7
460.2518,83817.7
460.4382,511.2
460.5663,18.7
460.9665,80934
461.2549,5099.8
461.3254,600
461.7008,23.2
461.9285,21.1
461.9697,3886.5
462.125,23.6
462.1798,166.9
462.3066,322.9
462.3468,19.4
462.4352,131.6
462.4554,192.7
462.4924,117
462.5661,176.3
462.887,130.5
462.9635,20483.9
463.0816,270.7
463.0945,240.3
463.143,308.4
463.1964,194.8
463.2054,530.2
463.2184,1348.6
463.3695,168.9
463.4639,496
463.6516,267.9
463.9066,2109.9
463.9421,163.3
463.9678,1379
463.9811,265
464.0235,312.6
464.0426,342.1
464.0586,802.2
464.6976,176.4
464.7889,863.5
464.8009,528.8
464.8877,470.5
464.9103,93.5
464.9284,93.7
464.9784,8323
465.0465,112.2
465.1157,141
465.3169,137.5
465.5831,18.6
465.5994,317.4
465.6075,689
465.6379,1007.2
465.6834,436.4
465.9029,132.6
466.0637,171.3
466.1612,180
466.4498,88.9
466.5,313
466.5294,1011.3
466.6642,448.2
466.8156,289
467.1101,424.8
467.1574,251.7
467.2361,217
467.5844,87
467.648,428.3
467.6793,732.7
467.696,158.4
468.0223,361.2
468.1098,69.6
468.3089,2367.2
468.706,115.5
468.7684,594.6
469.1463,519.6
469.1675,760.2
469.263,126.9
469.3273,19
469.4169,450
469.6181,141.1
469.6671,378.7
469.6939,81.1
469.9114,119
470.2649,92.1
470.2987,482.2
470.3233,99.5
470.4794,330.7
470.5506,368.4
470.5895,152.2
470.7167,252.5
470.8273,122.7
470.8387,21.6
470.9235,19094.7
470.955,20.5
470.9955,2521.9
471.4623,641.4
471.4865,108.3
471.6764,359.4
471.7349,560.2
471.7925,104.2
471.813,427
471.8901,638.9
471.9793,308.1
471.9972,631.5
472.011,244.7
472.1707,479.8
472.201,149.8
472.301,104.6
472.4165,881
472.5575,136.9
472.6314,252.6
472.8225,176.5
472.8566,119.4
472.9203,3143.2
472.9724,132.5
473.0481,258.7
473.0899,185
473.1385,20.3
473.1492,146.5
473.1754,105.7
473.2642,4016.5
473.8385,19.8
473.9227,187.5
474.0845,610.5
474.1515,341.6
474.2571,152.8
474.3211,276.6
474.3424,258.5
474.5668,124.5
474.5812,285.5
474.8213,520.5
474.8896,162.4
475.0203,92.2
475.1811,104
475.2223,21159.9
475.3217,18.7
475.3292,119.8
475.4067,154
475.4536,166.3
475.8764,65.5
475.9916,18.3
476.0551,18.9
476.0892,70.3
476.2258,1343
476.3149,762.6
476.3632,152.5
476.6209,130.6
476.6487,111.7
476.9405,46966.8
476.9751,639.8
477.1706,135.1
477.4064,109.3
477.4246,170.7
477.4879,425.2
477.5286,327.8
477.5675,445.9
477.5893,137
477.6151,475.1
477.6845,1041.9
477.709,248.7
477.7204,507.6
477.895,18.4
477.944,3504.9
478.3293,50217
478.5435,81.6
478.7055,454.6
478.7292,219.7
478.9377,13768.3
479.0023,851.8
479.0396,690.8
479.0959,56.8
479.129,221.9
479.2205,347
479.3328,7723.3
479.7694,169.9
479.8291,196.2
480.1387,613.3
480.2633,403
480.3074,224.2
480.3459,561.1
480.528,137.8
480.5419,321.7
480.844,112.7
480.9523,2543.4
481.028,88
481.0915,1660.2
481.2325,749.8
482.0007,699.9
482.0927,601.7
482.1795,677
482.3237,849.6
482.3497,129.1
482.3654,139.3
482.5182,452.8
482.7835,95.8
482.8573,462.7
483.0873,30.1
483.1805,447.1
483.2485,156898.3
483.7466,166.3
483.7562,106.8
483.8016,180
483.8362,319.6
483.8703,454.3
483.9559,20.8
483.9997,751.2
484.1945,173.3
484.2172,65.6
484.2517,32406.1
484.4092,156.6
484.4421,18.4
484.7587,88.9
484.8126,252.2
484.8193,269.7
484.8764,108.1
485.0631,97.8
485.081,492.2
485.1063,710.3
485.2006,598.8
485.264,129270.9
485.5822,259.6
485.6788,19
485.7084,133
485.8064,448.8
485.822,276.3
485.8687,24.6
485.9114,86.7
485.9986,18.4
486.1799,90.7
486.231,437
486.2676,30124.6
486.4602,442.4
486.8836,93.4
486.8977,2582.2
486.9246,81.8
486.9401,707.9
486.9692,1498.3
487.2427,121.5
487.2468,125.8
487.2797,106737.2
487.3193,663.5
487.4141,205
487.5069,76.3
487.623,345.5
487.9013,18
487.926,563.5
488.0485,82
488.1825,420.5
488.2829,21613.4
488.4238,497.3
488.6373,450.7
488.6941,65.4
488.737,464
488.8718,80.2
489.0191,638
489.0392,549.3
489.078,889.7
489.0982,431.1
489.1132,1338.5
489.1267,89.5
489.1522,86
489.1758,18.7
489.2157,695.1
489.2864,815.3
489.2998,19.7
489.3534,267.2
489.3982,886.7
489.5512,146.8
490.0924,174.5
490.1822,425
490.2902,8396.3
490.3266,369.8
490.4643,778.9
490.4983,456.4
490.6649,905.3
490.6756,586.6
490.7775,292
490.9298,528.5
491.2337,356
491.295,743.6
491.4016,113.2
491.6492,208.5
492.1758,336.4
492.2585,118.5
492.471,162.3
492.9143,8288
492.982,494.3
493.0212,846.2
493.3851,129
493.5091,18.6
493.6001,70.3
493.7328,420.7
493.8178,148.6
493.8485,186.5
493.9575,247.9
494.3244,7755.6
494.3793,638.8
494.9121,4080.4
494.9675,393.5
495.2064,63.7
495.8604,134.9
495.9828,296.9
496.3399,478955.9
496.6627,459.3
496.84,92.8
496.8782,23.9
497.3433,121117.1
497.4321,121.1
497.4896,90.2
497.659,568.7
497.8398,19.2
498.2614,116.3
498.2992,91.5
498.3088,253.7
498.3469,6978.8
498.3649,20.8
498.4268,109
498.9288,1379
499.0077,21.9
499.2225,6618.9
499.3627,211.3
499.4226,108.6
499.5062,91.2
499.7931,150.2
500.0648,547.6
500.2749,931
500.3118,1404.9
500.5113,147.1
500.8755,922.3
501.002,63.5
501.1796,599.3
501.2379,7856.6
501.2723,609.5
501.5124,71.6
501.5583,114.9
501.599,879.3
501.6761,87.6
501.8738,105.3
502.242,825.8
502.2628,763
502.2914,1026.3
502.329,18765.5
502.6004,100.1
502.8941,131.4
503.088,142
503.1076,195.7
503.2531,4502.7
503.3332,1436.4
503.4648,99.6
503.649,67.7
503.7473,916.6
503.7753,471.9
503.7881,68.8
504.1069,23.7
504.114,18.8
504.1174,20.5
504.3061,5780.8
504.3445,10342.8
504.6083,178.1
504.6346,226.7
504.6684,318.1
504.7162,445.8
504.8118,631.1
504.9028,661.6
505.0545,183.8
505.1578,171.3
505.2362,447.4
505.3096,653.6
505.3485,212
505.5121,19.7
505.8912,719.7
505.9722,28
506.0728,133.7
506.2079,104.3
506.2643,867.5
506.3203,181.7
506.3602,8897.2
506.4353,115.2
506.4698,120.6
506.6718,145.4
506.8914,3329.3
507.0573,128.8
507.132,184.7
507.2484,44210.6
507.3642,713.6
507.8888,250.2
508.055,327.1
508.252,8129.9
508.327,711
508.5957,105
508.6227,297.4
508.767,92.8
508.7798,219.9
508.8883,2896.7
508.9321,463
509.0052,523.6
509.1238,201
509.1301,284.7
509.2331,229.5
509.2639,13728
509.6388,17.9
509.6647,21.3
509.8884,139.4
509.9339,102.7
510.1355,787.4
510.1523,658.2
510.2431,104.8
510.2675,2732.2
510.3172,285.7
510.3198,279.5
510.3556,5673.3
510.5925,331.7
510.6225,166.4
510.8906,636.4
510.9099,282.1
510.9328,900.7
510.9434,111.5
511.1239,31.4
511.1574,113.3
511.2287,85.3
511.3578,1024.7
511.5973,140.9
511.7222,134
511.7502,76.7
511.8984,364.7
511.9344,617.1
511.9706,145.5
512.1774,778.2
512.252,85.1
512.2792,123.9
512.3327,411.6
512.7071,91.3
512.855,417.1
512.8588,417.8
512.9081,16746.8
512.9312,556.8
512.9978,103.4
513.9118,629.4
514.0002,96.8
514.037,576.2
514.1137,571.6
514.2712,348.7
514.3878,128.9
514.4411,19.8
514.4587,1056.9
514.9053,6213.5
515.5419,214.6
515.5601,83.3
515.7173,362.1
515.8545,185.8
516.2174,85.4
516.3063,15674.7
516.3479,163
516.4365,1068.5
516.5078,19.8
516.5735,149.8
516.8831,945.1
516.9273,890.6
517.0248,95.4
517.3093,1136.7
517.3374,144.2
517.4017,89.8
517.5563,106.2
517.6177,114.8
517.6317,111.8
517.7096,187.1
518.0801,20.7
518.1676,207.2
518.3219,700446.6
518.3599,111.5
518.3706,58.1
518.4155,1467.8
518.5642,501
518.5839,157.1
518.6615,65.8
518.6937,19.9
518.9251,29930.8
519.0172,267.4
519.1007,384.1
519.171,133.9
519.3254,164793.6
519.5709,505.8
519.9284,738
520.1475,104.7
520.2155,19.3
520.3399,174226.1
520.3806,349.6
520.5067,407.2
520.6342,126
520.6941,218.6
520.9224,14718
521.0124,358.6
521.2476,119.6
521.329,523.7
521.3432,45370.6
521.4632,130.8
521.4927,18
521.5586,425.7
521.584,143.1
521.7406,135.2
521.8664,202.2
521.9265,505
521.9772,275.5
522.2578,1016.7
522.3556,176721
522.4161,103
522.7211,651.9
522.8357,489.8
522.8707,242.6
522.8898,445.9
522.919,1351.9
522.9368,4709.7
522.9929,497.6
523.0665,498.3
523.3194,332.2
523.3371,212.1
523.3589,44996.9
523.3966,329
523.5486,744.7
523.8287,165.4
524.1211,90.4
524.1357,324
524.1469,269.1
524.1655,928.6
524.179,183.5
524.249,134.6
524.2701,381.7
524.3712,171195.4
524.4668,142.9
524.6186,91.1
524.7589,119.7
524.9352,1010.6
525.0637,96.6
525.3744,42084.9
525.5376,21.3
525.7826,315.5
525.8764,22.4
525.9605,86.4
526.0312,129.8
526.3291,7105.8
526.3785,2197.4
526.421,184.3
526.7374,475.3
526.9147,321.8
526.9643,216
527.1582,1181
527.4139,83.8
527.5901,330.8
527.6063,529.8
527.9439,255.5
528.345,1422.1
528.7913,459.7
528.8824,7138
528.9533,2295.3
528.9801,512.7
528.9915,113.4
529.3514,92.1
529.4349,64.4
529.8136,329.1
530.3583,967.2
530.6747,108.4
530.8556,37.8
530.879,4198.4
530.9498,552.6
531.0116,183.9
531.1575,330.4
531.2311,18.7
531.2487,2335.9
531.2864,201
531.303,653.1
531.3841,131.6
531.4645,22.9
531.545,858.7
532.2804,5134.3
532.3376,9145.2
532.8761,390.5
532.9656,1150.9
533.2631,1815.5
533.5949,574.3
533.7167,447.6
533.9753,300
534.0162,599.9
534.1404,644.4
534.296,201083.5
534.638,376
534.8989,16996.1
534.9275,476.7
535.1964,23.9
535.2993,49791.2
535.3264,357.2
535.3607,138.1
535.422,19.5
535.4959,594.5
535.5327,22
535.5774,619.9
535.8413,252.6
535.9035,541.1
535.9394,187.3
535.9824,502.8
536.0486,720.3
536.2946,8820.9
536.5701,469.1
536.8188,779.6
536.8964,11336.9
536.9996,213.4
537.0247,402.1
537.0466,21.8
537.089,431.6
537.1672,321.5
537.2971,713.6
537.3409,1234.1
537.4737,112.1
537.5076,429
537.8233,153.9
537.9007,412.2
537.9522,165.3
538.0312,330.8
538.0724,920.3
538.344,86.5
538.3891,427.3
538.4239,457.8
538.4496,689.3
538.7176,435.4
538.875,674
538.8934,1100.5
538.9107,1947.6
538.9306,1462.5
538.9826,1679.6
539.0684,332.8
539.8649,248.8
539.9257,20.5
539.9741,537.6
540.1512,474.3
540.3074,598.6
540.4545,240.8
540.5819,72.7
540.7581,341.7
540.9085,432.2
540.9666,288
541.3119,508.6
541.7078,23.1
541.7371,78.6
542.1942,900.4
542.264,93.4
542.322,247938.5
542.4151,21
542.4571,584.3
542.6601,142.6
543.2001,19.3
543.3253,62970.6
543.7595,136.5
543.95,160
544.196,72.3
544.3378,255684.7
544.7698,286
544.7766,147.9
544.9277,959.6
544.9483,1809.7
545.1239,397.5
545.2593,414.1
545.3412,67516
545.5672,330.9
545.632,100.5
545.9206,456.1
546.257,719.7
546.2739,514.6
546.3533,226119.3
546.3914,316.5
546.4746,155.1
546.8964,111.3
546.9221,90.7
546.9571,383.6
547.3567,57299.6
547.5429,567.4
547.6865,78.7
547.7802,514.6
547.8002,323.9
547.9399,226.9
548.0444,233.7
548.1557,17.6
548.1828,258
548.3108,1399.1
548.36,4886.8
548.5073,543.1
548.5704,129.3
548.664,175.6
548.9224,330.1
549.3186,146.4
549.4594,473.8
549.5134,147.9
549.5883,180.7
549.6469,452.3
550.1381,974.6
550.2438,139.6
550.2857,22.5
550.3465,379.2
550.3753,647.2
550.5115,448.1
550.541,86.1
550.7778,144.6
550.8727,3089.4
550.9885,362.4
551.0838,194.3
551.1631,644.8
551.2613,465.8
551.3175,590.6
551.5282,361.1
552.079,503.1
552.1009,20.6
552.2796,24.9
552.8707,1918.8
552.9735,413
553.1713,160.7
553.5693,471.1
553.6481,159.6
553.8505,377.5
553.9375,88.3
554.4776,267.8
554.7142,126.4
554.7498,143.3
554.8645,796.1
554.9418,110.4
555.0667,200.1
555.1038,20.8
555.2282,606.4
555.4456,704.8
555.6073,125.4
555.6492,216.9
555.6791,213.2
555.6971,117.7
555.9653,23.4
556.674,292.2
556.7332,188
557.3792,92.3
557.6108,316.9
558.1112,449.4
558.1363,168.9
558.296,73990.7
558.3778,469.1
558.4917,595.2
558.7323,18.5
558.8622,203.2
559.0516,165.5
559.156,131.9
559.2994,17229.4
559.3176,112.6
559.4005,97.2
560.0085,291.3
560.1565,779.5
560.2947,3111.8
560.3115,69418.4
560.3393,577.3
560.6113,464.8
560.8903,139.2
560.9219,529.4
560.9594,751.3
561.0876,699.5
561.3151,15688.8
561.4141,3074.7
561.5729,97.6
562.3114,1171.3
562.3273,52799.9
562.4366,109.3
562.6876,498.1
562.7629,546.3
562.8679,67.7
562.9729,252.2
563.1517,185.7
563.3305,11900.6
563.485,473
563.536,356.7
564.114,19.5
564.308,2058.9
564.3268,556.5
564.3902,168.1
564.4841,531.7
564.531,24.1
564.7572,607.8
565.1381,510.5
565.4834,19.4
565.8894,136.2
565.9051,673.8
565.9908,635.5
566.147,18.9
566.3221,65155.8
566.5022,180.8
566.5171,205.3
566.5794,194.1
566.6014,506.4
566.6682,397.9
566.7702,19.5
566.7834,516.1
567.0735,397.6
567.3256,17248.4
567.6664,288.6
568.0171,146.9
568.0244,234.3
568.0275,218.6
568.2563,183.2
568.3376,31245.7
568.943,124.7
568.9863,75.2
569.0216,92.1
569.1449,104
569.1726,95.7
569.3405,3771.7
569.4321,97.5
569.4444,649.3
570.3202,445.9
570.5021,301.6
570.6455,567.6
570.8668,2970.4
571.0344,396.1
571.1783,206.4
571.261,117.4
571.654,383.7
572.0749,171.5
572.1105,25.2
572.6363,308.7
572.6885,186.9
572.7131,447.8
572.744,20.1
572.8647,3340.3
572.9095,237.3
572.9209,235.6
572.9402,147.1
573.3233,943
573.4423,213.5
573.5965,145.7
573.7452,19.1
573.8994,304.6
574.0346,501.7
574.2488,133.3
574.2836,1634.6
574.3373,489.3
574.4599,561.6
574.6734,200.7
574.8892,24
574.9889,99.5
575.0156,115.5
575.0429,617.5
575.3314,607
575.5036,9164.3
575.6034,145.2
575.8275,609
576.0144,176.2
576.2811,9309.1
576.319,99.3
576.3354,104.7
576.4713,554.3
576.7419,131.3
576.8838,9302.7
577.2311,355.6
577.2828,595.7
577.5196,1710.3
577.696,584
577.8081,190.5
578.2431,194.1
578.2776,1325.6
578.8811,7422.2
578.9572,478.6
578.9698,93.7
579.1885,306.3
579.203,99.2
579.321,145.2
579.4974,193.4
579.6452,192
579.7246,590.9
579.8231,96.3
579.8337,207.3
579.8882,490.6
579.8972,543.8
579.9949,158.4
580.1085,217.7
580.1678,597
580.4204,598.9
580.6034,665
580.7591,96.3
580.8778,773
580.8955,1625.2
581.0314,133.3
581.4527,186.8
581.7071,209.8
581.8937,762.3
581.9604,119.5
581.9761,570.2
582.031,125.4
582.0601,110.8
582.1037,440.1
582.1327,1427.3
582.155,245.5
582.1641,320.3
582.1841,23.4
582.1979,697.8
582.2024,1004
582.2097,944.8
582.2521,276.6
582.2677,235.1
582.296,18622.9
582.3955,115.7
582.4834,141.1
582.4992,749.9
582.5528,101.2
582.6312,427.5
582.6647,458.9
582.7227,218.2
582.7359,138.3
582.8941,907.7
583.2479,1070.1
583.2993,2568
583.3612,506.8
583.4445,20.6
583.4685,455.4
583.6651,147.4
583.7352,88.1
583.8812,754.1
583.9622,139
583.9917,168.5
584.0066,20.7
584.3116,4769.1
584.4861,235
584.6424,404.7
584.9194,250.9
585.0186,217.8
585.2727,1705.3
585.3153,707.6
585.4708,92.7
585.8014,421.7
586.0464,21.9
586.3098,4876.9
586.3545,86.7
586.5947,188.8
586.7191,931.4
586.8413,1991.2
586.8652,684.6
586.8775,105.4
586.9407,137.7
587.5657,849.9
587.651,378.6
587.8064,28.5
587.9662,92
587.9956,198.6
588.0496,205.9
588.0668,315.5
588.1087,149.7
588.179,246
588.3512,425.9
588.3825,551.7
588.5869,136.5
588.8383,2475
588.9097,460.7
589.0306,306.8
589.081,366.1
589.1138,19.9
589.307,160.7
589.3469,591.3
589.508,216.1
589.6853,144.2
589.7404,113.9
589.7697,553.8
590.1154,471.4
590.2093,118.6
590.3222,6340
590.5769,360.5
590.701,155.7
590.8228,188.3
590.8305,211.9
590.8348,185.4
590.8907,179.3
590.9522,816.7
591.3256,1018.6
591.5322,115.3
591.5514,211
591.8624,145.7
591.9931,320.3
592.0656,247.6
592.1068,148
592.3025,248.8
592.3228,92.5
592.3364,1924.6
592.4333,20
592.5128,99.3
592.6592,20.4
592.8578,6226.7
593.6631,690.4
593.7963,357.3
593.8797,365
593.9771,153.2
594.1854,102.2
594.2693,845.5
594.3796,823.5
594.5957,384.1
594.8549,6506.5
594.9159,314.3
594.9995,534.7
595.2674,254.4
595.8574,468.3
595.9688,139.3
596.0819,865.4
596.1063,164.5
596.3124,24
596.3421,633.9
596.3811,90.5
596.7121,233.1
596.852,1865.7
596.8689,403.2
597.1324,558.3
597.1981,203.6
597.454,3579.3
597.4856,11621.3
597.7856,171.9
598.0716,125.1
598.1152,109.1
598.4512,701.4
598.4627,585.1
598.4879,1689.2
598.7495,362.9
599.4656,1433.4
599.5027,3676.6
599.8503,316.9
599.944,401.7
600.2813,1917.9
600.4751,264.1
600.5058,744.9
600.8253,22.5
601.1072,83.9
601.2626,123.3
601.5207,348.7
602.0373,290.9
602.0771,370.8
602.2959,2513.8
602.5792,528.1
602.7418,266.1
602.7575,613.7
602.8883,604.4
602.9676,219.5
603.534,804.4
603.5633,398.8
603.7079,92.6
604.2045,341.7
604.2962,1644.7
604.3047,1448.2
604.7718,465.9
604.812,443.4
604.8526,592
604.8839,564.1
604.9061,87.9
605.0942,90
605.356,102.7
605.3827,160.5
605.6069,147
605.6953,253.8
605.7191,20.3
605.7442,24.3
605.7894,193
605.8538,139.7
605.935,125
605.9828,136.8
606.0647,132.9
606.3561,186.1
606.8091,452.8
606.8745,197
607.1608,410.6
607.185,445.5
607.3665,178.5
607.417,94.1
607.5317,583.2
607.636,105.7
608.8321,661.4
608.9403,18.2
609.0323,411.3
609.1431,300.9
609.4185,175.3
609.8417,373.1
610.2038,384.5
610.2935,426.8
610.8112,242.8
610.8292,2129.5
611.229,138.5
611.5281,126.6
611.571,19.4
611.6592,327.6
611.9897,522
612.0168,430.9
612.2369,565.9
612.4683,81
612.9718,1178.4
613.108,520.5
613.2136,451
613.4587,125.9
613.6528,96.3
614.0428,154.4
614.1538,62.6
614.2182,303
614.2891,128.7
614.3364,848.1
614.7416,20.2
615.1944,330.1
615.9305,523.3
615.9412,18.6
616.0237,552.8
616.3916,95.6
616.6047,182.3
616.947,246.1
617.2329,158.9
617.4753,5406.9
617.7559,24.5
618.3504,127.2
618.4781,1379.6
618.6783,216.6
618.8367,685.4
619.0409,197.5
619.1966,312.6
619.2362,96.8
619.4908,734.2
619.6204,321.7
620.03,154.1
620.0794,703.2
620.416,18.1
621.3595,96.3
621.4521,1648.6
621.4621,676.5
621.4853,3965
621.67,524.9
621.9163,146.4
622.1925,20.4
622.2455,920.4
622.4309,19.9
622.4893,2870.3
622.5073,86.5
623.136,10167.8
623.1719,128.3
623.4656,1482.8
623.502,1284.1
623.5922,19.4
623.6883,184.8
623.7445,325.2
623.7742,605.6
623.8258,216
623.9868,411.6
624.1393,733.5
624.2017,530.6
624.2983,564.2
624.4613,946.6
624.5435,673.9
624.6266,91.5
624.7928,91.6
624.9207,146.7
624.9827,367
625.4901,169.6
625.6598,218.3
625.8583,129.6
626.0895,303
626.4347,263.5
626.494,102.9
626.569,362.8
626.6373,246.3
626.7057,502.1
626.7759,20.4
626.8745,106.5
626.8823,117.3
626.8881,63
626.9684,93.4
627.4273,378.9
627.5356,1613
627.9366,666.4
628.0488,184.5
628.2581,20.8
628.3541,546.9
628.5367,108.8
628.7995,504.2
629.1527,19513.5
629.4308,656.6
629.5518,80.2
629.6006,326.8
629.6055,369.3
629.6114,178.3
629.9803,561.7
630.1556,1969.9
630.1729,177.5
630.198,331.8
630.4417,685.9
630.4624,775.4
630.4762,183.8
630.6003,657
630.6818,400.9
630.7752,281.4
630.8233,396.8
630.9292,113.7
631.1268,134.9
631.4298,517.1
631.5914,283.3
631.9272,282.7
631.9567,22.7
631.9867,153
632.0584,295.6
632.3534,1787.2
632.5095,19.6
632.5293,220.4
632.8104,86.8
633.2764,108.1
633.3195,904.7
633.6446,19.4
633.9102,87.7
633.9624,392.3
633.9984,763.7
634.0238,915.8
634.0904,122.3
634.2619,23.7
634.3818,122.2
634.4512,352.7
634.5879,293.1
634.8426,1671.8
635.0617,92.4
635.2989,23.1
635.8019,22.3
636.2138,574.4
636.244,181.2
636.3364,485.8
636.7452,632.6
636.8394,2993.6
636.9431,310.5
636.9605,20
637.0279,131
637.3383,668.5
637.3859,101.9
637.6532,147.2
638.2267,106.9
638.4291,141.3
638.4525,855.3
638.5608,494.9
638.5795,387.5
638.8376,1539.8
639.6369,189.1
640.3626,193.5
640.4054,368.3
640.4646,1361.6
640.7173,229.2
640.7403,19.9
640.8018,334.7
640.9299,20.2
641.1207,101.4
641.4563,385
641.5195,262.6
642.1568,587.4
642.2314,246.8
642.5651,148.2
642.7091,323.9
643.2823,723.1
643.417,654.9
643.4967,107.9
643.5929,395.8
643.6264,104.9
643.8366,17.7
643.9103,718.1
644.3599,164.1
644.3886,650.4
644.5984,355.9
644.6705,70
644.8149,148.8
645.0165,120
645.1179,9646
645.3747,1644
645.4418,537.9
645.4541,886.6
645.4866,382.9
646.0612,101.2
646.1212,748.4
646.1967,285.5
646.4067,204.9
646.8682,452.1
646.998,217.7
647.0978,218.3
647.2094,418.3
647.3832,340.2
647.498,808.1
647.5054,1062.8
647.5108,1157
647.5408,518.1
647.6415,90.4
647.7383,85.2
647.7577,22.1
647.9761,363.4
648.3859,1790.3
648.5667,17.9
648.6954,104.3
648.8838,23.5
648.9418,602.8
649.0413,415.4
649.1303,235.7
649.3095,120.5
649.5132,509.2
649.9583,1080
650.0187,200.8
650.2648,62.8
650.4402,6480.9
650.5148,275.5
650.8162,2605.4
650.8786,64
651.1347,30847.7
651.2858,425.1
651.3024,204.5
651.3632,336.8
651.4169,479.1
651.4389,622.5
651.4931,97.7
652.0996,981.6
652.1378,3948.5
652.8134,3382.5
652.9772,189.8
653.0053,215.9
653.2437,170.7
653.5318,199.9
653.579,99.6
653.9612,102.3
654.0281,240.2
654.2947,139.5
654.6059,518.3
654.6755,133.7
654.7236,502.1
654.728,505.2
654.7357,461.5
654.8094,928.3
654.8366,279.8
655.0233,196.8
655.1887,644.6
655.6026,319
655.9036,96.9
656.0912,158.5
656.2217,322
656.3175,82.8
656.7562,191
657.0571,67.9
657.1112,158.1
657.4095,676.1
658.3391,489.5
658.576,246.7
659.0887,322.7
659.2416,373.7
659.2854,666.2
659.6892,113.5
660.0092,234.1
660.0282,91.1
660.082,1698.7
660.1295,533.5
660.4092,245.9
660.4443,1373.4
660.491,341.4
660.5595,225.4
660.5821,529.2
660.7461,110.9
661.0828,1326.1
661.1375,101
661.4684,2461
661.5234,128
661.5784,516.4
661.6555,582.5
661.6898,659.9
662.2014,593.2
662.3976,115.2
662.4672,280.2
662.5436,149.9
662.8057,92.4
663.0516,17.8
663.1311,150.7
663.1643,273
663.4538,552.3
663.7304,452.4
663.7966,490.5
664.3416,102.2
664.4683,4830.7
665.4764,862.1
666.1328,63.1
666.4836,8355.3
666.7903,873.2
666.8851,137.8
667.0992,17808.3
667.2099,517.4
667.487,712.6
667.8845,329.9
668.1023,831.7
668.3256,96.3
668.4754,879
668.6101,136
668.7874,537.8
668.9776,119.3
669.0769,272.4
669.1049,188
669.2207,92.9
669.2719,521.3
669.4944,3979.3
669.796,282.1
669.8517,479
670.4935,16.9
670.4994,16.8
670.5981,293.9
670.7138,403.9
670.9391,122.3
671.0257,568.1
671.2753,135.9
671.7509,625.2
671.9219,449.1
672.0519,144.9
672.1806,361.8
672.2216,102.1
672.4041,634.5
672.4216,5555
672.5135,94.8
672.5727,146.9
672.7968,197.6
673.0674,133.3
673.1167,52970.8
673.2919,315.3
673.34,469
673.4397,136.6
673.5294,3060.7
673.6608,19.4
673.9355,240.1
674.1206,8807.8
674.2021,93.4
674.3976,229.2
674.938,524.5
674.9867,24.5
675.0104,694.9
675.0921,133.7
675.1234,165.5
675.4912,237.2
675.5441,25369.3
675.7901,221.6
676.0155,89.6
676.0476,3146.3
676.4204,522.3
676.5469,6877.4
676.6018,225.8
676.6361,93.3
676.8417,336.1
676.9534,773.8
677.5506,474.1
677.88,138
678.0133,455.3
678.0698,377.7
678.3368,607.5
678.3685,20.5
678.4721,994.4
678.6381,266.2
678.7045,550.4
679.0562,109.9
679.3181,19.9
679.3781,321.5
679.5153,838.6
679.5967,166
679.9238,137.5
680.0627,385.6
680.0948,214
681.4296,129.3
681.6328,24.8
681.6643,208
681.8773,18.4
681.9062,429.5
681.9383,19.1
682.0643,8411.2
682.2579,64.4
682.8413,196.8
682.881,732.4
683.0636,4050.4
683.157,336.9
683.1897,157.8
683.2672,657.2
683.3153,25.4
683.4106,480.5
683.4503,3305.7
683.811,205.7
683.895,113
685.0722,302.5
685.1303,159
685.2078,328.1
685.2509,73.2
685.4364,6111
685.7473,163.7
685.8752,136.1
686.283,511.7
686.4388,1319.2
686.4689,330.1
686.5301,129.3
687.1523,584.5
687.3435,21.2
687.5053,487
687.5514,696
687.5747,18
687.9979,153.7
688.2776,183.2
688.296,339.8
688.4197,1493
688.9343,489.7
689.0811,16906.7
689.0898,13012.8
689.5599,4602.4
689.5871,385.8
689.7183,205
689.8911,208.7
690.0762,310.8
690.0963,1065.3
690.1346,399.2
690.4327,1126.9
690.4497,527.6
690.5027,72.6
690.5629,1356.3
690.6501,179.4
690.7687,366.4
690.9129,584.4
691.0496,22.5
691.0866,208.3
691.492,686.3
691.6119,154.1
691.6678,25.3
691.9248,85.9
692.0685,180.5
692.3728,393.4
692.82,485.2
692.9307,853.2
693.4383,424.5
693.7789,693.6
694.6695,147.3
694.8169,832.5
695.0986,38082.5
695.3161,811.7
695.4013,378.2
695.5107,6382.8
695.687,149.5
695.7313,314.1
696.1021,6768.6
696.1897,114.5
696.344,164
696.5127,1112
696.9464,105.3
697.0718,240.4
697.1056,173.8
697.4869,105.1
697.526,30668.5
697.6681,316.7
697.9441,19.3
698.0285,2208.1
698.0855,20.9
698.1073,839.5
698.5297,12104.1
698.7303,137.2
698.7838,354.8
698.8261,804.3
698.8928,727.3
699.3579,641
699.4353,645.6
699.5271,894.3
699.5835,314.1
699.6775,382.4
700.0284,560.6
700.2612,125.6
700.3401,782.6
700.4353,21.8
700.4629,111.8
701.4096,756.9
701.5597,43729
702.3033,345.5
702.3427,2330.9
702.4125,174.1
702.432,731.2
702.4664,158.2
702.5459,308.2
702.5632,15108
702.5911,332.6
702.6418,176.4
702.801,154.4
703.0779,151.6
703.3016,92.3
703.3444,656.4
703.4188,173.5
703.4327,211.7
703.5755,102170.3
703.6057,193.2
703.9452,483.8
704.0465,7265.1
704.1191,248.2
704.211,80.5
704.3561,698.8
704.4468,6413.1
704.5787,38824.9
705.0534,1051.2
705.1581,462.4
705.3468,608
705.4511,2020.5
705.5813,3156.1
705.6996,199.5
705.8982,160.4
706.0418,484.7
706.4013,635.6
706.4506,915.1
706.5104,365.6
706.5384,3797.9
707.9133,470.3
708.4409,687.6
708.999,140.5
709.4167,210.2
709.5907,116.2
709.7187,22.8
710.3525,259
710.7724,882.9
710.8322,210.8
710.8742,78.8
710.9346,778.7
711.0638,12022.9
711.0733,14143.9
711.2122,111.3
711.4736,889.8
711.5419,5892.8
711.5717,20.7
711.9028,189.4
711.9246,334.5
712.0758,428.6
712.4439,731
712.7727,545.5
712.9904,247.1
713.0496,110.1
713.3047,116.6
713.5004,4075
713.6071,545.5
713.6946,139.7
713.8507,129.6
714.372,107
714.5108,201.3
715.0192,18.7
715.0917,21.7
715.4558,448.3
715.647,142.5
716.1466,209.5
716.5162,104.9
717.0808,21056.6
717.257,134.3
717.5386,456.2
717.5787,664.5
717.627,372.1
717.6871,495.6
717.9001,605.4
718.0847,2139.7
718.1409,128.4
718.4565,100.5
718.5772,435.5
719.0128,184.4
719.2247,1189
719.3231,340.9
719.3592,561.4
719.4575,109.5
719.4775,434.5
720.0127,1424.7
720.021,1646.1
720.1506,466.3
720.1832,139.3
720.4518,397
720.4617,425.6
720.4671,401.4
720.8201,307.8
720.8935,785.9
721.0163,158.1
721.4785,53831.9
721.6388,163.6
721.7131,386.1
721.763,625.2
722.3216,120.4
722.4818,20172.3
723.4945,9966.5
723.5417,42844.7
723.7759,419
723.8663,402.9
724.1976,68
724.4961,2285
724.5451,16526.8
724.5797,86.8
724.7535,319.7
724.9399,251.5
725.0366,507
725.262,151.9
725.5575,92415.8
726.0286,3914.2
726.2457,528.2
726.3363,187.4
726.4528,320
726.503,846.7
726.5607,33165.9
726.6638,440
727.035,1756.4
727.2021,18.3
727.5627,2518.9
727.6015,349.1
727.6796,726
727.8713,124.9
727.9907,437.6
728.1027,444.9
728.1466,207
728.2875,412.3
728.4701,878.6
728.5206,3981
728.8001,173.6
728.8443,62.4
728.8591,181.3
729.1148,177.2
729.2735,145
729.5253,695.1
729.5907,10028.4
729.6668,319.2
729.8086,182.6
730.1087,258.6
730.5382,16241.4
730.5948,1685.1
730.7846,91.9
730.9748,431.9
731.0105,542.5
731.5417,2794.3
731.6068,3583.9
731.6462,99.9
732.4839,490.5
732.5545,53211.2
732.604,22
732.9644,101.6
733.0447,7719.9
733.0552,8407.6
733.2114,269.4
733.3094,472.5
733.5577,19313.8
733.6239,513.4
733.6644,689
733.741,245.9
734.1381,179.6
734.502,231.7
734.5399,118.2
734.5709,5010.2
734.9756,150.7
735.1612,475.7
735.2579,514.1
735.3265,763.2
735.5739,994.1
735.6308,83.1
735.6588,198
735.695,469.6
735.7434,80
735.9583,118.2
735.9818,132.8
736.0917,161.6
736.2657,720.8
736.337,514.1
736.4618,137.2
736.5654,227.1
736.5995,114.6
736.6295,214.4
736.6581,656.9
736.7739,329.1
736.9604,292.2
737.195,206
737.3495,97.6
737.386,521.9
737.4248,112.2
737.4529,11001.2
737.9542,96.2
738.4545,2619.8
738.9504,106.3
739.0626,11497.3
739.162,1046
739.4722,393.9
739.5154,4797
740.0282,86.3
740.1659,246.3
740.1984,131.5
740.5223,826.2
740.6445,91
741.1474,812.8
741.3457,158.4
741.4275,412.6
741.4766,1956.3
741.5041,1038.6
741.5314,13519.5
741.6846,559.1
741.7614,421.7
741.8125,107.6
741.8454,145.9
742.0044,1159.5
742.0254,535.2
742.1496,476.4
742.1897,205.1
742.2056,205.1
742.2655,171.4
742.5359,5499.8
742.575,14972.3
743.0752,130.3
743.4861,787.4
743.5786,3982.7
743.8288,225.9
743.9604,617.6
744.0965,19.6
744.2744,154
744.554,9538
744.5912,9014.4
744.6927,121
744.9995,151.4
745.4787,31560.7
745.5604,204.2
745.5937,1481.8
745.836,22.1
745.9572,602.1
746.4821,10959.2
746.5065,554.3
746.571,7228
746.6067,3681.6
746.6737,149.8
747.1501,185.9
747.2702,437.4
747.4202,878.4
747.4943,11904.2
747.5731,1652.4
747.6115,712.1
748.0093,1392.3
748.086,226.4
748.1108,136.4
748.4327,1348.3
748.4965,1462.6
748.528,19.9
748.5666,121.6
748.6373,129.2
748.9448,691.9
749.0134,2090.7
749.1071,522.6
749.2369,625.9
749.5097,5433.7
749.6741,18.2
749.9505,19.7
750.0079,326.4
750.2378,203.2
750.438,656.2
750.5105,641.9
750.5402,151.5
750.7623,348.3
751.2212,988.8
751.43,323.3
751.5733,4874.7
751.7098,184.9
751.7377,761.8
752.029,486.7
752.5208,10341.6
752.5786,818.8
752.9508,93.7
753.262,109.7
753.5238,3939.7
753.7453,18.7
753.8175,115.7
753.8975,616.7
754.0831,243.4
754.1124,230.8
754.5369,40110.9
754.9589,94.8
754.9906,18.5
755.0266,4931
755.0381,5945.2
755.0721,285.1
755.1672,278.9
755.5095,307.6
755.5405,14702.4
755.9465,485.6
756.029,656.4
756.1426,127.2
756.2614,631.4
756.4407,410
756.4711,74.7
756.5162,783.7
756.5544,50743.3
756.6057,97.5
756.8316,781.3
756.957,106.7
757.1728,20.9
757.5579,16353.5
757.621,1771.3
757.7932,946.7
757.9822,20.2
758.2292,18.3
758.57,1104542.5
759.256,548.4
759.483,774.7
759.5135,356
759.5734,500892.3
759.6397,158.2
759.8265,109.6
759.9593,134.2
760.1383,127.9
760.1618,89.7
760.446,103.8
760.5866,394422.3
760.6455,467.6
760.7107,242.5
760.7691,65.3
760.9082,86.3
761.0112,211.5
761.0449,6186.6
761.2517,367.1
761.3034,458.3
761.3539,148.1
761.3785,252.8
761.4514,5690.9
761.5894,187569.4
761.6365,561.1
761.9103,989.3
761.9961,174.1
762.3243,457.5
762.3732,91.2
762.4549,838.1
762.5922,42132.7
762.8001,172.3
763.5955,2904
763.6694,816
763.7742,147.9
763.8052,818.2
763.8696,101.3
763.9822,345.1
764.1377,1006.4
764.4872,171
764.5578,4176.7
764.6108,138.8
764.6557,145
764.8465,271.4
764.9893,266.5
765.2928,279.6
765.5603,1832.1
765.6183,142.8
765.934,216.3
765.958,701.9
766.2582,914.4
766.5365,6116.9
766.5746,36799.6
766.8488,717.8
767.0497,401.6
767.1486,211.3
767.3972,183.9
767.5397,1769.1
767.5777,11345.8
767.838,94.1
768.2248,110.6
768.3701,101.2
768.3914,170.5
768.4733,320.8
768.5537,7535.9
768.591,45199.8
769.1146,19.3
769.1746,709.9
769.2283,222
769.2956,506.2
769.3843,427.6
769.4775,4107.5
769.5946,16620
769.8271,101.9
769.8715,165.6
770.4521,139.2
770.5106,5366.5
770.5684,1133.5
770.6077,5686.4
770.6593,21.6
770.9917,3211.6
771.1233,406.3
771.4129,630.8
771.4954,3183.9
771.6103,735.9
771.6457,155
771.8134,107.4
771.9176,215.8
771.9531,504.3
772.4694,1029.9
772.5858,17020.9
772.6834,641.4
772.8094,100.5
773.5076,383.6
773.589,6281.9
773.6214,19.7
773.7667,376.4
773.9161,104
774.0459,275.1
774.0914,137.6
774.2661,599
774.4128,531.2
774.6011,1864
774.9949,177.3
775.5171,650.7
775.5971,214
775.9576,103.4
776.1077,425.1
776.273,908.4
776.3402,144.8
776.5197,2954.7
776.6151,332
776.7388,98.7
777.0077,3768
777.0345,442.1
777.3401,126.4
777.6745,104.1
777.74,847.3
777.7667,505.6
778.022,785.4
778.0446,850.6
778.2699,527.2
778.5365,34170.1
778.8516,577
779.0932,245.7
779.229,470.3
779.2997,463.1
779.451,21.1
779.5399,13817
779.6486,17.5
779.8639,869.7
779.9475,92.9
780.0519,598.8
780.288,122.2
780.5522,722644.7
780.9661,524.9
781.504,922.7
781.5556,324803.7
781.621,639.4
781.8057,295.9
782.0139,497.8
782.5698,793221.2
783.0262,6607.1
783.2703,974.9
783.573,374269.7
783.6587,681.4
783.7839,934.2
784.1044,429.8
784.1444,251.8
784.4477,18.7
784.5866,354100.7
785.0984,409.7
785.3025,793.4
785.5894,171681.3
785.635,838.1
785.6539,5743.1
786.4245,393.8
786.4807,503.8
786.602,288881.3
786.6569,2259.9
786.92,203.1
786.9625,135.6
787.1259,19.3
787.2209,593.3
787.5173,611.2
787.605,144102.6
787.6723,548.4
787.7513,19.5
788.557,12039.1
788.6051,19140.5
788.6203,19126.8
788.6722,255.9
789.5571,2572.5
789.622,9920.9
790.0008,806.7
790.5729,15979.4
790.6247,859.3
790.998,196
791.4805,303.9
791.5766,4093.5
791.8012,584.6
791.9309,550.7
792.5901,12367.3
792.7786,582.8
792.9284,123.4
792.9816,627.2
793.5561,308.8
793.5959,2128.2
794.514,1139
794.5676,6192.7
794.6067,40234.5
795.5716,544.8
795.61,18151.5
795.8827,76.5
796.526,142482.6
796.586,10086.9
796.6241,7621.3
796.8573,448.3
796.9049,430.7
797.0046,153.6
797.5293,64384.9
797.5886,2850.9
797.6261,2425.9
797.9843,149.4
798.4505,666.9
798.5427,44154.5
798.6021,1297.7
798.9984,950.1
799.3413,584.6
799.545,16891
799.6688,1024.6
799.7134,22.2
800.2508,155.2
800.5495,1440.1
800.8055,583.6
800.864,289.3
801.3576,373.3
801.6864,215.2
801.728,21.4
801.8612,203.1
802.0411,834.2
802.1063,77.8
802.1967,940.3
802.2557,642.1
802.5365,30772.4
802.6187,252.4
802.8836,183.2
802.928,193.2
803.0246,119.5
803.4029,174.7
803.4274,450.1
803.5397,13789
804.251,86.2
804.5521,384501.4
804.8886,314.4
805.4303,844.2
805.5182,927.2
805.5261,1014.6
805.5554,183553.9
805.7617,23.2
805.9578,207.5
806.075,504.4
806.3766,131.1
806.4039,718.6
806.5692,302173
806.7897,865.7
807.4395,717.6
807.5722,150275.5
807.6986,644.9
807.7722,140.4
808.4867,88.5
808.5852,247935.4
808.6228,108.7
808.7224,399.7
808.8183,567
809.1953,203.6
809.5882,120682.4
810.0655,185.4
810.1601,642.3
810.4173,642.9
810.6019,179908.9
810.9333,95.2
811.028,18.9
811.6049,91974
811.6698,10842
811.9599,22.6
812.0199,496.7
812.5416,405.1
812.6036,7997.3
812.6195,33524.1
812.6732,1665.5
812.7783,140.3
812.8538,99.2
813.593,435.4
813.6214,17949.4
813.6861,6811.7
814.1858,327.6
814.266,203.9
814.5729,1468.1
814.6215,567.3
814.6889,2060.5
814.9005,130.2
815.0388,243.8
815.8009,156.4
815.8907,445.1
815.8964,446.8
816.3808,133.9
816.5883,15804.3
816.6259,946.5
816.7439,400.1
816.8253,183.2
816.9385,540.4
816.9884,87.6
817.0615,426.7
817.5919,3785.6
817.64,175.4
817.782,289.8
817.9906,484.5
818.1315,1603.5
818.5101,3217.8
818.5676,2538.6
818.6056,2131.1
818.8155,458.1
819.46,193.7
819.8872,24.3
820.5261,79376.4
820.5869,193.8
820.6248,523.7
821.1151,108.7
821.5294,37767.5
821.6548,1126.7
822.4196,637.6
822.4404,130.8
822.5426,42057.1
822.6389,154.2
823.0018,851.8
823.4404,118.4
823.5453,18550.2
823.6676,1048.7
824.1191,2393.4
824.5251,88
824.5581,27025.3
824.8542,1081.5
825.1259,19.8
825.3279,113.7
825.5608,10736.8
825.664,119.1
825.7771,202
826.1098,481.1
826.2462,377.3
826.5749,903.9
826.9009,64.3
826.9226,379.1
826.9647,106.6
826.997,1014.2
827.15,755.3
827.315,1463.5
827.9219,587.8
827.9706,19.2
828.0311,557.6
828.0791,138.9
828.3033,390.6
828.4882,92.3
828.5521,75332.4
828.8889,20.3
829.126,666.3
829.413,541.7
829.5553,35563.8
829.633,146.1
829.747,549.9
830.5682,70811.2
830.9649,119
831.3055,506.9
831.371,592.3
831.5712,35589.5
831.9753,160
832.5842,91919.5
832.8942,932.9
832.9281,87.4
833.0652,928.9
833.3381,522.1
833.5873,44907.6
833.6509,316.8
833.9269,722.7
834.0054,632.3
834.6016,28669.7
834.6544,901.2
835.1436,189.2
835.4864,543.9
835.6043,16047.7
835.6665,1018.9
835.7542,95.2
835.8509,879.7
836.2939,270
836.6182,4061.8
837.3014,965
837.5342,129.4
837.6191,1404.3
837.8139,891.5
837.9895,22.9
838.0473,94.5
838.5096,2294.8
838.6312,1360.5
839.0554,176.1
839.1231,564.2
839.6231,277.3
840.03,805.9
840.2899,182.9
840.5481,89.1
840.9226,1615.1
840.957,681.2
840.9947,1014.2
841.0176,121.4
841.0822,559.6
841.5602,285.7
841.6698,300.4
842.1505,132.3
842.4872,476.4
842.5324,479.2
842.5716,100.1
843.2397,80.8
843.694,487.5
843.8091,525.9
844.08,2146.8
844.1249,1293
844.3608,17.8
844.526,12561.5
844.5592,565.8
844.6796,1373.2
844.7304,311.1
845.2274,853.7
845.4019,669.8
845.4855,1799.7
845.5258,1006.8
846.0429,135.1
846.1625,96.9
846.2313,177.1
846.44,1173.6
846.5422,13125.8
846.8429,99.6
847.3655,17.7
847.4775,252.2
847.5468,1386.1
847.6412,1197
847.706,193.7
847.7339,265.1
847.8468,599.1
848.4071,1743.5
848.5577,10788.6
848.8367,654.9
849.2863,622.1
849.56,4842.6
849.7224,158.1
850.4712,94.3
850.7062,136.4
851.0525,244.8
851.2035,155.6
851.2472,359.9
851.5947,1341.7
851.6583,381.3
851.7727,104
852.0652,737.5
852.1227,154.2
852.601,289.8
852.8561,111.9
853.1899,133.3
853.7472,222.3
853.8207,1040.5
853.9444,207.3
854.166,569.1
854.3013,584.8
854.4139,89.8
854.5692,1143.7
854.8307,802.3
855.2759,677
855.4803,1055.7
855.7273,20.9
855.772,1112.6
856.0829,97.9
856.2041,454.3
856.5836,3257.3
856.6677,185.8
857.271,98.4
857.5879,478.8
857.6739,379.1
858.1953,266.4
858.5994,1540.1
858.703,764.6
858.7948,1122.1
858.8699,422.8
858.9359,261.9
859.4155,232.7
859.464,118
859.9367,201.7
860.1628,1261.3
860.5922,1372.3
860.8809,85.9
861.9047,343.4
862.102,125.8
862.3126,557.2
862.508,508.5
862.5569,124.4
862.6318,95
862.8851,106.8
863.2358,544.3
863.4357,821.2
863.5419,142
863.6731,523.4
863.7575,122.7
863.815,456.4
863.948,770.8
864.0168,1698.8
864.0837,84.7
864.1729,415.7
864.2414,136
864.3091,129.7
864.5275,162.5
864.5924,106.7
864.6402,356.3
864.8318,1112
865.5563,620.1
865.6161,722.6
865.7428,67.8
866.0041,343
866.5926,279.2
866.7524,24.8
867.7299,21.4
868.0981,252.8
868.1221,602.4
868.2426,93.8
868.3087,235.9
868.3249,242.2
868.3689,507.1
868.4121,183.8
868.585,381.1
868.6891,120.1
868.8806,415.8
869.1656,130.4
869.1998,165.4
869.2246,547.7
869.3843,704.4
869.4088,1094.2
869.4555,1006.5
869.5249,1786.5
869.5489,3092.5
869.602,3298.9
869.6233,3706.9
869.6348,3422.4
869.6589,4451.7
869.7048,3331.2
869.7474,2374.3
869.7858,1015.9
869.8388,346.7
870.7888,63.5
870.8537,219.5
870.9079,251
870.9847,258.7
871.1267,288.7
871.4857,834.2
871.5452,401.7
871.716,1322
871.9608,321
872.2183,169.3
872.5415,1178
872.729,601
873.8302,661.8
874.2555,177.3
874.5843,683.1
874.7357,492.6
875.7865,120.9
876.732,113.1
876.8699,738.1
877.6645,2312.1
877.8658,481.5
877.9011,25.3
878.2578,357.1
878.2975,906.2
879.1771,1910.1
880.5569,1102.6
880.9697,1168.7
881.1309,185.9
881.4338,728.2
881.7336,1030.7
882.1757,85
882.7555,768
882.899,1023
882.9378,346
883.0125,2135.8
883.2247,321.7
883.8578,508.8
885.5384,108.8
885.8678,901.6
886.0763,1175
886.4446,193.2
886.9175,19.2
887.0064,548.3
887.0818,22.5
887.1503,810.2
887.5213,1364.2
887.8073,357.4
888.273,19.5
888.3384,329.8
888.464,121.7
888.6926,563.4
888.9822,682.4
889.2058,419.2
889.8532,641.3
889.891,251.3
890.0663,1133.2
890.3022,503.6
890.344,844.1
890.4976,1260.2
890.8884,463.8
890.9432,103.2
890.9901,102.8
891.1798,332.1
891.2512,589.4
891.7494,682.7
892.0046,637.1
892.0725,20.5
892.4864,387.3
892.6759,256.6
893.0247,558
894.1673,244.2
894.464,851.6
894.5744,183.5
894.6856,560.9
895.0145,834.5
895.3987,567.5
896.0372,113.2
896.516,2581.5
896.8014,476
896.975,19.6
897.9469,203.3
898.0049,141.9
898.0655,263.3
898.1983,599.7
898.2177,268.4
898.3188,82
898.5935,451.8
898.8696,544.2
899.0748,1026.6
899.1014,202.5
899.2252,294.4
899.3082,868.2
899.5969,649.7
899.639,271.5
899.6551,255
899.6665,247.3
899.7251,92.6
900.3927,549.3
900.8276,259.8
901.1782,216.3
901.4076,90.5
901.4812,87.1
902.1426,699.8
902.4382,787.9
902.8497,200.5
902.9444,1600.2
903.1028,141.3
903.2778,90.7
903.3744,217.6
904.0473,192.2
904.8284,831.7
905.0219,498.7
905.7897,235.7
905.9011,92
906.0144,126.1
906.4758,1530.5
906.6638,462.9
906.823,179
906.9109,402.3
907.0065,586.2
907.2976,1440.9
908.1779,503.5
909.3977,556.2
909.5662,770.4
909.605,100.9
909.7062,494.8
909.7232,485.6
909.8581,89.4
909.9379,566.5
910.1629,413.4
910.6992,199
910.8023,18.1
910.9975,108.6
911.4719,447.9
911.5569,243
911.925,164.3
912.0168,688.7
912.0839,103.8
912.1236,277.7
912.1932,90.9
912.3519,537.3
912.4367,218.6
913.8506,1089.9
914.3937,18.7
914.6174,451.1
914.6405,109.1
915.0102,702.9
915.0403,783.5
915.4914,87.8
915.6337,127.4
915.8338,819.2
915.8785,922.6
916.0317,525.8
916.3732,597.1
916.7622,681.6
916.9786,681.9
917.1035,586
917.2519,1400.3
917.331,1079.8
917.3712,147.3
918.2621,594.6
918.5578,19.6
918.591,553.8
918.6168,177.8
918.6427,610.7
918.7426,740.6
918.9074,579.6
919.1177,486.4
919.6848,18.2
919.8461,541.7
920.4452,272.6
920.9131,208.1
920.9986,19.3
921.0875,188.1
921.2617,432.9
921.4203,1037.6
921.4724,81.9
921.6017,189.8
921.8905,307.9
921.9948,72.3
922.0409,183.2
922.2975,219
922.3831,786.7
922.6476,128
922.9448,465.4
923.0804,324.7
923.6726,890.8
923.9279,150.3
924.0255,560.1
924.3988,277.2
924.5536,21.8
924.7813,438.2
925.2442,76.9
925.7938,845.3
925.9952,1210.5
926.1122,237
926.6648,182
926.792,75.6
926.8233,155.6
926.876,1500.8
927.0332,459.5
927.0968,471.6
927.1724,895.9
927.4915,1187.5
927.8975,188.7
928.1214,1083.3
928.2083,362.7
928.5536,1165.9
928.7787,293.5
929.2312,116.6
929.3988,86.2
929.5205,158.9
929.7212,456.2
929.9023,1352.7
930.0258,393
930.4544,96
930.6256,122.9
930.6864,141
930.6964,143.7
930.7705,87.2
931.0915,324.1
931.5061,20.3
932.5335,488.2
932.6185,328.7
933.6751,682.2
933.7329,841.8
934.9509,84.1
935.0304,179.5
936.054,130.3
936.7674,186.1
937.0255,22.9
937.3405,581.4
937.4118,845.9
937.7847,19.2
937.9301,585.9
939.0535,83.8
939.1959,115.3
939.2432,603.3
939.6911,1057.1
939.7377,608.9
939.7611,678.8
940.0902,176.5
940.4137,219.2
940.64,146.3
941.2751,89.3
941.4279,106.6
941.5439,174.2
942.3236,98.5
942.3714,431.9
942.9154,414.3
943.0159,1580.1
943.1626,822.1
943.3904,136.5
943.4954,89.9
943.8804,597.1
944.252,231.5
944.5819,992.1
944.7158,347
944.9101,667.6
945.308,310.9
945.4904,771
945.8568,913.2
946.7921,137.4
947.1695,552
947.2726,331.6
947.8824,345.4
947.9372,1233.5
948.2104,134.9
948.3672,834.1
948.4997,99.2
948.6372,21.7
948.7535,558.7
948.8081,623.4
948.9906,701.9
949.1067,86.8
949.3603,1517.4
949.6147,217.4
950.3774,314
950.4989,70.1
950.8373,99.4
951.2968,404.4
951.5229,646.2
951.5999,1110.1
951.6555,715
952.1535,764.1
952.2277,76.4
952.4679,714.5
952.4985,641.3
952.7201,20.1
953.0331,632.7
953.2074,898.4
953.3383,518.2
953.3892,117.6
953.44,1396.1
953.5954,618.6
953.8183,1151.6
953.9165,329
954.3945,102.1
954.7612,107.5
955.0704,1942.8
955.1206,851.1
955.1766,337.5
955.4084,201.1
955.6152,107.5
955.7885,1347.8
955.9681,108.8
956.1903,1031.3
956.6562,233.5
956.7069,124.6
956.7249,181
956.732,182.1
956.8893,210.1
957.6694,2555.1
959.0034,342.3
959.1192,686.6
959.7175,218.4
960.0549,345.2
960.198,191.4
960.277,106.8
960.6548,874.7
960.7687,456.6
961.2833,135.9
961.5908,94.5
961.8045,202.7
961.8876,530.3
962.0512,525
962.4435,682
962.5619,155.9
962.6546,220.9
963.7203,126.9
964.1072,141.2
964.4811,1323.4
964.6746,80.6
964.9634,157.2
965.3383,93
965.3861,194.3
965.4173,1670.4
965.8059,352.2
966.0709,102.5
966.2397,560.1
966.2767,175.3
966.3185,853.3
966.479,104.5
966.5476,895.5
966.638,139.3
966.7329,631.7
967,317
967.1757,391.3
967.5134,395.9
967.6112,1069.9
967.7535,914.9
968.3694,631.6
968.4565,202.7
968.5026,460.8
968.5244,429.8
968.5897,100.3
968.6658,514
969.0962,2190.6
969.3783,680.1
969.5769,102.9
969.6117,92.6
969.6749,301.8
969.7018,799.1
969.8955,121.9
970.2695,924
970.4025,435.5
970.4231,419
970.5034,184.2
970.5414,702.8
970.5907,661.5
970.7257,899.9
970.9805,21.2
971.0052,663.8
971.1281,734
971.1807,1744.4
971.3836,99.6
971.5556,644.6
971.9584,432.4
972.4625,1751.9
972.5185,294.8
972.7338,398.4
972.814,66.3
972.9151,20.8
973.4088,19
973.5422,132.9
973.5942,850.4
973.8154,94.8
974.3424,496.2
974.5639,196.5
974.5736,207.2
974.9363,714.1
975.2908,85.2
975.3754,1468.3
975.5834,891.7
975.6383,264.6
976.4447,23.5
977.3501,2732.4
977.3933,517.6
977.443,482.5
977.6442,190.8
977.6565,187.7
977.9438,570.3
978.4887,622.6
978.5645,118
978.6968,105.2
978.8551,480.6
978.9274,436.6
979.0208,1821.9
979.0589,636.8
979.2286,396.7
979.7536,258.4
979.7722,260.4
980.178,456.9
980.1928,441.7
980.9666,26.9
981.0893,152.9
981.1416,550.1
981.3932,77.2
981.5258,277.3
981.7488,96.4
981.8163,1273.8
982.1635,527.1
982.2782,387.5
982.9482,166.7
983.6408,907.5
983.934,110.7
985.4948,17.2
985.7267,142.5
985.7977,435.6
985.9356,131.3
986.1132,2610.8
986.4077,216.6
986.626,18.6
986.681,510.7
987.0791,613
987.2442,199.8
987.3521,1137.6
987.4165,474.8
987.4742,172.9
987.5302,272.3
987.7254,1618.7
987.8526,893.7
987.9612,865
988.0879,216.9
988.1958,218.8
988.5193,1405.3
988.5896,1184.5
988.7259,563.8
988.9095,440.2
989.2634,88.7
989.743,603
989.8937,239.1
990.028,381.4
990.948,419.6
991.4052,333
991.4148,333.8
991.6713,1004.8
991.7198,71.8
991.7541,813.9
992.7499,533.2
992.8704,514.7
993.0989,581.1
993.3902,486.3
993.4963,254.7
993.6182,91
993.7702,97.7
993.8,350.8
993.9424,1149.1
994.1219,182
994.3091,94
994.5132,817.3
994.6509,633.4
994.9154,198.2
995.0582,1036.4
995.1103,133.7
995.962,1202.2
996.3192,996.3
996.5209,97.3
996.7978,1328.6
997.2283,162.8
997.3253,524.9
997.562,919
997.6188,281.2
997.6671,97.7
997.7266,507.7
997.9795,202.9
998.2342,442.9
998.5333,696
998.7966,716.1
999.4723,590.4
999.6514,419.5
