SPECTRUM - MS,
302.RAW,
FTMS + p ESI Full ms [50.00-1000.00],
Scan #: 1-40,
RT: 0.01-1.97,
AV: 40,
m/z,Intensity

50.0057,679.6
50.0079,17.7
50.0302,192.2
50.0309,95.6
50.0316,290.7
50.0323,17.7
50.04,115
50.0425,29.9
50.0496,199.5
50.0932,275.7
50.1192,378.4
50.1256,378.8
50.1385,97.8
50.1403,144.9
50.1424,225.3
50.1487,15.4
50.1593,105.4
50.1682,625.8
50.1716,143.5
50.1813,369.7
50.192,520.3
50.2068,80
50.2072,130.3
50.2139,463.7
50.2292,203.5
50.2374,179.2
50.2447,96.9
50.2555,156.6
50.278,425.9
50.2791,99.9
50.2805,103.3
50.2866,71.3
50.2945,911.8
50.3073,376.2
50.3172,130.5
50.3661,84.8
50.3919,156.9
50.3925,155.7
50.3959,416.5
50.4331,456.9
50.4387,289.6
50.4392,96.1
50.4618,105
50.4764,94.2
50.5018,235.5
50.5109,185
50.5113,28.8
50.5117,17.1
50.5165,166.3
50.5207,314.2
50.5244,307.7
50.5268,264.2
50.5291,16.2
50.5299,611.5
50.5311,351.4
50.5478,69.2
50.5585,404.5
50.5735,137.5
50.5773,18.1
50.5776,17.3
50.5916,677.6
50.6212,124.8
50.6395,114.5
50.6702,688.4
50.672,418.8
50.6914,351.1
50.7,264
50.7089,16.5
50.7142,339.2
50.7241,96.8
50.7368,206
50.7405,29.2
50.7703,482.4
50.8012,134.3
50.813,107
50.8174,211.8
50.828,16.4
50.8304,434
50.8338,135.6
50.8443,35.3
50.8473,541.6
50.8483,121
50.8641,205.1
50.8705,637.4
50.8903,18
50.8934,694.6
50.8966,92.4
50.9043,163.4
50.9054,16.3
50.911,17.9
50.9149,145.7
50.9227,88.6
50.9271,246.1
50.9367,78.5
50.9481,99.1
50.9611,577.1
50.9615,215
50.9653,503.3
50.9735,93
50.9899,106.4
50.9971,364.1
50.9999,142.6
51.0345,194.2
51.0386,97.5
51.0413,194.3
51.0632,212.6
51.0735,367.5
51.0849,89.2
51.0855,269.4
51.0892,111.7
51.1012,78.6
51.1406,219
51.1475,226.5
51.1847,151.8
51.1901,183.9
51.2017,165.1
51.2033,16.7
51.2081,249.1
51.2155,161.1
51.2169,410.1
51.2189,143.8
51.2192,813.5
51.2242,507.3
51.2304,35.3
51.2328,130.7
51.2363,274.3
51.239,195.9
51.2406,198.2
51.2432,28.4
51.2447,459.8
51.2465,195.1
51.2553,97.1
51.2589,116.8
51.2928,521.2
51.3267,118.2
51.3873,226.8
51.3951,74.4
51.4106,143.6
51.433,217.1
51.4483,175.4
51.4521,432.2
51.4594,322
51.4628,111.2
51.4677,127
51.5015,371.6
51.5026,357.9
51.5246,238.2
51.5276,229.8
51.5668,504.3
51.5758,323.3
51.5854,173.7
51.5895,586.4
51.6028,158.3
51.614,378
51.6264,15.7
51.6341,303.4
51.6358,158.9
51.667,82.2
51.6993,448.5
51.7107,123.6
51.7171,99.5
51.7242,16.2
51.7321,94.4
51.7339,110.3
51.7351,409.6
51.7422,295.1
51.7505,133.5
51.7701,258
51.7806,461.7
51.788,323.2
51.7932,253
51.7938,153.3
51.8039,259.3
51.8044,107
51.8101,369.4
51.8298,414.6
51.8316,197
51.8325,106.3
51.8371,271.7
51.8453,283.5
51.8532,286.9
51.8673,492.8
51.868,613.3
51.8767,30.2
51.8789,74.4
51.8865,17
51.8876,473.3
51.8939,82.1
51.9118,380.6
51.9219,14.8
51.9221,16.7
51.9249,111.1
51.9269,147.7
51.9317,125.2
51.9631,542.4
51.9829,512.8
51.9949,489.3
52.017,16.6
52.0317,402.1
52.0349,30.2
52.0426,97.3
52.0865,97.5
52.0883,191.4
52.0914,493.3
52.1003,105.8
52.1071,497.4
52.1142,18.5
52.1156,121
52.1481,118.5
52.1546,16.5
52.1575,18.2
52.1619,121.9
52.1635,14.2
52.1639,187.1
52.1669,462.8
52.1733,248.5
52.1789,140.9
52.2121,224.2
52.2261,391.4
52.2496,160.8
52.2501,131.7
52.2575,94.3
52.2998,152.2
52.3015,89.2
52.3102,448.2
52.312,355.3
52.316,203.5
52.3208,16.4
52.3225,29.9
52.3269,435.1
52.3363,19.4
52.3497,242.2
52.3609,15.3
52.3613,168.7
52.3633,310.3
52.3646,474.7
52.3766,237.9
52.381,501.6
52.3935,737.4
52.4024,329.2
52.4036,242.5
52.4109,28.3
52.4124,539.7
52.4239,18.1
52.4251,672.5
52.4299,311.8
52.4327,103.8
52.443,240.6
52.447,342.9
52.4537,367.7
52.4571,414
52.4714,722.1
52.493,101.2
52.5248,247.8
52.5303,101.2
52.5558,400.9
52.5588,306.1
52.5685,239.9
52.5882,109.2
52.5974,16.5
52.6045,80.2
52.6368,80.2
52.6372,330.2
52.6653,236.6
52.6671,91.1
52.6821,88.9
52.6962,93.5
52.7019,319.5
52.704,15.3
52.705,133.7
52.7123,93.5
52.7192,100.3
52.7224,449.8
52.7242,170
52.725,281.9
52.7287,160.8
52.7594,100.7
52.7868,219.4
52.798,255.8
52.8018,365
52.8101,134.9
52.8255,690.7
52.8261,1464.3
52.8269,915.7
52.8282,815.9
52.8293,1559.8
52.8299,188.4
52.8326,223.2
52.837,208.6
52.839,306
52.8537,265
52.8739,127.9
52.888,353.5
52.8903,490.7
52.8934,85.6
52.9146,154.7
52.939,183
52.9479,339.2
52.9593,230.7
52.9629,79.7
52.9746,154.5
52.9912,431.3
53.0184,201.9
53.035,539.8
53.0358,112
53.038,281.8
53.0383,335.8
53.0399,326.7
53.0467,85.6
53.0625,435.2
53.0681,379.1
53.08,99.1
53.0804,390.3
53.0832,258.7
53.0851,17
53.0861,408.6
53.0941,382.8
53.1013,200.2
53.1124,192.6
53.1196,166
53.1226,497.1
53.124,17
53.1375,534
53.1497,199
53.1516,110.6
53.1617,85
53.1644,98.9
53.1793,387.3
53.1827,267.3
53.193,330
53.1966,16
53.1996,430.9
53.2036,265.1
53.2124,166.6
53.2145,388.3
53.222,410.7
53.2241,259.6
53.2431,107.2
53.2554,87
53.2598,404.6
53.2831,18
53.2889,151.4
53.3311,446.9
53.3385,191.4
53.3388,263.6
53.3518,86.1
53.3556,138.8
53.3672,353.3
53.3726,253.9
53.4086,149.9
53.4119,230.5
53.417,131.9
53.4351,250.7
53.4515,148.1
53.4566,126.9
53.4635,117.5
53.4652,348.2
53.4668,109.4
53.4698,154.1
53.4724,94.1
53.49,125.5
53.4958,96.4
53.4999,198.2
53.5041,201.6
53.5119,102.3
53.5185,71.7
53.5219,353.2
53.5248,346.4
53.5373,99.9
53.5383,444.4
53.5584,289
53.5659,285.1
53.5792,279.5
53.5861,586
53.5888,378.3
53.5973,111.5
53.6054,145
53.6114,121.3
53.6501,392.4
53.6606,295.4
53.673,269.7
53.6771,176.9
53.6797,16
53.683,183.7
53.7153,145.3
53.7291,122.7
53.7365,433.6
53.7398,340.2
53.7698,154.6
53.7717,212.2
53.7923,79.8
53.8041,281.6
53.8119,194.8
53.817,541
53.8224,526.1
53.8241,425.4
53.8726,268.4
53.8756,452.6
53.8759,564.8
53.8825,17.8
53.9001,186.7
53.9046,16.5
53.9076,15.6
53.9092,133.6
53.9202,90
53.9234,301.3
53.9326,156.1
53.9388,17.2
53.9652,34.1
53.9845,146.8
54.008,514.4
54.0128,419.3
54.0242,106.7
54.0262,162.5
54.0439,15.8
54.0988,464.7
54.1057,134.9
54.1089,310.9
54.1117,211.6
54.1283,608.6
54.1352,34.8
54.1358,258.2
54.1415,83.4
54.1419,172.8
54.1471,136.1
54.1476,198.1
54.1489,19.4
54.1706,39.9
54.1844,101.3
54.2058,161.3
54.246,18
54.2548,357.5
54.2595,429.7
54.2612,16.1
54.273,147.6
54.3045,73.3
54.3058,129.2
54.3166,427.2
54.3208,308.7
54.3309,17.9
54.3314,213.8
54.3333,101.9
54.3442,365.2
54.3507,150
54.3532,646.9
54.3565,15.9
54.3589,427.8
54.3719,700.2
54.3914,330
54.4027,19.6
54.4174,108.9
54.4293,19.4
54.4627,216.2
54.4743,375.4
54.4883,32
54.5071,108.2
54.5172,369.9
54.5177,130.1
54.521,383
54.5324,292.2
54.5498,268.5
54.5549,94
54.5625,280.2
54.5887,230.7
54.5979,78.9
54.6183,411.4
54.621,429.1
54.6318,127.9
54.6337,194.8
54.6369,218.5
54.655,666.5
54.6554,95.8
54.6594,484
54.704,20.1
54.7214,710.8
54.7344,16.2
54.7401,270.1
54.7427,434.3
54.7459,733.7
54.7462,460.5
54.7486,402.6
54.7556,181.6
54.7563,17
54.7615,207
54.7638,118
54.7863,809.3
54.7964,699.8
54.8013,553.4
54.811,554.1
54.8129,582
54.8183,18.4
54.8217,138.8
54.8357,733.6
54.8395,91.8
54.8415,108
54.8436,20.9
54.8607,80.3
54.866,31.1
54.8707,581.4
54.8817,16.9
54.8896,272.4
54.9034,487.3
54.9181,15.1
54.9222,77.8
54.9523,16.5
54.9584,17.9
54.9624,369.9
54.9779,344
55.0033,16.1
55.0053,100.5
55.0151,96
55.0166,253.7
55.0337,19.9
55.037,79.6
55.0445,129
55.0503,260.5
55.0517,613.7
55.0548,323
55.0588,237.3
55.0837,237.8
55.0972,345.9
55.1331,83
55.1381,108.9
55.1522,82.4
55.1555,237.7
55.1585,324.2
55.175,93.3
55.178,105.2
55.1813,494.9
55.1843,482.1
55.21,16.8
55.2161,18.6
55.2243,237.5
55.2274,127.2
55.3034,301.5
55.3057,100.5
55.3183,174.8
55.3219,181
55.3397,272.1
55.3425,538.8
55.3583,17.2
55.3645,314.7
55.3724,32.8
55.3734,190.6
55.3877,140.4
55.4308,331.1
55.4312,74.7
55.4416,88.2
55.4435,579
55.4747,313.9
55.4763,19.7
55.4782,127.3
55.4909,18.1
55.5457,112.8
55.6184,18.4
55.6228,310.5
55.6253,471.8
55.6411,375.1
55.6553,29.8
55.6621,17.7
55.6732,147.4
55.6874,116.5
55.7184,600.1
55.7208,299.8
55.7246,147.8
55.725,146.9
55.7296,645
55.7359,342.5
55.7451,159.2
55.7472,266.8
55.7538,383.3
55.7556,474.7
55.7684,503.8
55.7703,251.3
55.7807,15.1
55.786,244.7
55.789,70
55.7996,108.5
55.8339,99.7
55.8369,20.8
55.8467,222.3
55.8471,75.9
55.9271,704.2
55.9308,83.9
55.9322,144.2
55.9357,69.2
55.9379,17.7
55.9384,171.5
55.9459,111
55.9764,753
56.0256,667.4
56.0282,204.6
56.0354,110.1
56.0415,216.9
56.0484,82.4
56.0669,100.9
56.0676,17.3
56.0725,336
56.1076,216.9
56.1111,181.6
56.1174,122.4
56.1231,107
56.1381,91.6
56.1385,18.1
56.1552,550
56.1873,18.1
56.2006,607.7
56.2097,29.6
56.2173,279.7
56.2197,194.3
56.2278,83.4
56.2409,16.9
56.2637,239.4
56.2767,439.2
56.2937,21.6
56.3322,99.3
56.3382,165.4
56.3458,88.7
56.3472,184.3
56.3537,600
56.3598,92.5
56.3716,99.1
56.3755,128.9
56.3821,18.4
56.3829,278.5
56.3982,98.1
56.3988,162.9
56.4214,730.1
56.4267,317.8
56.4361,97.4
56.4437,235.4
56.4559,553.3
56.4948,224.2
56.4969,87.3
56.4984,132.1
56.5124,709.6
56.5158,128.2
56.5433,230.1
56.5605,237.4
56.5753,222
56.6357,16.3
56.6434,95.7
56.6464,487.8
56.6469,487.8
56.6529,83.3
56.6981,328.9
56.7005,95.4
56.7038,22.4
56.7136,18.4
56.7185,165.8
56.7247,169.2
56.7333,243.7
56.7687,224.3
56.7717,231
56.773,95.3
56.7765,410.7
56.7804,418.9
56.7809,438.5
56.7935,363.8
56.8045,118.9
56.8361,139.4
56.838,124.6
56.8688,106.4
56.8809,99.3
56.8836,174.4
56.8846,519.9
56.9037,363.6
56.9326,115.4
56.9394,111
56.9525,16.3
56.9588,125.3
56.9669,32.1
56.9696,338.6
56.972,91.8
56.9935,133.8
56.9973,17.1
56.9989,16.9
57.0088,506.2
57.0127,213.2
57.0141,17.2
57.028,32.9
57.0409,15.7
57.0476,165.5
57.0534,237.3
57.0629,624.3
57.0699,21.3
57.0717,83.8
57.0939,137.8
57.0942,128.6
57.0983,237
57.1012,241.6
57.1082,367.1
57.1153,117.4
57.123,75.3
57.137,171.5
57.1434,139.7
57.1535,514
57.1555,356
57.1559,73.1
57.1664,95.2
57.1876,199.6
57.2138,712.7
57.2307,34.5
57.2334,129.6
57.248,136.8
57.2524,90.6
57.2684,274.6
57.2732,15.4
57.2776,102
57.2874,395
57.2987,95.6
57.3058,256.4
57.3251,727
57.3334,20.9
57.3557,248.3
57.4241,87
57.43,19.3
57.4415,17.5
57.4483,153.1
57.4494,125.8
57.4549,367.6
57.4596,202.9
57.4656,147.3
57.4663,282.2
57.4743,230.4
57.5008,101.5
57.5091,389.5
57.515,244.2
57.5198,354.7
57.5233,237.8
57.5241,18.4
57.5797,104.4
57.5813,206.6
57.6252,125.7
57.6272,21.7
57.6324,437.1
57.6602,336.5
57.6719,647
57.6947,183.8
57.7045,88.5
57.72,224.8
57.7291,111.7
57.747,111.6
57.7528,314.3
57.757,184.1
57.7605,188.3
57.7667,33
57.7829,295.4
57.7832,30.7
57.7842,659.6
57.7976,343.8
57.7985,107.5
57.8128,670.6
57.8226,17
57.8417,311.6
57.8492,94.3
57.8512,16.3
57.8569,467.5
57.8999,16.3
57.9032,91.7
57.9055,89.6
57.9552,270.1
57.992,120.1
58.0035,617.4
58.0072,461
58.0121,246.3
58.0479,88.6
58.0561,19.1
58.0601,238.4
58.0627,29.9
58.0777,133.1
58.0809,664.8
58.1162,107.4
58.1291,189.6
58.1729,119.5
58.1936,23.1
58.1993,637
58.2018,347
58.2055,69.8
58.2308,435.5
58.2322,206.5
58.2362,220.1
58.2367,471
58.2387,67.9
58.2411,471.5
58.2429,270
58.2564,265.3
58.2775,200.6
58.2955,279.2
58.3023,265.4
58.3032,135.6
58.3055,146.9
58.3062,92.6
58.3148,219.8
58.3213,269.1
58.3296,118.7
58.3461,448.9
58.367,256.4
58.3773,247.5
58.3818,211.9
58.3869,461.4
58.3884,172.1
58.4009,159.4
58.4367,793
58.4371,303.9
58.4374,294.3
58.4512,317.6
58.4708,818.1
58.4813,375.5
58.4941,243.9
58.52,15.4
58.5417,295.3
58.5578,572.4
58.5646,35.1
58.5756,17.7
58.5844,326.3
58.5965,97.4
58.5971,84.1
58.6078,117.4
58.6211,804
58.623,444.6
58.6235,100.6
58.6256,466.5
58.63,86
58.6307,116.7
58.6731,102.6
58.6749,230.1
58.676,117.4
58.6859,145.5
58.6902,114.3
58.7086,715.7
58.7433,299.6
58.7524,330
58.7661,79
58.768,262.2
58.775,233.9
58.7831,287.2
58.8005,87.7
58.8073,177.4
58.8117,110.5
58.8125,104.8
58.824,434.3
58.8249,126.8
58.8382,96.4
58.8485,629.6
58.8518,760.1
58.8643,316.6
58.8682,524.3
58.891,88.9
58.8938,492.3
58.9017,96.7
58.9034,293.7
58.9258,141.1
58.9314,18.9
58.9439,144.9
58.9782,135.5
58.9855,112.4
58.9895,80.6
58.9957,326.2
59.0065,164.3
59.0112,282.5
59.029,755.6
59.0386,83.3
59.0453,74.1
59.0467,116.8
59.0981,604.4
59.1246,18.7
59.1271,35.2
59.1321,94.5
59.1794,346.4
59.1799,14.8
59.1854,306.2
59.1983,96.1
59.2217,17.4
59.2353,161.3
59.2438,687.6
59.2587,28
59.2635,327.9
59.27,95.2
59.2835,402.8
59.293,16.1
59.3009,16.9
59.3018,173.8
59.3088,233.1
59.3257,287.9
59.3501,15.6
59.3573,104
59.3615,283.5
59.3721,79.3
59.3734,206.8
59.3777,94.8
59.3795,365.5
59.3841,134.6
59.3958,166.7
59.411,134.7
59.415,278.9
59.4229,113.1
59.4247,347
59.4335,411
59.4494,120.1
59.4674,78.3
59.4849,126
59.4869,21
59.5053,163.2
59.521,295.2
59.5261,79
59.5311,16.5
59.5336,234.6
59.5631,132.2
59.5656,520.9
59.5827,192.5
59.606,103.4
59.6246,260.9
59.6489,81
59.6552,127.6
59.6597,314.7
59.6599,326.6
59.6651,475.9
59.7061,161.9
59.7176,439.2
59.7413,67.6
59.7516,132.4
59.8008,128.2
59.8572,16.8
59.8695,500.5
59.8927,253.7
59.9067,73.5
59.9289,15.3
59.945,131
59.9455,16.9
59.9488,18.7
59.9627,620.2
59.9747,108.3
60.0003,137.5
60.0068,116.6
60.0112,69.3
60.0343,18.7
60.0404,287.6
60.043,30.5
60.0484,233.9
60.0494,113.3
60.0509,114.5
60.0744,18.6
60.0833,271.1
60.0844,79.6
60.1061,434.7
60.125,281.6
60.1373,21.5
60.1484,771.1
60.1528,220.9
60.1889,485
60.205,235
60.2453,16.7
60.2631,176.3
60.2642,20.7
60.2866,269.6
60.2891,80.4
60.3126,301.5
60.3143,193.7
60.3209,222.4
60.3361,117
60.3575,156.9
60.3717,124.7
60.3844,153.5
60.4024,18.6
60.412,72.2
60.4508,169.5
60.4638,16.8
60.512,327.6
60.5167,435.6
60.5185,493.7
60.5208,32.6
60.5296,171.1
60.5325,16.5
60.5374,287.6
60.5438,366.4
60.5443,151.9
60.5488,408.5
60.5593,116.3
60.5613,382.9
60.5718,98.8
60.5817,452.4
60.5826,122.7
60.5886,96
60.597,325.3
60.6205,306.9
60.6322,421.4
60.6538,149.1
60.656,349.7
60.6649,171.8
60.677,158.1
60.6824,641.1
60.6868,465.5
60.7002,18.6
60.7144,110.1
60.7566,234.2
60.772,705.4
60.8169,257.9
60.8667,268.4
60.8706,17.1
60.8745,278.9
60.8825,17.6
60.8913,180.2
60.902,85
60.9056,170.5
60.9216,29.5
60.9372,15.7
60.9379,128.3
60.9405,665
60.945,93.2
60.9557,769
60.9629,183.3
60.9671,18.7
60.9695,39.7
60.9708,247.3
60.9755,148.4
60.9818,81.7
61.0132,297.7
61.0243,196
61.0674,240.2
61.078,461.9
61.0807,559.5
61.1252,237.7
61.1396,192.4
61.1542,16
61.1565,378.9
61.1676,222.1
61.1742,29.7
61.1842,83.6
61.1988,191.6
61.2101,84.6
61.2131,365.9
61.237,195.2
61.2426,154.9
61.2482,692.8
61.2568,301.1
61.2661,191.4
61.3018,337.9
61.3061,802
61.3207,87.5
61.3389,122.4
61.3634,345.8
61.374,129.2
61.3872,442.6
61.3916,752.5
61.4102,146.9
61.4311,267.5
61.4496,15.6
61.4524,262.1
61.4575,321.4
61.4795,115.5
61.4806,770.8
61.4887,119.4
61.4995,108.1
61.527,261.6
61.5526,625.3
61.5708,119.6
61.5732,204
61.5766,416
61.5788,86.2
61.5933,78.1
61.5943,141.7
61.6514,653.2
61.657,99.8
61.6585,93.9
61.6653,469.3
61.7192,300.2
61.7216,90.1
61.7226,131
61.7249,240.8
61.7462,185.9
61.7683,227.4
61.7817,367.2
61.7904,300.6
61.7937,86.7
61.8094,125.1
61.8238,99.5
61.8434,434.3
61.8613,258
61.8623,619.6
61.8679,452.9
61.9069,19.4
61.9077,127.5
61.9129,173
61.9143,15.6
61.9206,207.5
61.9338,557.2
61.9382,16
61.9448,106
61.9886,127.5
61.9905,331
61.9966,91.6
61.9992,261.3
62.0108,265.3
62.0221,237.6
62.0624,155.4
62.0645,204
62.0706,18.7
62.0811,92.2
62.0906,411.5
62.1047,167.6
62.1362,106.3
62.1684,276.8
62.1716,356.1
62.1822,29.7
62.2008,291.4
62.2294,255.9
62.2302,620
62.2599,167.1
62.2616,331.9
62.273,427.7
62.2813,133.1
62.2859,772.8
62.2885,106.8
62.3153,102.2
62.3204,213.1
62.3236,494.7
62.3263,158.6
62.3287,153.2
62.3298,483.4
62.3512,133.4
62.3571,233.6
62.379,21.1
62.4315,193
62.4434,114.2
62.4494,842.7
62.455,158
62.4676,88.5
62.4706,33.7
62.4755,28.9
62.478,298.3
62.4794,140.8
62.4886,563.7
62.4943,476.2
62.5035,361.8
62.5095,380.4
62.515,253.6
62.537,132.8
62.5496,206.9
62.55,415.3
62.5846,82.9
62.603,862.8
62.6162,107.7
62.6409,18.7
62.6468,343.3
62.6715,96.7
62.6836,122.7
62.6946,97.5
62.7084,131.4
62.7119,89.4
62.7231,789
62.7885,478
62.8316,109.8
62.8518,124.9
62.8978,254.4
62.9078,113.9
62.9099,42.1
62.9122,85.3
62.9623,233.8
62.9627,328.9
62.9639,240.5
62.9739,387.5
62.979,359
63.0225,16.3
63.028,377.1
63.0798,132.1
63.0837,249.3
63.1019,279.2
63.1209,125.5
63.1448,485.8
63.1496,509.4
63.1637,598.7
63.1868,278.5
63.1955,281.2
63.2121,141.1
63.2126,18.6
63.2155,517.9
63.2304,15.1
63.2321,519.1
63.2362,135.4
63.2661,508.6
63.2757,114.6
63.2922,304
63.3042,469.8
63.3082,121.5
63.3241,96.6
63.3248,137.6
63.3253,120
63.3336,284.5
63.336,587
63.341,34.3
63.3813,88
63.3822,477.4
63.3833,715.1
63.3874,497.3
63.4058,30
63.4191,186.5
63.466,297.2
63.5046,121.3
63.5219,746.5
63.5228,440.6
63.5248,88.4
63.5577,402.9
63.5826,148.7
63.5875,521.2
63.6117,727.3
63.6379,17.8
63.6525,110.8
63.6861,31.8
63.6883,206.4
63.6944,134
63.7081,78.6
63.7107,180.1
63.7197,99
63.7332,561.3
63.7523,429.2
63.7617,122.3
63.772,365.4
63.8239,316.1
63.9073,263.3
63.9096,310.2
63.9205,640.1
63.9251,194.7
63.9283,487
63.9308,108.9
63.9336,435.1
63.9404,203.5
63.9485,631.1
63.9642,679.5
63.9901,88.8
63.9985,16.3
64.0129,16.7
64.0236,266.5
64.0299,432.7
64.0525,137.2
64.055,16.9
64.0572,79.4
64.0579,15.3
64.0724,509.9
64.0951,125
64.0974,402.9
64.1068,106.6
64.1145,319.7
64.1167,163.6
64.1256,524
64.1349,535.1
64.161,299.2
64.1649,97.3
64.2155,501.4
64.2281,713.1
64.2312,78.2
64.2641,128.3
64.2881,440.4
64.289,122.7
64.2919,294.1
64.2944,236.7
64.2986,478.7
64.2997,719.3
64.3156,93.7
64.3346,532.5
64.3398,97.3
64.3738,91.8
64.3847,92.2
64.4046,757.7
64.4206,378.1
64.4435,16.4
64.4445,560.8
64.4495,377.3
64.458,476
64.4676,117.6
64.4753,32
64.486,18.8
64.4898,706.9
64.4902,554.2
64.4964,171.6
64.5053,192
64.512,177.9
64.5703,94.8
64.6064,125.3
64.6299,195.9
64.6408,331.2
64.7845,245.7
64.8123,308.9
64.8165,19.5
64.8386,297.9
64.8566,17.7
64.8703,39.7
64.8811,17.6
64.889,653.1
64.9027,117.8
64.9029,109.5
64.9031,120.3
64.9294,185.5
64.957,94.5
64.9587,131.4
64.9676,130.5
64.9746,214.7
64.9936,88.3
65.018,525.8
65.0458,115
65.0546,242.5
65.1454,91.6
65.1754,107.4
65.1833,194.8
65.2067,95.6
65.21,110.7
65.2193,415.2
65.2403,139.8
65.2495,116.9
65.2511,92
65.2533,298
65.2707,138.7
65.2711,473.4
65.2732,230.4
65.2915,31.4
65.2948,151.1
65.3016,303
65.3129,226.4
65.3284,172.3
65.3358,187.3
65.3423,407.2
65.3578,310
65.3638,347.2
65.3679,385.1
65.3691,492.7
65.3709,525.9
65.3873,89.4
65.3939,518.6
65.4296,19.1
65.4312,19.1
65.4352,513.1
65.4411,113.5
65.4538,124.8
65.4545,141.2
65.4673,638.8
65.4819,420.2
65.5101,266.3
65.5267,111.6
65.5289,765.2
65.5313,591.6
65.5596,16.7
65.5671,34
65.5813,604.7
65.6023,219.4
65.6561,276.3
65.6601,342
65.6696,481.3
65.6703,74
65.6805,192.6
65.6895,118.1
65.6934,20.9
65.7004,101.7
65.7137,261.4
65.7386,679.1
65.7392,157.2
65.779,82.1
65.7819,30
65.7908,70.3
65.7925,15.5
65.8236,115.6
65.8401,105.4
65.8493,237.5
65.8532,453.1
65.8595,176.1
65.908,119.1
65.9139,301.4
65.9222,126.9
65.9247,310.1
65.9332,124.9
65.9455,396.8
65.9513,352.6
65.9696,350.5
65.9896,79.1
65.9911,269.4
66.0025,168.6
66.0039,547.9
66.0044,341.2
66.0079,79.4
66.0091,635.6
66.027,687.2
66.0391,84.1
66.0412,245
66.0455,18.5
66.0574,321.2
66.1279,474.9
66.1334,119.4
66.1394,630.1
66.1411,467.4
66.1428,675.9
66.1664,666.7
66.1878,123.8
66.1962,19.6
66.1979,122.3
66.201,369.7
66.2329,881.6
66.2393,75.1
66.257,83.8
66.268,442.4
66.2719,122.4
66.2898,23.4
66.2985,23.1
66.3233,119.5
66.3282,15.7
66.3294,844.3
66.3365,289.8
66.3395,254.7
66.3513,86.8
66.3525,213.3
66.3551,227.4
66.3808,17.7
66.3856,125.7
66.4063,488.7
66.4248,553.5
66.437,668.4
66.4397,138.8
66.4409,127.9
66.4626,145
66.4631,157.7
66.4679,247.3
66.4683,380.2
66.4886,372
66.5034,273.7
66.5076,19.3
66.5099,17.2
66.5247,111.4
66.5316,98.2
66.5326,269.6
66.5357,20.8
66.5376,474.8
66.5623,19.7
66.5669,461.1
66.6004,427.3
66.6462,440.1
66.6583,452.6
66.659,260.7
66.6614,305.7
66.6722,166.5
66.6773,731.1
66.68,247.6
66.6882,490.5
66.7015,396.7
66.7105,264
66.7246,324.3
66.7372,240.9
66.7434,459.2
66.755,130.4
66.7678,18.6
66.771,234
66.7803,402.9
66.7844,323.7
66.7928,16.4
66.7954,409.2
66.839,439.1
66.8547,275.9
66.868,196
66.8778,676.7
66.8919,385.3
66.9384,324.8
66.9542,170.5
66.9624,218.6
66.966,427.4
66.9766,70.7
66.978,95.1
67.0057,93.6
67.0078,724.4
67.015,393.8
67.0275,94.9
67.0442,639.4
67.0539,192.8
67.0616,366.8
67.0626,20
67.0672,564.9
67.0858,297.8
67.0924,166.3
67.1008,79.6
67.1191,307.6
67.1197,28.1
67.1258,399.8
67.1269,89.4
67.1308,275.3
67.1358,18.8
67.1396,401.3
67.1403,715.3
67.1521,226.7
67.1686,565.6
67.175,98.1
67.1855,109.1
67.2279,270.8
67.2343,445.6
67.2369,328.6
67.2445,140.1
67.2556,158.1
67.2648,167.7
67.2685,89.5
67.2742,119.8
67.2777,438.4
67.3089,114.1
67.3323,375.3
67.3571,139.8
67.3606,363.1
67.3613,136.2
67.3674,182.9
67.3774,509.2
67.3955,76.4
67.3994,236.1
67.411,313.3
67.4263,105.1
67.4513,91.6
67.4609,251.8
67.4739,236.8
67.5026,262.7
67.5097,479.7
67.5227,183.7
67.5323,134.6
67.5475,18.9
67.5626,507.9
67.5777,86.1
67.5806,132.4
67.6066,73.9
67.6315,135.3
67.6428,246.1
67.6477,743.5
67.6587,187.9
67.6854,196.8
67.6881,747.7
67.7048,286.6
67.7185,281
67.7223,598.5
67.7431,76.1
67.7496,417.8
67.7526,16.1
67.76,398.7
67.7673,278.8
67.7711,183.5
67.7734,28.6
67.8026,182.7
67.8492,625
67.8624,156.9
67.8913,639.1
67.8993,264.9
67.9126,855.2
67.9279,32.7
67.9323,446.7
67.9858,85.3
67.9875,328.8
67.9986,663.3
68.0004,91.4
68.0166,476.7
68.023,19.4
68.0266,169.8
68.0365,97.6
68.0521,104.3
68.075,90.9
68.0919,245.4
68.1348,531.2
68.1418,322.6
68.1444,80.4
68.1464,135.7
68.1975,291.4
68.2046,589.6
68.2085,21.9
68.2131,105.8
68.2168,373.1
68.2185,18.1
68.232,738.3
68.259,254.7
68.28,281
68.2878,340.5
68.2983,341.9
68.3303,215.1
68.3802,155.6
68.4037,81.4
68.4229,101
68.4351,193.8
68.4902,680.5
68.5018,248.9
68.507,405.4
68.5237,25.8
68.5295,105.5
68.5579,157.1
68.5588,169.1
68.5697,456.8
68.5703,304.3
68.5834,29.5
68.5884,461
68.5935,396
68.6196,18.5
68.6214,451.9
68.6302,116.5
68.6407,70.9
68.6532,252.2
68.6754,16.4
68.6869,91.5
68.705,138.9
68.7094,697.2
68.7099,17.7
68.711,109.1
68.7137,238.7
68.7145,117.4
68.7263,119.8
68.7422,96.6
68.7632,204
68.7645,494.6
68.7731,137.3
68.7883,529.8
68.791,161.2
68.7982,20.4
68.7993,31.9
68.8011,512.4
68.8117,75.9
68.8171,678.3
68.8334,123
68.8389,77.8
68.854,77.2
68.8652,107.2
68.8798,18.2
68.8809,360.9
68.9092,540.2
68.9103,106
68.9151,767.6
68.9259,117.3
68.9303,492.8
68.9384,184.4
68.9482,256.4
68.9742,17.1
68.9848,36.9
68.9963,373.2
69.0088,268.2
69.0163,351
69.0335,108.9
69.0356,40.9
69.043,111.8
69.0504,202.4
69.0532,485.2
69.0552,202.1
69.0561,230.2
69.0652,191.9
69.0664,666
69.0908,296.9
69.1555,73.3
69.1738,77.7
69.1892,265.6
69.2006,19.4
69.2085,78
69.2113,204.6
69.216,356.6
69.2171,539.9
69.2208,273.8
69.2346,393.4
69.2588,788.4
69.2973,203.6
69.3109,113.9
69.3496,483.8
69.3536,70.1
69.3586,70.5
69.3595,165.8
69.3763,442.9
69.4939,696
69.5061,199.4
69.5331,173.5
69.5355,78.4
69.5369,183.7
69.556,100.5
69.572,142.7
69.5809,147.7
69.5907,15.6
69.5976,86.6
69.6005,374.1
69.6149,100.3
69.6262,599.1
69.6425,19.5
69.6606,31.6
69.6627,322.5
69.6848,402.3
69.6969,17.8
69.6986,444
69.7155,79.3
69.7166,520
69.7458,127.1
69.7718,240.2
69.7933,86.6
69.794,380.4
69.8036,84.7
69.8255,569.1
69.8436,96.5
69.86,89.3
69.8861,468.3
69.8912,342.2
69.893,71.3
69.8949,275.8
69.9007,71.5
69.9097,17
69.9103,281
69.9139,152
69.9219,395.8
69.9228,153.8
69.928,131.4
69.9421,89.9
69.9433,215.8
69.9506,413.5
69.9562,169.7
69.9639,166.8
69.99,139.5
70.0133,259.7
70.0274,175.8
70.031,93.8
70.0494,468.8
70.0541,573.3
70.0604,123.6
70.0624,245.1
70.0648,201.7
70.0847,185.6
70.0861,248.2
70.0892,442.8
70.1311,106.9
70.1333,35
70.1411,72.6
70.1445,225.4
70.1562,344.4
70.1816,761.6
70.1887,230.1
70.1901,84.4
70.1967,91.5
70.2003,237.9
70.2185,234.3
70.2322,397.5
70.2345,317.7
70.2483,69.3
70.2495,144
70.2552,165.2
70.2702,129.9
70.2837,369.7
70.2878,18.1
70.2956,130.1
70.3083,16
70.3105,17.5
70.3219,22.6
70.3313,182.7
70.3445,152.5
70.355,356.9
70.3635,77.5
70.3864,103.9
70.4087,322
70.4308,22.4
70.4329,74.1
70.4584,224.2
70.4701,103.3
70.4744,764.3
70.4838,19.6
70.5016,77.3
70.5118,87.4
70.5136,67.8
70.5161,78.2
70.5333,267.1
70.5451,710.9
70.5534,182
70.5581,266.7
70.5714,506.1
70.5817,124.9
70.6403,29.3
70.6521,146.7
70.6629,19.7
70.6846,107
70.6851,318.5
70.7038,733.1
70.7078,190.2
70.7143,479.2
70.7194,450.6
70.7475,144.2
70.7723,28.5
70.795,239.3
70.7999,75.4
70.819,134.3
70.8474,363.8
70.8499,524.8
70.896,505.2
70.9187,679.6
70.9204,30.4
70.9242,244.1
70.9744,134.6
70.9754,150.2
70.9768,31.3
70.9957,356.6
70.9987,466.1
71.0188,20.8
71.0355,731.1
71.0369,261.3
71.0423,30.1
71.0595,243.5
71.0664,393.9
71.0687,72.1
71.0712,259.2
71.0719,257.8
71.0868,392.9
71.0959,238.3
71.1018,411.8
71.1119,256
71.1153,82.3
71.1585,229.8
71.1598,321.3
71.1764,18.7
71.1849,136.6
71.2094,96
71.2196,121.9
71.2283,305
71.2444,269.5
71.2698,173.9
71.2874,357.9
71.2909,279.4
71.2957,244.6
71.3206,346.1
71.3279,205.2
71.3299,677.8
71.3401,120.9
71.3451,81.4
71.3981,202.3
71.4051,482.3
71.4136,236.6
71.4184,503.7
71.4507,403.6
71.4672,489.3
71.4821,577.5
71.4827,15
71.4938,76.7
71.4996,16.9
71.513,271.5
71.5405,83.3
71.5456,127.2
71.5494,175.1
71.5691,16.6
71.5952,620.6
71.5965,18.5
71.6135,415.9
71.6193,97.4
71.6452,641
71.6713,679.5
71.6881,678.4
71.7158,17.9
71.7247,76.9
71.7331,72.4
71.7377,250.3
71.7856,19.5
71.7961,129.2
71.8216,319.6
71.8318,205.5
71.8333,230.6
71.836,117.1
71.8622,727.5
71.8696,674
71.9151,282.5
71.9205,236.2
71.9356,693.4
71.9657,290.2
71.9818,137.9
72.0228,365.4
72.0282,173.4
72.0316,173.1
72.0624,315.2
72.064,77.8
72.0805,673.1
72.0859,134.5
72.1004,268.2
72.1064,499.6
72.1222,122.5
72.1604,281.5
72.1774,484.2
72.1948,167
72.1966,135.2
72.1981,174
72.2122,313
72.2265,169.1
72.2284,243.3
72.2306,195.9
72.2313,207.4
72.2324,305.2
72.233,1302.5
72.2339,597.2
72.2353,1669.7
72.2369,1391.8
72.2392,2643.6
72.2412,4106.6
72.2421,5074.6
72.2431,4750.1
72.2441,3952.5
72.2453,3791.5
72.2458,4028.5
72.2466,4311.9
72.2477,2311.8
72.2489,3163.7
72.2503,1381.3
72.2515,819.9
72.2524,252.9
72.2534,680
72.2546,822.3
72.2554,589.6
72.2578,148
72.262,116.5
72.2675,150.1
72.2696,224.5
72.2788,16.6
72.2802,132.2
72.2837,88.9
72.2864,218.9
72.3044,656.7
72.3123,1277.8
72.3194,241.6
72.3277,99.1
72.3538,348.9
72.3671,102.6
72.3935,106.7
72.4071,510.2
72.4157,516.1
72.4186,450.1
72.4224,18.7
72.4401,389.6
72.4439,18
72.474,347.2
72.4846,84.1
72.501,426.9
72.5204,129.9
72.5304,102.7
72.533,591.4
72.5481,226.8
72.5557,28.5
72.5696,15.6
72.5779,190.9
72.5845,17.8
72.5986,230.4
72.6017,70.8
72.6236,514.3
72.6409,290.5
72.6429,160.8
72.6531,436.2
72.6583,85
72.66,522.6
72.6618,126.3
72.6791,424.4
72.6952,15.8
72.7198,15.9
72.7271,478.4
72.7553,230.5
72.7565,170.7
72.7808,429.1
72.7956,379.1
72.8126,572.7
72.8154,41.7
72.8326,630.3
72.8337,386.1
72.8742,104.6
72.8753,102
72.8903,80.8
72.9251,82.9
72.9368,730.6
72.9393,245.8
72.9486,213.4
72.9501,648.8
72.9613,96.8
72.9621,91
72.9991,194.5
73.0065,416
73.0239,132.6
73.0365,153.2
73.0476,319.4
73.0493,234.4
73.0533,470.3
73.0549,248.9
73.0772,767.3
73.1063,201.4
73.1095,355.5
73.1183,133.1
73.1351,19.1
73.1787,91.2
73.1792,299.8
73.1851,88.7
73.1896,277.4
73.1961,112.5
73.2033,361.3
73.2072,280.1
73.2084,85.8
73.2208,368.2
73.2351,167.6
73.2447,130.9
73.2565,247.8
73.2724,359.4
73.3055,288.4
73.3069,260
73.3095,194.9
73.3127,158.5
73.3522,561.6
73.3659,96
73.3965,338.3
73.4154,338.4
73.4185,91.7
73.464,105
73.4901,132
73.4957,776.8
73.5082,183.2
73.543,359.1
73.5464,243.1
73.5549,91.3
73.5836,295.1
73.6013,74.9
73.607,129.2
73.6117,17.4
73.6149,120.7
73.6225,156.9
73.6397,496.5
73.6648,512.6
73.6663,15.2
73.676,233.3
73.7007,105.2
73.7089,435.8
73.7305,19.9
73.7418,146.7
73.756,106.9
73.7704,18.1
73.7784,287.9
73.7805,388
73.7864,372
73.7987,307.2
73.8072,376.4
73.8082,386.6
73.8178,186.1
73.8272,857.6
73.8426,19.4
73.8583,177.7
73.8625,165.8
73.8669,126.1
73.8737,83.2
73.8916,156.9
73.9351,439.3
73.9381,486.6
73.9675,561.4
73.982,296.3
73.9826,114.4
74.0012,272.4
74.0058,124.1
74.012,374
74.0152,20.4
74.0301,438.9
74.052,16.8
74.0597,1766.5
74.1178,16.2
74.1361,276.3
74.1928,126.9
74.2107,16.9
74.2118,127.2
74.2208,29.9
74.235,77.3
74.2435,96.5
74.2505,245.8
74.2541,18.3
74.2673,280.5
74.301,248.8
74.3175,327.7
74.3203,144.3
74.3224,174.6
74.3521,82.6
74.3704,212.2
74.3729,287.1
74.376,390.2
74.3809,326.3
74.3847,613.6
74.4029,88.7
74.4132,16.6
74.4368,133.6
74.4454,412.7
74.4464,704.2
74.4588,159.7
74.468,792
74.4764,146.2
74.4945,76.8
74.4964,17.4
74.5122,271.9
74.5149,519.5
74.5186,16
74.5196,85.9
74.5216,72.7
74.5248,177.9
74.529,18.2
74.53,241.6
74.5662,352
74.5796,437
74.5803,33.7
74.5873,129.3
74.6085,82
74.6167,154.4
74.632,257.1
74.6331,216.3
74.6366,98.4
74.6822,170.6
74.6838,272
74.714,526.5
74.7228,269.7
74.7731,575.8
74.7865,317.8
74.7959,165.3
74.8054,17.9
74.8069,17.2
74.8867,274.2
74.9205,625.5
74.9232,74.8
74.9237,253.4
74.9412,178.8
74.9477,20.2
74.9726,368.9
74.9859,133
74.9974,103.6
75.0337,36.5
75.0402,89.9
75.045,441.7
75.0538,35.1
75.0692,85.2
75.0776,214.4
75.0971,18.2
75.1063,225.8
75.1086,17.4
75.1309,563.2
75.1373,476.4
75.1681,177.3
75.1748,432.4
75.1872,116.4
75.216,82.1
75.2268,17
75.2298,91.9
75.2442,668
75.3042,632.9
75.3149,440.4
75.3387,112.1
75.3414,202.6
75.3476,118.5
75.3488,183.3
75.3664,690.3
75.3698,168.8
75.3762,104.4
75.3897,209.7
75.4123,105.2
75.4197,140.3
75.4227,541.6
75.4483,360.8
75.4597,405.3
75.4657,718.6
75.4731,17.3
75.485,307.7
75.4872,359.8
75.5065,19.2
75.5145,293.7
75.5206,537.7
75.543,259.2
75.5496,253.1
75.5647,250.3
75.5668,585.9
75.5807,167.7
75.5868,16.9
75.5951,555.9
75.6081,190.7
75.6165,492.9
75.6233,99.6
75.6388,178.2
75.6416,422.8
75.6562,677.1
75.6608,79.5
75.663,247.8
75.6715,18.4
75.7067,99.5
75.7292,749.8
75.7564,247.7
75.7571,911.3
75.7607,639.3
75.8203,283.2
75.823,89.8
75.8399,655.3
75.8799,154.9
75.8909,784.9
75.9499,138.4
75.9803,97.7
76.0024,31.7
76.0152,98.3
76.0207,98.6
76.0226,90.2
76.0281,245.4
76.0457,87
76.0689,72.6
76.1317,184.4
76.1417,256.5
76.1561,182.9
76.2131,300.2
76.2384,114.8
76.2391,536.5
76.2451,540.5
76.2809,828.6
76.2821,87.5
76.2933,338.6
76.2993,29.4
76.3134,390.6
76.3509,128.3
76.3712,455.8
76.3745,96.5
76.3755,516.5
76.3868,142.2
76.3875,76.4
76.3987,91.9
76.4084,152.9
76.4161,16
76.4235,108.9
76.4246,246.3
76.4579,435
76.4602,91
76.4713,778.6
76.4752,111
76.5324,241.4
76.5401,83.4
76.5517,460.8
76.5596,19.7
76.5693,191.8
76.6085,82.1
76.6145,482.1
76.6275,340.5
76.6347,297.7
76.6392,100.5
76.6542,109.1
76.6633,125
76.6923,263.7
76.693,90.5
76.7065,120.7
76.7478,211.8
76.7904,128.3
76.799,456.4
76.7997,83.9
76.8147,539.2
76.8286,81.4
76.8355,128.9
76.851,81.5
76.8625,184.9
76.8802,29.6
76.9069,32.4
76.9208,534.6
76.9389,155.4
76.9494,205.9
76.9573,17
76.9619,183.2
76.98,16.5
77.0129,31.2
77.0281,463.3
77.0351,1338.6
77.0357,453.7
77.0383,113765.8
77.0394,24.4
77.0405,318.8
77.0426,329.5
77.0431,725.4
77.044,87.6
77.0461,411.5
77.0476,217.2
77.0527,343.4
77.0668,239.1
77.0727,294
77.0744,85.4
77.1111,80.1
77.1364,105.1
77.1508,122.6
77.1753,85.7
77.184,503.5
77.1877,33.2
77.1975,215.1
77.2022,227
77.2071,125.7
77.2087,272.8
77.2151,113.2
77.2167,315.7
77.248,183.4
77.2543,486.3
77.2737,415.2
77.2813,316.6
77.2859,155.1
77.2912,94
77.3189,159.8
77.3413,659.9
77.3698,87.1
77.3962,233.9
77.4036,109.2
77.409,30.5
77.4201,452.1
77.4217,452.2
77.4328,596.5
77.4397,138.2
77.4635,118.3
77.4715,175.1
77.4916,107.1
77.4934,18.7
77.4992,211.5
77.5053,31.6
77.5146,421.4
77.5553,627.6
77.565,16.3
77.5664,153.2
77.6025,387.8
77.6238,88.9
77.641,337.8
77.644,197.1
77.657,379.5
77.6943,276.9
77.6983,155.1
77.7076,390.7
77.7783,321.3
77.7793,32.7
77.8043,187.9
77.812,453.5
77.8154,111.5
77.8343,376.4
77.8402,170.4
77.8504,135.6
77.8568,202.1
77.8791,283.9
77.914,331.7
77.9424,598.8
77.9485,143.8
77.9697,18.1
77.9851,511.8
77.9951,19.2
77.9965,109.3
77.998,100.8
78.0417,3082.7
78.0462,19.3
78.0742,36.9
78.1161,285
78.1255,117.6
78.171,563.4
78.1775,233
78.2043,167.1
78.2091,454.2
78.2186,98.5
78.3051,142.4
78.325,230.2
78.338,501.3
78.3397,19.1
78.396,132.4
78.4196,420.2
78.4262,329.4
78.4478,575.1
78.4875,427.7
78.4912,349.6
78.5063,484.7
78.5079,523.1
78.5122,97.4
78.5463,610.4
78.5638,369.6
78.572,75.6
78.5769,230.7
78.5845,203.8
78.5889,244
78.5935,469.7
78.5958,86.9
78.6045,19.6
78.6081,114.9
78.6168,548.4
78.6444,266.7
78.6611,19.8
78.6624,396.9
78.6879,125.1
78.6904,549.8
78.6913,168.7
78.6942,303.2
78.6996,487.5
78.7114,559.3
78.7173,557.7
78.7201,658.5
78.7226,425.7
78.732,585
78.7345,132.7
78.8016,199.9
78.8076,320.6
78.8139,230.1
78.8268,420.5
78.8697,537.5
78.8829,771.1
78.8919,652.8
78.901,533.2
78.9032,554.4
78.9151,143.4
78.9273,475.9
78.9389,116.1
78.9809,305.7
78.9963,303.3
79.0326,17.9
79.0439,76.8
79.054,2190.7
79.0861,394.5
79.1215,132.8
79.1588,123.6
79.1743,309.1
79.1888,455.4
79.214,18.5
79.2155,687.6
79.2218,182.4
79.2448,292.1
79.261,309
79.2684,300.4
79.2802,716.5
79.3155,391.3
79.3279,125.2
79.3378,358.6
79.4066,547.4
79.4095,137.9
79.4167,188.2
79.4322,123.1
79.4328,16.3
79.4442,476.6
79.4562,124.3
79.5002,137.6
79.5328,234.5
79.5453,100.7
79.5544,20.2
79.579,340.4
79.5832,454.9
79.585,218.6
79.6043,674.8
79.6459,18.7
79.6588,232.9
79.7142,105.7
79.7153,109.9
79.7166,336.3
79.7281,126.2
79.7519,442
79.7779,357.9
79.7849,82.9
79.8102,212.6
79.8373,97.8
79.8486,20.6
79.8926,110.3
79.8997,188.4
79.9092,85.9
79.9208,16.9
79.9605,40.4
79.9798,264.7
80.0407,18.3
80.0456,29.9
80.0553,301.6
80.0587,90.5
80.0693,285.9
80.0888,577.9
80.1161,18.6
80.1295,18.3
80.1388,282.3
80.2035,16.7
80.2117,252.2
80.2301,230.3
80.232,810.5
80.2351,172.2
80.262,681.7
80.2692,75.6
80.2705,118.3
80.2763,533.5
80.2804,16.5
80.2863,239.8
80.2888,257.1
80.303,30.6
80.316,269
80.3189,98.5
80.4154,508.4
80.4482,34.9
80.4496,166.2
80.4572,288.1
80.4748,249.6
80.4819,110.3
80.5025,549.8
80.5575,225.3
80.5669,321
80.5693,120.1
80.5791,19.7
80.585,178.8
80.6086,205.5
80.6193,157.8
80.6368,16.6
80.6497,242.7
80.6514,169.5
80.6589,159.2
80.6896,686.9
80.6952,195.1
80.7139,580.6
80.7785,393.5
80.7796,213.9
80.7921,107.7
80.8114,99.6
80.8128,154.8
80.8146,161.6
80.8213,122.4
80.8556,474.4
80.8676,535.7
80.9112,116
80.9139,150
80.9223,78
80.9267,157.1
80.9406,327.4
80.9452,320.9
80.9476,34365.5
80.9571,148.9
81.0114,458.1
81.0326,73.8
81.0525,85.2
81.0658,843.8
81.0672,147.5
81.0696,1327.3
81.1006,127
81.1394,154.7
81.1431,113.3
81.1534,21.4
81.1622,35.2
81.1658,698.3
81.1665,246.8
81.1701,870.4
81.1719,1520.5
81.1732,102.9
81.1739,314.8
81.175,641.8
81.1831,482.8
81.1926,302.7
81.2309,182.8
81.2322,723.8
81.2467,31.7
81.2547,737.6
81.2616,102.8
81.2648,109.5
81.2677,214
81.3215,32.7
81.3243,114.7
81.3385,17.6
81.3508,18.6
81.3758,836.7
81.3808,756.2
81.4541,84.3
81.4868,349.4
81.5199,77.7
81.5372,211.7
81.5515,138.4
81.565,17.2
81.5715,159.6
81.5891,323.5
81.6078,161.2
81.6204,481.3
81.6208,525.6
81.6225,871.4
81.6284,163.2
81.6355,79.4
81.6515,29.5
81.6727,436.2
81.7,20.2
81.7271,20.8
81.7356,778.7
81.7383,108.8
81.7423,294.6
81.7535,420
81.7996,17.3
81.8031,87.1
81.8149,266.6
81.818,281.7
81.8189,111.1
81.8392,735.5
81.8503,256.4
81.8652,262.1
81.8676,19.2
81.8699,222.5
81.8892,772.2
81.9166,192.2
81.9517,299.2
81.9867,117.3
81.9869,118.8
82.0277,879.8
82.0447,171.6
82.0502,125
82.0636,17.4
82.0649,21.5
82.0667,79.7
82.092,119.9
82.1033,653.4
82.1058,19.4
82.1343,192.7
82.1569,246
82.1843,19.3
82.1986,724.5
82.2153,15.9
82.2202,193.4
82.2212,573.1
82.2431,369.9
82.2592,208.3
82.2685,201.3
82.3248,520.8
82.3351,94.2
82.346,270.6
82.3516,18.3
82.3592,76.2
82.3699,281.4
82.3893,562.7
82.3975,127.3
82.407,677.9
82.4304,19
82.434,123.8
82.45,158.1
82.4571,425.3
82.4848,163.6
82.4929,119.2
82.5245,20.1
82.5279,334.4
82.5458,252.9
82.5551,82.8
82.5674,693.3
82.5801,326.6
82.5834,572.9
82.6427,665.3
82.6988,79
82.6997,191.4
82.7039,127.1
82.7285,245.4
82.7424,276.2
82.7717,307.7
82.7775,107.4
82.7804,208.4
82.7812,576.1
82.797,485.3
82.8368,17.3
82.8702,34.6
82.8809,83.9
82.888,17.6
82.9148,337.9
82.9163,520.7
82.9346,125.6
82.9412,492.2
82.9446,9026
82.9524,540.1
82.9902,211.1
83.0183,232.3
83.0213,327.1
83.0309,266.1
83.0467,18.7
83.0646,16.5
83.0839,19.6
83.086,18.3
83.0887,109.2
83.0976,167.4
83.1069,331.6
83.1265,86.4
83.157,131.1
83.1692,106.9
83.1729,289.2
83.1948,281.2
83.2126,154.3
83.2174,697
83.2322,131.1
83.2415,566.5
83.2549,306.8
83.2782,519.8
83.3054,86.5
83.3303,353.8
83.34,104.2
83.3479,436.2
83.3513,249
83.3525,692
83.3574,83.5
83.4205,33.7
83.4238,122.7
83.4246,119.5
83.474,15.9
83.4812,190.8
83.502,460.3
83.5049,174.9
83.5062,233.7
83.5191,540.3
83.5202,93.9
83.5282,761.9
83.5415,809.1
83.562,175.6
83.5662,112.5
83.5719,446.5
83.5872,20.2
83.6076,571.8
83.633,164.3
83.649,259.9
83.651,589.5
83.6598,122.4
83.7028,110.3
83.7513,403.9
83.7638,97.4
83.765,406
83.7723,96.1
83.796,121.3
83.7964,138.8
83.8286,294.6
83.8611,462
83.8706,132
83.8738,287.6
83.8751,79.7
83.8924,736.8
83.8937,265.4
83.8989,435.3
83.9081,313.4
83.915,658.3
83.9183,427.7
83.9535,239.1
83.9711,102.7
84.0155,17.7
84.0209,17.5
84.0263,420.9
84.044,575.1
84.0465,516.5
84.0886,746.7
84.1038,828.6
84.1431,227.8
84.1717,174.8
84.1845,513.1
84.1954,15.9
84.2,620.5
84.2065,120.6
84.2246,18.7
84.244,464
84.3036,228.3
84.3273,20.3
84.3346,167.1
84.342,143.5
84.3437,336.2
84.3629,137.2
84.3665,98.5
84.4039,97.5
84.453,16.6
84.4743,700.9
84.4866,480.9
84.49,278.9
84.499,429.2
84.5524,233.8
84.5699,408.7
84.5753,143.8
84.5797,315.6
84.5885,209.9
84.6506,139.5
84.6611,717
84.6768,15.6
84.6889,161.1
84.7119,173.8
84.7151,223.6
84.7163,123.5
84.7202,16.6
84.7659,18
84.7854,93.6
84.7874,102.4
84.8083,224.7
84.8104,277.5
84.8136,467.3
84.8256,229
84.8449,521.4
84.8692,238.4
84.8968,20.4
84.9227,105.7
84.9594,14480.7
84.9804,142.7
84.9947,114.5
84.9958,88.7
84.9974,289.4
85.0023,458.5
85.0148,190
85.017,246.7
85.0282,375.2
85.0351,467.7
85.0456,596.4
85.0536,166.5
85.0815,86.1
85.0876,19
85.0894,132
85.2226,161.7
85.2473,537.5
85.2611,88.5
85.2821,528.5
85.3025,105.2
85.4053,17.4
85.41,222.8
85.4103,252.2
85.4106,131.8
85.4182,101.3
85.4221,288
85.4734,132.3
85.4863,258.3
85.5181,174.9
85.585,94.9
85.6017,693.3
85.6138,171.6
85.6154,150.1
85.6268,18.9
85.634,965.5
85.636,172.6
85.6403,41.8
85.6749,111.6
85.6856,223.4
85.7063,574.6
85.7499,22.5
85.7846,18.1
85.8155,118.2
85.8241,577.5
85.8378,116.6
85.8517,403
85.8559,476.4
85.8586,224.5
85.8601,19.1
85.8629,110.8
85.8995,419.7
85.9113,265
85.9242,16.6
85.9313,203.8
85.9543,131.8
86.0139,468.2
86.0197,192
86.0219,338
86.0558,92.9
86.0569,15.5
86.0598,29666.9
86.0634,214
86.0671,16.2
86.0962,101791.2
86.0979,69.3
86.1043,17.1
86.161,17.5
86.1715,16.8
86.1788,523.1
86.2456,108.7
86.2482,95.2
86.2584,30.9
86.2641,199.8
86.2717,175.7
86.3042,147
86.3272,210.1
86.3315,535.8
86.3634,124.8
86.3843,535.3
86.4124,77.2
86.4165,293.3
86.4386,211.6
86.4917,538.1
86.5016,35.9
86.5037,110.2
86.5045,310.7
86.5056,451.3
86.5122,90.8
86.5172,275.9
86.5833,521.8
86.5847,103.8
86.5938,103.9
86.6069,247.9
86.6494,724.5
86.664,366
86.6673,805.2
86.6786,131.1
86.6883,305.4
86.7164,170.3
86.7232,420
86.7569,437.3
86.7642,108.1
86.7909,197
86.8226,33.5
86.8725,90.7
86.8851,136.5
86.9458,19.2
86.9528,371.2
86.9732,360.1
87.0123,16.1
87.0257,114.2
87.0275,83.9
87.0381,20.2
87.0496,195.1
87.0541,99.6
87.0757,318
87.0861,155.7
87.0995,1185.6
87.1287,825.3
87.1897,392.4
87.1904,178.1
87.1942,386.8
87.195,75.8
87.1983,1124.3
87.2039,524.2
87.2113,496.5
87.2195,464.4
87.2283,331.2
87.2647,145
87.2693,163
87.279,476.4
87.3026,168.3
87.3143,208.6
87.319,17.4
87.3222,90.9
87.3345,317
87.3444,543.8
87.4252,19
87.4602,314.5
87.4797,96.9
87.4996,201.2
87.5056,170.3
87.5124,666.8
87.527,550.9
87.5755,149
87.5839,347.3
87.5963,108.7
87.6146,241.8
87.6344,245.3
87.6378,169.7
87.6488,112.9
87.6542,137.3
87.6567,496.4
87.6622,17.8
87.6918,210.9
87.6937,170.8
87.7044,174.6
87.7561,19
87.7637,18.9
87.7825,86.3
87.79,128.7
87.7947,719.7
87.7993,626.5
87.8086,217.1
87.8112,509.6
87.8216,17
87.8237,176.2
87.8684,285.1
87.8882,286.4
87.946,285.3
87.9468,332.1
87.9533,25.2
88.0026,548.5
88.0159,811
88.0391,6407
88.1065,422.1
88.1131,156.1
88.1213,860.7
88.1806,18.5
88.196,603.7
88.2017,242.3
88.2104,248.9
88.2182,494.9
88.2619,385
88.269,180.4
88.3029,22.9
88.3571,105.3
88.3642,312.6
88.3706,145.6
88.3838,244.6
88.3853,19.3
88.4026,349.1
88.4299,153.9
88.4463,267.1
88.4485,760.7
88.4513,175.9
88.4582,90
88.4726,126.1
88.4781,333.1
88.4885,135
88.5188,188.4
88.5205,185.8
88.5658,498.4
88.5662,533
88.5804,182.9
88.6365,154.4
88.6455,132.7
88.7045,17.1
88.7232,255.1
88.7425,615.3
88.7606,127.1
88.7665,148.8
88.8212,86.6
88.8531,156.3
88.8544,596.5
88.874,90
88.9065,585.5
88.9344,17.8
88.9453,16.7
88.9521,35.8
88.9638,204.4
88.9659,361.8
88.969,256.3
88.9822,19.4
88.9857,443.2
89.0101,757.1
89.0122,233.7
89.0206,390.3
89.0218,418.8
89.0235,525.5
89.0357,21.9
89.0393,364.3
89.0398,608.6
89.04,439.9
89.0734,666.6
89.1313,231.7
89.1392,286.4
89.1446,257.1
89.1535,112.2
89.1755,534.4
89.195,521.8
89.1975,609.8
89.2235,472.7
89.2627,1071.1
89.2913,130.7
89.3185,109.9
89.3215,154.1
89.3248,438.9
89.3409,109.4
89.3479,396.5
89.3737,95.7
89.4229,140.5
89.4396,147.9
89.4758,434.6
89.5253,18.3
89.5479,252.5
89.5867,646.7
89.6284,494.2
89.6319,914.5
89.6359,289.9
89.6401,630.5
89.6667,98.8
89.6749,373.5
89.706,460
89.7257,466.6
89.773,449.6
89.8261,168.6
89.8364,440.2
89.8726,109.5
89.908,185.8
89.9131,285.5
89.9225,428.7
89.9326,168.5
89.9341,172.7
89.9594,331.5
89.9635,444.4
89.9771,221.7
89.9884,219.2
89.9974,551.5
90.011,30.5
90.0227,99.8
90.0857,396.1
90.106,220.8
90.1096,340.7
90.1722,16.5
90.185,581.7
90.2084,159.4
90.2622,148.5
90.2848,465.6
90.2983,17.4
90.3119,219.9
90.3142,304
90.3566,213.1
90.366,496.1
90.3824,111.1
90.3901,94.4
90.404,597
90.4081,134
90.4124,206.2
90.4249,461.7
90.4816,307.2
90.515,108.6
90.6056,151.6
90.6244,111.3
90.6434,205.5
90.6476,271.4
90.6502,208
90.6625,18.7
90.6809,285.7
90.6918,478.6
90.693,808.5
90.6995,81.9
90.7569,201.2
90.8064,303.8
90.8093,114.1
90.8201,225.9
90.8354,298.5
90.8701,240.8
90.903,72.6
90.9177,337.6
90.9475,3279.3
90.9764,5254.8
91.0018,278.7
91.053,181.6
91.054,861.7
91.0628,392.8
91.0794,668.1
91.0904,103.4
91.0924,20.3
91.1065,96.3
91.1142,130.6
91.1261,85
91.1542,21
91.2064,162.6
91.2097,141.6
91.2283,97.7
91.2387,333.3
91.2397,95.7
91.3219,253
91.3461,536.9
91.3681,382.2
91.3685,447.4
91.3829,176.1
91.3982,603.1
91.4551,261.3
91.4919,192.3
91.5055,219.9
91.5345,501.1
91.5406,598.4
91.5748,93.4
91.5891,273.9
91.5955,277.2
91.652,264.4
91.6808,208.3
91.6998,119.6
91.7107,19.6
91.7197,357.1
91.7373,18.5
91.7511,326.9
91.7568,77.8
91.7581,259
91.7711,176.2
91.7731,73.8
91.8023,518.6
91.8197,502.2
91.892,359.9
91.902,253.4
91.9126,22.4
91.9536,143.6
91.9563,155.3
91.9698,93.8
92.0216,456.7
92.0493,248.6
92.0571,104.3
92.0677,32.6
92.0761,515.4
92.0859,85.7
92.0975,325.9
92.1206,258.5
92.132,285.6
92.1437,555.3
92.1513,106.9
92.1969,20.8
92.2019,454.7
92.2182,110.8
92.2332,168.5
92.2364,100.3
92.2386,319.2
92.2617,698
92.2827,80.4
92.2954,104.4
92.3056,504.2
92.3139,85.7
92.3341,249
92.359,481.4
92.3619,125.2
92.3713,203.5
92.3793,89.4
92.3808,630.1
92.382,16.4
92.385,29.4
92.4051,109.8
92.4281,108.5
92.4362,116.9
92.447,17.6
92.4796,474.2
92.481,272.2
92.4988,222.9
92.5072,453.4
92.5195,380.6
92.5748,275
92.5918,117.4
92.6316,136.8
92.6471,99.7
92.6773,129.2
92.6866,322.9
92.723,253.6
92.7342,299
92.7395,367.1
92.7448,36.1
92.7508,29
92.7552,724.3
92.7685,486.4
92.7756,281
92.7896,767
92.7931,85.4
92.8203,171.3
92.8266,16.6
92.886,213.7
92.8934,127.8
92.9038,415
92.9106,149.1
92.9305,532.8
92.9412,123.2
92.9463,22.4
92.952,320.8
92.9589,329.1
92.9657,618.2
93.0062,125.7
93.0101,628.4
93.011,131.6
93.0125,485.3
93.0465,134.3
93.0571,22.5
93.0699,417.2
93.0753,293.7
93.086,86.7
93.0958,352.5
93.1008,521.2
93.1474,77.7
93.171,453.3
93.1852,285.5
93.1972,122.8
93.2014,37.3
93.2264,180.9
93.2352,355.7
93.2439,259.9
93.2524,688.9
93.2574,18.7
93.2646,346.8
93.2765,222.4
93.2939,20.1
93.2952,216.1
93.3016,297.3
93.3051,270.8
93.3315,107.3
93.3366,826.1
93.3567,16.6
93.3743,117.3
93.3868,34.4
93.3972,210.7
93.3994,540.3
93.4092,105
93.4358,185.3
93.4395,22.1
93.4477,183
93.4608,252.9
93.4701,17.8
93.4855,514.5
93.5191,312.6
93.5661,297.9
93.567,612.4
93.5703,210.5
93.6117,308.8
93.6199,160
93.6369,282.3
93.6538,18.5
93.6591,21.7
93.6858,110.7
93.6961,497.4
93.8181,500.9
93.8297,565.1
93.8672,142
93.8976,592.8
93.9166,29.7
93.9308,29.9
93.933,99.8
93.9502,100.8
93.9548,74.5
93.9667,381.5
93.9722,323.3
94.0071,20.2
94.0139,673.9
94.0179,82.3
94.0411,63199
94.0498,88.8
94.055,17.9
94.0563,82.5
94.1143,176.6
94.1242,879.6
94.1336,310.9
94.1528,531.7
94.1999,90.7
94.2266,322.3
94.2338,290
94.2509,536.3
94.3201,230.9
94.3287,249
94.3738,274.2
94.3816,567.1
94.3834,335.7
94.4089,468.7
94.4741,34.9
94.4831,126.9
94.5011,112.5
94.5096,176.8
94.5426,372.1
94.5732,651.6
94.609,261.1
94.6092,254.9
94.6096,210.6
94.6342,95.2
94.6365,549.8
94.6421,116.3
94.6466,92.3
94.6778,82.5
94.6971,83.8
94.6992,633
94.7045,658.8
94.7319,583.5
94.7465,578.8
94.7623,185.3
94.7763,36.9
94.7811,17.7
94.8051,107
94.8179,108.7
94.838,134.7
94.8928,146.9
94.9272,84.7
94.9279,736.4
94.9631,191.8
94.9823,33.4
94.9962,235.1
95.0153,169.1
95.0427,20.5
95.0445,1525.6
95.047,110.8
95.0473,149.9
95.0489,394775.4
95.0523,24.1
95.0526,19.9
95.0721,31.6
95.0854,167
95.1051,90
95.1133,249.8
95.1541,166
95.1754,808.1
95.1767,86.6
95.1914,128.2
95.1928,18.1
95.236,781.6
95.2697,317.9
95.2753,80.6
95.283,114.1
95.3552,368.3
95.3586,105.5
95.362,30
95.3984,283.9
95.401,17.7
95.4079,781.8
95.4162,94.8
95.4182,116.1
95.4234,174
95.4273,302.2
95.4684,344.1
95.4792,285.7
95.5073,142.2
95.5281,210.9
95.5287,323
95.5952,108.2
95.6065,290.8
95.6232,760.4
95.6309,68.3
95.6604,224.5
95.664,348.7
95.6947,183.3
95.703,106.9
95.7055,111.7
95.7099,122.7
95.7129,134.5
95.7146,123.5
95.7453,260.8
95.7772,136.4
95.7912,330.4
95.8272,130.8
95.8313,111
95.8347,361.3
95.8559,145.2
95.8906,532.6
95.8984,17.1
95.9892,230.3
96.0063,201.7
96.0217,140.3
96.0349,482.3
96.0523,18740.1
96.0558,107.9
96.0648,31.4
96.1554,204.3
96.1663,239.3
96.1679,118.2
96.1714,457.2
96.1914,86.8
96.2369,319.2
96.2419,311
96.2532,157.9
96.3249,154.6
96.333,167.3
96.361,510.7
96.3667,199.2
96.3711,107.2
96.3861,223.9
96.4247,112.4
96.4315,225.1
96.442,95.9
96.4485,17.7
96.4569,79
96.4709,629.5
96.498,719.4
96.5183,118.4
96.531,271.1
96.5366,77
96.5379,247.8
96.5569,181.5
96.5751,19.1
96.6149,374.9
96.6216,333.8
96.6332,18
96.6541,318.1
96.6601,136
96.6725,458
96.6802,409
96.6818,340.1
96.7074,101.6
96.7301,123.6
96.7325,16.4
96.756,160.7
96.8137,28.5
96.8225,152
96.827,373
96.8702,435
96.887,137.4
96.9216,130374.2
96.9232,266.9
96.932,282.2
96.9374,172.9
96.9419,148.3
96.9492,168
96.9616,120.7
96.963,220.1
97.0073,128.5
97.0105,45.9
97.013,428.9
97.0555,20
97.0601,118.3
97.067,110.6
97.0973,17.3
97.1448,77.9
97.1685,148.3
97.2242,32.5
97.2521,106.7
97.2825,214.1
97.2858,125.8
97.2978,95.2
97.3207,150.8
97.3253,599.1
97.3441,277.5
97.3543,76.6
97.373,35.9
97.3777,112.5
97.385,239.3
97.3927,485.5
97.4035,132.8
97.4159,353.8
97.42,158.6
97.4413,100.5
97.4438,82.5
97.4745,98
97.4888,1214.2
97.5126,17.8
97.5758,21.5
97.5856,556.7
97.5929,30.1
97.6148,17.9
97.6215,240.2
97.6338,394.6
97.6468,512.7
97.6561,86.9
97.6737,237.6
97.7186,115.1
97.7214,77
97.7339,765.9
97.7426,96
97.7664,215.7
97.8097,393.9
97.819,147.4
97.8557,421.2
97.8619,468.1
97.8685,29
97.9373,381.4
98.0304,19.8
98.0412,131.4
98.0645,70
98.0836,19.6
98.1516,382.8
98.1717,528.2
98.1818,416.8
98.1865,16.7
98.1935,17.7
98.1984,204
98.269,37.1
98.2814,560.3
98.3785,17.6
98.4357,109.2
98.4534,318.8
98.4719,340
98.491,106.1
98.5653,713.7
98.5762,275.3
98.5962,31.6
98.6165,15.8
98.6443,162.6
98.6535,302.1
98.7307,260
98.7616,408.5
98.7964,80.6
98.8024,111.6
98.8678,121
98.8696,684.9
98.8742,80.2
98.8873,81
98.904,386.1
98.9049,189.7
98.9186,38944.3
98.9197,3566.4
98.9212,293.9
98.9387,668.7
98.9504,170.7
98.9661,103.8
98.9751,8783.2
98.984,75.4
98.9892,104.6
99.0062,18.9
99.0147,323.7
99.0229,258
99.0323,132.8
99.0475,342.8
99.0854,573.6
99.0914,112.8
99.1006,637.9
99.1075,118.3
99.1138,137.5
99.1489,183.4
99.2244,483.1
99.2427,518.2
99.2662,139
99.3332,621.7
99.3363,363.8
99.3587,183.1
99.36,111.8
99.3966,154.6
99.4004,740.7
99.4581,283.6
99.465,274.1
99.468,555.4
99.4844,233
99.533,465.8
99.5727,104.5
99.5737,113.3
99.5803,465.5
99.5859,104.2
99.6756,180.5
99.6903,450.5
99.6996,240.1
99.7274,30.6
99.7481,208.7
99.755,19.5
99.8109,267
99.8299,291.9
99.8645,292.3
99.8699,470.1
99.8712,107.5
99.8744,80.1
99.8852,81.9
99.9014,117.9
99.9438,322.6
99.9555,22.1
99.9825,340.4
100.0067,481
100.0692,18.8
100.0752,112.1
100.0762,259.2
100.0787,143
100.0943,336
100.1183,89.7
100.1799,152
100.1822,169.5
100.1835,270
100.216,125.3
100.2313,84.5
100.2408,275
100.251,133.1
100.2522,31.5
100.2537,107.1
100.2814,137.7
100.2978,287
100.2999,483.1
100.3213,135
100.3512,100.9
100.3712,655.5
100.3974,440.3
100.4432,99.7
100.5189,255.4
100.5242,378.2
100.5505,35.2
100.5718,20.2
100.5844,376.1
100.5901,347.9
100.6048,320.3
100.6286,275.6
100.6301,18
100.6929,325.4
100.6972,119.3
100.7331,72.7
100.7367,317
100.7745,972.8
100.8194,259.5
100.856,472
100.8588,185.9
100.8597,213.2
100.8779,307.4
100.9168,1082
100.9187,246.8
100.9288,17.5
101.0046,363.1
101.022,191.1
101.047,1154.6
101.0698,330.6
101.0707,772.6
101.1047,150.3
101.1158,32.4
101.1268,328.6
101.1471,107.7
101.1486,320
101.1597,168.7
101.1726,138.9
101.1751,117.9
101.2155,122.1
101.2224,548
101.2451,19.1
101.2692,163.5
101.2794,248.9
101.3032,304.1
101.3088,114.2
101.3769,166.9
101.4231,1075.8
101.4528,432.1
101.503,423.9
101.5261,136.7
101.54,413.9
101.5504,299.5
101.5642,105.4
101.5766,110.1
101.5897,527
101.5962,749.8
101.6174,77
101.6276,19.1
101.6422,145.2
101.6505,130.5
101.6814,270.8
101.719,204.4
101.7439,485.8
101.7583,219.4
101.791,173.7
101.818,91.4
101.8233,168.5
101.8269,165.1
101.8294,18.7
101.8467,96
101.8796,81.5
101.8881,222.3
101.8897,135.9
101.9033,434.9
101.9074,122.5
101.9635,268.9
101.9912,97.6
101.9932,329.9
102.0003,286.7
102.0346,19.9
102.0548,2841.8
102.081,99.3
102.0835,19.5
102.0873,87
102.0911,749
102.0923,78.4
102.0961,681
102.1081,716.6
102.1332,729.4
102.1448,463.4
102.1624,283.7
102.1667,463.3
102.1939,420.4
102.2107,171.4
102.229,235.5
102.2459,425.4
102.2564,804.2
102.2615,333.9
102.2931,139.6
102.3255,166.9
102.3617,382.2
102.3729,482.2
102.3989,423.2
102.4085,261.7
102.4429,308.8
102.4564,463.7
102.4755,218.8
102.5689,29.4
102.6167,783
102.6261,403.5
102.6296,380.6
102.6348,703
102.6716,114.9
102.7029,461.3
102.7435,18.9
102.7516,139.4
102.7628,339.2
102.766,332.3
102.7963,75.1
102.8084,756.1
102.8397,77.3
102.8402,80
102.9057,496.6
102.9104,81.9
102.9291,697.4
102.9476,174.6
102.958,263.3
102.9679,160.7
102.9701,543.9
103.0157,833.1
103.022,115.9
103.0307,131.8
103.0468,544
103.0565,628.5
103.0633,153.9
103.1041,93.4
103.1053,106.6
103.1578,138.1
103.1768,214.2
103.1784,109
103.2363,451.9
103.2755,280.6
103.2807,276.4
103.2963,106.5
103.3165,153.1
103.3267,18.1
103.337,90
103.3711,260.9
103.3814,421.5
103.395,95.6
103.4095,408.7
103.4728,117.9
103.4857,101.8
103.4909,283.5
103.5071,271.2
103.5171,422.7
103.5235,560.9
103.5418,101.9
103.544,30.6
103.5546,124.1
103.5766,431.3
103.5999,305
103.6019,129.9
103.6207,75.7
103.6229,515.4
103.653,18.4
103.6546,327.1
103.7187,467.7
103.7807,285.1
103.7821,113
103.7919,494.5
103.8875,281.9
103.8971,149.2
103.8982,209.9
103.9051,535.6
103.9384,125.4
103.9586,194.9
103.9792,292.1
104.0093,84.5
104.0702,89
104.0841,81
104.0875,345.3
104.0983,248.6
104.1068,379660.4
104.1378,401.5
104.1598,79.6
104.1647,462.2
104.1823,114.8
104.1967,224.2
104.2238,16
104.2279,236.1
104.2829,169.9
104.3019,252.3
104.3174,92.7
104.3891,17.7
104.4281,514.6
104.453,565.6
104.5647,93.7
104.5797,137
104.6211,322.4
104.6287,135.6
104.6549,17.1
104.6681,397.5
104.7179,537.6
104.7269,111.8
104.7378,412.8
104.7487,476.3
104.776,133
104.8346,80.6
104.8454,206
104.8595,490.8
104.8631,321.9
104.8871,178.4
104.8887,273.8
104.8962,407.7
104.8992,808.5
104.9077,20.9
104.9326,104
104.9374,23.9
104.9479,134.4
104.9632,5090.9
104.9775,97.1
104.9921,1925
104.9937,125.5
105.0017,717.6
105.0224,350.1
105.0333,33.7
105.0446,36958.1
105.0543,331.1
105.0965,414.7
105.104,523
105.1079,97.8
105.1102,13577.2
105.1125,159.7
105.1496,667.5
105.2188,301.2
105.283,384.6
105.2864,295.8
105.3337,39.2
105.344,222.2
105.3948,279
105.4367,367.4
105.4377,253.2
105.4627,313.5
105.476,558.3
105.4833,585.7
105.5187,127.1
105.6006,321.7
105.614,287
105.634,618.4
105.6686,260.2
105.6695,31.4
105.7765,18.2
105.7898,80.5
105.7982,485.4
105.8753,29.4
105.8877,115.5
105.9086,563.8
105.9633,279.2
105.9873,17.3
106.0329,321.6
106.0416,21.3
106.0479,328.4
106.0566,113.2
106.065,70.9
106.0873,721.9
106.1092,96.5
106.1138,272.1
106.1288,443
106.1507,160.3
106.1806,17.9
106.1992,16.6
106.2088,648.5
106.2108,495.5
106.224,490.6
106.2291,376.2
106.2455,107.5
106.2536,362.4
106.2597,211
106.267,444.2
106.3022,635.6
106.3103,397.3
106.3189,482.4
106.3873,110.8
106.3899,762.5
106.4547,133
106.4732,287.9
106.4867,481.8
106.5063,156.5
106.539,654.9
106.5491,478.6
106.6198,1004.7
106.6342,128.7
106.6443,100.9
106.6727,400.7
106.6755,296.9
106.6874,72.3
106.6977,109.3
106.7119,34.6
106.7436,276.9
106.7583,940.9
106.7624,199.8
106.8405,208
106.8473,258.8
106.8905,17.7
106.8916,139
106.8995,17.2
106.9137,711.6
106.9215,264.4
106.9356,315.6
106.9504,3908.5
106.9636,123.3
106.9802,290.6
106.9872,421.8
106.9918,29.1
107.0037,266.2
107.0282,35.8
107.0424,298.7
107.049,427.7
107.0512,628.3
107.0551,146.5
107.0824,555.3
107.1136,518.9
107.131,17.8
107.14,287.7
107.1871,130.6
107.2206,370.7
107.2276,614
107.2331,854.1
107.2445,728.6
107.265,18.8
107.2676,18
107.2993,139.3
107.3799,514.6
107.4152,376.9
107.5083,433.5
107.5151,419
107.5232,682.3
107.6896,88
107.7008,416.6
107.7137,803
107.7912,142.9
107.8314,374.7
107.8496,38.1
107.8531,28.9
107.875,257.5
107.9299,95.2
108.1266,430
108.133,710.1
108.1585,17.4
108.1649,112.2
108.1783,445.9
108.1914,249.2
108.194,27.2
108.2007,242.9
108.2173,265.7
108.3103,188.8
108.3131,321
108.3693,658.4
108.3736,125.2
108.436,97.3
108.4518,192.2
108.4667,85.8
108.4859,75.9
108.5743,549.8
108.6271,894.7
108.675,156.6
108.6869,442.4
108.6983,400.7
108.7099,141.6
108.7409,18.3
108.7889,17.6
108.8037,678.7
108.8709,130.9
108.8851,252.6
108.9297,116
108.9435,35.3
108.9581,112.6
108.9616,605.1
108.9648,510.8
109.0104,24.9
109.0626,19.7
109.0646,66126.6
109.0665,51.1
109.0953,330.3
109.1308,80.3
109.1423,272.4
109.1689,253.6
109.1828,153.2
109.1853,77.1
109.2008,92.4
109.2073,343.4
109.3024,495.2
109.3283,96.8
109.3591,263.5
109.411,92.8
109.4311,18.5
109.4595,393.9
109.48,637.6
109.4845,468.5
109.4865,19.4
109.4892,83.6
109.4918,174.6
109.5126,494.8
109.5131,496.7
109.5224,294.3
109.5264,527.6
109.5429,760.1
109.5704,253.9
109.5821,262
109.5916,338.4
109.6087,224
109.6121,176.5
109.6252,135.2
109.7043,21.3
109.7951,277.4
109.817,603.5
109.8329,170.2
109.8543,167.4
109.8636,150.9
109.8673,90.5
109.8852,340
109.8964,334.4
109.9039,18.3
109.9576,400.4
109.9783,425.3
109.9853,297.1
110.005,132.1
110.0188,18.8
110.068,1902.9
110.0774,511
110.0836,504.7
110.1191,86.7
110.1714,570.2
110.2043,499.8
110.2103,121.1
110.22,352.8
110.2657,871.6
110.2881,162.7
110.2997,155.5
110.3121,166
110.3315,665.5
110.3668,198.7
110.4519,234.8
110.4539,316.6
110.5285,82.5
110.5636,448.3
110.6207,17.8
110.6457,16.8
110.6597,565.6
110.6674,235.2
110.802,180.2
110.8292,17.4
110.9404,556.2
110.9556,18.5
110.9773,84.7
111.023,287
111.0439,219.4
111.0571,123.2
111.058,19.2
111.0646,20.1
111.0662,611.3
111.0919,121.3
111.1182,657
111.1567,419.8
111.1612,180.1
111.3016,203.2
111.3292,138.2
111.345,17.5
111.3755,90.4
111.3771,88.4
111.3827,17.9
111.4043,470.4
111.4178,83.3
111.4244,370.4
111.4356,578.8
111.4531,125.4
111.4571,529.5
111.4651,433.5
111.5236,22.4
111.5487,159.9
111.6229,20.8
111.6377,213.7
111.6596,18.5
111.6738,121.3
111.682,301.4
111.69,92.3
111.7116,138.8
111.7447,509
111.7469,210.8
111.7559,490.1
111.7953,78.3
111.8003,783.2
111.8226,123.8
111.8553,1080.4
111.8719,305.2
111.9206,750.4
111.9603,727.7
111.9647,33.9
111.9784,246.2
111.9938,440.8
112.0384,112.2
112.0642,186.4
112.0994,182.7
112.1249,462.9
112.1295,270.5
112.1491,89.6
112.1648,383.4
112.175,252
112.1899,166.9
112.1948,70.6
112.209,621.9
112.2467,146
112.2496,447.3
112.2697,218.5
112.3202,150.5
112.3397,117.6
112.3435,159.5
112.3524,20
112.3903,234
112.4145,590.3
112.4239,505.6
112.4531,204.1
112.4998,260.8
112.5024,179
112.5115,174.4
112.5169,818
112.5346,340.5
112.5527,106.8
112.578,142.6
112.585,115.3
112.6016,395.3
112.6488,294.9
112.6613,19.6
112.6882,142.8
112.712,444.1
112.7241,298.3
112.7539,385.5
112.7566,125.3
112.8147,72
112.8213,424.2
112.8698,20.4
112.8956,461556.2
112.9012,528.7
112.9293,283.6
112.9424,262
112.9985,272.9
113.0014,592.1
113.0234,99
113.0492,119.3
113.0958,121.9
113.1005,339.5
113.1071,411.5
113.1387,169.7
113.2023,99
113.2434,95.3
113.2581,328.4
113.263,17.1
113.2754,17.6
113.3555,274.4
113.3697,417.4
113.5061,668.3
113.5067,636.6
113.5085,663
113.5221,576.2
113.5244,416.7
113.5729,179.6
113.5836,726.8
113.6193,265.4
113.6277,573.8
113.6373,419.5
113.6583,376.4
113.6762,549.4
113.6799,111.6
113.7541,112.5
113.8224,598.6
113.8265,17.4
113.8399,103.2
113.8423,405.1
113.8473,266.9
113.8662,98.1
113.9064,99.3
113.9322,140.5
113.9603,133.5
113.9745,645.6
114.0076,83.2
114.0282,298.7
114.0362,436.9
114.0469,163.8
114.0548,42835.9
114.0588,33
114.0602,744.4
114.0661,167.6
114.0911,29.1
114.1087,437.5
114.1314,134.8
114.1649,190.3
114.1932,299.2
114.2021,515.9
114.3017,308.5
114.3174,341.3
114.328,584.1
114.3606,550.2
114.368,94.1
114.3961,315.9
114.4405,19.6
114.4446,486.3
114.5245,404.4
114.5302,422
114.5719,235.7
114.584,384.7
114.6452,18.2
114.6715,142.8
114.7136,240.5
114.7457,36
114.7579,444.9
114.8559,731.3
114.8926,143617.6
114.9136,124.6
114.9239,106.6
114.9312,603
114.9346,19.8
114.948,735.2
114.9505,246.2
114.9786,196.2
114.9799,93.4
114.9887,124.3
114.9959,282.3
115.0397,129.8
115.0583,355.3
115.0687,316.7
115.0865,477.4
115.0937,17.7
115.1108,203.9
115.1232,110.3
115.1739,264.4
115.1851,276.4
115.1913,133.6
115.1975,346.3
115.2167,386.7
115.2206,316
115.2297,312.5
115.2544,161.9
115.3015,798.9
115.3639,158.7
115.4134,309.9
115.4753,20.1
115.5043,530.1
115.5876,33.9
115.6125,289.8
115.6283,97.4
115.641,292.6
115.6603,394.9
115.6869,83.4
115.7069,143
115.7642,746.6
115.7678,118.8
115.7894,101.6
115.8327,132
115.8612,19.5
115.874,569.8
115.921,800.4
115.9341,179.7
115.9482,61.5
115.9792,697.2
115.9911,92.3
115.9948,173.7
116.0135,164.1
116.0238,88.2
116.0467,167.1
116.0544,18.5
116.0694,501
116.0704,4293.3
116.0887,18.6
116.0994,309.3
116.1086,202.7
116.1145,471.8
116.123,124.2
116.1377,86.1
116.15,19.1
116.1642,626.7
116.3264,124.7
116.34,324.6
116.3664,355.2
116.407,335.5
116.4279,82.6
116.442,522.5
116.461,20.4
116.5132,201.3
116.5218,350.6
116.5571,432
116.5911,481.2
116.6038,294.2
116.6428,498
116.6548,97.6
116.6967,20.7
116.7163,139.8
116.7478,264.1
116.8401,366.5
116.8595,82.2
116.8742,145.4
116.8907,16402.7
116.9003,72.2
116.9096,111.2
116.9182,130.3
116.9463,375.7
116.9513,17
116.9632,197.7
116.9832,375.4
116.9858,250.3
116.9979,17.3
117.0164,307.7
117.0697,55.3
117.1147,248.5
117.1309,518.4
117.1783,147.9
117.1912,357.8
117.2535,100.6
117.2594,239.4
117.2641,19.9
117.2962,405.7
117.3408,778.5
117.3982,523.7
117.4014,504.4
117.4529,368
117.5182,229.4
117.5848,396.9
117.6021,221.2
117.6229,229.6
117.6332,132.1
117.6378,167.1
117.6547,474.4
117.7223,183.7
117.7267,170.1
117.7315,342.6
117.7363,191.2
117.857,521.6
117.89,89.2
117.9096,88
117.9457,27
117.9721,491.9
117.9901,448.6
118.0071,406.3
118.0814,439.1
118.1232,99.5
118.1449,96.5
118.157,199.9
118.16,910.6
118.2379,355.7
118.2446,277.8
118.2555,121.1
118.2645,115
118.2974,236.8
118.3163,315
118.3437,125.7
118.4035,20.7
118.4131,476.3
118.4415,134.4
118.4425,127.9
118.4766,202
118.4817,773.1
118.5972,845.4
118.6171,169.8
118.649,142.5
118.703,137
118.7131,440.2
118.7825,477.6
118.7929,276.7
118.8386,43.4
118.8775,159.7
118.8855,32.3
118.893,21.8
118.9145,534.8
118.935,541.6
118.9425,775
118.9679,77.1
118.9789,845.4
119.002,160.3
119.0039,322.4
119.0188,18.8
119.0308,191.4
119.0541,16.8
119.0647,163.7
119.0851,100.6
119.128,101.5
119.1469,384
119.1679,202.7
119.1702,114.4
119.2094,184.3
119.2137,82.9
119.2341,206.1
119.2479,644.4
119.3175,38.2
119.3418,224.1
119.349,181.4
119.3546,139.6
119.3551,130.2
119.3697,568.9
119.3712,17.7
119.3772,543.4
119.4308,110.8
119.4344,20.4
119.4673,327.2
119.4805,237.5
119.4844,480
119.5142,199.3
119.5157,155.9
119.5424,83.5
119.5668,100
119.5694,19.4
119.5717,207.9
119.5934,660.1
119.5956,77.8
119.6621,101.7
119.6876,117.3
119.6952,299.6
119.8298,199.6
119.8761,253.5
119.8873,197.8
119.8954,90.5
119.9927,20.2
120.0011,304.1
120.0031,2766.9
120.0806,8399.2
120.0958,182
120.1073,111.2
120.1223,20.1
120.1241,120.5
120.1799,84.8
120.1925,272.3
120.201,180.9
120.2547,87.9
120.2861,507.9
120.2979,227.8
120.3456,501.5
120.3908,17.8
120.4125,864.5
120.4375,756
120.4726,827.5
120.4861,103
120.5352,823.5
120.5423,251.4
120.5543,590.3
120.5599,1225.6
120.5681,450.6
120.6163,298
120.6216,522.4
120.6501,92.3
120.6543,220
120.6772,691.6
120.6784,32.2
120.6909,636.1
120.7089,132
120.7177,678.7
120.7447,186.8
120.7901,310.4
120.7919,201.6
120.8177,126.7
120.8299,15.9
120.8383,253.9
120.9015,87.5
120.9042,117.7
120.9196,324.2
120.956,679.2
120.9791,24
120.9806,82.2
120.9962,1099.4
120.9977,194.2
121.0027,190.4
121.0074,181.4
121.0283,272.9
121.0395,82.7
121.0434,490.4
121.0727,183.7
121.0988,560.2
121.1013,156.9
121.1238,375.2
121.1544,659.6
121.1595,277.7
121.1753,16.4
121.2182,707.5
121.2315,110.2
121.2353,203.3
121.2385,111.1
121.2453,441.8
121.3203,128.4
121.3279,204.8
121.3433,285.3
121.3624,542.3
121.4243,342.5
121.4282,572.5
121.4395,204.6
121.4452,422.1
121.4819,281.7
121.6059,108
121.6297,398.3
121.6455,18.8
121.6618,464.5
121.663,149.7
121.6908,187.9
121.7017,19.5
121.7892,581.2
121.8182,213.5
121.8224,146.2
121.8242,17.6
121.8959,202.6
121.9094,543.3
121.9116,827.6
121.9215,213.5
121.9296,501.7
121.9495,143.7
122.02,281.1
122.0527,181.8
122.0576,679.9
122.1445,268.2
122.2185,165.1
122.224,17.9
122.2769,117.4
122.3392,151.1
122.3472,20.1
122.3591,460.1
122.4319,312.5
122.493,162.9
122.4953,127.6
122.5079,307.4
122.5301,138.5
122.584,680.9
122.6374,641
122.6402,101.4
122.6487,172
122.6601,113
122.6827,23.1
122.6926,30.1
122.7161,33
122.7416,149.8
122.7442,261.8
122.7691,541.8
122.8674,206.5
122.9131,121.7
122.9244,22665.1
122.9294,27.6
122.9362,471.3
122.94,778.7
122.9739,197.3
123.0423,22.9
123.1028,162.3
123.1047,184.5
123.1335,304.5
123.173,164.9
123.1774,17.9
123.1811,145.5
123.1848,354.2
123.2406,71.3
123.2747,99.3
123.3246,387.5
123.3531,284.1
123.3878,90.5
123.4474,35.9
123.4869,479.9
123.5582,147
123.5668,17
123.6003,395.4
123.6128,334.9
123.6598,131.4
123.7325,186.6
123.7675,196.8
123.8004,101.7
123.8092,46.4
123.8653,267.1
123.8753,148
123.8937,96.7
123.9358,390.1
123.9654,37.6
123.9961,771.3
124.0194,165.2
124.029,475.9
124.0369,105.2
124.0398,571.6
124.106,173.7
124.1119,23.2
124.1313,18.2
124.1556,227.6
124.1574,83.9
124.1905,124.6
124.3672,84
124.3756,300.6
124.3973,20.6
124.449,167.3
124.4763,310.8
124.4849,691.8
124.5484,93.4
124.5802,347.3
124.6092,182
124.6599,816.9
124.7592,123.6
124.7608,401.6
124.8403,131.8
124.9143,366.6
124.9225,2056.2
124.9268,188.4
124.9806,178.3
124.9846,373.4
124.9998,3114.6
125.0055,1425.4
125.0273,180
125.0388,141.7
125.0596,90.2
125.0752,38.5
125.1207,80.8
125.1359,122.8
125.204,518.1
125.232,446.8
125.2672,528.6
125.3189,305.9
125.3205,149.1
125.3224,469.7
125.3775,144.3
125.3807,337.3
125.4741,206.9
125.5069,264.9
125.5339,336.5
125.573,31
125.59,296.9
125.5933,18.8
125.6182,306.6
125.6656,476.7
125.6675,573
125.6781,173
125.7502,182.7
125.7563,159.1
125.7922,218.4
125.8394,123.9
125.8636,110.5
125.8687,163
125.8777,270.9
125.8962,273.3
125.9213,85.6
125.9315,256.6
126,168
126.0118,101.4
126.0273,140.2
126.0465,214.6
126.0988,622.7
126.1072,103.6
126.1423,185.6
126.1679,91.4
126.1827,474.1
126.3209,288.4
126.3603,534.9
126.3987,93
126.4547,174.9
126.4801,406.4
126.535,196.7
126.5378,322.9
126.5755,190.1
126.5925,111.7
126.6383,489.1
126.6526,319.2
126.6622,96.7
126.6774,242.3
126.7347,176.1
126.7477,403.3
126.8299,109
126.855,297.2
126.8838,16.4
126.8921,187.8
126.9019,106.8
126.9142,21.8
126.9289,416.6
127.0075,19.1
127.0279,334.6
127.0477,277.5
127.0823,112.5
127.0846,407.7
127.1111,315.2
127.1425,88.9
127.1567,277
127.1933,221.1
127.2281,535.2
127.2706,423.3
127.2741,19.1
127.2771,362.4
127.281,17.3
127.2841,100.7
127.2963,740.6
127.3108,298.1
127.3536,105.9
127.362,406.9
127.4128,190.8
127.4142,283.1
127.4423,579.6
127.4662,847.2
127.5329,190.9
127.6679,256.4
127.7031,762.4
127.7077,359.6
127.7834,123.2
127.8905,494.2
127.9179,577
127.9791,25.4
128.0155,34.7
128.0312,594
128.0329,124
128.0635,32.9
128.1052,164.7
128.1279,186.9
128.1407,17.2
128.1695,370.7
128.1889,20.4
128.3354,415.4
128.3651,110.1
128.3918,116.9
128.4052,276.3
128.4216,728.5
128.5001,249.1
128.5474,114.8
128.5679,226.4
128.6032,265.6
128.6645,297.9
128.7057,120.6
128.7462,115.5
128.7898,125.8
128.8247,347
128.8362,242.8
128.8583,450.3
128.9354,171.4
128.9537,303.2
128.9638,533.5
128.9963,250.3
129.0031,589
129.0082,35.7
129.0428,231
129.1021,574.8
129.1068,86.5
129.1089,684.7
129.1497,122.8
129.2198,192.9
129.2348,130.1
129.2515,90.7
129.2753,161.6
129.2849,288
129.2902,342.6
129.331,520
129.3694,190.8
129.3747,87.1
129.4092,542
129.4181,280.7
129.4681,161.9
129.4879,572.1
129.5098,305.1
129.556,130.9
129.5603,687.2
129.6487,198.4
129.6697,195.9
129.6851,336.8
129.7373,171.1
129.7755,19.3
129.8146,110.5
129.8606,17.2
129.8729,80.3
129.8966,351.4
129.9352,20.6
129.9585,190.4
129.9662,150.5
129.9832,540.4
129.9949,148.8
130.0497,8900.2
130.1511,474
130.1667,272
130.1868,561.5
130.1882,128.9
130.2451,558.4
130.3119,386.8
130.3485,252.3
130.3602,451.1
130.4002,36.9
130.4048,190.8
130.4188,562.8
130.4548,113.5
130.5013,18.3
130.5022,19.2
130.5221,229.4
130.5592,302.3
130.6562,404.2
130.6967,455.9
130.7395,95.2
130.7417,502.8
130.7616,277.3
130.7722,17.8
130.8077,128
130.8245,267.4
130.895,40.8
130.9293,808.2
130.9626,18.1
130.9789,97.2
130.9952,282.4
131,122.6
131.0368,208.6
131.0387,332.7
131.0397,80.3
131.0812,345.4
131.149,311.5
131.1627,266.6
131.1881,837.3
131.2146,473.9
131.2174,358.8
131.2417,79.8
131.4055,241.6
131.6058,33
131.6119,414.3
131.6891,121.2
131.6909,761.9
131.702,260.9
131.71,362.7
131.7816,508.3
131.7841,151.8
131.8007,269.8
131.8147,162.8
131.8774,316
131.8969,370.8
131.9733,335.6
131.9788,165.5
131.9875,32.6
132.0031,31446.8
132.0057,251.4
132.0654,74450.9
132.0766,1235.7
132.2396,133.2
132.2527,251.9
132.3301,477.2
132.3492,33.1
132.3812,406
132.4168,685.1
132.4249,129.2
132.4699,219.5
132.4869,325.2
132.6035,18.3
132.642,99.5
132.6831,375
132.7206,21.3
132.7793,101.5
132.8004,236.6
132.9582,820.5
132.97,24.7
132.9872,568.9
133.0069,216.2
133.0312,158.1
133.0688,1591
133.097,28446.9
133.1011,36.8
133.1538,552.4
133.1631,175.3
133.2038,458.2
133.209,603.7
133.2514,247
133.2638,103.6
133.2769,191.6
133.3089,798.4
133.3652,815.5
133.3825,142.5
133.3898,504.3
133.397,117.6
133.4813,34
133.5519,112.7
133.5557,300.4
133.5869,91.8
133.619,216.3
133.6363,38.6
133.6417,314.9
133.6676,481.7
133.6883,180.6
133.7745,533.3
133.7968,318.8
133.8241,282.5
133.8488,17.3
133.922,408.8
133.9297,19.8
133.9432,270.9
133.9609,41.5
133.9815,269.4
134.0188,5810
134.0259,552.5
134.0705,20.1
134.0774,108.7
134.082,292.1
134.1011,125.5
134.1545,344.4
134.1873,94.4
134.1933,185.1
134.2093,184.5
134.2188,328.4
134.2421,168.7
134.2817,94.8
134.2844,514.5
134.2885,18.8
134.3178,455.6
134.3299,17.3
134.3793,116.8
134.3996,746.9
134.4252,118.6
134.4393,777.2
134.533,21.1
134.538,140.6
134.5551,308.1
134.5846,439.2
134.585,441.7
134.6151,446.3
134.6365,117.6
134.6912,327.9
134.7064,414.8
134.7629,332.5
134.7701,283.8
134.7924,586.5
134.8611,285.1
134.8639,171.8
134.8857,790.7
134.8893,124.1
134.9454,217.7
134.9738,116.2
134.9823,121.6
134.9891,222.8
134.9965,34.3
135.0028,65860.3
135.034,139.9
135.0593,251.7
135.0808,19.3
135.1167,17.7
135.2162,162.6
135.2546,30.4
135.2809,322.7
135.2842,33.8
135.2901,36.5
135.3007,285.6
135.345,353
135.347,954.2
135.3501,140.7
135.3579,488
135.3915,524
135.4344,116.5
135.4775,131.1
135.5185,166.5
135.5592,130.7
135.5726,285.4
135.575,90.9
135.6107,271.7
135.6214,200.1
135.65,36.8
135.7222,458.9
135.7501,92.3
135.8138,213.3
135.841,250.4
135.9486,74.6
135.9741,17.3
135.9771,1088.9
135.9816,22
135.9836,169.4
135.9994,896.2
136.0062,776.7
136.0127,38.3
136.0298,146.3
136.0481,2405.1
136.0616,19.4
136.0756,6252
136.1709,38.8
136.1806,120.5
136.2958,22.6
136.3058,402.3
136.4475,200.1
136.5347,494.1
136.5457,720.1
136.5791,133.5
136.6854,129.7
136.74,245.9
136.7453,207.8
136.7567,204.4
136.7614,18.7
136.8577,383.9
136.8722,19.9
136.8948,249.6
136.9142,20.8
136.9178,102.6
136.9532,98.2
136.9894,62.8
136.9975,18.9
137.0175,417.8
137.0995,450.5
137.1129,161
137.1586,257.1
137.1751,33.7
137.2625,294.1
137.3025,346.7
137.3123,155.4
137.3183,19.5
137.3273,126
137.3379,641.7
137.401,273.4
137.5189,139.7
137.5248,16.3
137.526,385.8
137.5559,198.7
137.5665,377.6
137.6904,135.1
137.702,112.3
137.7115,171
137.7349,434.5
137.7502,36.4
137.7707,87.1
137.8213,626.5
137.8367,100.8
137.8476,893.4
137.8624,20.9
137.9453,901.2
137.9771,170.8
137.984,172.4
138.0107,229.9
138.0377,131.1
138.0525,7019.6
138.0661,56.6
138.0798,91.8
138.0815,359
138.1578,388.5
138.2149,156
138.2163,328.3
138.2224,470.6
138.2256,93.6
138.3023,324.3
138.3201,306.6
138.3236,21.6
138.3416,18
138.3805,305.4
138.3859,150
138.5076,116.8
138.5613,271.1
138.5621,302.3
138.5626,160.6
138.6351,227.7
138.6742,494
138.7525,658.9
138.7739,497.3
138.845,115.8
138.9063,953.3
138.9118,207.7
138.9201,111.8
138.9245,765.7
138.9535,20
138.9758,19.5
138.9842,24.8
139.0029,21.5
139.0172,17.2
139.0801,428.4
139.2009,165.5
139.2219,164
139.2757,472.1
139.3459,368.4
139.4135,655.8
139.4949,543.4
139.5484,91.9
139.5688,498
139.5745,322.6
139.5879,303.6
139.6107,345.3
139.7062,290
139.7141,403.8
139.7283,141.5
139.7934,107.8
139.8186,86.4
139.8393,19.6
139.9179,319.5
139.9265,365.7
139.9588,487
139.9907,238.7
140.0009,308.7
140.0164,4703.1
140.0425,390.9
140.0659,187.5
140.0683,19.4
140.1247,484.8
140.1675,372.4
140.1729,951
140.2458,319.4
140.2686,280
140.269,279.6
140.2698,164.4
140.2998,321.6
140.3145,148.3
140.315,191.1
140.3155,130.6
140.3319,97.7
140.3345,534.5
140.3883,287.1
140.4184,299.2
140.4225,99.1
140.4363,22
140.4529,533.5
140.4623,421.8
140.4985,123.2
140.5137,99.5
140.5433,499.4
140.5563,274.6
140.5771,436.6
140.6131,18.6
140.6437,543.6
140.6709,846.2
140.6721,306
140.693,429.1
140.7025,507.4
140.7267,95.1
140.7456,104.8
140.7476,303.4
140.841,905.7
140.8746,280.1
140.9034,671.4
140.9318,491.2
140.9797,129.8
140.9979,18.7
141.0004,18681
141.0125,345
141.0198,175.2
141.0682,334.7
141.0699,357.6
141.0734,17.2
141.0934,264.7
141.1351,131.3
141.1366,331.6
141.3002,231.9
141.4526,179.7
141.4867,269.8
141.4951,762
141.5038,458.3
141.5378,322.1
141.5562,336.3
141.7093,205
141.7768,816.5
141.8514,201.5
141.8781,176.2
141.881,320.5
141.9128,296.5
141.9274,260.7
141.9949,351.9
142,105.3
142.0037,392.8
142.0122,92.8
142.0472,865
142.0629,953.6
142.0773,296
142.0928,741.4
142.1196,292.8
142.3242,20.5
142.3452,424.7
142.3861,255.8
142.4762,90.6
142.4984,309.8
142.5509,576.7
142.6351,643.5
142.6941,127.2
142.7513,451.6
142.7824,122.6
142.7957,115.2
142.7993,105.6
142.8127,260
142.9373,24.6
142.9582,392.7
142.9665,298
142.9962,270
143.0004,472.5
143.0025,17.1
143.0364,77.3
143.0579,149.2
143.0812,23
143.2246,34.8
143.2364,674.2
143.2776,572
143.2818,431.3
143.2959,305.7
143.3228,99.4
143.372,403.8
143.4027,498.2
143.4664,331.2
143.5545,19.6
143.5858,312
143.5953,119.9
143.6101,329.7
143.6181,24.5
143.6608,103.9
143.7181,81.9
143.7497,180.8
143.7978,111.5
143.9043,121.3
143.9516,92.2
144.0106,1074.2
144.0916,799.6
144.1184,194.4
144.1263,171.7
144.1746,633.7
144.1778,586.6
144.1875,674.1
144.1988,301
144.2004,87.5
144.3319,16.3
144.3556,479.3
144.4104,354.3
144.465,325.9
144.4933,22.6
144.52,638.8
144.5704,106.4
144.7091,20.8
144.7138,545.7
144.7457,133.6
144.7908,20.7
144.8296,322.7
144.8602,109.3
144.8826,528.7
144.8979,287.8
144.9181,391.5
144.9807,1652.9
145.0159,28.9
145.1101,30.4
145.1193,103.6
145.1256,209.6
145.1329,335.1
145.2026,557.3
145.3374,218.3
145.3608,601.5
145.3765,765.4
145.4204,19.9
145.4404,520.9
145.4938,137.7
145.5303,155.5
145.6035,76.2
145.6306,98.8
145.671,610.4
145.6817,143.4
145.7009,123.4
145.7538,79.5
145.7559,22.2
145.7758,135.8
145.8078,317.7
145.8905,436.8
145.9664,41.9
145.9823,131
145.9929,400.3
146.0001,377.6
146.0123,2257.8
146.0187,21792.2
146.0262,131.8
146.0431,156.2
146.0588,378.8
146.1424,236.1
146.1506,104.4
146.1692,525.6
146.2463,207.6
146.2722,17.9
146.2815,33.3
146.3355,563.3
146.3393,299.4
146.347,350.2
146.3615,29.4
146.4444,19.6
146.4558,313.8
146.5047,197.5
146.5696,234.6
146.6149,401
146.65,107.8
146.8407,619.4
146.9026,428.5
146.9046,21.6
146.9117,95.6
146.9524,518.6
146.9744,64.7
146.9817,108399.3
147.0108,319
147.073,78.3
147.0763,60378.1
147.0836,126.5
147.1106,452.3
147.1127,42257.4
147.1166,373
147.1547,143.5
147.1661,282.8
147.1963,103.6
147.2094,432.1
147.2242,32.9
147.3095,476.6
147.3329,103.7
147.3747,20.7
147.3768,363
147.3856,147.2
147.3894,249.2
147.4121,366.4
147.4207,558.1
147.4439,502.1
147.4996,23.1
147.5459,373.4
147.6397,125.6
147.6525,581.7
147.7587,786.7
147.7782,199.1
147.8531,168.4
147.9804,436.6
148.0021,95.8
148.0268,180.3
148.0287,313.5
148.0471,22.1
148.0718,739.5
148.0751,769.9
148.0794,830.2
148.1121,26.4
148.116,493.6
148.207,111.1
148.2107,88.3
148.2207,623.5
148.2304,602.9
148.253,473.8
148.3624,18.3
148.3726,263.1
148.4537,193.4
148.4755,239.2
148.5023,154.1
148.532,3539.9
148.6248,573.5
148.6375,323.1
148.6659,17.8
148.7204,517.5
148.7265,80.8
148.7411,449.9
148.7771,546.4
148.7968,125.2
148.8126,291.9
148.847,215.8
148.9085,18.4
148.9446,322.7
148.961,1471.2
148.9887,141.2
148.9979,714.8
149.0024,27.5
149.0184,2595.4
149.0233,4568.1
149.0449,54.6
149.0948,113.3
149.101,104.7
149.1693,31.8
149.1911,120.3
149.2243,305
149.2797,432.7
149.2978,596.4
149.3398,554.5
149.3972,19.1
149.4303,187.2
149.516,124.5
149.5236,89.7
149.602,170.5
149.6213,320.6
149.6279,736.7
149.6313,456
149.6556,600.7
149.6732,201.2
149.7707,345.5
149.7856,271.5
149.797,623.5
149.8032,35.4
149.8182,108.7
149.8535,318.5
149.8663,18.8
149.8944,756.9
149.8972,330.9
149.9528,276.6
149.9871,76.8
149.9927,4077.8
150.0095,136
150.0137,6163.1
150.0267,82.8
150.0611,16.2
150.114,104.1
150.2821,136
150.3128,93.2
150.4992,252.6
150.5152,406.4
150.5299,135.8
150.6018,79.3
150.6397,693.1
150.7626,543.2
150.8854,210.4
150.9689,85.2
150.9768,51052.4
150.9841,4998.5
151.0009,484.7
151.0477,3621.5
151.0865,211.9
151.1063,173.9
151.1859,322.6
151.2187,299.3
151.2259,474.2
151.2289,443.2
151.2364,112.9
151.2733,505.6
151.3703,129
151.4422,327.7
151.4701,480
151.5466,171.6
151.6208,345.5
151.6272,32.2
151.6607,167.2
151.7906,82
151.9061,112.1
151.9114,318
151.9303,84.2
151.9437,137
151.9803,387.2
151.9874,222.3
152.005,287.2
152.009,363.1
152.0221,6653.8
152.0316,2257.8
152.0503,91.4
152.0569,218.2
152.0661,240.8
152.0719,424.8
152.0874,106.3
152.0898,449.8
152.1617,86.1
152.2001,368.7
152.2429,270.2
152.2515,101.8
152.3507,623.1
152.4065,20
152.5044,17
152.5706,82.1
152.5926,272.6
152.631,614.3
152.6824,153.6
152.7754,101.9
152.7864,118.2
152.8217,411.8
152.8388,128.7
152.8991,381.4
152.9748,576.6
153.0438,158.8
153.1088,19.8
153.1379,113.7
153.1686,147.1
153.1992,265.8
153.231,98.5
153.2335,260.8
153.2416,169.3
153.2606,87.9
153.2882,167.7
153.2961,179.7
153.2999,42.3
153.3191,331.9
153.4813,296.5
153.5021,85
153.5248,193.9
153.641,127.9
153.6652,350.6
153.7019,162.3
153.7312,173.8
153.7905,260.6
153.8875,79.1
153.9173,31.9
153.9224,97.7
153.962,99.5
154.011,258.9
154.0264,1745.5
154.0545,428.7
154.0587,2713.9
154.1324,17.2
154.134,94.5
154.1445,490.4
154.157,369.2
154.2227,203.2
154.2632,159.9
154.2855,251.7
154.3016,650.6
154.3053,661.1
154.4159,119.2
154.4363,19.4
154.4441,122.6
154.4466,233
154.4509,287.8
154.4586,160.7
154.4694,241
154.4747,495.7
154.5467,83
154.5709,84.3
154.5732,126.7
154.5925,101.6
154.6596,181.7
154.6952,394.6
154.7061,200.3
154.7433,19.7
154.7501,819.2
154.7577,398.1
154.7965,410.8
154.8747,472
154.9419,21.9
154.9766,328.2
154.9957,19.9
155.0031,112.3
155.0111,110.4
155.0424,743.8
155.0486,78.7
155.0539,3448.5
155.0696,853.3
155.0729,219
155.1045,122.3
155.1079,86.7
155.1427,261.8
155.1549,308.6
155.2611,503.6
155.3139,160.1
155.3349,518.2
155.3775,20.3
155.3832,20
155.3891,91.3
155.4756,639.4
155.4888,208
155.4953,212
155.629,107.4
155.6371,361.5
155.6487,280.1
155.6658,135.9
155.7127,87.2
155.7777,157.5
155.7798,22.5
155.8107,17.4
155.892,332.5
155.8956,275.6
155.8977,103.7
155.9006,249.7
155.9304,68.6
155.9584,98
155.988,495.7
156.0108,52.5
156.0421,566.1
156.0713,82.4
156.0767,54341.3
156.1303,464.6
156.2372,21
156.3778,95.3
156.4553,386.1
156.4816,843.7
156.5186,32.8
156.5215,18.1
156.6186,308.4
156.6909,575.9
156.698,88.4
156.745,316.7
156.7936,569.2
156.8296,470.4
156.8788,19.7
156.9484,90.1
156.9739,19.5
156.9819,113.5
157.021,263.6
157.0456,205
157.074,547.3
157.0799,1337.3
157.0965,176.4
157.1113,486.4
157.1556,88.3
157.209,139.7
157.2198,123.1
157.2423,117.9
157.2826,675.4
157.2934,295.9
157.3382,370.7
157.343,508.5
157.3757,21.2
157.4025,298.4
157.4763,244.6
157.512,258.4
157.517,267.7
157.5848,221.3
157.6821,357.2
157.7003,709.7
157.7488,158.9
157.7877,123.4
157.8029,144.7
157.8446,310.2
157.8577,358.7
157.8955,421.9
157.9401,551.8
157.9654,250
158.0095,137.1
158.0211,168.6
158.0271,4148.9
158.0462,334.5
158.095,441.5
158.1286,113.2
158.1529,18.6
158.1548,588.1
158.1752,372.3
158.327,79.5
158.3311,226
158.3674,259.6
158.4032,426
158.4144,275.1
158.4176,151.8
158.5242,702.4
158.5281,100.2
158.5981,322.6
158.605,238.2
158.6067,135
158.6653,97.8
158.675,19
158.7411,110.5
158.7619,96
158.7778,535.2
158.8065,266.7
158.811,114.1
158.8168,226.4
158.9044,32.4
158.9344,126.6
158.9641,8838.4
158.9964,6986.4
159.0053,352.5
159.0112,26.2
159.0305,111.7
159.0581,21.1
159.0762,362.2
159.0804,19.8
159.0919,138.7
159.0995,473
159.1928,125.6
159.2955,212
159.3048,508.8
159.3492,113.6
159.3678,113.8
159.3779,727.9
159.4695,342.5
159.4977,193.8
159.5771,180.1
159.7168,197.2
159.7364,19.6
159.7643,102.8
159.77,120.6
159.8242,291.1
159.917,298
159.9288,605.6
159.9443,81
160.0018,203.8
160.0099,126
160.0229,44.1
160.0345,15963.5
160.0604,82384.7
160.0701,135
160.1324,396.1
160.1508,123.7
160.1764,17.1
160.2022,271
160.2991,363.4
160.3273,279.6
160.4328,116
160.4381,18.3
160.4513,468.8
160.5481,141.4
160.6329,232.7
160.644,640.9
160.8168,329.2
160.8377,173
160.8831,116.8
160.8915,201.3
160.9647,21.6
160.971,100.6
160.9861,320.2
160.9922,171.8
161.011,79.8
161.0475,352.3
161.0638,3490
161.1285,1762.9
161.2068,18.6
161.2175,111.9
161.2259,212.5
161.2568,670.9
161.2915,137.7
161.2996,104.7
161.3954,346.6
161.4673,173.9
161.484,159.6
161.492,115.5
161.524,588.7
161.6641,18.6
161.6729,111.6
161.6911,815
161.7085,811.9
161.7281,676.5
161.803,516.3
161.8364,500.1
161.8553,115.3
161.9394,353.8
162.0301,340.5
162.0322,897
162.0501,14221.1
162.0574,72.4
162.0901,109.1
162.1108,250.4
162.1991,131
162.2129,18.9
162.23,222.8
162.2669,501.6
162.271,78
162.2957,293.1
162.3648,90.5
162.4085,208
162.4197,113.6
162.4226,200.9
162.4524,197.1
162.4797,341.8
162.5015,255.8
162.5141,207.2
162.5642,275.7
162.6338,84.4
162.6358,882.6
162.722,201.2
162.8185,270
162.8213,97.6
162.8393,32.4
162.8776,211.2
162.8977,324
162.9557,8177.4
162.9697,118.5
163.0154,1781.2
163.0196,189.4
163.0592,203.8
163.1481,19.3
163.1521,244.8
163.1552,624.5
163.1753,87.5
163.2226,285.7
163.3045,153.5
163.3276,463.6
163.462,187.5
163.4662,215.7
163.4941,259.8
163.5036,204.8
163.6281,19.6
163.6624,17.2
163.694,589.3
163.9453,438.5
163.9534,304.4
163.9555,544.9
163.9771,145.4
163.9894,184.2
164.0139,30.7
164.0294,14074.6
164.0723,96.4
164.1236,333
164.1303,140.8
164.2427,568.5
164.2606,100.4
164.2881,179.7
164.4001,170.2
164.4177,81.8
164.4538,548.6
164.4698,324.1
164.4839,170.8
164.5323,1095.6
164.5425,283.5
164.59,250.3
164.6473,17.9
164.7057,418.5
164.7164,341.8
164.7882,29.3
164.8182,113.8
164.8561,180.7
164.8621,111.4
164.8721,17.9
164.8966,1035.9
164.9205,2911.8
164.93,9863.7
164.935,1360.5
164.9925,1998.4
164.9997,612.3
165.0648,791.1
165.0863,130
165.0883,450
165.1953,125.5
165.1977,87.2
165.2693,185.7
165.3286,347.3
165.379,207.6
165.3956,515.1
165.5452,198.8
165.5493,187.4
165.6159,202
165.6263,800
165.64,120
165.6765,242.4
165.6876,470.1
165.7072,501.4
165.7422,134
165.8091,19.1
165.8973,20.2
165.9665,777.6
165.9786,686.6
165.9877,4226.9
165.995,2067.5
166.0682,20.2
166.0838,806.9
166.1649,314.5
166.1738,84.8
166.1895,17.8
166.232,705.4
166.2659,92.6
166.3503,105.9
166.3753,454.1
166.4003,484.6
166.4253,97.8
166.4398,743.1
166.4574,91.7
166.4821,179.3
166.6071,20.7
166.6455,409.1
166.6886,278.2
166.7004,230.7
166.7138,458.7
166.8062,236.7
166.8209,287.5
166.8366,116.7
166.857,132.6
166.8605,22.4
166.907,448.1
166.9274,280.9
166.9508,22512.2
166.9628,1073.7
166.9716,660
166.9789,60
167.0001,123.8
167.0217,7617.3
167.0869,326.9
167.1539,176.5
167.1741,78.3
167.2468,128.1
167.2568,24.5
167.2638,216
167.2692,159.4
167.3052,623.5
167.3238,139.9
167.3547,101.3
167.3726,102.5
167.3848,116.1
167.4524,29
167.4659,108.5
167.6019,180.8
167.6054,795.8
167.6402,153.2
167.7724,371
167.8077,75
167.8185,208.7
167.8393,340.2
167.8918,117.2
167.9072,75.3
167.9342,569.6
167.9605,502.9
167.9699,578.9
167.9944,2904.3
167.9991,418.1
168.0058,407.9
168.1065,126.8
168.1315,18.7
168.1987,137.2
168.2159,18.7
168.23,17.3
168.2651,349.7
168.2959,156.4
168.3405,414.5
168.4901,504
168.5554,142.6
168.6051,16.8
168.6412,317.2
168.8103,109.5
168.9008,252.6
168.9119,559.2
168.9375,181.1
168.9488,2122.2
168.9995,151.2
169.0063,261.8
169.0547,488.8
169.0583,61881.6
169.0649,125.2
169.0691,333.7
169.0892,39.3
169.0948,2444.3
169.2029,78.2
169.2699,16.9
169.2846,190.1
169.3795,114.7
169.3823,18.4
169.4554,460
169.4643,478.1
169.4757,172.5
169.514,143.1
169.5417,262.6
169.5875,310.5
169.6088,29.8
169.6624,31
169.6983,274.6
169.7118,453.3
169.7214,464.1
169.7303,176.4
169.7495,819.4
169.7518,98.4
169.7758,164.4
169.9164,266.4
169.9296,137.3
169.9424,18.2
169.9503,638.3
169.9693,168.4
169.9834,581.8
169.9859,387.5
169.991,49
170.0229,95.9
170.0327,3996
170.043,487.3
170.0618,821.9
170.0764,466.8
170.0925,2521.9
170.1492,209.3
170.1855,23.6
170.2744,41.4
170.3202,543.4
170.4042,122.5
170.4195,214.9
170.4685,500.7
170.5064,508.3
170.5142,259.6
170.6207,19.8
170.6839,482.6
170.7004,162
170.8543,3889.6
170.8636,503
170.8988,208.8
170.9141,116.1
170.9391,178
170.9471,101.2
170.9951,18.4
170.9982,19.1
171.0166,1122.7
171.0214,96.7
171.0279,140.3
171.053,2944.3
171.085,128.2
171.1326,226.5
171.2553,18.3
171.2734,293.8
171.327,100.9
171.3606,83.7
171.3924,439.2
171.3947,128.2
171.3965,18.5
171.4123,188.5
171.4343,589.2
171.5306,544.8
171.6014,450.5
171.6158,146.4
171.6311,281.2
171.6362,158.1
171.8297,201.3
171.8502,93.6
171.904,297.3
171.9095,113.1
172.0117,283.8
172.0218,236.9
172.028,940.1
172.0361,33.7
172.0403,180
172.105,112.8
172.1293,338.1
172.152,254
172.1672,560.5
172.2597,495.6
172.348,279.9
172.4125,122.2
172.4411,480.7
172.455,494.9
172.4911,287
172.507,131.4
172.5205,163.8
172.5742,342
172.6063,380.1
172.6153,538.6
172.6543,207.6
172.6721,18.4
172.7654,20.9
172.8513,2902.3
172.8643,202.5
172.8995,19.5
172.9241,563
172.9354,254.2
172.9674,591.8
172.9766,126.5
173.0035,561.2
173.0268,306.3
173.0315,383.8
173.0372,172.3
173.0958,1167.3
173.1179,413.1
173.1619,149.6
173.1638,138.8
173.1772,73.7
173.3041,608.2
173.362,81.2
173.3741,525.9
173.3839,122.4
173.3913,299.8
173.4009,577.8
173.4923,459.1
173.5234,100.1
173.6086,351
173.651,195.6
173.6663,92.1
173.6761,398.9
173.6948,18.3
173.7527,188.8
173.7579,192.7
173.7692,39.5
173.825,762
173.8698,28.5
173.891,96
174.0007,94.8
174.0203,373
174.1448,19.2
174.2423,260.1
174.244,220.6
174.3766,17.4
174.3941,551.9
174.5088,650.5
174.5489,37.6
174.5639,526
174.5921,527.3
174.6441,85.1
174.6749,138
174.686,95.6
174.7642,473.2
174.8207,73.5
174.8524,561.3
174.9001,136.8
174.9381,4441.2
174.9688,744.4
174.9933,151
175.0342,2905.6
175.0454,1654.6
175.0636,87.7
175.119,87566.2
175.2421,244.5
175.3377,616.1
175.3507,17.2
175.3725,106.5
175.376,728
175.4536,125.1
175.5215,168.4
175.5501,31
175.5818,311
175.6115,375.8
175.6221,494.3
175.6308,510.5
175.6654,16.3
175.6808,680
175.7601,318.9
175.8549,213.8
175.9318,34.2
176.0004,89.1
176.0025,86.2
176.0085,7619.3
176.0161,42.4
176.0658,17039.2
176.0826,311
176.1029,1851.9
176.1224,977.4
176.1426,386.3
176.2858,115.4
176.3963,311
176.4781,252.9
176.4893,293.7
176.5379,240.2
176.5473,260.2
176.663,278.5
176.675,456.8
176.6954,21.3
176.8068,102.8
176.8931,39.9
176.9331,34.8
176.9385,125.8
177.0246,2002.1
177.0612,5519.1
177.129,96.6
177.1482,757.5
177.1612,340.7
177.1833,476.7
177.1974,16.8
177.2287,463
177.2432,188.4
177.2808,19.1
177.3505,601.7
177.4364,110.5
177.6376,532.3
177.6902,32.3
177.6971,358.6
177.7065,768.8
177.7107,99.7
177.727,261.7
177.7309,105
177.744,436.7
177.8094,130.2
177.8168,290.2
177.83,20.1
177.8639,169.6
177.8809,107
177.9074,246.1
177.9407,808.2
177.9712,174.6
177.9946,83.6
178.0087,9373.8
178.016,24.9
178.0242,10321.7
178.0586,4666.7
178.0679,17.8
178.097,126
178.1232,98.6
178.1401,299.5
178.257,377.4
178.2613,106.5
178.2844,180.8
178.3176,139.9
178.3353,256
178.38,608.3
178.4344,348.1
178.446,86.1
178.5126,132.3
178.5551,248.5
178.613,367.5
178.6496,167
178.6622,81.3
178.7595,981.7
178.7866,756.6
178.8769,104.9
178.8928,25
178.9166,576.2
178.9218,192.2
178.946,291.6
178.9549,18.8
178.9639,313.6
179.0029,107.7
179.0337,217.9
179.0485,199.4
179.0599,111.2
179.0799,128.9
179.0881,121.5
179.0947,33
179.1069,21.4
179.1228,153.5
179.2072,93.4
179.246,98.9
179.3639,20.7
179.485,18.6
179.5342,257.9
179.5377,326.1
179.5513,180.4
179.5642,174.4
179.5754,16.7
179.6233,755.2
179.6389,151.7
179.6609,191.5
179.711,123.7
179.7355,85
179.7596,34.7
179.7683,411.6
179.8104,303.9
179.8479,151.4
179.9457,186.1
179.9692,228.4
180.0033,11101.9
180.0108,208
180.0777,127
180.0974,146.5
180.1107,216.3
180.1134,189.1
180.1248,360
180.1655,96
180.1919,479.4
180.203,295.7
180.2269,311.5
180.2423,683.2
180.3541,510.5
180.4521,110.4
180.5299,284.6
180.624,608.6
180.6264,277.2
180.7758,332.3
180.7824,19.9
180.8209,602.3
180.8642,116.3
180.8712,230.5
180.8882,812.6
180.8945,2046.4
180.904,8748.8
180.9436,34.6
180.9574,860.1
180.9668,351.5
181.0158,41.6
181.0262,58.3
181.0344,502.7
181.0649,7569.9
181.095,183.8
181.1184,127.5
181.1238,103.5
181.1342,118.8
181.1728,99
181.2194,81.7
181.3433,306.5
181.3543,35.2
181.3751,79.2
181.3995,76.7
181.4886,434.8
181.5893,552.3
181.6179,164.4
181.6633,135.2
181.6686,214.1
181.6855,196.2
181.759,16.7
181.7618,181.8
181.7825,141.9
181.7997,96.9
181.8145,74.9
181.8325,357.7
181.8871,17.5
182.0107,41.3
182.0424,32748.4
182.076,32.9
182.0806,277.9
182.0891,566.9
182.0912,19.6
182.1107,17.4
182.2327,18
182.2766,337.6
182.2839,258.8
182.285,291.5
182.3155,494.4
182.3567,683.1
182.3813,608
182.503,372.3
182.6046,713.1
182.6296,391.6
182.6478,357.2
182.6503,301.2
182.6782,442.8
182.6841,88.4
182.7419,263.7
182.7557,128.7
182.835,310.5
182.9024,60
182.9307,104.7
183.0055,745.2
183.0409,445.2
183.0443,658.5
183.0471,92.2
183.0995,402
183.1518,556.1
183.1658,148.9
183.2866,83.4
183.3009,392.5
183.3074,19.7
183.3168,453.1
183.3654,92.5
183.3876,86.8
183.429,311.1
183.4631,563.5
183.4901,702.3
183.5894,85.7
183.7449,415.6
183.7637,18
183.9548,82.3
183.9648,1601.2
183.9859,207.6
184.0128,334.2
184.0369,403.3
184.0734,4534877.5
184.0797,759.9
184.0947,430.1
184.1095,463.3
184.1147,137.2
184.17,19.1
184.1822,1346.6
184.2297,139.1
184.3809,17.4
184.4352,19.4
184.4629,315.5
184.477,34.5
184.5109,150.9
184.5942,17.5
184.6511,33.6
184.6562,822.4
184.6805,92.1
184.6865,94.7
184.7664,194
184.8185,275.2
184.8855,502
184.896,239.1
184.9297,57.5
185.0077,167.1
185.0323,87773.3
185.057,111.2
185.0703,8947.4
185.0767,212860.4
185.1329,153.8
185.1986,114.2
185.2115,165.9
185.2835,32.6
185.2905,19.9
185.3492,32.8
185.4112,170.7
185.4789,278.3
185.6175,589.5
185.7348,706.3
185.7464,293.5
185.7535,108.1
185.7881,703.8
185.8084,783.9
185.8192,488.2
185.8638,166.6
185.872,134.1
185.9395,137.6
185.9598,513
186.0359,1620.6
186.0735,208.9
186.0776,30002.3
186.1245,531.8
186.1388,144.3
186.2635,446.8
186.2846,117.1
186.3894,499.9
186.4004,79.5
186.4179,100
186.424,680.9
186.4427,463.5
186.4948,585.4
186.5422,480.4
186.5668,286.8
186.6101,150.2
186.6717,548.8
186.7985,162.5
186.8288,322.8
186.8414,167.4
186.9119,3149
186.9252,304.1
186.9283,332.1
187.0304,2763.1
187.0471,280.3
187.0528,240
187.0577,5884.7
187.0715,657.4
187.1415,144.5
187.1523,17.6
187.2,470.1
187.2034,186.7
187.2366,470.7
187.2625,309.4
187.3311,170.3
187.3327,125.7
187.441,317.7
187.5151,23.1
187.5471,372.5
187.6066,102.1
187.6162,273.1
187.6488,228.9
187.7059,232.2
187.7459,853.5
188.0026,517.1
188.0181,558.3
188.0791,129.7
188.1517,266.6
188.1759,19.1
188.2011,106.9
188.208,86
188.2108,224.6
188.4224,124.2
188.4439,103.2
188.4623,358.4
188.5977,168.9
188.6574,19.6
188.7706,421.4
188.8537,91.9
188.9248,27.8
188.9592,154.2
189.0147,103.3
189.0209,106.7
189.0454,701
189.061,2545.8
189.087,8236.2
189.1007,569.8
189.1107,204
189.1309,157.2
189.243,105.9
189.2854,467.3
189.3259,103.2
189.3905,113.6
189.4452,632.7
189.5606,477.2
189.5637,323.9
189.602,300.5
189.6629,17.8
189.6966,20.8
189.7416,256.2
189.8014,335.3
189.9025,22.8
189.931,389.3
189.9559,32.8
190.0851,323.6
190.0872,76.1
190.0925,133.9
190.1103,333.1
190.2415,149.9
190.3404,142.1
190.5511,20.5
190.6931,189.8
190.7091,354.2
190.7424,130.9
190.7691,32.9
190.8383,715.6
190.8726,513.6
190.8781,575
190.8977,135.5
190.912,1590.8
190.9446,47.3
191.0001,79.4
191.0083,3344.8
191.0239,28.7
191.0404,99247.4
191.0768,19171.5
191.1128,439
191.1621,88.6
191.1878,191.8
191.1979,122.7
191.2298,245.1
191.2428,541.4
191.2765,294.7
191.3279,103.8
191.3593,310.3
191.5895,89.2
191.7411,295.7
191.7456,499.9
191.81,156.5
191.8287,344.3
191.8457,145.7
191.8576,18.8
191.8806,43.3
191.9233,91.2
191.9825,793.8
192.0076,91.1
192.0111,79.7
192.0133,426.6
192.0198,38.3
192.034,19.8
192.0398,12205.6
192.0438,4271.7
192.0509,299.6
192.0683,426.9
192.2885,180
192.582,320.5
192.6423,271.9
192.6491,557.8
192.7286,216.7
192.7728,153.2
192.9,17.5
192.911,134.6
192.9798,403.7
192.987,302.5
192.9986,2011.4
193.0012,235.6
193.0159,149.5
193.0351,2567.7
193.047,122.5
193.0996,365.6
193.1146,291.4
193.141,93.6
193.1689,289.3
193.2138,94.5
193.2603,102.8
193.2983,85.5
193.3062,275.5
193.4973,28.6
193.5108,245.1
193.5381,146.5
193.5588,30.6
193.5776,120.7
193.6044,102.2
193.6711,648
193.7414,18.2
193.7572,92.1
193.7663,117.7
193.795,310.4
193.8513,120.1
193.8782,21.1
193.8953,102.3
193.9131,295
193.9487,28.5
193.9896,22.1
193.9981,3340.6
194.0048,794.3
194.0096,425.8
194.0327,3211.7
194.1196,545.1
194.154,55.3
194.2461,282.2
194.2529,153.6
194.2547,21.7
194.2838,85.9
194.329,274.1
194.3452,266.8
194.359,93.1
194.4041,275
194.4097,18.8
194.5264,324.5
194.601,94.7
194.6259,106.7
194.707,17.7
194.9039,297.7
194.9158,219.3
194.9363,20.7
194.9429,857.5
194.9695,167.7
195.0356,222
195.0652,187.1
195.0878,33.4
195.1093,172.5
195.141,22.3
195.2101,230.6
195.3632,96
195.437,231.7
195.4572,275.9
195.5892,117.1
195.7019,519.8
195.7091,562.1
195.7133,509.1
195.7752,18.3
195.8384,360.6
195.8559,290.3
195.9682,25.8
195.9777,419.7
196.0419,420.6
196.0657,115.8
196.0792,412.5
196.1697,207.8
196.1735,131.6
196.3529,244.9
196.3653,360.8
196.4535,379.9
196.5109,90.8
196.5166,141.1
196.6605,137.2
196.7219,654.3
196.7383,187.2
196.747,214.1
196.7866,373.9
196.7923,233.5
196.8274,89.6
196.8403,80.8
196.847,80.3
196.8652,2803.7
196.8683,1111
196.878,1539.8
196.9324,272.7
196.969,23.6
196.978,289.9
197.0597,457.5
197.0827,30.6
197.1009,365.8
197.1333,158.5
197.1658,198.2
197.1768,204.6
197.1834,155.6
197.2944,413.8
197.3514,204.7
197.3629,102
197.3814,135.5
197.4756,593
197.5075,418.1
197.5815,130
197.6427,257.1
197.6439,246
197.6454,249
197.7095,536.8
197.8271,312.9
197.847,161.4
197.8539,311.6
197.9434,366.7
197.9602,303.5
197.9858,134.1
198.0067,21.9
198.0152,115
198.0677,394.6
198.085,9318.9
198.0887,685
198.1854,6517
198.192,22.7
198.2739,631.3
198.3277,533.5
198.342,112.9
198.3625,120.3
198.4107,593.9
198.4192,307.6
198.5272,140.4
198.5738,121.5
198.5842,20.4
198.6398,304.6
198.7201,361.9
198.7536,202.4
198.8042,574.4
198.8175,17.8
198.8543,25.2
198.8623,3980.6
198.9171,91.3
198.9887,566.7
199.0168,452.1
199.0189,173.4
199.0321,134.6
199.0449,95.1
199.069,266.9
199.0752,1414.9
199.0802,49.5
199.1059,143.7
199.1206,277.5
199.1568,85.1
199.19,493.5
199.2145,129.8
199.2978,239
199.4272,383.2
199.4502,73.6
199.6895,271.4
199.7254,103.3
199.7502,253.2
199.9907,32320.2
200.0007,21.8
200.0407,11925
200.0679,19.5
200.1735,101
200.2466,681.5
200.2792,482.2
200.2969,11047.1
200.3592,704.7
200.3765,404.3
200.3838,254.4
200.3999,22.1
200.5159,330.8
200.5497,270.5
200.579,536.1
200.5831,520.3
200.5904,194.1
200.6836,210.2
200.7271,199.7
200.7378,100.4
200.8284,462.8
200.8592,683.5
200.8943,581.5
200.9555,212.3
200.9874,20.5
200.9911,242.5
201.0161,24.4
201.0343,145.9
201.0542,311.4
201.0834,190.5
201.087,143.3
201.1092,545.8
201.1156,148.3
201.2361,105.8
201.2411,470.5
201.4065,364.4
201.4916,119.7
201.518,171.1
201.5204,102.7
201.5499,20.3
201.6231,115.7
201.7574,390.9
201.77,116
201.8145,220.1
201.8647,180.8
201.8711,101.7
201.8897,19.8
201.8941,84.1
201.9956,131.2
202.0163,104.7
202.0316,19.7
202.0482,800.2
202.0641,83.6
202.0767,141.3
202.0977,282.6
202.1194,315.9
202.236,17.3
202.2626,251.7
202.4449,110.2
202.4921,125.2
202.5506,132.9
202.5925,426.2
202.6267,633
202.6326,19102.1
202.6635,123.4
202.6861,31.7
202.7174,149.6
202.7273,576.2
202.7556,326.4
202.8164,555.7
203.0319,3681.1
203.0527,1168916.8
203.0602,346.6
203.0703,24.7
203.0767,9325.9
203.1038,79.8
203.1145,222.9
203.1244,124.6
203.1524,282
203.2079,88.4
203.2248,17
203.2691,109.4
203.3096,19.6
203.3509,219.9
203.3789,17.4
203.4242,21.2
203.4362,995.6
203.442,153
203.4449,128.9
203.4493,593.1
203.4532,410.2
203.5057,302.6
203.5677,140.5
203.6461,99.5
203.6576,151.8
203.6688,22.2
203.679,306.4
203.7618,294.9
203.7669,114.1
203.7854,84.7
203.8053,495.4
203.9153,318.3
203.9257,131.9
203.9461,19.9
203.9532,154
203.9795,477.8
204.0021,98.2
204.0244,48789.7
204.032,66.2
204.0474,24.9
204.056,57981.2
204.0628,424.3
204.1144,19.3
204.1407,196.7
204.1731,95.1
204.1875,240.6
204.3101,518.2
204.3629,18.3
204.5336,180.6
204.6025,257.3
204.6921,202.3
204.6993,217
204.7153,133.9
204.7231,138
204.785,202
204.8887,228.3
204.9409,306.5
204.9467,153.9
205.016,26
205.0307,21.5
205.0378,36.3
205.0569,8165
205.0625,553.4
205.0837,45.2
205.0974,851.5
205.2953,498.5
205.2998,145.5
205.3123,296.6
205.3155,498
205.4245,109.6
205.5328,87.7
205.5548,636.5
205.6685,94.5
205.7002,285.4
205.7118,112.4
205.7506,18.3
205.7571,108.8
205.7782,142.1
205.8768,213.6
205.9333,338.1
205.9363,215.8
205.9715,287.5
205.9982,586.1
206.0201,18.9
206.0271,55.5
206.0475,124.9
206.0555,3694.7
206.1017,168.3
206.1182,112.6
206.1765,97.9
206.1973,161
206.2605,94.6
206.2783,134.4
206.4276,98.6
206.5697,82.3
206.6028,130
206.6054,274.9
206.6274,241.9
206.638,463.4
206.651,121.6
206.7727,32.2
206.8037,150.3
206.8434,129.6
206.8647,31.1
206.8677,17.6
206.884,185.3
206.8878,135.3
206.894,11540.5
206.9161,468.3
206.9463,300.5
206.9822,2652.7
206.9994,256.2
207.0144,84487.1
207.0371,125.1
207.0442,1799.5
207.0507,13424.1
207.1388,23.4
207.1424,17.7
207.1479,123.4
207.2042,106.3
207.2836,18
207.2941,82.5
207.3606,18.1
207.4411,236.6
207.5214,176.5
207.5434,383.2
207.5711,402.1
207.5898,182.8
207.7371,386.5
207.7442,737.8
207.8693,168.4
207.8866,48.6
207.9642,83
207.9744,17.5
207.9908,1192.6
207.9947,319.9
208.0139,2013.5
208.0178,2167.1
208.0469,482.5
208.0592,117.8
208.0685,144.5
208.1812,270.7
208.2004,96
208.2088,315.6
208.3068,701.9
208.3157,21.7
208.331,483.1
208.3536,163.6
208.5014,328
208.5464,187.2
208.5605,190.2
208.5955,606.2
208.5963,630.3
208.5978,476.4
208.6333,17.1
208.66,116.2
208.6958,23.3
208.7273,103.6
208.753,295
208.8008,320.6
208.865,225.5
208.8736,810.7
208.8832,1677.3
208.8911,8905.8
208.9167,131.8
208.9354,560.9
209.0126,4021.6
209.0492,210.8
209.0688,85.4
209.1032,142.4
209.1773,138.4
209.2647,112
209.3083,114.7
209.3678,544.2
209.3744,325.1
209.3978,86.8
209.465,102.3
209.545,297.6
209.6077,261.4
209.8836,23.2
209.9775,37.1
210.1988,18
210.2876,18.2
210.3187,19.8
210.8877,320.6
210.916,20.1
210.9482,106.5
210.9509,30.8
210.9785,93
210.9964,107.5
211.0307,249.8
211.0408,120.8
211.049,636.8
211.0567,655.7
211.0607,136.6
211.069,413.2
211.0936,333.9
211.1341,630.9
211.1536,167.9
211.223,256.6
211.2951,1348.9
211.3035,20372.3
211.3084,29398.6
211.311,35558.4
211.314,18021.5
211.3218,3342.3
211.4723,18.4
211.5009,187.4
211.5335,727.8
211.5641,263.1
211.6625,669.6
211.7897,18.3
211.8535,780.4
211.9074,88.1
211.9378,563.1
211.9667,113.5
212.0243,216
212.0743,107.7
212.2156,113
212.2595,273.5
212.338,18.7
212.4008,389.6
212.4233,376.9
212.426,341.1
212.4992,400.9
212.5268,484.3
212.6154,872
212.6282,349.2
212.6477,357
212.6553,106.4
212.693,401.7
212.8391,1415.1
212.8454,195.2
212.9057,567.2
212.9649,25.2
213.0245,101.9
213.0288,131.9
213.0324,100.3
213.0363,93.2
213.0484,630.9
213.0546,1972.6
213.0715,117.4
213.0748,383.4
213.1306,234.9
213.1517,483.1
213.2,414.5
213.2083,85.8
213.2196,239.8
213.2285,17.6
213.2357,471.3
213.3388,138.9
213.3433,139.9
213.3559,29.8
213.3806,340.7
213.3935,278.3
213.4028,359.3
213.4424,591.4
213.4499,17.6
213.5693,115.5
213.595,498.1
213.8055,281.2
213.8863,270.4
213.9367,539.9
213.9621,2870.4
213.9714,156.3
213.9849,698.6
214.0063,976
214.0589,12932.3
214.0745,491
214.0898,1151.5
214.1565,137.5
214.246,635.8
214.2696,253.6
214.294,162.5
214.4104,128.3
214.5922,17.7
214.6332,273.2
214.6795,708.8
214.725,95
214.7799,76.1
214.7896,31.4
214.836,1034.7
214.8445,297.9
214.8735,74.5
214.8783,103.6
214.91,273.8
214.9422,111.5
214.9525,437
214.9655,54.7
214.9947,24.3
215.0024,729
215.0481,103.7
215.0933,54.6
215.1475,163.3
215.3058,345.4
215.34,99.1
215.482,470.9
215.508,253.2
215.6291,552.3
215.9579,49.5
216.0147,9364.6
216.1062,843
216.1227,554.5
216.1542,137.1
216.1704,143
216.1884,86.6
216.2713,26.1
216.3522,268.4
216.3591,485
216.4009,123.5
216.4786,158.7
216.5405,340.6
216.5741,346.1
216.6368,891.3
216.6668,230.8
216.674,193.7
216.7892,90.2
216.84,137.9
216.8688,330.5
216.8901,19.4
216.9229,37748.2
216.9394,276
217.0271,776.6
217.2492,81.6
217.2627,563.1
217.2752,30.7
217.3297,138.2
217.3916,18.8
217.4628,119.9
217.4907,257.9
217.5254,160.9
217.5724,312.1
217.6464,186.6
217.6785,206.4
217.7329,533.6
217.8278,466.3
217.8817,511.4
217.8875,19
217.9553,356.6
217.9837,92.5
218.2419,160.6
218.2687,152.3
218.29,445.2
218.3587,696.3
218.6604,103.9
218.7338,102.5
218.7387,329
218.7466,314.1
218.8364,624.4
218.8676,216.4
218.8763,137.1
218.9047,131.3
218.9074,86.7
218.9199,10960.4
218.9406,22.5
219.0179,894.9
219.0267,1535269.9
219.0326,892.2
219.041,277.1
219.0694,17.9
219.083,4813.8
219.1055,480.4
219.1134,21.7
219.1579,138.6
219.186,765.2
219.2909,298.7
219.3197,249.6
219.344,741.5
219.3717,196.1
219.4106,39
219.4283,17.8
219.4601,144.2
219.4871,151.1
219.57,269
219.5978,345.9
219.6279,17.9
219.7377,169.3
219.7911,192.1
219.825,78.1
219.9056,255.5
219.9986,629.9
220.007,143.5
220.03,78315
220.0369,756.1
220.067,6937.9
220.1673,508.6
220.183,18.7
220.2275,731.6
220.2491,595
220.3406,161.3
220.3845,527
220.3907,154
220.5506,322.3
220.6277,19.9
220.7505,110
220.7565,350.9
220.768,614.2
220.8076,477.3
220.8834,22.7
220.8873,246.3
220.8929,159.8
220.9037,39.9
220.9148,103.8
220.9322,26.5
220.957,184.6
221.0248,96010.2
221.0309,12635.4
221.051,1541.7
221.0718,192
221.0849,419.6
221.2387,85.3
221.3662,115.1
221.4179,117.4
221.5169,255.9
221.5296,139.8
221.5874,535.5
221.6041,188
221.6122,363.4
221.6266,270
221.6924,18.9
221.7275,528.6
221.7391,19.1
221.8913,21.2
221.9026,19.3
221.91,107.6
221.9562,96.3
221.9596,360.8
221.9732,592
221.9829,563.2
221.9987,289.3
222.0195,284.2
222.0279,1377.7
222.0595,16.5
222.0888,1107
222.1307,19.2
222.182,120.9
222.3408,114.3
222.3873,235
222.6003,453.6
222.6692,112.8
222.8009,313.7
222.8486,89.6
222.868,14909.1
222.8791,556.7
222.889,338.3
222.8929,302.7
222.8988,620.8
222.954,1785.7
222.9827,119.2
222.9884,13262.6
223.0004,19.2
223.0147,117.3
223.0286,919.4
223.0376,117.5
223.0813,19.9
223.2533,674.1
223.8792,515.3
223.8993,16.4
223.9348,653.8
223.9532,25.8
223.9953,439
224.0212,146.9
224.0375,204.6
224.0649,181.9
224.2423,318.9
224.2815,186.7
224.3817,504.5
224.5221,570.4
224.5314,23.4
224.538,494.7
224.5655,17.7
224.6811,117
224.7799,110
224.7956,226.8
224.8292,18.9
224.865,10053.3
224.8831,21.5
224.9274,147.6
224.9718,128.6
224.9819,271.7
224.9864,941.8
224.9942,34.5
225.0236,31.8
225.0347,690.7
225.0433,58.2
225.0548,26595.2
225.0848,308
225.0939,210.1
225.185,120.3
225.2138,123.1
225.2267,594.5
225.487,283.5
225.5395,355.3
225.6169,368.1
225.7846,121.5
225.8521,335.7
225.8743,416.2
225.8847,218.1
225.9039,222.2
225.9518,58.4
225.9622,57.2
225.9709,609.2
226.0021,26.7
226.0065,1879.8
226.0242,6546
226.0452,3685.9
226.1254,499.5
226.2171,426.5
226.2613,88.3
226.3149,167.7
226.3631,323.9
226.5604,19.4
226.6036,253.3
226.694,903.5
226.7644,402.4
226.8616,339.2
226.8937,91
226.9517,32218.8
227.0218,21.2
227.0341,2402.9
227.0539,655.5
227.0792,966.2
227.0866,125.9
227.1566,487.8
227.1631,645.5
227.1883,505.1
227.3676,302.9
227.5693,134.9
227.6129,603.8
227.6455,259
227.7371,806.5
227.7476,148.7
227.751,269.3
227.8615,331.3
227.8678,668.5
227.9228,238.5
227.9454,131.8
227.9618,287.9
228.0003,184.6
228.0223,990.4
228.0395,91.4
228.0494,18.4
228.0563,1560.5
228.0698,19.2
228.3776,102.4
228.4909,18.1
228.5222,174.6
228.654,765.5
228.7565,484.2
228.7903,221.2
228.7932,520.9
228.7995,104.9
228.8134,1021.6
228.8186,114.3
228.8287,103.1
228.837,429.5
228.8895,26
228.96,106.3
228.9835,75.5
229.024,195.7
229.1781,169.8
229.2548,73.8
229.305,126.7
229.335,120.7
229.5315,310.9
229.5447,137.7
229.6383,552.6
229.7418,183.8
229.8036,269.1
229.8601,135
229.8888,384.2
229.9227,138.3
229.9339,18.2
229.9405,912.4
229.9571,8652.1
230.0122,760.8
230.0349,427.7
230.231,246.7
230.2656,17.2
230.2771,660.6
230.3964,259.4
230.4199,204
230.4536,20.2
230.4978,525.6
230.5335,440.5
230.5568,151.2
230.6176,356.5
230.8104,423.6
230.8692,121.7
230.8901,515.5
230.9206,114.1
230.9255,160.3
230.9604,346.1
230.9749,775.3
230.9909,31.9
230.9954,232.5
231.0871,185.4
231.1182,304.5
231.1248,156.1
231.2448,222.8
231.2728,107.4
231.281,1015.2
231.3644,38.5
231.3997,133
231.4698,88.1
231.482,180.4
231.6104,804.6
231.7109,152.8
231.7225,112
231.7264,811.4
231.7643,674
231.8377,964.5
231.8763,207.5
231.8863,275.6
231.9528,203
231.9575,232.7
231.9728,153.9
231.9952,49.3
232.0242,120.1
232.0987,98
232.1371,110.8
232.2194,31.2
232.2302,279.6
232.2456,36.4
232.2751,341.3
232.3112,183.4
232.3885,448
232.3964,309.5
232.4147,131.9
232.4395,481.7
232.5666,75.7
232.607,93.5
232.7634,103.2
232.8166,23.2
232.8833,80.1
232.8968,38400.4
232.9217,25.3
232.9849,572.5
233.0101,165.7
233.051,7882.5
233.0588,19
233.11,293.5
233.1678,111.5
233.1927,469.8
233.2116,17
233.233,106.1
233.2638,112.4
233.278,373.5
233.3241,86.7
233.3825,615.1
233.5625,137.4
233.5817,33.4
233.5866,360.8
233.6661,114.6
233.6749,126.1
233.6887,117.2
233.7045,740.4
233.7894,545.2
233.8753,90.9
233.9435,35.1
233.9531,121.8
234.0659,163.4
234.393,435
234.4781,137
234.5046,18.3
234.6166,110.2
234.7044,75.6
234.7382,319.4
234.796,914.1
234.8419,106.6
234.8938,9626.6
234.899,24.6
234.9089,146
234.9123,642.7
234.9623,534.5
234.9728,129.3
234.9816,4788.3
235.0568,3970.3
235.0665,412
235.0715,19.2
235.0821,316.1
235.0926,7039.3
235.0997,553.4
235.1379,487.2
235.1544,19.9
235.6918,120.4
235.6965,542.3
235.7223,524.6
235.7578,180.1
235.8139,134
235.8559,86.2
235.8695,119.4
235.9213,343.6
235.9509,19.2
235.9559,19.9
236.022,238.7
236.0408,4232.5
236.0522,281
236.0631,329.2
236.0717,47206.5
236.0933,49.4
236.1248,99.6
236.2192,103.8
236.2246,283.4
236.275,79
236.2924,18.1
236.3266,319.7
236.3308,383.3
236.3427,316.4
236.3603,1097
236.4667,512.5
236.5742,596.9
236.6374,356.5
236.6591,159.6
236.7493,21.4
236.7638,355.5
236.8431,263.4
236.8781,263.6
236.9073,50.8
236.9143,19.8
237.0001,316.1
237.0711,128.5
237.0751,1973.7
237.1289,160.6
237.1462,351.3
237.1745,342.2
237.208,280
237.2485,98.4
237.2971,113.1
237.3437,279.2
237.37,20.8
237.378,17.2
237.4353,620.5
237.4669,447.8
237.4858,88.2
237.8108,410.5
237.8321,423.2
237.9258,492.1
237.9986,535.4
238.0676,797.3
238.0781,75.5
238.093,34.5
238.2305,129.8
238.2427,18.7
238.3777,170.6
238.4525,312.8
238.4701,143.2
238.5933,91.6
238.6015,542.5
238.7401,563.3
238.7815,760.3
238.8252,666
238.8419,5693.7
238.8627,350.6
238.8788,18.7
238.944,144.8
238.9876,628.2
238.9919,383.6
239.0091,4462.1
239.0484,105.9
239.0515,239.6
239.0687,1707.3
239.13,161.7
239.1314,212.3
239.1326,153.3
239.1587,699.6
239.2411,183.5
239.2878,176.8
239.4648,214.5
239.5978,317.7
239.6443,647.7
239.8235,260.5
239.893,288.8
240.0743,665.7
240.0961,250.3
240.0997,2485.8
240.1131,37.8
240.3201,75.2
240.3884,700
240.4044,90.9
240.459,151.3
240.4761,154.7
240.4953,284.5
240.505,507.8
240.515,515.4
240.5762,18.2
240.6951,358.9
240.735,229.4
240.778,18.7
240.8392,2732.2
240.8524,455.8
240.9545,823.8
241.0087,834.3
241.0548,102.3
241.1198,83.6
241.1316,128.2
241.2012,186.4
241.3297,40.5
241.34,171.9
241.3471,435.1
241.4435,130.7
241.5379,91.2
241.9662,576.2
241.9774,101.5
241.989,141
241.9983,1410.9
242.0191,2087.8
242.0414,455.1
242.1879,728.9
242.25,563.9
242.2568,31.4
242.2926,222
242.3833,270.8
242.5702,279.5
242.6884,35
242.7691,284.4
242.776,19.3
242.8453,230.6
242.9107,199.4
242.9255,20299.7
242.9451,394.7
242.952,597.8
242.9757,48.3
243.0066,720.2
243.0327,698.6
243.0531,9712.6
243.0654,10223.4
243.0756,342.3
243.218,168.9
243.3086,505.3
243.3199,121.7
243.331,81.4
243.3777,276.1
243.3915,264.5
243.4275,19.1
243.4774,105.6
243.4933,415.3
243.65,190
243.7655,298.8
243.8927,18.9
243.9288,616.1
243.9728,3877.2
243.9985,334.9
244.0126,164.9
244.062,130.2
244.0676,257.3
244.2132,189.3
244.3095,660
244.3767,22.5
244.4684,136.4
244.501,20.9
244.5643,724.6
244.6128,87.4
244.741,778.5
244.7866,514.6
244.8708,4666.6
244.8836,18.2
244.9238,1574.2
244.9776,319.8
245.0045,544.9
245.0949,330
245.108,467.8
245.1489,20.2
245.3084,23.1
245.4363,135.4
245.5097,177.7
245.5143,198.6
245.599,173
245.6536,264
245.7605,437.3
245.7651,581.8
245.814,724.1
245.8492,517
245.8748,322.4
245.9101,165.7
245.9166,314.3
245.9687,74.7
245.9731,97.5
245.9883,64.2
245.9991,122.7
246.0147,98.3
246.0527,577.8
246.0919,93.2
246.1157,98.6
246.2092,35.8
246.5319,182.3
246.6863,80
246.7132,90.7
246.7698,233
246.8076,722.9
246.8624,452.4
246.8677,1671.6
246.8877,133.2
246.9398,342.3
246.9517,1367.9
247.0291,287.7
247.0363,331.4
247.0581,464.2
247.067,686.7
247.0927,5029
247.1075,495.5
247.1368,168.5
247.1486,125.3
247.1966,415
247.236,105.8
247.2538,21.8
247.3026,227.1
247.3695,124.9
247.4646,176.3
247.4747,781.9
247.6236,512
247.7926,349.9
247.8814,137.4
247.9234,62.1
247.9359,422.9
247.9497,30.5
247.9609,291.1
247.9676,687.9
247.9833,792.2
247.9892,87.6
248.0246,295.4
248.0993,119.4
248.1117,107.3
248.1151,282.1
248.1242,12968
248.2104,82
248.2143,288.1
248.234,127.4
248.274,435.9
248.3726,741.1
248.3933,330.4
248.4503,97.9
248.5809,31.1
248.6265,99.1
248.764,19
248.8707,8132.1
248.9007,158.1
248.9197,137.4
248.9482,96.8
248.9895,132.9
249.0161,575.4
249.0248,370.6
249.0612,11143.8
249.1274,690.1
249.1392,93.7
249.2017,210.1
249.2193,83.5
249.2281,420.9
249.2379,158.3
249.3725,179.7
249.4511,136.4
249.554,140.7
249.5607,498
249.595,749.4
249.652,25.1
249.7776,113.3
249.8859,52.6
249.912,121
249.968,53.2
249.98,103.6
250.0382,1469.7
250.1181,627.4
250.2077,658.5
250.2288,362
250.2604,212.3
250.2672,18.3
250.2979,663.4
250.3079,964
250.3742,276.1
250.4009,31.6
250.4983,209.5
250.5619,676.2
250.5928,308
250.6864,133.1
250.8504,393.7
250.8677,1413.1
250.8961,439.3
250.9201,1666
250.9554,640.8
251.0445,312
251.1245,101.4
251.1606,19.6
251.3548,119.3
251.6014,18.5
251.6146,88.8
251.6499,96.7
251.6555,910.5
251.6864,616.2
251.7205,946.4
251.8174,830.4
251.8575,79.2
251.9805,697.1
252.0323,19.3
252.0367,119.7
252.0457,108935.3
252.0761,137.9
252.1429,130.4
252.2267,303
252.2477,560.8
252.3713,491.5
252.5534,299.1
252.572,102.6
252.6674,271.3
252.6874,690.6
252.7148,589.2
252.7338,132.4
252.8001,105.9
252.9104,27
252.9174,548.3
252.9553,490.5
252.968,771.3
253.0155,123.3
253.0249,95.5
253.0396,19.8
253.049,4613.4
253.0977,246.9
253.1232,274.7
253.1323,232
253.1634,395.5
253.1742,274.4
253.3225,130
253.3433,34.6
253.367,688
253.378,375.9
253.4508,533.3
253.4549,18.1
253.4809,342.8
253.5846,461.3
253.6945,16.4
253.884,460.2
253.9657,120
254.0355,755.7
254.0438,4187.3
254.1207,100.9
254.2169,250.1
254.3276,183.4
254.3997,559.1
254.5298,328.7
254.7167,97
254.8159,1377.7
254.8237,5806.2
254.9246,88.4
254.9274,97.5
254.959,90.4
254.986,130.4
255.0021,225.9
255.0255,126
255.033,24977.1
255.0378,1434
255.0464,452.4
255.0629,433
255.1409,122.3
255.366,20.4
255.471,345
255.4846,152.8
255.521,513.4
255.539,31.4
255.6259,32.3
255.7139,90.1
255.7447,22.6
255.867,433.4
255.9729,60.7
256.0034,910.5
256.0584,51.2
256.1247,181.6
256.1566,495
256.3396,20.7
256.4032,20.9
256.563,172.2
256.6158,629.2
256.8127,871.5
256.8209,6378
256.867,654.1
256.8753,154
256.986,496.6
257.0221,219.5
257.0341,361.8
257.0487,4390
257.0635,390
257.0663,368.1
257.0746,46513.8
257.1185,21.2
257.206,778.6
257.2712,167.1
257.3113,261.8
257.458,192.3
257.502,19.2
257.5273,179.6
257.6806,382.5
257.6836,392.6
257.7661,21.4
257.8381,153.3
257.8483,404.7
257.9048,407.7
257.9521,257.2
257.9882,62.2
257.9934,695.7
258.0117,129.8
258.0301,921.6
258.0466,747.4
258.0777,639.2
258.1103,15170.2
258.1483,510.6
258.4105,34.9
258.5744,629.8
258.7221,468
258.7732,724.3
258.8009,151.3
258.8181,3297.6
258.8996,5684.4
259.0182,233.1
259.0224,19.2
259.0277,788.1
259.1144,307.4
259.1275,304.7
259.4519,364.7
259.4847,667.5
259.5457,257.6
259.556,369.3
259.5764,387.3
259.5938,222.6
259.6076,172.1
259.6708,20.9
259.7448,100.3
259.8357,298.8
259.8609,568.6
260.002,569.4
260.0616,254.6
260.1131,20.9
260.1615,130.2
260.3206,175.2
260.4264,152.1
260.6845,20.9
260.7845,414.4
260.7936,24.4
260.8447,1496
260.9491,6226.3
260.9644,461.8
261.032,328.9
261.0463,186.4
261.2734,249.1
261.3093,115.9
261.3707,764
261.3988,365
261.4378,204.5
261.4601,22.4
261.5043,315.7
261.8511,277.7
261.858,676.5
261.9832,283.8
262.0819,1102.5
262.179,353.4
262.3101,578.8
262.3199,86.9
262.3711,90.7
262.4554,102.9
262.4689,118.4
262.4757,369.1
262.5193,190.1
262.8928,19.1
263.0126,615.9
263.0392,114.2
263.0726,112.1
263.0851,811.8
263.1348,157.1
263.2103,898.5
263.3223,604.4
263.3426,235
263.4298,211.4
263.6353,110.5
263.6735,320.3
263.7721,543
263.8367,142.1
263.8402,575.1
263.9743,165
264.0091,308.4
264.0212,272.2
264.096,390.2
264.2689,43.9
264.28,20.1
264.3396,299.2
264.3741,101.1
264.3952,136.7
264.4013,420.5
264.4176,23.6
264.4916,133.9
264.5096,295
264.5156,122.4
264.535,535.9
264.6557,432.4
264.8449,2382
264.8528,3911.3
264.8732,89.3
264.9342,410.6
264.9653,16.1
264.9732,407
264.9885,11156.8
265.0237,654.6
265.0353,7639.8
265.0473,2691.9
265.096,152.7
265.1396,224.5
265.1941,516.3
265.2121,135
265.3191,201.1
265.4379,609.5
265.5656,286.1
265.5897,300.7
265.6212,93.3
265.7297,85.7
265.7864,558.6
265.8507,163.7
265.9339,26.5
265.941,181.7
265.9466,21.8
265.9559,342.7
265.9783,384.2
265.9919,372.3
266.0203,110.9
266.0935,19.9
266.104,142.6
266.2367,323.4
266.2483,317.9
266.3075,102.3
266.4848,23.8
266.6681,407.6
266.7233,20.4
266.7275,348.9
266.791,364.2
266.7927,389.7
266.8431,21
266.8498,3794.3
266.894,1581.2
266.9007,434.8
266.919,498.1
266.959,100.9
266.981,23.9
267.03,307.8
267.0976,20.6
267.2024,514.3
267.2174,125.4
267.2505,349.9
267.2612,86.6
267.4014,358.1
267.6619,401.6
267.6753,207.8
267.7555,36.2
267.7941,20
267.9431,17
267.9472,705.8
267.9738,172
267.994,817.9
268.0091,76.3
268.0172,267.3
268.0295,734.2
268.0463,93.7
268.0593,569.2
268.078,75.6
268.1221,172
268.2828,141.1
268.3453,658.5
268.3825,16.7
268.424,360.8
268.5102,173
268.5313,269
268.5825,203.8
268.6817,505.8
268.8471,474.4
268.862,20
268.8914,685.1
268.9706,256.6
268.9974,65.6
269.012,20
269.0278,424.2
269.033,32.8
269.0448,16294.4
269.0486,40799.3
269.0634,673.2
269.1281,161.9
269.1785,255.5
269.2007,693
269.4155,20.6
269.4478,331.7
269.6265,18.1
269.6429,191
269.8304,270.4
269.8421,219.3
269.9475,21.5
269.9527,30.5
269.9652,19.9
269.9743,432.8
269.9894,357.8
270.0047,20.4
270.0095,182.3
270.0248,19267
270.0474,20358.2
270.1157,34.8
270.1203,139.6
270.2275,93.6
270.2401,145.1
270.2439,348.2
270.2528,217.6
270.2765,203.6
270.2982,158
270.518,332
270.5399,160.2
270.57,308.6
270.6215,98.1
270.7005,191.1
270.7741,558.9
270.7979,3755.8
270.9115,18.5
270.978,14637.9
271.0068,521.9
271.0281,1556.9
271.0508,237.3
271.0649,535.3
271.0902,1994.8
271.0995,32.6
271.1088,109.2
271.137,137.8
271.3492,152.6
271.4447,84.8
271.5124,207.3
271.6151,85.9
271.9231,148.1
271.9291,108.9
271.965,469.1
272.005,26.3
272.0206,570.2
272.0287,50.5
272.044,21.7
272.0668,358.6
272.0801,110.4
272.202,419.9
272.2996,229
272.5532,218.1
272.6378,19.1
272.6707,679.3
272.6732,717
272.795,3199.3
272.9141,21.8
272.9998,122
273.0486,1809.4
273.3007,494
273.4568,78.6
273.6334,628.7
273.6758,20.1
273.7013,94.1
273.84,142.6
273.9548,509.1
273.9626,12780.3
274.033,645.5
274.0402,20.6
274.0688,99.3
274.0868,143.1
274.0925,1250.6
274.2072,147.2
274.2157,23.1
274.5702,345.1
274.584,234.3
274.6013,182.8
274.6209,151.9
274.6623,18.2
274.7724,226.3
274.7919,1301.2
274.8738,20.3
274.9057,33.3
274.9826,31.6
275.0048,693.4
275.0331,134.5
275.1159,852.4
275.1376,475.1
275.1726,340
275.183,16.9
275.2228,410.2
275.2364,25
275.3113,389.3
275.3202,758.7
275.3659,118.4
275.3987,771.6
275.4944,111.2
275.6089,116.6
275.6492,132.7
275.7231,103
275.9266,205.9
275.939,413.4
275.9448,762.4
276.0035,128.8
276.0859,35
276.1109,20.7
276.1467,156.3
276.2865,312.8
276.3695,327.7
276.3729,422
276.4069,309.7
276.4988,19.9
276.5047,266.6
276.5614,129
276.6425,110.3
276.7771,97.1
276.7989,139.7
276.8841,149.4
276.9013,645.4
276.9107,24.3
276.923,6120.5
277.0443,94
277.0676,95.8
277.2742,361
277.307,542.2
277.3753,185.5
277.5958,803.8
277.63,650.3
277.7487,607.1
277.7741,321.4
277.845,482.8
277.8546,323.9
277.885,281.1
277.909,18.5
277.9227,787.1
277.9446,390.8
278.0191,326.6
278.0423,169.2
278.1346,107.3
278.1757,111.3
278.2435,94.5
278.2661,480.6
278.3091,34.9
278.419,71.6
278.511,486
278.5468,97
278.7198,621.7
278.7693,271.1
278.7793,180.2
278.805,551.4
278.8612,142.6
278.8746,562.2
278.8885,63.4
278.92,2108.1
278.93,31.9
278.9676,98.7
278.9871,410.6
279.0041,1455.5
279.0167,87.2
279.0566,38372.1
279.2317,635
279.3447,617.1
279.3704,583.4
279.381,19.6
279.4118,299.2
279.6323,896.8
279.6543,108.4
279.7254,185.7
279.8948,540.1
279.9081,478
279.9125,363.1
279.9176,438.2
279.9525,212.3
280.0121,743.5
280.0156,169.3
280.0344,149.8
280.0598,429.5
280.136,164.6
280.2914,20.9
280.3647,172.1
280.4261,20.5
280.5517,21.3
280.6371,467.2
280.7914,214.1
280.8266,3501.1
280.8674,177.5
281.0094,1104.3
281.0514,397.5
281.0994,676.7
281.1947,17.7
281.2568,205.9
281.3578,100.1
281.3976,118.6
281.4245,971.2
281.4959,130.4
281.5455,129.6
281.5902,319.3
281.6152,278.4
281.7706,17.5
281.7731,18.7
281.8135,169.9
281.9162,457.5
281.9322,763.2
282.0146,122.7
282.0505,45.7
282.0648,306.5
282.0736,365.9
282.1237,174.1
282.138,22.1
282.4704,628.5
282.715,224.8
282.7394,665.1
282.7442,120.3
282.8237,1989.2
282.8683,937.1
282.9397,115.6
282.9634,36
282.9747,292.9
283.0277,1784.6
283.0483,19.3
283.0681,23.8
283.0828,125.5
283.1173,81.7
283.315,121.4
283.3375,20.7
283.3449,227.8
283.3975,355.9
283.4831,328
283.4958,94.6
283.5708,290
283.6015,384.1
283.6382,96.6
283.6626,33.4
283.9153,376.9
283.9886,48.7
284.0041,66.7
284.0243,192.4
284.0508,38.8
284.063,95.5
284.0729,145.1
284.1153,918.4
284.3155,320.3
284.3271,463.9
284.5738,256
284.7204,116.1
284.838,416
284.928,295.3
284.9851,522.5
285.0225,493
285.1152,651.9
285.1232,761.2
285.1598,113.3
285.2143,278.7
285.2842,475.6
285.4019,414.2
285.4191,472.4
285.447,125.2
285.4852,477.6
285.5879,696.2
285.6313,83.9
285.8732,294.9
285.9395,147.3
286.0058,203.2
286.0198,4263.7
286.0752,188.2
286.1227,334.4
286.2483,97.3
286.3235,310.5
286.4003,307.9
286.4022,322.2
286.4039,287.7
286.4361,786.5
286.4844,95.2
286.4945,120.7
286.5259,113.9
286.5568,95.5
286.6534,147
286.7662,243.4
286.7719,1783.7
286.8052,21.6
286.952,6457.2
287.005,19.9
287.0145,642
287.023,348.9
287.0554,31655.7
287.0651,455
287.1001,773
287.2054,267.5
287.3398,21.8
287.4377,158.8
287.5254,153.2
287.6236,336.1
287.8107,22.7
287.8435,267.8
287.9492,59.3
287.9965,609.1
288.0159,99.1
288.0219,405.1
288.0356,201.3
288.0584,1390.9
288.0845,60
288.1132,100.8
288.1377,87.7
288.1553,3341.9
288.1881,107.3
288.2637,81.4
288.3219,82.2
288.3978,31.7
288.5219,330.9
288.6327,163
288.6558,43.1
288.769,2116.9
288.8236,494.6
288.8775,33.1
288.9059,774.9
288.9137,879.2
288.921,2761.3
288.9244,3580.4
288.9321,4526.1
288.9357,6522.7
288.9391,7279.8
288.9451,13862.9
288.9491,14413.4
288.9555,16395.5
288.9614,20433.1
288.9685,19466.8
288.9734,23388.3
288.9801,22586
288.9853,21060.4
288.9949,16216.8
289.0009,11683.9
289.0128,5393.6
289.0168,3121
289.0188,3164.5
289.0259,2448.8
289.032,1356.4
289.0396,116.1
289.0465,146.8
289.0574,640.7
289.2317,20.3
289.2598,91
289.3239,381.1
289.596,863.6
289.7124,560.6
289.7656,91.3
289.7729,108.2
289.9057,177.2
289.9366,2124.9
289.99,395.8
290.1003,31.2
290.3236,714.1
290.3653,167.5
290.4544,516.2
290.5125,131.9
290.5379,219.9
290.549,216.8
290.5796,516.5
290.6196,282.9
290.7608,483.1
290.7976,19
290.8906,23.6
290.9071,465.1
290.9381,127.6
291.0267,1999.1
291.2486,275.5
291.2572,290.2
291.2777,134.2
291.2919,183.7
291.4232,102.7
291.4459,19.3
291.5001,466.5
291.5848,397.5
291.7565,139.6
291.7641,122.2
291.973,402.4
292.0795,46.3
292.0882,120.3
292.2162,711.3
292.3474,20.2
292.3714,199.7
292.4261,544.6
292.4677,211.2
292.4889,725.1
292.5004,356
292.5319,139.8
292.6157,19.5
292.6304,98
292.6458,601.4
292.6908,96.3
292.8078,193.1
292.8383,590.2
292.8972,1178.3
292.9759,285.6
293.0584,82.5
293.0721,752
293.0982,373388.4
293.1518,399.6
293.179,2467.8
293.2791,339.3
293.3148,303.2
293.3272,160.5
293.358,117
293.3679,20.3
293.6538,328.3
293.6691,90.9
293.7134,541.7
293.8972,261.5
293.9467,820
294.0952,699.1
294.1016,33355.8
294.3162,164.4
294.4795,606.4
294.4919,95.7
294.4975,105.1
294.5166,295
294.5479,340.3
294.5771,561.9
294.5873,19
294.7179,243.9
294.797,189.2
294.8672,317.5
294.8802,19
294.9345,166.7
294.9904,153.5
295.0309,982.4
295.1022,1980.3
295.1483,92.8
295.1947,19703.8
295.2466,102.4
295.3322,147.9
295.3732,508.4
295.4242,568.6
295.6034,135.8
295.614,698.8
295.6346,512.4
295.702,162
295.7207,162
295.7572,364.1
295.77,349.5
295.8387,206.9
295.8734,21.8
296.005,559.8
296.0101,711
296.0872,212.2
296.1047,1083.7
296.145,177.6
296.3669,126.6
296.5716,524.7
296.8011,488.7
296.8575,25.9
296.9367,381.1
296.9879,55.6
297.0438,93.5
297.1084,29.6
297.1358,353.8
297.1557,294.2
297.2303,92.9
297.2914,140.9
297.3097,107.3
297.4994,558.4
297.6147,87
297.8672,20.6
297.9524,708.9
297.989,21.3
298.0144,833.2
298.0252,2230.6
298.0424,13329
298.1102,38.8
298.3493,85.8
298.6408,23.7
298.648,171.9
298.6819,39.1
298.798,895
298.9787,276.3
299.0148,392.1
299.0232,2111.6
299.0382,36.7
299.0458,428.2
299.0748,798
299.1201,21.7
299.1349,289.7
299.1395,4039
299.4146,563.9
299.8274,354.1
299.8902,593.3
300.012,157.4
300.0355,1243.2
300.0484,31.6
300.0754,255.7
300.0796,574
300.1631,126.1
300.1846,788.1
300.3063,561.1
300.343,165.7
300.3584,321.7
300.3676,239.8
300.4347,120.4
300.5543,28.1
301.0125,61
301.0226,529.2
301.0386,20495.1
301.0588,230.2
301.0799,295
301.117,179.2
301.1415,291.2
301.2114,4591.8
301.2935,717.5
301.3717,78.2
301.381,666.5
301.3851,1483.1
301.4527,82.2
301.5142,183.3
301.5805,561.8
301.7139,754.3
301.7592,122.3
301.7673,223
301.9626,781
301.994,6477.1
302.0201,1009
302.0311,21.8
302.0351,21.3
302.0511,310.6
302.0641,2863.7
302.1226,36.1
302.221,177.2
302.2274,157.7
302.4425,327.1
302.7065,439.9
302.7148,116.4
302.7448,655.5
302.7533,25.4
302.7721,266.3
302.7924,218.8
302.8201,18.1
302.8296,3255.1
302.8454,18.5
302.9266,709.1
302.9683,586.4
302.9855,398.1
303.027,542.2
303.0673,183.3
303.075,598.1
303.0914,268.7
303.1051,415.5
303.136,345.3
303.2179,845.1
303.3332,204.3
303.4456,184.3
303.486,32.7
303.5023,120.3
303.5957,620.5
303.6329,422.6
303.8236,534
303.8977,77
303.9117,273.6
303.9295,123.1
303.9858,455.4
304.013,136.5
304.06,79.1
304.066,487.6
304.1087,759.9
304.7437,379.8
304.7512,153.2
304.8142,31
304.8202,133.8
304.8264,805.1
304.9061,98.8
304.9753,781.3
305.002,156.9
305.0149,264
305.0292,717.2
305.1078,102.9
305.2018,313.8
305.229,551.1
305.4238,138.8
305.4826,209.1
305.5759,484.5
305.5911,174.4
305.7906,310.4
305.9832,73.3
306.4332,592.6
306.8418,60.1
306.8528,344.7
306.8945,68
306.9547,732.5
306.9775,958.4
307.0251,129.4
307.1122,18.6
307.2644,286.9
307.288,91.4
307.5288,123.2
307.5718,644.4
307.7311,147.6
307.8101,160.3
307.9338,104.4
307.9797,17.5
307.9998,125.9
308.1026,91.5
308.6897,91.7
308.7583,21.2
308.7852,95.9
308.8035,611
308.8079,186
308.8534,165.1
308.8789,2550.3
308.9143,350.2
309.0063,68
309.0376,2691.2
309.0828,2220.2
309.1092,23.4
309.1513,90.2
309.3481,585.1
309.4701,26.4
309.5145,251.7
309.6318,624.1
309.7593,753.3
309.7751,921.4
309.789,107.5
309.8107,17.6
309.8487,89.8
309.9127,330.3
309.9645,28.1
310.025,501.6
310.1372,344.2
310.2894,84.4
310.4262,563.6
310.6842,551.1
310.8378,381.9
310.8763,1759.5
310.9666,495
311.0015,34.6
311.005,191.7
311.1669,1484
311.3422,374.1
311.4395,106.2
311.4707,622.4
311.504,130.8
311.6907,39.5
311.6988,779
311.8501,318.3
311.9177,312.7
311.9982,361.5
312.0112,115.9
312.0195,317.5
312.0293,597.3
312.0406,836.1
312.0815,269.9
312.1105,104.3
312.1235,342.4
312.16,291.9
312.1694,131
312.1742,283.5
312.3915,318.8
312.429,127.9
312.5482,348
312.5629,103.5
312.7458,112.7
312.7846,85.5
312.8071,86.9
313.0181,202.9
313.0286,98.5
313.0362,885.8
313.0484,146.9
313.0547,32.9
313.0704,168.8
313.1346,193
313.1752,784.6
313.2587,256
313.2741,36436
313.3702,207.8
313.3927,176.8
313.422,24.8
313.5356,300.7
313.6845,411.1
313.6913,95.2
313.7429,328.8
313.9214,179
313.9644,529.1
313.9866,137.9
314.0148,5634.8
314.0222,197.1
314.0912,110.4
314.0962,712
314.1358,425.7
314.1486,131.8
314.166,224.8
314.1716,521.2
314.2775,4207.6
314.2944,19.8
314.4164,167.6
314.4851,128.4
314.6445,372.5
314.7981,34.9
314.8249,525.7
314.837,4462.8
314.8826,18
314.8984,206.6
314.9992,5622
315.0183,544.4
315.0449,721.6
315.0552,8530.2
315.0597,3669.2
315.0618,4071.7
315.0662,16752.7
315.0699,20630.3
315.0802,8622661
315.0899,18043
315.0919,10371.4
315.0942,6575
315.0966,5617.9
315.0984,6066.6
315.1028,3118.7
315.1047,2801.9
315.1088,1494.3
315.1131,575.1
315.1198,100.7
315.1256,415.4
315.1613,6077.6
315.2614,265.2
315.3237,6987.9
315.4863,248.6
315.535,351.9
315.5538,507.5
315.6229,729.1
315.7205,256.5
315.8637,24.6
315.99,34.1
316.0108,133
316.0697,443.8
316.0774,46704
316.0835,901279.9
316.2692,19
316.3286,322.7
316.3424,779.4
316.3879,140.8
316.408,157.3
316.4539,176.1
316.6159,18
316.6787,20.7
316.7973,71.9
316.8733,626.1
316.9227,129.2
317.0236,671.7
317.0282,104.7
317.0564,435.1
317.0652,994.2
317.084,101932.6
317.2115,138.2
317.2216,583.3
317.2503,273.8
317.2791,89.7
317.6362,483.7
317.7067,20.6
318.0069,310.5
318.0462,367.1
318.0876,8745.7
318.4003,602.7
318.4286,279.2
318.4854,436.6
318.5452,382.4
318.5787,169.5
318.7925,684.7
318.8039,686.2
318.931,145.8
318.9801,141.4
319.0466,170.7
319.1851,141
319.1947,38270.1
319.2982,154.8
319.3629,88.9
319.3717,507.3
319.5673,158.8
319.5948,107.5
319.8441,19.6
319.8818,89.6
319.9362,446
319.966,788.3
319.9935,439.4
320.052,277.2
320.0747,46.2
320.1679,245.2
320.1981,4072.7
320.2586,3243.1
320.3645,107.2
320.4132,183.3
320.4351,114
320.4736,269.5
320.4826,321.6
320.5202,338.4
320.5401,20.8
320.782,22.9
320.8004,397.1
320.8301,30.1
320.905,513.4
320.9291,273.8
320.9558,309
321.0737,131
321.2103,42073.2
321.2618,46.7
321.2985,308.2
321.3826,537.3
321.5706,140.8
321.5803,112
321.6825,375
321.817,90.8
321.8328,257.6
321.9086,196.8
322.0092,134.1
322.165,329.2
322.2136,4665.8
322.2749,341.9
322.2976,21.4
322.3484,84.5
322.3706,359.8
322.3925,82.8
322.7516,575.6
322.8754,19.8
322.9316,365.6
323.005,824.8
323.0206,7430.8
323.0508,182.7
323.0859,132
323.22,554.8
323.2258,3028.4
323.4483,20.8
323.4694,112.7
324.0019,7919.1
324.0777,95.2
324.1474,669
324.2194,509.6
324.2231,490.1
324.321,77.2
324.3759,373.8
324.4177,232.8
324.5544,18.3
324.5738,379.6
324.6818,4570.4
324.6906,3849.6
324.7822,478.3
324.8091,357.5
324.8528,2482.4
324.8616,186.6
324.9573,128.5
325.0054,225.3
325.2118,4460.4
325.2581,736.4
325.3106,22.4
325.3513,20.7
325.5404,594.1
325.5831,26
325.6548,271.7
325.7396,326.5
325.7841,20.4
325.8533,92.3
325.9903,111.7
326.0052,21.3
326.123,447.6
326.1296,38.8
326.2178,181
326.4362,317.1
326.7691,83
326.8503,1332.4
326.8895,325
326.9098,147.1
326.952,126.2
327.0156,4159.7
327.0523,1859.8
327.1272,239.6
327.1956,275.5
327.2274,13928.6
327.5441,21.9
327.6115,238.7
327.7556,262.3
327.8212,267.1
327.8308,601.6
327.9429,287.7
328.0151,614.2
328.0266,274.7
328.1593,749
328.2306,1118.3
328.3117,534.9
328.3229,505.8
328.4663,167.6
328.4834,683.6
328.489,478.3
328.495,535.5
328.5035,778.7
328.644,34.6
328.6602,17.4
328.8647,167.3
329.0395,276.7
329.0446,430.1
329.0732,130.2
329.0956,1247.4
329.183,246.5
329.1866,166.5
329.2309,834.2
329.3406,820.3
329.3891,17.3
329.6162,591.4
329.6239,118.8
329.7487,401.5
329.8138,95.3
330.0593,68.9
330.1984,503
330.3017,476.4
330.3583,98.8
330.524,491.3
330.8987,78.5
330.9363,216.4
331.0192,1950.5
331.0454,97637.5
331.0541,1280098.1
331.0815,18.2
331.0998,19.2
331.1867,20
331.4715,19.2
331.6947,92.1
331.8681,426
332.0143,148.4
332.0256,27.3
332.048,3941.6
332.0575,114076.1
332.1658,462.9
332.3711,85.3
332.388,186.6
332.4385,32
332.4807,415.7
332.4996,246.7
332.6092,172.5
332.6159,20.9
332.8141,263.8
332.8268,35.8
332.8739,1372.7
332.9029,123.9
332.9482,613.6
333.0523,76401.6
333.0579,12099.7
333.1369,110.8
333.1513,496.6
333.4344,213.6
333.4863,356.1
333.6323,144.1
333.8787,211.6
333.9409,111.3
334.0251,355.1
334.0556,6341.2
334.1139,85.3
334.4078,124.2
334.492,30.6
334.6484,216.9
334.6768,385.5
334.699,83.8
334.8121,255.6
334.8372,99.5
334.9378,328.5
335.0057,467.4
335.0361,274.6
335.0817,770
335.1672,3737.6
335.2267,20.5
335.3504,119.2
335.4279,331.2
335.4991,124
335.6122,837.6
335.6481,366.4
335.794,372.6
335.8075,38.6
335.942,22.8
336.0126,50.6
336.1,105.7
336.1706,61.3
336.4894,352.2
336.5502,41.2
336.8364,21.5
336.8543,386.4
337.0362,12083.1
337.0496,21887.5
337.0621,590232
337.0901,348.1
337.1827,3111.1
337.2741,4913.2
337.5736,20.5
337.7586,18.5
337.8424,599.5
337.9248,348.4
338.0502,324.5
338.0654,54234
338.251,259.7
338.2652,455.1
338.2782,216
338.305,123.2
338.3132,179
338.3416,31.8
338.7976,125.8
338.9214,360.5
339.0124,225.4
339.0267,109.4
339.0383,2503.9
339.0477,776.1
339.0659,3669.9
339.1858,21.5
339.1986,146.1
339.2509,1030.8
339.2897,6541.1
339.3866,185.7
339.4324,311.5
339.4763,109.8
339.5458,87.9
339.6035,35
339.7676,153.7
339.7779,132.2
339.8709,746.2
339.945,395.3
339.953,82.4
339.9664,346.6
339.9757,1753.9
340.0208,141.6
340.1024,435.6
340.2933,736.9
340.5367,342.4
340.7372,295.5
340.8932,544
340.9357,102.6
340.9498,26.6
341.0035,23.3
341.0163,778.2
341.1527,19
341.1862,940.8
341.2198,137.7
341.3055,5135.3
341.5223,140.4
341.6683,184.7
341.711,145.8
341.8914,20.1
341.9423,21.3
341.9893,177.4
341.9985,83.9
342.0153,9803.4
342.1049,188.6
342.224,120.4
342.3445,96.3
342.3535,402.1
342.4396,21.9
342.4575,137.3
342.474,103.9
342.8688,647.2
342.9897,2188.7
343.0149,290.2
343.0258,814.1
343.1947,13769.4
343.206,442.5
343.3999,254.9
343.593,304.1
343.7639,252.2
343.8101,234.6
343.8364,235.3
343.9106,545.3
343.9396,296.4
343.9884,233
344.1644,174.3
344.198,2203.6
344.2734,286.9
344.367,621.3
344.3897,427.4
344.4971,23.3
344.53,149.4
344.5654,294.9
344.7222,180.8
344.86,90.5
344.8816,87.4
344.9114,667.7
344.9411,95.8
345.099,391
345.1497,893.8
345.21,1733.3
345.3819,628.8
345.433,33.2
345.6458,425.9
345.7733,18.3
345.839,138.1
345.9078,278.4
345.9838,38190.1
346.0088,208.4
346.0204,708.9
346.0274,84.4
346.041,195.8
346.3423,136.3
346.3813,129.8
346.5388,107.1
346.6299,88.6
346.806,265.6
346.9778,508
346.9871,896.6
347.0178,4490.2
347.1864,223.7
347.3462,278
347.3939,296
347.4673,18
347.5701,863.7
347.5917,20
347.8466,759.5
348.0193,222.5
348.1585,515.4
348.1767,160
348.6871,21.7
348.7384,88.1
348.814,318.6
348.8892,36
349.0181,1726.2
349.0576,438.1
349.1448,252.9
349.1904,191.1
349.34,404.2
349.4558,236.6
349.6363,490.3
349.6603,161.2
349.7583,18
349.9369,120.1
350.0433,18.1
350.0791,401.1
350.1693,279.7
350.1987,242.7
350.2674,221.5
350.4408,398.8
350.4941,192.2
350.5201,79.9
350.734,186.3
350.8701,19.5
351.0156,159.6
351.1705,109
351.1939,330.1
351.8099,291.5
351.8241,133.7
351.9568,496.3
352.0707,288.1
352.1653,316.7
352.3364,201.3
352.3807,149
352.4055,248.2
352.6279,130.4
352.6482,606.2
352.7406,19.1
352.8449,740.5
352.8984,899
353.0119,130.8
353.0272,134040.9
353.0361,241712.7
353.1867,17.2
353.4287,273.9
353.7241,148.2
353.8482,559.2
353.8861,302.7
353.9857,178.3
354.0304,11263.4
354.0394,23415.8
354.1041,646.8
354.196,152.1
354.2231,291.8
354.5989,349.7
354.6366,208.5
354.8953,695.4
354.9217,413.1
355.012,643.4
355.0181,99.8
355.0343,13872.3
355.0703,619.3
355.1455,310.2
355.2289,315.2
355.2529,424.1
355.2965,468.5
355.4952,755.2
355.5221,253.9
355.5414,21.6
355.5485,153.2
355.6594,92.9
355.7235,18.6
355.7578,106.6
355.8396,316.5
355.8836,184.9
355.8953,351.3
355.9292,530
356.0151,26.6
356.0458,109.1
356.0698,215.1
356.0866,170.3
356.2093,113.4
356.4339,272.4
356.501,19.8
356.8342,130
356.909,129.7
356.9453,164.8
356.9595,322.8
357.0089,285.8
357.0674,29.7
357.2463,276.7
357.2949,353.7
357.3773,764.1
357.3817,794.6
357.407,116.1
357.4327,111.5
357.4907,446.5
357.6135,663
357.6211,248
357.6789,117.6
357.6852,318.7
357.7023,568.3
357.7105,461.6
357.7345,308.3
357.956,18.6
357.9776,870.1
358.0123,18.7
358.0854,489.6
358.1559,101.3
358.2005,502.7
358.3351,477.2
358.3707,331.9
358.3824,439.9
358.4251,313.1
358.4878,559.7
358.5209,94.1
358.7763,321.3
358.7999,265.8
358.8211,18.7
358.8366,121.9
359.0073,103.1
359.0315,14893.2
359.0441,403208.7
359.0608,128
359.1671,1262.1
359.1867,19.4
359.2422,512.1
359.3268,162
359.3359,19.8
359.3523,80.1
359.387,574.2
359.398,260.8
359.4044,419.9
359.4273,340.9
359.4376,288.1
359.449,1342.8
359.4762,928.8
359.4836,371.1
359.5044,20.8
359.5212,957
359.5346,663.4
359.5444,296.9
359.5713,17.7
359.5774,389.5
359.6413,301.3
359.8006,124.5
359.823,180.1
359.9705,197.8
360.0313,108.5
360.0475,36031.8
360.107,130.6
360.2398,85.3
360.2695,270.5
360.3255,327
360.3789,17.6
360.5751,846.1
360.9666,408.1
360.9869,245.9
361.013,310.3
361.0202,3621.5
361.0476,1071.3
361.1379,291.7
361.178,193.3
361.2513,109.6
361.274,228.9
361.6184,164
361.7019,654.8
361.794,64.3
361.8314,90.8
361.8664,297
361.9174,112
361.9577,11575.4
362.0236,189.3
362.2885,367.6
362.3463,316.2
362.3947,487.8
362.4731,516.9
362.6327,78.3
362.7345,263.4
362.8886,106
362.9255,534.9
363.0224,450.7
363.2439,91.6
363.3175,90.9
363.4734,74.4
363.4912,146.3
363.7976,199.1
363.8093,81
363.9973,3945.1
364.259,561.2
364.27,134
364.3056,954.8
364.3354,229.7
364.3881,19.2
364.6816,131.1
364.8154,263.2
364.9169,346.9
364.9679,191.6
365.0795,19.7
365.2908,255.4
365.3554,246.4
365.5482,24.8
365.7598,557
365.877,341.5
365.8927,338.6
365.939,240.1
365.9856,430
365.9967,138.7
366.0483,104.4
366.0838,86
366.1981,91.4
366.2269,217.2
366.2376,422.7
366.3505,108.8
366.5224,132.2
366.605,167
366.8733,821.2
367.1143,305.1
367.1213,2931.5
367.1737,200
367.1947,909.6
367.33,32.9
367.3415,83.7
367.4636,379.9
367.5924,572
367.7131,133.1
367.8033,130.9
367.9361,121.2
367.9918,1743.7
368.0034,682.5
368.2111,735.2
368.4627,20.5
368.4901,559.2
368.5129,191.8
368.5167,203.1
368.5599,181.1
368.6622,608
368.6937,175.9
368.8287,247.2
368.9638,301.2
368.9921,1774.1
369.0009,18786.1
369.01,9346.6
369.2463,1073.8
369.3507,28.1
369.5914,241.9
369.699,228.9
369.8145,19.4
370.023,21
370.2299,193.5
370.5196,105
370.5399,275.5
370.5498,136.3
370.7418,824.9
370.7498,481.5
370.8333,479.5
370.8674,252.7
370.9516,189.4
370.9998,2264.1
371.008,444.1
371.0413,1146.2
371.2647,494
371.3598,191
371.4472,332.3
371.4857,152.3
371.5632,292.3
371.7143,741.9
371.9442,18.9
371.9724,132.2
372.3572,18.6
372.468,518.9
372.4967,120.8
372.5847,158
372.6015,88.5
372.793,95.8
372.9333,335.7
372.9432,135.5
372.9956,232.5
373.0121,784.3
373.0462,184.3
373.1497,177.4
373.4643,323.2
374.1382,254.7
374.1709,751.6
374.3446,95
374.3559,217.6
374.4765,327.5
374.6361,619.7
374.7302,336.5
374.842,406.8
374.9558,20.2
375.0091,133537
375.018,131181
375.2511,626
375.3247,189.1
375.3701,103.5
375.9471,413.9
375.9654,22.9
376.0125,7224.5
376.0213,9386
376.0307,182.1
376.0925,17.8
376.2525,803.7
376.278,105.5
376.3066,1537.6
376.4114,224.3
376.5146,26.4
376.5305,46.3
376.5976,585.6
376.6638,158.4
376.7195,128
376.853,150.5
376.9474,299.8
376.9942,1156.1
377.0163,5959.4
377.298,246.1
377.5466,157.1
377.6073,298
377.7031,269
377.7105,156.7
377.722,294.1
377.9312,763.5
377.9561,97
377.9772,91.8
378.0226,266.9
378.307,156.6
378.3346,131.3
378.4584,180
379.0178,331.1
379.2705,397.3
379.5282,33.6
379.5652,101.1
379.604,263.2
379.6217,568.8
379.7392,196
379.8034,38.7
380.3838,259.1
380.8658,263.9
381.0136,23569.2
381.026,234431.2
381.0797,496.1
381.2483,85.1
381.2993,24.8
381.5967,201.7
381.6731,172.1
381.7565,122.8
382.0136,439.1
382.0293,22158.5
382.1298,171.4
382.2902,25.5
382.3104,84.6
382.3373,564.2
382.5207,737.4
382.7665,713
383.0105,494.5
383.0317,414.4
383.1164,178268.1
383.1685,129.9
383.6507,247.7
383.6618,529.7
383.7922,604.5
383.8388,276.2
383.9658,2861.5
384.1197,22255.7
384.2005,143.2
384.2334,23
384.2694,149.6
384.2973,603.2
384.6001,692.1
384.6256,350.5
384.6796,103.6
384.7387,268.1
384.7641,440.9
384.8458,88.9
384.9736,1001.9
385.0402,104.3
385.081,80.8
385.1204,500.8
385.2334,19.6
385.3114,289.9
385.3715,117.6
385.3917,141.9
385.781,328.5
385.9792,11976.9
386.0637,399.8
386.1841,18.2
386.4359,384.3
386.4432,522.8
386.9129,282.6
386.9567,299.2
386.964,177.1
386.9778,542.3
386.982,550.2
387.0027,698.9
387.0416,381.3
387.092,346.2
387.1486,278.6
387.1945,207.2
387.2268,20.6
387.4109,117.4
387.4282,135
387.4575,238.3
387.5062,796.3
387.521,477.1
387.5983,239.8
387.679,424.1
387.7293,120
387.8692,113.9
387.9782,782.3
387.9945,77.9
388.0786,460.9
388.1568,143.8
388.1865,2761.9
388.7124,433.6
388.9438,130.8
388.9531,100.2
388.9622,704.6
389.0341,246.9
389.0566,17.9
389.1667,245.1
389.1969,192.2
389.3181,563.6
389.3632,921.1
389.5884,151
389.9737,39787.2
390.1175,85.7
390.1528,20.4
390.1748,212.5
390.1964,182.7
390.4019,81.6
390.4197,579.3
390.7992,816.3
390.8362,422.7
390.9126,41.8
390.9221,520.3
390.9368,978.7
390.9741,13046.2
390.9827,26340.9
390.992,16868.2
391.2088,24.1
391.5225,172.4
391.698,770.2
391.8014,92.4
391.8136,107.9
391.8347,228.9
391.8736,855.7
391.9075,18.8
391.949,145.3
391.9766,118.6
391.9865,155.4
391.9957,357
392.0043,71.8
392.0937,517.2
392.1685,32.3
392.4624,109.2
392.6144,413.9
392.6245,227.3
392.6994,671.9
392.7077,914.5
392.7963,809.1
392.8442,202.8
392.9634,587.7
392.9819,3156.4
392.9885,627.7
393.1926,19.5
393.2346,504.8
393.3208,108.3
393.4604,856.1
393.6083,483.2
393.6933,119.7
393.8653,104.7
393.9074,441.5
394.1009,726.6
394.2343,551.2
394.38,301.1
394.4371,348.4
394.45,263.2
394.5339,177.8
394.5476,503.7
394.7938,430.6
394.8559,119.5
394.9769,235.3
395.2079,324.9
395.2223,455
395.3115,324.3
395.3303,34.9
395.362,19
395.4094,684.4
395.5425,148.8
395.6562,346.7
395.7735,271.5
395.7901,133.8
395.9306,827.8
396.0402,228.5
396.0569,81.8
396.3198,208.1
396.3481,117.5
396.3752,114.4
396.7438,1328.7
396.7807,380
396.9256,405.2
396.9328,172.8
396.9641,38.5
396.9911,164658.3
396.9999,83783.8
397.0877,458.6
397.0981,122
397.2772,77.4
397.3281,514.5
397.3743,156.4
397.7951,287.6
397.865,528.1
397.9944,11868.9
398.0036,3278.1
398.0718,174.3
398.1475,193.3
398.2418,3456.5
398.2642,252.8
398.44,18.8
398.4531,247.4
398.4829,237
398.5672,257.1
398.5962,245.1
398.6274,111.7
398.7298,89.6
398.7412,1476.1
398.757,17.6
398.9612,85.5
398.9859,476.6
398.9985,831.9
399.0535,217.1
399.6728,228.9
399.9453,330.6
400.0922,225.9
400.1611,347.5
400.3505,190.8
400.7392,598.9
400.8164,235.2
400.8472,114.9
400.8675,608.6
400.8968,19.6
400.9839,667.2
401.295,19.9
401.3419,427.6
401.4285,453.1
401.4815,482.2
401.6745,20.3
401.9529,1826.9
401.9987,421
402.0462,254
402.2809,229.9
402.3518,101.2
402.3595,584.8
402.4593,89.7
402.5522,252.7
402.5725,147.9
402.5796,136.6
402.7297,297.5
402.7662,488.6
402.8636,608.2
403.0079,267939.7
403.0372,302.8
403.1503,22.8
403.4941,199.5
403.6351,397.6
403.7025,420
403.7177,85
403.862,183.3
403.9418,531.6
403.952,111.6
404.0113,25302.1
404.0332,336.8
404.2418,582.1
404.2545,446.8
404.3315,207.3
404.4329,1493.4
404.6863,752.7
404.757,112.1
404.8353,669.1
404.9986,99.7
405.012,857.1
405.2645,331.9
405.5809,254
405.655,189.7
405.9475,25251.3
405.9771,250.8
406.3294,1118.1
406.3471,298.6
406.549,21.7
406.6054,468.3
406.7009,528.4
406.8022,20.9
406.9555,934.4
407.2624,23
407.3327,61.9
407.9456,535.5
408.03,510.3
408.2047,113.8
408.2139,174.7
408.2324,468.7
408.3093,80.5
408.3396,450.1
408.3946,108.8
408.4648,798.5
408.5733,587.5
408.7403,22.3
408.7702,1331.3
408.8446,258.9
408.8623,286.1
408.9563,416.5
408.9843,1482.2
408.9966,207.2
409.1254,111.9
409.3579,224.8
409.439,129.4
409.6385,498.3
409.7789,746.5
409.8192,87.5
410.2097,325.7
410.2179,420.9
410.406,295.7
410.5439,160
410.5758,282.8
410.7674,1530.5
410.8572,1453.1
411.4307,1236.5
411.4656,167.3
411.5117,140.6
411.6349,397.5
411.6523,19
411.8137,227.2
411.8732,222.9
412.0533,316.4
412.2079,566.8
412.3213,2389
412.4385,907.4
412.447,267.3
412.5685,405.8
412.7179,427.9
412.9645,43892.2
412.9739,16834.3
413.0325,18.5
413.1147,111.7
413.2479,138.2
413.2664,3368.8
413.3238,225.8
413.3752,136.9
413.4145,210.3
413.8324,905.1
413.8449,297.6
413.9236,125.8
413.9331,695.2
413.9394,259.8
414.0357,117.3
414.1344,383.2
414.2702,183.5
414.3451,81.6
414.6599,348.6
414.715,1101.2
414.9635,1443.8
414.973,136.2
414.9874,18.8
414.998,1859.9
415.0364,20.7
415.0435,391
415.2224,1904
415.822,117.1
415.8372,583.6
415.9779,30
415.9853,598.4
416.0265,104.8
416.135,9528.4
416.2142,23484.6
416.3004,217.8
416.5802,178.2
416.7021,118.7
416.7128,500.1
416.8017,720.3
417.0029,221.7
417.0287,105.1
417.0809,575
417.2177,2719.4
417.3296,788.3
417.5628,335.7
417.9265,187
418.0052,164.4
418.1792,81.3
418.2048,18
418.2628,270.8
418.499,211.7
418.6358,20.8
418.8148,317.5
418.9046,112.3
418.9819,104965.8
419.1447,263.6
419.2126,319.1
419.2554,1127.6
419.4492,282.8
419.4644,308.3
419.7034,20.1
419.7317,802.5
419.9174,488.9
419.985,4783.1
419.9989,47.7
420.2221,20.3
420.2309,232
420.3413,138.2
420.3753,118.6
420.4901,155.9
420.4975,432.4
420.5291,91.6
420.5802,342.4
420.7528,132.7
420.9573,408.8
420.9724,846.4
420.9802,3943.1
421.032,267.4
421.1042,518.9
421.2608,303.5
421.339,213.7
421.4524,100.4
421.7675,128.7
421.9216,7716.9
422.433,278.8
422.8579,317.4
422.8893,425.7
422.9105,229.9
423.5252,904
423.753,372.1
423.9332,122.3
424.3103,93
424.3695,130.4
424.3847,83.3
424.4706,23.4
424.6207,80.5
424.9241,640.1
425.0289,41.4
425.3824,564.5
425.3974,328.8
425.4471,129.1
425.469,43.4
425.5857,539.3
425.7889,147.2
425.8498,134.4
425.8622,89.1
426.0105,21
426.4853,20.7
426.56,18.1
426.8301,697.8
426.9415,77.2
426.95,22.4
426.9708,687.3
427.1581,654.3
427.267,18.6
427.4254,177.2
427.9464,811.8
428.0114,164.2
428.0528,120.3
428.2769,299.3
428.2965,318.9
428.4371,228.7
428.7939,574.5
428.8483,760
428.866,393
428.8724,196.8
428.9377,10379.1
428.9489,146.9
429.0043,115.5
429.0373,424.2
429.0555,364.3
429.0894,614.6
429.1886,620.8
429.2249,20.3
429.2824,134.5
429.4393,19.9
429.6784,545.6
429.7709,307.4
429.8061,316.1
429.8625,26.5
429.9419,137
430.0536,149.2
430.0765,288.9
430.0884,63.3
430.1292,18.4
430.8729,97.2
430.9132,721.8
430.9334,511.6
430.9492,819.3
430.9662,110.1
430.9756,21.2
431.0427,126.7
431.086,105.2
431.113,169.2
431.1168,172.1
431.217,3870.2
431.316,87.7
431.4466,93.9
431.4764,84.4
431.6496,83.2
431.7652,486.2
431.8133,19.1
431.9122,101.5
431.95,96.5
432.195,324.5
432.4341,248
432.5122,172.3
432.6119,97.9
432.7926,251.8
432.9014,152.4
432.94,506.3
432.9937,19.4
433.0368,135
433.2498,56.2
433.341,216.6
434.358,256.1
434.4899,95.1
434.7189,447.9
434.7803,200.9
434.8593,494.5
434.9396,559
434.9559,24846
435.3491,197.4
435.4934,143.1
435.6151,873.3
435.6444,101.2
435.6931,89.7
435.7024,21.2
435.8923,443.7
435.9419,158.2
435.9598,1826.1
436.1174,165
436.437,18.4
436.4475,276.9
436.5073,503.5
436.7286,85.9
436.7541,496.8
436.9551,994.7
437.0205,140.7
437.1692,86
437.2049,651.8
437.3495,733.8
437.4619,96.9
437.5692,127.8
437.7449,19.2
437.7926,480.2
437.8073,20.8
438.196,1131.9
438.2602,168.6
438.297,827.6
438.3125,720.5
438.4839,19.6
438.5314,264
438.5906,269.4
438.6216,34
438.8192,341
438.9723,3530.3
438.9846,4031.1
439.2753,473.2
439.5145,221.1
439.7476,194.5
439.8595,591
439.9023,801.2
440.0278,270.6
440.1397,110.4
440.2653,562.2
440.3416,96.2
440.4874,286.8
440.5223,313.2
440.5916,110.3
440.7102,19.6
440.7246,351.9
440.7436,507.4
440.7511,86.1
440.7602,545.4
440.9193,165.3
440.9689,418
440.9821,820.3
441.0184,191.2
441.1998,126.8
441.2414,533.6
441.2979,207.2
441.3855,19.9
441.5848,327.1
441.7666,130.3
441.817,294.9
441.9302,267.3
442.2123,132.3
442.2444,193.5
442.4674,562.6
442.8389,206.1
443.117,109.4
443.1456,931
443.545,465
443.6218,307.5
443.6561,257.6
443.8118,552.8
443.9632,212
443.9719,63.8
444.1405,176.9
444.557,667.8
444.9403,544.6
444.9733,20.9
445.201,21.1
445.2317,1194.1
445.2691,858.3
445.3656,554.6
445.5653,167.2
445.9401,691.3
445.963,1060.6
446.0192,429.3
446.0868,98.2
446.3388,354.5
446.671,538.9
446.7232,19.7
446.9154,113.8
446.9301,35.2
447.0358,171.7
447.3467,255.1
447.3962,762.3
447.7084,489.8
447.7311,202.6
447.8523,19
447.8675,178.1
447.9324,3349.2
448.0936,492.8
448.1074,122.9
448.1778,33
448.2892,18.8
448.3057,488.3
448.502,321.2
448.5168,605.5
448.5465,341.3
448.6675,382.9
448.693,405.8
448.7642,524.6
448.8037,128.3
448.9326,3613
449.1543,2858.7
449.2703,339
449.5186,436.9
449.5749,174.1
449.6464,82.4
449.8145,848
449.8936,121.7
449.9306,566.8
449.9912,86.3
450.1387,399.9
450.1575,524.2
450.2309,772
450.5215,616.5
450.676,40.6
450.7551,487.4
450.9285,641.3
450.9892,237.8
451.1501,139.7
451.3252,437.1
451.3349,460.2
451.3779,112
452.1582,150.5
452.307,263.8
452.3554,446.6
452.9452,616
453.0183,257.1
453.1193,702.7
453.1738,2385.4
453.328,420.9
453.3538,420.9
453.5483,115
453.8469,157.7
454.0372,122.3
454.1629,415.3
454.6574,582.7
454.6791,159.5
454.6957,89.8
454.7307,110.6
454.7475,309.2
454.9498,32976.8
455.1224,257
455.128,244.6
455.7524,338.8
455.8677,165.6
455.8801,311.4
455.9534,931.8
456.234,378
456.3439,17.5
456.3925,456.3
456.6074,495.2
456.6903,19
456.6996,779
456.8179,18
456.9157,569.5
456.9472,9582.4
456.9942,160.4
457.2325,8374.1
457.2739,109.9
457.3281,749.7
457.5955,619.5
457.7106,21.4
457.8543,214.5
457.974,88.7
458.1203,143.2
458.2016,320.4
458.2355,575.2
458.2814,147
458.3009,20.2
458.4683,124.6
458.5625,249
458.6073,103.2
458.6969,408.7
458.8017,503.2
458.8182,572
458.9286,21.2
458.9613,1577.1
459.062,584.1
459.1071,151.6
459.2485,400317.4
459.4038,33.6
459.4731,145.5
459.5953,162.7
459.8849,327.8
459.8972,18.3
460.0821,31.9
460.1171,295.9
460.2518,84879.7
460.2794,165.7
460.4047,276.4
460.4609,268.2
460.5088,224.2
460.6328,187.3
460.694,345.5
460.7607,276.9
460.9666,77977.2
461.2549,6055.9
461.3007,544
461.3223,436.3
461.4639,93.9
461.8211,20.9
461.8998,110.4
461.9699,4212.7
462.1721,105.6
462.256,533.1
462.4032,143
462.6016,324.3
462.6619,113.7
462.675,96
462.9635,20491.1
463.0705,157.7
463.2148,18.5
463.2327,99.6
463.3368,376.2
463.4448,541.4
463.9064,794.4
463.9671,1038.9
464.0445,20
464.3521,172.7
464.4621,268.4
464.723,24.7
464.9785,7850.1
465.0493,181.8
465.0548,151.6
465.0775,37.2
465.1633,392.3
465.3289,394.7
465.4427,120.7
465.6828,208.7
465.7514,108.4
465.9568,17.7
466.3553,265.9
466.3992,268.1
466.4133,22
466.6165,116
466.7136,132.5
466.7483,223
466.799,292.5
466.812,18.7
466.9137,100.4
466.98,247.8
467.0666,920.5
467.0829,626
467.3671,259.6
467.989,485.3
468.1283,90
468.3097,627.3
468.4308,692.2
468.471,717.8
468.483,103.2
468.875,115.8
468.9634,469
469.0789,414.7
469.1456,692.4
469.2251,114.8
469.2707,39.2
469.3305,20.5
469.4406,88.6
469.7066,271.5
469.7188,147.2
469.8485,542
469.9317,89.4
470.1291,94.8
470.2709,927.4
470.6426,101.3
470.7317,527.7
470.9236,16238.3
470.9953,3897.4
471.2853,1143.1
471.4231,580.8
471.6107,279.3
471.7166,806.5
471.7487,40.3
471.8699,229.8
472.1004,753.2
472.2991,122.7
472.3122,463.7
472.4894,694.5
472.5023,535.9
472.5378,19.3
472.5663,20.9
472.7541,375.5
472.921,1881.6
472.9902,133.2
473.0003,35.7
473.0156,660.2
473.0289,406.7
473.0491,577.8
473.0673,785.2
473.1503,140
473.2642,1705.9
473.8186,852.7
474.2612,302.4
474.4657,86.1
474.5368,679.5
474.5526,503.9
474.803,159.1
474.8942,504.2
475.1362,782.4
475.2224,23510.9
475.453,18.9
475.4716,289.2
475.8761,517.7
475.9045,145
475.9317,25.4
476.0889,58.4
476.1197,298.2
476.2256,3913.7
476.4246,327.6
476.4545,255.8
476.52,221.9
476.5454,381
476.573,224.2
476.6732,23.1
476.9406,50805.7
477.0115,260.6
477.2202,574.7
477.2871,264.4
477.3185,759.2
477.8357,942
477.9435,3621.2
477.9646,18.2
478.0268,619.5
478.051,268.8
478.2,275.3
478.3292,50506.7
478.5252,738.6
478.5886,18
478.7821,40
478.8596,172.6
478.9378,18384.8
478.9668,90.6
478.9992,264.4
479.0372,22
479.0965,79.4
479.3325,11888.2
479.5772,213.4
479.7884,463.6
479.9103,98.1
480.04,124.2
480.2717,429.1
480.3221,332.3
480.7086,151.3
480.9122,182
480.9357,352.2
480.9519,3328.4
480.9633,429.2
481.0258,212.3
481.0915,1895.8
481.3089,465.2
481.3787,184.6
481.778,131.6
481.8262,199.8
482.0894,443.2
482.0955,343.2
482.324,1685.7
482.3335,144.6
482.4324,131.4
482.9496,222.5
483.0218,185.8
483.0874,54.9
483.1799,133.5
483.2484,94447.4
483.3572,408
483.6563,101.1
483.9238,134.4
484.2519,19391.3
484.7059,587.1
485.264,93813.8
485.3328,784.2
485.491,120.2
485.5629,636
485.6937,391.3
485.7334,676.7
486.0119,355.8
486.2674,19204.7
486.4355,108.2
486.4466,194.4
486.4998,20.9
486.5484,134.1
486.5634,92.9
486.6689,275.9
486.7072,243.7
486.7945,514.1
486.8978,995.6
486.9175,301.1
486.9694,2084.6
487.2797,99585.6
487.5127,182.2
487.5477,20
487.6773,397.1
487.8528,19.3
487.9673,607.7
488.283,20028.9
488.8945,519.3
488.9134,249.6
489.0083,676.6
489.041,18.8
489.1785,747.8
489.1963,290.1
489.2198,213.8
489.2228,214
489.2308,95.6
489.2452,264
489.261,135.1
489.2818,148.3
489.368,353.8
489.5658,19.3
489.6345,146.2
489.7538,21.7
489.8182,370.3
489.8755,580
490.1551,20.2
490.2908,6913.8
490.3055,192.1
490.4863,34.2
490.6105,187.6
490.6249,340.9
490.6537,334.1
490.7003,647.8
491.4699,270
492.3327,95.1
492.4413,244.4
492.4898,323.1
492.5198,590.4
492.9144,9029.8
492.9938,251.5
493.3276,100.6
493.5818,519.1
493.6241,121.6
493.8592,320.4
493.8756,34.4
494.101,281.7
494.3244,7711
494.5716,272.5
494.7768,165.2
494.9119,4028.1
494.9683,338.3
495.0902,117.8
495.1968,21.7
495.2664,282
495.3259,287.7
495.4738,908.4
495.5432,271
495.5981,287.2
495.6358,576.2
495.6606,327.9
495.6932,312.1
495.8001,701.8
495.8083,188.8
495.8609,247.6
495.8966,125.3
496.044,98.7
496.2015,161.6
496.3399,396915
496.5158,379.6
496.6608,21.7
496.9252,416
496.9717,267.8
497.0281,1070.3
497.0873,350.4
497.3169,712.1
497.3432,95827
497.4971,568.4
497.6047,23.5
497.8076,33.4
498.3465,5374
498.5848,287.3
498.7756,571
498.8622,86.3
498.9286,457.9
499.0209,218.9
499.2225,3939.3
499.4537,19.4
500.1204,604.1
500.1505,619.8
500.1687,372.4
500.2077,171.1
500.3121,983.8
500.463,813.7
500.5809,100.1
500.6803,450.4
500.8197,276.6
500.8411,188.6
501.2375,4681
501.2623,120.4
501.2745,759.3
501.5466,254.5
501.702,76.1
501.8327,604.9
501.8939,89.9
502.3294,18459
502.579,527.7
502.6194,386.3
502.674,20.2
502.7116,494.8
502.7234,328.2
502.7971,114.8
502.888,112.6
502.9022,357.2
503.1077,167.7
503.2533,7202.3
503.3315,2855
503.6881,155.3
503.7152,127.3
504.0379,127.1
504.0794,23
504.0906,205.3
504.1059,19.7
504.2568,1614.7
504.3063,5866.8
504.3446,9581.2
504.4352,127.5
504.4882,445.8
504.5142,166.4
504.5852,249.5
504.6104,21
504.7326,236.9
504.7839,245
504.9536,881
505.1825,217.5
505.3093,518.1
505.4084,128.6
505.4722,18.8
505.5697,140.4
505.5741,147.7
505.6009,400.3
505.6536,361.7
505.7415,522.4
505.8906,670.6
505.9138,294.4
506.2642,2184.5
506.3604,7466.7
506.5555,131.1
506.5974,283.6
506.6343,136.7
506.8916,3239.4
506.9342,242
507.1497,183.5
507.1969,112.7
507.2483,25854.2
507.3637,868
507.7032,109.8
508.2514,3343.9
508.2814,418.9
508.7841,591.5
508.7956,108.7
508.8178,429.6
508.888,1571.8
509.0047,2726.3
509.2638,7035.8
509.3388,502.7
509.5353,329.1
509.7094,20.5
509.8078,1059.7
509.8722,135.4
509.9297,119.7
510.0872,107.5
510.1546,326.4
510.2438,116.8
510.2662,705
510.355,1630.1
510.5154,209.3
510.8782,22
511.1248,22.9
511.6469,211.6
511.6722,109.2
511.8179,318.5
511.9197,112.2
512.1335,346.5
512.3502,483.3
512.3791,113
512.5018,164.4
512.615,146.7
512.7273,286.8
512.8487,191.7
512.8682,170
512.9083,14053.7
512.9787,212.7
513.2666,384.8
513.6232,260.8
514.1554,323.1
514.1707,267.9
514.4707,116.7
514.6903,37.4
514.8844,116.2
514.9053,6281.6
515.1169,159
515.2525,144.8
515.3168,34
515.4495,188.5
515.4994,173.9
515.8668,18.5
515.9671,222.8
516.1512,218.4
516.3063,16278
516.4543,213.8
516.5086,683.1
516.5188,76.9
516.7721,321.3
516.8385,122.7
516.8674,412.2
516.9029,1090.1
516.92,975.3
516.9593,134.9
517.0728,722.1
517.1221,213.4
517.2632,460.7
517.3126,667.1
517.3547,187.5
517.3868,471.4
517.4576,260.1
518.0561,305.7
518.322,676364.1
518.4916,491.9
518.6376,220.6
518.757,106.7
518.8332,427.7
518.9251,26852.2
519.0647,88.7
519.0749,180.9
519.0948,17.4
519.3253,160874.4
519.4581,152.4
519.9285,2321.4
519.9447,769.2
519.9668,206.3
520.0678,133.6
520.125,19.8
520.2071,339.8
520.2547,132.9
520.2811,444.3
520.3294,15743.4
520.3399,83199.8
520.3624,276
520.7291,270
520.759,217.7
520.8983,400.2
520.922,14807.1
520.9938,91.7
521.0424,109.4
521.0506,104.7
521.2544,31.8
521.3162,568.8
521.3296,716.1
521.3433,22637.7
521.3939,210.1
521.6417,772.4
521.7513,19.6
521.9246,395.2
521.9769,1027.2
522.0145,124.2
522.1826,26.9
522.2367,458.4
522.3556,98759.7
522.6875,511.6
522.7448,473
522.7679,152
522.8653,797.7
522.9194,1505.3
522.9373,4011.7
523.0538,151.6
523.0714,173.7
523.2238,705.3
523.3589,22434.7
523.6821,343.3
523.7667,96.8
524.0015,546.3
524.0267,768.5
524.1141,1834.6
524.1424,752
524.1553,164.5
524.2334,98.5
524.2494,172.7
524.3422,286.7
524.3712,130173.9
524.6507,22
524.6871,441.8
524.9352,1048
524.9799,1203.6
525.306,19.8
525.3746,36327.4
525.5399,19.1
525.748,702.9
525.777,112.2
525.8369,457.7
526.0031,20.5
526.0466,125.7
526.1941,286.2
526.3292,5912.6
526.3771,2044.7
526.4206,166
526.4641,469.3
526.4959,634.5
526.8686,37.1
527.2258,298.1
527.332,1006.5
527.3897,441.2
527.4075,137.6
527.8335,224
527.9417,138.3
528.3451,62.5
528.4868,679.8
528.7741,24.3
528.8824,7074.8
528.954,3182.9
529.0189,391.6
529.531,121.1
530.0034,852
530.0515,318.7
530.3089,111.1
530.3584,1006.2
530.4185,114.9
530.7804,413.4
530.7972,449.2
530.8791,4471.1
530.9151,693.8
530.995,217.6
531.1949,20.3
531.3524,708.7
531.7548,41.6
531.8445,132.5
532.1229,20.9
532.2654,323.4
532.2801,3247.9
532.3379,8640.3
532.3568,368.5
532.6683,318.2
532.832,120.5
532.8775,854.9
532.9667,1217.1
533.699,29.9
533.9654,192.3
534.2959,201091.5
534.4808,169.4
534.5242,120.5
534.7889,118.6
534.8991,18471.2
535.0507,172.3
535.0753,487.1
535.2544,407.3
535.2992,49823.5
535.3933,296
535.53,194.9
535.8706,22.8
535.903,1033
535.9963,83.5
536.0471,348.8
536.1329,21.4
536.2343,24.5
536.2943,11144
536.482,782.7
536.6232,328.2
536.8965,10947.4
537.34,927.1
537.5389,190.4
537.5735,601.9
537.6068,111.8
537.7454,245
537.772,798.7
537.7836,124.1
537.8366,174.7
537.8987,789.6
537.9493,205.3
538.3462,821.4
538.4789,747.8
538.6764,629.8
538.758,122.3
538.8933,2250.7
538.9113,1921.4
538.9292,338.2
539.2153,112.7
539.5114,227.9
539.5757,125.7
540.0292,294.3
540.2739,157.7
540.3269,180
540.5848,21.1
540.7049,183.6
540.7925,113.5
540.908,537.3
541.1532,171.4
541.2999,115.5
541.6367,116.3
541.6945,296.9
541.7857,230
541.8134,22.2
541.9954,122.8
542.1474,813.5
542.1653,270.6
542.322,141100.1
542.4907,614.9
542.5928,393.9
542.7693,156.5
543.3253,36448.2
543.5778,106.3
543.9729,132.6
544.1718,241.7
544.2409,147.8
544.2732,574.3
544.3377,163876.3
544.4804,843
544.5341,487.3
544.7621,338.5
544.8564,1050.8
544.9276,899.4
544.9477,1026.9
545.0983,94.6
545.2142,672.6
545.3411,40859.1
545.5033,110.4
545.525,22.5
545.6171,296.5
545.6784,577.7
545.6928,18
545.934,1403.5
546.1883,103.3
546.3532,216514.1
546.4759,113.1
546.5754,87.7
546.7047,116.5
546.7368,507.4
546.823,180.9
546.8522,405.2
546.8865,333
546.987,85.5
547.1848,18
547.3567,57183.1
547.4509,32.1
547.5164,281.9
547.7038,505.3
547.865,103.4
548.0878,443.6
548.3594,5199.9
548.4371,102.7
548.5732,21.5
548.8898,343.1
548.9405,571
549.0311,39
549.2791,121
549.6682,342.3
549.7126,80.5
550.0478,176.8
550.3084,34.1
550.3293,48.5
550.6138,522.8
550.735,287.2
550.8731,4520.3
550.9805,115.5
551.0856,100.8
551.8995,94.5
552.1413,419.3
552.2795,174.6
552.3073,384.6
552.3109,365.7
552.804,416.7
552.838,373.8
552.8703,3379.7
553.2114,205.7
553.2776,23.6
553.2993,164
553.3222,486.7
553.6399,326
553.656,523.3
553.8945,477
554.2458,194
554.7336,558.6
554.7835,225.8
554.8675,486.1
554.9006,587.6
555.0176,159.1
555.1521,326.1
555.1826,181.8
555.1944,144.5
555.2336,17.5
555.6422,95.6
555.6599,404.3
555.9769,470.5
555.988,46.4
556.3448,856.8
556.3767,156.1
556.6021,144.6
557.0004,326
557.091,101.9
557.5615,625.2
557.6783,96.8
557.9659,872.4
558.2416,399.5
558.2958,43386.5
558.833,503.9
559.0634,147.5
559.1132,150.9
559.1814,403
559.2995,10163.5
559.3808,308.3
559.398,1017.4
559.4679,18.3
559.4905,284.2
559.6974,19.2
559.8255,89.3
559.9406,171.3
560.0809,147.8
560.0999,346.1
560.3115,43005
560.3406,127.5
560.4063,175.8
560.4399,19.1
560.6973,322.9
560.7135,271.7
560.9231,845.4
560.9455,384.6
561.315,11361.2
561.3746,152.7
561.3915,106
561.4138,2677.9
561.466,454.1
561.9547,717.2
562.3113,1876.8
562.3272,56703.3
562.5238,305.4
563.1489,534
563.3307,11388.5
563.4286,3995.1
563.8436,111.7
563.968,238.8
564.1522,648.3
564.2323,536.6
564.2401,609.4
564.3255,1987
564.4435,153.6
564.6454,179.1
564.6913,520.8
564.7601,90.9
565.0444,458.7
565.0567,17.8
565.0824,685.6
565.1089,820.4
565.3904,334.4
566.322,34732
566.5557,627.3
566.639,206.6
566.7647,644.9
566.846,447.2
566.9056,601.3
566.9636,371.3
567.1549,1056.8
567.3257,8276.8
567.5109,150.6
567.6139,526.8
567.844,608.5
567.8496,456.7
567.9865,208.9
568.2412,209.6
568.3378,14467.1
568.4752,144.6
568.7099,560.7
568.9096,872
568.9361,21.8
569.0228,23.4
569.0944,27
569.2367,178.6
569.341,1795.1
569.4915,113.1
569.7512,152
570.352,1051.4
570.4395,22
570.8669,3237.3
571.059,525.9
571.1024,118
571.5951,365.2
572.0399,327.4
572.0941,224.7
572.5141,387.8
572.6185,20.1
572.8641,3089.4
572.9804,826.2
573.0073,150.6
573.5444,101.5
573.5782,19.8
574.1319,33.2
574.2027,288.4
574.2594,178.5
574.2918,581
574.361,536.3
574.4345,23.3
574.5581,460
574.8205,100.5
574.8602,332.3
574.9107,386
575.0163,329.7
575.1946,122.6
575.3564,657
575.4076,350
575.4521,105
575.5037,12896.4
576.2813,6880.2
576.5046,1080.5
576.8838,7371.2
576.9467,380.4
577.2833,432.3
577.3462,661
577.5192,57.3
577.5745,122.6
577.6715,455.2
578.046,119.1
578.0588,118.6
578.0967,321.5
578.2094,428.9
578.2784,1445.1
578.3115,520
578.8808,10444.6
579.2604,86.1
579.4309,545.1
579.5071,375
579.7267,410.9
580.0476,176.6
580.2804,128.9
580.397,124.1
580.4867,587.9
580.6021,453.6
580.8591,683.6
580.878,1766.9
580.8954,1360.1
580.9918,450.3
581.291,464.3
581.3063,255.3
581.3504,94.5
581.3639,157
581.6901,374.3
581.7173,120.9
581.8053,822.4
582.0268,412
582.1158,482.3
582.1345,481.7
582.1569,130.8
582.1763,414.3
582.1826,492.8
582.2156,366
582.2277,566.1
582.238,81.4
582.2783,202
582.2963,9571.4
582.3227,413.5
582.3422,541.8
582.3588,208.1
582.4193,149.7
582.4436,19.2
582.5104,234.4
582.7615,348.5
582.8909,931.6
583.0333,377.9
583.047,200.2
583.1449,242.1
583.163,220.8
583.2544,1619.1
583.2987,1965.3
583.8788,236.2
583.8937,239.1
583.9915,17.8
584.0326,22.5
584.0658,123.2
584.1271,406.3
584.1988,97.3
584.3116,3921.8
584.3631,286.1
584.5814,117.9
584.5964,17.3
584.7488,415.9
584.884,32.6
584.9436,114.2
585.2714,9227.4
585.4251,821
585.5879,234.8
585.9685,139.4
586.2744,2944.9
586.3102,6301.8
586.6009,269.8
586.6365,492.5
586.8404,2177.6
586.9125,989.3
587.3834,164.6
587.6031,91.8
587.7108,532.9
587.8116,826.7
587.9501,186
588.0681,102.7
588.1658,194.6
588.1918,22.9
588.2352,373.2
588.422,150.8
588.7668,683.6
588.8374,2596.8
588.9084,387.5
589.0069,382.9
589.121,599.5
589.8062,683.7
590.3221,3220.9
590.341,850.8
590.44,445.1
590.7462,87.6
590.8356,387.8
590.9237,441.8
591.4243,220.2
591.6822,278.5
591.7176,532.8
591.9975,398.7
592.1518,133.9
592.254,703.4
592.4095,327.6
592.5153,121.5
592.5549,224.6
592.8581,6721.8
592.9446,324.9
593.1142,622.7
593.4801,134.6
593.4988,477.6
593.6572,155.8
593.9074,16.8
594.473,559.2
594.4765,552.8
594.4832,358.7
594.5338,20.7
594.5529,22.2
594.6473,124.6
594.7286,388.8
594.8547,7299.2
595.2013,575.2
595.4347,773.3
595.4716,131.3
595.836,897.5
596.6616,164.2
596.8527,1863.5
597.1478,332.4
597.2355,19.7
597.3977,713.3
597.4506,3529
597.4858,12722.2
597.5314,104.9
597.5752,164.1
597.7486,21.8
598.0682,449.5
598.4619,438.2
598.8642,22.3
599.0152,262
599.4672,1550.2
599.5018,2929.2
599.8037,18.9
599.8684,21.5
599.9029,282.5
600.07,125.5
600.0843,134
600.2703,403.6
600.2813,928.8
600.2993,113.6
600.3477,91
600.3672,141
600.5067,961.5
601.0236,126.1
601.0979,511.2
601.5192,702.4
601.8016,626.1
601.8983,366.5
602.0495,107
602.1739,599.6
602.2949,364
602.4893,90.4
602.8867,554.5
602.9786,300.5
603.0793,278.6
603.2026,388.5
603.4732,19.3
603.5343,648.1
603.6667,17.8
603.7957,145.7
603.9717,98.2
604.3115,1666.5
604.3675,18.9
604.3893,87.2
604.5378,42.9
604.8128,407.5
604.8451,444.4
604.94,444.9
605.0775,135.1
605.46,175.9
605.5619,123.5
605.7695,829.9
605.8744,106.4
606.0514,245.6
606.1758,297.3
606.3093,350.9
606.6851,441
607.1712,1589.7
607.2534,652.9
607.3276,95.2
607.3347,86.9
607.8103,374.2
608.0053,197.1
608.1753,101.2
608.1896,179.9
608.8042,181.5
608.8315,2107.7
609.1427,396.9
609.6287,121.5
609.7386,96.9
610.6337,316.7
610.6546,653.5
610.7469,198.5
610.8287,2449.8
611.5107,599.9
611.5365,486.2
611.5531,313.9
611.6543,942.2
612.0829,497.1
612.1216,375.8
612.3239,607.9
612.7982,260.7
612.9068,654.3
612.9665,679
612.99,128.9
613.045,544.3
613.3446,875.4
613.4261,93.6
613.4427,371.5
613.5204,321
613.6325,444.4
613.7934,119
613.8989,92.4
614.2618,190.9
614.2752,41.9
614.4517,563.2
614.5144,20.6
614.7399,326.3
614.8157,415.1
614.9403,368.8
615.1017,19.2
615.2038,321.8
615.3366,534.1
615.4268,106.1
615.6806,180.1
615.8654,101.1
616.0006,191.4
616.211,608.6
616.3063,174.3
616.3837,104.4
616.4082,474.9
616.4952,612.8
616.6347,98.3
616.873,322.5
617.056,107.7
617.2015,111.9
617.2832,684.9
617.4755,15391.3
617.5118,121
617.6384,18
617.7883,125
617.8331,108.1
617.8796,802
618.2615,131.9
618.3058,675.2
618.4801,2701.9
618.8644,557.9
619.3412,275
619.4909,20540.7
619.6621,289.3
619.8118,345.7
619.8783,719.8
620.0772,635.8
620.1221,486.5
620.1769,813.6
620.2932,96.6
620.3282,338.3
620.4939,6327.1
620.7168,169.6
620.7292,917.6
620.8153,284.4
621.301,384.6
621.4391,1394.4
621.4457,1563.4
621.45,1744.3
621.486,6257.6
621.8341,130.5
622.043,229
622.3286,98.3
622.4364,947.4
622.491,385.1
622.521,22.1
623.1361,14070.4
623.4769,116.6
623.5004,392.9
623.5288,148.5
623.6028,519.2
623.8835,972.2
624.0059,505.5
624.1394,2068.8
624.2485,234.4
624.2562,240.8
624.5067,808.5
624.6432,34.8
624.7809,731.2
624.9488,181.6
625.1839,21.7
625.457,284.7
625.4739,1198
625.868,116
626.0264,185.5
626.1864,118.5
626.2826,38.9
626.305,109
626.4209,699.1
626.5745,158.4
626.687,515
626.7792,134
627.0336,250.3
627.0392,270.5
627.0457,204.7
627.2649,182.6
627.5358,725.7
627.6658,92.7
627.9228,270
628.1826,529.5
628.3728,137.4
628.5389,21.6
628.6064,504.8
629.0726,338.4
629.1529,27914.2
630.1137,120.6
630.1566,4871.7
630.2252,124
630.2905,482.9
630.3756,489.5
630.4098,141.8
630.5293,162
630.6103,21.2
630.6985,21.4
630.8079,139.5
630.9412,843.3
631.1852,457.6
631.5904,26.9
631.6557,651.1
632.0572,292.4
632.2214,707
632.2428,103.4
632.2489,179.6
632.2561,143.9
632.3535,1835.6
632.7152,117.9
632.8008,713.6
632.9096,382.9
633.1678,118.1
633.3951,688.7
633.4858,22.8
634.1088,109.9
634.2795,448.6
634.8427,2405.3
635.2594,85.4
635.4657,1386.9
635.876,341.9
635.8805,344.8
636.0841,755.2
636.2328,559.4
636.4286,436.9
636.5786,151.1
636.84,2042.1
636.9125,151.6
637.0915,100.7
637.1915,502.4
637.34,251.8
637.6497,104.4
637.8478,353.5
638.1001,367.7
638.2712,872.5
638.3836,103.3
638.4533,3730.6
638.7214,135.6
638.8367,686.5
639.4412,579.5
639.5088,114.3
639.6559,25.2
639.7616,21.5
640.0317,351.1
640.5287,118
640.5903,516.4
640.6069,83.4
640.6893,278
640.8364,334.8
641.2153,443.3
641.4554,681.5
641.9938,366.8
642.0841,351.2
642.274,153.8
642.417,138.2
643.066,91.7
643.1536,93.3
643.2565,194.4
643.7568,89.7
643.8024,278.7
644.2083,128.5
644.2535,22.1
644.702,522.2
645.0716,20.5
645.1179,11112.3
645.2886,325.3
645.3208,589
645.3477,847.5
645.3749,522.2
645.4367,521.4
645.4867,1047.6
645.6557,857.5
645.7312,789.3
645.8644,584.6
645.9862,169.8
646.1222,927.5
646.5721,535.5
647.4656,152
647.5161,731.8
647.7698,97.1
647.775,98.7
647.8066,316.8
647.9392,151.7
647.9646,224.5
648.3545,268.2
648.3846,2118
648.4674,122
648.5271,408
648.9746,200.2
649.489,206.2
649.5272,265.6
649.5847,192.6
649.8071,347.3
649.8793,24.9
650.0184,365.3
650.1511,438.7
650.2577,20.8
650.3888,321.8
650.4386,3099.2
650.5613,148
650.8164,2190.8
650.8741,216.8
651.1348,36854
651.2277,22.3
651.3961,232.5
651.4399,733.5
651.867,577
651.9421,205.4
652.1384,5490.4
652.2282,182.5
652.3257,18.8
652.7036,432.9
652.8138,1913.9
653.0023,18.1
653.1096,217.4
653.1376,341.1
653.3585,195.3
654.1156,257.9
654.2889,166.2
654.7001,303.4
654.7284,117.6
654.7452,115.5
654.8116,1122.9
654.8952,159
655.0454,303
655.1695,182.8
655.334,262.2
655.6069,147.4
655.7425,22.2
655.7984,20.1
656.1758,140.4
656.5263,522.3
656.6284,18.6
656.7463,1089.7
656.8607,21.3
657.095,87.4
657.8053,696.5
658.3972,647.5
658.6952,20.9
658.7315,263.9
658.7756,710.7
659.1067,131.3
659.2254,253.3
659.2678,498.8
659.9543,195.9
660.048,114.5
660.0822,2586.3
660.2584,536.6
660.6898,93.7
660.8812,316.5
660.9328,219.1
660.98,18.7
661.0828,4944.5
661.3344,545.1
661.4678,973.9
661.5128,94.5
662.0873,107.1
662.1402,195.3
662.2478,294.9
662.3424,356.7
662.4386,373.9
662.4652,834.3
662.6314,19.7
662.6968,484
662.7665,514.9
662.7907,77.9
663.091,139.8
663.116,678.5
663.2869,111.8
663.3897,740.5
663.4534,470.8
663.6283,384
663.6987,797.5
663.8014,198.6
664.3023,32.2
664.3118,33.7
664.4676,1113.7
664.6848,430.5
664.8855,157.6
664.9128,229.5
665.2799,20.7
665.4731,756.3
665.7131,415.4
666.0955,262.7
666.484,7461.2
666.7897,474.4
666.9049,18
666.9988,534.7
667.0684,629.9
667.0993,20857.6
667.279,248
667.2969,294.6
667.4852,1573
667.6165,560.1
667.8613,385.2
668.0249,162.2
668.1037,1503.6
668.8657,116.6
668.9958,201.4
669.0755,189.6
669.1047,109.7
669.4134,864.3
669.4962,1014.6
669.5267,349.2
669.7659,341.7
669.9614,157.3
670.3262,81
670.7785,530.5
670.9104,289.2
670.917,780.7
670.9206,708.2
670.9812,544.9
671.0891,147.8
672.0518,490.5
672.0878,519.7
672.3629,526.1
672.4218,7552.1
672.4517,506.9
672.8564,792.1
672.8676,660.8
672.9234,118.7
673.1168,51552.8
673.2962,255.5
673.5265,782.7
673.7069,17.9
673.8568,100
674.0803,521.6
674.1203,8771.7
674.3509,138.9
674.6236,899.8
674.8439,27.6
674.9465,88.7
675.1233,473.2
675.3996,217
675.5442,18186.6
675.886,84.9
675.9994,466.1
676.0473,4222.3
676.2996,447.9
676.4163,965.2
676.4345,501.4
676.5476,8395.4
676.7992,119.4
677.0552,279.6
677.1481,324.1
677.2449,95.8
677.4548,21.6
677.5688,318.6
677.6683,145.2
678.0694,550.3
678.1206,341.3
678.2568,21.5
678.304,339
678.4976,112.1
678.6749,122.9
678.7346,144
678.8846,19
679.0211,361.5
679.0543,118.3
679.0843,19.8
679.6083,121.7
679.9115,205.1
680.0861,459
680.1505,732.7
680.2429,173.7
680.3401,339.6
680.6086,387.5
681.0542,135.5
681.6753,180.8
681.7157,124.3
681.9042,298.3
682.0645,11435.1
682.4397,108.7
683.0638,2599.3
683.1262,476.3
683.1783,282.3
683.214,148.3
683.2813,19.9
683.4224,102.7
683.4498,3030.3
684.0644,194.8
684.2255,128.7
684.4265,125.9
684.4563,159.9
684.8855,604.2
685.3355,85.5
685.4358,6324.6
685.5675,323.3
685.8101,130.4
686.0645,117.2
686.3352,339.4
686.4401,166.7
686.6464,138.9
687.1083,450.3
687.6759,22.4
687.6934,278.9
687.7279,393.7
687.8419,20.6
687.8634,570.9
688.0029,289.1
688.0807,250.8
688.1095,801.3
688.4188,476.1
688.632,21
688.6455,272
688.7576,19.4
688.8423,88.1
689.0812,17697.6
689.0897,14413
689.1454,830.5
689.2796,446.8
689.5223,168.7
689.5599,5660.6
689.6218,234.3
689.634,884.3
690.0883,1116.6
690.4727,886.1
690.5639,1299.5
690.7891,94.6
691.0292,85.9
691.0528,101.1
691.7813,331.1
691.8712,382.8
692.3653,784.6
692.7927,17.6
692.8378,139.3
692.9339,20
693.053,225.4
693.0885,275
694.0367,101.8
694.6985,137.8
694.798,974.8
694.85,485.5
695.0011,381.3
695.0258,588.5
695.0508,293.4
695.0986,37806.8
695.1538,616.6
695.1936,400.2
695.4169,114.2
695.4542,558.8
695.5097,4691.2
695.8364,90.7
696.1024,5820.2
696.5124,1883.6
696.8622,863
696.8977,348.4
697.0688,308
697.2864,127.6
697.5258,29920.3
697.5755,104.4
697.6451,105.1
697.8681,102
697.9916,264.6
698.0288,2468
698.1457,483.4
698.192,528.7
698.4402,736.7
698.53,10887.1
698.9238,89.7
698.9964,309.7
699.0323,114.6
699.0447,117.8
699.5379,538.3
699.6849,158.2
699.8137,275.7
700.0477,674.8
700.3913,37.2
700.5484,282.5
700.8337,351.3
701.0325,154.3
701.3684,129.6
701.4052,132.1
701.4666,262
701.5597,43097.3
701.6239,107.2
701.673,138.7
701.8065,327.8
702.3416,3057.1
702.5632,15889.1
703.0984,251.8
703.5132,482
703.5755,100791.2
703.6923,90.1
703.93,84.7
704.0463,8793.5
704.0979,292.2
704.2031,243.7
704.4478,6938.6
704.524,918.7
704.5787,35346.5
704.616,311.5
704.8957,172.7
705.0573,2155.5
705.2435,96.6
705.297,581.5
705.4497,1031.9
705.5186,175
705.5814,4607.5
705.9012,127.8
706.2341,119.8
706.505,605.8
706.5394,2298.2
706.7414,84.9
706.9034,423.8
707.0539,102.2
707.3872,95
707.4879,1333.6
707.5421,87.3
708.2294,18.7
708.5444,37.9
708.6931,183.8
708.8551,209.6
709.1353,83.8
709.2571,163.6
709.3053,295.3
709.4823,994.1
709.9513,19.5
710.4399,218.9
710.5502,604.8
710.8004,129.7
711.0643,9535.7
711.0737,13690.2
711.5414,7957.5
711.6597,108
711.8704,89.6
712.0646,579.3
712.0774,580.4
712.3571,169.6
712.5456,1740.5
712.6859,80.2
712.7668,491.3
712.9158,21.5
713.0434,101.7
713.4999,2925.3
713.9619,319.5
713.9993,109.3
714.302,608
714.328,343.2
714.5039,1126.3
714.5457,101.6
714.7552,534
714.9905,458.4
715.8791,102.9
716.0551,22.4
716.2215,410.3
716.3994,597.4
716.4233,480.1
716.7479,83.1
716.911,173.6
716.9694,100.5
717.0804,18324.2
717.4697,83
717.4985,23.8
718.0834,1391.7
718.1594,642.7
718.1999,19.1
718.4461,19.5
718.5077,150.1
718.6656,541.3
718.764,191
718.9236,297
719.4586,1111.2
719.6807,192.8
719.9426,526.2
720.0217,2084.4
720.0414,279.6
720.3488,127.3
720.4144,672.2
720.5891,40.1
720.9573,404.2
721.4782,64885.5
721.8955,717.4
722.035,134.5
722.2106,164.3
722.2724,924.5
722.4813,22469.9
722.7851,17.8
723.2324,1343.5
723.495,7923.5
723.5416,56606.4
723.6636,466.7
723.7887,142.2
723.8782,86.9
724.1677,1126.7
724.1922,20.9
724.2447,177.7
724.4964,1981.7
724.5451,19898.9
725.0921,482.5
725.4034,565.7
725.5576,100606.3
725.7151,90.6
726.0283,3786.8
726.1693,400.6
726.3244,591.6
726.439,214.4
726.5024,731.7
726.561,36987.4
726.7838,952.1
727.0437,1066.6
727.2791,179.6
727.5639,5804.9
727.6459,111.8
727.928,283.7
728.0358,141.4
728.5204,2378.4
728.7815,596.6
728.9121,648.4
728.9592,91
728.9912,896
729.5909,17966.1
729.8095,121.5
730.0309,138.6
730.539,9061.2
730.5948,3367.2
730.715,199.9
731.0226,499.7
731.3267,218.7
731.3553,220.1
731.542,1664.5
731.6075,7233.7
731.7092,913.1
732.0103,537.4
732.0823,499.6
732.3846,516.1
732.4405,556.2
732.4793,1520.5
732.5544,46586.8
732.6111,1393.8
732.6951,710.7
732.9129,93.5
733.0556,9721.6
733.3814,403.8
733.5579,17428.1
733.6236,32
733.7734,984.1
733.9657,377.3
734.0187,190.3
734.0778,210.6
734.3775,561.6
734.5708,7189.4
734.976,280.1
735.2903,92.3
735.3795,98.3
735.5734,734.3
735.8206,117.6
735.8939,21.3
735.9111,435.2
735.9839,290.2
736.2983,655.4
736.3968,123.1
736.518,602.1
736.5801,937.2
737.1163,421.5
737.3525,551.8
737.3984,546.1
737.4522,16503
737.6323,115.3
737.7307,1153.8
738.2503,377
738.4548,4429.3
738.5245,581.5
738.6515,229.6
738.7233,305.3
738.7644,115.2
739.0223,570.9
739.0626,9213.6
739.1251,22.2
739.2171,521.8
739.4669,1753.6
739.5159,10151.2
739.852,192
740.0434,219
740.0661,329.6
740.4713,483.4
740.5196,3474.5
740.5918,601.7
740.8586,370.8
741.1219,154.2
741.4373,19.5
741.5316,15134.1
742.0043,1284.7
742.5356,5440
742.5744,4468.4
742.6312,182
743.0026,276
743.2198,127.3
743.2849,609
743.8792,132.3
744.2056,35.2
744.3214,420.5
744.4644,198.7
744.5539,4971.7
744.5914,10199.5
744.677,528.1
745.1345,149.5
745.4784,31497.7
745.5213,183.5
745.5582,1253.8
745.5944,1800.5
745.9459,196.8
746.4824,9618.4
746.571,2115.6
746.6073,3779.1
746.9875,151.4
747.0453,229.8
747.1015,180.8
747.2661,22.3
747.3627,752.2
747.4056,147.5
747.4944,13571
747.6102,516.5
748.0102,690.6
748.3096,820.2
748.4782,1030.2
748.4993,2148.1
748.7596,508.9
749.0136,1302.2
749.0305,558
749.5091,8171.2
749.5332,258.4
749.5635,480.1
749.5972,581.1
750.001,584.1
750.0503,121.2
750.3272,99.2
750.5131,1190.7
750.5467,827.2
750.5639,576.4
750.9517,106.2
751.1458,197.8
751.5731,13073.4
751.6095,240.6
752.0701,1041.3
752.1217,202
752.2871,214.4
752.5208,9732.6
752.5775,1648.4
752.9605,213.8
753.0082,125.4
753.1694,836.5
753.465,123.9
753.5244,4353.2
753.5549,248.2
753.5886,5384.2
753.8639,800
754.1452,355
754.366,870.8
754.537,41178.3
754.5915,1503.9
754.7057,97.6
754.9295,761.8
755.0371,4203.1
755.4561,197.4
755.5404,10371.5
755.6041,754.8
756.0363,250.8
756.115,116.1
756.2045,651.5
756.2917,19.1
756.5543,46696.6
756.7745,187.4
756.9549,109.4
757.0387,298.1
757.3562,134.7
757.4626,100
757.484,759.9
757.5576,16182.1
757.5961,309.8
757.6216,1428.3
757.9663,169.3
758.3499,362.6
758.4132,674.2
758.5701,1146344.4
758.624,625.1
758.9463,696.6
759.0945,180.1
759.5242,217.9
759.5735,506893.7
759.6394,1205.7
759.6687,21.5
759.7359,410.5
759.7585,1021.7
759.9611,102.2
760.3071,25.7
760.5868,357023.5
760.6726,121.4
761.0448,5213.1
761.2898,313.8
761.4177,877.8
761.4528,4379.3
761.5894,172799.6
761.8674,131
761.9301,106.2
762.476,111
762.5924,39468.9
762.6388,530
763.3007,349.3
763.4671,1453.4
763.5183,761.7
763.5953,2591.7
763.9728,154
763.9857,141
764.0529,18.2
764.1431,140.4
764.1989,410.4
764.2791,19.4
764.6853,333.4
764.9827,174.4
765.0542,278
765.3305,879.7
765.8832,21.2
766.5363,5202.5
766.5743,24953.8
766.8758,590.8
767.4935,113.3
767.5781,8242.4
767.8833,561.6
768.1196,289
768.1797,312.9
768.4956,983
768.5526,4550.3
768.5909,54935.6
768.7825,158.3
769.4801,2707.3
769.5235,254
769.5943,21247.1
770.2665,114.6
770.3005,219.6
770.4837,1156.9
770.5107,4856.8
770.5712,547.1
770.608,3655.6
770.6953,221.4
770.9918,3501.6
771.1418,271.5
771.493,1819.8
771.5136,727
771.6069,1116.4
771.9969,594.5
772.1983,99.7
772.2248,197
772.3299,123.9
772.5857,15309.4
772.6213,438.3
772.6656,94
773.0419,564.9
773.259,156.5
773.5046,1969.4
773.5889,4329.7
773.6155,18.4
773.6498,448.6
773.8836,504.7
774.3039,511.6
774.4798,199.2
774.5667,1280.8
774.6004,693.4
775.317,118.7
775.5516,1192.4
775.603,541.4
775.6847,282.2
775.9849,1309.9
776.25,154.1
776.2717,109.5
776.4046,100.6
776.5211,2200.9
776.5812,783.8
776.6881,145.3
776.8808,363.8
777.0081,3443.3
777.421,221.4
777.5253,1386.2
777.8539,112.5
778.006,464.6
778.0441,858.6
778.1221,24.7
778.1844,214.6
778.5364,32970.7
778.7245,85.2
778.7382,135.3
779.2128,234.3
779.5398,16514.7
779.5706,289
779.7743,21.7
779.9609,187
780.3847,648.3
780.465,314.1
780.4818,275
780.5521,797453.6
781.1229,115.7
781.5556,351384.6
781.616,1023.9
781.834,650.4
781.9675,131.5
782.3003,88
782.5698,737886.9
782.6616,461.7
782.6753,432.3
782.7269,805
783.0269,5981.3
783.4684,156.6
783.573,342798.8
783.6348,358.8
783.7581,98
784.3225,173
784.4634,116.7
784.5866,341155.1
784.6402,671
784.8357,338.8
784.8729,314.6
785.5895,171499.5
785.6534,8831.6
785.796,325.7
785.9884,428.9
786.1414,288.8
786.4038,124.4
786.4489,388.4
786.602,323860.8
786.6581,2651
786.7114,350.5
786.7638,420.6
786.9674,622.9
787.1328,167
787.605,154238.3
787.6706,1045.1
787.7239,160
787.839,78.2
788.51,374.9
788.5575,7566.1
788.6054,26864.4
788.6213,12377.1
788.7116,19.2
789.5572,1192.1
789.622,7302.2
789.6527,39.8
790.0429,1643.5
790.3405,430.7
790.573,27934.6
790.6265,513.5
790.6462,457.4
790.8951,18.2
790.9892,594.6
791.3078,99.2
791.5758,10760.3
791.987,646.2
792.3459,316.8
792.4607,581.3
792.4893,1130.6
792.5205,254.5
792.5508,1614.5
792.5909,11187.4
792.7505,297.1
792.8837,141.2
792.9849,1291.7
793.2234,148.1
793.3545,354.2
793.3878,459.4
793.5938,3100.3
793.6292,658.2
793.7334,239
794.51,3390.1
794.5688,6876.6
794.6066,48582
794.7256,1396.3
794.8346,1281.4
795.2435,459
795.3455,134.2
795.5117,741.3
795.6099,22849
795.6509,224.3
796.0163,272.1
796.526,173988.3
796.5555,944.7
796.5863,6648.2
796.6239,6107.1
796.9749,223.4
797.024,137.1
797.0408,293
797.5292,70360.9
797.588,1713.3
797.6249,1628.8
797.6924,91.9
797.7644,474
798.0969,19
798.1976,150.2
798.3671,698.1
798.543,42207.4
798.6038,619.9
798.9997,1021.4
799.1734,96.8
799.5452,17629.3
799.608,205.9
799.6695,1574.9
800.1203,120.5
800.3558,130.6
800.4206,244.3
800.519,661
800.6747,289.8
801.546,887.8
801.7365,20.6
802.0438,672
802.092,280.1
802.1619,437.5
802.5367,24854.5
803.5394,10083.1
803.8406,319.2
803.9521,34.6
804.1007,404.1
804.3156,317.6
804.5521,377062.8
804.7033,693.9
804.7815,167.1
804.8092,660.1
805.4274,672.6
805.5554,178960.9
805.6847,179
805.9815,549.3
806.4294,474.7
806.4757,100.5
806.5191,393.2
806.5692,319695.7
807.0689,165.5
807.5722,159886.4
807.6374,1331.6
808.331,1423.2
808.5851,242878.8
808.6367,503.1
808.8188,241.3
809.1566,81.1
809.4671,1590.4
809.5881,125228.9
809.6523,1075.8
810.0967,106.8
810.2647,19.9
810.4924,130.4
810.546,580.6
810.602,175877
810.6647,176.7
810.6911,21.4
810.9082,182.1
811.0742,424.5
811.5424,285.7
811.6051,84995.5
811.6696,13173.5
812.3402,121.9
812.6193,35029.6
812.673,4114.5
812.7749,182.5
813.0645,197.3
813.4883,294.5
813.5208,647
813.6215,14040.6
813.6861,6578.5
814.0547,1456.9
814.1515,273.4
814.573,3700.8
814.6226,748
814.6884,3276.6
814.7243,529.3
814.8953,1452.1
814.927,222.3
815.3411,19.1
815.5269,233.8
815.6609,122.7
815.683,149.6
815.827,136.2
816.3163,910.2
816.5886,25938
817.3654,20.8
817.592,7636.2
817.7475,18.2
817.7691,19.4
818.3078,494
818.5108,1170.4
818.5666,1397.5
818.6059,2611.5
818.6836,17.9
819.0324,151.5
819.1647,335.9
819.3938,511.1
819.5705,1569.8
819.6122,154.3
819.6897,125.8
819.8186,1958.8
820.0384,434
820.2635,158.8
820.2844,629.9
820.526,85840.1
820.5845,318.2
820.6201,850.6
820.9436,612.4
821.123,743.7
821.5294,36704.6
821.6525,248.6
821.8917,493
822.421,370.1
822.5427,42461.7
822.6487,144.4
822.7688,154.8
823.2408,355.1
823.2671,107.2
823.3962,23.8
823.5455,20293.3
823.6157,313.1
823.6633,20.6
823.7764,258.4
824.1379,701.9
824.2553,723
824.5576,30895.7
825.0947,18.7
825.1659,572.7
825.1853,462.5
825.517,87
825.5609,13433.8
825.714,314.4
825.9189,93.2
825.9627,730.8
826.1778,162.9
826.2175,22.3
826.3313,614.2
826.5329,969.9
827.2475,590.1
827.4704,540.1
827.5284,194
827.7987,642.3
827.9362,582.9
828.1323,560
828.305,121.6
828.5521,87647.9
828.8466,298
829.5555,45883.2
829.6942,718.6
829.9141,310.8
829.928,296.1
830.0852,118
830.2011,652.2
830.3216,582.5
830.5687,61314.1
830.7303,784.4
831.5718,30529.9
831.6986,564.8
831.8222,36.5
832.148,282.8
832.2826,494.2
832.3834,637.3
832.5842,85081.3
832.7644,138.4
832.8204,787
833.2314,104
833.5873,40575
833.653,373
833.7677,20.3
833.8193,128.8
834.4284,92.5
834.4512,374
834.6019,37125.7
834.6517,838
835.0773,1363.2
835.3169,119.7
835.5716,896.1
835.6043,14732.5
835.669,423.4
835.6959,662
835.7791,646.3
836.2551,616.5
836.5463,95.3
836.6188,2081.9
836.8041,270.6
836.8991,1345.6
837.6201,1664.3
837.9433,331.8
837.9903,159.9
838.0752,358.1
838.51,2092.1
838.6422,124.7
838.8137,87.6
839.5167,926.1
839.9205,136.4
840.4335,150.5
840.772,1415.8
840.9337,649.8
840.9746,81.9
841.0128,652.3
842.1999,20
842.3162,19
842.3373,553
842.6364,561
843.1679,292.8
843.4561,284
843.8409,539.7
844.1484,755
844.5261,15109.1
844.8104,189.6
844.913,124.9
845.1257,88
845.5296,8088
846.3751,276.5
846.542,8766
846.6644,88.9
846.7006,830.4
847.1058,442
847.1734,502.6
847.2038,545
847.543,2101.3
848.557,12309.1
848.9198,181.7
849.2056,337.1
849.2942,867
849.5595,5130.9
849.7195,65
849.9887,1717
850.321,284.2
850.491,370.9
850.6031,318.4
850.6576,174.6
851.1259,80.9
851.2157,740.1
851.3408,680
851.6113,294.9
851.7086,19.4
851.799,21.3
851.9207,293
851.95,597.1
852.0136,94.5
852.086,341.2
852.6914,434.2
853.1397,277.1
853.2287,150
853.3918,328.7
853.6081,19.5
853.8069,526.9
853.919,944.1
854.2682,320.6
854.5662,2413.1
854.6784,371
854.8327,669.8
854.966,458.5
855.2842,151.1
855.5744,284.8
855.9214,136.7
856.312,18.6
856.584,3575.1
856.7454,40.7
856.9012,284.1
857.3494,331.2
857.4853,1423.8
857.5859,1563.2
858.6001,1215.8
858.8459,391.5
859.2841,381.7
859.3697,21.1
859.5772,624.3
859.6586,149.6
859.8723,19.7
860.018,304.1
860.2866,91.1
860.5112,816.6
860.5637,432.5
860.6036,483.3
860.9499,232.9
861.0533,192.4
861.4609,189.3
861.7409,1325.1
862.0534,17.4
862.2344,428
862.3954,772.9
863.3708,336.6
863.506,498.1
863.6058,2640.3
863.7262,507.9
863.9508,1392
863.9808,1017.8
864.2112,150.6
864.5268,684.6
864.5759,1665.6
864.9841,100.8
865.1186,491.5
865.2747,454.4
865.4341,99.3
865.6164,1023.1
866.006,550.6
866.0537,335.2
866.1679,292.4
866.3792,133.1
866.5104,724.6
867.1665,545.9
867.4153,151.4
867.644,144.7
868.1527,85.7
868.1778,414.6
868.4142,38.6
868.5999,198.2
868.6183,234.1
868.9009,655
869.1654,133.6
869.3694,175.6
869.5179,1670.1
869.5512,1993.6
869.5829,1827.8
869.6316,748.8
869.6665,2100.3
869.709,3608
869.7375,2851.4
869.7617,2991.7
869.79,2937.5
869.8262,3358.7
869.8652,2783.9
869.9162,575.6
869.9601,1924
870.0066,138
870.246,571.6
870.5012,270.3
870.6779,282.1
871.2752,392.2
871.4099,139.9
871.9695,914.8
872.034,482.1
872.4598,417.7
872.6404,483.6
872.7418,301.3
873.0051,451.6
873.5323,399.5
874.0863,635.1
874.6993,203.8
874.7692,1415.2
874.8001,532.3
874.8881,490.2
874.9217,399.8
875.1862,98.7
876.0781,283.5
876.452,154.3
876.8464,554.5
877.2766,297.9
877.3221,83.8
877.4572,1119.5
877.8979,97.7
877.9901,699.6
878.5566,1255.7
879.523,533.4
879.6982,373.6
880.2595,217.2
880.3386,144.4
880.4704,437.4
880.508,373.4
880.604,91.5
880.7565,153.9
881.1168,444.1
882.3218,117
882.5001,46.1
882.5728,299.1
882.8786,360
883.0958,754.1
883.9624,256
884.1237,137.3
884.2612,752.7
884.4108,299.7
884.8328,588.6
885.0953,580
885.1184,833.8
885.3182,3014.8
885.402,440.4
885.4766,480.4
885.827,442.1
885.8858,206.3
886.4293,101.3
887.1151,128.7
887.7181,86.3
887.7476,202.3
887.9143,268
887.9904,172.7
888.159,123.2
888.5729,530.5
888.7286,532
888.761,430.9
889.0537,449.4
889.6023,174.3
889.6925,32.3
889.9724,846.7
890.584,818.8
890.646,80.6
890.6727,92.9
890.7433,1341.6
890.7662,577.1
890.8469,1373.8
891.2992,17.1
891.8977,18.5
892.5192,37.2
892.9002,90.1
892.9359,19
893.0387,764.6
893.9101,17.8
894.558,794
895.1327,303.3
895.1787,146.9
895.3622,25.3
895.4343,99.4
895.4637,532.9
895.8785,545
895.9056,1041.5
895.958,687.8
896.3547,19.9
896.6597,289.6
896.6978,142.6
897.0594,125.4
897.1121,552.2
898.0776,270.3
898.2084,177.7
898.2811,606
899.2914,125.8
899.4666,738.3
899.5024,98.9
899.5902,414
899.8892,634.7
900.2052,367.4
900.2987,688
900.6122,450.3
900.7564,646
901.4376,254
902.0121,368.4
902.3898,18.2
902.9942,1183.8
903.0209,672.6
903.5126,978.9
904.1288,35.7
905.2442,495.4
905.7508,21.1
906.5209,496.6
906.7647,22.5
907.3095,2250.6
907.4013,223.6
907.5357,687.7
908.1511,151.2
908.8138,715.2
908.8778,1256.3
909.125,339
909.3203,366.8
909.3454,211.2
909.4927,182.1
910.0023,426.9
910.4439,157.5
910.4849,97.2
910.92,90.2
911.3453,735.8
911.4811,748.8
911.6687,413.7
911.8969,19.1
912.7563,405.7
913.5801,865.8
913.6375,528.5
913.8004,883.6
913.8603,169.7
914.0035,690
914.0634,180.1
914.2634,511.6
914.3045,710.1
914.4001,541.4
914.6385,206
914.8559,410.3
914.8904,251.3
915.3305,370.4
915.4421,21.5
915.8533,924.5
915.9322,877.6
916.438,220.1
917.0742,173.9
917.1505,115.1
917.4214,24.3
918.0745,321.3
918.5897,1183.5
918.6316,494.7
918.6488,709.1
918.6958,421.2
918.7789,19.6
918.9579,618.6
919.4305,669.7
919.4959,597.8
919.526,538
919.7862,632.6
920.5599,172.1
920.8476,123.4
921.3286,568.5
921.3776,270.1
922.0277,99.7
922.1124,35.5
922.2853,1084.6
922.4858,1306.7
922.6794,1093.6
922.7124,540.3
923.185,403.9
923.517,1068.4
923.7147,641.6
923.7762,19.6
923.8282,697.8
923.9913,91.4
924.0814,803.8
924.1198,206.8
924.4005,87.3
925.559,1217.5
926.5922,136.2
926.7138,19.8
926.7735,453.2
927.5832,138.9
928.8107,19.7
928.8433,196.9
929.171,295.8
929.1881,280.2
929.2335,499.6
929.3224,162.3
929.3773,139.2
929.4657,139
929.8056,129
930.4479,83.6
931.3864,432.3
931.8315,108.9
932.2213,532.1
932.4576,1145.6
932.5089,18
932.8618,147.1
933.1268,675.9
933.7874,623.7
934.5973,607.5
934.6207,19.7
936.1035,968.9
936.1521,1789.8
936.256,535.4
936.6875,589.4
936.789,1851.2
936.8568,762.1
936.9264,1613.3
937.0193,994.3
937.2272,786.8
937.2744,366.8
937.5204,379.6
938.2388,603.5
938.3222,600
938.4588,847.3
938.7402,504
938.828,38
939.1755,273
939.4632,455.8
939.4951,935.5
939.7081,171.8
939.8001,22.3
940.098,126.5
940.1897,34
940.5728,112.7
940.6882,18.3
940.74,305.4
940.9349,508.4
941.1063,357.9
941.1465,24.2
941.4705,215.5
941.9354,141
942.4618,963.9
942.5749,758.2
943.2181,176.8
943.5275,1359.1
943.7809,910.5
944.2009,290
944.7282,22
945.0504,478.9
945.4609,255.9
945.6582,720.1
946.1007,585.7
946.1685,404.5
947.3683,220.1
947.6534,436.9
947.9352,655.5
948.0842,522
948.2324,643.7
948.3666,973.7
948.413,21
948.7537,23.7
949.0422,962.2
949.1227,590.7
949.5205,520.5
950.2763,526.3
950.2977,574.7
950.3269,224.7
950.3388,158.4
950.4813,147.4
950.5908,401.9
950.6106,713.8
950.8465,307.7
951.2796,539.9
951.7055,2093.7
951.7922,19.8
952.001,838.9
952.1658,517.9
952.4775,255.4
952.7061,427.3
952.9054,401.5
953.2659,200.7
953.3726,249.8
953.4192,529
954.0165,290.7
954.1948,652.4
954.3644,938.8
954.4103,562.6
954.4992,544.5
954.8899,127.8
954.9184,22.7
956.069,340
956.6486,157.9
956.6828,429.2
956.7289,149.5
956.7574,276
956.7725,303.4
956.9672,847.8
957.3591,287.5
957.4378,464.2
957.5528,1516.3
957.6058,600.9
957.8252,1046.4
957.8897,232.6
958.0245,294
958.2219,169.1
958.4167,802.7
959.0451,125.5
959.0677,36.4
959.1968,162.9
959.409,183.6
959.5527,618.6
959.803,211.4
960.9443,144
961.3601,618.5
961.4919,122.5
961.681,156
961.7194,603.8
962.2089,93.3
962.3508,611.6
962.5478,22.9
963.1615,116.2
963.44,19.2
963.6095,109.4
963.9245,189.6
964.5641,273.6
964.6054,468.6
965.0286,226.9
965.0558,126
965.3412,1070.3
965.4054,1637.8
965.6092,102.9
965.6833,136.4
965.7939,745.3
966.1773,482.2
967.1882,115
967.3805,423.5
967.4952,301.9
967.5577,92.1
967.5912,107.4
967.9228,352.3
968.6073,95.3
969.1491,151.7
969.4359,154.2
969.5835,161.1
970.2842,37.2
970.3833,190.3
970.9403,576.9
971.0636,218.7
971.2506,173.7
971.3974,642.8
972.0595,88.1
972.2664,934.5
972.4819,83.9
972.8313,448.9
972.8899,801.1
973.3608,396.1
973.7743,323.6
975.3726,279.3
975.5838,602.3
975.9651,105.3
976.2716,22.4
976.5093,633.3
977.1639,582.5
977.5256,511.2
977.5501,97.1
977.7545,101.8
977.9815,683.7
978.5345,1505.1
978.8748,135.6
978.9163,212.6
978.9978,134.5
979.1511,2112.8
979.2531,605.5
979.4915,124
979.76,141.6
979.8645,87.8
979.9678,204.6
980.0932,447.1
980.1197,458.5
980.6721,908.5
981.6846,264.3
981.8886,422
982.0037,304.9
982.0791,171.6
982.5087,18.3
982.5786,931.5
982.6607,198.4
983.3626,157
983.6277,35.1
983.9117,1059.1
984.3143,101.7
984.3466,102.3
984.381,630.6
984.5141,387
984.5997,412.4
984.7893,1117.1
984.8292,348.9
984.8765,147.9
985.7397,343.6
986.0132,1094.6
986.1894,105.3
986.4125,796.8
986.4895,163.2
986.6473,2135.1
986.7455,142.1
986.9117,775.4
987.0853,166
987.2714,1102
987.3178,97.4
987.4774,874
987.5439,237.2
987.5889,892.4
988.1666,19.3
988.2107,174.3
988.3968,21.2
988.5647,1040
988.6223,354.2
989.0454,982.8
989.5849,156.6
989.7899,316.7
989.9395,1432.7
990.4359,19.5
990.4858,470.2
990.5157,822.6
990.8986,226.4
990.9469,1305.5
990.986,442.4
991.013,280.5
991.1514,321.9
991.1868,440.9
991.4924,846.6
992.3528,678.5
993.4515,1193.2
993.6953,606.3
993.7411,878.1
994.1737,20.1
994.7601,462.7
994.8382,440.3
994.9605,560.4
995.2476,641.4
995.3696,158.2
995.4926,703.9
995.847,317.2
996.2599,336.9
996.5167,727.8
996.9096,422.5
996.9644,134.2
997.0807,566.6
997.1552,1821.1
997.3465,749.7
997.4304,373.4
998.5178,586.2
998.7803,1996.5
998.8838,89.3
999.3077,114.1
999.5586,21.3
999.6057,74
999.7954,411.4
